Data from USB4F104151__73__14-30-24-874.txt Node

Date: Thu Mar 13 14:30:24 EDT 2025
User: louis
Spectrometer: USB4F10415
Trigger mode: 4
Integration Time (sec): 2.500000E-2
Scans to average: 1
Electric dark correction enabled: true
Nonlinearity correction enabled: false
Boxcar width: 0
XAxis mode: Wavelengths
Number of Pixels in Spectrum: 3648
>>>>>Begin Spectral Data<<<<<
178.204	-193.02
178.424	-193.02
178.644	-193.02
178.864	-166.4
179.084	-84.48
179.304	-4.61
179.524	9.73
179.744	-96.77
179.964	99.84
180.184	-27.14
180.404	58.88
180.624	-20.99
180.844	-27.14
181.064	-39.42
181.283	22.02
181.503	-47.62
181.723	73.21
181.943	-72.19
182.163	22.02
182.383	46.59
182.602	46.59
182.822	42.5
183.042	36.35
183.262	40.45
183.482	73.21
183.701	67.07
183.921	9.73
184.141	30.21
184.361	83.45
184.58	-0.51
184.8	30.21
185.02	34.3
185.239	62.98
185.459	28.16
185.679	-27.14
185.898	-53.76
186.118	58.88
186.338	-2.56
186.557	5.63
186.777	19.97
186.997	17.92
187.216	48.64
187.436	91.65
187.655	44.54
187.875	17.92
188.095	36.35
188.314	91.65
188.534	97.79
188.753	32.26
188.973	69.12
189.192	24.06
189.412	42.5
189.631	40.45
189.851	-4.61
190.07	30.21
190.29	30.21
190.509	-6.66
190.729	9.73
190.948	110.08
191.168	83.45
191.387	83.45
191.607	19.97
191.826	-64
192.045	38.4
192.265	32.26
192.484	19.97
192.704	-2.56
192.923	-35.33
193.142	83.45
193.362	58.88
193.581	36.35
193.8	38.4
194.02	58.88
194.239	83.45
194.458	-6.66
194.678	40.45
194.897	79.36
195.116	-29.18
195.335	-20.99
195.555	50.69
195.774	1.54
195.993	34.3
196.212	30.21
196.432	24.06
196.651	38.4
196.87	-31.23
197.089	44.54
197.308	-10.75
197.528	69.12
197.747	9.73
197.966	58.88
198.185	118.27
198.404	15.87
198.623	91.65
198.842	77.31
199.062	58.88
199.281	114.17
199.5	40.45
199.719	34.3
199.938	-18.94
200.157	62.98
200.376	-20.99
200.595	36.35
200.814	30.21
201.033	-16.9
201.252	95.74
201.471	75.26
201.69	44.54
201.909	38.4
202.128	58.88
202.347	-2.56
202.566	28.16
202.785	-35.33
203.004	-64
203.223	120.32
203.442	-10.75
203.661	9.73
203.879	34.3
204.098	169.47
204.317	62.98
204.536	67.07
204.755	-37.38
204.974	81.41
205.193	44.54
205.411	144.89
205.63	36.35
205.849	36.35
206.068	-27.14
206.287	-23.04
206.505	62.98
206.724	-27.14
206.943	1.54
207.162	-31.23
207.381	26.11
207.599	-6.66
207.818	46.59
208.037	-18.94
208.255	1.54
208.474	62.98
208.693	62.98
208.911	38.4
209.13	50.69
209.349	62.98
209.567	22.02
209.786	99.84
210.005	-43.52
210.223	42.5
210.442	-4.61
210.661	77.31
210.879	42.5
211.098	-12.8
211.316	42.5
211.535	101.89
211.753	81.41
211.972	73.21
212.191	1.54
212.409	22.02
212.628	42.5
212.846	26.11
213.065	22.02
213.283	42.5
213.502	67.07
213.72	-39.42
213.938	3.58
214.157	5.63
214.375	50.69
214.594	-33.28
214.812	-6.66
215.031	5.63
215.249	1.54
215.467	15.87
215.686	26.11
215.904	-2.56
216.122	58.88
216.341	75.26
216.559	-39.42
216.778	103.93
216.996	5.63
217.214	-14.85
217.432	13.82
217.651	11.78
217.869	50.69
218.087	17.92
218.306	73.21
218.524	52.74
218.742	19.97
218.96	-55.81
219.179	-27.14
219.397	17.92
219.615	120.32
219.833	9.73
220.051	11.78
220.27	52.74
220.488	50.69
220.706	11.78
220.924	-37.38
221.142	11.78
221.36	-6.66
221.578	58.88
221.796	58.88
222.015	30.21
222.233	22.02
222.451	99.84
222.669	19.97
222.887	60.93
223.105	17.92
223.323	-8.7
223.541	3.58
223.759	-12.8
223.977	9.73
224.195	83.45
224.413	71.17
224.631	17.92
224.849	-2.56
225.067	87.55
225.285	46.59
225.503	40.45
225.721	-37.38
225.939	44.54
226.157	50.69
226.375	67.07
226.592	19.97
226.81	42.5
227.028	67.07
227.246	93.69
227.464	5.63
227.682	9.73
227.9	46.59
228.117	-39.42
228.335	26.11
228.553	-14.85
228.771	67.07
228.989	79.36
229.206	-23.04
229.424	-37.38
229.642	89.6
229.86	-23.04
230.077	73.21
230.295	108.03
230.513	89.6
230.731	126.46
230.948	95.74
231.166	99.84
231.384	-6.66
231.601	11.78
231.819	34.3
232.037	-2.56
232.254	36.35
232.472	28.16
232.689	50.69
232.907	-14.85
233.125	9.73
233.342	-8.7
233.56	32.26
233.777	-10.75
233.995	-6.66
234.213	62.98
234.43	-31.23
234.648	91.65
234.865	19.97
235.083	85.5
235.3	3.58
235.518	36.35
235.735	69.12
235.953	93.69
236.17	26.11
236.388	36.35
236.605	36.35
236.822	132.61
237.04	69.12
237.257	89.6
237.475	-14.85
237.692	30.21
237.909	56.83
238.127	-23.04
238.344	19.97
238.562	69.12
238.779	17.92
238.996	5.63
239.214	28.16
239.431	-10.75
239.648	-39.42
239.865	34.3
240.083	54.78
240.3	75.26
240.517	22.02
240.735	38.4
240.952	91.65
241.169	50.69
241.386	-35.33
241.603	71.17
241.821	42.5
242.038	30.21
242.255	19.97
242.472	-51.71
242.689	67.07
242.907	151.04
243.124	85.5
243.341	3.58
243.558	13.82
243.775	30.21
243.992	-29.18
244.209	22.02
244.426	71.17
244.643	36.35
244.86	-16.9
245.078	99.84
245.295	46.59
245.512	44.54
245.729	3.58
245.946	34.3
246.163	87.55
246.38	-6.66
246.597	26.11
246.814	38.4
247.031	69.12
247.248	34.3
247.464	108.03
247.681	75.26
247.898	34.3
248.115	93.69
248.332	-31.23
248.549	1.54
248.766	75.26
248.983	5.63
249.2	3.58
249.417	69.12
249.633	30.21
249.85	24.06
250.067	34.3
250.284	34.3
250.501	83.45
250.717	62.98
250.934	-10.75
251.151	3.58
251.368	67.07
251.585	112.13
251.801	36.35
252.018	-23.04
252.235	71.17
252.451	44.54
252.668	3.58
252.885	85.5
253.102	95.74
253.318	91.65
253.535	9.73
253.752	52.74
253.968	-4.61
254.185	-20.99
254.401	30.21
254.618	110.08
254.835	36.35
255.051	28.16
255.268	-20.99
255.484	24.06
255.701	34.3
255.917	54.78
256.134	7.68
256.351	67.07
256.567	15.87
256.784	38.4
257	22.02
257.217	83.45
257.433	17.92
257.65	30.21
257.866	95.74
258.082	-33.28
258.299	17.92
258.515	42.5
258.732	26.11
258.948	30.21
259.165	89.6
259.381	62.98
259.597	9.73
259.814	60.93
260.03	26.11
260.246	-6.66
260.463	17.92
260.679	83.45
260.895	-2.56
261.112	26.11
261.328	-0.51
261.544	-4.61
261.761	81.41
261.977	108.03
262.193	-59.9
262.409	56.83
262.626	30.21
262.842	44.54
263.058	36.35
263.274	34.3
263.49	62.98
263.707	69.12
263.923	56.83
264.139	22.02
264.355	75.26
264.571	108.03
264.787	58.88
265.004	93.69
265.22	28.16
265.436	-12.8
265.652	-14.85
265.868	52.74
266.084	-12.8
266.3	67.07
266.516	-2.56
266.732	13.82
266.948	42.5
267.164	-33.28
267.38	17.92
267.596	99.84
267.812	91.65
268.028	46.59
268.244	-14.85
268.46	69.12
268.676	-14.85
268.892	101.89
269.108	-55.81
269.324	-12.8
269.54	-2.56
269.756	140.8
269.972	11.78
270.188	58.88
270.403	-12.8
270.619	24.06
270.835	-29.18
271.051	91.65
271.267	-14.85
271.483	65.02
271.698	-0.51
271.914	-6.66
272.13	-14.85
272.346	26.11
272.562	87.55
272.777	46.59
272.993	46.59
273.209	19.97
273.425	38.4
273.64	-31.23
273.856	83.45
274.072	62.98
274.287	13.82
274.503	44.54
274.719	50.69
274.934	62.98
275.15	17.92
275.366	11.78
275.581	11.78
275.797	44.54
276.012	116.22
276.228	30.21
276.444	67.07
276.659	52.74
276.875	-31.23
277.09	77.31
277.306	-6.66
277.521	81.41
277.737	85.5
277.952	44.54
278.168	1.54
278.383	54.78
278.599	79.36
278.814	93.69
279.03	73.21
279.245	38.4
279.461	34.3
279.676	75.26
279.892	42.5
280.107	-2.56
280.322	13.82
280.538	67.07
280.753	50.69
280.969	75.26
281.184	34.3
281.399	13.82
281.615	9.73
281.83	44.54
282.045	-12.8
282.26	-12.8
282.476	60.93
282.691	71.17
282.906	26.11
283.122	60.93
283.337	-6.66
283.552	69.12
283.767	67.07
283.983	79.36
284.198	1.54
284.413	11.78
284.628	1.54
284.843	71.17
285.058	83.45
285.274	54.78
285.489	-55.81
285.704	17.92
285.919	44.54
286.134	17.92
286.349	1.54
286.564	28.16
286.779	83.45
286.995	108.03
287.21	11.78
287.425	69.12
287.64	40.45
287.855	26.11
288.07	-80.38
288.285	85.5
288.5	38.4
288.715	83.45
288.93	99.84
289.145	22.02
289.36	44.54
289.575	85.5
289.79	42.5
290.004	-27.14
290.219	93.69
290.434	-6.66
290.649	34.3
290.864	93.69
291.079	-14.85
291.294	22.02
291.509	-25.09
291.724	42.5
291.938	-14.85
292.153	38.4
292.368	-2.56
292.583	83.45
292.798	42.5
293.012	1.54
293.227	15.87
293.442	3.58
293.657	75.26
293.871	36.35
294.086	5.63
294.301	62.98
294.516	38.4
294.73	60.93
294.945	1.54
295.16	17.92
295.374	155.13
295.589	-10.75
295.804	50.69
296.018	3.58
296.233	101.89
296.447	99.84
296.662	50.69
296.877	38.4
297.091	34.3
297.306	15.87
297.52	46.59
297.735	36.35
297.949	13.82
298.164	34.3
298.378	26.11
298.593	-23.04
298.807	1.54
299.022	-12.8
299.236	75.26
299.451	60.93
299.665	-31.23
299.88	42.5
300.094	60.93
300.309	30.21
300.523	9.73
300.737	-31.23
300.952	71.17
301.166	42.5
301.381	28.16
301.595	83.45
301.809	-49.66
302.024	11.78
302.238	-27.14
302.452	73.21
302.667	46.59
302.881	67.07
303.095	108.03
303.309	54.78
303.524	-6.66
303.738	42.5
303.952	38.4
304.166	52.74
304.381	-37.38
304.595	105.98
304.809	-12.8
305.023	17.92
305.237	32.26
305.452	-2.56
305.666	17.92
305.88	34.3
306.094	-14.85
306.308	1.54
306.522	-16.9
306.736	67.07
306.95	85.5
307.164	71.17
307.379	110.08
307.593	67.07
307.807	50.69
308.021	42.5
308.235	42.5
308.449	24.06
308.663	34.3
308.877	52.74
309.091	19.97
309.305	93.69
309.519	13.82
309.733	11.78
309.947	30.21
310.161	67.07
310.374	54.78
310.588	108.03
310.802	9.73
311.016	79.36
311.23	52.74
311.444	-55.81
311.658	46.59
311.872	9.73
312.085	9.73
312.299	50.69
312.513	75.26
312.727	46.59
312.941	-6.66
313.154	54.78
313.368	58.88
313.582	22.02
313.796	50.69
314.009	-61.95
314.223	56.83
314.437	89.6
314.651	91.65
314.864	36.35
315.078	46.59
315.292	-16.9
315.505	-18.94
315.719	48.64
315.933	30.21
316.146	-70.14
316.36	75.26
316.573	95.74
316.787	11.78
317.001	28.16
317.214	62.98
317.428	38.4
317.641	-31.23
317.855	75.26
318.068	46.59
318.282	22.02
318.495	65.02
318.709	67.07
318.922	77.31
319.136	136.7
319.349	42.5
319.563	34.3
319.776	17.92
319.99	60.93
320.203	83.45
320.417	75.26
320.63	60.93
320.843	97.79
321.057	67.07
321.27	91.65
321.483	52.74
321.697	73.21
321.91	44.54
322.124	44.54
322.337	132.61
322.55	-4.61
322.763	65.02
322.977	62.98
323.19	13.82
323.403	52.74
323.617	-35.33
323.83	46.59
324.043	58.88
324.256	11.78
324.469	-18.94
324.683	50.69
324.896	50.69
325.109	36.35
325.322	42.5
325.535	85.5
325.748	75.26
325.962	77.31
326.175	69.12
326.388	69.12
326.601	85.5
326.814	65.02
327.027	17.92
327.24	17.92
327.453	-8.7
327.666	34.3
327.879	56.83
328.092	50.69
328.305	-43.52
328.518	7.68
328.731	9.73
328.944	85.5
329.157	7.68
329.37	136.7
329.583	3.58
329.796	124.41
330.009	30.21
330.222	34.3
330.435	9.73
330.648	44.54
330.861	11.78
331.073	34.3
331.286	58.88
331.499	60.93
331.712	-39.42
331.925	83.45
332.138	44.54
332.35	124.41
332.563	-14.85
332.776	7.68
332.989	-4.61
333.202	17.92
333.414	-35.33
333.627	60.93
333.84	-31.23
334.053	30.21
334.265	34.3
334.478	62.98
334.691	81.41
334.903	136.7
335.116	15.87
335.329	9.73
335.541	97.79
335.754	151.04
335.966	32.26
336.179	132.61
336.392	91.65
336.604	34.3
336.817	1.54
337.029	81.41
337.242	34.3
337.454	58.88
337.667	85.5
337.88	50.69
338.092	67.07
338.305	24.06
338.517	130.56
338.729	-10.75
338.942	38.4
339.154	-6.66
339.367	50.69
339.579	50.69
339.792	52.74
340.004	140.8
340.217	71.17
340.429	50.69
340.641	71.17
340.854	38.4
341.066	38.4
341.278	36.35
341.491	56.83
341.703	-14.85
341.915	22.02
342.128	46.59
342.34	85.5
342.552	42.5
342.764	71.17
342.977	22.02
343.189	42.5
343.401	19.97
343.613	-31.23
343.826	69.12
344.038	50.69
344.25	-31.23
344.462	-4.61
344.674	60.93
344.886	71.17
345.099	142.85
345.311	-14.85
345.523	24.06
345.735	54.78
345.947	26.11
346.159	-20.99
346.371	83.45
346.583	67.07
346.795	79.36
347.007	11.78
347.219	52.74
347.431	-14.85
347.643	58.88
347.855	-31.23
348.067	42.5
348.279	-6.66
348.491	75.26
348.703	42.5
348.915	19.97
349.127	50.69
349.339	67.07
349.551	67.07
349.763	97.79
349.975	54.78
350.187	3.58
350.399	30.21
350.61	50.69
350.822	110.08
351.034	26.11
351.246	11.78
351.458	83.45
351.669	-6.66
351.881	95.74
352.093	1.54
352.305	93.69
352.517	42.5
352.728	36.35
352.94	99.84
353.152	85.5
353.363	50.69
353.575	19.97
353.787	77.31
353.999	116.22
354.21	124.41
354.422	50.69
354.633	60.93
354.845	34.3
355.057	36.35
355.268	52.74
355.48	38.4
355.692	-14.85
355.903	26.11
356.115	34.3
356.326	-12.8
356.538	116.22
356.749	1.54
356.961	134.65
357.172	-4.61
357.384	46.59
357.595	103.93
357.807	28.16
358.018	9.73
358.23	44.54
358.441	91.65
358.653	34.3
358.864	13.82
359.075	58.88
359.287	34.3
359.498	22.02
359.709	105.98
359.921	79.36
360.132	60.93
360.344	42.5
360.555	52.74
360.766	126.46
360.977	-6.66
361.189	128.51
361.4	42.5
361.611	42.5
361.823	91.65
362.034	83.45
362.245	9.73
362.456	58.88
362.667	73.21
362.879	-6.66
363.09	-55.81
363.301	42.5
363.512	-33.28
363.723	108.03
363.935	58.88
364.146	95.74
364.357	26.11
364.568	108.03
364.779	-39.42
364.99	153.09
365.201	42.5
365.412	81.41
365.623	26.11
365.834	5.63
366.045	9.73
366.256	9.73
366.467	122.37
366.678	-14.85
366.889	52.74
367.1	-29.18
367.311	75.26
367.522	50.69
367.733	5.63
367.944	58.88
368.155	77.31
368.366	65.02
368.577	116.22
368.788	9.73
368.999	44.54
369.209	34.3
369.42	134.65
369.631	179.71
369.842	11.78
370.053	5.63
370.264	103.93
370.474	-27.14
370.685	1.54
370.896	24.06
371.107	110.08
371.317	79.36
371.528	-29.18
371.739	83.45
371.95	34.3
372.16	83.45
372.371	-8.7
372.582	95.74
372.792	52.74
373.003	67.07
373.214	112.13
373.424	60.93
373.635	30.21
373.846	65.02
374.056	-37.38
374.267	56.83
374.477	30.21
374.688	11.78
374.898	-6.66
375.109	-23.04
375.319	32.26
375.53	52.74
375.74	50.69
375.951	50.69
376.161	75.26
376.372	58.88
376.582	60.93
376.793	114.17
377.003	67.07
377.214	17.92
377.424	7.68
377.635	-18.94
377.845	-4.61
378.055	155.13
378.266	26.11
378.476	5.63
378.686	30.21
378.897	26.11
379.107	87.55
379.317	69.12
379.528	118.27
379.738	19.97
379.948	108.03
380.158	140.8
380.369	83.45
380.579	124.41
380.789	17.92
380.999	151.04
381.21	116.22
381.42	101.89
381.63	-14.85
381.84	83.45
382.05	58.88
382.261	50.69
382.471	67.07
382.681	60.93
382.891	140.8
383.101	50.69
383.311	9.73
383.521	13.82
383.731	46.59
383.941	26.11
384.151	42.5
384.361	103.93
384.571	87.55
384.781	91.65
384.991	30.21
385.201	173.57
385.411	58.88
385.621	19.97
385.831	52.74
386.041	65.02
386.251	87.55
386.461	85.5
386.671	67.07
386.881	17.92
387.091	116.22
387.301	58.88
387.511	99.84
387.72	87.55
387.93	44.54
388.14	26.11
388.35	48.64
388.56	132.61
388.769	159.23
388.979	77.31
389.189	19.97
389.399	118.27
389.609	69.12
389.818	175.61
390.028	34.3
390.238	28.16
390.447	75.26
390.657	108.03
390.867	87.55
391.076	7.68
391.286	85.5
391.496	81.41
391.705	75.26
391.915	87.55
392.125	159.23
392.334	124.41
392.544	157.18
392.753	81.41
392.963	83.45
393.172	101.89
393.382	73.21
393.591	83.45
393.801	83.45
394.01	120.32
394.22	101.89
394.429	140.8
394.639	165.37
394.848	103.93
395.058	73.21
395.267	132.61
395.477	50.69
395.686	105.98
395.895	144.89
396.105	181.76
396.314	169.47
396.524	30.21
396.733	128.51
396.942	87.55
397.152	95.74
397.361	124.41
397.57	77.31
397.78	148.99
397.989	85.5
398.198	114.17
398.407	105.98
398.617	124.41
398.826	36.35
399.035	165.37
399.244	112.13
399.453	95.74
399.663	77.31
399.872	105.98
400.081	79.36
400.29	161.28
400.499	128.51
400.708	167.42
400.917	103.93
401.127	91.65
401.336	110.08
401.545	144.89
401.754	110.08
401.963	132.61
402.172	134.65
402.381	110.08
402.59	112.13
402.799	140.8
403.008	146.94
403.217	218.62
403.426	185.85
403.635	71.17
403.844	173.57
404.053	124.41
404.262	241.15
404.471	181.76
404.68	99.84
404.888	169.47
405.097	148.99
405.306	214.52
405.515	202.24
405.724	161.28
405.933	247.29
406.142	192
406.35	183.81
406.559	271.87
406.768	167.42
406.977	198.14
407.185	273.92
407.394	200.19
407.603	288.25
407.812	251.39
408.02	271.87
408.229	318.97
408.438	253.44
408.646	226.81
408.855	296.44
409.064	327.16
409.272	267.77
409.481	298.49
409.69	308.73
409.898	306.68
410.107	368.12
410.315	351.74
410.524	321.02
410.733	374.27
410.941	452.09
411.15	460.28
411.358	488.95
411.567	501.24
411.775	501.24
411.984	427.51
412.192	493.05
412.401	525.82
412.609	577.02
412.818	566.78
413.026	609.78
413.234	587.26
413.443	574.97
413.651	607.73
413.86	695.8
414.068	689.65
414.276	732.66
414.485	673.27
414.693	712.18
414.901	863.73
415.11	798.2
415.318	902.64
415.526	775.67
415.734	845.3
415.943	951.79
416.151	935.41
416.359	902.64
416.567	984.56
416.776	1052.14
416.984	1109.49
417.192	1109.49
417.4	1109.49
417.608	1172.97
417.817	1279.47
418.025	1207.79
418.233	1232.37
418.441	1267.18
418.649	1334.76
418.857	1467.88
419.065	1476.07
419.273	1484.27
419.481	1601
419.689	1654.25
419.897	1748.45
420.105	1779.17
420.313	1758.69
420.521	1846.76
420.729	1861.09
420.937	1893.86
421.145	2051.55
421.353	2248.16
421.561	2196.96
421.769	2180.57
421.977	2356.7
422.185	2336.22
422.393	2526.68
422.601	2727.38
422.809	2667.99
423.017	2520.54
423.224	2663.9
423.432	2915.8
423.64	2948.56
423.848	3186.13
424.056	3136.98
424.263	3186.13
424.471	3237.33
424.679	3341.77
424.887	3501.51
425.094	3612.1
425.302	3626.44
425.51	3763.65
425.718	3870.15
425.925	3907.01
426.133	4111.81
426.341	4314.56
426.548	4500.92
426.756	4449.72
426.964	4543.93
427.171	4793.78
427.379	4890.04
427.586	5123.51
427.794	5137.84
428.001	5420.46
428.209	5746.09
428.417	5490.09
428.624	6067.62
428.832	5928.36
429.039	5873.06
429.247	5817.77
429.454	6368.67
429.662	6786.46
429.869	6358.43
430.076	6968.73
430.284	6632.86
430.491	7120.28
430.699	7488.91
430.906	7308.69
431.114	7431.57
431.321	7835.02
431.528	7878.02
431.736	8373.63
431.943	8795.51
432.15	8369.54
432.358	8486.27
432.565	9166.2
432.772	8938.87
432.979	9389.42
433.187	9526.64
433.394	9762.16
433.601	10358.11
433.808	10394.98
434.016	10251.62
434.223	10638.69
434.43	11330.9
434.637	10917.21
434.844	11763.02
435.052	11920.71
435.259	12219.72
435.466	12084.55
435.673	12074.31
435.88	12498.24
436.087	13321.52
436.294	13284.66
436.501	13004.09
436.708	13405.49
436.915	13700.4
437.122	14163.24
437.329	14292.26
437.537	14687.52
437.743	15076.63
437.95	14837.02
438.157	15310.1
438.364	16123.15
438.571	16047.37
438.778	16108.81
438.985	17827.06
439.192	17022.2
439.399	17368.31
439.606	17042.68
439.813	17827.06
440.02	18894.05
440.227	18621.67
440.433	18433.25
440.64	19221.72
440.847	19242.2
441.054	19911.89
441.261	20792.51
441.467	20335.82
441.674	21179.58
441.881	21843.12
442.088	21793.97
442.294	21505.21
442.501	22078.64
442.708	22416.55
442.914	23274.65
443.121	24616.07
443.328	23573.66
443.534	25451.64
443.741	24632.46
443.948	24286.35
444.154	26186.86
444.361	26084.47
444.568	26184.82
444.774	26322.03
444.981	26362.99
445.187	27337.82
445.394	28517.45
445.6	27716.7
445.807	30528.56
446.013	29238.34
446.22	29813.82
446.426	30635.05
446.633	31349.79
446.839	32295.96
447.046	30561.33
447.252	32848.91
447.459	32646.16
447.665	32379.92
447.871	34149.37
448.078	35720.16
448.284	33678.33
448.491	34735.09
448.697	36064.22
448.903	36834.25
449.11	36799.44
449.316	36269.01
449.522	37061.58
449.728	37878.72
449.935	37985.21
450.141	38214.58
450.347	38857.65
450.553	37678.02
450.76	38251.45
450.966	39021.48
451.172	38898.61
451.378	39791.52
451.584	38994.86
451.791	40074.14
451.997	39865.25
452.203	40674.2
452.409	40440.73
452.615	40512.41
452.821	38667.19
453.027	38388.66
453.233	40549.27
453.44	38859.7
453.646	39146.41
453.852	39277.48
454.058	39863.2
454.264	39099.31
454.47	39279.53
454.676	38796.21
454.882	39953.31
455.088	36654.03
455.294	36787.15
455.5	37475.27
455.705	38058.94
455.911	36355.03
456.117	35662.82
456.323	35269.61
456.529	33725.44
456.735	34903.02
456.941	33600.51
457.147	33354.76
457.352	32406.55
457.558	32097.3
457.764	32173.08
457.97	31161.38
458.176	30630.96
458.381	30579.76
458.587	29178.95
458.793	29254.72
458.999	27685.98
459.204	29432.89
459.41	28861.51
459.616	26838.12
459.821	26690.66
460.027	26872.93
460.233	26047.6
460.438	25177.22
460.644	25093.25
460.85	24061.07
461.055	23544.98
461.261	23551.13
461.466	21718.2
461.672	21042.37
461.878	22607.02
462.083	20847.81
462.289	20604.1
462.494	20892.87
462.7	19627.22
462.905	18750.69
463.111	19930.32
463.316	19535.06
463.522	19473.62
463.727	19416.28
463.932	19360.98
464.138	18982.11
464.343	19426.52
464.549	18533.61
464.754	19129.56
464.959	18816.22
465.165	18953.44
465.37	17900.78
465.575	17698.03
465.781	18142.44
465.986	18457.83
466.191	17507.57
466.397	17270.01
466.602	16444.68
466.807	16968.96
467.012	16973.05
467.218	16934.14
467.423	16882.94
467.628	17073.4
