Data from USB4F104151__34__14-29-41-413.txt Node

Date: Thu Mar 13 14:29:41 EDT 2025
User: louis
Spectrometer: USB4F10415
Trigger mode: 4
Integration Time (sec): 2.500000E-2
Scans to average: 1
Electric dark correction enabled: true
Nonlinearity correction enabled: false
Boxcar width: 0
XAxis mode: Wavelengths
Number of Pixels in Spectrum: 3648
>>>>>Begin Spectral Data<<<<<
178.204	-173.22
178.424	-173.22
178.644	-173.22
178.864	-62.63
179.084	-130.22
179.304	52.05
179.524	-40.11
179.744	17.24
179.964	21.33
180.184	39.76
180.404	-5.29
180.624	-9.39
180.844	-7.34
181.064	-38.06
181.283	9.05
181.503	-66.73
181.723	27.48
181.943	-42.15
182.163	60.24
182.383	25.43
182.602	62.29
182.822	39.76
183.042	9.05
183.262	-36.01
183.482	33.62
183.701	11.09
183.921	90.96
184.141	-70.83
184.361	29.52
184.58	43.86
184.8	-25.77
185.02	-7.34
185.239	56.15
185.459	56.15
185.679	-3.24
185.898	-76.97
186.118	23.38
186.338	27.48
186.557	68.44
186.777	-31.91
186.997	-5.29
187.216	-11.43
187.436	90.96
187.655	7
187.875	15.19
188.095	58.2
188.314	58.2
188.534	35.67
188.753	19.29
188.973	23.38
189.192	90.96
189.412	88.92
189.631	-62.63
189.851	-46.25
190.07	62.29
190.29	-29.87
190.509	56.15
190.729	56.15
190.948	21.33
191.168	136.02
191.387	109.4
191.607	7
191.826	117.59
192.045	-50.35
192.265	80.72
192.484	21.33
192.704	70.48
192.923	15.19
193.142	105.3
193.362	-5.29
193.581	43.86
193.8	84.82
194.02	25.43
194.239	17.24
194.458	47.96
194.678	47.96
194.897	29.52
195.116	4.95
195.335	25.43
195.555	31.57
195.774	-31.91
195.993	23.38
196.212	72.53
196.432	80.72
196.651	-5.29
196.87	37.72
197.089	97.11
197.308	15.19
197.528	121.68
197.747	31.57
197.966	37.72
198.185	90.96
198.404	33.62
198.623	41.81
198.842	27.48
199.062	11.09
199.281	99.16
199.5	4.95
199.719	39.76
199.938	9.05
200.157	19.29
200.376	47.96
200.595	76.63
200.814	84.82
201.033	9.05
201.252	52.05
201.471	33.62
201.69	35.67
201.909	50
202.128	131.92
202.347	31.57
202.566	15.19
202.785	17.24
203.004	-56.49
203.223	88.92
203.442	9.05
203.661	-74.92
203.879	-70.83
204.098	90.96
204.317	15.19
204.536	64.34
204.755	-54.44
204.974	56.15
205.193	-1.19
205.411	93.01
205.63	27.48
205.849	15.19
206.068	23.38
206.287	7
206.505	-1.19
206.724	-31.91
206.943	93.01
207.162	41.81
207.381	17.24
207.599	7
207.818	25.43
208.037	7
208.255	-25.77
208.474	31.57
208.693	15.19
208.911	-17.58
209.13	39.76
209.349	64.34
209.567	64.34
209.786	-5.29
210.005	23.38
210.223	11.09
210.442	-7.34
210.661	11.09
210.879	27.48
211.098	-15.53
211.316	15.19
211.535	43.86
211.753	47.96
211.972	-7.34
212.191	25.43
212.409	-5.29
212.628	52.05
212.846	15.19
213.065	39.76
213.283	56.15
213.502	-7.34
213.72	60.24
213.938	-15.53
214.157	15.19
214.375	37.72
214.594	-1.19
214.812	33.62
215.031	35.67
215.249	-38.06
215.467	41.81
215.686	58.2
215.904	107.35
216.122	-19.63
216.341	60.24
216.559	39.76
216.778	191.31
216.996	45.91
217.214	23.38
217.432	9.05
217.651	4.95
217.869	-9.39
218.087	74.58
218.306	64.34
218.524	11.09
218.742	23.38
218.96	-23.72
219.179	54.1
219.397	84.82
219.615	68.44
219.833	-1.19
220.051	-17.58
220.27	47.96
220.488	58.2
220.706	50
220.924	56.15
221.142	-27.82
221.36	99.16
221.578	7
221.796	31.57
222.015	23.38
222.233	52.05
222.451	72.53
222.669	11.09
222.887	70.48
223.105	-52.39
223.323	93.01
223.541	39.76
223.759	31.57
223.977	19.29
224.195	64.34
224.413	21.33
224.631	66.39
224.849	31.57
225.067	39.76
225.285	27.48
225.503	31.57
225.721	-17.58
225.939	-21.67
226.157	64.34
226.375	113.49
226.592	50
226.81	-38.06
227.028	60.24
227.246	113.49
227.464	39.76
227.682	84.82
227.9	66.39
228.117	23.38
228.335	97.11
228.553	52.05
228.771	39.76
228.989	84.82
229.206	45.91
229.424	88.92
229.642	80.72
229.86	70.48
230.077	117.59
230.295	-27.82
230.513	56.15
230.731	25.43
230.948	109.4
231.166	97.11
231.384	29.52
231.601	43.86
231.819	101.2
232.037	13.14
232.254	54.1
232.472	33.62
232.689	17.24
232.907	31.57
233.125	125.78
233.342	23.38
233.56	23.38
233.777	25.43
233.995	76.63
234.213	41.81
234.43	15.19
234.648	-1.19
234.865	45.91
235.083	115.54
235.3	52.05
235.518	64.34
235.735	97.11
235.953	56.15
236.17	-46.25
236.388	25.43
236.605	56.15
236.822	43.86
237.04	107.35
237.257	-1.19
237.475	-7.34
237.692	64.34
237.909	103.25
238.127	17.24
238.344	58.2
238.562	33.62
238.779	-9.39
238.996	31.57
239.214	47.96
239.431	80.72
239.648	25.43
239.865	105.3
240.083	56.15
240.3	35.67
240.517	27.48
240.735	31.57
240.952	74.58
241.169	97.11
241.386	27.48
241.603	-13.48
241.821	25.43
242.038	-48.3
242.255	47.96
242.472	-17.58
242.689	62.29
242.907	64.34
243.124	-33.96
243.341	68.44
243.558	64.34
243.775	109.4
243.992	11.09
244.209	97.11
244.426	97.11
244.643	15.19
244.86	0.85
245.078	52.05
245.295	101.2
245.512	0.85
245.729	80.72
245.946	17.24
246.163	-50.35
246.38	72.53
246.597	95.06
246.814	56.15
247.031	29.52
247.248	39.76
247.464	47.96
247.681	15.19
247.898	68.44
248.115	66.39
248.332	-17.58
248.549	50
248.766	43.86
248.983	0.85
249.2	-13.48
249.417	47.96
249.633	21.33
249.85	23.38
250.067	-11.43
250.284	33.62
250.501	107.35
250.717	80.72
250.934	-48.3
251.151	17.24
251.368	-1.19
251.585	82.77
251.801	72.53
252.018	47.96
252.235	64.34
252.451	-56.49
252.668	39.76
252.885	72.53
253.102	-50.35
253.318	72.53
253.535	43.86
253.752	101.2
253.968	37.72
254.185	-29.87
254.401	-66.73
254.618	68.44
254.835	2.9
255.051	27.48
255.268	39.76
255.484	7
255.701	17.24
255.917	27.48
256.134	-19.63
256.351	72.53
256.567	-1.19
256.784	56.15
257	25.43
257.217	11.09
257.433	58.2
257.65	56.15
257.866	80.72
258.082	45.91
258.299	66.39
258.515	29.52
258.732	-25.77
258.948	29.52
259.165	27.48
259.381	21.33
259.597	15.19
259.814	23.38
260.03	56.15
260.246	31.57
260.463	25.43
260.679	101.2
260.895	47.96
261.112	45.91
261.328	97.11
261.544	17.24
261.761	76.63
261.977	2.9
262.193	-29.87
262.409	9.05
262.626	90.96
262.842	11.09
263.058	-23.72
263.274	68.44
263.49	72.53
263.707	-7.34
263.923	60.24
264.139	37.72
264.355	39.76
264.571	33.62
264.787	15.19
265.004	60.24
265.22	-31.91
265.436	-42.15
265.652	29.52
265.868	88.92
266.084	17.24
266.3	17.24
266.516	19.29
266.732	99.16
266.948	25.43
267.164	15.19
267.38	-9.39
267.596	72.53
267.812	66.39
268.028	72.53
268.244	4.95
268.46	54.1
268.676	-9.39
268.892	56.15
269.108	-15.53
269.324	-15.53
269.54	9.05
269.756	31.57
269.972	35.67
270.188	-7.34
270.403	64.34
270.619	43.86
270.835	43.86
271.051	56.15
271.267	66.39
271.483	115.54
271.698	39.76
271.914	39.76
272.13	43.86
272.346	56.15
272.562	-25.77
272.777	99.16
272.993	-29.87
273.209	-7.34
273.425	-9.39
273.64	17.24
273.856	64.34
274.072	25.43
274.287	15.19
274.503	-5.29
274.719	90.96
274.934	-1.19
275.15	-25.77
275.366	25.43
275.581	-15.53
275.797	35.67
276.012	-13.48
276.228	47.96
276.444	62.29
276.659	66.39
276.875	-13.48
277.09	50
277.306	70.48
277.521	41.81
277.737	39.76
277.952	31.57
278.168	11.09
278.383	31.57
278.599	90.96
278.814	45.91
279.03	41.81
279.245	17.24
279.461	19.29
279.676	93.01
279.892	11.09
280.107	56.15
280.322	31.57
280.538	72.53
280.753	-7.34
280.969	25.43
281.184	41.81
281.399	60.24
281.615	58.2
281.83	43.86
282.045	13.14
282.26	56.15
282.476	27.48
282.691	58.2
282.906	39.76
283.122	37.72
283.337	72.53
283.552	109.4
283.767	-5.29
283.983	113.49
284.198	66.39
284.413	47.96
284.628	-25.77
284.843	25.43
285.058	72.53
285.274	-29.87
285.489	-38.06
285.704	88.92
285.919	11.09
286.134	54.1
286.349	80.72
286.564	64.34
286.779	99.16
286.995	80.72
287.21	17.24
287.425	119.64
287.64	-21.67
287.855	-11.43
288.07	-7.34
288.285	62.29
288.5	39.76
288.715	117.59
288.93	7
289.145	-33.96
289.36	115.54
289.575	4.95
289.79	80.72
290.004	17.24
290.219	97.11
290.434	0.85
290.649	25.43
290.864	56.15
291.079	-50.35
291.294	138.07
291.509	45.91
291.724	-13.48
291.938	17.24
292.153	9.05
292.368	31.57
292.583	27.48
292.798	64.34
293.012	64.34
293.227	39.76
293.442	84.82
293.657	58.2
293.871	17.24
294.086	115.54
294.301	99.16
294.516	101.2
294.73	23.38
294.945	84.82
295.16	52.05
295.374	133.97
295.589	2.9
295.804	-9.39
296.018	31.57
296.233	19.29
296.447	19.29
296.662	60.24
296.877	54.1
297.091	56.15
297.306	-7.34
297.52	-64.68
297.735	88.92
297.949	-17.58
298.164	99.16
298.378	52.05
298.593	41.81
298.807	76.63
299.022	47.96
299.236	105.3
299.451	39.76
299.665	72.53
299.88	23.38
300.094	-13.48
300.309	39.76
300.523	47.96
300.737	31.57
300.952	64.34
301.166	50
301.381	50
301.595	39.76
301.809	37.72
302.024	101.2
302.238	-54.44
302.452	56.15
302.667	33.62
302.881	72.53
303.095	88.92
303.309	62.29
303.524	50
303.738	-17.58
303.952	17.24
304.166	31.57
304.381	-27.82
304.595	23.38
304.809	37.72
305.023	84.82
305.237	-1.19
305.452	68.44
305.666	27.48
305.88	68.44
306.094	47.96
306.308	95.06
306.522	166.74
306.736	33.62
306.95	64.34
307.164	33.62
307.379	31.57
307.593	80.72
307.807	25.43
308.021	97.11
308.235	2.9
308.449	-25.77
308.663	7
308.877	121.68
309.091	45.91
309.305	31.57
309.519	-15.53
309.733	31.57
309.947	0.85
310.161	72.53
310.374	23.38
310.588	43.86
310.802	52.05
311.016	35.67
311.23	33.62
311.444	64.34
311.658	23.38
311.872	15.19
312.085	7
312.299	88.92
312.513	66.39
312.727	19.29
312.941	39.76
313.154	43.86
313.368	99.16
313.582	64.34
313.796	60.24
314.009	2.9
314.223	47.96
314.437	43.86
314.651	119.64
314.864	11.09
315.078	29.52
315.292	47.96
315.505	-31.91
315.719	7
315.933	39.76
316.146	23.38
316.36	-64.68
316.573	95.06
316.787	-9.39
317.001	60.24
317.214	-1.19
317.428	7
317.641	15.19
317.855	74.58
318.068	66.39
318.282	31.57
318.495	19.29
318.709	119.64
318.922	15.19
319.136	93.01
319.349	58.2
319.563	9.05
319.776	111.44
319.99	21.33
320.203	47.96
320.417	50
320.63	23.38
320.843	47.96
321.057	-27.82
321.27	99.16
321.483	80.72
321.697	35.67
321.91	-52.39
322.124	60.24
322.337	7
322.55	-11.43
322.763	-15.53
322.977	-38.06
323.19	15.19
323.403	60.24
323.617	70.48
323.83	56.15
324.043	66.39
324.256	74.58
324.469	-21.67
324.683	78.68
324.896	11.09
325.109	-1.19
325.322	64.34
325.535	93.01
325.748	-5.29
325.962	19.29
326.175	43.86
326.388	76.63
326.601	72.53
326.814	-7.34
327.027	50
327.24	66.39
327.453	-21.67
327.666	50
327.879	-9.39
328.092	80.72
328.305	15.19
328.518	47.96
328.731	19.29
328.944	25.43
329.157	9.05
329.37	90.96
329.583	68.44
329.796	90.96
330.009	7
330.222	88.92
330.435	129.88
330.648	68.44
330.861	50
331.073	47.96
331.286	72.53
331.499	11.09
331.712	4.95
331.925	72.53
332.138	7
332.35	170.83
332.563	33.62
332.776	50
332.989	2.9
333.202	15.19
333.414	2.9
333.627	54.1
333.84	-23.72
334.053	97.11
334.265	33.62
334.478	58.2
334.691	21.33
334.903	33.62
335.116	88.92
335.329	64.34
335.541	103.25
335.754	47.96
335.966	7
336.179	15.19
336.392	17.24
336.604	84.82
336.817	9.05
337.029	9.05
337.242	52.05
337.454	47.96
337.667	31.57
337.88	121.68
338.092	84.82
338.305	68.44
338.517	50
338.729	103.25
338.942	107.35
339.154	-54.44
339.367	23.38
339.579	56.15
339.792	17.24
340.004	64.34
340.217	50
340.429	47.96
340.641	-3.24
340.854	76.63
341.066	88.92
341.278	72.53
341.491	45.91
341.703	41.81
341.915	113.49
342.128	39.76
342.34	56.15
342.552	127.83
342.764	64.34
342.977	-42.15
343.189	29.52
343.401	-17.58
343.613	-7.34
343.826	72.53
344.038	-25.77
344.25	43.86
344.462	0.85
344.674	95.06
344.886	72.53
345.099	74.58
345.311	56.15
345.523	35.67
345.735	4.95
345.947	19.29
346.159	-3.24
346.371	-9.39
346.583	-33.96
346.795	105.3
347.007	-15.53
347.219	19.29
347.431	56.15
347.643	99.16
347.855	78.68
348.067	29.52
348.279	-36.01
348.491	4.95
348.703	13.14
348.915	76.63
349.127	58.2
349.339	74.58
349.551	-25.77
349.763	17.24
349.975	60.24
350.187	97.11
350.399	117.59
350.61	13.14
350.822	131.92
351.034	93.01
351.246	23.38
351.458	15.19
351.669	56.15
351.881	90.96
352.093	66.39
352.305	121.68
352.517	39.76
352.728	25.43
352.94	2.9
353.152	84.82
353.363	19.29
353.575	84.82
353.787	90.96
353.999	52.05
354.21	90.96
354.422	129.88
354.633	45.91
354.845	33.62
355.057	47.96
355.268	82.77
355.48	-29.87
355.692	-5.29
355.903	90.96
356.115	76.63
356.326	4.95
356.538	47.96
356.749	115.54
356.961	138.07
357.172	-38.06
357.384	74.58
357.595	131.92
357.807	72.53
358.018	50
358.23	-17.58
358.441	121.68
358.653	88.92
358.864	15.19
359.075	35.67
359.287	99.16
359.498	117.59
359.709	90.96
359.921	0.85
360.132	-5.29
360.344	47.96
360.555	47.96
360.766	41.81
360.977	-1.19
361.189	125.78
361.4	11.09
361.611	113.49
361.823	84.82
362.034	80.72
362.245	2.9
362.456	88.92
362.667	113.49
362.879	43.86
363.09	39.76
363.301	82.77
363.512	-3.24
363.723	29.52
363.935	23.38
364.146	97.11
364.357	82.77
364.568	58.2
364.779	33.62
364.99	82.77
365.201	4.95
365.412	41.81
365.623	17.24
365.834	129.88
366.045	88.92
366.256	66.39
366.467	84.82
366.678	64.34
366.889	101.2
367.1	47.96
367.311	80.72
367.522	58.2
367.733	31.57
367.944	80.72
368.155	52.05
368.366	133.97
368.577	97.11
368.788	127.83
368.999	47.96
369.209	97.11
369.42	84.82
369.631	95.06
369.842	37.72
370.053	70.48
370.264	33.62
370.474	56.15
370.685	35.67
370.896	31.57
371.107	72.53
371.317	78.68
371.528	60.24
371.739	72.53
371.95	97.11
372.16	101.2
372.371	41.81
372.582	31.57
372.792	17.24
373.003	107.35
373.214	27.48
373.424	117.59
373.635	21.33
373.846	129.88
374.056	66.39
374.267	52.05
374.477	35.67
374.688	39.76
374.898	25.43
375.109	58.2
375.319	105.3
375.53	50
375.74	39.76
375.951	107.35
376.161	82.77
376.372	119.64
376.582	-17.58
376.793	25.43
377.003	41.81
377.214	7
377.424	68.44
377.635	17.24
377.845	-7.34
378.055	131.92
378.266	39.76
378.476	21.33
378.686	-9.39
378.897	25.43
379.107	64.34
379.317	-38.06
379.528	74.58
379.738	50
379.948	111.44
380.158	107.35
380.369	19.29
380.579	107.35
380.789	90.96
380.999	99.16
381.21	29.52
381.42	129.88
381.63	90.96
381.84	23.38
382.05	74.58
382.261	35.67
382.471	64.34
382.681	138.07
382.891	158.55
383.101	29.52
383.311	7
383.521	25.43
383.731	111.44
383.941	88.92
384.151	99.16
384.361	129.88
384.571	68.44
384.781	95.06
384.991	72.53
385.201	109.4
385.411	9.05
385.621	140.12
385.831	7
386.041	50
386.251	56.15
386.461	47.96
386.671	-15.53
386.881	60.24
387.091	50
387.301	84.82
387.511	76.63
387.72	21.33
387.93	113.49
388.14	68.44
388.35	80.72
388.56	129.88
388.769	90.96
388.979	68.44
389.189	0.85
389.399	66.39
389.609	31.57
389.818	82.77
390.028	131.92
390.238	64.34
390.447	39.76
390.657	66.39
390.867	43.86
391.076	56.15
391.286	125.78
391.496	74.58
391.705	19.29
391.915	41.81
392.125	105.3
392.334	93.01
392.544	47.96
392.753	33.62
392.963	58.2
393.172	121.68
393.382	99.16
393.591	121.68
393.801	52.05
394.01	185.17
394.22	68.44
394.429	76.63
394.639	154.45
394.848	82.77
395.058	31.57
395.267	17.24
395.477	168.79
395.686	97.11
395.895	222.03
396.105	215.89
396.314	88.92
396.524	140.12
396.733	105.3
396.942	170.83
397.152	121.68
397.361	107.35
397.57	50
397.78	84.82
397.989	121.68
398.198	80.72
398.407	121.68
398.617	72.53
398.826	109.4
399.035	97.11
399.244	117.59
399.453	58.2
399.663	99.16
399.872	123.73
400.081	90.96
400.29	131.92
400.499	58.2
400.708	113.49
400.917	148.31
401.127	105.3
401.336	74.58
401.545	154.45
401.754	121.68
401.963	119.64
402.172	88.92
402.381	166.74
402.59	113.49
402.799	162.64
403.008	158.55
403.217	90.96
403.426	129.88
403.635	117.59
403.844	195.41
404.053	164.69
404.262	15.19
404.471	121.68
404.68	162.64
404.888	158.55
405.097	113.49
405.306	181.07
405.515	224.08
405.724	181.07
405.933	181.07
406.142	105.3
406.35	246.61
406.559	187.22
406.768	179.03
406.977	242.51
407.185	148.31
407.394	213.84
407.603	195.41
407.812	260.95
408.02	287.57
408.229	277.33
408.438	213.84
408.646	197.46
408.855	310.1
409.064	283.47
409.272	293.71
409.481	310.1
409.69	328.53
409.898	365.39
410.107	367.44
410.315	381.78
410.524	371.54
410.733	359.25
410.941	379.73
411.15	385.87
411.358	428.88
411.567	449.36
411.775	406.35
411.984	447.31
412.192	531.28
412.401	416.59
412.609	521.04
412.818	541.52
413.026	510.8
413.234	416.59
413.443	539.47
413.651	621.39
413.86	662.35
414.068	639.82
414.276	686.92
414.485	633.68
414.693	713.55
414.901	779.08
415.11	756.55
415.318	785.23
415.526	729.93
415.734	869.19
415.943	877.38
416.151	842.57
416.359	883.53
416.567	926.54
416.776	942.92
416.984	1006.41
417.192	1051.46
417.4	1035.08
417.608	1082.18
417.817	1117
418.025	1096.52
418.233	1282.88
418.441	1178.44
418.649	1356.61
418.857	1315.65
419.065	1391.42
419.273	1325.89
419.481	1407.81
419.689	1608.51
419.897	1737.53
420.105	1684.28
420.313	1690.43
420.521	1760.06
420.729	1825.59
420.937	1776.44
421.145	1887.03
421.353	1948.47
421.561	2120.5
421.769	2140.98
421.977	2343.73
422.185	2239.28
422.393	2423.6
422.601	2562.86
422.809	2480.94
423.017	2513.71
423.224	2579.25
423.432	2835.24
423.64	2825
423.848	2917.16
424.056	2857.77
424.263	2964.26
424.471	3083.05
424.679	3164.97
424.887	3296.04
425.094	3531.55
425.302	3472.16
425.51	3556.13
425.718	3662.62
425.925	3660.57
426.133	3775.26
426.341	4088.6
426.548	4150.04
426.756	4303.64
426.964	4256.53
427.171	4543.25
427.379	4582.16
427.586	4692.75
427.794	4834.06
428.001	5147.4
428.209	5286.66
428.417	5251.85
428.624	5671.68
428.832	5624.58
429.039	5475.07
429.247	5626.62
429.454	6134.52
429.662	6376.18
429.869	6136.57
430.076	6644.46
430.284	6165.24
430.491	6597.36
430.699	7099.11
430.906	6867.69
431.114	7004.91
431.321	7142.12
431.528	7297.77
431.736	7903.96
431.943	8211.16
432.15	7971.55
432.358	8030.94
432.565	8366.81
432.772	8538.84
432.979	8815.31
433.187	9018.06
433.394	8973
433.601	9544.39
433.808	9685.7
434.016	9704.13
434.223	10152.63
434.43	10838.7
434.637	10410.68
434.844	11207.34
435.052	11272.87
435.259	11393.7
435.466	11283.11
435.673	11266.73
435.88	12020.38
436.087	12462.74
436.294	12608.15
436.501	12366.49
436.708	12452.5
436.915	12909.2
437.122	13601.41
437.329	13630.09
437.537	13933.18
437.743	14187.13
437.95	14035.58
438.157	14895.73
438.364	15190.64
438.571	15137.39
438.778	15237.74
438.985	16851.54
439.192	16128.61
439.399	16398.94
439.606	15809.12
439.813	17119.82
440.02	18096.71
440.227	17635.91
440.433	17603.14
440.64	17984.07
440.847	17783.37
441.054	18416.19
441.261	19673.64
441.467	19118.64
441.674	19753.51
441.881	20562.46
442.088	20490.78
442.294	20245.02
442.501	20806.17
442.708	21322.26
442.914	22051.33
443.121	22897.14
443.328	22319.62
443.534	23943.66
443.741	23278.07
443.948	22718.97
444.154	24562.14
444.361	24560.09
444.568	24416.74
444.774	24801.75
444.981	25012.7
445.187	25688.53
445.394	26511.81
445.6	26239.43
445.807	28907.93
446.013	27406.77
446.22	27826.6
446.426	28705.18
446.633	29403.54
446.839	30009.74
447.046	29084.06
447.252	30706.05
447.459	30755.2
447.665	30853.5
447.871	31914.35
448.078	32903.52
448.284	31693.17
448.491	32409.96
448.697	33700.18
448.903	34341.19
449.11	34414.92
449.316	33790.29
449.522	34636.1
449.728	35549.49
449.935	35701.04
450.141	35443
450.347	36475.18
450.553	35309.88
450.76	35754.29
450.966	36921.63
451.172	36491.56
451.378	37490.97
451.584	36327.72
451.791	37417.24
451.997	37742.87
452.203	37910.8
452.409	38220.05
452.615	37968.15
452.821	36356.39
453.027	36045.1
453.233	37988.63
453.44	36323.63
453.646	36659.49
453.852	36796.71
454.058	37810.45
454.264	36245.8
454.47	36991.26
454.676	36213.04
454.882	37652.76
455.088	34449.74
455.294	34668.87
455.5	34957.63
455.705	35533.11
455.911	34148.68
456.117	33532.25
456.323	32858.46
456.529	30998.91
456.735	32571.75
456.941	31805.81
457.147	30941.57
457.352	30062.99
457.558	29858.19
457.764	30159.24
457.97	29096.35
458.176	28774.81
458.381	28875.16
458.587	27486.64
458.793	27496.88
458.999	25723.34
459.204	27429.3
459.41	26718.65
459.616	25082.33
459.821	25231.83
460.027	24936.92
460.233	24463.84
460.438	23095.8
460.644	23435.76
460.85	22362.62
461.055	22323.71
461.261	22342.14
461.466	20279.84
461.672	19724.84
461.878	21002.77
462.083	19757.61
462.289	19407.41
462.494	19413.55
462.7	18205.25
462.905	18076.23
463.111	18221.63
463.316	18545.21
463.522	18104.9
463.727	18217.54
463.932	18061.89
464.138	17597
464.343	17611.34
464.549	17291.85
464.754	18018.88
464.959	17750.6
465.165	17361.48
465.37	17042
465.575	16280.16
465.781	17265.23
465.986	17228.37
466.191	16366.17
466.397	16335.45
466.602	15370.86
466.807	15850.08
467.012	15772.26
467.218	15841.89
467.423	15563.37
467.628	15700.58
467.833	16521.82
468.038	15673.96
468.244	15180.4
468.449	15753.83
