Data from USB4F104151__263__14-34-32-504.txt Node

Date: Thu Mar 13 14:34:32 EDT 2025
User: louis
Spectrometer: USB4F10415
Trigger mode: 4
Integration Time (sec): 2.500000E-2
Scans to average: 1
Electric dark correction enabled: true
Nonlinearity correction enabled: false
Boxcar width: 0
XAxis mode: Wavelengths
Number of Pixels in Spectrum: 3648
>>>>>Begin Spectral Data<<<<<
178.204	-235.18
178.424	-235.18
178.644	-235.18
178.864	-177.83
179.084	-186.02
179.304	-57
179.524	33.11
179.744	35.16
179.964	37.2
180.184	31.06
180.404	-24.23
180.624	16.73
180.844	8.53
181.064	-46.76
181.283	18.77
181.503	-13.99
181.723	-38.57
181.943	-40.62
182.163	29.01
182.383	41.3
182.602	-24.23
182.822	92.5
183.042	61.78
183.262	-34.47
183.482	8.53
183.701	-5.8
183.921	20.82
184.141	-40.62
184.361	-16.04
184.58	-24.23
184.8	-22.19
185.02	20.82
185.239	-13.99
185.459	-57
185.679	24.92
185.898	-59.05
186.118	49.49
186.338	20.82
186.557	16.73
186.777	-5.8
186.997	-30.38
187.216	-24.23
187.436	-5.8
187.655	10.58
187.875	35.16
188.095	-16.04
188.314	33.11
188.534	53.59
188.753	-28.33
188.973	16.73
189.192	51.54
189.412	12.63
189.631	76.12
189.851	-11.95
190.07	53.59
190.29	57.68
190.509	-91.82
190.729	-32.43
190.948	47.44
191.168	53.59
191.387	-1.71
191.607	65.88
191.826	41.3
192.045	26.96
192.265	26.96
192.484	-16.04
192.704	31.06
192.923	-38.57
193.142	51.54
193.362	-34.47
193.581	61.78
193.8	-32.43
194.02	16.73
194.239	-16.04
194.458	51.54
194.678	14.68
194.897	16.73
195.116	-32.43
195.335	37.2
195.555	29.01
195.774	-16.04
195.993	16.73
196.212	74.07
196.432	-3.75
196.651	-20.14
196.87	18.77
197.089	-18.09
197.308	43.35
197.528	117.08
197.747	2.39
197.966	10.58
198.185	82.26
198.404	-32.43
198.623	0.34
198.842	51.54
199.062	26.96
199.281	18.77
199.5	31.06
199.719	-48.81
199.938	4.44
200.157	92.5
200.376	37.2
200.595	49.49
200.814	33.11
201.033	41.3
201.252	61.78
201.471	-5.8
201.69	47.44
201.909	-9.9
202.128	65.88
202.347	29.01
202.566	24.92
202.785	-59.05
203.004	12.63
203.223	90.45
203.442	18.77
203.661	-26.28
203.879	-16.04
204.098	-13.99
204.317	33.11
204.536	67.92
204.755	-54.95
204.974	24.92
205.193	-1.71
205.411	69.97
205.63	-16.04
205.849	41.3
206.068	-7.85
206.287	-32.43
206.505	26.96
206.724	-34.47
206.943	-7.85
207.162	-34.47
207.381	37.2
207.599	57.68
207.818	-30.38
208.037	53.59
208.255	-87.72
208.474	-81.58
208.693	29.01
208.911	0.34
209.13	-5.8
209.349	16.73
209.567	26.96
209.786	43.35
210.005	16.73
210.223	63.83
210.442	-16.04
210.661	39.25
210.879	-54.95
211.098	57.68
211.316	33.11
211.535	16.73
211.753	41.3
211.972	16.73
212.191	26.96
212.409	-13.99
212.628	29.01
212.846	8.53
213.065	49.49
213.283	74.07
213.502	-104.11
213.72	26.96
213.938	2.39
214.157	-57
214.375	-91.82
214.594	12.63
214.812	-20.14
215.031	4.44
215.249	-24.23
215.467	0.34
215.686	57.68
215.904	59.73
216.122	20.82
216.341	110.93
216.559	-34.47
216.778	123.22
216.996	26.96
217.214	-16.04
217.432	4.44
217.651	41.3
217.869	14.68
218.087	16.73
218.306	16.73
218.524	16.73
218.742	-5.8
218.96	-32.43
219.179	-32.43
219.397	-85.67
219.615	29.01
219.833	26.96
220.051	33.11
220.27	61.78
220.488	55.64
220.706	-18.09
220.924	37.2
221.142	24.92
221.36	-40.62
221.578	90.45
221.796	8.53
222.015	22.87
222.233	2.39
222.451	37.2
222.669	-5.8
222.887	59.73
223.105	-26.28
223.323	76.12
223.541	-32.43
223.759	47.44
223.977	-11.95
224.195	16.73
224.413	33.11
224.631	49.49
224.849	45.4
225.067	102.74
225.285	-22.19
225.503	-7.85
225.721	-61.1
225.939	33.11
226.157	-5.8
226.375	106.84
226.592	-30.38
226.81	-7.85
227.028	-30.38
227.246	92.5
227.464	26.96
227.682	92.5
227.9	10.58
228.117	18.77
228.335	-46.76
228.553	35.16
228.771	74.07
228.989	98.64
229.206	0.34
229.424	14.68
229.642	61.78
229.86	-13.99
230.077	96.6
230.295	-46.76
230.513	158.03
230.731	-16.04
230.948	18.77
231.166	106.84
231.384	-44.71
231.601	45.4
231.819	29.01
232.037	-38.57
232.254	2.39
232.472	12.63
232.689	-7.85
232.907	-57
233.125	31.06
233.342	59.73
233.56	-16.04
233.777	10.58
233.995	88.4
234.213	88.4
234.43	2.39
234.648	-38.57
234.865	31.06
235.083	4.44
235.3	6.49
235.518	45.4
235.735	43.35
235.953	10.58
236.17	-32.43
236.388	0.34
236.605	-24.23
236.822	57.68
237.04	16.73
237.257	8.53
237.475	29.01
237.692	39.25
237.909	-7.85
238.127	-61.1
238.344	4.44
238.562	16.73
238.779	-34.47
238.996	-24.23
239.214	53.59
239.431	69.97
239.648	-22.19
239.865	92.5
240.083	4.44
240.3	63.83
240.517	-16.04
240.735	-22.19
240.952	35.16
241.169	18.77
241.386	10.58
241.603	-13.99
241.821	-54.95
242.038	61.78
242.255	65.88
242.472	82.26
242.689	-5.8
242.907	-48.81
243.124	-26.28
243.341	74.07
243.558	-46.76
243.775	-106.15
243.992	-81.58
244.209	74.07
244.426	78.16
244.643	-7.85
244.86	4.44
245.078	37.2
245.295	-24.23
245.512	-26.28
245.729	-28.33
245.946	-11.95
246.163	-32.43
246.38	24.92
246.597	20.82
246.814	-106.15
247.031	2.39
247.248	10.58
247.464	-13.99
247.681	16.73
247.898	24.92
248.115	51.54
248.332	-20.14
248.549	41.3
248.766	59.73
248.983	-36.52
249.2	-5.8
249.417	51.54
249.633	41.3
249.85	57.68
250.067	8.53
250.284	-18.09
250.501	47.44
250.717	8.53
250.934	55.64
251.151	4.44
251.368	-30.38
251.585	69.97
251.801	57.68
252.018	37.2
252.235	8.53
252.451	-24.23
252.668	-44.71
252.885	-11.95
253.102	33.11
253.318	-22.19
253.535	10.58
253.752	45.4
253.968	35.16
254.185	26.96
254.401	-54.95
254.618	-77.48
254.835	-46.76
255.051	90.45
255.268	26.96
255.484	82.26
255.701	-44.71
255.917	69.97
256.134	-38.57
256.351	41.3
256.567	-40.62
256.784	63.83
257	8.53
257.217	43.35
257.433	24.92
257.65	4.44
257.866	10.58
258.082	22.87
258.299	-89.77
258.515	-32.43
258.732	8.53
258.948	-24.23
259.165	84.31
259.381	-5.8
259.597	78.16
259.814	0.34
260.03	-22.19
260.246	10.58
260.463	96.6
260.679	69.97
260.895	-5.8
261.112	-52.91
261.328	33.11
261.544	-38.57
261.761	74.07
261.977	-40.62
262.193	-32.43
262.409	33.11
262.626	-69.29
262.842	20.82
263.058	-38.57
263.274	-32.43
263.49	-32.43
263.707	49.49
263.923	-30.38
264.139	-13.99
264.355	4.44
264.571	125.27
264.787	-32.43
265.004	41.3
265.22	-16.04
265.436	29.01
265.652	-20.14
265.868	-48.81
266.084	-73.39
266.3	0.34
266.516	31.06
266.732	-54.95
266.948	74.07
267.164	-24.23
267.38	-5.8
267.596	92.5
267.812	82.26
268.028	4.44
268.244	-57
268.46	2.39
268.676	-11.95
268.892	55.64
269.108	-20.14
269.324	-24.23
269.54	8.53
269.756	84.31
269.972	-65.19
270.188	31.06
270.403	-20.14
270.619	-1.71
270.835	-13.99
271.051	24.92
271.267	-7.85
271.483	-32.43
271.698	10.58
271.914	45.4
272.13	-16.04
272.346	22.87
272.562	2.39
272.777	24.92
272.993	-63.15
273.209	-30.38
273.425	24.92
273.64	33.11
273.856	-34.47
274.072	76.12
274.287	-32.43
274.503	100.69
274.719	-40.62
274.934	-13.99
275.15	-22.19
275.366	51.54
275.581	-28.33
275.797	26.96
276.012	-3.75
276.228	8.53
276.444	-20.14
276.659	78.16
276.875	-46.76
277.09	-16.04
277.306	33.11
277.521	-20.14
277.737	63.83
277.952	12.63
278.168	-18.09
278.383	26.96
278.599	-13.99
278.814	-22.19
279.03	29.01
279.245	100.69
279.461	-26.28
279.676	61.78
279.892	-100.01
280.107	-16.04
280.322	-54.95
280.538	-28.33
280.753	-13.99
280.969	39.25
281.184	8.53
281.399	0.34
281.615	78.16
281.83	41.3
282.045	-48.81
282.26	4.44
282.476	-7.85
282.691	0.34
282.906	41.3
283.122	-36.52
283.337	61.78
283.552	-24.23
283.767	-40.62
283.983	74.07
284.198	-7.85
284.413	43.35
284.628	-48.81
284.843	14.68
285.058	47.44
285.274	16.73
285.489	-46.76
285.704	24.92
285.919	-38.57
286.134	-61.1
286.349	35.16
286.564	-7.85
286.779	16.73
286.995	-81.58
287.21	-71.34
287.425	-7.85
287.64	-16.04
287.855	33.11
288.07	-36.52
288.285	65.88
288.5	33.11
288.715	67.92
288.93	20.82
289.145	-63.15
289.36	47.44
289.575	24.92
289.79	14.68
290.004	-44.71
290.219	-5.8
290.434	0.34
290.649	-79.53
290.864	-16.04
291.079	39.25
291.294	43.35
291.509	53.59
291.724	0.34
291.938	2.39
292.153	-11.95
292.368	-11.95
292.583	33.11
292.798	45.4
293.012	-3.75
293.227	0.34
293.442	-48.81
293.657	2.39
293.871	41.3
294.086	-16.04
294.301	37.2
294.516	14.68
294.73	0.34
294.945	53.59
295.16	-13.99
295.374	41.3
295.589	12.63
295.804	-32.43
296.018	18.77
296.233	63.83
296.447	16.73
296.662	-44.71
296.877	18.77
297.091	82.26
297.306	-44.71
297.52	-16.04
297.735	-61.1
297.949	-40.62
298.164	-77.48
298.378	33.11
298.593	-24.23
298.807	-28.33
299.022	16.73
299.236	90.45
299.451	-5.8
299.665	-22.19
299.88	10.58
300.094	-13.99
300.309	55.64
300.523	90.45
300.737	2.39
300.952	18.77
301.166	8.53
301.381	-38.57
301.595	16.73
301.809	10.58
302.024	37.2
302.238	-32.43
302.452	74.07
302.667	37.2
302.881	49.49
303.095	65.88
303.309	14.68
303.524	41.3
303.738	24.92
303.952	-54.95
304.166	82.26
304.381	-52.91
304.595	98.64
304.809	24.92
305.023	14.68
305.237	-20.14
305.452	65.88
305.666	26.96
305.88	8.53
306.094	18.77
306.308	18.77
306.522	-16.04
306.736	-3.75
306.95	78.16
307.164	0.34
307.379	33.11
307.593	135.51
307.807	72.02
308.021	43.35
308.235	10.58
308.449	57.68
308.663	-30.38
308.877	106.84
309.091	2.39
309.305	2.39
309.519	-9.9
309.733	51.54
309.947	-38.57
310.161	41.3
310.374	-7.85
310.588	45.4
310.802	6.49
311.016	-16.04
311.23	51.54
311.444	-57
311.658	16.73
311.872	16.73
312.085	57.68
312.299	10.58
312.513	33.11
312.727	20.82
312.941	-24.23
313.154	82.26
313.368	-7.85
313.582	35.16
313.796	-20.14
314.009	59.73
314.223	67.92
314.437	-32.43
314.651	14.68
314.864	88.4
315.078	2.39
315.292	-112.3
315.505	-34.47
315.719	10.58
315.933	8.53
316.146	24.92
316.36	10.58
316.573	2.39
316.787	18.77
317.001	24.92
317.214	-57
317.428	24.92
317.641	43.35
317.855	43.35
318.068	41.3
318.282	33.11
318.495	-9.9
318.709	18.77
318.922	-11.95
319.136	104.79
319.349	59.73
319.563	29.01
319.776	43.35
319.99	78.16
320.203	67.92
320.417	18.77
320.63	6.49
320.843	106.84
321.057	86.36
321.27	-46.76
321.483	-11.95
321.697	22.87
321.91	2.39
322.124	-20.14
322.337	4.44
322.55	59.73
322.763	35.16
322.977	8.53
323.19	-1.71
323.403	43.35
323.617	-3.75
323.83	26.96
324.043	35.16
324.256	10.58
324.469	-24.23
324.683	-32.43
324.896	61.78
325.109	49.49
325.322	0.34
325.535	65.88
325.748	39.25
325.962	0.34
326.175	-7.85
326.388	18.77
326.601	84.31
326.814	-54.95
327.027	-18.09
327.24	98.64
327.453	-110.25
327.666	65.88
327.879	43.35
328.092	20.82
328.305	-3.75
328.518	33.11
328.731	-11.95
328.944	0.34
329.157	0.34
329.37	29.01
329.583	51.54
329.796	18.77
330.009	12.63
330.222	59.73
330.435	82.26
330.648	59.73
330.861	12.63
331.073	-7.85
331.286	86.36
331.499	-22.19
331.712	0.34
331.925	24.92
332.138	37.2
332.35	41.3
332.563	-5.8
332.776	41.3
332.989	-32.43
333.202	-50.86
333.414	-20.14
333.627	0.34
333.84	-40.62
334.053	92.5
334.265	-22.19
334.478	-20.14
334.691	-36.52
334.903	14.68
335.116	86.36
335.329	78.16
335.541	65.88
335.754	37.2
335.966	4.44
336.179	10.58
336.392	10.58
336.604	35.16
336.817	119.12
337.029	82.26
337.242	-38.57
337.454	-18.09
337.667	33.11
337.88	26.96
338.092	12.63
338.305	90.45
338.517	-16.04
338.729	98.64
338.942	112.98
339.154	26.96
339.367	2.39
339.579	43.35
339.792	-57
340.004	18.77
340.217	6.49
340.429	4.44
340.641	-16.04
340.854	115.03
341.066	-79.53
341.278	37.2
341.491	53.59
341.703	51.54
341.915	33.11
342.128	26.96
342.34	12.63
342.552	-24.23
342.764	16.73
342.977	-1.71
343.189	2.39
343.401	8.53
343.613	-67.24
343.826	65.88
344.038	12.63
344.25	16.73
344.462	-32.43
344.674	-22.19
344.886	24.92
345.099	0.34
345.311	90.45
345.523	16.73
345.735	-57
345.947	67.92
346.159	86.36
346.371	31.06
346.583	18.77
346.795	51.54
347.007	-24.23
347.219	37.2
347.431	37.2
347.643	37.2
347.855	-3.75
348.067	24.92
348.279	8.53
348.491	0.34
348.703	125.27
348.915	35.16
349.127	6.49
349.339	57.68
349.551	41.3
349.763	10.58
349.975	4.44
350.187	8.53
350.399	37.2
350.61	2.39
350.822	24.92
351.034	-61.1
351.246	43.35
351.458	12.63
351.669	18.77
351.881	-16.04
352.093	100.69
352.305	-26.28
352.517	39.25
352.728	20.82
352.94	16.73
353.152	-28.33
353.363	-20.14
353.575	88.4
353.787	82.26
353.999	2.39
354.21	26.96
354.422	4.44
354.633	20.82
354.845	4.44
355.057	-18.09
355.268	20.82
355.48	-9.9
355.692	18.77
355.903	57.68
356.115	-11.95
356.326	-5.8
356.538	67.92
356.749	67.92
356.961	51.54
357.172	45.4
357.384	0.34
357.595	90.45
357.807	33.11
358.018	-61.1
358.23	33.11
358.441	67.92
358.653	57.68
358.864	-22.19
359.075	2.39
359.287	-3.75
359.498	59.73
359.709	41.3
359.921	-5.8
360.132	20.82
360.344	-7.85
360.555	74.07
360.766	16.73
360.977	-7.85
361.189	102.74
361.4	-20.14
361.611	96.6
361.823	0.34
362.034	-20.14
362.245	-16.04
362.456	41.3
362.667	35.16
362.879	43.35
363.09	20.82
363.301	37.2
363.512	22.87
363.723	18.77
363.935	-46.76
364.146	74.07
364.357	-26.28
364.568	8.53
364.779	-28.33
364.99	-22.19
365.201	-32.43
365.412	67.92
365.623	-9.9
365.834	-28.33
366.045	-54.95
366.256	-40.62
366.467	63.83
366.678	0.34
366.889	12.63
367.1	-28.33
367.311	72.02
367.522	31.06
367.733	53.59
367.944	16.73
368.155	16.73
368.366	133.46
368.577	57.68
368.788	100.69
368.999	55.64
369.209	24.92
369.42	108.88
369.631	76.12
369.842	-13.99
370.053	16.73
370.264	24.92
370.474	18.77
370.685	2.39
370.896	-7.85
371.107	41.3
371.317	94.55
371.528	-61.1
371.739	63.83
371.95	53.59
372.16	20.82
372.371	-32.43
372.582	-57
372.792	94.55
373.003	-5.8
373.214	67.92
373.424	-20.14
373.635	-24.23
373.846	20.82
374.056	8.53
374.267	47.44
374.477	12.63
374.688	2.39
374.898	-13.99
375.109	-3.75
375.319	16.73
375.53	-20.14
375.74	49.49
375.951	18.77
376.161	8.53
376.372	43.35
376.582	31.06
376.793	88.4
377.003	12.63
377.214	8.53
377.424	29.01
377.635	-32.43
377.845	-50.86
378.055	41.3
378.266	-24.23
378.476	57.68
378.686	-7.85
378.897	35.16
379.107	26.96
379.317	67.92
379.528	20.82
379.738	59.73
379.948	20.82
380.158	24.92
380.369	90.45
380.579	39.25
380.789	2.39
380.999	16.73
381.21	18.77
381.42	74.07
381.63	-11.95
381.84	65.88
382.05	49.49
382.261	112.98
382.471	63.83
382.681	-32.43
382.891	84.31
383.101	47.44
383.311	4.44
383.521	16.73
383.731	-65.19
383.941	24.92
384.151	41.3
384.361	41.3
384.571	4.44
384.781	67.92
384.991	69.97
385.201	49.49
385.411	-7.85
385.621	45.4
385.831	41.3
386.041	76.12
386.251	-3.75
386.461	43.35
386.671	-93.87
386.881	2.39
387.091	33.11
387.301	74.07
387.511	57.68
387.72	76.12
387.93	53.59
388.14	-16.04
388.35	8.53
388.56	55.64
388.769	53.59
388.979	-5.8
389.189	16.73
389.399	2.39
389.609	76.12
389.818	84.31
390.028	-54.95
390.238	98.64
390.447	-5.8
390.657	117.08
390.867	-16.04
391.076	-9.9
391.286	57.68
391.496	8.53
391.705	41.3
391.915	37.2
392.125	35.16
392.334	6.49
392.544	96.6
392.753	-7.85
392.963	61.78
393.172	65.88
393.382	-73.39
393.591	51.54
393.801	16.73
394.01	102.74
394.22	8.53
394.429	-3.75
394.639	98.64
394.848	53.59
395.058	35.16
395.267	39.25
395.477	-26.28
395.686	24.92
395.895	29.01
396.105	115.03
396.314	26.96
396.524	10.58
396.733	90.45
396.942	8.53
397.152	29.01
397.361	129.36
397.57	12.63
397.78	45.4
397.989	37.2
398.198	172.37
398.407	41.3
398.617	33.11
398.826	49.49
399.035	16.73
399.244	76.12
399.453	39.25
399.663	131.41
399.872	33.11
400.081	37.2
400.29	16.73
400.499	-7.85
400.708	129.36
400.917	18.77
401.127	-16.04
401.336	74.07
401.545	78.16
401.754	106.84
401.963	86.36
402.172	69.97
402.381	43.35
402.59	59.73
402.799	53.59
403.008	69.97
403.217	147.8
403.426	41.3
403.635	115.03
403.844	69.97
404.053	102.74
404.262	57.68
404.471	160.08
404.68	94.55
404.888	74.07
405.097	104.79
405.306	53.59
405.515	82.26
405.724	131.41
405.933	115.03
406.142	16.73
406.35	57.68
406.559	143.7
406.768	115.03
406.977	164.18
407.185	143.7
407.394	170.32
407.603	82.26
407.812	231.76
408.02	258.39
408.229	158.03
408.438	162.13
408.646	151.89
408.855	125.27
409.064	213.33
409.272	172.37
409.481	227.67
409.69	217.43
409.898	215.38
410.107	233.81
410.315	233.81
410.524	217.43
410.733	258.39
410.941	223.57
411.15	309.58
411.358	293.2
411.567	328.02
411.775	315.73
411.984	311.63
412.192	346.45
412.401	270.67
412.609	389.46
412.818	377.17
413.026	328.02
413.234	371.02
413.443	409.94
413.651	418.13
413.86	409.94
414.068	483.66
414.276	532.81
414.485	459.09
414.693	493.9
414.901	559.44
415.11	559.44
415.318	598.35
415.526	610.64
415.734	663.88
415.943	584.01
416.151	672.08
416.359	680.27
416.567	676.17
416.776	674.12
416.984	840.01
417.192	835.91
417.4	821.58
417.608	764.23
417.817	803.15
418.025	852.3
418.233	1059.14
418.441	807.24
418.649	903.5
418.857	979.27
419.065	1040.71
419.273	1073.48
419.481	1055.05
419.689	1165.64
419.897	1239.36
420.105	1182.02
420.313	1272.13
420.521	1245.51
420.729	1261.89
420.937	1286.47
421.145	1450.3
421.353	1427.78
421.561	1569.09
421.769	1585.47
421.977	1663.29
422.185	1683.77
422.393	1679.68
422.601	1861.94
422.809	1872.18
423.017	1902.9
423.224	1868.09
423.432	2036.02
423.64	2079.03
423.848	2343.22
424.056	2105.65
424.263	2228.53
424.471	2279.73
424.679	2302.26
424.887	2457.9
425.094	2466.1
425.302	2574.64
425.51	2656.56
425.718	2763.05
425.925	2656.56
426.133	2744.62
426.341	3043.62
426.548	3039.53
426.756	3074.34
426.964	3207.46
427.171	3301.67
427.379	3352.87
427.586	3541.28
427.794	3672.35
428.001	3715.36
428.209	3801.37
428.417	3844.38
428.624	4116.76
428.832	4051.22
429.039	3961.11
429.247	4170.01
429.454	4440.34
429.662	4778.25
429.869	4448.53
430.076	4958.47
430.284	4557.07
430.491	4833.55
430.699	5187.85
430.906	5171.46
431.114	5179.65
431.321	5296.39
431.528	5488.9
431.736	5898.49
431.943	6103.29
432.15	5812.48
432.358	5902.59
432.565	6285.56
432.772	6260.98
432.979	6736.11
433.187	6699.25
433.394	6723.82
433.601	7160.04
433.808	7244.01
434.016	7184.62
434.223	7432.42
434.43	7923.93
434.637	7588.07
434.844	8024.28
435.052	8354.01
435.259	8286.42
435.466	8341.72
435.673	8306.9
435.88	8794.32
436.087	9253.06
436.294	9257.16
436.501	9093.32
436.708	9117.9
436.915	9693.38
437.122	9883.84
437.329	9961.66
437.537	10371.26
437.743	10506.42
437.95	10219.71
438.157	10772.66
438.364	11272.36
438.571	11307.18
438.778	11366.57
438.985	11983.01
439.192	11716.77
439.399	12255.39
439.606	12081.31
439.813	12757.14
440.02	13471.88
440.227	13045.9
440.433	12857.49
440.64	13310.09
440.847	13152.4
441.054	13639.81
441.261	14536.82
441.467	14403.71
441.674	14616.69
441.881	14907.51
442.088	14930.03
442.294	14913.65
442.501	15065.2
442.708	15421.55
442.914	16263.26
443.121	16867.41
443.328	16322.65
443.534	17547.34
443.741	17002.58
443.948	16691.29
444.154	18131.01
444.361	18016.32
444.568	18329.66
444.774	18231.36
444.981	18524.22
445.187	19032.11
445.394	19617.83
445.6	19441.71
445.807	21411.85
446.013	20389.92
446.22	20355.1
446.426	21274.64
446.633	21729.29
446.839	22562.81
447.046	21364.75
447.252	22738.94
447.459	22532.09
447.665	22335.49
447.871	23529.45
448.078	24524.77
448.284	23187.44
448.491	24070.12
448.697	25096.15
448.903	25374.67
449.11	25231.32
449.316	25159.64
449.522	25360.34
449.728	26173.38
449.935	26363.84
450.141	26445.76
450.347	26996.67
450.553	26021.83
450.76	26427.33
450.966	27260.85
451.172	27230.13
451.378	27692.97
451.584	27162.55
451.791	27674.54
451.997	27756.46
452.203	28104.62
452.409	28503.97
452.615	28305.32
452.821	26939.32
453.027	26812.35
453.233	28053.42
453.44	27174.84
453.646	27094.97
453.852	27305.91
454.058	27572.14
454.264	27037.62
454.47	27332.53
454.676	26714.05
454.882	27611.06
455.088	25305.04
455.294	25786.32
455.5	25991.11
455.705	26140.61
455.911	24637.41
456.117	24709.08
456.323	24532.96
456.529	23279.6
456.735	24174.56
456.941	23658.48
457.147	23185.4
457.352	22013.96
457.558	22253.57
457.764	21979.14
457.97	21643.28
458.176	21108.76
458.381	20977.69
458.587	19908.65
458.793	19873.83
458.999	18747.45
459.204	20359.2
459.41	19691.56
459.616	18491.45
459.821	18493.5
460.027	18393.15
460.233	17938.5
460.438	17279.05
460.644	17283.15
460.85	16443.48
461.055	16226.4
461.261	16050.27
461.466	15007.86
461.672	14379.13
461.878	15364.2
462.083	14418.04
462.289	14020.74
462.494	13873.28
462.7	13611.14
462.905	13009.04
463.111	13426.82
463.316	13363.34
463.522	13213.84
463.727	13142.16
463.932	13267.08
464.138	12957.84
464.343	13037.71
464.549	12558.49
464.754	12927.12
464.959	12859.54
465.165	12869.78
465.37	12202.14
465.575	11835.55
465.781	12441.75
465.986	12273.82
466.191	11919.52
466.397	11802.79
466.602	11184.3
466.807	11618.47
467.012	11505.83
467.218	11770.02
467.423	11362.47
