Data from USB4F104151__80__14-30-33-498.txt Node

Date: Thu Mar 13 14:30:33 EDT 2025
User: louis
Spectrometer: USB4F10415
Trigger mode: 4
Integration Time (sec): 2.500000E-2
Scans to average: 1
Electric dark correction enabled: true
Nonlinearity correction enabled: false
Boxcar width: 0
XAxis mode: Wavelengths
Number of Pixels in Spectrum: 3648
>>>>>Begin Spectral Data<<<<<
178.204	-120.15
178.424	-120.15
178.644	-120.15
178.864	-128.34
179.084	-85.33
179.304	-40.28
179.524	15.02
179.744	-19.8
179.964	58.03
180.184	-3.41
180.404	17.07
180.624	-7.51
180.844	2.73
181.064	-52.56
181.283	-40.28
181.503	8.87
181.723	62.12
181.943	-27.99
182.163	51.88
182.383	33.45
182.602	76.46
182.822	-25.94
183.042	19.11
183.262	78.51
183.482	17.07
183.701	8.87
183.921	2.73
184.141	-40.28
184.361	23.21
184.58	43.69
184.8	66.22
185.02	35.5
185.239	-7.51
185.459	19.11
185.679	109.23
185.898	41.64
186.118	17.07
186.338	31.4
186.557	45.74
186.777	25.26
186.997	-48.47
187.216	76.46
187.436	94.89
187.655	27.31
187.875	58.03
188.095	66.22
188.314	66.22
188.534	109.23
188.753	37.55
188.973	35.5
189.192	94.89
189.412	25.26
189.631	10.92
189.851	-27.99
190.07	101.03
190.29	-44.37
190.509	66.22
190.729	-13.65
190.948	111.27
191.168	187.05
191.387	74.41
191.607	-56.66
191.826	8.87
192.045	4.78
192.265	2.73
192.484	0.68
192.704	-32.08
192.923	-7.51
193.142	70.31
193.362	82.6
193.581	86.7
193.8	10.92
194.02	53.93
194.239	35.5
194.458	84.65
194.678	29.35
194.897	115.37
195.116	12.97
195.335	62.12
195.555	90.79
195.774	-13.65
195.993	51.88
196.212	-3.41
196.432	15.02
196.651	92.84
196.87	101.03
197.089	86.7
197.308	82.6
197.528	17.07
197.747	-19.8
197.966	-44.37
198.185	148.14
198.404	68.27
198.623	25.26
198.842	2.73
199.062	43.69
199.281	62.12
199.5	98.99
199.719	2.73
199.938	8.87
200.157	82.6
200.376	0.68
200.595	78.51
200.814	23.21
201.033	12.97
201.252	8.87
201.471	94.89
201.69	86.7
201.909	47.79
202.128	-56.66
202.347	43.69
202.566	101.03
202.785	6.83
203.004	21.16
203.223	107.18
203.442	-17.75
203.661	43.69
203.879	35.5
204.098	47.79
204.317	-23.89
204.536	25.26
204.755	78.51
204.974	47.79
205.193	33.45
205.411	107.18
205.63	-3.41
205.849	-7.51
206.068	51.88
206.287	94.89
206.505	-17.75
206.724	92.84
206.943	-7.51
207.162	41.64
207.381	25.26
207.599	78.51
207.818	76.46
208.037	27.31
208.255	53.93
208.474	0.68
208.693	37.55
208.911	125.61
209.13	-23.89
209.349	53.93
209.567	-32.08
209.786	88.75
210.005	105.13
210.223	19.11
210.442	-60.76
210.661	68.27
210.879	62.12
211.098	-3.41
211.316	66.22
211.535	94.89
211.753	92.84
211.972	82.6
212.191	51.88
212.409	0.68
212.628	41.64
212.846	-7.51
213.065	60.07
213.283	92.84
213.502	27.31
213.72	41.64
213.938	82.6
214.157	8.87
214.375	39.59
214.594	21.16
214.812	17.07
215.031	27.31
215.249	29.35
215.467	39.59
215.686	-34.13
215.904	45.74
216.122	0.68
216.341	131.75
216.559	43.69
216.778	74.41
216.996	68.27
217.214	101.03
217.432	82.6
217.651	-21.84
217.869	-15.7
218.087	53.93
218.306	55.98
218.524	19.11
218.742	41.64
218.96	2.73
219.179	0.68
219.397	101.03
219.615	103.08
219.833	98.99
220.051	29.35
220.27	12.97
220.488	35.5
220.706	123.56
220.924	-23.89
221.142	15.02
221.36	41.64
221.578	107.18
221.796	49.83
222.015	45.74
222.233	37.55
222.451	123.56
222.669	49.83
222.887	37.55
223.105	-85.33
223.323	37.55
223.541	15.02
223.759	33.45
223.977	23.21
224.195	125.61
224.413	37.55
224.631	82.6
224.849	45.74
225.067	53.93
225.285	66.22
225.503	-46.42
225.721	-64.85
225.939	58.03
226.157	8.87
226.375	82.6
226.592	-3.41
226.81	-52.56
227.028	66.22
227.246	193.19
227.464	17.07
227.682	66.22
227.9	123.56
228.117	29.35
228.335	-23.89
228.553	8.87
228.771	86.7
228.989	150.18
229.206	58.03
229.424	41.64
229.642	4.78
229.86	-54.61
230.077	98.99
230.295	94.89
230.513	62.12
230.731	25.26
230.948	64.17
231.166	21.16
231.384	25.26
231.601	-40.28
231.819	12.97
232.037	31.4
232.254	-32.08
232.472	6.83
232.689	66.22
232.907	84.65
233.125	43.69
233.342	8.87
233.56	-32.08
233.777	62.12
233.995	4.78
234.213	94.89
234.43	43.69
234.648	-23.89
234.865	74.41
235.083	101.03
235.3	90.79
235.518	17.07
235.735	84.65
235.953	133.8
236.17	82.6
236.388	35.5
236.605	92.84
236.822	107.18
237.04	25.26
237.257	-15.7
237.475	2.73
237.692	60.07
237.909	41.64
238.127	88.75
238.344	78.51
238.562	19.11
238.779	-32.08
238.996	43.69
239.214	37.55
239.431	76.46
239.648	-36.18
239.865	41.64
240.083	55.98
240.3	19.11
240.517	17.07
240.735	10.92
240.952	107.18
241.169	82.6
241.386	-40.28
241.603	78.51
241.821	17.07
242.038	98.99
242.255	154.28
242.472	-7.51
242.689	84.65
242.907	180.9
243.124	8.87
243.341	33.45
243.558	-11.61
243.775	55.98
243.992	-13.65
244.209	58.03
244.426	6.83
244.643	86.7
244.86	62.12
245.078	107.18
245.295	70.31
245.512	8.87
245.729	96.94
245.946	0.68
246.163	37.55
246.38	-30.04
246.597	-13.65
246.814	21.16
247.031	90.79
247.248	66.22
247.464	19.11
247.681	90.79
247.898	66.22
248.115	64.17
248.332	66.22
248.549	115.37
248.766	78.51
248.983	90.79
249.2	-13.65
249.417	84.65
249.633	39.59
249.85	17.07
250.067	62.12
250.284	62.12
250.501	8.87
250.717	19.11
250.934	53.93
251.151	33.45
251.368	-5.46
251.585	68.27
251.801	39.59
252.018	25.26
252.235	105.13
252.451	41.64
252.668	8.87
252.885	76.46
253.102	76.46
253.318	49.83
253.535	-42.32
253.752	8.87
253.968	21.16
254.185	43.69
254.401	19.11
254.618	92.84
254.835	53.93
255.051	55.98
255.268	43.69
255.484	10.92
255.701	-42.32
255.917	49.83
256.134	-23.89
256.351	84.65
256.567	-15.7
256.784	-13.65
257	25.26
257.217	64.17
257.433	66.22
257.65	4.78
257.866	74.41
258.082	41.64
258.299	62.12
258.515	70.31
258.732	12.97
258.948	68.27
259.165	88.75
259.381	8.87
259.597	-19.8
259.814	21.16
260.03	84.65
260.246	72.36
260.463	43.69
260.679	82.6
260.895	21.16
261.112	76.46
261.328	8.87
261.544	25.26
261.761	156.33
261.977	58.03
262.193	-7.51
262.409	6.83
262.626	33.45
262.842	17.07
263.058	-3.41
263.274	62.12
263.49	107.18
263.707	78.51
263.923	45.74
264.139	58.03
264.355	0.68
264.571	58.03
264.787	-13.65
265.004	53.93
265.22	60.07
265.436	-15.7
265.652	76.46
265.868	74.41
266.084	78.51
266.3	43.69
266.516	19.11
266.732	37.55
266.948	49.83
267.164	90.79
267.38	90.79
267.596	41.64
267.812	105.13
268.028	27.31
268.244	29.35
268.46	74.41
268.676	45.74
268.892	60.07
269.108	-36.18
269.324	41.64
269.54	29.35
269.756	90.79
269.972	-5.46
270.188	74.41
270.403	25.26
270.619	17.07
270.835	70.31
271.051	10.92
271.267	35.5
271.483	25.26
271.698	90.79
271.914	117.42
272.13	58.03
272.346	-5.46
272.562	41.64
272.777	78.51
272.993	123.56
273.209	35.5
273.425	31.4
273.64	25.26
273.856	80.55
274.072	96.94
274.287	-46.42
274.503	92.84
274.719	68.27
274.934	35.5
275.15	82.6
275.366	84.65
275.581	8.87
275.797	90.79
276.012	39.59
276.228	12.97
276.444	53.93
276.659	76.46
276.875	25.26
277.09	51.88
277.306	49.83
277.521	8.87
277.737	41.64
277.952	66.22
278.168	137.9
278.383	33.45
278.599	107.18
278.814	90.79
279.03	49.83
279.245	86.7
279.461	27.31
279.676	45.74
279.892	-11.61
280.107	-19.8
280.322	51.88
280.538	-3.41
280.753	29.35
280.969	25.26
281.184	17.07
281.399	68.27
281.615	49.83
281.83	74.41
282.045	62.12
282.26	33.45
282.476	78.51
282.691	19.11
282.906	-7.51
283.122	90.79
283.337	6.83
283.552	86.7
283.767	-11.61
283.983	43.69
284.198	-40.28
284.413	86.7
284.628	43.69
284.843	66.22
285.058	43.69
285.274	74.41
285.489	72.36
285.704	-7.51
285.919	29.35
286.134	0.68
286.349	94.89
286.564	12.97
286.779	84.65
286.995	4.78
287.21	25.26
287.425	31.4
287.64	-15.7
287.855	49.83
288.07	10.92
288.285	17.07
288.5	43.69
288.715	90.79
288.93	58.03
289.145	74.41
289.36	84.65
289.575	8.87
289.79	58.03
290.004	90.79
290.219	70.31
290.434	90.79
290.649	-40.28
290.864	10.92
291.079	0.68
291.294	27.31
291.509	37.55
291.724	19.11
291.938	29.35
292.153	51.88
292.368	53.93
292.583	58.03
292.798	148.14
293.012	74.41
293.227	4.78
293.442	17.07
293.657	78.51
293.871	76.46
294.086	74.41
294.301	66.22
294.516	25.26
294.73	-19.8
294.945	-7.51
295.16	27.31
295.374	49.83
295.589	66.22
295.804	35.5
296.018	68.27
296.233	33.45
296.447	74.41
296.662	-21.84
296.877	88.75
297.091	51.88
297.306	49.83
297.52	47.79
297.735	101.03
297.949	47.79
298.164	133.8
298.378	-3.41
298.593	-7.51
298.807	45.74
299.022	12.97
299.236	53.93
299.451	62.12
299.665	-13.65
299.88	-36.18
300.094	66.22
300.309	33.45
300.523	35.5
300.737	33.45
300.952	86.7
301.166	101.03
301.381	-56.66
301.595	94.89
301.809	101.03
302.024	88.75
302.238	74.41
302.452	2.73
302.667	29.35
302.881	76.46
303.095	39.59
303.309	8.87
303.524	29.35
303.738	103.08
303.952	98.99
304.166	41.64
304.381	15.02
304.595	119.46
304.809	66.22
305.023	33.45
305.237	64.17
305.452	-27.99
305.666	98.99
305.88	68.27
306.094	19.11
306.308	29.35
306.522	127.66
306.736	123.56
306.95	84.65
307.164	111.27
307.379	37.55
307.593	72.36
307.807	8.87
308.021	49.83
308.235	51.88
308.449	-13.65
308.663	43.69
308.877	148.14
309.091	90.79
309.305	68.27
309.519	25.26
309.733	111.27
309.947	-5.46
310.161	62.12
310.374	101.03
310.588	168.62
310.802	-32.08
311.016	47.79
311.23	58.03
311.444	17.07
311.658	33.45
311.872	23.21
312.085	2.73
312.299	98.99
312.513	0.68
312.727	92.84
312.941	0.68
313.154	12.97
313.368	60.07
313.582	72.36
313.796	2.73
314.009	49.83
314.223	70.31
314.437	90.79
314.651	72.36
314.864	-3.41
315.078	72.36
315.292	101.03
315.505	-36.18
315.719	19.11
315.933	74.41
316.146	107.18
316.36	-17.75
316.573	119.46
316.787	8.87
317.001	17.07
317.214	51.88
317.428	92.84
317.641	19.11
317.855	-34.13
318.068	33.45
318.282	29.35
318.495	107.18
318.709	92.84
318.922	37.55
319.136	131.75
319.349	53.93
319.563	51.88
319.776	68.27
319.99	53.93
320.203	15.02
320.417	35.5
320.63	35.5
320.843	107.18
321.057	41.64
321.27	39.59
321.483	45.74
321.697	123.56
321.91	21.16
322.124	29.35
322.337	70.31
322.55	92.84
322.763	68.27
322.977	-64.85
323.19	-3.41
323.403	-23.89
323.617	0.68
323.83	49.83
324.043	25.26
324.256	45.74
324.469	-11.61
324.683	115.37
324.896	74.41
325.109	64.17
325.322	31.4
325.535	123.56
325.748	55.98
325.962	-13.65
326.175	70.31
326.388	0.68
326.601	64.17
326.814	23.21
327.027	12.97
327.24	121.51
327.453	17.07
327.666	41.64
327.879	86.7
328.092	35.5
328.305	37.55
328.518	101.03
328.731	35.5
328.944	72.36
329.157	45.74
329.37	62.12
329.583	33.45
329.796	139.94
330.009	-32.08
330.222	82.6
330.435	33.45
330.648	29.35
330.861	90.79
331.073	115.37
331.286	49.83
331.499	74.41
331.712	-11.61
331.925	43.69
332.138	33.45
332.35	45.74
332.563	-5.46
332.776	111.27
332.989	45.74
333.202	35.5
333.414	101.03
333.627	66.22
333.84	0.68
334.053	78.51
334.265	-19.8
334.478	103.08
334.691	-7.51
334.903	33.45
335.116	2.73
335.329	41.64
335.541	82.6
335.754	66.22
335.966	25.26
336.179	119.46
336.392	43.69
336.604	33.45
336.817	86.7
337.029	-13.65
337.242	45.74
337.454	103.08
337.667	19.11
337.88	94.89
338.092	58.03
338.305	74.41
338.517	62.12
338.729	33.45
338.942	82.6
339.154	-42.32
339.367	-48.47
339.579	29.35
339.792	90.79
340.004	117.42
340.217	66.22
340.429	123.56
340.641	74.41
340.854	8.87
341.066	35.5
341.278	74.41
341.491	125.61
341.703	45.74
341.915	17.07
342.128	43.69
342.34	94.89
342.552	70.31
342.764	41.64
342.977	41.64
343.189	137.9
343.401	74.41
343.613	21.16
343.826	62.12
344.038	33.45
344.25	43.69
344.462	29.35
344.674	15.02
344.886	37.55
345.099	127.66
345.311	98.99
345.523	70.31
345.735	33.45
345.947	111.27
346.159	53.93
346.371	139.94
346.583	117.42
346.795	176.81
347.007	27.31
347.219	135.85
347.431	62.12
347.643	68.27
347.855	17.07
348.067	74.41
348.279	66.22
348.491	98.99
348.703	33.45
348.915	37.55
349.127	41.64
349.339	4.78
349.551	8.87
349.763	66.22
349.975	107.18
350.187	133.8
350.399	94.89
350.61	-44.37
350.822	41.64
351.034	58.03
351.246	76.46
351.458	35.5
351.669	58.03
351.881	86.7
352.093	86.7
352.305	62.12
352.517	17.07
352.728	152.23
352.94	60.07
353.152	23.21
353.363	8.87
353.575	90.79
353.787	53.93
353.999	109.23
354.21	76.46
354.422	80.55
354.633	25.26
354.845	90.79
355.057	68.27
355.268	78.51
355.48	47.79
355.692	-52.56
355.903	29.35
356.115	49.83
356.326	-32.08
356.538	82.6
356.749	51.88
356.961	133.8
357.172	35.5
357.384	39.59
357.595	115.37
357.807	-30.04
358.018	4.78
358.23	-15.7
358.441	182.95
358.653	49.83
358.864	49.83
359.075	60.07
359.287	72.36
359.498	96.94
359.709	74.41
359.921	90.79
360.132	111.27
360.344	66.22
360.555	94.89
360.766	90.79
360.977	98.99
361.189	90.79
361.4	31.4
361.611	125.61
361.823	62.12
362.034	76.46
362.245	10.92
362.456	62.12
362.667	66.22
362.879	62.12
363.09	123.56
363.301	58.03
363.512	58.03
363.723	45.74
363.935	146.09
364.146	74.41
364.357	51.88
364.568	68.27
364.779	-7.51
364.99	158.38
365.201	60.07
365.412	148.14
365.623	-46.42
365.834	92.84
366.045	111.27
366.256	27.31
366.467	94.89
366.678	41.64
366.889	74.41
367.1	68.27
367.311	74.41
367.522	60.07
367.733	133.8
367.944	51.88
368.155	78.51
368.366	0.68
368.577	168.62
368.788	109.23
368.999	33.45
369.209	70.31
369.42	123.56
369.631	189.1
369.842	84.65
370.053	86.7
370.264	98.99
370.474	-21.84
370.685	86.7
370.896	74.41
371.107	49.83
371.317	94.89
371.528	76.46
371.739	70.31
371.95	49.83
372.16	146.09
372.371	-40.28
372.582	0.68
372.792	94.89
373.003	17.07
373.214	92.84
373.424	94.89
373.635	-5.46
373.846	205.48
374.056	98.99
374.267	66.22
374.477	41.64
374.688	80.55
374.898	60.07
375.109	94.89
375.319	-5.46
375.53	119.46
375.74	115.37
375.951	68.27
376.161	84.65
376.372	58.03
376.582	72.36
376.793	33.45
377.003	64.17
377.214	25.26
377.424	86.7
377.635	51.88
377.845	64.17
378.055	139.94
378.266	2.73
378.476	66.22
378.686	107.18
378.897	141.99
379.107	53.93
379.317	58.03
379.528	98.99
379.738	148.14
379.948	27.31
380.158	80.55
380.369	29.35
380.579	98.99
380.789	119.46
380.999	70.31
381.21	37.55
381.42	150.18
381.63	78.51
381.84	92.84
382.05	0.68
382.261	137.9
382.471	152.23
382.681	58.03
382.891	66.22
383.101	58.03
383.311	88.75
383.521	74.41
383.731	117.42
383.941	111.27
384.151	107.18
384.361	41.64
384.571	17.07
384.781	74.41
384.991	101.03
385.201	160.42
385.411	66.22
385.621	82.6
385.831	66.22
386.041	49.83
386.251	25.26
386.461	62.12
386.671	98.99
386.881	135.85
387.091	51.88
387.301	66.22
387.511	105.13
387.72	164.52
387.93	51.88
388.14	117.42
388.35	51.88
388.56	49.83
388.769	105.13
388.979	41.64
389.189	135.85
389.399	37.55
389.609	98.99
389.818	107.18
390.028	98.99
390.238	152.23
390.447	25.26
390.657	98.99
390.867	55.98
391.076	29.35
391.286	66.22
391.496	82.6
391.705	84.65
391.915	68.27
392.125	168.62
392.334	119.46
392.544	121.51
392.753	60.07
392.963	-3.41
393.172	90.79
393.382	68.27
393.591	189.1
393.801	76.46
394.01	182.95
394.22	8.87
394.429	58.03
394.639	58.03
394.848	49.83
395.058	94.89
395.267	70.31
395.477	121.51
395.686	207.53
395.895	76.46
396.105	174.76
396.314	162.47
396.524	109.23
396.733	51.88
396.942	185
397.152	84.65
397.361	205.48
397.57	207.53
397.78	84.65
397.989	164.52
398.198	215.72
398.407	84.65
398.617	148.14
398.826	92.84
399.035	125.61
399.244	117.42
399.453	150.18
399.663	92.84
399.872	66.22
400.081	168.62
400.29	156.33
400.499	49.83
400.708	139.94
400.917	131.75
401.127	125.61
401.336	172.71
401.545	176.81
401.754	182.95
401.963	125.61
402.172	168.62
402.381	156.33
402.59	74.41
402.799	144.04
403.008	195.24
403.217	172.71
403.426	144.04
403.635	168.62
403.844	213.67
404.053	107.18
404.262	103.08
404.471	195.24
404.68	209.58
404.888	131.75
405.097	277.16
405.306	195.24
405.515	205.48
405.724	230.06
405.933	238.25
406.142	207.53
406.35	258.73
406.559	215.72
406.768	164.52
406.977	271.01
407.185	205.48
407.394	307.88
407.603	189.1
407.812	277.16
408.02	361.13
408.229	279.21
408.438	336.55
408.646	213.67
408.855	316.07
409.064	295.59
409.272	348.84
409.481	248.49
409.69	375.46
409.898	397.99
410.107	352.93
410.315	348.84
410.524	445.09
410.733	377.51
410.941	461.48
411.15	539.3
411.358	467.62
411.567	486.05
411.775	443.04
411.984	549.54
412.192	512.67
412.401	572.07
412.609	606.88
412.818	672.42
413.026	668.32
413.234	633.5
413.443	674.46
413.651	676.51
413.86	766.62
414.068	641.7
414.276	830.11
414.485	795.29
414.693	772.77
414.901	869.02
415.11	934.56
415.318	871.07
415.526	1026.71
415.734	959.13
415.943	957.08
416.151	1041.05
416.359	1077.91
416.567	1073.82
416.776	1082.01
416.984	1256.09
417.192	1307.29
417.4	1264.28
417.608	1315.48
417.817	1315.48
418.025	1462.93
418.233	1411.73
418.441	1444.5
418.649	1446.55
418.857	1575.57
419.065	1602.19
419.273	1585.81
419.481	1696.4
419.689	1712.78
419.897	1817.23
420.105	1933.97
420.313	1938.06
420.521	2042.51
420.729	2081.42
420.937	2169.48
421.145	2136.71
421.353	2306.7
421.561	2376.33
421.769	2359.94
421.977	2564.74
422.185	2497.16
422.393	2626.18
422.601	2933.37
422.809	2904.7
423.017	2851.46
423.224	2916.99
423.432	3115.64
423.64	3052.16
423.848	3412.6
424.056	3228.28
424.263	3484.28
424.471	3558
424.679	3644.02
424.887	3760.75
425.094	3932.78
425.302	4002.41
425.51	4100.72
425.718	4203.11
425.925	4303.47
426.133	4387.43
426.341	4465.25
426.548	4928.1
426.756	4893.28
426.964	4907.62
427.171	5163.61
427.379	5294.68
427.586	5423.7
427.794	5491.29
428.001	5857.87
428.209	5935.7
428.417	6021.71
428.624	6464.07
428.832	6351.43
429.039	6416.97
429.247	6326.86
429.454	7064.13
429.662	7475.77
429.869	6910.53
430.076	7307.84
430.284	7209.53
430.491	7543.35
430.699	7817.78
430.906	7998
431.114	8225.33
431.321	8444.46
431.528	8544.81
431.736	9011.75
431.943	9511.45
432.15	9196.06
432.358	9411.1
432.565	9781.78
432.772	9576.98
432.979	10088.98
433.187	10379.79
433.394	10498.57
433.601	11094.53
433.808	11266.56
434.016	11176.45
434.223	11563.51
434.43	12378.61
434.637	12083.7
434.844	12988.9
435.052	13066.72
435.259	12837.35
435.466	13150.69
435.673	12857.83
435.88	13695.45
436.087	14578.12
436.294	14541.26
436.501	14193.11
436.708	14320.08
436.915	14586.32
437.122	15616.44
437.329	15057.35
437.537	16030.13
437.743	16138.68
437.95	16279.99
438.157	16818.6
438.364	17459.62
438.571	17373.6
438.778	17445.28
438.985	19069.32
439.192	18508.18
439.399	18631.05
439.606	18514.32
439.813	19714.43
440.02	20623.73
440.227	20330.87
440.433	20214.13
440.64	21152.1
440.847	20578.67
441.054	21182.82
441.261	22589.78
441.467	22221.14
441.674	22944.08
441.881	23769.41
442.088	23576.9
442.294	23327.05
442.501	23867.71
442.708	24299.83
442.914	25293.1
443.121	26460.44
443.328	25721.12
443.534	27400.46
443.741	26566.93
443.948	26032.41
444.154	28508.41
444.361	28373.24
444.568	28381.43
444.774	27965.7
444.981	28745.97
445.187	29434.09
445.394	30800.08
445.6	30380.25
445.807	32891.06
446.013	31776.97
446.22	32198.85
446.426	33650.86
446.633	33800.36
446.839	34789.53
447.046	33652.91
447.252	35195.03
447.459	35326.1
447.665	34836.63
447.871	36866.17
448.078	38666.33
448.284	36477.05
448.491	37054.58
448.697	38924.38
448.903	39315.54
449.11	39960.65
449.316	39129.17
449.522	39600.21
449.728	41031.74
449.935	41197.62
450.141	41218.1
450.347	41826.35
450.553	40667.2
450.76	41496.63
450.966	42227.75
451.172	41850.92
451.378	43280.41
451.584	42203.17
451.791	43143.19
451.997	43202.58
452.203	43655.18
452.409	43591.7
452.615	43399.19
452.821	41826.35
453.027	41207.86
453.233	43321.37
453.44	41652.27
453.646	42493.99
453.852	42418.21
454.058	43415.57
454.264	41990.19
454.47	43153.43
454.676	41680.94
454.882	43268.12
455.088	39454.8
455.294	40097.86
455.5	40718.4
455.705	40513.6
455.911	39067.73
456.117	38781.02
456.323	38309.99
456.529	35969.16
456.735	37388.4
456.941	36331.65
457.147	35952.77
457.352	34732.18
457.558	34738.33
457.764	34558.11
457.97	33915.05
458.176	33355.95
458.381	33038.51
458.587	31551.69
458.793	31652.04
458.999	29788.39
459.204	32131.26
459.41	31326.41
459.616	29282.54
459.821	28934.39
460.027	29122.8
460.233	28383.48
460.438	26636.56
460.644	27386.12
460.85	26153.24
461.055	25479.46
461.261	25415.97
461.466	23642.43
461.672	22831.44
461.878	24465.72
462.083	23316.81
462.289	22374.74
462.494	22260.06
462.7	21420.39
462.905	20736.37
463.111	21678.43
463.316	21506.4
463.522	21137.77
463.727	20984.17
463.932	20842.86
464.138	20629.87
464.343	20693.36
464.549	20222.33
464.754	21076.33
464.959	20457.84
465.165	20674.93
465.37	19601.79
465.575	19184.01
465.781	19857.79
465.986	20011.39
466.191	19548.54
466.397	18948.49
466.602	17815.96
466.807	18620.81
