Data from USB4F104151__281__14-34-45-650.txt Node

Date: Thu Mar 13 14:34:45 EDT 2025
User: louis
Spectrometer: USB4F10415
Trigger mode: 4
Integration Time (sec): 2.500000E-2
Scans to average: 1
Electric dark correction enabled: true
Nonlinearity correction enabled: false
Boxcar width: 0
XAxis mode: Wavelengths
Number of Pixels in Spectrum: 3648
>>>>>Begin Spectral Data<<<<<
178.204	-138.92
178.424	-138.92
178.644	-138.92
178.864	-179.88
179.084	-183.98
179.304	-13.99
179.524	-26.28
179.744	-30.38
179.964	2.39
180.184	-7.85
180.404	24.92
180.624	90.45
180.844	12.63
181.064	-5.8
181.283	-36.52
181.503	18.77
181.723	-28.33
181.943	-24.23
182.163	24.92
182.383	-57
182.602	123.22
182.822	69.97
183.042	49.49
183.262	51.54
183.482	49.49
183.701	18.77
183.921	106.84
184.141	51.54
184.361	49.49
184.58	92.5
184.8	53.59
185.02	-13.99
185.239	14.68
185.459	4.44
185.679	33.11
185.898	-38.57
186.118	86.36
186.338	92.5
186.557	57.68
186.777	-40.62
186.997	18.77
187.216	-32.43
187.436	110.93
187.655	94.55
187.875	10.58
188.095	16.73
188.314	57.68
188.534	133.46
188.753	-36.52
188.973	22.87
189.192	57.68
189.412	12.63
189.631	115.03
189.851	24.92
190.07	31.06
190.29	57.68
190.509	24.92
190.729	2.39
190.948	55.64
191.168	182.61
191.387	102.74
191.607	-28.33
191.826	98.64
192.045	82.26
192.265	69.97
192.484	65.88
192.704	57.68
192.923	-54.95
193.142	137.56
193.362	39.25
193.581	-1.71
193.8	65.88
194.02	57.68
194.239	10.58
194.458	12.63
194.678	18.77
194.897	2.39
195.116	10.58
195.335	4.44
195.555	35.16
195.774	43.35
195.993	4.44
196.212	55.64
196.432	33.11
196.651	26.96
196.87	-3.75
197.089	112.98
197.308	76.12
197.528	59.73
197.747	12.63
197.966	26.96
198.185	84.31
198.404	65.88
198.623	37.2
198.842	41.3
199.062	53.59
199.281	106.84
199.5	115.03
199.719	65.88
199.938	53.59
200.157	82.26
200.376	-30.38
200.595	29.01
200.814	76.12
201.033	-5.8
201.252	117.08
201.471	20.82
201.69	76.12
201.909	18.77
202.128	-9.9
202.347	45.4
202.566	-22.19
202.785	20.82
203.004	57.68
203.223	147.8
203.442	86.36
203.661	-48.81
203.879	24.92
204.098	16.73
204.317	2.39
204.536	147.8
204.755	-30.38
204.974	35.16
205.193	29.01
205.411	98.64
205.63	49.49
205.849	37.2
206.068	18.77
206.287	29.01
206.505	20.82
206.724	26.96
206.943	43.35
207.162	-11.95
207.381	14.68
207.599	-9.9
207.818	35.16
208.037	57.68
208.255	82.26
208.474	74.07
208.693	41.3
208.911	16.73
209.13	16.73
209.349	67.92
209.567	33.11
209.786	57.68
210.005	69.97
210.223	76.12
210.442	37.2
210.661	86.36
210.879	-32.43
211.098	43.35
211.316	-3.75
211.535	4.44
211.753	0.34
211.972	4.44
212.191	-22.19
212.409	45.4
212.628	45.4
212.846	78.16
213.065	24.92
213.283	123.22
213.502	10.58
213.72	16.73
213.938	59.73
214.157	49.49
214.375	37.2
214.594	61.78
214.812	53.59
215.031	-32.43
215.249	18.77
215.467	65.88
215.686	98.64
215.904	20.82
216.122	115.03
216.341	98.64
216.559	-20.14
216.778	67.92
216.996	-11.95
217.214	-30.38
217.432	43.35
217.651	53.59
217.869	-1.71
218.087	51.54
218.306	35.16
218.524	-7.85
218.742	-7.85
218.96	74.07
219.179	8.53
219.397	51.54
219.615	37.2
219.833	45.4
220.051	-46.76
220.27	61.78
220.488	76.12
220.706	76.12
220.924	4.44
221.142	92.5
221.36	-5.8
221.578	29.01
221.796	-32.43
222.015	4.44
222.233	-11.95
222.451	63.83
222.669	-3.75
222.887	-22.19
223.105	-40.62
223.323	-13.99
223.541	-32.43
223.759	59.73
223.977	-34.47
224.195	41.3
224.413	65.88
224.631	49.49
224.849	-24.23
225.067	115.03
225.285	-3.75
225.503	10.58
225.721	57.68
225.939	59.73
226.157	22.87
226.375	90.45
226.592	-40.62
226.81	-46.76
227.028	-22.19
227.246	35.16
227.464	-24.23
227.682	35.16
227.9	41.3
228.117	49.49
228.335	53.59
228.553	33.11
228.771	-13.99
228.989	24.92
229.206	82.26
229.424	53.59
229.642	24.92
229.86	-13.99
230.077	57.68
230.295	20.82
230.513	24.92
230.731	57.68
230.948	125.27
231.166	16.73
231.384	26.96
231.601	24.92
231.819	10.58
232.037	-38.57
232.254	0.34
232.472	53.59
232.689	-3.75
232.907	35.16
233.125	20.82
233.342	-11.95
233.56	-77.48
233.777	59.73
233.995	61.78
234.213	174.42
234.43	-52.91
234.648	-16.04
234.865	4.44
235.083	61.78
235.3	16.73
235.518	-11.95
235.735	110.93
235.953	16.73
236.17	16.73
236.388	-40.62
236.605	65.88
236.822	102.74
237.04	-26.28
237.257	12.63
237.475	67.92
237.692	86.36
237.909	55.64
238.127	-61.1
238.344	18.77
238.562	16.73
238.779	-32.43
238.996	16.73
239.214	-28.33
239.431	53.59
239.648	65.88
239.865	131.41
240.083	4.44
240.3	16.73
240.517	41.3
240.735	-5.8
240.952	125.27
241.169	90.45
241.386	37.2
241.603	33.11
241.821	-7.85
242.038	127.32
242.255	8.53
242.472	-16.04
242.689	29.01
242.907	26.96
243.124	-24.23
243.341	-38.57
243.558	-5.8
243.775	-20.14
243.992	0.34
244.209	76.12
244.426	135.51
244.643	-9.9
244.86	16.73
245.078	59.73
245.295	76.12
245.512	41.3
245.729	10.58
245.946	8.53
246.163	-44.71
246.38	-7.85
246.597	20.82
246.814	82.26
247.031	53.59
247.248	133.46
247.464	12.63
247.681	67.92
247.898	94.55
248.115	24.92
248.332	-110.25
248.549	65.88
248.766	115.03
248.983	69.97
249.2	49.49
249.417	100.69
249.633	16.73
249.85	76.12
250.067	-5.8
250.284	16.73
250.501	35.16
250.717	33.11
250.934	-3.75
251.151	49.49
251.368	63.83
251.585	57.68
251.801	35.16
252.018	-34.47
252.235	129.36
252.451	10.58
252.668	63.83
252.885	10.58
253.102	26.96
253.318	39.25
253.535	26.96
253.752	45.4
253.968	8.53
254.185	29.01
254.401	10.58
254.618	-1.71
254.835	57.68
255.051	74.07
255.268	16.73
255.484	10.58
255.701	-22.19
255.917	18.77
256.134	-5.8
256.351	-24.23
256.567	-16.04
256.784	100.69
257	-48.81
257.217	57.68
257.433	47.44
257.65	33.11
257.866	55.64
258.082	-26.28
258.299	-20.14
258.515	49.49
258.732	-28.33
258.948	51.54
259.165	-16.04
259.381	49.49
259.597	0.34
259.814	-16.04
260.03	-3.75
260.246	86.36
260.463	29.01
260.679	0.34
260.895	65.88
261.112	43.35
261.328	-28.33
261.544	-48.81
261.761	129.36
261.977	8.53
262.193	10.58
262.409	49.49
262.626	0.34
262.842	82.26
263.058	57.68
263.274	33.11
263.49	88.4
263.707	53.59
263.923	65.88
264.139	6.49
264.355	29.01
264.571	24.92
264.787	125.27
265.004	125.27
265.22	24.92
265.436	45.4
265.652	-32.43
265.868	49.49
266.084	-65.19
266.3	18.77
266.516	69.97
266.732	2.39
266.948	51.54
267.164	86.36
267.38	53.59
267.596	-40.62
267.812	117.08
268.028	53.59
268.244	26.96
268.46	41.3
268.676	39.25
268.892	59.73
269.108	41.3
269.324	16.73
269.54	10.58
269.756	57.68
269.972	0.34
270.188	43.35
270.403	26.96
270.619	-3.75
270.835	29.01
271.051	82.26
271.267	-5.8
271.483	86.36
271.698	-9.9
271.914	94.55
272.13	90.45
272.346	37.2
272.562	72.02
272.777	74.07
272.993	29.01
273.209	31.06
273.425	92.5
273.64	-40.62
273.856	74.07
274.072	41.3
274.287	-22.19
274.503	45.4
274.719	37.2
274.934	72.02
275.15	-42.67
275.366	57.68
275.581	65.88
275.797	57.68
276.012	-16.04
276.228	80.21
276.444	33.11
276.659	90.45
276.875	-30.38
277.09	49.49
277.306	92.5
277.521	8.53
277.737	69.97
277.952	98.64
278.168	65.88
278.383	26.96
278.599	24.92
278.814	-3.75
279.03	65.88
279.245	51.54
279.461	90.45
279.676	-24.23
279.892	6.49
280.107	0.34
280.322	37.2
280.538	33.11
280.753	14.68
280.969	-28.33
281.184	82.26
281.399	51.54
281.615	-11.95
281.83	10.58
282.045	-38.57
282.26	16.73
282.476	18.77
282.691	45.4
282.906	90.45
283.122	65.88
283.337	2.39
283.552	55.64
283.767	53.59
283.983	92.5
284.198	-57
284.413	57.68
284.628	-57
284.843	18.77
285.058	86.36
285.274	51.54
285.489	18.77
285.704	53.59
285.919	10.58
286.134	4.44
286.349	-7.85
286.564	33.11
286.779	47.44
286.995	-36.52
287.21	59.73
287.425	43.35
287.64	8.53
287.855	76.12
288.07	0.34
288.285	33.11
288.5	117.08
288.715	41.3
288.93	59.73
289.145	-34.47
289.36	74.07
289.575	51.54
289.79	57.68
290.004	35.16
290.219	33.11
290.434	76.12
290.649	-7.85
290.864	82.26
291.079	-3.75
291.294	49.49
291.509	98.64
291.724	57.68
291.938	82.26
292.153	14.68
292.368	-16.04
292.583	131.41
292.798	45.4
293.012	26.96
293.227	18.77
293.442	92.5
293.657	65.88
293.871	61.78
294.086	4.44
294.301	115.03
294.516	67.92
294.73	24.92
294.945	74.07
295.16	35.16
295.374	106.84
295.589	78.16
295.804	-20.14
296.018	35.16
296.233	67.92
296.447	67.92
296.662	-3.75
296.877	98.64
297.091	74.07
297.306	20.82
297.52	61.78
297.735	65.88
297.949	59.73
298.164	0.34
298.378	-81.58
298.593	-46.76
298.807	-67.24
299.022	29.01
299.236	104.79
299.451	-32.43
299.665	20.82
299.88	22.87
300.094	49.49
300.309	65.88
300.523	24.92
300.737	104.79
300.952	10.58
301.166	39.25
301.381	-36.52
301.595	18.77
301.809	108.88
302.024	24.92
302.238	24.92
302.452	74.07
302.667	47.44
302.881	94.55
303.095	47.44
303.309	61.78
303.524	-13.99
303.738	-54.95
303.952	10.58
304.166	51.54
304.381	-79.53
304.595	108.88
304.809	12.63
305.023	53.59
305.237	65.88
305.452	37.2
305.666	84.31
305.88	96.6
306.094	-7.85
306.308	-44.71
306.522	-40.62
306.736	49.49
306.95	8.53
307.164	8.53
307.379	-18.09
307.593	33.11
307.807	57.68
308.021	57.68
308.235	67.92
308.449	-11.95
308.663	-95.91
308.877	69.97
309.091	-20.14
309.305	92.5
309.519	-30.38
309.733	20.82
309.947	33.11
310.161	8.53
310.374	-26.28
310.588	98.64
310.802	-48.81
311.016	31.06
311.23	33.11
311.444	-61.1
311.658	-22.19
311.872	51.54
312.085	90.45
312.299	51.54
312.513	-11.95
312.727	76.12
312.941	-93.87
313.154	69.97
313.368	82.26
313.582	4.44
313.796	82.26
314.009	59.73
314.223	94.55
314.437	-24.23
314.651	-7.85
314.864	-5.8
315.078	92.5
315.292	18.77
315.505	51.54
315.719	45.4
315.933	51.54
316.146	47.44
316.36	-28.33
316.573	172.37
316.787	29.01
317.001	35.16
317.214	41.3
317.428	0.34
317.641	-44.71
317.855	59.73
318.068	22.87
318.282	16.73
318.495	72.02
318.709	112.98
318.922	14.68
319.136	82.26
319.349	18.77
319.563	2.39
319.776	69.97
319.99	39.25
320.203	41.3
320.417	16.73
320.63	65.88
320.843	131.41
321.057	37.2
321.27	10.58
321.483	88.4
321.697	41.3
321.91	37.2
322.124	51.54
322.337	26.96
322.55	4.44
322.763	-7.85
322.977	98.64
323.19	6.49
323.403	59.73
323.617	53.59
323.83	65.88
324.043	0.34
324.256	84.31
324.469	29.01
324.683	90.45
324.896	41.3
325.109	76.12
325.322	24.92
325.535	82.26
325.748	24.92
325.962	16.73
326.175	24.92
326.388	67.92
326.601	117.08
326.814	16.73
327.027	-20.14
327.24	41.3
327.453	-32.43
327.666	20.82
327.879	24.92
328.092	8.53
328.305	-24.23
328.518	65.88
328.731	45.4
328.944	53.59
329.157	76.12
329.37	86.36
329.583	104.79
329.796	86.36
330.009	-50.86
330.222	67.92
330.435	102.74
330.648	49.49
330.861	57.68
331.073	24.92
331.286	41.3
331.499	33.11
331.712	-40.62
331.925	143.7
332.138	-13.99
332.35	98.64
332.563	33.11
332.776	49.49
332.989	84.31
333.202	49.49
333.414	24.92
333.627	61.78
333.84	49.49
334.053	65.88
334.265	65.88
334.478	8.53
334.691	-24.23
334.903	102.74
335.116	12.63
335.329	-59.05
335.541	37.2
335.754	133.46
335.966	43.35
336.179	16.73
336.392	37.2
336.604	24.92
336.817	147.8
337.029	4.44
337.242	65.88
337.454	108.88
337.667	26.96
337.88	94.55
338.092	29.01
338.305	59.73
338.517	33.11
338.729	26.96
338.942	33.11
339.154	-30.38
339.367	-18.09
339.579	86.36
339.792	4.44
340.004	0.34
340.217	0.34
340.429	24.92
340.641	33.11
340.854	37.2
341.066	37.2
341.278	153.94
341.491	115.03
341.703	14.68
341.915	51.54
342.128	98.64
342.34	49.49
342.552	-24.23
342.764	-1.71
342.977	123.22
343.189	-36.52
343.401	29.01
343.613	-28.33
343.826	41.3
344.038	26.96
344.25	53.59
344.462	22.87
344.674	61.78
344.886	-22.19
345.099	43.35
345.311	55.64
345.523	0.34
345.735	-38.57
345.947	16.73
346.159	49.49
346.371	108.88
346.583	24.92
346.795	137.56
347.007	69.97
347.219	43.35
347.431	-32.43
347.643	123.22
347.855	51.54
348.067	69.97
348.279	-5.8
348.491	100.69
348.703	86.36
348.915	82.26
349.127	53.59
349.339	110.93
349.551	41.3
349.763	78.16
349.975	0.34
350.187	82.26
350.399	123.22
350.61	16.73
350.822	10.58
351.034	82.26
351.246	43.35
351.458	43.35
351.669	80.21
351.881	98.64
352.093	78.16
352.305	43.35
352.517	102.74
352.728	96.6
352.94	10.58
353.152	65.88
353.363	33.11
353.575	57.68
353.787	112.98
353.999	57.68
354.21	14.68
354.422	-5.8
354.633	-7.85
354.845	90.45
355.057	49.49
355.268	82.26
355.48	76.12
355.692	39.25
355.903	47.44
356.115	8.53
356.326	10.58
356.538	10.58
356.749	96.6
356.961	45.4
357.172	41.3
357.384	-5.8
357.595	123.22
357.807	26.96
358.018	20.82
358.23	0.34
358.441	51.54
358.653	49.49
358.864	4.44
359.075	41.3
359.287	8.53
359.498	88.4
359.709	8.53
359.921	72.02
360.132	49.49
360.344	18.77
360.555	57.68
360.766	61.78
360.977	74.07
361.189	121.17
361.4	10.58
361.611	78.16
361.823	61.78
362.034	67.92
362.245	-28.33
362.456	29.01
362.667	20.82
362.879	-5.8
363.09	8.53
363.301	65.88
363.512	43.35
363.723	29.01
363.935	65.88
364.146	78.16
364.357	0.34
364.568	86.36
364.779	18.77
364.99	65.88
365.201	12.63
365.412	59.73
365.623	16.73
365.834	-18.09
366.045	49.49
366.256	-7.85
366.467	43.35
366.678	35.16
366.889	78.16
367.1	115.03
367.311	16.73
367.522	74.07
367.733	53.59
367.944	45.4
368.155	90.45
368.366	49.49
368.577	127.32
368.788	123.22
368.999	45.4
369.209	16.73
369.42	69.97
369.631	133.46
369.842	12.63
370.053	18.77
370.264	90.45
370.474	12.63
370.685	106.84
370.896	153.94
371.107	53.59
371.317	59.73
371.528	37.2
371.739	90.45
371.95	65.88
372.16	49.49
372.371	33.11
372.582	49.49
372.792	57.68
373.003	98.64
373.214	43.35
373.424	106.84
373.635	41.3
373.846	86.36
374.056	76.12
374.267	57.68
374.477	41.3
374.688	59.73
374.898	-3.75
375.109	29.01
375.319	49.49
375.53	131.41
375.74	53.59
375.951	90.45
376.161	84.31
376.372	115.03
376.582	-71.34
376.793	65.88
377.003	33.11
377.214	4.44
377.424	67.92
377.635	86.36
377.845	-24.23
378.055	41.3
378.266	31.06
378.476	90.45
378.686	112.98
378.897	-11.95
379.107	37.2
379.317	-32.43
379.528	51.54
379.738	65.88
379.948	-65.19
380.158	108.88
380.369	49.49
380.579	90.45
380.789	53.59
380.999	74.07
381.21	51.54
381.42	110.93
381.63	76.12
381.84	41.3
382.05	92.5
382.261	61.78
382.471	94.55
382.681	12.63
382.891	67.92
383.101	88.4
383.311	-24.23
383.521	-7.85
383.731	67.92
383.941	29.01
384.151	61.78
384.361	57.68
384.571	33.11
384.781	43.35
384.991	49.49
385.201	74.07
385.411	82.26
385.621	51.54
385.831	33.11
386.041	90.45
386.251	8.53
386.461	59.73
386.671	78.16
386.881	24.92
387.091	-22.19
387.301	76.12
387.511	45.4
387.72	90.45
387.93	41.3
388.14	69.97
388.35	65.88
388.56	51.54
388.769	102.74
388.979	108.88
389.189	39.25
389.399	72.02
389.609	92.5
389.818	115.03
390.028	82.26
390.238	12.63
390.447	69.97
390.657	78.16
390.867	33.11
391.076	29.01
391.286	59.73
391.496	51.54
391.705	59.73
391.915	92.5
392.125	131.41
392.334	76.12
392.544	90.45
392.753	78.16
392.963	-32.43
393.172	117.08
393.382	31.06
393.591	92.5
393.801	78.16
394.01	176.47
394.22	98.64
394.429	57.68
394.639	37.2
394.848	92.5
395.058	49.49
395.267	26.96
395.477	53.59
395.686	94.55
395.895	147.8
396.105	151.89
396.314	61.78
396.524	123.22
396.733	18.77
396.942	86.36
397.152	119.12
397.361	117.08
397.57	33.11
397.78	74.07
397.989	115.03
398.198	160.08
398.407	110.93
398.617	106.84
398.826	127.32
399.035	117.08
399.244	55.64
399.453	98.64
399.663	51.54
399.872	55.64
400.081	125.27
400.29	78.16
400.499	96.6
400.708	164.18
400.917	115.03
401.127	131.41
401.336	162.13
401.545	176.47
401.754	112.98
401.963	125.27
402.172	49.49
402.381	16.73
402.59	106.84
402.799	133.46
403.008	153.94
403.217	131.41
403.426	100.69
403.635	106.84
403.844	139.6
404.053	160.08
404.262	147.8
404.471	172.37
404.68	190.8
404.888	88.4
405.097	119.12
405.306	248.15
405.515	172.37
405.724	172.37
405.933	176.47
406.142	190.8
406.35	242
406.559	229.71
406.768	147.8
406.977	205.14
407.185	262.48
407.394	254.29
407.603	229.71
407.812	229.71
408.02	246.1
408.229	239.95
408.438	211.28
408.646	221.52
408.855	262.48
409.064	266.58
409.272	268.63
409.481	364.88
409.69	188.75
409.898	307.54
410.107	397.65
410.315	305.49
410.524	297.3
410.733	395.6
410.941	395.6
411.15	336.21
411.358	348.5
411.567	430.41
411.775	307.54
411.984	317.78
412.192	498
412.401	491.85
412.609	446.8
412.818	487.76
413.026	502.09
413.234	487.76
413.443	524.62
413.651	602.44
413.86	567.63
414.068	549.2
414.276	696.65
414.485	592.2
414.693	635.21
414.901	758.09
415.11	725.32
415.318	700.75
415.526	809.29
415.734	772.43
415.943	848.2
416.151	897.35
416.359	819.53
416.567	837.96
416.776	846.15
416.984	919.88
417.192	1048.9
417.4	1003.85
417.608	1016.13
417.817	1040.71
418.025	1184.07
418.233	1108.29
418.441	1173.83
418.649	1190.21
418.857	1292.61
419.065	1265.99
419.273	1253.7
419.481	1296.71
419.689	1466.69
419.897	1433.92
420.105	1499.45
420.313	1548.61
420.521	1624.38
420.729	1716.54
420.937	1689.92
421.145	1794.36
421.353	1941.82
421.561	1861.94
421.769	1909.05
421.977	2081.08
422.185	2144.56
422.393	2140.47
422.601	2384.18
422.809	2328.88
423.017	2394.42
423.224	2396.46
423.432	2621.74
423.64	2564.4
423.848	2756.91
424.056	2599.21
424.263	2851.11
424.471	2910.5
424.679	3006.76
424.887	3031.34
425.094	3115.3
425.302	3137.83
425.51	3240.23
425.718	3227.94
425.925	3424.55
426.133	3520.8
426.341	3692.83
426.548	3944.73
426.756	3957.02
426.964	3838.23
427.171	4137.24
427.379	4186.39
427.586	4301.08
427.794	4516.11
428.001	4638.99
428.209	4942.09
428.417	4845.84
428.624	5243.14
428.832	5187.85
429.039	5132.55
429.247	5282.05
429.454	5589.25
429.662	6088.95
429.869	5646.59
430.076	5972.22
430.284	5849.34
430.491	6146.3
430.699	6353.14
430.906	6471.92
431.114	6365.43
431.321	6758.64
431.528	6865.13
431.736	7336.17
431.943	7784.67
432.15	7442.66
432.358	7327.97
432.565	8007.9
432.772	7909.6
432.979	8177.88
433.187	8292.57
433.394	8478.93
433.601	9019.6
433.808	9072.84
434.016	9011.4
434.223	9371.85
434.43	10070.2
434.637	9758.91
434.844	10356.92
435.052	10469.56
435.259	10473.65
435.466	10416.31
435.673	10383.54
435.88	11126.96
436.087	11858.08
436.294	11554.98
436.501	11239.59
436.708	11669.67
436.915	12011.68
437.122	12765.33
437.329	12372.12
437.537	13013.13
437.743	13033.61
437.95	12982.42
438.157	13731.97
438.364	14221.44
438.571	14114.94
438.778	14110.85
438.985	15435.88
439.192	14862.45
439.399	15138.93
439.606	15042.67
439.813	15689.83
440.02	16607.32
440.227	16339.04
440.433	16334.94
440.64	16750.68
440.847	16513.11
441.054	16889.94
441.261	18100.29
441.467	17729.61
441.674	18145.34
441.881	19103.79
442.088	19044.4
442.294	18737.21
442.501	19150.9
442.708	19421.23
442.914	20506.65
443.121	21071.89
443.328	20645.91
443.534	22130.69
443.741	21321.74
443.948	20971.54
444.154	22583.29
444.361	22714.36
444.568	22595.58
444.774	22687.74
444.981	23070.71
445.187	23541.74
445.394	24831.96
445.6	24553.44
445.807	26529.73
446.013	25075.67
446.22	25868.23
446.426	26963.9
446.633	27107.26
446.839	28075.94
447.046	26933.18
447.252	28272.55
447.459	28655.52
447.665	28571.55
447.871	29788.05
448.078	30662.53
448.284	29147.03
448.491	30062.47
448.697	31453.05
448.903	31719.28
449.11	31860.59
449.316	31399.8
449.522	32139.11
449.728	33152.86
449.935	33310.55
450.141	33236.83
450.347	33589.08
450.553	32546.66
450.76	33296.22
450.966	34150.22
451.172	34096.97
451.378	34641.73
451.584	33986.38
451.791	34809.67
451.997	34621.25
452.203	35596.09
452.409	35338.04
452.615	34783.04
452.821	33673.04
453.027	33300.31
453.233	35145.53
453.44	33697.62
453.646	33949.52
453.852	34271.05
454.058	34711.36
454.264	33642.32
454.47	34457.42
454.676	33535.83
454.882	34453.32
455.088	31881.07
455.294	31715.19
455.5	32343.91
455.705	32724.83
455.911	31444.85
456.117	31209.34
456.323	30855.04
456.529	28962.72
456.735	30322.57
456.941	29142.94
457.147	28977.05
457.352	28278.69
457.558	27606.96
457.764	27877.29
457.97	27619.25
458.176	26535.87
458.381	26697.66
458.587	25417.68
458.793	24782.81
458.999	24068.07
459.204	25427.92
459.41	25108.44
459.616	23271.41
459.821	23146.48
460.027	23005.17
460.233	22560.77
460.438	21610.51
460.644	21803.02
460.85	20809.75
461.055	20506.65
461.261	20342.81
461.466	18919.48
461.672	18419.77
461.878	19503.15
462.083	18169.92
462.289	17883.2
462.494	17672.26
462.7	17121.36
462.905	16595.03
463.111	16939.09
463.316	17074.26
463.522	16709.72
463.727	16582.74
463.932	16623.7
464.138	16236.64
464.343	16576.6
464.549	16230.49
464.754	16572.5
464.959	16375.9
465.165	16357.47
465.37	15616.1
465.575	14897.27
465.781	15659.11
465.986	15767.65
466.191	15310.96
466.397	14964.85
466.602	14293.12
466.807	14684.28
467.012	14940.27
467.218	14477.43
