Data from USB4F104151__269__14-34-36-378.txt Node

Date: Thu Mar 13 14:34:36 EDT 2025
User: louis
Spectrometer: USB4F10415
Trigger mode: 4
Integration Time (sec): 2.500000E-2
Scans to average: 1
Electric dark correction enabled: true
Nonlinearity correction enabled: false
Boxcar width: 0
XAxis mode: Wavelengths
Number of Pixels in Spectrum: 3648
>>>>>Begin Spectral Data<<<<<
178.204	-124.41
178.424	-124.41
178.644	-124.41
178.864	-185.85
179.084	-140.8
179.304	23.04
179.524	-15.87
179.744	-7.68
179.964	-7.68
180.184	-30.21
180.404	-15.87
180.624	59.9
180.844	12.8
181.064	-87.55
181.283	64
181.503	31.23
181.723	-26.11
181.943	-120.32
182.163	14.85
182.383	-26.11
182.602	72.19
182.822	31.23
183.042	-22.02
183.262	-15.87
183.482	25.09
183.701	133.63
183.921	0.51
184.141	0.51
184.361	129.53
184.58	8.7
184.8	6.66
185.02	-1.54
185.239	4.61
185.459	14.85
185.679	14.85
185.898	-15.87
186.118	25.09
186.338	84.48
186.557	72.19
186.777	-50.69
186.997	-17.92
187.216	25.09
187.436	18.94
187.655	31.23
187.875	64
188.095	-56.83
188.314	12.8
188.534	27.14
188.753	-34.3
188.973	74.24
189.192	115.2
189.412	107.01
189.631	47.62
189.851	37.38
190.07	-13.82
190.29	-24.06
190.509	47.62
190.729	14.85
190.948	109.05
191.168	147.97
191.387	-9.73
191.607	-7.68
191.826	12.8
192.045	8.7
192.265	16.9
192.484	104.96
192.704	-32.26
192.923	-26.11
193.142	147.97
193.362	10.75
193.581	74.24
193.8	-46.59
194.02	25.09
194.239	6.66
194.458	70.14
194.678	-30.21
194.897	6.66
195.116	20.99
195.335	-54.78
195.555	66.05
195.774	43.52
195.993	88.57
196.212	-17.92
196.432	23.04
196.651	10.75
196.87	-15.87
197.089	47.62
197.308	-42.5
197.528	51.71
197.747	-5.63
197.966	-9.73
198.185	27.14
198.404	23.04
198.623	80.38
198.842	57.86
199.062	35.33
199.281	41.47
199.5	-50.69
199.719	-1.54
199.938	25.09
200.157	88.57
200.376	47.62
200.595	45.57
200.814	27.14
201.033	-5.63
201.252	-5.63
201.471	-26.11
201.69	47.62
201.909	-38.4
202.128	-30.21
202.347	6.66
202.566	6.66
202.785	-91.65
203.004	-65.02
203.223	109.05
203.442	78.33
203.661	0.51
203.879	-13.82
204.098	117.25
204.317	10.75
204.536	84.48
204.755	14.85
204.974	23.04
205.193	0.51
205.411	49.66
205.63	84.48
205.849	-13.82
206.068	66.05
206.287	-38.4
206.505	68.09
206.724	25.09
206.943	2.56
207.162	82.43
207.381	33.28
207.599	49.66
207.818	64
208.037	64
208.255	25.09
208.474	51.71
208.693	14.85
208.911	-5.63
209.13	-22.02
209.349	41.47
209.567	23.04
209.786	14.85
210.005	76.29
210.223	47.62
210.442	-36.35
210.661	72.19
210.879	16.9
211.098	6.66
211.316	64
211.535	104.96
211.753	2.56
211.972	-19.97
212.191	-46.59
212.409	-34.3
212.628	49.66
212.846	-17.92
213.065	74.24
213.283	86.53
213.502	6.66
213.72	8.7
213.938	14.85
214.157	59.9
214.375	47.62
214.594	8.7
214.812	43.52
215.031	-1.54
215.249	47.62
215.467	31.23
215.686	16.9
215.904	31.23
216.122	47.62
216.341	107.01
216.559	41.47
216.778	39.42
216.996	51.71
217.214	-56.83
217.432	39.42
217.651	35.33
217.869	-26.11
218.087	-7.68
218.306	12.8
218.524	66.05
218.742	23.04
218.96	55.81
219.179	45.57
219.397	-52.74
219.615	66.05
219.833	-40.45
220.051	6.66
220.27	27.14
220.488	74.24
220.706	33.28
220.924	47.62
221.142	33.28
221.36	12.8
221.578	-34.3
221.796	-71.17
222.015	-34.3
222.233	23.04
222.451	6.66
222.669	-46.59
222.887	-48.64
223.105	-22.02
223.323	-26.11
223.541	-24.06
223.759	33.28
223.977	-26.11
224.195	92.67
224.413	-7.68
224.631	14.85
224.849	-56.83
225.067	113.15
225.285	57.86
225.503	-7.68
225.721	-81.41
225.939	14.85
226.157	-17.92
226.375	121.34
226.592	2.56
226.81	14.85
227.028	-13.82
227.246	80.38
227.464	14.85
227.682	-13.82
227.9	6.66
228.117	35.33
228.335	39.42
228.553	-13.82
228.771	16.9
228.989	25.09
229.206	59.9
229.424	-1.54
229.642	-17.92
229.86	6.66
230.077	59.9
230.295	39.42
230.513	14.85
230.731	23.04
230.948	23.04
231.166	82.43
231.384	27.14
231.601	-34.3
231.819	76.29
232.037	-15.87
232.254	35.33
232.472	51.71
232.689	-30.21
232.907	8.7
233.125	39.42
233.342	-34.3
233.56	-32.26
233.777	6.66
233.995	-17.92
234.213	55.81
234.43	66.05
234.648	10.75
234.865	33.28
235.083	14.85
235.3	-5.63
235.518	53.76
235.735	76.29
235.953	53.76
236.17	18.94
236.388	6.66
236.605	4.61
236.822	39.42
237.04	92.67
237.257	-30.21
237.475	55.81
237.692	-15.87
237.909	47.62
238.127	-34.3
238.344	37.38
238.562	64
238.779	31.23
238.996	-54.78
239.214	59.9
239.431	100.86
239.648	18.94
239.865	66.05
240.083	55.81
240.3	6.66
240.517	0.51
240.735	14.85
240.952	68.09
241.169	55.81
241.386	43.52
241.603	-5.63
241.821	-28.16
242.038	109.05
242.255	-1.54
242.472	-9.73
242.689	80.38
242.907	57.86
243.124	-7.68
243.341	-40.45
243.558	-34.3
243.775	10.75
243.992	-1.54
244.209	31.23
244.426	-9.73
244.643	31.23
244.86	2.56
245.078	104.96
245.295	27.14
245.512	-15.87
245.729	-17.92
245.946	41.47
246.163	64
246.38	-7.68
246.597	-5.63
246.814	-15.87
247.031	25.09
247.248	18.94
247.464	72.19
247.681	-32.26
247.898	-15.87
248.115	72.19
248.332	-58.88
248.549	82.43
248.766	76.29
248.983	6.66
249.2	74.24
249.417	-40.45
249.633	-28.16
249.85	14.85
250.067	8.7
250.284	47.62
250.501	80.38
250.717	82.43
250.934	-42.5
251.151	25.09
251.368	-9.73
251.585	-3.58
251.801	64
252.018	49.66
252.235	-3.58
252.451	14.85
252.668	-22.02
252.885	78.33
253.102	2.56
253.318	39.42
253.535	-26.11
253.752	6.66
253.968	-24.06
254.185	-38.4
254.401	14.85
254.618	109.05
254.835	20.99
255.051	49.66
255.268	51.71
255.484	49.66
255.701	23.04
255.917	-9.73
256.134	6.66
256.351	10.75
256.567	-67.07
256.784	39.42
257	113.15
257.217	57.86
257.433	18.94
257.65	10.75
257.866	37.38
258.082	-46.59
258.299	6.66
258.515	64
258.732	-38.4
258.948	55.81
259.165	39.42
259.381	-48.64
259.597	45.57
259.814	8.7
260.03	-24.06
260.246	55.81
260.463	10.75
260.679	72.19
260.895	104.96
261.112	47.62
261.328	-24.06
261.544	18.94
261.761	66.05
261.977	10.75
262.193	-5.63
262.409	80.38
262.626	12.8
262.842	6.66
263.058	-56.83
263.274	-30.21
263.49	16.9
263.707	43.52
263.923	33.28
264.139	-17.92
264.355	43.52
264.571	47.62
264.787	39.42
265.004	115.2
265.22	59.9
265.436	31.23
265.652	-36.35
265.868	-83.45
266.084	-24.06
266.3	31.23
266.516	31.23
266.732	0.51
266.948	55.81
267.164	10.75
267.38	-24.06
267.596	61.95
267.812	82.43
268.028	-13.82
268.244	23.04
268.46	-1.54
268.676	49.66
268.892	64
269.108	8.7
269.324	-9.73
269.54	-1.54
269.756	35.33
269.972	-15.87
270.188	-40.45
270.403	0.51
270.619	-54.78
270.835	16.9
271.051	-13.82
271.267	-42.5
271.483	-42.5
271.698	37.38
271.914	37.38
272.13	64
272.346	-5.63
272.562	16.9
272.777	66.05
272.993	6.66
273.209	-40.45
273.425	-1.54
273.64	-24.06
273.856	-26.11
274.072	27.14
274.287	39.42
274.503	39.42
274.719	74.24
274.934	47.62
275.15	-22.02
275.366	33.28
275.581	-42.5
275.797	31.23
276.012	88.57
276.228	-24.06
276.444	6.66
276.659	47.62
276.875	-17.92
277.09	43.52
277.306	-17.92
277.521	-9.73
277.737	-9.73
277.952	14.85
278.168	47.62
278.383	-9.73
278.599	14.85
278.814	80.38
279.03	-9.73
279.245	10.75
279.461	41.47
279.676	-9.73
279.892	-1.54
280.107	10.75
280.322	10.75
280.538	31.23
280.753	-97.79
280.969	-5.63
281.184	57.86
281.399	23.04
281.615	8.7
281.83	-1.54
282.045	35.33
282.26	-17.92
282.476	-17.92
282.691	88.57
282.906	-1.54
283.122	55.81
283.337	47.62
283.552	-13.82
283.767	-5.63
283.983	72.19
284.198	23.04
284.413	33.28
284.628	-42.5
284.843	41.47
285.058	104.96
285.274	88.57
285.489	55.81
285.704	-1.54
285.919	59.9
286.134	27.14
286.349	-62.98
286.564	-17.92
286.779	51.71
286.995	39.42
287.21	-89.6
287.425	90.62
287.64	6.66
287.855	16.9
288.07	-62.98
288.285	76.29
288.5	49.66
288.715	33.28
288.93	27.14
289.145	-26.11
289.36	37.38
289.575	86.53
289.79	33.28
290.004	2.56
290.219	-24.06
290.434	-54.78
290.649	29.18
290.864	16.9
291.079	-62.98
291.294	-7.68
291.509	-19.97
291.724	-26.11
291.938	-11.78
292.153	31.23
292.368	-83.45
292.583	66.05
292.798	55.81
293.012	47.62
293.227	55.81
293.442	8.7
293.657	-26.11
293.871	88.57
294.086	-7.68
294.301	121.34
294.516	16.9
294.73	31.23
294.945	8.7
295.16	47.62
295.374	31.23
295.589	-3.58
295.804	-19.97
296.018	8.7
296.233	0.51
296.447	51.71
296.662	33.28
296.877	74.24
297.091	55.81
297.306	18.94
297.52	-22.02
297.735	80.38
297.949	25.09
298.164	-9.73
298.378	-7.68
298.593	-26.11
298.807	27.14
299.022	-7.68
299.236	88.57
299.451	-9.73
299.665	37.38
299.88	-1.54
300.094	-1.54
300.309	39.42
300.523	33.28
300.737	23.04
300.952	31.23
301.166	0.51
301.381	-42.5
301.595	14.85
301.809	39.42
302.024	-7.68
302.238	-15.87
302.452	113.15
302.667	12.8
302.881	16.9
303.095	-1.54
303.309	-9.73
303.524	-26.11
303.738	-22.02
303.952	-28.16
304.166	2.56
304.381	-56.83
304.595	129.53
304.809	-7.68
305.023	37.38
305.237	23.04
305.452	-1.54
305.666	96.77
305.88	51.71
306.094	31.23
306.308	49.66
306.522	129.53
306.736	-30.21
306.95	-7.68
307.164	14.85
307.379	-32.26
307.593	80.38
307.807	80.38
308.021	23.04
308.235	-17.92
308.449	-65.02
308.663	-9.73
308.877	100.86
309.091	64
309.305	104.96
309.519	-3.58
309.733	131.58
309.947	-38.4
310.161	102.91
310.374	49.66
310.588	53.76
310.802	57.86
311.016	31.23
311.23	16.9
311.444	-17.92
311.658	47.62
311.872	18.94
312.085	18.94
312.299	55.81
312.513	66.05
312.727	55.81
312.941	-120.32
313.154	55.81
313.368	90.62
313.582	31.23
313.796	27.14
314.009	27.14
314.223	76.29
314.437	-24.06
314.651	14.85
314.864	-56.83
315.078	-34.3
315.292	-30.21
315.505	-7.68
315.719	-32.26
315.933	-30.21
316.146	41.47
316.36	-38.4
316.573	-44.54
316.787	6.66
317.001	88.57
317.214	16.9
317.428	-34.3
317.641	-75.26
317.855	-17.92
318.068	31.23
318.282	80.38
318.495	80.38
318.709	18.94
318.922	35.33
319.136	31.23
319.349	2.56
319.563	47.62
319.776	-28.16
319.99	-58.88
320.203	8.7
320.417	-26.11
320.63	43.52
320.843	145.92
321.057	51.71
321.27	-26.11
321.483	-7.68
321.697	104.96
321.91	94.72
322.124	35.33
322.337	6.66
322.55	74.24
322.763	6.66
322.977	8.7
323.19	-17.92
323.403	47.62
323.617	49.66
323.83	47.62
324.043	-32.26
324.256	14.85
324.469	-15.87
324.683	16.9
324.896	41.47
325.109	37.38
325.322	14.85
325.535	6.66
325.748	6.66
325.962	18.94
326.175	-34.3
326.388	49.66
326.601	57.86
326.814	31.23
327.027	27.14
327.24	45.57
327.453	-71.17
327.666	12.8
327.879	80.38
328.092	-17.92
328.305	39.42
328.518	33.28
328.731	61.95
328.944	-26.11
329.157	8.7
329.37	-1.54
329.583	76.29
329.796	64
330.009	-32.26
330.222	6.66
330.435	39.42
330.648	57.86
330.861	45.57
331.073	-1.54
331.286	66.05
331.499	74.24
331.712	-19.97
331.925	39.42
332.138	0.51
332.35	4.61
332.563	6.66
332.776	74.24
332.989	-9.73
333.202	59.9
333.414	14.85
333.627	23.04
333.84	23.04
334.053	-17.92
334.265	72.19
334.478	98.81
334.691	88.57
334.903	14.85
335.116	-89.6
335.329	-15.87
335.541	-28.16
335.754	16.9
335.966	37.38
336.179	39.42
336.392	-9.73
336.604	51.71
336.817	121.34
337.029	33.28
337.242	-9.73
337.454	47.62
337.667	-26.11
337.88	64
338.092	64
338.305	-9.73
338.517	-30.21
338.729	25.09
338.942	41.47
339.154	27.14
339.367	-5.63
339.579	72.19
339.792	29.18
340.004	6.66
340.217	-24.06
340.429	45.57
340.641	37.38
340.854	72.19
341.066	-7.68
341.278	-9.73
341.491	59.9
341.703	-5.63
341.915	-9.73
342.128	8.7
342.34	39.42
342.552	66.05
342.764	125.44
342.977	80.38
343.189	16.9
343.401	57.86
343.613	8.7
343.826	66.05
344.038	10.75
344.25	49.66
344.462	-5.63
344.674	68.09
344.886	86.53
345.099	10.75
345.311	-1.54
345.523	-75.26
345.735	8.7
345.947	35.33
346.159	23.04
346.371	8.7
346.583	-5.63
346.795	70.14
347.007	6.66
347.219	39.42
347.431	37.38
347.643	66.05
347.855	35.33
348.067	121.34
348.279	-15.87
348.491	-5.63
348.703	8.7
348.915	51.71
349.127	31.23
349.339	86.53
349.551	39.42
349.763	129.53
349.975	127.49
350.187	88.57
350.399	-15.87
350.61	2.56
350.822	-7.68
351.034	27.14
351.246	14.85
351.458	-15.87
351.669	117.25
351.881	6.66
352.093	35.33
352.305	10.75
352.517	74.24
352.728	31.23
352.94	37.38
353.152	-42.5
353.363	-3.58
353.575	43.52
353.787	92.67
353.999	59.9
354.21	80.38
354.422	41.47
354.633	37.38
354.845	68.09
355.057	61.95
355.268	39.42
355.48	2.56
355.692	47.62
355.903	-44.54
356.115	88.57
356.326	-44.54
356.538	41.47
356.749	55.81
356.961	84.48
357.172	27.14
357.384	68.09
357.595	80.38
357.807	20.99
358.018	-32.26
358.23	10.75
358.441	84.48
358.653	25.09
358.864	4.61
359.075	0.51
359.287	18.94
359.498	8.7
359.709	51.71
359.921	10.75
360.132	-1.54
360.344	-9.73
360.555	68.09
360.766	8.7
360.977	-34.3
361.189	51.71
361.4	14.85
361.611	139.77
361.823	-9.73
362.034	-24.06
362.245	-1.54
362.456	-26.11
362.667	94.72
362.879	-1.54
363.09	45.57
363.301	6.66
363.512	6.66
363.723	-9.73
363.935	27.14
364.146	-5.63
364.357	25.09
364.568	51.71
364.779	-42.5
364.99	49.66
365.201	-30.21
365.412	66.05
365.623	-13.82
365.834	84.48
366.045	47.62
366.256	80.38
366.467	-26.11
366.678	33.28
366.889	49.66
367.1	68.09
367.311	49.66
367.522	14.85
367.733	57.86
367.944	37.38
368.155	35.33
368.366	4.61
368.577	109.05
368.788	43.52
368.999	12.8
369.209	18.94
369.42	162.3
369.631	127.49
369.842	18.94
370.053	41.47
370.264	6.66
370.474	-56.83
370.685	55.81
370.896	100.86
371.107	27.14
371.317	64
371.528	39.42
371.739	-32.26
371.95	27.14
372.16	90.62
372.371	6.66
372.582	6.66
372.792	29.18
373.003	84.48
373.214	31.23
373.424	68.09
373.635	23.04
373.846	57.86
374.056	-3.58
374.267	109.05
374.477	41.47
374.688	27.14
374.898	-9.73
375.109	55.81
375.319	51.71
375.53	55.81
375.74	70.14
375.951	84.48
376.161	92.67
376.372	121.34
376.582	-9.73
376.793	64
377.003	23.04
377.214	2.56
377.424	4.61
377.635	16.9
377.845	47.62
378.055	119.29
378.266	-1.54
378.476	47.62
378.686	64
378.897	59.9
379.107	-9.73
379.317	84.48
379.528	-11.78
379.738	96.77
379.948	41.47
380.158	64
380.369	59.9
380.579	31.23
380.789	23.04
380.999	10.75
381.21	-15.87
381.42	100.86
381.63	16.9
381.84	35.33
382.05	-1.54
382.261	53.76
382.471	8.7
382.681	-15.87
382.891	6.66
383.101	23.04
383.311	25.09
383.521	4.61
383.731	45.57
383.941	39.42
384.151	51.71
384.361	49.66
384.571	6.66
384.781	59.9
384.991	35.33
385.201	135.68
385.411	33.28
385.621	47.62
385.831	-1.54
386.041	8.7
386.251	72.19
386.461	72.19
386.671	2.56
386.881	59.9
387.091	45.57
387.301	-9.73
387.511	74.24
387.72	41.47
387.93	49.66
388.14	43.52
388.35	-5.63
388.56	37.38
388.769	23.04
388.979	33.28
389.189	2.56
389.399	72.19
389.609	64
389.818	23.04
390.028	4.61
390.238	137.73
390.447	16.9
390.657	74.24
390.867	-62.98
391.076	-65.02
391.286	18.94
391.496	88.57
391.705	16.9
391.915	84.48
392.125	70.14
392.334	86.53
392.544	82.43
392.753	53.76
392.963	27.14
393.172	16.9
393.382	39.42
393.591	102.91
393.801	-19.97
394.01	96.77
394.22	39.42
394.429	55.81
394.639	47.62
394.848	129.53
395.058	14.85
395.267	16.9
395.477	76.29
395.686	16.9
395.895	90.62
396.105	80.38
396.314	100.86
396.524	39.42
396.733	23.04
396.942	139.77
397.152	88.57
397.361	59.9
397.57	-3.58
397.78	45.57
397.989	80.38
398.198	141.82
398.407	23.04
398.617	72.19
398.826	115.2
399.035	82.43
399.244	162.3
399.453	129.53
399.663	72.19
399.872	92.67
400.081	78.33
400.29	92.67
400.499	59.9
400.708	166.4
400.917	2.56
401.127	64
401.336	-17.92
401.545	164.35
401.754	203.26
401.963	115.2
402.172	61.95
402.381	121.34
402.59	59.9
402.799	156.16
403.008	68.09
403.217	80.38
403.426	76.29
403.635	131.58
403.844	76.29
404.053	98.81
404.262	43.52
404.471	131.58
404.68	80.38
404.888	121.34
405.097	123.39
405.306	211.45
405.515	170.49
405.724	84.48
405.933	211.45
406.142	180.73
406.35	172.54
406.559	98.81
406.768	68.09
406.977	147.97
407.185	162.3
407.394	154.11
407.603	166.4
407.812	170.49
408.02	238.08
408.229	98.81
408.438	252.41
408.646	145.92
408.855	178.69
409.064	238.08
409.272	219.64
409.481	217.6
409.69	262.65
409.898	236.03
410.107	236.03
410.315	260.6
410.524	307.71
410.733	276.99
410.941	317.95
411.15	393.72
411.358	375.29
411.567	307.71
411.775	289.28
411.984	360.95
412.192	336.38
412.401	459.26
412.609	412.15
412.818	440.83
413.026	332.28
413.234	363
413.443	399.87
413.651	383.48
413.86	469.5
414.068	508.41
414.276	563.7
414.485	473.59
414.693	571.9
414.901	623.09
415.11	596.47
415.318	588.28
415.526	539.13
415.734	721.4
415.943	692.73
416.151	801.27
416.359	702.97
416.567	784.88
416.776	743.92
416.984	840.18
417.192	924.15
417.4	797.17
417.608	883.19
417.817	997.87
418.025	920.05
418.233	1057.26
418.441	1053.17
418.649	1028.59
418.857	1122.8
419.065	1139.18
419.273	1071.6
419.481	1204.72
419.689	1278.44
419.897	1231.34
420.105	1360.36
420.313	1333.74
420.521	1292.78
420.729	1452.52
420.937	1370.6
421.145	1432.04
421.353	1468.91
421.561	1735.14
421.769	1784.29
421.977	1788.39
422.185	1776.1
422.393	1898.98
422.601	2030.05
422.809	2101.73
423.017	1956.32
423.224	2056.67
423.432	2214.37
423.64	2165.21
423.848	2304.48
424.056	2300.38
424.263	2499.03
424.471	2523.61
424.679	2583
424.887	2703.83
425.094	2730.45
425.302	2712.02
425.51	2920.92
425.718	2877.91
425.925	2890.2
426.133	3123.66
426.341	3293.65
426.548	3232.21
426.756	3314.13
426.964	3422.67
427.171	3477.96
427.379	3672.52
427.586	3881.41
427.794	3961.28
428.001	4026.82
428.209	4286.91
428.417	4004.29
428.624	4524.47
428.832	4512.19
429.039	4577.72
429.247	4477.37
429.454	4882.87
429.662	5163.44
429.869	4759.99
430.076	5198.26
430.284	5013.94
430.491	5257.65
430.699	5407.15
430.906	5521.84
431.114	5527.98
431.321	5863.85
431.528	5755.3
431.736	6322.59
431.943	6465.95
432.15	6355.36
432.358	6390.17
432.565	6822.3
432.772	6887.83
432.979	7199.12
433.187	7215.51
433.394	7356.82
433.601	7709.07
433.808	7778.7
434.016	7750.03
434.223	7934.34
434.43	8550.78
434.637	8313.22
434.844	8989.05
435.052	9009.53
435.259	8958.33
435.466	8921.46
435.673	8960.38
435.88	9748.84
436.087	9996.65
436.294	9951.59
436.501	9898.34
436.708	9980.26
436.915	10309.99
437.122	10635.61
437.329	10615.13
437.537	11084.12
437.743	11180.37
437.95	11227.48
438.157	11821.39
438.364	12101.96
438.571	12104.01
438.778	12198.21
438.985	13103.42
439.192	13015.35
439.399	13072.7
439.606	12886.33
439.813	13654.32
440.02	14606.63
440.227	14080.3
440.433	14031.15
440.64	14541.09
440.847	14194.98
441.054	14563.62
441.261	15780.11
441.467	15532.31
441.674	15806.73
441.881	16406.79
442.088	16351.49
442.294	16163.08
442.501	16693.51
442.708	17219.83
442.914	17508.6
443.121	18147.56
443.328	17893.61
443.534	18893.02
443.741	18577.64
443.948	18151.66
444.154	19706.07
444.361	19577.05
444.568	19638.48
444.774	19708.12
444.981	19871.95
445.187	20455.62
445.394	21014.72
445.6	20979.9
445.807	22943.91
446.013	21811.38
446.22	22366.38
446.426	23378.08
446.633	23365.79
446.839	24371.34
447.046	22960.29
447.252	24674.44
447.459	24688.78
447.665	24451.21
447.871	25569.4
448.078	26695.78
448.284	25446.52
448.491	26255.47
448.697	27218.02
448.903	27394.14
449.11	27625.56
449.316	27304.03
449.522	27789.4
449.728	28541
449.935	28670.03
450.141	28803.14
450.347	29624.38
450.553	28317.78
450.76	28964.93
450.966	29710.39
451.172	29364.29
451.378	30390.32
451.584	29413.44
451.791	30212.15
451.997	30171.19
452.203	30978.09
452.409	30591.02
452.615	30513.2
452.821	29757.5
453.027	29009.99
453.233	30486.57
453.44	29513.79
453.646	29507.65
453.852	29651
454.058	30027.83
454.264	29632.57
454.47	30060.6
454.676	29134.92
454.882	29950.01
455.088	27742.3
455.294	28190.8
455.5	28643.4
455.705	29128.77
455.911	27600.99
456.117	26988.64
456.323	26679.4
456.529	25378.94
456.735	26306.67
456.941	25737.34
457.147	25071.75
457.352	24688.78
457.558	24051.86
457.764	24357
457.97	23787.67
458.176	23318.68
458.381	22982.82
458.587	22073.52
458.793	21809.33
458.999	20994.24
459.204	22245.55
459.41	21833.91
459.616	20111.57
459.821	20115.66
460.027	20107.47
460.233	19603.67
460.438	18899.17
460.644	19077.34
460.85	17963.25
461.055	17766.64
461.261	17406.2
461.466	16429.32
461.672	15599.89
461.878	17410.29
462.083	16032.01
462.289	15427.86
462.494	15425.81
462.7	14946.59
462.905	14430.5
463.111	14571.81
463.316	15065.37
463.522	14446.88
463.727	14465.32
463.932	14250.28
464.138	14438.69
464.343	14080.3
464.549	13908.27
464.754	14301.48
464.959	14227.75
465.165	14055.72
465.37	13232.44
465.575	13066.55
465.781	13482.29
465.986	13594.93
466.191	13146.42
466.397	12824.89
466.602	12271.94
466.807	12683.58
467.012	12540.22
467.218	12593.47
467.423	12345.67
467.628	12616
467.833	13007.16
468.038	12403.01
468.244	12114.25
468.449	12616
468.654	12222.79
