Data from USB4F104151__160__14-32-15-468.txt Node

Date: Thu Mar 13 14:32:15 EDT 2025
User: louis
Spectrometer: USB4F10415
Trigger mode: 4
Integration Time (sec): 2.500000E-2
Scans to average: 1
Electric dark correction enabled: true
Nonlinearity correction enabled: false
Boxcar width: 0
XAxis mode: Wavelengths
Number of Pixels in Spectrum: 3648
>>>>>Begin Spectral Data<<<<<
178.204	-94.38
178.424	-94.38
178.644	-94.38
178.864	-102.57
179.084	-159.91
179.304	12.12
179.524	59.22
179.744	-86.19
179.964	-10.41
180.184	12.12
180.404	12.12
180.624	-18.6
180.844	-55.47
181.064	12.12
181.283	-4.27
181.503	44.88
181.723	22.36
181.943	-135.34
182.163	63.32
182.383	28.5
182.602	65.36
182.822	69.46
183.042	44.88
183.262	34.64
183.482	-43.18
183.701	-45.23
183.921	34.64
184.141	-32.94
184.361	55.12
184.58	12.12
184.8	28.5
185.02	20.31
185.239	-8.36
185.459	-16.55
185.679	-47.27
185.898	-34.99
186.118	53.08
186.338	69.46
186.557	8.02
186.777	-69.8
186.997	8.02
187.216	-34.99
187.436	55.12
187.655	22.36
187.875	12.12
188.095	-34.99
188.314	85.84
188.534	30.55
188.753	38.74
188.973	114.52
189.192	73.56
189.412	28.5
189.631	28.5
189.851	-12.46
190.07	96.08
190.29	-69.8
190.509	-20.65
190.729	-2.22
190.948	22.36
191.168	79.7
191.387	48.98
191.607	-61.61
191.826	10.07
192.045	63.32
192.265	46.93
192.484	-32.94
192.704	14.17
192.923	3.93
193.142	128.85
193.362	83.8
193.581	1.88
193.8	-10.41
194.02	69.46
194.239	36.69
194.458	-51.37
194.678	-73.9
194.897	-37.03
195.116	28.5
195.335	10.07
195.555	102.23
195.774	40.79
195.993	1.88
196.212	55.12
196.432	-39.08
196.651	-12.46
196.87	28.5
197.089	77.65
197.308	34.64
197.528	71.51
197.747	-30.89
197.966	34.64
198.185	102.23
198.404	-37.03
198.623	-24.75
198.842	3.93
199.062	69.46
199.281	32.6
199.5	-16.55
199.719	42.84
199.938	-4.27
200.157	-37.03
200.376	18.26
200.595	8.02
200.814	32.6
201.033	44.88
201.252	36.69
201.471	28.5
201.69	69.46
201.909	-34.99
202.128	69.46
202.347	61.27
202.566	20.31
202.785	-39.08
203.004	-0.17
203.223	110.42
203.442	12.12
203.661	14.17
203.879	36.69
204.098	40.79
204.317	40.79
204.536	73.56
204.755	87.89
204.974	20.31
205.193	-39.08
205.411	85.84
205.63	87.89
205.849	-12.46
206.068	8.02
206.287	-32.94
206.505	87.89
206.724	-4.27
206.943	24.4
207.162	-16.55
207.381	-61.61
207.599	-28.84
207.818	12.12
208.037	12.12
208.255	-45.23
208.474	73.56
208.693	65.36
208.911	65.36
209.13	73.56
209.349	-18.6
209.567	-20.65
209.786	-37.03
210.005	36.69
210.223	69.46
210.442	14.17
210.661	-10.41
210.879	14.17
211.098	3.93
211.316	-6.31
211.535	44.88
211.753	5.97
211.972	73.56
212.191	-18.6
212.409	-28.84
212.628	-4.27
212.846	12.12
213.065	34.64
213.283	28.5
213.502	-22.7
213.72	3.93
213.938	102.23
214.157	20.31
214.375	12.12
214.594	46.93
214.812	73.56
215.031	-12.46
215.249	-4.27
215.467	65.36
215.686	-49.32
215.904	135
216.122	32.6
216.341	89.94
216.559	-10.41
216.778	65.36
216.996	36.69
217.214	55.12
217.432	18.26
217.651	-10.41
217.869	-32.94
218.087	55.12
218.306	-34.99
218.524	44.88
218.742	38.74
218.96	30.55
219.179	24.4
219.397	36.69
219.615	40.79
219.833	44.88
220.051	-24.75
220.27	3.93
220.488	30.55
220.706	71.51
220.924	30.55
221.142	5.97
221.36	-12.46
221.578	14.17
221.796	-12.46
222.015	81.75
222.233	30.55
222.451	89.94
222.669	-10.41
222.887	-12.46
223.105	-24.75
223.323	3.93
223.541	12.12
223.759	36.69
223.977	87.89
224.195	89.94
224.413	22.36
224.631	26.45
224.849	-65.71
225.067	24.4
225.285	30.55
225.503	-37.03
225.721	-28.84
225.939	36.69
226.157	22.36
226.375	69.46
226.592	-94.38
226.81	14.17
227.028	12.12
227.246	85.84
227.464	12.12
227.682	130.9
227.9	20.31
228.117	40.79
228.335	77.65
228.553	38.74
228.771	-2.22
228.989	57.17
229.206	53.08
229.424	-4.27
229.642	30.55
229.86	-28.84
230.077	10.07
230.295	3.93
230.513	61.27
230.731	57.17
230.948	32.6
231.166	12.12
231.384	-43.18
231.601	-34.99
231.819	63.32
232.037	53.08
232.254	-12.46
232.472	28.5
232.689	24.4
232.907	77.65
233.125	18.26
233.342	24.4
233.56	12.12
233.777	12.12
233.995	32.6
234.213	28.5
234.43	79.7
234.648	3.93
234.865	94.04
235.083	5.97
235.3	30.55
235.518	40.79
235.735	126.8
235.953	89.94
236.17	-10.41
236.388	91.99
236.605	16.21
236.822	110.42
237.04	14.17
237.257	-4.27
237.475	61.27
237.692	46.93
237.909	-4.27
238.127	44.88
238.344	-51.37
238.562	3.93
238.779	-37.03
238.996	-8.36
239.214	44.88
239.431	71.51
239.648	-20.65
239.865	40.79
240.083	96.08
240.3	30.55
240.517	30.55
240.735	24.4
240.952	-0.17
241.169	44.88
241.386	36.69
241.603	-61.61
241.821	-20.65
242.038	-28.84
242.255	102.23
242.472	-28.84
242.689	61.27
242.907	38.74
243.124	51.03
243.341	20.31
243.558	20.31
243.775	-34.99
243.992	-6.31
244.209	30.55
244.426	30.55
244.643	135
244.86	3.93
245.078	28.5
245.295	12.12
245.512	22.36
245.729	-12.46
245.946	46.93
246.163	75.6
246.38	16.21
246.597	-24.75
246.814	102.23
247.031	51.03
247.248	94.04
247.464	30.55
247.681	-39.08
247.898	30.55
248.115	-69.8
248.332	3.93
248.549	57.17
248.766	32.6
248.983	77.65
249.2	3.93
249.417	46.93
249.633	36.69
249.85	73.56
250.067	-8.36
250.284	-10.41
250.501	63.32
250.717	20.31
250.934	40.79
251.151	40.79
251.368	57.17
251.585	83.8
251.801	5.97
252.018	8.02
252.235	57.17
252.451	-41.13
252.668	-41.13
252.885	69.46
253.102	5.97
253.318	-32.94
253.535	-24.75
253.752	71.51
253.968	22.36
254.185	3.93
254.401	28.5
254.618	81.75
254.835	-12.46
255.051	75.6
255.268	12.12
255.484	-8.36
255.701	40.79
255.917	-4.27
256.134	-30.89
256.351	55.12
256.567	12.12
256.784	8.02
257	18.26
257.217	57.17
257.433	-8.36
257.65	5.97
257.866	55.12
258.082	61.27
258.299	1.88
258.515	-10.41
258.732	-10.41
258.948	-57.51
259.165	67.41
259.381	-4.27
259.597	46.93
259.814	61.27
260.03	30.55
260.246	94.04
260.463	20.31
260.679	79.7
260.895	-18.6
261.112	3.93
261.328	-8.36
261.544	5.97
261.761	24.4
261.977	73.56
262.193	-100.52
262.409	81.75
262.626	28.5
262.842	44.88
263.058	-22.7
263.274	20.31
263.49	32.6
263.707	32.6
263.923	16.21
264.139	3.93
264.355	-8.36
264.571	61.27
264.787	40.79
265.004	42.84
265.22	-0.17
265.436	-77.99
265.652	55.12
265.868	-43.18
266.084	61.27
266.3	8.02
266.516	5.97
266.732	57.17
266.948	83.8
267.164	81.75
267.38	57.17
267.596	30.55
267.812	85.84
268.028	69.46
268.244	16.21
268.46	81.75
268.676	14.17
268.892	36.69
269.108	-10.41
269.324	3.93
269.54	36.69
269.756	36.69
269.972	40.79
270.188	30.55
270.403	-4.27
270.619	57.17
270.835	22.36
271.051	38.74
271.267	-45.23
271.483	-32.94
271.698	30.55
271.914	12.12
272.13	44.88
272.346	20.31
272.562	-0.17
272.777	32.6
272.993	14.17
273.209	57.17
273.425	44.88
273.64	44.88
273.856	73.56
274.072	10.07
274.287	-57.51
274.503	89.94
274.719	55.12
274.934	40.79
275.15	-26.79
275.366	-22.7
275.581	-20.65
275.797	102.23
276.012	22.36
276.228	-24.75
276.444	-24.75
276.659	48.98
276.875	42.84
277.09	-20.65
277.306	8.02
277.521	42.84
277.737	14.17
277.952	42.84
278.168	3.93
278.383	30.55
278.599	18.26
278.814	61.27
279.03	87.89
279.245	79.7
279.461	3.93
279.676	22.36
279.892	55.12
280.107	-51.37
280.322	28.5
280.538	51.03
280.753	14.17
280.969	-8.36
281.184	20.31
281.399	55.12
281.615	61.27
281.83	12.12
282.045	-18.6
282.26	-43.18
282.476	32.6
282.691	44.88
282.906	81.75
283.122	16.21
283.337	-24.75
283.552	46.93
283.767	5.97
283.983	44.88
284.198	-16.55
284.413	55.12
284.628	24.4
284.843	8.02
285.058	100.18
285.274	-20.65
285.489	-28.84
285.704	55.12
285.919	-45.23
286.134	77.65
286.349	3.93
286.564	-12.46
286.779	73.56
286.995	5.97
287.21	-57.51
287.425	-10.41
287.64	-28.84
287.855	18.26
288.07	73.56
288.285	-10.41
288.5	53.08
288.715	-4.27
288.93	79.7
289.145	-4.27
289.36	46.93
289.575	55.12
289.79	32.6
290.004	-57.51
290.219	30.55
290.434	32.6
290.649	32.6
290.864	20.31
291.079	-16.55
291.294	40.79
291.509	1.88
291.724	40.79
291.938	-6.31
292.153	61.27
292.368	20.31
292.583	81.75
292.798	63.32
293.012	24.4
293.227	-37.03
293.442	3.93
293.657	42.84
293.871	81.75
294.086	14.17
294.301	57.17
294.516	-2.22
294.73	69.46
294.945	-37.03
295.16	77.65
295.374	55.12
295.589	112.47
295.804	-2.22
296.018	94.04
296.233	36.69
296.447	-4.27
296.662	-4.27
296.877	44.88
297.091	69.46
297.306	-82.09
297.52	3.93
297.735	-16.55
297.949	53.08
298.164	81.75
298.378	3.93
298.593	-32.94
298.807	3.93
299.022	28.5
299.236	106.32
299.451	-28.84
299.665	32.6
299.88	-26.79
300.094	46.93
300.309	87.89
300.523	87.89
300.737	-28.84
300.952	5.97
301.166	63.32
301.381	-16.55
301.595	57.17
301.809	-12.46
302.024	-18.6
302.238	12.12
302.452	135
302.667	53.08
302.881	44.88
303.095	-28.84
303.309	57.17
303.524	-12.46
303.738	81.75
303.952	46.93
304.166	61.27
304.381	-18.6
304.595	91.99
304.809	-16.55
305.023	1.88
305.237	48.98
305.452	5.97
305.666	81.75
305.88	69.46
306.094	28.5
306.308	12.12
306.522	57.17
306.736	5.97
306.95	-26.79
307.164	-32.94
307.379	-16.55
307.593	94.04
307.807	53.08
308.021	120.66
308.235	126.8
308.449	-24.75
308.663	32.6
308.877	116.56
309.091	28.5
309.305	46.93
309.519	-65.71
309.733	53.08
309.947	-43.18
310.161	137.04
310.374	28.5
310.588	98.13
310.802	8.02
311.016	30.55
311.23	98.13
311.444	20.31
311.658	38.74
311.872	65.36
312.085	53.08
312.299	71.51
312.513	77.65
312.727	53.08
312.941	-20.65
313.154	141.14
313.368	-45.23
313.582	3.93
313.796	24.4
314.009	-37.03
314.223	77.65
314.437	1.88
314.651	89.94
314.864	30.55
315.078	-34.99
315.292	1.88
315.505	30.55
315.719	104.28
315.933	12.12
316.146	36.69
316.36	-24.75
316.573	5.97
316.787	46.93
317.001	36.69
317.214	-69.8
317.428	112.47
317.641	14.17
317.855	12.12
318.068	8.02
318.282	3.93
318.495	96.08
318.709	24.4
318.922	59.22
319.136	139.09
319.349	34.64
319.563	46.93
319.776	32.6
319.99	-8.36
320.203	48.98
320.417	3.93
320.63	53.08
320.843	30.55
321.057	20.31
321.27	135
321.483	71.51
321.697	96.08
321.91	100.18
322.124	-0.17
322.337	28.5
322.55	-2.22
322.763	32.6
322.977	20.31
323.19	10.07
323.403	-37.03
323.617	57.17
323.83	87.89
324.043	24.4
324.256	20.31
324.469	14.17
324.683	61.27
324.896	51.03
325.109	61.27
325.322	-45.23
325.535	48.98
325.748	40.79
325.962	91.99
326.175	-18.6
326.388	16.21
326.601	-6.31
326.814	69.46
327.027	61.27
327.24	63.32
327.453	-53.42
327.666	44.88
327.879	57.17
328.092	57.17
328.305	26.45
328.518	-34.99
328.731	-39.08
328.944	5.97
329.157	102.23
329.37	36.69
329.583	73.56
329.796	104.28
330.009	65.36
330.222	28.5
330.435	79.7
330.648	83.8
330.861	40.79
331.073	48.98
331.286	120.66
331.499	81.75
331.712	-24.75
331.925	36.69
332.138	24.4
332.35	20.31
332.563	65.36
332.776	108.37
332.989	57.17
333.202	104.28
333.414	20.31
333.627	46.93
333.84	12.12
334.053	36.69
334.265	-24.75
334.478	5.97
334.691	-77.99
334.903	28.5
335.116	42.84
335.329	16.21
335.541	-4.27
335.754	48.98
335.966	10.07
336.179	8.02
336.392	10.07
336.604	5.97
336.817	87.89
337.029	96.08
337.242	20.31
337.454	12.12
337.667	28.5
337.88	77.65
338.092	-18.6
338.305	38.74
338.517	73.56
338.729	22.36
338.942	22.36
339.154	-4.27
339.367	-84.14
339.579	71.51
339.792	-30.89
340.004	89.94
340.217	3.93
340.429	55.12
340.641	-12.46
340.854	24.4
341.066	12.12
341.278	67.41
341.491	14.17
341.703	-20.65
341.915	79.7
342.128	53.08
342.34	-53.42
342.552	14.17
342.764	-8.36
342.977	69.46
343.189	53.08
343.401	63.32
343.613	-43.18
343.826	26.45
344.038	5.97
344.25	77.65
344.462	5.97
344.674	32.6
344.886	-39.08
345.099	87.89
345.311	30.55
345.523	55.12
345.735	-37.03
345.947	44.88
346.159	-8.36
346.371	-12.46
346.583	-71.85
346.795	65.36
347.007	36.69
347.219	12.12
347.431	8.02
347.643	57.17
347.855	-12.46
348.067	10.07
348.279	-43.18
348.491	20.31
348.703	65.36
348.915	20.31
349.127	20.31
349.339	77.65
349.551	85.84
349.763	12.12
349.975	40.79
350.187	30.55
350.399	77.65
350.61	-20.65
350.822	-69.8
351.034	94.04
351.246	1.88
351.458	53.08
351.669	30.55
351.881	126.8
352.093	102.23
352.305	71.51
352.517	36.69
352.728	53.08
352.94	44.88
353.152	5.97
353.363	-4.27
353.575	28.5
353.787	-12.46
353.999	40.79
354.21	120.66
354.422	-10.41
354.633	-71.85
354.845	24.4
355.057	98.13
355.268	-20.65
355.48	20.31
355.692	-22.7
355.903	28.5
356.115	-26.79
356.326	-32.94
356.538	96.08
356.749	77.65
356.961	42.84
357.172	81.75
357.384	65.36
357.595	114.52
357.807	63.32
358.018	-49.32
358.23	8.02
358.441	89.94
358.653	14.17
358.864	22.36
359.075	46.93
359.287	30.55
359.498	28.5
359.709	36.69
359.921	59.22
360.132	100.18
360.344	8.02
360.555	36.69
360.766	40.79
360.977	-51.37
361.189	98.13
361.4	24.4
361.611	24.4
361.823	63.32
362.034	51.03
362.245	24.4
362.456	-12.46
362.667	83.8
362.879	20.31
363.09	10.07
363.301	69.46
363.512	36.69
363.723	110.42
363.935	-41.13
364.146	137.04
364.357	20.31
364.568	55.12
364.779	-114.86
364.99	114.52
365.201	5.97
365.412	81.75
365.623	-37.03
365.834	79.7
366.045	63.32
366.256	147.28
366.467	5.97
366.678	20.31
366.889	1.88
367.1	-4.27
367.311	46.93
367.522	5.97
367.733	28.5
367.944	3.93
368.155	-34.99
368.366	-4.27
368.577	85.84
368.788	100.18
368.999	-26.79
369.209	69.46
369.42	112.47
369.631	151.38
369.842	48.98
370.053	-37.03
370.264	96.08
370.474	26.45
370.685	48.98
370.896	85.84
371.107	32.6
371.317	79.7
371.528	51.03
371.739	143.19
371.95	102.23
372.16	30.55
372.371	81.75
372.582	-4.27
372.792	44.88
373.003	-18.6
373.214	108.37
373.424	126.8
373.635	14.17
373.846	122.71
374.056	81.75
374.267	44.88
374.477	-0.17
374.688	-0.17
374.898	14.17
375.109	51.03
375.319	24.4
375.53	12.12
375.74	1.88
375.951	28.5
376.161	22.36
376.372	30.55
376.582	28.5
376.793	102.23
377.003	20.31
377.214	-6.31
377.424	14.17
377.635	77.65
377.845	-28.84
378.055	106.32
378.266	-4.27
378.476	63.32
378.686	-12.46
378.897	46.93
379.107	30.55
379.317	104.28
379.528	83.8
379.738	44.88
379.948	-12.46
380.158	81.75
380.369	30.55
380.579	-41.13
380.789	40.79
380.999	159.57
381.21	36.69
381.42	89.94
381.63	44.88
381.84	89.94
382.05	16.21
382.261	22.36
382.471	57.17
382.681	-8.36
382.891	79.7
383.101	182.1
383.311	12.12
383.521	-43.18
383.731	79.7
383.941	53.08
384.151	40.79
384.361	-2.22
384.571	55.12
384.781	46.93
384.991	71.51
385.201	114.52
385.411	46.93
385.621	48.98
385.831	-4.27
386.041	46.93
386.251	30.55
386.461	71.51
386.671	40.79
386.881	65.36
387.091	75.6
387.301	32.6
387.511	61.27
387.72	22.36
387.93	94.04
388.14	-2.22
388.35	42.84
388.56	61.27
388.769	36.69
388.979	77.65
389.189	-4.27
389.399	94.04
389.609	85.84
389.818	85.84
390.028	-8.36
390.238	28.5
390.447	96.08
390.657	53.08
390.867	-0.17
391.076	-4.27
391.286	55.12
391.496	85.84
391.705	120.66
391.915	61.27
392.125	55.12
392.334	14.17
392.544	124.76
392.753	38.74
392.963	112.47
393.172	38.74
393.382	-8.36
393.591	79.7
393.801	85.84
394.01	184.15
394.22	63.32
394.429	1.88
394.639	42.84
394.848	67.41
395.058	44.88
395.267	20.31
395.477	141.14
395.686	77.65
395.895	73.56
396.105	153.43
396.314	96.08
396.524	44.88
396.733	40.79
396.942	65.36
397.152	77.65
397.361	112.47
397.57	110.42
397.78	55.12
397.989	36.69
398.198	184.15
398.407	36.69
398.617	69.46
398.826	83.8
399.035	118.61
399.244	69.46
399.453	102.23
399.663	106.32
399.872	135
400.081	48.98
400.29	116.56
400.499	12.12
400.708	63.32
400.917	22.36
401.127	81.75
401.336	63.32
401.545	100.18
401.754	77.65
401.963	110.42
402.172	118.61
402.381	28.5
402.59	106.32
402.799	87.89
403.008	147.28
403.217	135
403.426	110.42
403.635	110.42
403.844	126.8
404.053	69.46
404.262	132.95
404.471	163.67
404.68	163.67
404.888	155.47
405.097	155.47
405.306	139.09
405.515	161.62
405.724	118.61
405.933	102.23
406.142	157.52
406.35	108.37
406.559	126.8
406.768	202.58
406.977	171.86
407.185	120.66
407.394	145.24
407.603	208.72
407.812	171.86
408.02	218.96
408.229	89.94
408.438	241.49
408.646	188.24
408.855	135
409.064	245.59
409.272	200.53
409.481	270.16
409.69	132.95
409.898	212.82
410.107	311.12
410.315	282.45
410.524	292.69
410.733	323.41
410.941	216.91
411.15	311.12
411.358	319.31
411.567	307.02
411.775	268.11
411.984	307.02
412.192	317.26
412.401	358.22
412.609	382.8
412.818	429.9
413.026	427.85
413.234	362.32
413.443	528.21
413.651	413.52
413.86	462.67
414.068	487.25
414.276	540.49
414.485	585.55
414.693	538.45
414.901	642.89
415.11	593.74
415.318	593.74
415.526	634.7
415.734	675.66
415.943	687.95
416.151	776.01
416.359	692.04
416.567	728.91
416.776	839.5
416.984	786.25
417.192	796.49
417.4	894.79
417.608	780.11
417.817	890.7
418.025	896.84
418.233	1054.53
418.441	1009.48
418.649	1136.45
418.857	1032.01
419.065	1144.64
419.273	1134.4
419.481	1101.64
419.689	1242.95
419.897	1314.63
420.105	1230.66
420.313	1242.95
420.521	1347.39
420.729	1482.56
420.937	1437.5
421.145	1509.18
421.353	1455.94
421.561	1556.29
421.769	1734.46
421.977	1789.75
422.185	1699.64
422.393	1898.3
422.601	1988.41
422.809	2113.33
423.017	1892.15
423.224	2070.33
423.432	2219.83
423.64	2158.39
423.848	2330.42
424.056	2266.93
424.263	2479.92
424.471	2350.9
424.679	2623.28
424.887	2641.71
425.094	2780.97
425.302	2791.21
425.51	2682.67
425.718	2987.82
425.925	2971.43
426.133	2993.96
426.341	3174.18
426.548	3438.37
426.756	3395.36
426.964	3411.75
427.171	3663.65
427.379	3718.94
427.586	3604.25
427.794	3938.07
428.001	4017.94
428.209	4228.88
428.417	4087.57
428.624	4296.47
428.832	4323.09
429.039	4394.77
429.247	4509.46
429.454	4730.64
429.662	5066.5
429.869	4757.26
430.076	5199.62
430.284	4914.95
430.491	5111.56
430.699	5510.91
430.906	5615.36
431.114	5461.76
431.321	5857.02
431.528	5820.16
431.736	6297.33
431.943	6618.86
432.15	6418.16
432.358	6559.47
432.565	6764.27
432.772	6803.18
432.979	6950.64
433.187	7151.34
433.394	7083.75
433.601	7841.5
433.808	7700.19
434.016	7689.95
434.223	8128.22
434.43	8287.96
434.637	8294.1
434.844	8707.79
435.052	8838.86
435.259	8896.21
435.466	8980.17
435.673	8859.34
435.88	9455.3
436.087	10079.93
436.294	9787.07
436.501	9805.5
436.708	9875.13
436.915	10337.98
437.122	10792.62
437.329	10747.57
437.537	11093.68
437.743	11245.23
437.95	11128.49
438.157	11701.92
438.364	12175
438.571	12068.51
438.778	12117.66
438.985	13078.16
439.192	12791.44
439.399	13055.63
439.606	12844.69
439.813	13430.41
440.02	14210.68
440.227	14026.37
440.433	13971.07
440.64	14538.36
440.847	14151.29
441.054	14579.32
441.261	15668.84
441.467	15459.95
441.674	15697.51
441.881	16248.41
442.088	16236.13
442.294	16082.53
442.501	16551.51
442.708	16737.88
442.914	17493.58
443.121	18216.51
443.328	17729.09
443.534	18970.16
443.741	18232.9
443.948	18288.19
444.154	19531.31
444.361	19316.27
444.568	19342.89
444.774	19633.71
444.981	19787.3
445.187	20196.9
445.394	21265.94
445.6	21138.96
445.807	22965.75
446.013	21839.37
446.22	22265.35
446.426	23213.56
446.633	23121.4
446.839	24384.99
447.046	23096.82
447.252	24604.13
447.459	24339.94
447.665	24329.7
447.871	25200.08
448.078	26533.31
448.284	25241.04
448.491	26002.89
448.697	26963.39
448.903	27588.02
449.11	27528.63
449.316	27055.54
449.522	27372.98
449.728	28134.82
449.935	28427.68
450.141	28063.15
450.347	29160.86
450.553	28288.42
450.76	28980.64
450.966	29341.08
451.172	29126.04
451.378	29924.75
451.584	29279.64
451.791	30287.24
451.997	29906.32
452.203	30676.35
452.409	30594.43
452.615	30440.84
452.821	28960.16
453.027	28818.85
453.233	30508.42
453.44	29189.53
453.646	29400.47
453.852	29771.15
454.058	30180.74
454.264	29076.89
454.47	29980.04
454.676	28931.48
454.882	29713.81
455.088	27422.13
455.294	27790.77
455.5	28007.85
455.705	28403.11
455.911	27211.19
456.117	26967.48
456.323	26199.49
456.529	24753.63
456.735	26242.5
456.941	25578.96
457.147	25036.25
457.352	24143.33
457.558	23959.02
457.764	23805.42
457.97	23547.37
458.176	22894.07
458.381	23078.39
458.587	21894.66
458.793	21650.95
458.999	20563.48
459.204	22173.19
459.41	21620.24
459.616	20377.12
459.821	20078.11
460.027	20012.58
460.233	19672.62
460.438	18804.28
460.644	18837.05
460.85	17921.6
461.055	17737.29
461.261	17696.33
461.466	16217.69
461.672	15916.64
461.878	17010.26
462.083	15887.97
462.289	15695.46
462.494	15451.75
462.7	14409.34
462.905	14128.77
463.111	14859.89
463.316	14861.94
463.522	14599.8
463.727	14585.46
463.932	14569.08
464.138	14339.71
464.343	14483.06
464.549	14061.18
464.754	14517.88
464.959	14425.72
465.165	14012.03
465.37	13536.9
465.575	13452.94
465.781	13657.73
465.986	13749.89
466.191	13461.13
466.397	13020.81
466.602	12353.18
466.807	12875.41
467.012	12893.84
467.218	12785.3
467.423	12818.07
