Data from USB4F104151__280__14-34-45-325.txt Node

Date: Thu Mar 13 14:34:45 EDT 2025
User: louis
Spectrometer: USB4F10415
Trigger mode: 4
Integration Time (sec): 2.500000E-2
Scans to average: 1
Electric dark correction enabled: true
Nonlinearity correction enabled: false
Boxcar width: 0
XAxis mode: Wavelengths
Number of Pixels in Spectrum: 3648
>>>>>Begin Spectral Data<<<<<
178.204	-147.11
178.424	-147.11
178.644	-147.11
178.864	-159.4
179.084	-188.07
179.304	-83.63
179.524	-20.14
179.744	2.39
179.964	72.02
180.184	4.44
180.404	-18.09
180.624	-20.14
180.844	4.44
181.064	-9.9
181.283	31.06
181.503	8.53
181.723	29.01
181.943	-67.24
182.163	98.64
182.383	39.25
182.602	-7.85
182.822	4.44
183.042	45.4
183.262	-32.43
183.482	33.11
183.701	0.34
183.921	72.02
184.141	-1.71
184.361	78.16
184.58	10.58
184.8	51.54
185.02	29.01
185.239	39.25
185.459	55.64
185.679	69.97
185.898	-40.62
186.118	-9.9
186.338	65.88
186.557	53.59
186.777	-11.95
186.997	14.68
187.216	53.59
187.436	88.4
187.655	53.59
187.875	61.78
188.095	-36.52
188.314	47.44
188.534	61.78
188.753	12.63
188.973	10.58
189.192	108.88
189.412	31.06
189.631	72.02
189.851	96.6
190.07	104.79
190.29	-28.33
190.509	55.64
190.729	-63.15
190.948	72.02
191.168	186.71
191.387	90.45
191.607	-65.19
191.826	20.82
192.045	-7.85
192.265	39.25
192.484	65.88
192.704	14.68
192.923	2.39
193.142	127.32
193.362	61.78
193.581	88.4
193.8	69.97
194.02	-3.75
194.239	43.35
194.458	82.26
194.678	41.3
194.897	-5.8
195.116	86.36
195.335	37.2
195.555	112.98
195.774	37.2
195.993	69.97
196.212	10.58
196.432	43.35
196.651	92.5
196.87	33.11
197.089	119.12
197.308	12.63
197.528	94.55
197.747	-3.75
197.966	72.02
198.185	94.55
198.404	110.93
198.623	24.92
198.842	143.7
199.062	88.4
199.281	78.16
199.5	20.82
199.719	65.88
199.938	127.32
200.157	55.64
200.376	33.11
200.595	80.21
200.814	63.83
201.033	12.63
201.252	-20.14
201.471	102.74
201.69	69.97
201.909	104.79
202.128	63.83
202.347	53.59
202.566	72.02
202.785	2.39
203.004	86.36
203.223	82.26
203.442	106.84
203.661	-24.23
203.879	61.78
204.098	55.64
204.317	-26.28
204.536	76.12
204.755	18.77
204.974	96.6
205.193	22.87
205.411	61.78
205.63	57.68
205.849	14.68
206.068	100.69
206.287	45.4
206.505	80.21
206.724	53.59
206.943	29.01
207.162	26.96
207.381	127.32
207.599	14.68
207.818	8.53
208.037	41.3
208.255	37.2
208.474	74.07
208.693	57.68
208.911	137.56
209.13	18.77
209.349	45.4
209.567	45.4
209.786	67.92
210.005	61.78
210.223	12.63
210.442	-46.76
210.661	63.83
210.879	-22.19
211.098	65.88
211.316	39.25
211.535	59.73
211.753	78.16
211.972	39.25
212.191	24.92
212.409	37.2
212.628	65.88
212.846	-3.75
213.065	78.16
213.283	160.08
213.502	69.97
213.72	-34.47
213.938	12.63
214.157	31.06
214.375	110.93
214.594	24.92
214.812	61.78
215.031	4.44
215.249	53.59
215.467	-7.85
215.686	18.77
215.904	8.53
216.122	69.97
216.341	102.74
216.559	18.77
216.778	61.78
216.996	72.02
217.214	4.44
217.432	-44.71
217.651	-3.75
217.869	61.78
218.087	110.93
218.306	22.87
218.524	22.87
218.742	-11.95
218.96	69.97
219.179	82.26
219.397	69.97
219.615	170.32
219.833	182.61
220.051	96.6
220.27	37.2
220.488	94.55
220.706	8.53
220.924	39.25
221.142	51.54
221.36	16.73
221.578	43.35
221.796	104.79
222.015	90.45
222.233	96.6
222.451	41.3
222.669	20.82
222.887	57.68
223.105	53.59
223.323	86.36
223.541	-28.33
223.759	37.2
223.977	24.92
224.195	102.74
224.413	61.78
224.631	55.64
224.849	51.54
225.067	131.41
225.285	41.3
225.503	39.25
225.721	14.68
225.939	22.87
226.157	53.59
226.375	201.04
226.592	22.87
226.81	51.54
227.028	131.41
227.246	131.41
227.464	6.49
227.682	102.74
227.9	65.88
228.117	49.49
228.335	-3.75
228.553	53.59
228.771	37.2
228.989	69.97
229.206	55.64
229.424	-57
229.642	61.78
229.86	-9.9
230.077	121.17
230.295	135.51
230.513	78.16
230.731	76.12
230.948	96.6
231.166	168.27
231.384	78.16
231.601	55.64
231.819	90.45
232.037	31.06
232.254	43.35
232.472	80.21
232.689	37.2
232.907	155.99
233.125	6.49
233.342	96.6
233.56	-44.71
233.777	37.2
233.995	57.68
234.213	49.49
234.43	90.45
234.648	26.96
234.865	24.92
235.083	65.88
235.3	37.2
235.518	112.98
235.735	145.75
235.953	45.4
236.17	33.11
236.388	45.4
236.605	53.59
236.822	45.4
237.04	6.49
237.257	86.36
237.475	33.11
237.692	67.92
237.909	12.63
238.127	65.88
238.344	61.78
238.562	72.02
238.779	45.4
238.996	-50.86
239.214	14.68
239.431	55.64
239.648	69.97
239.865	96.6
240.083	45.4
240.3	-44.71
240.517	-40.62
240.735	45.4
240.952	4.44
241.169	76.12
241.386	12.63
241.603	55.64
241.821	-3.75
242.038	78.16
242.255	59.73
242.472	61.78
242.689	102.74
242.907	20.82
243.124	12.63
243.341	102.74
243.558	0.34
243.775	-18.09
243.992	-67.24
244.209	47.44
244.426	61.78
244.643	47.44
244.86	47.44
245.078	29.01
245.295	-26.28
245.512	47.44
245.729	45.4
245.946	94.55
246.163	6.49
246.38	74.07
246.597	43.35
246.814	45.4
247.031	-3.75
247.248	37.2
247.464	55.64
247.681	22.87
247.898	14.68
248.115	45.4
248.332	-42.67
248.549	110.93
248.766	55.64
248.983	86.36
249.2	78.16
249.417	86.36
249.633	49.49
249.85	94.55
250.067	10.58
250.284	55.64
250.501	74.07
250.717	102.74
250.934	-20.14
251.151	47.44
251.368	41.3
251.585	31.06
251.801	102.74
252.018	-3.75
252.235	37.2
252.451	37.2
252.668	12.63
252.885	72.02
253.102	22.87
253.318	20.82
253.535	37.2
253.752	69.97
253.968	24.92
254.185	12.63
254.401	14.68
254.618	69.97
254.835	22.87
255.051	37.2
255.268	61.78
255.484	20.82
255.701	39.25
255.917	55.64
256.134	-24.23
256.351	65.88
256.567	14.68
256.784	-1.71
257	20.82
257.217	22.87
257.433	47.44
257.65	90.45
257.866	80.21
258.082	51.54
258.299	-1.71
258.515	151.89
258.732	-28.33
258.948	72.02
259.165	55.64
259.381	65.88
259.597	26.96
259.814	39.25
260.03	86.36
260.246	31.06
260.463	29.01
260.679	55.64
260.895	4.44
261.112	20.82
261.328	74.07
261.544	41.3
261.761	82.26
261.977	16.73
262.193	39.25
262.409	102.74
262.626	84.31
262.842	69.97
263.058	45.4
263.274	104.79
263.49	57.68
263.707	160.08
263.923	39.25
264.139	45.4
264.355	78.16
264.571	78.16
264.787	-24.23
265.004	104.79
265.22	104.79
265.436	16.73
265.652	-1.71
265.868	92.5
266.084	98.64
266.3	45.4
266.516	31.06
266.732	10.58
266.948	41.3
267.164	0.34
267.38	78.16
267.596	31.06
267.812	110.93
268.028	29.01
268.244	29.01
268.46	108.88
268.676	37.2
268.892	78.16
269.108	-77.48
269.324	-20.14
269.54	12.63
269.756	76.12
269.972	61.78
270.188	104.79
270.403	45.4
270.619	69.97
270.835	110.93
271.051	53.59
271.267	-18.09
271.483	41.3
271.698	102.74
271.914	29.01
272.13	69.97
272.346	55.64
272.562	61.78
272.777	33.11
272.993	82.26
273.209	24.92
273.425	49.49
273.64	12.63
273.856	129.36
274.072	29.01
274.287	39.25
274.503	53.59
274.719	57.68
274.934	45.4
275.15	16.73
275.366	72.02
275.581	41.3
275.797	61.78
276.012	98.64
276.228	94.55
276.444	-59.05
276.659	86.36
276.875	49.49
277.09	57.68
277.306	63.83
277.521	80.21
277.737	20.82
277.952	74.07
278.168	29.01
278.383	47.44
278.599	-3.75
278.814	78.16
279.03	29.01
279.245	78.16
279.461	16.73
279.676	65.88
279.892	43.35
280.107	39.25
280.322	12.63
280.538	22.87
280.753	45.4
280.969	78.16
281.184	0.34
281.399	151.89
281.615	-32.43
281.83	55.64
282.045	-32.43
282.26	26.96
282.476	31.06
282.691	90.45
282.906	-9.9
283.122	4.44
283.337	63.83
283.552	139.6
283.767	12.63
283.983	69.97
284.198	143.7
284.413	112.98
284.628	29.01
284.843	29.01
285.058	69.97
285.274	160.08
285.489	-11.95
285.704	22.87
285.919	-40.62
286.134	24.92
286.349	8.53
286.564	6.49
286.779	137.56
286.995	20.82
287.21	-44.71
287.425	69.97
287.64	63.83
287.855	57.68
288.07	41.3
288.285	53.59
288.5	102.74
288.715	98.64
288.93	45.4
289.145	-1.71
289.36	96.6
289.575	65.88
289.79	6.49
290.004	12.63
290.219	102.74
290.434	37.2
290.649	29.01
290.864	37.2
291.079	-3.75
291.294	96.6
291.509	12.63
291.724	53.59
291.938	20.82
292.153	12.63
292.368	88.4
292.583	67.92
292.798	108.88
293.012	90.45
293.227	57.68
293.442	45.4
293.657	53.59
293.871	172.37
294.086	-9.9
294.301	69.97
294.516	16.73
294.73	37.2
294.945	-52.91
295.16	-20.14
295.374	57.68
295.589	129.36
295.804	45.4
296.018	88.4
296.233	115.03
296.447	20.82
296.662	80.21
296.877	96.6
297.091	55.64
297.306	18.77
297.52	74.07
297.735	12.63
297.949	143.7
298.164	6.49
298.378	102.74
298.593	16.73
298.807	-24.23
299.022	72.02
299.236	53.59
299.451	6.49
299.665	88.4
299.88	33.11
300.094	65.88
300.309	86.36
300.523	20.82
300.737	63.83
300.952	10.58
301.166	57.68
301.381	0.34
301.595	51.54
301.809	2.39
302.024	53.59
302.238	65.88
302.452	78.16
302.667	88.4
302.881	137.56
303.095	2.39
303.309	82.26
303.524	61.78
303.738	53.59
303.952	74.07
304.166	20.82
304.381	-18.09
304.595	86.36
304.809	-28.33
305.023	98.64
305.237	45.4
305.452	37.2
305.666	78.16
305.88	49.49
306.094	135.51
306.308	61.78
306.522	72.02
306.736	41.3
306.95	82.26
307.164	4.44
307.379	-18.09
307.593	82.26
307.807	117.08
308.021	47.44
308.235	55.64
308.449	-9.9
308.663	121.17
308.877	137.56
309.091	74.07
309.305	55.64
309.519	-40.62
309.733	55.64
309.947	-36.52
310.161	110.93
310.374	106.84
310.588	112.98
310.802	59.73
311.016	29.01
311.23	76.12
311.444	16.73
311.658	90.45
311.872	63.83
312.085	86.36
312.299	53.59
312.513	94.55
312.727	-1.71
312.941	53.59
313.154	88.4
313.368	-3.75
313.582	78.16
313.796	-18.09
314.009	94.55
314.223	94.55
314.437	49.49
314.651	41.3
314.864	4.44
315.078	104.79
315.292	74.07
315.505	57.68
315.719	61.78
315.933	31.06
316.146	69.97
316.36	-26.28
316.573	78.16
316.787	61.78
317.001	117.08
317.214	6.49
317.428	121.17
317.641	20.82
317.855	86.36
318.068	43.35
318.282	57.68
318.495	94.55
318.709	22.87
318.922	22.87
319.136	110.93
319.349	106.84
319.563	47.44
319.776	49.49
319.99	55.64
320.203	8.53
320.417	78.16
320.63	69.97
320.843	86.36
321.057	22.87
321.27	55.64
321.483	102.74
321.697	94.55
321.91	61.78
322.124	82.26
322.337	33.11
322.55	51.54
322.763	57.68
322.977	37.2
323.19	39.25
323.403	67.92
323.617	90.45
323.83	106.84
324.043	4.44
324.256	90.45
324.469	80.21
324.683	80.21
324.896	78.16
325.109	110.93
325.322	-52.91
325.535	121.17
325.748	110.93
325.962	-11.95
326.175	74.07
326.388	33.11
326.601	51.54
326.814	-26.28
327.027	61.78
327.24	65.88
327.453	-40.62
327.666	45.4
327.879	33.11
328.092	65.88
328.305	106.84
328.518	61.78
328.731	37.2
328.944	57.68
329.157	86.36
329.37	-3.75
329.583	162.13
329.796	47.44
330.009	-20.14
330.222	61.78
330.435	88.4
330.648	47.44
330.861	10.58
331.073	94.55
331.286	84.31
331.499	45.4
331.712	37.2
331.925	29.01
332.138	57.68
332.35	143.7
332.563	-44.71
332.776	61.78
332.989	45.4
333.202	4.44
333.414	55.64
333.627	84.31
333.84	31.06
334.053	57.68
334.265	29.01
334.478	37.2
334.691	153.94
334.903	72.02
335.116	-3.75
335.329	53.59
335.541	108.88
335.754	143.7
335.966	-3.75
336.179	45.4
336.392	55.64
336.604	96.6
336.817	65.88
337.029	-20.14
337.242	43.35
337.454	102.74
337.667	29.01
337.88	69.97
338.092	112.98
338.305	127.32
338.517	18.77
338.729	145.75
338.942	94.55
339.154	-13.99
339.367	31.06
339.579	88.4
339.792	24.92
340.004	4.44
340.217	29.01
340.429	4.44
340.641	20.82
340.854	53.59
341.066	72.02
341.278	65.88
341.491	78.16
341.703	65.88
341.915	41.3
342.128	35.16
342.34	131.41
342.552	45.4
342.764	16.73
342.977	16.73
343.189	86.36
343.401	63.83
343.613	22.87
343.826	61.78
344.038	20.82
344.25	41.3
344.462	-36.52
344.674	121.17
344.886	-44.71
345.099	57.68
345.311	115.03
345.523	86.36
345.735	-26.28
345.947	4.44
346.159	92.5
346.371	72.02
346.583	20.82
346.795	106.84
347.007	26.96
347.219	18.77
347.431	57.68
347.643	155.99
347.855	74.07
348.067	82.26
348.279	-9.9
348.491	0.34
348.703	18.77
348.915	69.97
349.127	29.01
349.339	57.68
349.551	63.83
349.763	112.98
349.975	80.21
350.187	53.59
350.399	119.12
350.61	37.2
350.822	43.35
351.034	151.89
351.246	24.92
351.458	31.06
351.669	57.68
351.881	96.6
352.093	129.36
352.305	74.07
352.517	94.55
352.728	86.36
352.94	37.2
353.152	80.21
353.363	20.82
353.575	102.74
353.787	78.16
353.999	72.02
354.21	143.7
354.422	65.88
354.633	24.92
354.845	63.83
355.057	88.4
355.268	63.83
355.48	137.56
355.692	63.83
355.903	55.64
356.115	72.02
356.326	-1.71
356.538	39.25
356.749	63.83
356.961	123.22
357.172	78.16
357.384	29.01
357.595	137.56
357.807	8.53
358.018	45.4
358.23	-20.14
358.441	129.36
358.653	22.87
358.864	86.36
359.075	45.4
359.287	16.73
359.498	47.44
359.709	47.44
359.921	53.59
360.132	4.44
360.344	86.36
360.555	4.44
360.766	147.8
360.977	110.93
361.189	94.55
361.4	6.49
361.611	90.45
361.823	121.17
362.034	102.74
362.245	45.4
362.456	69.97
362.667	37.2
362.879	45.4
363.09	74.07
363.301	6.49
363.512	-1.71
363.723	14.68
363.935	24.92
364.146	69.97
364.357	53.59
364.568	49.49
364.779	78.16
364.99	135.51
365.201	102.74
365.412	63.83
365.623	-11.95
365.834	65.88
366.045	53.59
366.256	135.51
366.467	53.59
366.678	69.97
366.889	24.92
367.1	106.84
367.311	106.84
367.522	4.44
367.733	86.36
367.944	80.21
368.155	31.06
368.366	112.98
368.577	35.16
368.788	143.7
368.999	51.54
369.209	80.21
369.42	112.98
369.631	102.74
369.842	102.74
370.053	47.44
370.264	86.36
370.474	55.64
370.685	82.26
370.896	37.2
371.107	51.54
371.317	82.26
371.528	47.44
371.739	112.98
371.95	47.44
372.16	20.82
372.371	90.45
372.582	55.64
372.792	69.97
373.003	80.21
373.214	94.55
373.424	53.59
373.635	45.4
373.846	94.55
374.056	72.02
374.267	119.12
374.477	127.32
374.688	16.73
374.898	6.49
375.109	-24.23
375.319	-3.75
375.53	80.21
375.74	29.01
375.951	-32.43
376.161	65.88
376.372	112.98
376.582	22.87
376.793	57.68
377.003	49.49
377.214	53.59
377.424	72.02
377.635	53.59
377.845	29.01
378.055	35.16
378.266	37.2
378.476	20.82
378.686	37.2
378.897	86.36
379.107	88.4
379.317	84.31
379.528	96.6
379.738	76.12
379.948	61.78
380.158	49.49
380.369	4.44
380.579	51.54
380.789	16.73
380.999	131.41
381.21	76.12
381.42	151.89
381.63	-9.9
381.84	82.26
382.05	65.88
382.261	94.55
382.471	127.32
382.681	45.4
382.891	123.22
383.101	112.98
383.311	45.4
383.521	39.25
383.731	63.83
383.941	119.12
384.151	65.88
384.361	63.83
384.571	65.88
384.781	69.97
384.991	168.27
385.201	127.32
385.411	31.06
385.621	127.32
385.831	45.4
386.041	102.74
386.251	45.4
386.461	110.93
386.671	82.26
386.881	41.3
387.091	-3.75
387.301	104.79
387.511	76.12
387.72	45.4
387.93	43.35
388.14	14.68
388.35	29.01
388.56	100.69
388.769	88.4
388.979	80.21
389.189	78.16
389.399	78.16
389.609	123.22
389.818	53.59
390.028	6.49
390.238	41.3
390.447	45.4
390.657	86.36
390.867	78.16
391.076	-24.23
391.286	65.88
391.496	47.44
391.705	86.36
391.915	139.6
392.125	90.45
392.334	88.4
392.544	151.89
392.753	14.68
392.963	39.25
393.172	78.16
393.382	123.22
393.591	151.89
393.801	53.59
394.01	63.83
394.22	151.89
394.429	84.31
394.639	63.83
394.848	123.22
395.058	22.87
395.267	-16.04
395.477	98.64
395.686	88.4
395.895	121.17
396.105	178.51
396.314	94.55
396.524	94.55
396.733	145.75
396.942	186.71
397.152	153.94
397.361	115.03
397.57	160.08
397.78	131.41
397.989	121.17
398.198	201.04
398.407	94.55
398.617	86.36
398.826	104.79
399.035	104.79
399.244	145.75
399.453	143.7
399.663	110.93
399.872	110.93
400.081	65.88
400.29	201.04
400.499	127.32
400.708	119.12
400.917	90.45
401.127	139.6
401.336	72.02
401.545	80.21
401.754	201.04
401.963	102.74
402.172	112.98
402.381	90.45
402.59	72.02
402.799	115.03
403.008	178.51
403.217	82.26
403.426	176.47
403.635	53.59
403.844	129.36
404.053	88.4
404.262	147.8
404.471	233.81
404.68	182.61
404.888	129.36
405.097	137.56
405.306	217.43
405.515	170.32
405.724	168.27
405.933	186.71
406.142	178.51
406.35	209.23
406.559	178.51
406.768	188.75
406.977	266.58
407.185	213.33
407.394	209.23
407.603	184.66
407.812	194.9
408.02	229.71
408.229	315.73
408.438	227.67
408.646	332.11
408.855	323.92
409.064	262.48
409.272	278.87
409.481	289.1
409.69	291.15
409.898	242
410.107	325.97
410.315	315.73
410.524	291.15
410.733	393.55
410.941	366.93
411.15	414.03
411.358	440.65
411.567	418.13
411.775	450.89
411.984	524.62
412.192	514.38
412.401	475.47
412.609	504.14
412.818	467.28
413.026	541.01
413.234	553.29
413.443	643.4
413.651	534.86
413.86	665.93
414.068	645.45
414.276	688.46
414.485	667.98
414.693	688.46
414.901	651.6
415.11	790.86
415.318	733.51
415.526	694.6
415.734	768.33
415.943	753.99
416.151	899.4
416.359	768.33
416.567	854.34
416.776	932.17
416.984	1044.81
417.192	1098.05
417.4	1034.57
417.608	971.08
417.817	1061.19
418.025	1034.57
418.233	1253.7
418.441	1143.11
418.649	1204.55
418.857	1347.9
419.065	1429.82
419.273	1274.18
419.481	1323.33
419.689	1448.26
419.897	1511.74
420.105	1636.67
420.313	1622.33
420.521	1743.16
420.729	1732.92
420.937	1636.67
421.145	1724.73
421.353	1921.34
421.561	2089.27
421.769	2038.07
421.977	2079.03
422.185	2113.85
422.393	2216.24
422.601	2390.32
422.809	2412.85
423.017	2455.86
423.224	2478.38
423.432	2681.13
423.64	2679.08
423.848	2896.17
424.056	2754.86
424.263	2894.12
424.471	2900.27
424.679	2906.41
424.887	3037.48
425.094	3143.97
425.302	3289.38
425.51	3447.07
425.718	3490.08
425.925	3539.23
426.133	3545.38
426.341	3932.44
426.548	4030.74
426.756	4100.37
426.964	4180.25
427.171	4380.95
427.379	4350.23
427.586	4522.26
427.794	4501.78
428.001	4788.49
428.209	4985.1
428.417	4837.64
428.624	5329.16
428.832	5306.63
429.039	5204.23
429.247	5357.83
429.454	5767.42
429.662	6035.71
429.869	5820.67
430.076	5992.7
430.284	5828.86
430.491	6158.58
430.699	6527.22
430.906	6500.59
431.114	6654.19
431.321	6834.41
431.528	7016.68
431.736	7321.83
431.943	7639.26
432.15	7512.29
432.358	7446.76
432.565	8007.9
432.772	8036.57
432.979	8382.68
433.187	8607.95
433.394	8425.68
433.601	9093.32
433.808	9230.54
434.016	9138.38
434.223	9240.78
434.43	9865.41
434.637	10033.34
434.844	10475.7
435.052	10614.96
435.259	10492.09
435.466	10729.65
435.673	10539.19
435.88	11321.51
436.087	11786.4
436.294	11681.96
436.501	11325.61
436.708	11659.43
436.915	12103.84
437.122	12656.79
437.329	12603.54
437.537	13039.76
437.743	13271.18
437.95	13070.48
438.157	13756.55
438.364	14006.4
438.571	14284.92
438.778	14174.33
438.985	15360.11
439.192	14936.18
439.399	15499.37
439.606	15061.1
439.813	15825
440.02	16722.01
440.227	16578.65
440.433	16414.81
440.64	16943.19
440.847	17031.25
441.054	17473.61
441.261	18606.14
441.467	18122.82
441.674	18575.42
441.881	19286.06
442.088	19152.95
442.294	18993.2
442.501	19456.04
442.708	19968.04
442.914	20461.6
443.121	21303.31
443.328	20836.38
443.534	22216.71
443.741	21592.08
443.948	21424.14
444.154	23158.77
444.361	22904.82
444.568	23019.51
444.774	22824.95
444.981	23310.32
445.187	23707.63
445.394	24748
445.6	24473.57
445.807	26728.38
446.013	25923.53
446.22	26036.17
446.426	27223.99
446.633	27862.96
446.839	28735.39
447.046	27135.93
447.252	28657.57
447.459	28948.38
447.665	28669.86
447.871	29802.38
448.078	31158.14
448.284	29613.97
448.491	30617.47
448.697	31813.49
448.903	32345.96
449.11	32069.48
449.316	31823.73
449.522	32137.07
449.728	33249.11
449.935	33402.71
450.141	33363.8
450.347	34105.16
450.553	33187.67
450.76	33490.77
450.966	34555.72
451.172	33906.51
451.378	35221.31
451.584	34221.9
451.791	34950.98
451.997	35712.82
452.203	35911.47
452.409	35909.43
452.615	35198.78
452.821	33916.75
453.027	33621.84
453.233	35890.99
453.44	33984.33
453.646	34455.37
453.852	34883.39
454.058	35333.95
454.264	34248.52
454.47	34971.46
454.676	34017.1
454.882	35151.68
455.088	32368.49
455.294	32497.51
455.5	32814.94
455.705	33294.17
455.911	31905.65
456.117	31381.37
456.323	31287.16
456.529	29038.49
456.735	30711.68
456.941	29732.75
457.147	29349.78
457.352	28475.3
457.558	28200.87
457.764	28125.1
457.97	27475.89
458.176	26597.31
458.381	26550.21
458.587	25403.35
458.793	25468.88
458.999	24311.78
459.204	25800.65
459.41	25350.1
459.616	23443.44
459.821	23363.57
460.027	23445.49
460.233	23015.41
460.438	21614.6
460.644	22011.91
460.85	20887.57
461.055	20922.39
461.261	20688.92
461.466	19048.5
461.672	18509.88
461.878	19849.25
462.083	18409.53
462.289	17928.26
462.494	18028.61
462.7	17229.9
462.905	16648.28
463.111	16975.95
463.316	17289.29
463.522	17051.73
463.727	16765.01
463.932	16842.84
464.138	16582.74
464.343	16621.66
464.549	16175.2
464.754	16846.93
464.959	16615.51
465.165	16150.62
465.37	15513.7
465.575	15120.49
465.781	15906.91
465.986	15872.1
466.191	15433.83
466.397	15118.45
466.602	14489.72
466.807	15143.02
467.012	15138.93
467.218	14631.03
467.423	14483.58
