Data from USB4F104151__121__14-31-17-435.txt Node

Date: Thu Mar 13 14:31:17 EDT 2025
User: louis
Spectrometer: USB4F10415
Trigger mode: 4
Integration Time (sec): 2.500000E-2
Scans to average: 1
Electric dark correction enabled: true
Nonlinearity correction enabled: false
Boxcar width: 0
XAxis mode: Wavelengths
Number of Pixels in Spectrum: 3648
>>>>>Begin Spectral Data<<<<<
178.204	-119.29
178.424	-119.29
178.644	-119.29
178.864	-188.93
179.084	-55.81
179.304	19.97
179.524	7.68
179.744	-12.8
179.964	-6.66
180.184	7.68
180.404	11.78
180.624	-29.18
180.844	36.35
181.064	1.54
181.283	22.02
181.503	-59.9
181.723	1.54
181.943	-49.66
182.163	67.07
182.383	17.92
182.602	67.07
182.822	77.31
183.042	-23.04
183.262	40.45
183.482	56.83
183.701	69.12
183.921	58.88
184.141	-0.51
184.361	15.87
184.58	42.5
184.8	46.59
185.02	-27.14
185.239	73.21
185.459	46.59
185.679	108.03
185.898	-68.09
186.118	15.87
186.338	50.69
186.557	91.65
186.777	40.45
186.997	7.68
187.216	32.26
187.436	73.21
187.655	56.83
187.875	48.64
188.095	40.45
188.314	26.11
188.534	93.69
188.753	89.6
188.973	-2.56
189.192	93.69
189.412	-18.94
189.631	60.93
189.851	52.74
190.07	32.26
190.29	-31.23
190.509	26.11
190.729	7.68
190.948	126.46
191.168	138.75
191.387	120.32
191.607	91.65
191.826	73.21
192.045	-4.61
192.265	52.74
192.484	-25.09
192.704	-16.9
192.923	28.16
193.142	105.98
193.362	50.69
193.581	7.68
193.8	91.65
194.02	17.92
194.239	46.59
194.458	114.17
194.678	-53.76
194.897	48.64
195.116	-12.8
195.335	105.98
195.555	-20.99
195.774	34.3
195.993	15.87
196.212	-33.28
196.432	42.5
196.651	56.83
196.87	38.4
197.089	114.17
197.308	48.64
197.528	-0.51
197.747	19.97
197.966	-55.81
198.185	89.6
198.404	5.63
198.623	9.73
198.842	97.79
199.062	3.58
199.281	56.83
199.5	15.87
199.719	19.97
199.938	91.65
200.157	56.83
200.376	42.5
200.595	75.26
200.814	105.98
201.033	36.35
201.252	50.69
201.471	65.02
201.69	105.98
201.909	15.87
202.128	50.69
202.347	26.11
202.566	-6.66
202.785	-23.04
203.004	13.82
203.223	126.46
203.442	19.97
203.661	-41.47
203.879	48.64
204.098	87.55
204.317	-66.05
204.536	-20.99
204.755	-6.66
204.974	1.54
205.193	50.69
205.411	19.97
205.63	83.45
205.849	56.83
206.068	108.03
206.287	-25.09
206.505	54.78
206.724	101.89
206.943	15.87
207.162	3.58
207.381	34.3
207.599	56.83
207.818	48.64
208.037	-25.09
208.255	17.92
208.474	34.3
208.693	24.06
208.911	3.58
209.13	-14.85
209.349	56.83
209.567	95.74
209.786	73.21
210.005	52.74
210.223	24.06
210.442	-25.09
210.661	69.12
210.879	34.3
211.098	15.87
211.316	44.54
211.535	108.03
211.753	30.21
211.972	105.98
212.191	-2.56
212.409	114.17
212.628	44.54
212.846	-29.18
213.065	73.21
213.283	138.75
213.502	38.4
213.72	75.26
213.938	3.58
214.157	26.11
214.375	83.45
214.594	69.12
214.812	65.02
215.031	7.68
215.249	58.88
215.467	-14.85
215.686	-23.04
215.904	105.98
216.122	9.73
216.341	75.26
216.559	34.3
216.778	-8.7
216.996	40.45
217.214	65.02
217.432	26.11
217.651	56.83
217.869	58.88
218.087	56.83
218.306	-20.99
218.524	58.88
218.742	108.03
218.96	52.74
219.179	56.83
219.397	91.65
219.615	165.37
219.833	-4.61
220.051	58.88
220.27	130.56
220.488	89.6
220.706	73.21
220.924	7.68
221.142	75.26
221.36	40.45
221.578	60.93
221.796	34.3
222.015	34.3
222.233	79.36
222.451	50.69
222.669	-53.76
222.887	58.88
223.105	-14.85
223.323	65.02
223.541	-16.9
223.759	9.73
223.977	24.06
224.195	142.85
224.413	81.41
224.631	42.5
224.849	32.26
225.067	85.5
225.285	-74.24
225.503	95.74
225.721	-74.24
225.939	-8.7
226.157	30.21
226.375	140.8
226.592	24.06
226.81	19.97
227.028	112.13
227.246	138.75
227.464	-16.9
227.682	89.6
227.9	7.68
228.117	83.45
228.335	87.55
228.553	36.35
228.771	9.73
228.989	60.93
229.206	17.92
229.424	75.26
229.642	42.5
229.86	-25.09
230.077	114.17
230.295	9.73
230.513	77.31
230.731	40.45
230.948	67.07
231.166	24.06
231.384	-61.95
231.601	28.16
231.819	79.36
232.037	89.6
232.254	36.35
232.472	40.45
232.689	-74.24
232.907	11.78
233.125	73.21
233.342	-0.51
233.56	73.21
233.777	30.21
233.995	48.64
234.213	69.12
234.43	-47.62
234.648	71.17
234.865	-29.18
235.083	114.17
235.3	34.3
235.518	19.97
235.735	83.45
235.953	67.07
236.17	54.78
236.388	58.88
236.605	9.73
236.822	77.31
237.04	83.45
237.257	85.5
237.475	22.02
237.692	58.88
237.909	17.92
238.127	26.11
238.344	26.11
238.562	17.92
238.779	-33.28
238.996	81.41
239.214	3.58
239.431	108.03
239.648	-0.51
239.865	48.64
240.083	40.45
240.3	48.64
240.517	32.26
240.735	15.87
240.952	34.3
241.169	56.83
241.386	105.98
241.603	15.87
241.821	38.4
242.038	97.79
242.255	116.22
242.472	50.69
242.689	81.41
242.907	75.26
243.124	65.02
243.341	114.17
243.558	85.5
243.775	-4.61
243.992	56.83
244.209	50.69
244.426	187.9
244.643	69.12
244.86	24.06
245.078	50.69
245.295	-8.7
245.512	17.92
245.729	89.6
245.946	97.79
246.163	56.83
246.38	24.06
246.597	97.79
246.814	-82.43
247.031	69.12
247.248	28.16
247.464	-16.9
247.681	52.74
247.898	26.11
248.115	56.83
248.332	24.06
248.549	40.45
248.766	93.69
248.983	24.06
249.2	15.87
249.417	91.65
249.633	-4.61
249.85	52.74
250.067	-41.47
250.284	50.69
250.501	155.13
250.717	17.92
250.934	52.74
251.151	24.06
251.368	-8.7
251.585	17.92
251.801	-23.04
252.018	-25.09
252.235	65.02
252.451	15.87
252.668	56.83
252.885	50.69
253.102	62.98
253.318	40.45
253.535	52.74
253.752	9.73
253.968	89.6
254.185	15.87
254.401	48.64
254.618	42.5
254.835	38.4
255.051	120.32
255.268	9.73
255.484	155.13
255.701	34.3
255.917	69.12
256.134	19.97
256.351	26.11
256.567	48.64
256.784	19.97
257	-6.66
257.217	85.5
257.433	58.88
257.65	28.16
257.866	73.21
258.082	32.26
258.299	-29.18
258.515	42.5
258.732	-16.9
258.948	71.17
259.165	9.73
259.381	9.73
259.597	48.64
259.814	7.68
260.03	81.41
260.246	65.02
260.463	97.79
260.679	50.69
260.895	32.26
261.112	34.3
261.328	65.02
261.544	15.87
261.761	56.83
261.977	15.87
262.193	24.06
262.409	42.5
262.626	81.41
262.842	50.69
263.058	-18.94
263.274	7.68
263.49	34.3
263.707	75.26
263.923	42.5
264.139	-16.9
264.355	48.64
264.571	103.93
264.787	48.64
265.004	103.93
265.22	30.21
265.436	65.02
265.652	52.74
265.868	67.07
266.084	-8.7
266.3	42.5
266.516	7.68
266.732	-0.51
266.948	-12.8
267.164	97.79
267.38	50.69
267.596	103.93
267.812	62.98
268.028	26.11
268.244	85.5
268.46	42.5
268.676	73.21
268.892	38.4
269.108	24.06
269.324	-8.7
269.54	19.97
269.756	138.75
269.972	-96.77
270.188	24.06
270.403	-8.7
270.619	-14.85
270.835	-33.28
271.051	32.26
271.267	28.16
271.483	9.73
271.698	56.83
271.914	83.45
272.13	50.69
272.346	42.5
272.562	15.87
272.777	9.73
272.993	42.5
273.209	50.69
273.425	110.08
273.64	-6.66
273.856	56.83
274.072	26.11
274.287	40.45
274.503	19.97
274.719	26.11
274.934	56.83
275.15	19.97
275.366	3.58
275.581	-8.7
275.797	-0.51
276.012	52.74
276.228	32.26
276.444	44.54
276.659	167.42
276.875	-8.7
277.09	9.73
277.306	26.11
277.521	83.45
277.737	-8.7
277.952	46.59
278.168	95.74
278.383	67.07
278.599	67.07
278.814	40.45
279.03	26.11
279.245	46.59
279.461	71.17
279.676	97.79
279.892	28.16
280.107	73.21
280.322	1.54
280.538	99.84
280.753	97.79
280.969	24.06
281.184	34.3
281.399	67.07
281.615	87.55
281.83	81.41
282.045	26.11
282.26	-0.51
282.476	44.54
282.691	124.41
282.906	99.84
283.122	11.78
283.337	75.26
283.552	3.58
283.767	7.68
283.983	56.83
284.198	42.5
284.413	-18.94
284.628	-16.9
284.843	-4.61
285.058	3.58
285.274	-8.7
285.489	26.11
285.704	89.6
285.919	67.07
286.134	67.07
286.349	40.45
286.564	50.69
286.779	44.54
286.995	44.54
287.21	1.54
287.425	65.02
287.64	67.07
287.855	69.12
288.07	-8.7
288.285	118.27
288.5	101.89
288.715	81.41
288.93	32.26
289.145	42.5
289.36	62.98
289.575	46.59
289.79	17.92
290.004	-39.42
290.219	77.31
290.434	85.5
290.649	19.97
290.864	-39.42
291.079	24.06
291.294	44.54
291.509	-35.33
291.724	79.36
291.938	110.08
292.153	44.54
292.368	42.5
292.583	11.78
292.798	-10.75
293.012	52.74
293.227	85.5
293.442	75.26
293.657	44.54
293.871	56.83
294.086	62.98
294.301	146.94
294.516	62.98
294.73	50.69
294.945	-0.51
295.16	105.98
295.374	42.5
295.589	120.32
295.804	-16.9
296.018	22.02
296.233	110.08
296.447	69.12
296.662	3.58
296.877	105.98
297.091	114.17
297.306	89.6
297.52	32.26
297.735	62.98
297.949	9.73
298.164	9.73
298.378	3.58
298.593	13.82
298.807	17.92
299.022	58.88
299.236	56.83
299.451	-45.57
299.665	44.54
299.88	-0.51
300.094	85.5
300.309	40.45
300.523	32.26
300.737	28.16
300.952	-23.04
301.166	48.64
301.381	28.16
301.595	7.68
301.809	83.45
302.024	81.41
302.238	26.11
302.452	108.03
302.667	108.03
302.881	83.45
303.095	19.97
303.309	73.21
303.524	-41.47
303.738	50.69
303.952	40.45
304.166	50.69
304.381	-41.47
304.595	122.37
304.809	-0.51
305.023	40.45
305.237	-0.51
305.452	73.21
305.666	-4.61
305.88	67.07
306.094	65.02
306.308	69.12
306.522	77.31
306.736	91.65
306.95	56.83
307.164	-16.9
307.379	3.58
307.593	112.13
307.807	89.6
308.021	85.5
308.235	103.93
308.449	-47.62
308.663	58.88
308.877	130.56
309.091	48.64
309.305	73.21
309.519	-43.52
309.733	83.45
309.947	50.69
310.161	34.3
310.374	44.54
310.588	65.02
310.802	87.55
311.016	40.45
311.23	-23.04
311.444	15.87
311.658	40.45
311.872	44.54
312.085	11.78
312.299	122.37
312.513	101.89
312.727	97.79
312.941	40.45
313.154	75.26
313.368	87.55
313.582	34.3
313.796	114.17
314.009	26.11
314.223	58.88
314.437	52.74
314.651	85.5
314.864	91.65
315.078	108.03
315.292	42.5
315.505	-12.8
315.719	105.98
315.933	85.5
316.146	60.93
316.36	17.92
316.573	122.37
316.787	-4.61
317.001	48.64
317.214	32.26
317.428	3.58
317.641	58.88
317.855	75.26
318.068	-6.66
318.282	19.97
318.495	173.57
318.709	65.02
318.922	56.83
319.136	101.89
319.349	19.97
319.563	5.63
319.776	67.07
319.99	38.4
320.203	81.41
320.417	67.07
320.63	52.74
320.843	83.45
321.057	36.35
321.27	81.41
321.483	105.98
321.697	81.41
321.91	155.13
322.124	108.03
322.337	-0.51
322.55	3.58
322.763	75.26
322.977	40.45
323.19	58.88
323.403	85.5
323.617	28.16
323.83	83.45
324.043	81.41
324.256	79.36
324.469	32.26
324.683	83.45
324.896	85.5
325.109	7.68
325.322	105.98
325.535	81.41
325.748	11.78
325.962	81.41
326.175	48.64
326.388	11.78
326.601	9.73
326.814	60.93
327.027	65.02
327.24	118.27
327.453	-41.47
327.666	97.79
327.879	118.27
328.092	122.37
328.305	44.54
328.518	73.21
328.731	-10.75
328.944	79.36
329.157	114.17
329.37	-61.95
329.583	48.64
329.796	17.92
330.009	1.54
330.222	87.55
330.435	89.6
330.648	81.41
330.861	81.41
331.073	28.16
331.286	91.65
331.499	26.11
331.712	52.74
331.925	114.17
332.138	93.69
332.35	40.45
332.563	15.87
332.776	62.98
332.989	34.3
333.202	24.06
333.414	19.97
333.627	97.79
333.84	65.02
334.053	-12.8
334.265	97.79
334.478	56.83
334.691	-8.7
334.903	91.65
335.116	-0.51
335.329	52.74
335.541	52.74
335.754	38.4
335.966	99.84
336.179	79.36
336.392	85.5
336.604	40.45
336.817	28.16
337.029	-0.51
337.242	48.64
337.454	26.11
337.667	38.4
337.88	60.93
338.092	34.3
338.305	101.89
338.517	26.11
338.729	34.3
338.942	87.55
339.154	118.27
339.367	-16.9
339.579	89.6
339.792	48.64
340.004	44.54
340.217	65.02
340.429	105.98
340.641	7.68
340.854	-47.62
341.066	58.88
341.278	93.69
341.491	40.45
341.703	40.45
341.915	89.6
342.128	73.21
342.34	36.35
342.552	103.93
342.764	65.02
342.977	99.84
343.189	65.02
343.401	91.65
343.613	42.5
343.826	42.5
344.038	26.11
344.25	105.98
344.462	-8.7
344.674	89.6
344.886	56.83
345.099	140.8
345.311	97.79
345.523	7.68
345.735	-55.81
345.947	32.26
346.159	36.35
346.371	9.73
346.583	122.37
346.795	144.89
347.007	24.06
347.219	60.93
347.431	-0.51
347.643	36.35
347.855	60.93
348.067	146.94
348.279	34.3
348.491	15.87
348.703	50.69
348.915	22.02
349.127	32.26
349.339	93.69
349.551	58.88
349.763	87.55
349.975	77.31
350.187	77.31
350.399	105.98
350.61	81.41
350.822	40.45
351.034	151.04
351.246	44.54
351.458	97.79
351.669	112.13
351.881	36.35
352.093	56.83
352.305	116.22
352.517	112.13
352.728	15.87
352.94	48.64
353.152	56.83
353.363	1.54
353.575	58.88
353.787	89.6
353.999	130.56
354.21	130.56
354.422	73.21
354.633	58.88
354.845	138.75
355.057	28.16
355.268	40.45
355.48	132.61
355.692	36.35
355.903	75.26
356.115	83.45
356.326	15.87
356.538	93.69
356.749	9.73
356.961	52.74
357.172	65.02
357.384	52.74
357.595	118.27
357.807	24.06
358.018	48.64
358.23	24.06
358.441	89.6
358.653	56.83
358.864	56.83
359.075	26.11
359.287	79.36
359.498	138.75
359.709	134.65
359.921	62.98
360.132	87.55
360.344	-0.51
360.555	7.68
360.766	81.41
360.977	42.5
361.189	93.69
361.4	56.83
361.611	93.69
361.823	116.22
362.034	48.64
362.245	-66.05
362.456	36.35
362.667	42.5
362.879	93.69
363.09	-4.61
363.301	130.56
363.512	67.07
363.723	65.02
363.935	89.6
364.146	124.41
364.357	36.35
364.568	73.21
364.779	-8.7
364.99	146.94
365.201	126.46
365.412	87.55
365.623	34.3
365.834	15.87
366.045	103.93
366.256	114.17
366.467	58.88
366.678	65.02
366.889	97.79
367.1	34.3
367.311	89.6
367.522	48.64
367.733	71.17
367.944	58.88
368.155	69.12
368.366	50.69
368.577	148.99
368.788	179.71
368.999	62.98
369.209	36.35
369.42	110.08
369.631	112.13
369.842	36.35
370.053	67.07
370.264	163.33
370.474	69.12
370.685	36.35
370.896	89.6
371.107	48.64
371.317	196.09
371.528	-4.61
371.739	7.68
371.95	1.54
372.16	50.69
372.371	-4.61
372.582	120.32
372.792	110.08
373.003	140.8
373.214	101.89
373.424	73.21
373.635	-49.66
373.846	42.5
374.056	101.89
374.267	65.02
374.477	56.83
374.688	79.36
374.898	48.64
375.109	122.37
375.319	44.54
375.53	148.99
375.74	108.03
375.951	67.07
376.161	56.83
376.372	132.61
376.582	116.22
376.793	58.88
377.003	52.74
377.214	40.45
377.424	58.88
377.635	91.65
377.845	116.22
378.055	81.41
378.266	-0.51
378.476	48.64
378.686	73.21
378.897	116.22
379.107	67.07
379.317	77.31
379.528	40.45
379.738	79.36
379.948	46.59
380.158	24.06
380.369	69.12
380.579	73.21
380.789	48.64
380.999	81.41
381.21	5.63
381.42	89.6
381.63	81.41
381.84	56.83
382.05	77.31
382.261	175.61
382.471	101.89
382.681	75.26
382.891	112.13
383.101	134.65
383.311	19.97
383.521	73.21
383.731	26.11
383.941	155.13
384.151	60.93
384.361	19.97
384.571	58.88
384.781	89.6
384.991	97.79
385.201	108.03
385.411	120.32
385.621	75.26
385.831	65.02
386.041	93.69
386.251	95.74
386.461	165.37
386.671	56.83
386.881	48.64
387.091	91.65
387.301	91.65
387.511	142.85
387.72	56.83
387.93	93.69
388.14	65.02
388.35	71.17
388.56	42.5
388.769	83.45
388.979	77.31
389.189	9.73
389.399	83.45
389.609	75.26
389.818	122.37
390.028	52.74
390.238	101.89
390.447	83.45
390.657	105.98
390.867	105.98
391.076	58.88
391.286	142.85
391.496	83.45
391.705	101.89
391.915	142.85
392.125	142.85
392.334	71.17
392.544	34.3
392.753	124.41
392.963	124.41
393.172	83.45
393.382	17.92
393.591	206.33
393.801	134.65
394.01	120.32
394.22	157.18
394.429	79.36
394.639	116.22
394.848	183.81
395.058	93.69
395.267	91.65
395.477	189.95
395.686	110.08
395.895	228.86
396.105	185.85
396.314	171.52
396.524	83.45
396.733	159.23
396.942	99.84
397.152	163.33
397.361	146.94
397.57	110.08
397.78	179.71
397.989	81.41
398.198	245.24
398.407	130.56
398.617	187.9
398.826	185.85
399.035	118.27
399.244	151.04
399.453	210.43
399.663	183.81
399.872	185.85
400.081	224.76
400.29	130.56
400.499	163.33
400.708	212.48
400.917	130.56
401.127	15.87
401.336	179.71
401.545	204.28
401.754	222.72
401.963	218.62
402.172	187.9
402.381	155.13
402.59	114.17
402.799	189.95
403.008	253.44
403.217	138.75
403.426	165.37
403.635	140.8
403.844	204.28
404.053	294.4
404.262	101.89
404.471	278.01
404.68	239.1
404.888	239.1
405.097	206.33
405.306	261.63
405.515	239.1
405.724	204.28
405.933	278.01
406.142	226.81
406.35	282.11
406.559	280.06
406.768	286.2
406.977	294.4
407.185	296.44
407.394	359.93
407.603	337.4
407.812	321.02
408.02	456.19
408.229	402.94
408.438	361.98
408.646	404.99
408.855	302.59
409.064	384.51
409.272	357.88
409.481	450.04
409.69	368.12
409.898	452.09
410.107	482.81
410.315	609.78
410.524	564.73
410.733	525.82
410.941	507.38
411.15	564.73
411.358	531.96
411.567	697.85
411.775	615.93
411.984	679.41
412.192	656.89
412.401	710.13
412.609	830.96
412.818	763.38
413.026	802.29
413.234	910.83
413.443	830.96
413.651	781.81
413.86	941.55
414.068	1023.47
414.276	970.23
414.485	880.11
414.693	1060.34
414.901	1056.24
415.11	1113.58
415.318	1050.1
415.526	1244.65
415.734	1281.52
415.943	1269.23
416.151	1326.57
416.359	1347.05
416.567	1437.16
416.776	1502.7
416.984	1461.74
417.192	1598.95
417.4	1517.03
417.608	1492.46
417.817	1641.96
418.025	1703.4
418.233	1826.28
418.441	1779.17
418.649	1859.04
418.857	2065.89
419.065	2026.98
419.273	1967.59
419.481	2108.9
419.689	2313.69
419.897	2379.23
420.105	2330.08
420.313	2465.24
420.521	2553.31
420.729	2708.95
420.937	2610.65
421.145	2733.53
421.353	2751.96
421.561	3048.91
421.769	3063.25
421.977	3151.31
422.185	3186.13
422.393	3376.59
422.601	3540.43
422.809	3548.62
423.017	3558.86
423.224	3800.52
423.432	3853.77
423.64	3988.93
423.848	4263.36
424.056	4212.16
424.263	4478.4
424.471	4517.31
424.679	4566.46
424.887	4806.07
425.094	4935.09
425.302	4976.05
425.51	5017.01
425.718	5340.59
425.925	5418.41
426.133	5582.25
426.341	5914.02
426.548	6114.72
426.756	6137.25
426.964	6376.86
427.171	6565.28
427.379	6772.12
427.586	6815.13
427.794	7060.88
428.001	7398.8
428.209	7726.47
428.417	7593.36
428.624	7964.04
428.832	8129.92
429.039	8101.25
429.247	8129.92
429.454	8879.48
429.662	9448.82
429.869	8906.1
430.076	9438.58
430.284	9201.01
430.491	9661.8
430.699	10294.63
430.906	10222.95
431.114	10444.13
431.321	10476.9
431.528	10798.43
431.736	11623.76
431.943	12023.11
432.15	11691.34
432.358	11853.13
432.565	12721.47
432.772	12279.11
432.979	12930.36
433.187	13280.57
433.394	13411.64
433.601	14196.01
433.808	14218.54
434.016	14144.81
434.223	14597.41
434.43	15598.87
434.637	15584.53
434.844	16440.58
435.052	16473.35
435.259	16551.17
435.466	16741.63
435.673	16524.55
435.88	17274.1
436.087	18658.53
436.294	18386.15
436.501	18253.03
436.708	18181.35
436.915	19250.39
437.122	19817.68
437.329	19659.99
437.537	20282.57
437.743	20829.38
437.95	20513.99
438.157	21476.54
438.364	22389.93
438.571	22217.9
438.778	22531.24
438.985	24304.78
439.192	23481.5
439.399	24063.12
439.606	23473.31
439.813	25316.48
440.02	26563.69
440.227	25949.3
440.433	26119.28
440.64	26664.04
440.847	26463.34
441.054	26836.07
441.261	28619.85
441.467	28593.23
441.674	29049.92
441.881	29903.93
442.088	29779
442.294	29850.68
442.501	30827.56
442.708	30991.4
442.914	31960.09
443.121	33348.61
443.328	32719.88
443.534	35083.24
443.741	34143.22
443.948	33414.15
444.154	35832.8
444.361	35568.61
444.568	35898.33
444.774	35857.37
444.981	36275.16
445.187	37370.82
445.394	38798.26
445.6	38112.19
445.807	41792.39
446.013	40215.45
446.22	40983.44
446.426	42607.48
446.633	43043.7
446.839	44131.17
447.046	42388.35
447.252	44823.38
447.459	44747.61
447.665	44716.89
447.871	46809.91
448.078	48544.54
448.284	46381.88
448.491	47614.76
448.697	49099.54
448.903	49963.78
449.11	50268.93
449.316	49589
449.522	50156.29
449.728	51743.47
449.935	51858.15
450.141	52331.23
450.347	53334.74
450.553	51561.2
450.76	52091.62
450.966	53537.49
451.172	53252.82
451.378	54272.71
451.584	53742.28
451.791	54864.57
451.997	54792.89
452.203	55542.45
452.409	54823.61
452.615	55296.69
452.821	52904.66
453.027	52513.5
453.233	55118.52
453.44	53430.99
453.646	53269.2
453.852	53842.63
454.058	54647.49
454.264	53000.92
454.47	54010.57
454.676	52957.91
454.882	54698.69
455.088	50131.72
455.294	50852.6
455.5	51960.55
455.705	51987.17
455.911	50467.58
456.117	49308.43
456.323	48681.75
456.529	45880.13
456.735	48188.19
456.941	46617.4
457.147	46064.45
457.352	44802.9
457.558	44716.89
457.764	44716.89
457.97	43766.63
458.176	42711.92
458.381	42400.63
458.587	40694.68
458.793	40752.02
458.999	38837.17
459.204	41276.3
459.41	40213.4
459.616	37923.77
459.821	37540.8
460.027	37143.5
460.233	36469.72
460.438	34917.36
460.644	35415.01
460.85	33909.75
461.055	32992.26
461.261	33242.12
461.466	30491.69
461.672	29559.87
461.878	31808.54
462.083	29727.8
462.289	29195.33
462.494	28775.5
462.7	27774.04
462.905	26983.52
463.111	27462.75
463.316	27602.01
463.522	27380.83
463.727	27350.11
463.932	27161.7
464.138	26797.16
464.343	26831.97
464.549	26195.06
464.754	26860.65
464.959	26858.6
465.165	26322.03
465.37	25177.22
465.575	24628.36
465.781	25719.93
465.986	25822.33
466.191	24640.65
466.397	24351.88
466.602	23067.81
466.807	24142.99
