Data from USB4F104151__164__14-32-17-043.txt Node

Date: Thu Mar 13 14:32:17 EDT 2025
User: louis
Spectrometer: USB4F10415
Trigger mode: 4
Integration Time (sec): 2.500000E-2
Scans to average: 1
Electric dark correction enabled: true
Nonlinearity correction enabled: false
Boxcar width: 0
XAxis mode: Wavelengths
Number of Pixels in Spectrum: 3648
>>>>>Begin Spectral Data<<<<<
178.204	-95.06
178.424	-95.06
178.644	-95.06
178.864	-181.07
179.084	-140.12
179.304	46.25
179.524	3.24
179.744	-23.38
179.964	72.87
180.184	-54.1
180.404	-66.39
180.624	-54.1
180.844	52.39
181.064	-37.72
181.283	52.39
181.503	9.39
181.723	-0.85
181.943	-64.34
182.163	58.54
182.383	-13.14
182.602	132.26
182.822	89.26
183.042	15.53
183.262	31.91
183.482	56.49
183.701	27.82
183.921	-23.38
184.141	25.77
184.361	7.34
184.58	9.39
184.8	7.34
185.02	-41.81
185.239	76.97
185.459	-9.05
185.679	154.79
185.898	-72.53
186.118	79.02
186.338	7.34
186.557	48.3
186.777	5.29
186.997	85.16
187.216	42.15
187.436	128.17
187.655	19.63
187.875	27.82
188.095	3.24
188.314	72.87
188.534	72.87
188.753	52.39
188.973	25.77
189.192	99.5
189.412	-7
189.631	-7
189.851	68.78
190.07	107.69
190.29	19.63
190.509	64.68
190.729	25.77
190.948	99.5
191.168	103.59
191.387	72.87
191.607	-4.95
191.826	50.35
192.045	42.15
192.265	-72.53
192.484	48.3
192.704	52.39
192.923	40.11
193.142	105.64
193.362	72.87
193.581	72.87
193.8	19.63
194.02	33.96
194.239	-33.62
194.458	68.78
194.678	58.54
194.897	42.15
195.116	40.11
195.335	66.73
195.555	11.43
195.774	17.58
195.993	36.01
196.212	-9.05
196.432	42.15
196.651	23.72
196.87	154.79
197.089	101.55
197.308	126.12
197.528	25.77
197.747	-9.05
197.966	97.45
198.185	89.26
198.404	7.34
198.623	66.73
198.842	91.31
199.062	48.3
199.281	48.3
199.5	56.49
199.719	99.5
199.938	1.19
200.157	21.67
200.376	13.48
200.595	81.07
200.814	-4.95
201.033	42.15
201.252	105.64
201.471	66.73
201.69	-9.05
201.909	-58.2
202.128	87.21
202.347	11.43
202.566	27.82
202.785	-29.52
203.004	42.15
203.223	91.31
203.442	54.44
203.661	3.24
203.879	48.3
204.098	89.26
204.317	15.53
204.536	107.69
204.755	-7
204.974	13.48
205.193	42.15
205.411	95.4
205.63	99.5
205.849	76.97
206.068	-17.24
206.287	-15.19
206.505	3.24
206.724	-47.96
206.943	25.77
207.162	36.01
207.381	48.3
207.599	-21.33
207.818	56.49
208.037	40.11
208.255	-33.62
208.474	33.96
208.693	33.96
208.911	62.63
209.13	81.07
209.349	105.64
209.567	36.01
209.786	97.45
210.005	99.5
210.223	58.54
210.442	-39.76
210.661	11.43
210.879	31.91
211.098	33.96
211.316	19.63
211.535	7.34
211.753	25.77
211.972	15.53
212.191	7.34
212.409	64.68
212.628	11.43
212.846	-62.29
213.065	122.02
213.283	91.31
213.502	-45.91
213.72	48.3
213.938	36.01
214.157	85.16
214.375	7.34
214.594	38.06
214.812	76.97
215.031	13.48
215.249	-17.24
215.467	56.49
215.686	99.5
215.904	72.87
216.122	105.64
216.341	50.35
216.559	11.43
216.778	87.21
216.996	36.01
217.214	48.3
217.432	44.2
217.651	17.58
217.869	-43.86
218.087	9.39
218.306	66.73
218.524	5.29
218.742	3.24
218.96	60.59
219.179	56.49
219.397	-25.43
219.615	113.83
219.833	85.16
220.051	-62.29
220.27	74.92
220.488	64.68
220.706	58.54
220.924	-29.52
221.142	38.06
221.36	19.63
221.578	-88.92
221.796	7.34
222.015	97.45
222.233	111.78
222.451	81.07
222.669	68.78
222.887	60.59
223.105	38.06
223.323	15.53
223.541	17.58
223.759	83.11
223.977	31.91
224.195	93.35
224.413	-45.91
224.631	56.49
224.849	40.11
225.067	113.83
225.285	-33.62
225.503	19.63
225.721	-58.2
225.939	99.5
226.157	33.96
226.375	113.83
226.592	-7
226.81	-15.19
227.028	-0.85
227.246	109.74
227.464	-33.62
227.682	44.2
227.9	64.68
228.117	76.97
228.335	60.59
228.553	64.68
228.771	38.06
228.989	7.34
229.206	9.39
229.424	-0.85
229.642	83.11
229.86	-35.67
230.077	89.26
230.295	-21.33
230.513	42.15
230.731	83.11
230.948	66.73
231.166	64.68
231.384	91.31
231.601	38.06
231.819	79.02
232.037	7.34
232.254	15.53
232.472	-0.85
232.689	21.67
232.907	15.53
233.125	40.11
233.342	-31.57
233.56	-7
233.777	1.19
233.995	36.01
234.213	19.63
234.43	56.49
234.648	66.73
234.865	-23.38
235.083	50.35
235.3	25.77
235.518	-29.52
235.735	15.53
235.953	83.11
236.17	44.2
236.388	7.34
236.605	-9.05
236.822	23.72
237.04	-7
237.257	48.3
237.475	15.53
237.692	62.63
237.909	50.35
238.127	54.44
238.344	31.91
238.562	115.88
238.779	42.15
238.996	-62.29
239.214	56.49
239.431	27.82
239.648	27.82
239.865	-0.85
240.083	11.43
240.3	31.91
240.517	-72.53
240.735	-4.95
240.952	64.68
241.169	23.72
241.386	19.63
241.603	64.68
241.821	-11.09
242.038	74.92
242.255	72.87
242.472	-41.81
242.689	48.3
242.907	64.68
243.124	29.87
243.341	-11.09
243.558	58.54
243.775	-52.05
243.992	27.82
244.209	89.26
244.426	105.64
244.643	97.45
244.86	58.54
245.078	64.68
245.295	66.73
245.512	97.45
245.729	52.39
245.946	23.72
246.163	-21.33
246.38	85.16
246.597	11.43
246.814	50.35
247.031	60.59
247.248	11.43
247.464	-11.09
247.681	50.35
247.898	9.39
248.115	64.68
248.332	-70.48
248.549	60.59
248.766	7.34
248.983	66.73
249.2	46.25
249.417	93.35
249.633	-0.85
249.85	-25.43
250.067	40.11
250.284	-13.14
250.501	3.24
250.717	-15.19
250.934	-37.72
251.151	-9.05
251.368	1.19
251.585	56.49
251.801	15.53
252.018	81.07
252.235	44.2
252.451	9.39
252.668	42.15
252.885	44.2
253.102	-15.19
253.318	17.58
253.535	-9.05
253.752	68.78
253.968	40.11
254.185	27.82
254.401	58.54
254.618	52.39
254.835	-0.85
255.051	89.26
255.268	74.92
255.484	101.55
255.701	140.46
255.917	89.26
256.134	70.83
256.351	-9.05
256.567	33.96
256.784	7.34
257	7.34
257.217	31.91
257.433	44.2
257.65	113.83
257.866	56.49
258.082	15.53
258.299	11.43
258.515	66.73
258.732	-23.38
258.948	9.39
259.165	60.59
259.381	-4.95
259.597	25.77
259.814	7.34
260.03	64.68
260.246	-15.19
260.463	119.98
260.679	97.45
260.895	-21.33
261.112	31.91
261.328	46.25
261.544	-29.52
261.761	97.45
261.977	48.3
262.193	-41.81
262.409	72.87
262.626	81.07
262.842	146.6
263.058	-23.38
263.274	144.55
263.49	40.11
263.707	66.73
263.923	56.49
264.139	-29.52
264.355	9.39
264.571	36.01
264.787	27.82
265.004	111.78
265.22	66.73
265.436	36.01
265.652	-74.58
265.868	38.06
266.084	3.24
266.3	52.39
266.516	-15.19
266.732	89.26
266.948	56.49
267.164	-17.24
267.38	56.49
267.596	-7
267.812	76.97
268.028	68.78
268.244	83.11
268.46	23.72
268.676	33.96
268.892	21.67
269.108	5.29
269.324	89.26
269.54	1.19
269.756	62.63
269.972	-72.53
270.188	56.49
270.403	-31.57
270.619	27.82
270.835	21.67
271.051	23.72
271.267	-70.48
271.483	-7
271.698	66.73
271.914	-37.72
272.13	115.88
272.346	154.79
272.562	31.91
272.777	101.55
272.993	-11.09
273.209	97.45
273.425	72.87
273.64	-25.43
273.856	-54.1
274.072	107.69
274.287	-11.09
274.503	83.11
274.719	9.39
274.934	44.2
275.15	19.63
275.366	64.68
275.581	15.53
275.797	23.72
276.012	42.15
276.228	58.54
276.444	50.35
276.659	115.88
276.875	-62.29
277.09	48.3
277.306	42.15
277.521	56.49
277.737	11.43
277.952	-27.48
278.168	64.68
278.383	74.92
278.599	36.01
278.814	-31.57
279.03	-21.33
279.245	83.11
279.461	48.3
279.676	-29.52
279.892	-0.85
280.107	36.01
280.322	23.72
280.538	89.26
280.753	23.72
280.969	70.83
281.184	25.77
281.399	156.84
281.615	-29.52
281.83	68.78
282.045	-50
282.26	62.63
282.476	56.49
282.691	48.3
282.906	7.34
283.122	107.69
283.337	-31.57
283.552	17.58
283.767	7.34
283.983	44.2
284.198	23.72
284.413	76.97
284.628	-41.81
284.843	56.49
285.058	29.87
285.274	60.59
285.489	-33.62
285.704	23.72
285.919	3.24
286.134	33.96
286.349	48.3
286.564	13.48
286.779	93.35
286.995	56.49
287.21	19.63
287.425	48.3
287.64	56.49
287.855	7.34
288.07	-13.14
288.285	23.72
288.5	85.16
288.715	79.02
288.93	89.26
289.145	3.24
289.36	19.63
289.575	48.3
289.79	40.11
290.004	42.15
290.219	83.11
290.434	31.91
290.649	89.26
290.864	23.72
291.079	-9.05
291.294	7.34
291.509	44.2
291.724	11.43
291.938	13.48
292.153	15.53
292.368	79.02
292.583	27.82
292.798	89.26
293.012	81.07
293.227	70.83
293.442	44.2
293.657	91.31
293.871	70.83
294.086	76.97
294.301	138.41
294.516	66.73
294.73	29.87
294.945	-17.24
295.16	-15.19
295.374	40.11
295.589	-0.85
295.804	-25.43
296.018	50.35
296.233	117.93
296.447	11.43
296.662	48.3
296.877	62.63
297.091	60.59
297.306	29.87
297.52	21.67
297.735	25.77
297.949	60.59
298.164	-17.24
298.378	3.24
298.593	48.3
298.807	15.53
299.022	64.68
299.236	99.5
299.451	7.34
299.665	3.24
299.88	-33.62
300.094	23.72
300.309	50.35
300.523	81.07
300.737	-58.2
300.952	9.39
301.166	-15.19
301.381	15.53
301.595	48.3
301.809	9.39
302.024	-0.85
302.238	-95.06
302.452	54.44
302.667	15.53
302.881	68.78
303.095	7.34
303.309	-4.95
303.524	-56.15
303.738	31.91
303.952	56.49
304.166	72.87
304.381	9.39
304.595	95.4
304.809	7.34
305.023	25.77
305.237	60.59
305.452	9.39
305.666	46.25
305.88	44.2
306.094	7.34
306.308	115.88
306.522	60.59
306.736	-0.85
306.95	17.58
307.164	33.96
307.379	33.96
307.593	109.74
307.807	54.44
308.021	46.25
308.235	81.07
308.449	-2.9
308.663	33.96
308.877	58.54
309.091	44.2
309.305	-33.62
309.519	11.43
309.733	23.72
309.947	36.01
310.161	52.39
310.374	-39.76
310.588	15.53
310.802	31.91
311.016	21.67
311.23	-0.85
311.444	-50
311.658	5.29
311.872	97.45
312.085	-2.9
312.299	126.12
312.513	68.78
312.727	111.78
312.941	-13.14
313.154	76.97
313.368	76.97
313.582	-0.85
313.796	52.39
314.009	-33.62
314.223	68.78
314.437	27.82
314.651	122.02
314.864	-9.05
315.078	7.34
315.292	56.49
315.505	21.67
315.719	42.15
315.933	-7
316.146	7.34
316.36	-9.05
316.573	40.11
316.787	11.43
317.001	1.19
317.214	33.96
317.428	40.11
317.641	-9.05
317.855	72.87
318.068	119.98
318.282	19.63
318.495	130.22
318.709	-21.33
318.922	40.11
319.136	66.73
319.349	25.77
319.563	-80.72
319.776	76.97
319.99	9.39
320.203	76.97
320.417	99.5
320.63	17.58
320.843	146.6
321.057	87.21
321.27	25.77
321.483	130.22
321.697	97.45
321.91	97.45
322.124	27.82
322.337	-0.85
322.55	-9.05
322.763	-23.38
322.977	42.15
323.19	7.34
323.403	27.82
323.617	70.83
323.83	33.96
324.043	54.44
324.256	27.82
324.469	-4.95
324.683	52.39
324.896	5.29
325.109	89.26
325.322	5.29
325.535	56.49
325.748	66.73
325.962	-19.29
326.175	25.77
326.388	58.54
326.601	60.59
326.814	44.2
327.027	68.78
327.24	89.26
327.453	-64.34
327.666	27.82
327.879	48.3
328.092	97.45
328.305	15.53
328.518	122.02
328.731	13.48
328.944	19.63
329.157	-37.72
329.37	-11.09
329.583	31.91
329.796	52.39
330.009	7.34
330.222	58.54
330.435	68.78
330.648	117.93
330.861	42.15
331.073	105.64
331.286	42.15
331.499	-0.85
331.712	56.49
331.925	-0.85
332.138	-9.05
332.35	56.49
332.563	46.25
332.776	97.45
332.989	19.63
333.202	9.39
333.414	23.72
333.627	-7
333.84	11.43
334.053	50.35
334.265	23.72
334.478	17.58
334.691	48.3
334.903	91.31
335.116	33.96
335.329	31.91
335.541	76.97
335.754	144.55
335.966	-7
336.179	17.58
336.392	62.63
336.604	40.11
336.817	56.49
337.029	40.11
337.242	-7
337.454	64.68
337.667	66.73
337.88	85.16
338.092	105.64
338.305	85.16
338.517	40.11
338.729	-9.05
338.942	91.31
339.154	66.73
339.367	33.96
339.579	19.63
339.792	68.78
340.004	48.3
340.217	60.59
340.429	-9.05
340.641	23.72
340.854	72.87
341.066	1.19
341.278	31.91
341.491	87.21
341.703	19.63
341.915	-17.24
342.128	-0.85
342.34	-23.38
342.552	19.63
342.764	31.91
342.977	52.39
343.189	31.91
343.401	-7
343.613	7.34
343.826	58.54
344.038	-11.09
344.25	-29.52
344.462	7.34
344.674	68.78
344.886	3.24
345.099	-15.19
345.311	-9.05
345.523	-9.05
345.735	64.68
345.947	-0.85
346.159	58.54
346.371	-4.95
346.583	25.77
346.795	113.83
347.007	-4.95
347.219	9.39
347.431	-7
347.643	40.11
347.855	31.91
348.067	50.35
348.279	-33.62
348.491	3.24
348.703	44.2
348.915	54.44
349.127	50.35
349.339	97.45
349.551	93.35
349.763	124.07
349.975	21.67
350.187	83.11
350.399	3.24
350.61	74.92
350.822	33.96
351.034	64.68
351.246	64.68
351.458	91.31
351.669	93.35
351.881	38.06
352.093	23.72
352.305	5.29
352.517	66.73
352.728	70.83
352.94	23.72
353.152	50.35
353.363	-60.24
353.575	89.26
353.787	1.19
353.999	23.72
354.21	66.73
354.422	23.72
354.633	109.74
354.845	50.35
355.057	64.68
355.268	48.3
355.48	40.11
355.692	9.39
355.903	48.3
356.115	40.11
356.326	52.39
356.538	81.07
356.749	25.77
356.961	72.87
357.172	97.45
357.384	-15.19
357.595	179.37
357.807	42.15
358.018	-15.19
358.23	44.2
358.441	44.2
358.653	15.53
358.864	113.83
359.075	3.24
359.287	52.39
359.498	64.68
359.709	40.11
359.921	-0.85
360.132	62.63
360.344	81.07
360.555	36.01
360.766	-0.85
360.977	-31.57
361.189	17.58
361.4	-15.19
361.611	25.77
361.823	81.07
362.034	19.63
362.245	93.35
362.456	122.02
362.667	95.4
362.879	1.19
363.09	15.53
363.301	85.16
363.512	15.53
363.723	25.77
363.935	19.63
364.146	140.46
364.357	7.34
364.568	89.26
364.779	-13.14
364.99	5.29
365.201	25.77
365.412	154.79
365.623	9.39
365.834	-9.05
366.045	23.72
366.256	87.21
366.467	119.98
366.678	42.15
366.889	31.91
367.1	40.11
367.311	81.07
367.522	-15.19
367.733	68.78
367.944	33.96
368.155	15.53
368.366	64.68
368.577	46.25
368.788	68.78
368.999	-72.53
369.209	68.78
369.42	99.5
369.631	150.7
369.842	50.35
370.053	56.49
370.264	7.34
370.474	15.53
370.685	7.34
370.896	89.26
371.107	7.34
371.317	81.07
371.528	-9.05
371.739	-0.85
371.95	48.3
372.16	50.35
372.371	-99.16
372.582	-4.95
372.792	89.26
373.003	66.73
373.214	7.34
373.424	48.3
373.635	89.26
373.846	56.49
374.056	95.4
374.267	68.78
374.477	-2.9
374.688	58.54
374.898	64.68
375.109	81.07
375.319	17.58
375.53	50.35
375.74	46.25
375.951	-9.05
376.161	66.73
376.372	167.08
376.582	-29.52
376.793	27.82
377.003	64.68
377.214	83.11
377.424	1.19
377.635	142.5
377.845	-9.05
378.055	3.24
378.266	23.72
378.476	109.74
378.686	-13.14
378.897	19.63
379.107	1.19
379.317	31.91
379.528	54.44
379.738	36.01
379.948	48.3
380.158	48.3
380.369	27.82
380.579	42.15
380.789	44.2
380.999	36.01
381.21	42.15
381.42	175.27
381.63	7.34
381.84	-0.85
382.05	74.92
382.261	105.64
382.471	52.39
382.681	-15.19
382.891	122.02
383.101	109.74
383.311	42.15
383.521	130.22
383.731	68.78
383.941	72.87
384.151	9.39
384.361	11.43
384.571	93.35
384.781	60.59
384.991	115.88
385.201	74.92
385.411	27.82
385.621	62.63
385.831	64.68
386.041	101.55
386.251	-62.29
386.461	9.39
386.671	50.35
386.881	42.15
387.091	42.15
387.301	124.07
387.511	76.97
387.72	40.11
387.93	-25.43
388.14	17.58
388.35	52.39
388.56	38.06
388.769	97.45
388.979	56.49
389.189	72.87
389.399	58.54
389.609	89.26
389.818	140.46
390.028	81.07
390.238	56.49
390.447	74.92
390.657	113.83
390.867	83.11
391.076	31.91
391.286	60.59
391.496	48.3
391.705	70.83
391.915	27.82
392.125	138.41
392.334	83.11
392.544	103.59
392.753	64.68
392.963	101.55
393.172	31.91
393.382	-0.85
393.591	109.74
393.801	74.92
394.01	113.83
394.22	36.01
394.429	38.06
394.639	15.53
394.848	85.16
395.058	103.59
395.267	54.44
395.477	99.5
395.686	72.87
395.895	191.66
396.105	48.3
396.314	60.59
396.524	50.35
396.733	11.43
396.942	107.69
397.152	72.87
397.361	117.93
397.57	105.64
397.78	122.02
397.989	115.88
398.198	179.37
398.407	146.6
398.617	122.02
398.826	42.15
399.035	-0.85
399.244	95.4
399.453	56.49
399.663	113.83
399.872	60.59
400.081	36.01
400.29	56.49
400.499	56.49
400.708	83.11
400.917	105.64
401.127	99.5
401.336	31.91
401.545	122.02
401.754	105.64
401.963	156.84
402.172	-4.95
402.381	138.41
402.59	199.85
402.799	126.12
403.008	158.89
403.217	146.6
403.426	64.68
403.635	165.03
403.844	72.87
404.053	101.55
404.262	119.98
404.471	175.27
404.68	212.14
404.888	56.49
405.097	64.68
405.306	167.08
405.515	199.85
405.724	160.94
405.933	154.79
406.142	208.04
406.35	130.22
406.559	138.41
406.768	144.55
406.977	265.38
407.185	220.33
407.394	261.29
407.603	126.12
407.812	179.37
408.02	208.04
408.229	148.65
408.438	154.79
408.646	154.79
408.855	273.57
409.064	236.71
409.272	224.42
409.481	271.53
409.69	249
409.898	255.14
410.107	255.14
410.315	287.91
410.524	267.43
410.733	359.59
410.941	246.95
411.15	310.44
411.358	312.49
411.567	361.64
411.775	332.97
411.984	371.88
412.192	369.83
412.401	335.01
412.609	445.6
412.818	433.32
413.026	427.17
413.234	459.94
413.443	490.66
413.651	550.05
413.86	502.95
414.068	558.24
414.276	519.33
414.485	509.09
414.693	535.71
414.901	556.19
415.11	623.78
415.318	564.39
415.526	578.72
415.734	658.59
415.943	638.11
416.151	670.88
416.359	695.46
416.567	787.61
416.776	672.93
416.984	826.53
417.192	875.68
417.4	812.19
417.608	767.13
417.817	855.2
418.025	830.62
418.233	941.21
418.441	908.44
418.649	883.87
418.857	1088.67
419.065	1031.32
419.273	1012.89
419.481	1076.38
419.689	1203.35
419.897	1234.07
420.105	1260.7
420.313	1281.18
420.521	1399.96
420.729	1436.82
420.937	1354.9
421.145	1426.58
421.353	1520.79
421.561	1623.19
421.769	1604.75
421.977	1703.06
422.185	1619.09
422.393	1703.06
422.601	1825.93
422.809	1752.21
423.017	1762.45
423.224	1969.29
423.432	2145.42
423.64	1977.48
423.848	2192.52
424.056	2180.23
424.263	2346.12
424.471	2325.64
424.679	2243.72
424.887	2477.19
425.094	2489.48
425.302	2382.98
425.51	2628.74
425.718	2735.23
425.925	2786.43
426.133	2833.54
426.341	3036.28
426.548	3136.63
426.756	3093.63
426.964	3202.17
427.171	3361.91
427.379	3409.01
427.586	3415.16
427.794	3603.57
428.001	3660.91
428.209	3871.86
428.417	3853.42
428.624	4181.1
428.832	4084.84
429.039	4082.8
429.247	4254.83
429.454	4490.34
429.662	4711.52
429.869	4555.88
430.076	4787.3
430.284	4529.25
430.491	4906.08
430.699	5110.88
430.906	5274.71
431.114	5219.42
431.321	5481.56
431.528	5577.81
431.736	5776.47
431.943	6104.14
432.15	6095.95
432.358	5966.93
432.565	6270.03
432.772	6380.62
432.979	6552.65
433.187	6818.88
433.394	6775.88
433.601	7181.37
433.808	7281.72
434.016	7193.66
434.223	7580.73
434.43	8100.91
434.637	7869.49
434.844	8412.2
435.052	8592.42
435.259	8457.26
435.466	8518.7
435.673	8291.37
435.88	9010.21
436.087	9188.38
436.294	9282.59
436.501	9206.81
436.708	9163.81
436.915	9794.58
437.122	9999.38
437.329	10091.54
437.537	10124.3
437.743	10552.33
437.95	10537.99
438.157	11111.43
438.364	11293.69
438.571	11219.97
438.778	11445.24
438.985	12581.87
439.192	11936.76
439.399	12313.58
439.606	11893.75
439.813	12739.56
440.02	13544.41
440.227	12966.88
440.433	13007.84
440.64	13351.9
440.847	13540.32
441.054	13548.51
441.261	14459.85
441.467	14207.95
441.674	14652.36
441.881	15360.96
442.088	15121.35
442.294	15264.71
442.501	15537.09
442.708	15811.51
442.914	16343.99
443.121	17173.41
443.328	16503.73
443.534	17779.61
443.741	17304.48
443.948	17015.72
444.154	18420.63
444.361	18267.03
444.568	18600.85
444.774	18113.43
444.981	18504.59
445.187	19063.69
445.394	19911.55
445.6	19843.96
445.807	21449.57
446.013	20456.31
446.22	20994.92
446.426	21652.32
446.633	21932.89
446.839	22829.9
447.046	21750.62
447.252	22952.78
447.459	22973.26
447.665	22856.53
447.871	23579.46
448.078	25041.71
448.284	23669.57
448.491	24533.81
448.697	25297.7
448.903	25563.94
449.11	25838.37
449.316	25338.66
449.522	25899.81
449.728	26659.6
449.935	26741.52
450.141	26981.13
450.347	27409.16
450.553	26221.34
450.76	26630.93
450.966	27515.65
451.172	27310.86
451.378	28343.03
451.584	27435.78
451.791	28093.18
451.997	27845.38
452.203	28429.05
452.409	28427
452.615	28408.57
452.821	27532.04
453.027	27298.57
453.233	28377.85
453.44	27437.83
453.646	27273.99
453.852	27603.72
454.058	28041.98
454.264	27284.23
454.47	28025.6
454.676	26737.43
454.882	28252.92
455.088	25740.07
455.294	26280.73
455.5	26534.68
455.705	26395.42
455.911	25559.84
456.117	24970.03
456.323	25029.42
456.529	23225.16
456.735	24505.14
456.941	23638.85
457.147	23264.07
457.352	22426.45
457.558	22590.29
457.764	22637.39
457.97	22029.15
458.176	21551.97
458.381	21508.96
458.587	20632.43
458.793	20306.8
458.999	19422.08
459.204	20849.52
459.41	20454.26
459.616	18940.81
459.821	18760.59
460.027	18826.12
460.233	18242.45
460.438	17689.5
460.644	17796
460.85	16749.48
461.055	16403.38
461.261	16599.98
461.466	15502.27
461.672	14715.85
461.878	15717.31
462.083	14711.75
462.289	14629.84
462.494	14486.48
462.7	13915.09
462.905	13630.43
463.111	13720.54
463.316	14134.23
463.522	13603.8
463.727	13509.6
463.932	13583.32
464.138	13679.58
464.343	13597.66
464.549	13179.87
464.754	13370.33
464.959	13644.76
465.165	13224.93
465.37	12782.57
465.575	12450.8
465.781	12731.37
465.986	13007.84
466.191	12493.8
466.397	12180.46
466.602	11699.19
466.807	12215.28
467.012	12147.7
467.218	11992.05
467.423	11832.31
467.628	11953.14
467.833	12205.04
468.038	11975.67
468.244	11824.12
