Data from USB4F104151__294__14-34-53-823.txt Node

Date: Thu Mar 13 14:34:53 EDT 2025
User: louis
Spectrometer: USB4F10415
Trigger mode: 4
Integration Time (sec): 2.500000E-2
Scans to average: 1
Electric dark correction enabled: true
Nonlinearity correction enabled: false
Boxcar width: 0
XAxis mode: Wavelengths
Number of Pixels in Spectrum: 3648
>>>>>Begin Spectral Data<<<<<
178.204	-140.8
178.424	-140.8
178.644	-140.8
178.864	-132.61
179.084	-173.57
179.304	0.51
179.524	-1.54
179.744	-75.26
179.964	0.51
180.184	4.61
180.404	-3.58
180.624	27.14
180.844	6.66
181.064	-22.02
181.283	-13.82
181.503	31.23
181.723	45.57
181.943	-38.4
182.163	150.01
182.383	27.14
182.602	59.9
182.822	-1.54
183.042	64
183.262	-44.54
183.482	18.94
183.701	35.33
183.921	31.23
184.141	27.14
184.361	84.48
184.58	6.66
184.8	14.85
185.02	-40.45
185.239	29.18
185.459	23.04
185.679	76.29
185.898	20.99
186.118	76.29
186.338	-5.63
186.557	27.14
186.777	-11.78
186.997	-9.73
187.216	-11.78
187.436	72.19
187.655	92.67
187.875	68.09
188.095	37.38
188.314	119.29
188.534	78.33
188.753	43.52
188.973	113.15
189.192	59.9
189.412	92.67
189.631	-1.54
189.851	80.38
190.07	92.67
190.29	18.94
190.509	33.28
190.729	80.38
190.948	53.76
191.168	174.59
191.387	156.16
191.607	45.57
191.826	47.62
192.045	-58.88
192.265	-13.82
192.484	47.62
192.704	47.62
192.923	-5.63
193.142	66.05
193.362	94.72
193.581	104.96
193.8	80.38
194.02	43.52
194.239	-50.69
194.458	76.29
194.678	2.56
194.897	18.94
195.116	-3.58
195.335	6.66
195.555	117.25
195.774	35.33
195.993	111.1
196.212	23.04
196.432	-1.54
196.651	18.94
196.87	82.43
197.089	117.25
197.308	-28.16
197.528	2.56
197.747	-75.26
197.966	53.76
198.185	133.63
198.404	27.14
198.623	37.38
198.842	68.09
199.062	64
199.281	2.56
199.5	-5.63
199.719	-1.54
199.938	78.33
200.157	90.62
200.376	68.09
200.595	-1.54
200.814	45.57
201.033	-19.97
201.252	70.14
201.471	-1.54
201.69	78.33
201.909	-52.74
202.128	70.14
202.347	25.09
202.566	51.71
202.785	92.67
203.004	-44.54
203.223	76.29
203.442	84.48
203.661	-5.63
203.879	-5.63
204.098	147.97
204.317	72.19
204.536	47.62
204.755	109.05
204.974	23.04
205.193	78.33
205.411	61.95
205.63	59.9
205.849	2.56
206.068	10.75
206.287	31.23
206.505	76.29
206.724	55.81
206.943	0.51
207.162	55.81
207.381	33.28
207.599	-9.73
207.818	86.53
208.037	20.99
208.255	29.18
208.474	76.29
208.693	102.91
208.911	31.23
209.13	55.81
209.349	82.43
209.567	4.61
209.786	55.81
210.005	94.72
210.223	2.56
210.442	-26.11
210.661	111.1
210.879	39.42
211.098	43.52
211.316	113.15
211.535	57.86
211.753	82.43
211.972	43.52
212.191	55.81
212.409	90.62
212.628	109.05
212.846	10.75
213.065	43.52
213.283	76.29
213.502	88.57
213.72	68.09
213.938	23.04
214.157	53.76
214.375	-3.58
214.594	-46.59
214.812	125.44
215.031	4.61
215.249	55.81
215.467	86.53
215.686	31.23
215.904	51.71
216.122	2.56
216.341	90.62
216.559	51.71
216.778	84.48
216.996	53.76
217.214	-19.97
217.432	109.05
217.651	-36.35
217.869	0.51
218.087	27.14
218.306	47.62
218.524	68.09
218.742	6.66
218.96	92.67
219.179	31.23
219.397	23.04
219.615	150.01
219.833	66.05
220.051	88.57
220.27	10.75
220.488	35.33
220.706	76.29
220.924	92.67
221.142	-3.58
221.36	18.94
221.578	6.66
221.796	51.71
222.015	57.86
222.233	2.56
222.451	182.78
222.669	88.57
222.887	109.05
223.105	37.38
223.323	68.09
223.541	51.71
223.759	55.81
223.977	10.75
224.195	102.91
224.413	53.76
224.631	61.95
224.849	20.99
225.067	37.38
225.285	-9.73
225.503	84.48
225.721	-42.5
225.939	-22.02
226.157	-19.97
226.375	141.82
226.592	-60.93
226.81	12.8
227.028	76.29
227.246	96.77
227.464	59.9
227.682	35.33
227.9	51.71
228.117	55.81
228.335	-19.97
228.553	70.14
228.771	129.53
228.989	35.33
229.206	4.61
229.424	41.47
229.642	-1.54
229.86	4.61
230.077	47.62
230.295	51.71
230.513	109.05
230.731	113.15
230.948	41.47
231.166	64
231.384	-9.73
231.601	80.38
231.819	113.15
232.037	-13.82
232.254	86.53
232.472	43.52
232.689	20.99
232.907	31.23
233.125	59.9
233.342	31.23
233.56	-34.3
233.777	20.99
233.995	51.71
234.213	92.67
234.43	35.33
234.648	43.52
234.865	35.33
235.083	59.9
235.3	27.14
235.518	-7.68
235.735	78.33
235.953	68.09
236.17	55.81
236.388	84.48
236.605	10.75
236.822	102.91
237.04	51.71
237.257	35.33
237.475	35.33
237.692	35.33
237.909	53.76
238.127	27.14
238.344	14.85
238.562	43.52
238.779	27.14
238.996	55.81
239.214	96.77
239.431	59.9
239.648	-17.92
239.865	61.95
240.083	84.48
240.3	27.14
240.517	47.62
240.735	10.75
240.952	47.62
241.169	41.47
241.386	59.9
241.603	12.8
241.821	-5.63
242.038	70.14
242.255	37.38
242.472	4.61
242.689	27.14
242.907	27.14
243.124	59.9
243.341	84.48
243.558	-26.11
243.775	18.94
243.992	53.76
244.209	55.81
244.426	64
244.643	59.9
244.86	-46.59
245.078	61.95
245.295	39.42
245.512	61.95
245.729	6.66
245.946	12.8
246.163	20.99
246.38	-22.02
246.597	100.86
246.814	68.09
247.031	35.33
247.248	51.71
247.464	35.33
247.681	78.33
247.898	10.75
248.115	-7.68
248.332	-42.5
248.549	61.95
248.766	76.29
248.983	88.57
249.2	31.23
249.417	72.19
249.633	23.04
249.85	39.42
250.067	43.52
250.284	109.05
250.501	35.33
250.717	10.75
250.934	51.71
251.151	27.14
251.368	84.48
251.585	37.38
251.801	-46.59
252.018	53.76
252.235	37.38
252.451	2.56
252.668	10.75
252.885	68.09
253.102	92.67
253.318	-7.68
253.535	25.09
253.752	16.9
253.968	-13.82
254.185	2.56
254.401	64
254.618	39.42
254.835	-19.97
255.051	104.96
255.268	59.9
255.484	10.75
255.701	18.94
255.917	43.52
256.134	-13.82
256.351	76.29
256.567	-5.63
256.784	100.86
257	51.71
257.217	70.14
257.433	53.76
257.65	86.53
257.866	47.62
258.082	27.14
258.299	-46.59
258.515	27.14
258.732	64
258.948	29.18
259.165	98.81
259.381	-13.82
259.597	70.14
259.814	4.61
260.03	49.66
260.246	84.48
260.463	29.18
260.679	94.72
260.895	29.18
261.112	35.33
261.328	39.42
261.544	2.56
261.761	12.8
261.977	78.33
262.193	-54.78
262.409	43.52
262.626	70.14
262.842	64
263.058	12.8
263.274	117.25
263.49	-17.92
263.707	61.95
263.923	43.52
264.139	-46.59
264.355	-13.82
264.571	53.76
264.787	35.33
265.004	53.76
265.22	100.86
265.436	4.61
265.652	80.38
265.868	2.56
266.084	-1.54
266.3	27.14
266.516	-13.82
266.732	18.94
266.948	43.52
267.164	49.66
267.38	23.04
267.596	43.52
267.812	64
268.028	125.44
268.244	-38.4
268.46	41.47
268.676	61.95
268.892	41.47
269.108	80.38
269.324	-19.97
269.54	10.75
269.756	100.86
269.972	-40.45
270.188	104.96
270.403	-60.93
270.619	102.91
270.835	53.76
271.051	84.48
271.267	-38.4
271.483	14.85
271.698	61.95
271.914	72.19
272.13	31.23
272.346	-9.73
272.562	51.71
272.777	31.23
272.993	45.57
273.209	-3.58
273.425	10.75
273.64	-22.02
273.856	76.29
274.072	61.95
274.287	150.01
274.503	2.56
274.719	100.86
274.934	-22.02
275.15	-22.02
275.366	12.8
275.581	-85.5
275.797	59.9
276.012	72.19
276.228	10.75
276.444	31.23
276.659	23.04
276.875	10.75
277.09	78.33
277.306	6.66
277.521	145.92
277.737	70.14
277.952	31.23
278.168	51.71
278.383	39.42
278.599	80.38
278.814	12.8
279.03	-1.54
279.245	84.48
279.461	68.09
279.676	143.87
279.892	55.81
280.107	66.05
280.322	-79.36
280.538	-13.82
280.753	10.75
280.969	-5.63
281.184	27.14
281.399	70.14
281.615	70.14
281.83	59.9
282.045	27.14
282.26	4.61
282.476	-1.54
282.691	98.81
282.906	96.77
283.122	-28.16
283.337	-3.58
283.552	78.33
283.767	2.56
283.983	98.81
284.198	92.67
284.413	43.52
284.628	6.66
284.843	66.05
285.058	8.7
285.274	-5.63
285.489	43.52
285.704	27.14
285.919	45.57
286.134	31.23
286.349	39.42
286.564	53.76
286.779	127.49
286.995	45.57
287.21	10.75
287.425	59.9
287.64	129.53
287.855	74.24
288.07	-5.63
288.285	49.66
288.5	98.81
288.715	76.29
288.93	43.52
289.145	-44.54
289.36	117.25
289.575	-17.92
289.79	72.19
290.004	51.71
290.219	27.14
290.434	-38.4
290.649	51.71
290.864	-19.97
291.079	10.75
291.294	-13.82
291.509	78.33
291.724	-62.98
291.938	-77.31
292.153	92.67
292.368	14.85
292.583	43.52
292.798	27.14
293.012	72.19
293.227	-15.87
293.442	-19.97
293.657	51.71
293.871	39.42
294.086	70.14
294.301	72.19
294.516	86.53
294.73	43.52
294.945	6.66
295.16	10.75
295.374	33.28
295.589	111.1
295.804	45.57
296.018	-9.73
296.233	72.19
296.447	96.77
296.662	45.57
296.877	94.72
297.091	45.57
297.306	133.63
297.52	29.18
297.735	4.61
297.949	127.49
298.164	94.72
298.378	43.52
298.593	-1.54
298.807	23.04
299.022	41.47
299.236	86.53
299.451	-22.02
299.665	51.71
299.88	68.09
300.094	64
300.309	6.66
300.523	18.94
300.737	51.71
300.952	55.81
301.166	64
301.381	6.66
301.595	64
301.809	59.9
302.024	18.94
302.238	76.29
302.452	88.57
302.667	51.71
302.881	152.06
303.095	35.33
303.309	29.18
303.524	-13.82
303.738	27.14
303.952	-30.21
304.166	100.86
304.381	-26.11
304.595	68.09
304.809	47.62
305.023	92.67
305.237	-19.97
305.452	2.56
305.666	84.48
305.88	61.95
306.094	84.48
306.308	111.1
306.522	43.52
306.736	86.53
306.95	45.57
307.164	10.75
307.379	6.66
307.593	170.49
307.807	72.19
308.021	94.72
308.235	35.33
308.449	-26.11
308.663	47.62
308.877	133.63
309.091	-67.07
309.305	78.33
309.519	10.75
309.733	37.38
309.947	-77.31
310.161	117.25
310.374	49.66
310.588	166.4
310.802	0.51
311.016	-79.36
311.23	33.28
311.444	-3.58
311.658	-19.97
311.872	92.67
312.085	68.09
312.299	2.56
312.513	45.57
312.727	-28.16
312.941	-30.21
313.154	43.52
313.368	25.09
313.582	51.71
313.796	43.52
314.009	14.85
314.223	129.53
314.437	59.9
314.651	18.94
314.864	4.61
315.078	-19.97
315.292	70.14
315.505	2.56
315.719	72.19
315.933	27.14
316.146	51.71
316.36	59.9
316.573	51.71
316.787	6.66
317.001	78.33
317.214	14.85
317.428	2.56
317.641	-1.54
317.855	-13.82
318.068	35.33
318.282	53.76
318.495	109.05
318.709	135.68
318.922	-17.92
319.136	152.06
319.349	25.09
319.563	59.9
319.776	72.19
319.99	-9.73
320.203	66.05
320.417	-17.92
320.63	-5.63
320.843	100.86
321.057	43.52
321.27	92.67
321.483	92.67
321.697	37.38
321.91	70.14
322.124	51.71
322.337	68.09
322.55	96.77
322.763	-22.02
322.977	4.61
323.19	31.23
323.403	-3.58
323.617	84.48
323.83	72.19
324.043	29.18
324.256	55.81
324.469	27.14
324.683	78.33
324.896	49.66
325.109	53.76
325.322	-13.82
325.535	27.14
325.748	-5.63
325.962	51.71
326.175	10.75
326.388	37.38
326.601	43.52
326.814	137.73
327.027	18.94
327.24	152.06
327.453	0.51
327.666	123.39
327.879	35.33
328.092	76.29
328.305	80.38
328.518	41.47
328.731	-9.73
328.944	-50.69
329.157	20.99
329.37	8.7
329.583	66.05
329.796	152.06
330.009	37.38
330.222	78.33
330.435	55.81
330.648	33.28
330.861	29.18
331.073	35.33
331.286	109.05
331.499	-5.63
331.712	53.76
331.925	-1.54
332.138	76.29
332.35	72.19
332.563	72.19
332.776	64
332.989	66.05
333.202	20.99
333.414	119.29
333.627	35.33
333.84	20.99
334.053	12.8
334.265	35.33
334.478	-11.78
334.691	96.77
334.903	12.8
335.116	-11.78
335.329	109.05
335.541	27.14
335.754	84.48
335.966	55.81
336.179	-46.59
336.392	-69.12
336.604	76.29
336.817	111.1
337.029	80.38
337.242	23.04
337.454	37.38
337.667	-1.54
337.88	133.63
338.092	25.09
338.305	78.33
338.517	27.14
338.729	43.52
338.942	90.62
339.154	-22.02
339.367	23.04
339.579	86.53
339.792	14.85
340.004	16.9
340.217	-17.92
340.429	102.91
340.641	12.8
340.854	43.52
341.066	20.99
341.278	61.95
341.491	74.24
341.703	29.18
341.915	-26.11
342.128	20.99
342.34	18.94
342.552	76.29
342.764	27.14
342.977	14.85
343.189	76.29
343.401	27.14
343.613	10.75
343.826	-13.82
344.038	80.38
344.25	-7.68
344.462	8.7
344.674	92.67
344.886	68.09
345.099	57.86
345.311	109.05
345.523	35.33
345.735	27.14
345.947	51.71
346.159	29.18
346.371	43.52
346.583	-3.58
346.795	188.93
347.007	23.04
347.219	102.91
347.431	61.95
347.643	68.09
347.855	-9.73
348.067	45.57
348.279	74.24
348.491	-3.58
348.703	8.7
348.915	43.52
349.127	29.18
349.339	72.19
349.551	39.42
349.763	76.29
349.975	80.38
350.187	121.34
350.399	61.95
350.61	-3.58
350.822	-30.21
351.034	68.09
351.246	-9.73
351.458	100.86
351.669	86.53
351.881	29.18
352.093	125.44
352.305	84.48
352.517	100.86
352.728	96.77
352.94	29.18
353.152	10.75
353.363	57.86
353.575	23.04
353.787	150.01
353.999	51.71
354.21	172.54
354.422	51.71
354.633	47.62
354.845	76.29
355.057	64
355.268	121.34
355.48	84.48
355.692	61.95
355.903	61.95
356.115	4.61
356.326	-30.21
356.538	125.44
356.749	64
356.961	27.14
357.172	14.85
357.384	76.29
357.595	78.33
357.807	4.61
358.018	-56.83
358.23	10.75
358.441	59.9
358.653	31.23
358.864	43.52
359.075	20.99
359.287	29.18
359.498	96.77
359.709	127.49
359.921	10.75
360.132	88.57
360.344	92.67
360.555	18.94
360.766	27.14
360.977	31.23
361.189	43.52
361.4	18.94
361.611	92.67
361.823	117.25
362.034	100.86
362.245	31.23
362.456	55.81
362.667	127.49
362.879	53.76
363.09	23.04
363.301	96.77
363.512	98.81
363.723	4.61
363.935	158.21
364.146	84.48
364.357	78.33
364.568	45.57
364.779	-26.11
364.99	133.63
365.201	74.24
365.412	55.81
365.623	16.9
365.834	100.86
366.045	43.52
366.256	55.81
366.467	10.75
366.678	80.38
366.889	96.77
367.1	55.81
367.311	154.11
367.522	43.52
367.733	92.67
367.944	94.72
368.155	-22.02
368.366	111.1
368.577	76.29
368.788	92.67
368.999	-3.58
369.209	100.86
369.42	94.72
369.631	139.77
369.842	41.47
370.053	-19.97
370.264	152.06
370.474	29.18
370.685	117.25
370.896	76.29
371.107	92.67
371.317	78.33
371.528	-22.02
371.739	98.81
371.95	129.53
372.16	72.19
372.371	43.52
372.582	68.09
372.792	43.52
373.003	92.67
373.214	92.67
373.424	88.57
373.635	-5.63
373.846	100.86
374.056	57.86
374.267	78.33
374.477	27.14
374.688	12.8
374.898	49.66
375.109	55.81
375.319	35.33
375.53	158.21
375.74	0.51
375.951	61.95
376.161	123.39
376.372	70.14
376.582	39.42
376.793	119.29
377.003	76.29
377.214	107.01
377.424	59.9
377.635	121.34
377.845	18.94
378.055	141.82
378.266	43.52
378.476	133.63
378.686	92.67
378.897	70.14
379.107	39.42
379.317	70.14
379.528	64
379.738	76.29
379.948	27.14
380.158	170.49
380.369	51.71
380.579	84.48
380.789	57.86
380.999	35.33
381.21	43.52
381.42	170.49
381.63	127.49
381.84	23.04
382.05	84.48
382.261	-19.97
382.471	133.63
382.681	78.33
382.891	117.25
383.101	-3.58
383.311	76.29
383.521	-1.54
383.731	129.53
383.941	23.04
384.151	-5.63
384.361	4.61
384.571	104.96
384.781	78.33
384.991	182.78
385.201	176.64
385.411	68.09
385.621	78.33
385.831	78.33
386.041	51.71
386.251	6.66
386.461	55.81
386.671	45.57
386.881	125.44
387.091	55.81
387.301	80.38
387.511	90.62
387.72	145.92
387.93	127.49
388.14	-79.36
388.35	29.18
388.56	94.72
388.769	68.09
388.979	80.38
389.189	18.94
389.399	143.87
389.609	80.38
389.818	35.33
390.028	66.05
390.238	59.9
390.447	59.9
390.657	78.33
390.867	72.19
391.076	74.24
391.286	84.48
391.496	51.71
391.705	82.43
391.915	133.63
392.125	90.62
392.334	47.62
392.544	119.29
392.753	43.52
392.963	80.38
393.172	137.73
393.382	74.24
393.591	107.01
393.801	51.71
394.01	150.01
394.22	154.11
394.429	113.15
394.639	31.23
394.848	162.3
395.058	59.9
395.267	76.29
395.477	119.29
395.686	111.1
395.895	145.92
396.105	199.16
396.314	68.09
396.524	137.73
396.733	133.63
396.942	121.34
397.152	100.86
397.361	150.01
397.57	137.73
397.78	125.44
397.989	154.11
398.198	170.49
398.407	125.44
398.617	156.16
398.826	135.68
399.035	145.92
399.244	162.3
399.453	143.87
399.663	111.1
399.872	160.25
400.081	88.57
400.29	154.11
400.499	152.06
400.708	182.78
400.917	150.01
401.127	55.81
401.336	162.3
401.545	113.15
401.754	207.36
401.963	133.63
402.172	82.43
402.381	111.1
402.59	133.63
402.799	176.64
403.008	168.45
403.217	168.45
403.426	184.83
403.635	113.15
403.844	145.92
404.053	215.55
404.262	137.73
404.471	256.51
404.68	231.93
404.888	109.05
405.097	215.55
405.306	207.36
405.515	190.97
405.724	158.21
405.933	174.59
406.142	223.74
406.35	186.88
406.559	227.84
406.768	215.55
406.977	256.51
407.185	258.56
407.394	252.41
407.603	229.88
407.812	266.75
408.02	289.28
408.229	297.47
408.438	315.9
408.646	287.23
408.855	285.18
409.064	371.19
409.272	303.61
409.481	397.82
409.69	354.81
409.898	340.47
410.107	363
410.315	274.94
410.524	416.25
410.733	373.24
410.941	403.96
411.15	481.78
411.358	444.92
411.567	526.84
411.775	438.78
411.984	504.31
412.192	592.37
412.401	494.07
412.609	608.76
412.818	690.68
413.026	543.22
413.234	616.95
413.443	702.97
413.651	694.77
413.86	711.16
414.068	750.07
414.276	799.22
414.485	750.07
414.693	829.94
414.901	961.01
415.11	952.82
415.318	817.65
415.526	977.39
415.734	963.06
415.943	981.49
416.151	1075.7
416.359	1012.21
416.567	1042.93
416.776	1102.32
416.984	1184.24
417.192	1247.72
417.4	1221.1
417.608	1257.96
417.817	1241.58
418.025	1382.89
418.233	1411.56
418.441	1358.32
418.649	1530.34
418.857	1546.73
419.065	1665.51
419.273	1657.32
419.481	1759.72
419.689	1808.87
419.897	1864.16
420.105	1896.93
420.313	1952.23
420.521	2161.12
420.729	2116.06
420.937	2173.41
421.145	2150.88
421.353	2451.93
421.561	2402.78
421.769	2425.31
421.977	2515.42
422.185	2533.85
422.393	2664.92
422.601	2869.72
422.809	2847.19
423.017	2980.31
423.224	3054.03
423.432	3158.48
423.64	3131.86
423.848	3361.23
424.056	3326.41
424.263	3547.59
424.471	3516.87
424.679	3598.79
424.887	3787.21
425.094	3951.04
425.302	3891.65
425.51	4118.98
425.718	4282.81
425.925	4309.44
426.133	4352.45
426.341	4669.88
426.548	4813.24
426.756	4848.05
426.964	4960.69
427.171	5257.65
427.379	5413.29
427.586	5401.01
427.794	5573.03
428.001	5880.23
428.209	6136.23
428.417	6072.74
428.624	6357.41
428.832	6285.73
429.039	6353.31
429.247	6418.85
429.454	6969.75
429.662	7537.04
429.869	7023
430.076	7514.51
430.284	7252.37
430.491	7459.21
430.699	7862.66
430.906	8143.24
431.114	8153.48
431.321	8538.49
431.528	8546.69
431.736	9062.77
431.943	9431.41
432.15	9195.89
432.358	9337.2
432.565	9853.29
432.772	9744.75
432.979	10244.45
433.187	10326.37
433.394	10498.4
433.601	11315.54
433.808	11223.38
434.016	11159.89
434.223	11622.73
434.43	12233.03
434.637	11934.03
434.844	12806.46
435.052	12933.43
435.259	13109.56
435.466	13177.14
435.673	13029.69
435.88	13916.46
436.087	14604.58
436.294	14635.3
436.501	14276.9
436.708	14493.99
436.915	14946.59
437.122	15583.51
437.329	15841.55
437.537	16132.36
437.743	16128.27
437.95	16173.32
438.157	17115.39
438.364	17815.79
438.571	17680.63
438.778	17762.54
438.985	19112.16
439.192	18288.87
439.399	19194.08
439.606	18643.17
439.813	19933.39
440.02	20834.5
440.227	20576.45
440.433	19927.25
440.64	21102.78
440.847	20777.15
441.054	21227.71
441.261	22870.18
441.467	22479.02
441.674	22816.93
441.881	23990.42
442.088	23595.16
442.294	23490.71
442.501	24101.01
442.708	24672.39
442.914	25344.13
443.121	26902.63
443.328	25927.8
443.534	27521.12
443.741	26665.07
443.948	26251.38
444.154	28401.74
444.361	28532.81
444.568	28405.84
444.774	28663.88
444.981	28817.48
445.187	29788.22
445.394	30924.84
445.6	30201.91
445.807	33429.51
446.013	32036.89
446.22	32493.58
446.426	33732.61
446.633	33851.39
446.839	35065.83
447.046	33636.35
447.252	35528.67
447.459	35719.13
447.665	35473.38
447.871	36589.52
448.078	38727.6
448.284	36964.3
448.491	37609.41
448.697	38983.6
448.903	39843.74
449.11	39839.65
449.316	39389.09
449.522	40187.8
449.728	41131.92
449.935	41674.63
450.141	41430.92
450.347	42354.55
450.553	40767.38
450.76	41469.83
450.966	42741.62
451.172	42465.14
451.378	43212.65
451.584	42907.51
451.791	43509.61
451.997	43300.72
452.203	44476.25
452.409	43681.64
452.615	43951.97
452.821	42393.47
453.027	42080.13
453.233	44054.37
453.44	42229.63
453.646	42805.11
453.852	42905.46
454.058	44177.25
454.264	42362.75
454.47	43251.56
454.676	42110.85
454.882	43628.39
455.088	40042.4
455.294	40574.87
455.5	40951.7
455.705	41426.82
455.911	40095.64
456.117	39260.07
456.323	38803.38
456.529	36542.42
456.735	38115.26
456.941	37408.71
457.147	36665.3
457.352	35477.47
457.558	35332.07
457.764	35272.68
457.97	34689.01
458.176	33662.97
458.381	34131.96
458.587	32653.33
458.793	31952.92
458.999	30750.76
459.204	32454.67
459.41	31746.08
459.616	29679.68
459.821	29503.55
460.027	29710.39
460.233	28864.58
460.438	27695.19
460.644	27816.02
460.85	26828.9
461.055	26095.73
461.261	26083.44
461.466	23939.22
461.672	23275.68
461.878	25092.23
462.083	23500.95
462.289	22732.97
462.494	22741.16
462.7	21754.04
462.905	21262.52
463.111	21604.53
463.316	22044.85
463.522	21465.27
463.727	21352.63
463.932	21420.22
464.138	20959.42
464.343	21012.67
464.549	20277.45
464.754	21133.5
464.959	21084.35
465.165	20822.21
465.37	19826.9
465.575	19292.38
465.781	19978.45
465.986	20238.54
466.191	19241.18
466.397	19130.59
466.602	17946.86
