Data from USB4F104151__248__14-34-13-534.txt Node

Date: Thu Mar 13 14:34:13 EDT 2025
User: louis
Spectrometer: USB4F10415
Trigger mode: 4
Integration Time (sec): 2.500000E-2
Scans to average: 1
Electric dark correction enabled: true
Nonlinearity correction enabled: false
Boxcar width: 0
XAxis mode: Wavelengths
Number of Pixels in Spectrum: 3648
>>>>>Begin Spectral Data<<<<<
178.204	-221.35
178.424	-221.35
178.644	-221.35
178.864	-110.76
179.084	-147.62
179.304	28.5
179.524	-32.94
179.744	1.88
179.964	32.6
180.184	34.64
180.404	-34.99
180.624	18.26
180.844	8.02
181.064	-0.17
181.283	-32.94
181.503	-32.94
181.723	10.07
181.943	-53.42
182.163	81.75
182.383	-47.27
182.602	8.02
182.822	36.69
183.042	40.79
183.262	24.4
183.482	8.02
183.701	44.88
183.921	10.07
184.141	36.69
184.361	46.93
184.58	10.07
184.8	-8.36
185.02	-18.6
185.239	83.8
185.459	-18.6
185.679	-22.7
185.898	-71.85
186.118	44.88
186.338	-32.94
186.557	116.56
186.777	42.84
186.997	48.98
187.216	1.88
187.436	46.93
187.655	26.45
187.875	61.27
188.095	26.45
188.314	102.23
188.534	73.56
188.753	-61.61
188.973	1.88
189.192	61.27
189.412	-0.17
189.631	3.93
189.851	-0.17
190.07	44.88
190.29	40.79
190.509	48.98
190.729	-98.47
190.948	34.64
191.168	225.11
191.387	89.94
191.607	89.94
191.826	-53.42
192.045	16.21
192.265	10.07
192.484	-14.51
192.704	-32.94
192.923	-0.17
193.142	106.32
193.362	8.02
193.581	100.18
193.8	81.75
194.02	87.89
194.239	-24.75
194.458	34.64
194.678	16.21
194.897	44.88
195.116	12.12
195.335	65.36
195.555	40.79
195.774	-22.7
195.993	75.6
196.212	69.46
196.432	42.84
196.651	16.21
196.87	-20.65
197.089	89.94
197.308	-34.99
197.528	65.36
197.747	20.31
197.966	-20.65
198.185	8.02
198.404	16.21
198.623	110.42
198.842	28.5
199.062	57.17
199.281	110.42
199.5	24.4
199.719	-4.27
199.938	57.17
200.157	57.17
200.376	-24.75
200.595	-12.46
200.814	8.02
201.033	26.45
201.252	42.84
201.471	-28.84
201.69	73.56
201.909	-8.36
202.128	10.07
202.347	-6.31
202.566	-24.75
202.785	16.21
203.004	-32.94
203.223	83.8
203.442	61.27
203.661	16.21
203.879	-8.36
204.098	30.55
204.317	34.64
204.536	89.94
204.755	18.26
204.974	12.12
205.193	24.4
205.411	83.8
205.63	8.02
205.849	-37.03
206.068	28.5
206.287	-39.08
206.505	63.32
206.724	34.64
206.943	-12.46
207.162	53.08
207.381	48.98
207.599	46.93
207.818	51.03
208.037	57.17
208.255	32.6
208.474	8.02
208.693	89.94
208.911	3.93
209.13	-6.31
209.349	22.36
209.567	-39.08
209.786	32.6
210.005	94.04
210.223	22.36
210.442	53.08
210.661	51.03
210.879	22.36
211.098	71.51
211.316	46.93
211.535	73.56
211.753	42.84
211.972	44.88
212.191	-16.55
212.409	-16.55
212.628	34.64
212.846	-69.8
213.065	69.46
213.283	120.66
213.502	55.12
213.72	30.55
213.938	10.07
214.157	-6.31
214.375	-0.17
214.594	-18.6
214.812	100.18
215.031	34.64
215.249	-37.03
215.467	71.51
215.686	20.31
215.904	48.98
216.122	10.07
216.341	57.17
216.559	-14.51
216.778	65.36
216.996	59.22
217.214	-37.03
217.432	-51.37
217.651	-55.47
217.869	-14.51
218.087	-8.36
218.306	5.97
218.524	-20.65
218.742	18.26
218.96	89.94
219.179	3.93
219.397	42.84
219.615	130.9
219.833	-37.03
220.051	-32.94
220.27	42.84
220.488	36.69
220.706	32.6
220.924	8.02
221.142	8.02
221.36	18.26
221.578	44.88
221.796	32.6
222.015	61.27
222.233	73.56
222.451	53.08
222.669	-30.89
222.887	48.98
223.105	-65.71
223.323	-10.41
223.541	-41.13
223.759	63.32
223.977	-2.22
224.195	126.8
224.413	-65.71
224.631	-41.13
224.849	8.02
225.067	130.9
225.285	-63.66
225.503	1.88
225.721	-47.27
225.939	-32.94
226.157	-12.46
226.375	124.76
226.592	-16.55
226.81	3.93
227.028	77.65
227.246	130.9
227.464	-0.17
227.682	10.07
227.9	-30.89
228.117	24.4
228.335	57.17
228.553	-57.51
228.771	40.79
228.989	24.4
229.206	5.97
229.424	-37.03
229.642	65.36
229.86	20.31
230.077	16.21
230.295	40.79
230.513	24.4
230.731	73.56
230.948	69.46
231.166	87.89
231.384	-16.55
231.601	40.79
231.819	28.5
232.037	-39.08
232.254	-41.13
232.472	-14.51
232.689	24.4
232.907	10.07
233.125	-0.17
233.342	-16.55
233.56	-112.81
233.777	16.21
233.995	55.12
234.213	65.36
234.43	-2.22
234.648	65.36
234.865	46.93
235.083	46.93
235.3	51.03
235.518	44.88
235.735	48.98
235.953	75.6
236.17	53.08
236.388	24.4
236.605	96.08
236.822	85.84
237.04	-45.23
237.257	24.4
237.475	18.26
237.692	57.17
237.909	-37.03
238.127	85.84
238.344	24.4
238.562	53.08
238.779	-8.36
238.996	-32.94
239.214	-28.84
239.431	48.98
239.648	16.21
239.865	57.17
240.083	10.07
240.3	-6.31
240.517	-24.75
240.735	-8.36
240.952	36.69
241.169	3.93
241.386	48.98
241.603	38.74
241.821	-14.51
242.038	48.98
242.255	32.6
242.472	-0.17
242.689	-32.94
242.907	106.32
243.124	26.45
243.341	-41.13
243.558	-45.23
243.775	-8.36
243.992	-28.84
244.209	51.03
244.426	94.04
244.643	53.08
244.86	44.88
245.078	36.69
245.295	16.21
245.512	14.17
245.729	-43.18
245.946	89.94
246.163	-6.31
246.38	26.45
246.597	-0.17
246.814	42.84
247.031	-0.17
247.248	16.21
247.464	3.93
247.681	16.21
247.898	18.26
248.115	34.64
248.332	48.98
248.549	59.22
248.766	75.6
248.983	-24.75
249.2	24.4
249.417	110.42
249.633	10.07
249.85	38.74
250.067	20.31
250.284	106.32
250.501	44.88
250.717	51.03
250.934	-73.9
251.151	83.8
251.368	28.5
251.585	48.98
251.801	-22.7
252.018	-0.17
252.235	122.71
252.451	-32.94
252.668	67.41
252.885	83.8
253.102	40.79
253.318	-28.84
253.535	59.22
253.752	51.03
253.968	-0.17
254.185	-18.6
254.401	20.31
254.618	59.22
254.835	10.07
255.051	143.19
255.268	40.79
255.484	73.56
255.701	77.65
255.917	-49.32
256.134	-8.36
256.351	10.07
256.567	36.69
256.784	83.8
257	-47.27
257.217	102.23
257.433	20.31
257.65	83.8
257.866	-32.94
258.082	8.02
258.299	16.21
258.515	-18.6
258.732	81.75
258.948	-39.08
259.165	118.61
259.381	-47.27
259.597	65.36
259.814	-0.17
260.03	104.28
260.246	3.93
260.463	67.41
260.679	16.21
260.895	28.5
261.112	81.75
261.328	5.97
261.544	-6.31
261.761	102.23
261.977	-39.08
262.193	-34.99
262.409	44.88
262.626	18.26
262.842	114.52
263.058	12.12
263.274	-12.46
263.49	61.27
263.707	139.09
263.923	57.17
264.139	-6.31
264.355	65.36
264.571	73.56
264.787	81.75
265.004	67.41
265.22	53.08
265.436	-4.27
265.652	40.79
265.868	73.56
266.084	-24.75
266.3	65.36
266.516	-47.27
266.732	36.69
266.948	-0.17
267.164	57.17
267.38	28.5
267.596	51.03
267.812	8.02
268.028	-8.36
268.244	48.98
268.46	-18.6
268.676	51.03
268.892	-39.08
269.108	-32.94
269.324	26.45
269.54	-6.31
269.756	130.9
269.972	12.12
270.188	12.12
270.403	-4.27
270.619	32.6
270.835	-41.13
271.051	12.12
271.267	3.93
271.483	32.6
271.698	83.8
271.914	51.03
272.13	36.69
272.346	-57.51
272.562	44.88
272.777	32.6
272.993	22.36
273.209	48.98
273.425	12.12
273.64	-49.32
273.856	63.32
274.072	10.07
274.287	77.65
274.503	-6.31
274.719	20.31
274.934	32.6
275.15	-41.13
275.366	40.79
275.581	-20.65
275.797	-28.84
276.012	98.13
276.228	16.21
276.444	-2.22
276.659	98.13
276.875	-0.17
277.09	-45.23
277.306	108.37
277.521	77.65
277.737	-8.36
277.952	61.27
278.168	-0.17
278.383	22.36
278.599	-4.27
278.814	73.56
279.03	-26.79
279.245	-16.55
279.461	24.4
279.676	-8.36
279.892	-20.65
280.107	24.4
280.322	48.98
280.538	94.04
280.753	14.17
280.969	26.45
281.184	-20.65
281.399	8.02
281.615	53.08
281.83	18.26
282.045	30.55
282.26	-14.51
282.476	-71.85
282.691	32.6
282.906	98.13
283.122	38.74
283.337	61.27
283.552	-0.17
283.767	-6.31
283.983	-41.13
284.198	3.93
284.413	40.79
284.628	-8.36
284.843	-22.7
285.058	24.4
285.274	10.07
285.489	28.5
285.704	114.52
285.919	42.84
286.134	-4.27
286.349	75.6
286.564	22.36
286.779	24.4
286.995	65.36
287.21	24.4
287.425	36.69
287.64	51.03
287.855	73.56
288.07	-22.7
288.285	20.31
288.5	57.17
288.715	81.75
288.93	22.36
289.145	59.22
289.36	73.56
289.575	30.55
289.79	8.02
290.004	-12.46
290.219	42.84
290.434	-24.75
290.649	28.5
290.864	-20.65
291.079	10.07
291.294	44.88
291.509	-14.51
291.724	48.98
291.938	5.97
292.153	57.17
292.368	102.23
292.583	3.93
292.798	32.6
293.012	65.36
293.227	28.5
293.442	32.6
293.657	98.13
293.871	48.98
294.086	24.4
294.301	61.27
294.516	-12.46
294.73	81.75
294.945	61.27
295.16	48.98
295.374	102.23
295.589	61.27
295.804	32.6
296.018	-0.17
296.233	24.4
296.447	40.79
296.662	8.02
296.877	55.12
297.091	40.79
297.306	28.5
297.52	46.93
297.735	-4.27
297.949	-24.75
298.164	32.6
298.378	8.02
298.593	-12.46
298.807	14.17
299.022	102.23
299.236	114.52
299.451	18.26
299.665	30.55
299.88	-14.51
300.094	71.51
300.309	-49.32
300.523	-24.75
300.737	48.98
300.952	59.22
301.166	46.93
301.381	73.56
301.595	-47.27
301.809	-49.32
302.024	12.12
302.238	18.26
302.452	44.88
302.667	8.02
302.881	24.4
303.095	-8.36
303.309	67.41
303.524	-57.51
303.738	8.02
303.952	24.4
304.166	100.18
304.381	-24.75
304.595	69.46
304.809	-30.89
305.023	59.22
305.237	44.88
305.452	-57.51
305.666	89.94
305.88	34.64
306.094	16.21
306.308	51.03
306.522	26.45
306.736	67.41
306.95	67.41
307.164	24.4
307.379	89.94
307.593	83.8
307.807	67.41
308.021	51.03
308.235	73.56
308.449	-0.17
308.663	-37.03
308.877	98.13
309.091	53.08
309.305	67.41
309.519	3.93
309.733	53.08
309.947	57.17
310.161	-22.7
310.374	32.6
310.588	36.69
310.802	-8.36
311.016	-4.27
311.23	36.69
311.444	1.88
311.658	-45.23
311.872	16.21
312.085	57.17
312.299	94.04
312.513	73.56
312.727	18.26
312.941	89.94
313.154	48.98
313.368	16.21
313.582	16.21
313.796	40.79
314.009	34.64
314.223	110.42
314.437	79.7
314.651	57.17
314.864	-8.36
315.078	48.98
315.292	67.41
315.505	16.21
315.719	8.02
315.933	44.88
316.146	40.79
316.36	-32.94
316.573	46.93
316.787	14.17
317.001	8.02
317.214	-24.75
317.428	8.02
317.641	16.21
317.855	36.69
318.068	40.79
318.282	-24.75
318.495	59.22
318.709	40.79
318.922	30.55
319.136	38.74
319.349	81.75
319.563	36.69
319.776	48.98
319.99	-16.55
320.203	85.84
320.417	32.6
320.63	5.97
320.843	79.7
321.057	-12.46
321.27	57.17
321.483	42.84
321.697	87.89
321.91	-4.27
322.124	1.88
322.337	71.51
322.55	28.5
322.763	24.4
322.977	40.79
323.19	1.88
323.403	-0.17
323.617	-20.65
323.83	12.12
324.043	28.5
324.256	46.93
324.469	-37.03
324.683	51.03
324.896	42.84
325.109	89.94
325.322	18.26
325.535	61.27
325.748	44.88
325.962	10.07
326.175	16.21
326.388	32.6
326.601	108.37
326.814	-8.36
327.027	94.04
327.24	38.74
327.453	-57.51
327.666	-14.51
327.879	28.5
328.092	-57.51
328.305	-24.75
328.518	81.75
328.731	61.27
328.944	1.88
329.157	-30.89
329.37	81.75
329.583	116.56
329.796	114.52
330.009	10.07
330.222	-4.27
330.435	-4.27
330.648	73.56
330.861	20.31
331.073	34.64
331.286	28.5
331.499	28.5
331.712	-51.37
331.925	61.27
332.138	1.88
332.35	77.65
332.563	-61.61
332.776	-8.36
332.989	-0.17
333.202	36.69
333.414	-12.46
333.627	65.36
333.84	34.64
334.053	69.46
334.265	55.12
334.478	36.69
334.691	40.79
334.903	42.84
335.116	18.26
335.329	36.69
335.541	40.79
335.754	65.36
335.966	40.79
336.179	42.84
336.392	-2.22
336.604	16.21
336.817	18.26
337.029	106.32
337.242	26.45
337.454	34.64
337.667	24.4
337.88	16.21
338.092	65.36
338.305	51.03
338.517	48.98
338.729	83.8
338.942	8.02
339.154	28.5
339.367	-0.17
339.579	98.13
339.792	-24.75
340.004	-8.36
340.217	5.97
340.429	51.03
340.641	-26.79
340.854	65.36
341.066	-4.27
341.278	42.84
341.491	106.32
341.703	81.75
341.915	-8.36
342.128	34.64
342.34	16.21
342.552	14.17
342.764	42.84
342.977	40.79
343.189	12.12
343.401	36.69
343.613	8.02
343.826	10.07
344.038	-39.08
344.25	57.17
344.462	44.88
344.674	30.55
344.886	48.98
345.099	51.03
345.311	-49.32
345.523	8.02
345.735	32.6
345.947	8.02
346.159	-30.89
346.371	40.79
346.583	10.07
346.795	73.56
347.007	55.12
347.219	32.6
347.431	12.12
347.643	44.88
347.855	24.4
348.067	81.75
348.279	48.98
348.491	16.21
348.703	57.17
348.915	26.45
349.127	-8.36
349.339	36.69
349.551	-0.17
349.763	61.27
349.975	36.69
350.187	71.51
350.399	75.6
350.61	81.75
350.822	-2.22
351.034	36.69
351.246	-57.51
351.458	48.98
351.669	10.07
351.881	83.8
352.093	122.71
352.305	94.04
352.517	20.31
352.728	71.51
352.94	40.79
353.152	-18.6
353.363	1.88
353.575	57.17
353.787	61.27
353.999	-8.36
354.21	130.9
354.422	48.98
354.633	34.64
354.845	-49.32
355.057	16.21
355.268	-16.55
355.48	34.64
355.692	53.08
355.903	106.32
356.115	-6.31
356.326	40.79
356.538	24.4
356.749	18.26
356.961	110.42
357.172	75.6
357.384	40.79
357.595	122.71
357.807	77.65
358.018	71.51
358.23	32.6
358.441	75.6
358.653	114.52
358.864	24.4
359.075	69.46
359.287	139.09
359.498	51.03
359.709	106.32
359.921	-16.55
360.132	8.02
360.344	26.45
360.555	-37.03
360.766	-20.65
360.977	-24.75
361.189	91.99
361.4	16.21
361.611	44.88
361.823	8.02
362.034	73.56
362.245	36.69
362.456	67.41
362.667	69.46
362.879	26.45
363.09	14.17
363.301	48.98
363.512	26.45
363.723	30.55
363.935	16.21
364.146	48.98
364.357	24.4
364.568	51.03
364.779	-8.36
364.99	69.46
365.201	-37.03
365.412	122.71
365.623	1.88
365.834	51.03
366.045	102.23
366.256	65.36
366.467	89.94
366.678	32.6
366.889	53.08
367.1	110.42
367.311	40.79
367.522	26.45
367.733	77.65
367.944	83.8
368.155	-28.84
368.366	77.65
368.577	65.36
368.788	57.17
368.999	16.21
369.209	51.03
369.42	135
369.631	114.52
369.842	75.6
370.053	12.12
370.264	61.27
370.474	-41.13
370.685	44.88
370.896	34.64
371.107	151.38
371.317	51.03
371.528	108.37
371.739	65.36
371.95	42.84
372.16	8.02
372.371	38.74
372.582	98.13
372.792	67.41
373.003	73.56
373.214	42.84
373.424	89.94
373.635	16.21
373.846	91.99
374.056	48.98
374.267	14.17
374.477	28.5
374.688	34.64
374.898	51.03
375.109	36.69
375.319	102.23
375.53	65.36
375.74	44.88
375.951	59.22
376.161	-2.22
376.372	122.71
376.582	32.6
376.793	57.17
377.003	-49.32
377.214	57.17
377.424	18.26
377.635	-8.36
377.845	26.45
378.055	44.88
378.266	57.17
378.476	71.51
378.686	28.5
378.897	94.04
379.107	48.98
379.317	100.18
379.528	53.08
379.738	77.65
379.948	16.21
380.158	57.17
380.369	59.22
380.579	73.56
380.789	8.02
380.999	98.13
381.21	48.98
381.42	96.08
381.63	24.4
381.84	122.71
382.05	51.03
382.261	51.03
382.471	65.36
382.681	67.41
382.891	89.94
383.101	8.02
383.311	20.31
383.521	42.84
383.731	73.56
383.941	85.84
384.151	26.45
384.361	77.65
384.571	46.93
384.781	18.26
384.991	114.52
385.201	106.32
385.411	81.75
385.621	91.99
385.831	28.5
386.041	36.69
386.251	48.98
386.461	51.03
386.671	118.61
386.881	116.56
387.091	-20.65
387.301	98.13
387.511	61.27
387.72	44.88
387.93	28.5
388.14	48.98
388.35	36.69
388.56	-34.99
388.769	106.32
388.979	89.94
389.189	12.12
389.399	1.88
389.609	98.13
389.818	135
390.028	-12.46
390.238	89.94
390.447	106.32
390.657	171.86
390.867	10.07
391.076	83.8
391.286	98.13
391.496	-32.94
391.705	53.08
391.915	73.56
392.125	130.9
392.334	81.75
392.544	10.07
392.753	65.36
392.963	-24.75
393.172	57.17
393.382	24.4
393.591	163.67
393.801	104.28
394.01	139.09
394.22	67.41
394.429	34.64
394.639	34.64
394.848	85.84
395.058	106.32
395.267	96.08
395.477	22.36
395.686	104.28
395.895	59.22
396.105	106.32
396.314	40.79
396.524	67.41
396.733	157.52
396.942	91.99
397.152	67.41
397.361	143.19
397.57	98.13
397.78	57.17
397.989	42.84
398.198	114.52
398.407	108.37
398.617	98.13
398.826	48.98
399.035	67.41
399.244	122.71
399.453	106.32
399.663	91.99
399.872	91.99
400.081	100.18
400.29	81.75
400.499	135
400.708	81.75
400.917	153.43
401.127	96.08
401.336	116.56
401.545	167.76
401.754	143.19
401.963	102.23
402.172	73.56
402.381	69.46
402.59	116.56
402.799	114.52
403.008	77.65
403.217	122.71
403.426	163.67
403.635	65.36
403.844	184.15
404.053	147.28
404.262	104.28
404.471	173.91
404.68	188.24
404.888	114.52
405.097	155.47
405.306	178
405.515	196.43
405.724	188.24
405.933	229.2
406.142	255.83
406.35	247.63
406.559	182.1
406.768	182.1
406.977	216.91
407.185	272.21
407.394	284.5
407.603	171.86
407.812	249.68
408.02	253.78
408.229	360.27
408.438	247.63
408.646	294.74
408.855	286.54
409.064	290.64
409.272	214.87
409.481	333.65
409.69	266.07
409.898	247.63
410.107	411.47
410.315	343.89
410.524	335.7
410.733	401.23
410.941	368.46
411.15	374.61
411.358	427.85
411.567	483.15
411.775	413.52
411.984	444.24
412.192	483.15
412.401	493.39
412.609	565.07
412.818	585.55
413.026	438.09
413.234	560.97
413.443	630.6
413.651	575.31
413.86	593.74
414.068	728.91
414.276	769.87
414.485	737.1
414.693	710.47
414.901	823.11
415.11	802.63
415.318	737.1
415.526	796.49
415.734	958.28
415.943	870.22
416.151	986.95
416.359	986.95
416.567	943.94
416.776	984.9
416.984	1144.64
417.192	1054.53
417.4	1095.49
417.608	1015.62
417.817	1105.73
418.025	1228.61
418.233	1318.72
418.441	1240.9
418.649	1367.87
418.857	1304.39
419.065	1484.61
419.273	1343.3
419.481	1523.52
419.689	1627.96
419.897	1716.03
420.105	1738.55
420.313	1752.89
420.521	1845.05
420.729	1896.25
420.937	1898.3
421.145	1972.02
421.353	2094.9
421.561	2109.24
421.769	2225.97
421.977	2262.83
422.185	2238.26
422.393	2391.86
422.601	2572.08
422.809	2551.6
423.017	2719.53
423.224	2641.71
423.432	2826.03
423.64	2858.79
423.848	3092.26
424.056	3088.17
424.263	3198.76
424.471	3256.1
424.679	3358.5
424.887	3491.62
425.094	3579.68
425.302	3497.76
425.51	3772.19
425.718	3833.63
425.925	3841.82
426.133	4157.21
426.341	4300.56
426.548	4372.24
426.756	4341.52
426.964	4497.17
427.171	4755.21
427.379	4718.35
427.586	4914.95
427.794	5129.99
428.001	5279.49
428.209	5574.4
428.417	5426.95
428.624	5801.72
428.832	5832.44
429.039	5834.49
429.247	5830.4
429.454	6291.19
429.662	6678.26
429.869	6326
430.076	6772.46
430.284	6768.37
430.491	6799.09
430.699	7177.96
430.906	7171.82
431.114	7423.72
431.321	7782.11
431.528	7739.1
431.736	8292.05
431.943	8586.96
432.15	8363.73
432.358	8482.52
432.565	9096.91
432.772	8969.93
432.979	9477.83
433.187	9731.78
433.394	9602.75
433.601	10340.02
433.808	10159.8
434.016	10315.45
434.223	10735.28
434.43	11243.18
434.637	11071.15
434.844	11757.22
435.052	11742.88
435.259	11673.25
435.466	11787.94
435.673	11919.01
435.88	12490.39
436.087	13053.58
436.294	13227.66
436.501	12986
436.708	13045.39
436.915	13532.81
437.122	14175.87
437.329	14374.52
437.537	14667.38
437.743	14884.47
437.95	14859.89
438.157	15545.96
438.364	16096.86
438.571	16031.33
438.778	16201.31
438.985	17563.21
439.192	16768.6
439.399	17256.01
439.606	17143.38
439.813	17960.52
440.02	18802.23
440.227	18646.58
440.433	18294.33
440.64	19074.61
440.847	18865.72
441.054	19430.96
441.261	20653.59
441.467	20557.34
441.674	21106.2
441.881	21820.94
442.088	21610
442.294	21360.14
442.501	21687.82
442.708	22060.55
442.914	23438.83
443.121	24319.46
443.328	23416.3
443.534	25120.21
443.741	24706.52
443.948	24008.17
444.154	25761.23
444.361	25710.03
444.568	25988.55
444.774	25910.73
444.981	26430.91
445.187	26723.77
445.394	28132.78
445.6	27725.23
445.807	30731.65
446.013	28874.14
446.22	29758.86
446.426	30905.73
446.633	30913.92
446.839	31997.29
447.046	30741.89
447.252	32449.89
447.459	32984.41
447.665	32089.45
447.871	33635.67
448.078	35061.05
448.284	33819.99
448.491	34321.74
448.697	35585.33
448.903	36490.54
449.11	36078.89
449.316	35870
449.522	36547.88
449.728	37700.89
449.935	37995.79
450.141	38151.44
450.347	38409.48
450.553	37414.17
450.76	37627.16
450.966	38980.87
451.172	38728.97
451.378	39671.03
451.584	38882.56
451.791	39912.69
451.997	39648.5
452.203	40492.27
452.409	40467.69
452.615	40027.38
452.821	38249.74
453.027	38137.1
453.233	40029.43
453.44	38343.95
453.646	38839.56
453.852	39208.19
454.058	40015.09
454.264	39046.4
454.47	39103.74
454.676	38499.59
454.882	39648.5
455.088	36261.16
455.294	37000.48
455.5	37350.68
455.705	37618.97
455.911	36556.07
456.117	35779.89
456.323	35315
456.529	33129.82
456.735	34821.44
456.941	34012.49
457.147	33461.59
457.352	32208.23
457.558	32048.49
457.764	32277.86
457.97	31274.36
458.176	30709.12
458.381	30635.39
458.587	29183.38
458.793	29603.22
458.999	27801.01
459.204	29597.07
459.41	28720.54
459.616	26645.95
459.821	26856.89
460.027	26824.12
460.233	26197.45
460.438	24747.48
460.644	25312.72
460.85	24012.26
461.055	23569.9
461.261	23553.52
461.466	21796.36
461.672	21136.91
461.878	22681.08
462.083	21071.38
462.289	20710.94
462.494	20479.52
462.7	19766.82
462.905	19121.71
463.111	19484.2
463.316	19936.81
463.522	19267.12
463.727	19512.88
463.932	19248.69
464.138	19013.17
464.343	19387.95
464.549	18558.52
464.754	19228.21
464.959	18927.16
465.165	18693.69
465.37	17925.7
465.575	17444.43
465.781	18267.71
465.986	18148.93
466.191	17978.95
466.397	17210.96
466.602	16369.24
466.807	16825.94
467.012	17149.52
467.218	16877.14
