Data from USB4F104151__316__14-35-08-768.txt Node

Date: Thu Mar 13 14:35:08 EDT 2025
User: louis
Spectrometer: USB4F10415
Trigger mode: 4
Integration Time (sec): 2.500000E-2
Scans to average: 1
Electric dark correction enabled: true
Nonlinearity correction enabled: false
Boxcar width: 0
XAxis mode: Wavelengths
Number of Pixels in Spectrum: 3648
>>>>>Begin Spectral Data<<<<<
178.204	-112.3
178.424	-112.3
178.644	-112.3
178.864	-190.12
179.084	-120.49
179.304	-79.53
179.524	-22.19
179.744	-7.85
179.964	41.3
180.184	-30.38
180.404	6.49
180.624	35.16
180.844	-48.81
181.064	-16.04
181.283	10.58
181.503	14.68
181.723	96.6
181.943	-54.95
182.163	110.93
182.383	-3.75
182.602	76.12
182.822	82.26
183.042	61.78
183.262	51.54
183.482	37.2
183.701	94.55
183.921	20.82
184.141	0.34
184.361	43.35
184.58	-13.99
184.8	43.35
185.02	104.79
185.239	78.16
185.459	63.83
185.679	67.92
185.898	2.39
186.118	143.7
186.338	102.74
186.557	35.16
186.777	69.97
186.997	39.25
187.216	-1.71
187.436	141.65
187.655	76.12
187.875	88.4
188.095	16.73
188.314	55.64
188.534	47.44
188.753	18.77
188.973	29.01
189.192	51.54
189.412	4.44
189.631	72.02
189.851	-52.91
190.07	94.55
190.29	2.39
190.509	59.73
190.729	16.73
190.948	94.55
191.168	233.81
191.387	129.36
191.607	35.16
191.826	125.27
192.045	12.63
192.265	14.68
192.484	69.97
192.704	67.92
192.923	14.68
193.142	127.32
193.362	59.73
193.581	53.59
193.8	59.73
194.02	51.54
194.239	94.55
194.458	20.82
194.678	35.16
194.897	-13.99
195.116	43.35
195.335	72.02
195.555	-26.28
195.774	6.49
195.993	-26.28
196.212	51.54
196.432	37.2
196.651	-13.99
196.87	63.83
197.089	86.36
197.308	55.64
197.528	63.83
197.747	26.96
197.966	20.82
198.185	72.02
198.404	45.4
198.623	86.36
198.842	18.77
199.062	14.68
199.281	88.4
199.5	-7.85
199.719	74.07
199.938	-26.28
200.157	20.82
200.376	102.74
200.595	59.73
200.814	29.01
201.033	61.78
201.252	102.74
201.471	59.73
201.69	108.88
201.909	78.16
202.128	119.12
202.347	100.69
202.566	35.16
202.785	59.73
203.004	-18.09
203.223	108.88
203.442	47.44
203.661	26.96
203.879	39.25
204.098	55.64
204.317	43.35
204.536	10.58
204.755	86.36
204.974	76.12
205.193	110.93
205.411	127.32
205.63	84.31
205.849	10.58
206.068	51.54
206.287	31.06
206.505	86.36
206.724	22.87
206.943	-61.1
207.162	-13.99
207.381	-1.71
207.599	10.58
207.818	10.58
208.037	26.96
208.255	-3.75
208.474	76.12
208.693	43.35
208.911	94.55
209.13	59.73
209.349	51.54
209.567	45.4
209.786	102.74
210.005	84.31
210.223	45.4
210.442	20.82
210.661	133.46
210.879	88.4
211.098	59.73
211.316	47.44
211.535	129.36
211.753	149.84
211.972	78.16
212.191	26.96
212.409	39.25
212.628	88.4
212.846	-9.9
213.065	24.92
213.283	186.71
213.502	29.01
213.72	-1.71
213.938	55.64
214.157	59.73
214.375	108.88
214.594	10.58
214.812	59.73
215.031	-5.8
215.249	84.31
215.467	22.87
215.686	-11.95
215.904	-30.38
216.122	16.73
216.341	31.06
216.559	8.53
216.778	45.4
216.996	76.12
217.214	65.88
217.432	55.64
217.651	20.82
217.869	-9.9
218.087	22.87
218.306	14.68
218.524	18.77
218.742	35.16
218.96	29.01
219.179	86.36
219.397	102.74
219.615	94.55
219.833	84.31
220.051	22.87
220.27	84.31
220.488	2.39
220.706	133.46
220.924	-26.28
221.142	92.5
221.36	10.58
221.578	43.35
221.796	96.6
222.015	26.96
222.233	47.44
222.451	67.92
222.669	43.35
222.887	117.08
223.105	37.2
223.323	-13.99
223.541	-1.71
223.759	24.92
223.977	41.3
224.195	96.6
224.413	67.92
224.631	104.79
224.849	51.54
225.067	125.27
225.285	-24.23
225.503	18.77
225.721	-38.57
225.939	155.99
226.157	43.35
226.375	133.46
226.592	78.16
226.81	45.4
227.028	47.44
227.246	43.35
227.464	86.36
227.682	43.35
227.9	84.31
228.117	51.54
228.335	100.69
228.553	94.55
228.771	39.25
228.989	121.17
229.206	67.92
229.424	102.74
229.642	55.64
229.86	78.16
230.077	86.36
230.295	102.74
230.513	112.98
230.731	37.2
230.948	80.21
231.166	110.93
231.384	69.97
231.601	-44.71
231.819	166.23
232.037	37.2
232.254	31.06
232.472	57.68
232.689	35.16
232.907	76.12
233.125	-22.19
233.342	12.63
233.56	55.64
233.777	4.44
233.995	29.01
234.213	-28.33
234.43	-11.95
234.648	-13.99
234.865	53.59
235.083	59.73
235.3	51.54
235.518	86.36
235.735	119.12
235.953	53.59
236.17	35.16
236.388	18.77
236.605	29.01
236.822	125.27
237.04	78.16
237.257	49.49
237.475	-7.85
237.692	67.92
237.909	26.96
238.127	-13.99
238.344	43.35
238.562	78.16
238.779	-38.57
238.996	53.59
239.214	26.96
239.431	51.54
239.648	22.87
239.865	35.16
240.083	125.27
240.3	-11.95
240.517	4.44
240.735	18.77
240.952	65.88
241.169	59.73
241.386	76.12
241.603	-7.85
241.821	-38.57
242.038	151.89
242.255	82.26
242.472	29.01
242.689	10.58
242.907	51.54
243.124	61.78
243.341	51.54
243.558	100.69
243.775	-11.95
243.992	67.92
244.209	29.01
244.426	155.99
244.643	59.73
244.86	72.02
245.078	76.12
245.295	12.63
245.512	57.68
245.729	8.53
245.946	47.44
246.163	-22.19
246.38	43.35
246.597	20.82
246.814	76.12
247.031	53.59
247.248	96.6
247.464	43.35
247.681	88.4
247.898	37.2
248.115	76.12
248.332	29.01
248.549	53.59
248.766	63.83
248.983	125.27
249.2	24.92
249.417	18.77
249.633	29.01
249.85	110.93
250.067	-20.14
250.284	43.35
250.501	39.25
250.717	94.55
250.934	61.78
251.151	-30.38
251.368	-3.75
251.585	117.08
251.801	37.2
252.018	108.88
252.235	63.83
252.451	-13.99
252.668	18.77
252.885	133.46
253.102	14.68
253.318	31.06
253.535	26.96
253.752	10.58
253.968	-13.99
254.185	22.87
254.401	84.31
254.618	45.4
254.835	-1.71
255.051	110.93
255.268	53.59
255.484	88.4
255.701	51.54
255.917	69.97
256.134	2.39
256.351	63.83
256.567	-7.85
256.784	84.31
257	-36.52
257.217	67.92
257.433	92.5
257.65	100.69
257.866	59.73
258.082	41.3
258.299	94.55
258.515	80.21
258.732	37.2
258.948	-18.09
259.165	35.16
259.381	26.96
259.597	26.96
259.814	59.73
260.03	106.84
260.246	14.68
260.463	53.59
260.679	149.84
260.895	41.3
261.112	31.06
261.328	51.54
261.544	51.54
261.761	133.46
261.977	29.01
262.193	51.54
262.409	80.21
262.626	78.16
262.842	78.16
263.058	47.44
263.274	78.16
263.49	2.39
263.707	67.92
263.923	49.49
264.139	14.68
264.355	6.49
264.571	86.36
264.787	6.49
265.004	108.88
265.22	92.5
265.436	37.2
265.652	57.68
265.868	51.54
266.084	35.16
266.3	26.96
266.516	57.68
266.732	-1.71
266.948	37.2
267.164	67.92
267.38	55.64
267.596	35.16
267.812	100.69
268.028	67.92
268.244	-28.33
268.46	61.78
268.676	80.21
268.892	-5.8
269.108	35.16
269.324	69.97
269.54	51.54
269.756	74.07
269.972	43.35
270.188	10.58
270.403	80.21
270.619	84.31
270.835	125.27
271.051	26.96
271.267	-26.28
271.483	22.87
271.698	14.68
271.914	31.06
272.13	-5.8
272.346	35.16
272.562	112.98
272.777	84.31
272.993	67.92
273.209	43.35
273.425	10.58
273.64	45.4
273.856	55.64
274.072	12.63
274.287	8.53
274.503	63.83
274.719	100.69
274.934	53.59
275.15	45.4
275.366	86.36
275.581	35.16
275.797	51.54
276.012	112.98
276.228	59.73
276.444	2.39
276.659	74.07
276.875	88.4
277.09	43.35
277.306	47.44
277.521	20.82
277.737	-52.91
277.952	49.49
278.168	59.73
278.383	39.25
278.599	78.16
278.814	90.45
279.03	65.88
279.245	80.21
279.461	67.92
279.676	37.2
279.892	-3.75
280.107	-28.33
280.322	4.44
280.538	51.54
280.753	-9.9
280.969	37.2
281.184	18.77
281.399	37.2
281.615	35.16
281.83	51.54
282.045	20.82
282.26	14.68
282.476	-1.71
282.691	76.12
282.906	43.35
283.122	69.97
283.337	22.87
283.552	47.44
283.767	20.82
283.983	76.12
284.198	33.11
284.413	49.49
284.628	-26.28
284.843	16.73
285.058	53.59
285.274	76.12
285.489	10.58
285.704	49.49
285.919	-3.75
286.134	26.96
286.349	35.16
286.564	-5.8
286.779	53.59
286.995	82.26
287.21	6.49
287.425	78.16
287.64	-16.04
287.855	-1.71
288.07	24.92
288.285	69.97
288.5	112.98
288.715	110.93
288.93	31.06
289.145	84.31
289.36	80.21
289.575	10.58
289.79	102.74
290.004	-13.99
290.219	94.55
290.434	61.78
290.649	14.68
290.864	29.01
291.079	35.16
291.294	39.25
291.509	10.58
291.724	67.92
291.938	-30.38
292.153	26.96
292.368	0.34
292.583	96.6
292.798	53.59
293.012	49.49
293.227	80.21
293.442	96.6
293.657	31.06
293.871	121.17
294.086	24.92
294.301	82.26
294.516	78.16
294.73	37.2
294.945	-22.19
295.16	82.26
295.374	55.64
295.589	78.16
295.804	-11.95
296.018	18.77
296.233	22.87
296.447	18.77
296.662	-32.43
296.877	117.08
297.091	47.44
297.306	78.16
297.52	39.25
297.735	59.73
297.949	47.44
298.164	-22.19
298.378	-3.75
298.593	-20.14
298.807	14.68
299.022	26.96
299.236	92.5
299.451	37.2
299.665	-1.71
299.88	65.88
300.094	55.64
300.309	10.58
300.523	10.58
300.737	-11.95
300.952	102.74
301.166	129.36
301.381	-5.8
301.595	35.16
301.809	69.97
302.024	26.96
302.238	47.44
302.452	51.54
302.667	31.06
302.881	59.73
303.095	117.08
303.309	55.64
303.524	14.68
303.738	61.78
303.952	-1.71
304.166	2.39
304.381	-44.71
304.595	149.84
304.809	26.96
305.023	76.12
305.237	-50.86
305.452	41.3
305.666	78.16
305.88	104.79
306.094	2.39
306.308	61.78
306.522	16.73
306.736	80.21
306.95	127.32
307.164	18.77
307.379	92.5
307.593	135.51
307.807	86.36
308.021	82.26
308.235	92.5
308.449	10.58
308.663	51.54
308.877	67.92
309.091	18.77
309.305	51.54
309.519	-40.62
309.733	92.5
309.947	-18.09
310.161	96.6
310.374	98.64
310.588	86.36
310.802	-9.9
311.016	12.63
311.23	-13.99
311.444	8.53
311.658	78.16
311.872	53.59
312.085	90.45
312.299	59.73
312.513	43.35
312.727	43.35
312.941	55.64
313.154	31.06
313.368	10.58
313.582	76.12
313.796	61.78
314.009	78.16
314.223	78.16
314.437	69.97
314.651	106.84
314.864	22.87
315.078	39.25
315.292	67.92
315.505	2.39
315.719	-1.71
315.933	-5.8
316.146	86.36
316.36	2.39
316.573	143.7
316.787	65.88
317.001	63.83
317.214	-30.38
317.428	84.31
317.641	43.35
317.855	2.39
318.068	33.11
318.282	61.78
318.495	61.78
318.709	119.12
318.922	31.06
319.136	110.93
319.349	125.27
319.563	31.06
319.776	82.26
319.99	-5.8
320.203	18.77
320.417	86.36
320.63	35.16
320.843	78.16
321.057	110.93
321.27	14.68
321.483	51.54
321.697	76.12
321.91	22.87
322.124	47.44
322.337	90.45
322.55	26.96
322.763	26.96
322.977	61.78
323.19	39.25
323.403	61.78
323.617	100.69
323.83	65.88
324.043	74.07
324.256	69.97
324.469	-5.8
324.683	92.5
324.896	4.44
325.109	76.12
325.322	10.58
325.535	67.92
325.748	33.11
325.962	-13.99
326.175	55.64
326.388	119.12
326.601	88.4
326.814	100.69
327.027	20.82
327.24	149.84
327.453	-75.43
327.666	69.97
327.879	102.74
328.092	84.31
328.305	137.56
328.518	-5.8
328.731	-48.81
328.944	90.45
329.157	135.51
329.37	18.77
329.583	166.23
329.796	76.12
330.009	26.96
330.222	31.06
330.435	26.96
330.648	43.35
330.861	8.53
331.073	131.41
331.286	104.79
331.499	59.73
331.712	69.97
331.925	59.73
332.138	53.59
332.35	31.06
332.563	-38.57
332.776	102.74
332.989	-32.43
333.202	59.73
333.414	84.31
333.627	67.92
333.84	20.82
334.053	102.74
334.265	6.49
334.478	53.59
334.691	53.59
334.903	59.73
335.116	-7.85
335.329	141.65
335.541	67.92
335.754	155.99
335.966	-1.71
336.179	29.01
336.392	45.4
336.604	8.53
336.817	112.98
337.029	133.46
337.242	39.25
337.454	96.6
337.667	55.64
337.88	80.21
338.092	108.88
338.305	82.26
338.517	31.06
338.729	92.5
338.942	47.44
339.154	43.35
339.367	-20.14
339.579	76.12
339.792	76.12
340.004	18.77
340.217	51.54
340.429	53.59
340.641	-20.14
340.854	18.77
341.066	24.92
341.278	59.73
341.491	22.87
341.703	37.2
341.915	37.2
342.128	92.5
342.34	-3.75
342.552	-20.14
342.764	94.55
342.977	55.64
343.189	78.16
343.401	51.54
343.613	43.35
343.826	6.49
344.038	84.31
344.25	29.01
344.462	22.87
344.674	80.21
344.886	4.44
345.099	-32.43
345.311	45.4
345.523	-22.19
345.735	53.59
345.947	76.12
346.159	8.53
346.371	51.54
346.583	94.55
346.795	135.51
347.007	29.01
347.219	43.35
347.431	6.49
347.643	76.12
347.855	14.68
348.067	6.49
348.279	37.2
348.491	35.16
348.703	141.65
348.915	98.64
349.127	90.45
349.339	59.73
349.551	20.82
349.763	84.31
349.975	76.12
350.187	65.88
350.399	84.31
350.61	110.93
350.822	106.84
351.034	67.92
351.246	18.77
351.458	90.45
351.669	31.06
351.881	53.59
352.093	22.87
352.305	67.92
352.517	59.73
352.728	24.92
352.94	29.01
353.152	115.03
353.363	96.6
353.575	63.83
353.787	110.93
353.999	-22.19
354.21	47.44
354.422	72.02
354.633	84.31
354.845	35.16
355.057	26.96
355.268	63.83
355.48	63.83
355.692	29.01
355.903	94.55
356.115	69.97
356.326	0.34
356.538	88.4
356.749	88.4
356.961	119.12
357.172	35.16
357.384	43.35
357.595	133.46
357.807	51.54
358.018	45.4
358.23	92.5
358.441	61.78
358.653	100.69
358.864	43.35
359.075	59.73
359.287	127.32
359.498	78.16
359.709	18.77
359.921	86.36
360.132	90.45
360.344	119.12
360.555	43.35
360.766	158.03
360.977	49.49
361.189	135.51
361.4	51.54
361.611	78.16
361.823	84.31
362.034	119.12
362.245	-1.71
362.456	12.63
362.667	29.01
362.879	-1.71
363.09	47.44
363.301	119.12
363.512	51.54
363.723	29.01
363.935	6.49
364.146	117.08
364.357	59.73
364.568	92.5
364.779	12.63
364.99	55.64
365.201	26.96
365.412	51.54
365.623	35.16
365.834	59.73
366.045	33.11
366.256	61.78
366.467	-28.33
366.678	92.5
366.889	94.55
367.1	53.59
367.311	57.68
367.522	29.01
367.733	61.78
367.944	39.25
368.155	39.25
368.366	127.32
368.577	108.88
368.788	43.35
368.999	69.97
369.209	100.69
369.42	184.66
369.631	151.89
369.842	74.07
370.053	96.6
370.264	47.44
370.474	20.82
370.685	78.16
370.896	80.21
371.107	82.26
371.317	80.21
371.528	96.6
371.739	123.22
371.95	69.97
372.16	117.08
372.371	-9.9
372.582	76.12
372.792	18.77
373.003	117.08
373.214	94.55
373.424	119.12
373.635	104.79
373.846	104.79
374.056	59.73
374.267	100.69
374.477	84.31
374.688	35.16
374.898	29.01
375.109	61.78
375.319	47.44
375.53	80.21
375.74	117.08
375.951	94.55
376.161	119.12
376.372	133.46
376.582	-5.8
376.793	133.46
377.003	67.92
377.214	-13.99
377.424	67.92
377.635	80.21
377.845	0.34
378.055	100.69
378.266	26.96
378.476	45.4
378.686	94.55
378.897	96.6
379.107	125.27
379.317	180.56
379.528	84.31
379.738	117.08
379.948	59.73
380.158	104.79
380.369	22.87
380.579	67.92
380.789	-20.14
380.999	76.12
381.21	84.31
381.42	76.12
381.63	153.94
381.84	26.96
382.05	145.75
382.261	59.73
382.471	158.03
382.681	137.56
382.891	129.36
383.101	135.51
383.311	67.92
383.521	121.17
383.731	102.74
383.941	143.7
384.151	35.16
384.361	35.16
384.571	125.27
384.781	72.02
384.991	110.93
385.201	149.84
385.411	16.73
385.621	149.84
385.831	-36.52
386.041	43.35
386.251	4.44
386.461	141.65
386.671	22.87
386.881	153.94
387.091	72.02
387.301	63.83
387.511	31.06
387.72	100.69
387.93	125.27
388.14	45.4
388.35	59.73
388.56	76.12
388.769	76.12
388.979	67.92
389.189	8.53
389.399	31.06
389.609	59.73
389.818	59.73
390.028	84.31
390.238	86.36
390.447	92.5
390.657	96.6
390.867	92.5
391.076	2.39
391.286	88.4
391.496	76.12
391.705	49.49
391.915	110.93
392.125	96.6
392.334	125.27
392.544	121.17
392.753	133.46
392.963	117.08
393.172	100.69
393.382	-11.95
393.591	141.65
393.801	16.73
394.01	166.23
394.22	96.6
394.429	153.94
394.639	104.79
394.848	117.08
395.058	115.03
395.267	76.12
395.477	125.27
395.686	29.01
395.895	170.32
396.105	117.08
396.314	92.5
396.524	112.98
396.733	39.25
396.942	119.12
397.152	207.19
397.361	149.84
397.57	178.51
397.78	166.23
397.989	129.36
398.198	176.47
398.407	125.27
398.617	143.7
398.826	110.93
399.035	37.2
399.244	102.74
399.453	176.47
399.663	162.13
399.872	158.03
400.081	26.96
400.29	158.03
400.499	100.69
400.708	166.23
400.917	178.51
401.127	143.7
401.336	125.27
401.545	100.69
401.754	117.08
401.963	219.47
402.172	149.84
402.381	168.27
402.59	158.03
402.799	92.5
403.008	239.95
403.217	221.52
403.426	125.27
403.635	196.95
403.844	151.89
404.053	108.88
404.262	117.08
404.471	227.67
404.68	209.23
404.888	137.56
405.097	213.33
405.306	80.21
405.515	184.66
405.724	135.51
405.933	182.61
406.142	233.81
406.35	213.33
406.559	205.14
406.768	192.85
406.977	289.1
407.185	170.32
407.394	184.66
407.603	211.28
407.812	215.38
408.02	311.63
408.229	252.24
408.438	315.73
408.646	246.1
408.855	280.91
409.064	282.96
409.272	270.67
409.481	371.02
409.69	254.29
409.898	278.87
410.107	360.78
410.315	328.02
410.524	289.1
410.733	436.56
410.941	338.26
411.15	500.05
411.358	358.74
411.567	436.56
411.775	465.23
411.984	444.75
412.192	577.87
412.401	536.91
412.609	565.58
412.818	577.87
413.026	586.06
413.234	508.24
413.443	536.91
413.651	608.59
413.86	665.93
414.068	674.12
414.276	719.18
414.485	698.7
414.693	770.38
414.901	768.33
415.11	762.19
415.318	760.14
415.526	821.58
415.734	889.16
415.943	874.82
416.151	928.07
416.359	919.88
416.567	883.02
416.776	1026.37
416.984	1012.04
417.192	1091.91
417.4	1085.76
417.608	1100.1
417.817	1096
418.025	1237.31
418.233	1280.32
418.441	1186.12
418.649	1251.65
418.857	1374.53
419.065	1558.85
419.273	1411.39
419.481	1462.59
419.689	1452.35
419.897	1702.2
420.105	1538.37
420.313	1724.73
420.521	1808.7
420.729	1790.27
420.937	1732.92
421.145	1919.29
421.353	1984.82
421.561	2152.76
421.769	2163
421.977	2208.05
422.185	2255.15
422.393	2320.69
422.601	2462
422.809	2519.34
423.017	2550.06
423.224	2513.2
423.432	2740.52
423.64	2793.77
423.848	2914.6
424.056	2812.2
424.263	3221.8
424.471	3082.53
424.679	3078.44
424.887	3350.82
425.094	3377.44
425.302	3369.25
425.51	3672.35
425.718	3690.78
425.925	3664.16
426.133	3848.47
426.341	3997.98
426.548	4139.29
426.756	4258.07
426.964	4454.67
427.171	4477.2
427.379	4671.76
427.586	4747.53
427.794	4829.45
428.001	5056.78
428.209	5443.84
428.417	5157.13
428.624	5484.8
428.832	5472.51
429.039	5501.19
429.247	5507.33
429.454	6088.95
429.662	6398.2
429.869	6031.61
430.076	6531.31
430.284	6187.25
430.491	6600.94
430.699	6940.91
430.906	6875.37
431.114	7024.87
431.321	7246.05
431.528	7493.86
431.736	7790.81
431.943	8317.14
432.15	8063.19
432.358	7979.23
432.565	8573.14
432.772	8372.44
432.979	9033.93
433.187	9226.44
433.394	9119.95
433.601	9709.76
433.808	9820.35
434.016	9900.22
434.223	9918.65
434.43	10541.24
434.637	10297.53
434.844	11167.91
435.052	11245.74
435.259	11212.97
435.466	11311.27
435.673	11249.83
435.88	11806.88
436.087	12611.73
436.294	12677.27
436.501	12329.11
436.708	12585.11
436.915	13078.67
437.122	13412.49
437.329	13428.87
437.537	13987.97
437.743	14170.24
437.95	14110.85
438.157	14643.32
438.364	15290.48
438.571	15247.47
438.778	15491.18
438.985	16607.32
439.192	15906.91
439.399	16603.22
439.606	16158.81
439.813	17088.59
440.02	18466.88
440.227	17797.19
440.433	17406.03
440.64	18210.88
440.847	18260.03
441.054	18460.73
441.261	19871.78
441.467	19324.97
441.674	20064.29
441.881	20592.67
442.088	20336.67
442.294	20414.49
442.501	20867.09
442.708	21196.82
442.914	22138.88
443.121	22933.5
443.328	22253.57
443.534	23818.22
443.741	23332.85
443.948	22923.26
444.154	24629.21
444.361	24217.57
444.568	24610.78
444.774	24741.85
444.981	25108.44
445.187	25735.12
445.394	26728.38
445.6	26652.61
445.807	28938.14
446.013	27717.55
446.22	28012.46
446.426	29097.88
446.633	29624.21
446.839	30572.42
447.046	29089.69
447.252	30685.06
447.459	30857.09
447.665	30777.22
447.871	32216.94
448.078	33361.75
448.284	31885.17
448.491	32747.36
448.697	34113.36
448.903	34586.44
449.11	34492.23
449.316	34094.93
449.522	34957.12
449.728	35690.29
449.935	35583.8
450.141	36058.93
450.347	36663.08
450.553	35335.99
450.76	36706.09
450.966	37209.89
451.172	36855.59
451.378	38260.49
451.584	36777.76
451.791	37826.32
451.997	37977.87
452.203	38563.59
452.409	38463.24
452.615	38502.15
452.821	37060.38
453.027	36185.9
453.233	38692.61
453.44	36988.7
453.646	37506.84
453.852	37549.85
454.058	38131.47
454.264	37109.54
454.47	37381.91
454.676	36615.97
454.882	38317.84
455.088	34897.73
455.294	35233.6
455.5	35854.13
455.705	36009.78
455.911	34987.84
456.117	34277.19
456.323	33785.68
456.529	32010.09
456.735	33681.24
456.941	32491.37
457.147	32018.28
457.352	31088.51
457.558	30672.77
457.764	30738.3
457.97	30132.11
458.176	29398.93
458.381	29454.23
458.587	28153.77
458.793	27973.55
458.999	26902.46
459.204	28417.96
459.41	27580.34
459.616	25978.82
459.821	25886.67
460.027	25724.88
460.233	24917.98
460.438	23785.45
460.644	24246.24
460.85	23271.41
461.055	22759.42
461.261	22827
461.466	20817.94
461.672	20105.25
461.878	21891.08
462.083	20285.47
462.289	19949.6
462.494	19619.88
462.7	18778.17
462.905	18303.04
463.111	18921.52
463.316	19114.03
463.522	18589.75
463.727	18804.79
463.932	18741.3
464.138	18061.38
464.343	18403.39
464.549	17813.57
464.754	18288.7
464.959	18184.26
465.165	18155.58
465.37	17338.44
465.575	16924.76
465.781	17336.4
465.986	17737.8
466.191	16863.32
466.397	16574.55
466.602	15771.75
