Data from USB4F104151__84__14-30-35-322.txt Node

Date: Thu Mar 13 14:30:35 EDT 2025
User: louis
Spectrometer: USB4F10415
Trigger mode: 4
Integration Time (sec): 2.500000E-2
Scans to average: 1
Electric dark correction enabled: true
Nonlinearity correction enabled: false
Boxcar width: 0
XAxis mode: Wavelengths
Number of Pixels in Spectrum: 3648
>>>>>Begin Spectral Data<<<<<
178.204	-229.54
178.424	-229.54
178.644	-229.54
178.864	-219.3
179.084	-194.73
179.304	-30.89
179.524	30.55
179.744	-12.46
179.964	8.02
180.184	-47.27
180.404	-49.32
180.624	1.88
180.844	26.45
181.064	20.31
181.283	57.17
181.503	8.02
181.723	-12.46
181.943	-49.32
182.163	53.08
182.383	-28.84
182.602	14.17
182.822	16.21
183.042	28.5
183.262	-4.27
183.482	24.4
183.701	57.17
183.921	34.64
184.141	48.98
184.361	53.08
184.58	42.84
184.8	16.21
185.02	-49.32
185.239	83.8
185.459	24.4
185.679	18.26
185.898	-6.31
186.118	48.98
186.338	36.69
186.557	75.6
186.777	44.88
186.997	24.4
187.216	-69.8
187.436	65.36
187.655	98.13
187.875	98.13
188.095	22.36
188.314	20.31
188.534	65.36
188.753	40.79
188.973	73.56
189.192	67.41
189.412	-47.27
189.631	16.21
189.851	34.64
190.07	57.17
190.29	-86.19
190.509	73.56
190.729	-14.51
190.948	75.6
191.168	173.91
191.387	75.6
191.607	81.75
191.826	34.64
192.045	-24.75
192.265	102.23
192.484	98.13
192.704	57.17
192.923	-73.9
193.142	83.8
193.362	81.75
193.581	48.98
193.8	10.07
194.02	83.8
194.239	116.56
194.458	42.84
194.678	51.03
194.897	34.64
195.116	5.97
195.335	-20.65
195.555	67.41
195.774	12.12
195.993	65.36
196.212	34.64
196.432	-8.36
196.651	26.45
196.87	24.4
197.089	98.13
197.308	12.12
197.528	40.79
197.747	-41.13
197.966	51.03
198.185	59.22
198.404	26.45
198.623	20.31
198.842	81.75
199.062	57.17
199.281	32.6
199.5	8.02
199.719	65.36
199.938	20.31
200.157	-16.55
200.376	42.84
200.595	26.45
200.814	81.75
201.033	36.69
201.252	14.17
201.471	42.84
201.69	24.4
201.909	81.75
202.128	114.52
202.347	77.65
202.566	59.22
202.785	-24.75
203.004	-8.36
203.223	102.23
203.442	-82.09
203.661	-53.42
203.879	40.79
204.098	1.88
204.317	67.41
204.536	40.79
204.755	32.6
204.974	130.9
205.193	-37.03
205.411	-16.55
205.63	61.27
205.849	-6.31
206.068	51.03
206.287	-39.08
206.505	59.22
206.724	32.6
206.943	16.21
207.162	59.22
207.381	-24.75
207.599	3.93
207.818	40.79
208.037	26.45
208.255	-8.36
208.474	57.17
208.693	18.26
208.911	5.97
209.13	18.26
209.349	57.17
209.567	24.4
209.786	53.08
210.005	-10.41
210.223	81.75
210.442	-41.13
210.661	16.21
210.879	-20.65
211.098	24.4
211.316	1.88
211.535	8.02
211.753	59.22
211.972	59.22
212.191	-37.03
212.409	48.98
212.628	-16.55
212.846	-24.75
213.065	44.88
213.283	1.88
213.502	-6.31
213.72	26.45
213.938	65.36
214.157	122.71
214.375	91.99
214.594	36.69
214.812	40.79
215.031	32.6
215.249	34.64
215.467	8.02
215.686	48.98
215.904	61.27
216.122	46.93
216.341	91.99
216.559	53.08
216.778	32.6
216.996	-34.99
217.214	8.02
217.432	48.98
217.651	24.4
217.869	-41.13
218.087	-8.36
218.306	48.98
218.524	69.46
218.742	24.4
218.96	73.56
219.179	-0.17
219.397	14.17
219.615	32.6
219.833	18.26
220.051	-4.27
220.27	3.93
220.488	110.42
220.706	8.02
220.924	20.31
221.142	26.45
221.36	46.93
221.578	55.12
221.796	57.17
222.015	46.93
222.233	51.03
222.451	1.88
222.669	-8.36
222.887	-0.17
223.105	-0.17
223.323	55.12
223.541	-82.09
223.759	-32.94
223.977	34.64
224.195	57.17
224.413	12.12
224.631	124.76
224.849	24.4
225.067	77.65
225.285	-32.94
225.503	-22.7
225.721	-30.89
225.939	87.89
226.157	-6.31
226.375	141.14
226.592	-18.6
226.81	-22.7
227.028	67.41
227.246	-6.31
227.464	-8.36
227.682	63.32
227.9	34.64
228.117	8.02
228.335	77.65
228.553	-10.41
228.771	48.98
228.989	67.41
229.206	10.07
229.424	-6.31
229.642	34.64
229.86	48.98
230.077	106.32
230.295	59.22
230.513	122.71
230.731	20.31
230.948	51.03
231.166	73.56
231.384	16.21
231.601	-14.51
231.819	48.98
232.037	-16.55
232.254	12.12
232.472	22.36
232.689	-49.32
232.907	42.84
233.125	44.88
233.342	-6.31
233.56	44.88
233.777	-0.17
233.995	42.84
234.213	79.7
234.43	94.04
234.648	-14.51
234.865	-8.36
235.083	28.5
235.3	-47.27
235.518	57.17
235.735	57.17
235.953	132.95
236.17	26.45
236.388	28.5
236.605	81.75
236.822	71.51
237.04	53.08
237.257	120.66
237.475	-14.51
237.692	-22.7
237.909	28.5
238.127	-6.31
238.344	77.65
238.562	98.13
238.779	53.08
238.996	-47.27
239.214	1.88
239.431	-18.6
239.648	48.98
239.865	48.98
240.083	1.88
240.3	-0.17
240.517	-77.99
240.735	-4.27
240.952	96.08
241.169	51.03
241.386	16.21
241.603	-14.51
241.821	5.97
242.038	94.04
242.255	67.41
242.472	16.21
242.689	48.98
242.907	20.31
243.124	22.36
243.341	34.64
243.558	-49.32
243.775	-37.03
243.992	-90.28
244.209	-16.55
244.426	110.42
244.643	98.13
244.86	26.45
245.078	48.98
245.295	51.03
245.512	51.03
245.729	59.22
245.946	16.21
246.163	53.08
246.38	24.4
246.597	106.32
246.814	65.36
247.031	16.21
247.248	-0.17
247.464	24.4
247.681	40.79
247.898	87.89
248.115	77.65
248.332	3.93
248.549	24.4
248.766	124.76
248.983	173.91
249.2	104.28
249.417	65.36
249.633	48.98
249.85	61.27
250.067	18.26
250.284	-53.42
250.501	46.93
250.717	53.08
250.934	-26.79
251.151	40.79
251.368	71.51
251.585	-14.51
251.801	26.45
252.018	18.26
252.235	22.36
252.451	20.31
252.668	24.4
252.885	28.5
253.102	67.41
253.318	-30.89
253.535	12.12
253.752	77.65
253.968	-8.36
254.185	-47.27
254.401	53.08
254.618	61.27
254.835	26.45
255.051	40.79
255.268	69.46
255.484	81.75
255.701	-0.17
255.917	16.21
256.134	8.02
256.351	10.07
256.567	12.12
256.784	-55.47
257	28.5
257.217	114.52
257.433	-22.7
257.65	81.75
257.866	24.4
258.082	-65.71
258.299	32.6
258.515	36.69
258.732	40.79
258.948	40.79
259.165	77.65
259.381	91.99
259.597	71.51
259.814	65.36
260.03	34.64
260.246	32.6
260.463	75.6
260.679	81.75
260.895	-32.94
261.112	28.5
261.328	30.55
261.544	30.55
261.761	128.85
261.977	-4.27
262.193	-16.55
262.409	16.21
262.626	89.94
262.842	34.64
263.058	-34.99
263.274	104.28
263.49	5.97
263.707	143.19
263.923	53.08
264.139	-6.31
264.355	75.6
264.571	57.17
264.787	89.94
265.004	-0.17
265.22	34.64
265.436	24.4
265.652	-30.89
265.868	28.5
266.084	-0.17
266.3	48.98
266.516	8.02
266.732	83.8
266.948	8.02
267.164	-24.75
267.38	-49.32
267.596	3.93
267.812	10.07
268.028	53.08
268.244	32.6
268.46	8.02
268.676	-65.71
268.892	57.17
269.108	18.26
269.324	8.02
269.54	-18.6
269.756	116.56
269.972	-77.99
270.188	24.4
270.403	18.26
270.619	16.21
270.835	30.55
271.051	26.45
271.267	83.8
271.483	44.88
271.698	1.88
271.914	34.64
272.13	57.17
272.346	26.45
272.562	8.02
272.777	42.84
272.993	51.03
273.209	-14.51
273.425	96.08
273.64	-32.94
273.856	57.17
274.072	12.12
274.287	3.93
274.503	59.22
274.719	12.12
274.934	36.69
275.15	59.22
275.366	12.12
275.581	1.88
275.797	20.31
276.012	40.79
276.228	73.56
276.444	30.55
276.659	89.94
276.875	-8.36
277.09	1.88
277.306	30.55
277.521	98.13
277.737	65.36
277.952	16.21
278.168	63.32
278.383	-82.09
278.599	75.6
278.814	-12.46
279.03	-0.17
279.245	75.6
279.461	36.69
279.676	-30.89
279.892	-53.42
280.107	1.88
280.322	32.6
280.538	59.22
280.753	40.79
280.969	44.88
281.184	36.69
281.399	122.71
281.615	104.28
281.83	16.21
282.045	-37.03
282.26	42.84
282.476	61.27
282.691	44.88
282.906	-20.65
283.122	91.99
283.337	67.41
283.552	59.22
283.767	-55.47
283.983	53.08
284.198	12.12
284.413	10.07
284.628	-37.03
284.843	73.56
285.058	16.21
285.274	24.4
285.489	-2.22
285.704	114.52
285.919	-45.23
286.134	75.6
286.349	18.26
286.564	-22.7
286.779	30.55
286.995	53.08
287.21	3.93
287.425	44.88
287.64	12.12
287.855	67.41
288.07	-4.27
288.285	69.46
288.5	-45.23
288.715	53.08
288.93	32.6
289.145	-20.65
289.36	65.36
289.575	-30.89
289.79	75.6
290.004	-0.17
290.219	89.94
290.434	42.84
290.649	-20.65
290.864	67.41
291.079	53.08
291.294	16.21
291.509	-18.6
291.724	91.99
291.938	48.98
292.153	16.21
292.368	32.6
292.583	32.6
292.798	102.23
293.012	-24.75
293.227	61.27
293.442	-16.55
293.657	16.21
293.871	24.4
294.086	100.18
294.301	94.04
294.516	63.32
294.73	26.45
294.945	24.4
295.16	-12.46
295.374	40.79
295.589	-34.99
295.804	-26.79
296.018	83.8
296.233	51.03
296.447	30.55
296.662	-20.65
296.877	67.41
297.091	57.17
297.306	-6.31
297.52	30.55
297.735	65.36
297.949	-4.27
298.164	-75.95
298.378	77.65
298.593	18.26
298.807	-8.36
299.022	-8.36
299.236	100.18
299.451	-63.66
299.665	-0.17
299.88	-8.36
300.094	71.51
300.309	-0.17
300.523	-49.32
300.737	-51.37
300.952	12.12
301.166	59.22
301.381	-37.03
301.595	-4.27
301.809	-22.7
302.024	83.8
302.238	-2.22
302.452	73.56
302.667	67.41
302.881	75.6
303.095	-8.36
303.309	98.13
303.524	-14.51
303.738	108.37
303.952	-0.17
304.166	81.75
304.381	-18.6
304.595	67.41
304.809	22.36
305.023	-20.65
305.237	28.5
305.452	-37.03
305.666	98.13
305.88	14.17
306.094	-34.99
306.308	24.4
306.522	85.84
306.736	-24.75
306.95	36.69
307.164	-14.51
307.379	8.02
307.593	42.84
307.807	8.02
308.021	-6.31
308.235	-22.7
308.449	-10.41
308.663	30.55
308.877	147.28
309.091	-0.17
309.305	122.71
309.519	14.17
309.733	118.61
309.947	-39.08
310.161	8.02
310.374	36.69
310.588	85.84
310.802	-4.27
311.016	40.79
311.23	-12.46
311.444	5.97
311.658	24.4
311.872	100.18
312.085	16.21
312.299	59.22
312.513	24.4
312.727	24.4
312.941	42.84
313.154	73.56
313.368	34.64
313.582	-2.22
313.796	48.98
314.009	32.6
314.223	8.02
314.437	-18.6
314.651	8.02
314.864	51.03
315.078	12.12
315.292	32.6
315.505	38.74
315.719	24.4
315.933	20.31
316.146	-28.84
316.36	24.4
316.573	48.98
316.787	65.36
317.001	12.12
317.214	61.27
317.428	-12.46
317.641	14.17
317.855	75.6
318.068	32.6
318.282	79.7
318.495	128.85
318.709	96.08
318.922	22.36
319.136	126.8
319.349	12.12
319.563	36.69
319.776	51.03
319.99	-90.28
320.203	46.93
320.417	-37.03
320.63	44.88
320.843	51.03
321.057	75.6
321.27	28.5
321.483	-22.7
321.697	61.27
321.91	10.07
322.124	34.64
322.337	135
322.55	20.31
322.763	98.13
322.977	-8.36
323.19	61.27
323.403	42.84
323.617	28.5
323.83	-32.94
324.043	-10.41
324.256	157.52
324.469	42.84
324.683	69.46
324.896	110.42
325.109	16.21
325.322	-26.79
325.535	83.8
325.748	16.21
325.962	-49.32
326.175	59.22
326.388	102.23
326.601	48.98
326.814	-28.84
327.027	-32.94
327.24	100.18
327.453	-24.75
327.666	51.03
327.879	-28.84
328.092	53.08
328.305	55.12
328.518	-8.36
328.731	-10.41
328.944	8.02
329.157	28.5
329.37	10.07
329.583	102.23
329.796	116.56
330.009	-24.75
330.222	40.79
330.435	26.45
330.648	-32.94
330.861	51.03
331.073	-8.36
331.286	65.36
331.499	44.88
331.712	-47.27
331.925	40.79
332.138	40.79
332.35	94.04
332.563	-16.55
332.776	61.27
332.989	10.07
333.202	-0.17
333.414	5.97
333.627	32.6
333.84	65.36
334.053	61.27
334.265	1.88
334.478	16.21
334.691	40.79
334.903	44.88
335.116	-53.42
335.329	24.4
335.541	-8.36
335.754	108.37
335.966	-8.36
336.179	65.36
336.392	40.79
336.604	69.46
336.817	26.45
337.029	46.93
337.242	53.08
337.454	40.79
337.667	8.02
337.88	73.56
338.092	12.12
338.305	34.64
338.517	-0.17
338.729	81.75
338.942	116.56
339.154	-2.22
339.367	1.88
339.579	32.6
339.792	48.98
340.004	110.42
340.217	-22.7
340.429	100.18
340.641	51.03
340.854	26.45
341.066	38.74
341.278	18.26
341.491	-8.36
341.703	44.88
341.915	-8.36
342.128	26.45
342.34	100.18
342.552	77.65
342.764	44.88
342.977	100.18
343.189	53.08
343.401	51.03
343.613	5.97
343.826	-2.22
344.038	32.6
344.25	132.95
344.462	91.99
344.674	-12.46
344.886	65.36
345.099	139.09
345.311	16.21
345.523	106.32
345.735	-8.36
345.947	59.22
346.159	94.04
346.371	28.5
346.583	-4.27
346.795	102.23
347.007	1.88
347.219	-8.36
347.431	42.84
347.643	83.8
347.855	5.97
348.067	8.02
348.279	14.17
348.491	81.75
348.703	61.27
348.915	48.98
349.127	18.26
349.339	55.12
349.551	10.07
349.763	112.47
349.975	53.08
350.187	79.7
350.399	53.08
350.61	91.99
350.822	-20.65
351.034	32.6
351.246	57.17
351.458	55.12
351.669	65.36
351.881	18.26
352.093	61.27
352.305	100.18
352.517	85.84
352.728	100.18
352.94	38.74
353.152	104.28
353.363	34.64
353.575	16.21
353.787	114.52
353.999	16.21
354.21	48.98
354.422	28.5
354.633	-6.31
354.845	51.03
355.057	20.31
355.268	44.88
355.48	81.75
355.692	24.4
355.903	-12.46
356.115	-32.94
356.326	24.4
356.538	106.32
356.749	69.46
356.961	130.9
357.172	-0.17
357.384	-22.7
357.595	91.99
357.807	26.45
358.018	55.12
358.23	40.79
358.441	46.93
358.653	102.23
358.864	67.41
359.075	16.21
359.287	77.65
359.498	46.93
359.709	51.03
359.921	40.79
360.132	46.93
360.344	12.12
360.555	-14.51
360.766	24.4
360.977	-6.31
361.189	89.94
361.4	73.56
361.611	48.98
361.823	40.79
362.034	44.88
362.245	-41.13
362.456	28.5
362.667	65.36
362.879	57.17
363.09	143.19
363.301	67.41
363.512	106.32
363.723	87.89
363.935	65.36
364.146	89.94
364.357	38.74
364.568	137.04
364.779	14.17
364.99	71.51
365.201	-28.84
365.412	53.08
365.623	8.02
365.834	48.98
366.045	16.21
366.256	83.8
366.467	85.84
366.678	-22.7
366.889	110.42
367.1	1.88
367.311	48.98
367.522	48.98
367.733	83.8
367.944	163.67
368.155	-8.36
368.366	12.12
368.577	143.19
368.788	116.56
368.999	-6.31
369.209	122.71
369.42	106.32
369.631	171.86
369.842	-0.17
370.053	57.17
370.264	38.74
370.474	10.07
370.685	48.98
370.896	67.41
371.107	36.69
371.317	28.5
371.528	10.07
371.739	34.64
371.95	57.17
372.16	102.23
372.371	-6.31
372.582	89.94
372.792	59.22
373.003	75.6
373.214	20.31
373.424	1.88
373.635	24.4
373.846	91.99
374.056	59.22
374.267	-37.03
374.477	81.75
374.688	34.64
374.898	28.5
375.109	3.93
375.319	8.02
375.53	79.7
375.74	34.64
375.951	75.6
376.161	40.79
376.372	71.51
376.582	10.07
376.793	85.84
377.003	-0.17
377.214	106.32
377.424	24.4
377.635	40.79
377.845	14.17
378.055	110.42
378.266	89.94
378.476	12.12
378.686	77.65
378.897	-22.7
379.107	63.32
379.317	106.32
379.528	42.84
379.738	81.75
379.948	55.12
380.158	26.45
380.369	32.6
380.579	108.37
380.789	-39.08
380.999	57.17
381.21	147.28
381.42	157.52
381.63	22.36
381.84	75.6
382.05	8.02
382.261	98.13
382.471	81.75
382.681	40.79
382.891	94.04
383.101	8.02
383.311	96.08
383.521	20.31
383.731	122.71
383.941	24.4
384.151	8.02
384.361	42.84
384.571	67.41
384.781	112.47
384.991	132.95
385.201	83.8
385.411	89.94
385.621	85.84
385.831	53.08
386.041	71.51
386.251	104.28
386.461	75.6
386.671	18.26
386.881	53.08
387.091	65.36
387.301	53.08
387.511	-32.94
387.72	40.79
387.93	65.36
388.14	-14.51
388.35	61.27
388.56	53.08
388.769	98.13
388.979	59.22
389.189	12.12
389.399	87.89
389.609	106.32
389.818	98.13
390.028	65.36
390.238	81.75
390.447	51.03
390.657	57.17
390.867	48.98
391.076	106.32
391.286	26.45
391.496	65.36
391.705	65.36
391.915	89.94
392.125	132.95
392.334	89.94
392.544	79.7
392.753	63.32
392.963	20.31
393.172	57.17
393.382	87.89
393.591	130.9
393.801	122.71
394.01	98.13
394.22	16.21
394.429	32.6
394.639	83.8
394.848	124.76
395.058	57.17
395.267	12.12
395.477	108.37
395.686	83.8
395.895	145.24
396.105	110.42
396.314	89.94
396.524	81.75
396.733	106.32
396.942	89.94
397.152	106.32
397.361	184.15
397.57	98.13
397.78	40.79
397.989	34.64
398.198	135
398.407	51.03
398.617	81.75
398.826	106.32
399.035	57.17
399.244	132.95
399.453	73.56
399.663	89.94
399.872	75.6
400.081	147.28
400.29	126.8
400.499	14.17
400.708	165.71
400.917	100.18
401.127	182.1
401.336	40.79
401.545	151.38
401.754	153.43
401.963	147.28
402.172	102.23
402.381	81.75
402.59	98.13
402.799	132.95
403.008	126.8
403.217	155.47
403.426	135
403.635	61.27
403.844	55.12
404.053	147.28
404.262	126.8
404.471	157.52
404.68	175.95
404.888	188.24
405.097	175.95
405.306	163.67
405.515	126.8
405.724	196.43
405.933	278.35
406.142	67.41
406.35	212.82
406.559	221.01
406.768	192.34
406.977	202.58
407.185	229.2
407.394	196.43
407.603	139.09
407.812	225.11
408.02	192.34
408.229	311.12
408.438	286.54
408.646	208.72
408.855	294.74
409.064	261.97
409.272	253.78
409.481	311.12
409.69	231.25
409.898	231.25
410.107	302.93
410.315	343.89
410.524	356.18
410.733	307.02
410.941	270.16
411.15	466.77
411.358	380.75
411.567	436.05
411.775	368.46
411.984	434
412.192	503.63
412.401	417.61
412.609	487.25
412.818	483.15
413.026	487.25
413.234	542.54
413.443	485.2
413.651	571.21
413.86	583.5
414.068	640.84
414.276	614.22
414.485	618.32
414.693	704.33
414.901	737.1
415.11	663.37
415.318	640.84
415.526	733
415.734	796.49
415.943	862.02
416.151	888.65
416.359	886.6
416.567	911.18
416.776	950.09
416.984	933.7
417.192	1007.43
417.4	974.66
417.608	991.05
417.817	1109.83
418.025	1216.32
418.233	1288
418.441	1144.64
418.649	1199.94
418.857	1337.15
419.065	1318.72
419.273	1318.72
419.481	1484.61
419.689	1484.61
419.897	1519.42
420.105	1490.75
420.313	1713.98
420.521	1695.55
420.729	1728.31
420.937	1804.09
421.145	1861.43
421.353	1847.1
421.561	2055.99
421.769	1959.74
421.977	2072.37
422.185	2053.94
422.393	2318.13
422.601	2246.45
422.809	2383.66
423.017	2502.45
423.224	2449.2
423.432	2514.73
423.64	2615.09
423.848	2799.4
424.056	2834.22
424.263	2959.14
424.471	2809.64
424.679	3098.41
424.887	3155.75
425.094	3225.38
425.302	3278.63
425.51	3387.17
425.718	3530.53
425.925	3583.77
426.133	3661.6
426.341	3845.91
426.548	4132.63
426.756	4122.39
426.964	3987.22
427.171	4294.42
427.379	4486.93
427.586	4380.43
427.794	4585.23
428.001	4898.57
428.209	5003.02
428.417	4988.68
428.624	5379.84
428.832	5236.49
429.039	5355.27
429.247	5340.93
429.454	5818.11
429.662	6289.14
429.869	5752.57
430.076	6160.12
430.284	6051.58
430.491	6199.03
430.699	6717.17
430.906	6692.59
431.114	6629.1
431.321	7085.8
431.528	6999.79
431.736	7605.99
431.943	7667.42
432.15	7585.51
432.358	7706.34
432.565	8249.05
432.772	8095.45
432.979	8548.05
433.187	8740.56
433.394	8666.83
433.601	9285.32
433.808	9359.05
434.016	9101
434.223	9805.5
434.43	10327.74
434.637	10020.54
434.844	10634.93
435.052	10880.69
435.259	10581.68
435.466	10690.23
435.673	10620.6
435.88	11478.69
436.087	12088.99
436.294	12246.68
436.501	11736.74
436.708	12054.17
436.915	12533.4
437.122	12945.04
437.329	12754.58
437.537	13063.82
437.743	13502.09
437.95	13393.54
438.157	14376.57
438.364	14714.48
438.571	14624.37
438.778	14710.39
438.985	15797.86
439.192	15433.32
439.399	15752.8
439.606	15404.65
439.813	16109.15
440.02	17262.16
440.227	16973.39
440.433	16866.9
440.64	17550.92
440.847	17401.42
441.054	17862.21
441.261	18939.44
441.467	18646.58
441.674	19029.55
441.881	19396.14
442.088	19545.64
442.294	19326.51
442.501	20012.58
442.708	20205.09
442.914	21011.99
443.121	21882.38
443.328	21579.28
443.534	22765.05
443.741	22300.16
443.948	22132.23
444.154	23483.89
444.361	23506.41
444.568	23490.03
444.774	23584.24
444.981	23860.71
445.187	24499.68
445.394	25707.98
445.6	25099.73
445.807	27313.59
446.013	26383.81
446.22	26928.57
446.426	27944.36
446.633	28108.2
446.839	29128.09
447.046	27991.47
447.252	29543.83
447.459	29355.41
447.665	29269.4
447.871	30600.58
448.078	32111.98
448.284	30383.49
448.491	31630.71
448.697	32576.87
448.903	32744.8
449.11	33021.28
449.316	32490.85
449.522	33398.1
449.728	33912.14
449.935	34207.05
450.141	34350.41
450.347	35034.43
450.553	34063.69
450.76	34321.74
450.966	35618.1
451.172	35272
451.378	35929.39
451.584	35401.02
451.791	36295.98
451.997	35884.34
452.203	36625.7
452.409	37068.06
452.615	36291.88
452.821	34995.52
453.027	34549.06
453.233	36767.01
453.44	35384.63
453.646	35558.71
453.852	35841.33
454.058	36238.64
454.264	34798.91
454.47	35427.64
454.676	34768.19
454.882	36238.64
455.088	32879.97
455.294	33439.06
455.5	33518.93
455.705	34362.7
455.911	32947.55
456.117	32079.21
456.323	31776.11
456.529	30006.67
456.735	31450.49
456.941	30846.33
457.147	30147.98
457.352	29230.49
457.558	28820.89
457.764	28759.45
457.97	28376.48
458.176	27807.15
458.381	27737.52
458.587	26334.66
458.793	26387.91
458.999	24626.65
459.204	26707.39
459.41	25816.52
459.616	24198.63
459.821	24352.23
460.027	24122.85
460.233	23713.26
460.438	22265.35
460.644	22822.39
460.85	21759.5
461.055	21300.75
461.261	21194.26
461.466	19885.61
461.672	18898.48
461.878	20391.45
462.083	19025.46
462.289	18816.57
462.494	18384.44
462.7	17587.78
462.905	17260.11
463.111	17829.45
463.316	18099.78
463.522	17546.83
463.727	17753.67
463.932	17391.18
464.138	17366.6
464.343	17139.28
464.549	16961.11
464.754	17491.53
464.959	17170
465.165	16973.39
465.37	16191.07
465.575	16031.33
465.781	16477.79
465.986	16887.38
466.191	15943.27
466.397	15578.73
466.602	14894.71
466.807	15312.49
467.012	15566.44
467.218	15373.93
467.423	15529.58
467.628	15418.99
