Data from USB4F104151__283__14-34-46-350.txt Node

Date: Thu Mar 13 14:34:46 EDT 2025
User: louis
Spectrometer: USB4F10415
Trigger mode: 4
Integration Time (sec): 2.500000E-2
Scans to average: 1
Electric dark correction enabled: true
Nonlinearity correction enabled: false
Boxcar width: 0
XAxis mode: Wavelengths
Number of Pixels in Spectrum: 3648
>>>>>Begin Spectral Data<<<<<
178.204	-159.57
178.424	-159.57
178.644	-159.57
178.864	-169.81
179.084	-245.59
179.304	34.99
179.524	49.32
179.744	-63.32
179.964	-22.36
180.184	30.89
180.404	2.22
180.624	37.03
180.844	18.6
181.064	-18.26
181.283	-26.45
181.503	-36.69
181.723	-5.97
181.943	-55.12
182.163	2.22
182.383	-18.26
182.602	96.43
182.822	67.75
183.042	51.37
183.262	-63.32
183.482	-28.5
183.701	26.79
183.921	-102.23
184.141	-20.31
184.361	-73.56
184.58	45.23
184.8	32.94
185.02	16.55
185.239	-24.4
185.459	20.65
185.679	26.79
185.898	-79.7
186.118	20.65
186.338	-110.42
186.557	-1.88
186.777	14.51
186.997	94.38
187.216	45.23
187.436	34.99
187.655	-16.21
187.875	53.42
188.095	94.38
188.314	86.19
188.534	75.95
188.753	-28.5
188.973	45.23
189.192	18.6
189.412	2.22
189.631	-1.88
189.851	2.22
190.07	-14.17
190.29	-14.17
190.509	-46.93
190.729	10.41
190.948	-30.55
191.168	92.33
191.387	26.79
191.607	-71.51
191.826	65.71
192.045	18.6
192.265	0.17
192.484	53.42
192.704	-14.17
192.923	-46.93
193.142	71.85
193.362	-30.55
193.581	77.99
193.8	0.17
194.02	43.18
194.239	-81.75
194.458	-69.46
194.678	30.89
194.897	2.22
195.116	-42.84
195.335	32.94
195.555	45.23
195.774	71.85
195.993	43.18
196.212	16.55
196.432	-108.37
196.651	-55.12
196.87	-1.88
197.089	153.77
197.308	84.14
197.528	-12.12
197.747	-67.41
197.966	8.36
198.185	57.51
198.404	-32.6
198.623	-1.88
198.842	26.79
199.062	4.27
199.281	104.62
199.5	4.27
199.719	57.51
199.938	26.79
200.157	102.57
200.376	47.27
200.595	-22.36
200.814	34.99
201.033	10.41
201.252	22.7
201.471	18.6
201.69	61.61
201.909	-1.88
202.128	45.23
202.347	-5.97
202.566	47.27
202.785	-1.88
203.004	-36.69
203.223	65.71
203.442	-5.97
203.661	16.55
203.879	-46.93
204.098	43.18
204.317	-83.8
204.536	75.95
204.755	8.36
204.974	22.7
205.193	34.99
205.411	80.04
205.63	61.61
205.849	16.55
206.068	-55.12
206.287	-10.07
206.505	14.51
206.724	-30.55
206.943	10.41
207.162	-3.93
207.381	16.55
207.599	20.65
207.818	84.14
208.037	-12.12
208.255	-44.88
208.474	10.41
208.693	-42.84
208.911	92.33
209.13	6.31
209.349	18.6
209.567	-1.88
209.786	14.51
210.005	34.99
210.223	28.84
210.442	-44.88
210.661	129.19
210.879	2.22
211.098	-14.17
211.316	-1.88
211.535	-36.69
211.753	-30.55
211.972	-5.97
212.191	-36.69
212.409	37.03
212.628	14.51
212.846	-12.12
213.065	67.75
213.283	43.18
213.502	102.57
213.72	34.99
213.938	43.18
214.157	-30.55
214.375	20.65
214.594	-5.97
214.812	2.22
215.031	37.03
215.249	53.42
215.467	26.79
215.686	26.79
215.904	30.89
216.122	30.89
216.341	-16.21
216.559	10.41
216.778	69.8
216.996	-5.97
217.214	12.46
217.432	-22.36
217.651	-20.31
217.869	18.6
218.087	-53.08
218.306	-38.74
218.524	28.84
218.742	-116.56
218.96	12.46
219.179	34.99
219.397	22.7
219.615	59.56
219.833	34.99
220.051	-59.22
220.27	18.6
220.488	-12.12
220.706	4.27
220.924	16.55
221.142	-5.97
221.36	-38.74
221.578	-24.4
221.796	0.17
222.015	32.94
222.233	4.27
222.451	57.51
222.669	4.27
222.887	6.31
223.105	-36.69
223.323	-40.79
223.541	-30.55
223.759	-1.88
223.977	71.85
224.195	26.79
224.413	-24.4
224.631	-14.17
224.849	-18.26
225.067	65.71
225.285	2.22
225.503	55.47
225.721	-22.36
225.939	59.56
226.157	6.31
226.375	145.58
226.592	71.85
226.81	30.89
227.028	-18.26
227.246	77.99
227.464	-36.69
227.682	73.9
227.9	12.46
228.117	67.75
228.335	-30.55
228.553	49.32
228.771	77.99
228.989	-22.36
229.206	2.22
229.424	-38.74
229.642	-98.13
229.86	2.22
230.077	-5.97
230.295	18.6
230.513	4.27
230.731	-5.97
230.948	-18.26
231.166	71.85
231.384	2.22
231.601	-5.97
231.819	55.47
232.037	-12.12
232.254	8.36
232.472	-51.03
232.689	4.27
232.907	47.27
233.125	12.46
233.342	10.41
233.56	-20.31
233.777	-83.8
233.995	22.7
234.213	92.33
234.43	-10.07
234.648	22.7
234.865	-14.17
235.083	59.56
235.3	-14.17
235.518	53.42
235.735	2.22
235.953	80.04
236.17	-22.36
236.388	0.17
236.605	20.65
236.822	59.56
237.04	26.79
237.257	45.23
237.475	-38.74
237.692	14.51
237.909	2.22
238.127	-30.55
238.344	-14.17
238.562	59.56
238.779	12.46
238.996	-5.97
239.214	-1.88
239.431	51.37
239.648	-14.17
239.865	108.71
240.083	65.71
240.3	-10.07
240.517	12.46
240.735	22.7
240.952	10.41
241.169	108.71
241.386	26.79
241.603	14.51
241.821	10.41
242.038	37.03
242.255	-12.12
242.472	24.75
242.689	26.79
242.907	43.18
243.124	-46.93
243.341	84.14
243.558	10.41
243.775	-14.17
243.992	-34.64
244.209	4.27
244.426	51.37
244.643	51.37
244.86	-1.88
245.078	43.18
245.295	63.66
245.512	-28.5
245.729	51.37
245.946	-12.12
246.163	-3.93
246.38	-14.17
246.597	26.79
246.814	-46.93
247.031	2.22
247.248	-14.17
247.464	10.41
247.681	2.22
247.898	34.99
248.115	18.6
248.332	14.51
248.549	63.66
248.766	153.77
248.983	-1.88
249.2	-5.97
249.417	18.6
249.633	-10.07
249.85	-12.12
250.067	-12.12
250.284	10.41
250.501	-38.74
250.717	16.55
250.934	-14.17
251.151	-8.02
251.368	-38.74
251.585	51.37
251.801	-26.45
252.018	10.41
252.235	51.37
252.451	12.46
252.668	-22.36
252.885	37.03
253.102	-1.88
253.318	6.31
253.535	69.8
253.752	-38.74
253.968	-137.04
254.185	6.31
254.401	-14.17
254.618	43.18
254.835	4.27
255.051	30.89
255.268	12.46
255.484	90.28
255.701	10.41
255.917	43.18
256.134	-16.21
256.351	20.65
256.567	-55.12
256.784	45.23
257	-28.5
257.217	37.03
257.433	-3.93
257.65	34.99
257.866	10.41
258.082	2.22
258.299	-59.22
258.515	59.56
258.732	-81.75
258.948	-59.22
259.165	10.41
259.381	-28.5
259.597	61.61
259.814	4.27
260.03	-30.55
260.246	59.56
260.463	-24.4
260.679	69.8
260.895	41.13
261.112	39.08
261.328	-22.36
261.544	-87.89
261.761	75.95
261.977	-36.69
262.193	59.56
262.409	10.41
262.626	26.79
262.842	116.9
263.058	20.65
263.274	92.33
263.49	-1.88
263.707	73.9
263.923	12.46
264.139	-44.88
264.355	51.37
264.571	26.79
264.787	28.84
265.004	-26.45
265.22	26.79
265.436	16.55
265.652	43.18
265.868	6.31
266.084	-28.5
266.3	26.79
266.516	24.75
266.732	-30.55
266.948	26.79
267.164	14.51
267.38	2.22
267.596	57.51
267.812	104.62
268.028	-69.46
268.244	-30.55
268.46	-16.21
268.676	-38.74
268.892	-20.31
269.108	-55.12
269.324	-26.45
269.54	28.84
269.756	47.27
269.972	-34.64
270.188	32.94
270.403	-10.07
270.619	22.7
270.835	8.36
271.051	37.03
271.267	-18.26
271.483	75.95
271.698	26.79
271.914	-1.88
272.13	39.08
272.346	16.55
272.562	18.6
272.777	37.03
272.993	-5.97
273.209	-12.12
273.425	-55.12
273.64	-71.51
273.856	6.31
274.072	-83.8
274.287	-71.51
274.503	-14.17
274.719	69.8
274.934	-63.32
275.15	6.31
275.366	32.94
275.581	-44.88
275.797	-5.97
276.012	-24.4
276.228	2.22
276.444	-18.26
276.659	92.33
276.875	47.27
277.09	-22.36
277.306	-10.07
277.521	59.56
277.737	41.13
277.952	55.47
278.168	34.99
278.383	106.67
278.599	-12.12
278.814	84.14
279.03	10.41
279.245	20.65
279.461	4.27
279.676	53.42
279.892	-55.12
280.107	-38.74
280.322	6.31
280.538	6.31
280.753	0.17
280.969	-5.97
281.184	-34.64
281.399	149.67
281.615	41.13
281.83	20.65
282.045	-38.74
282.26	-59.22
282.476	-61.27
282.691	30.89
282.906	24.75
283.122	-46.93
283.337	-51.03
283.552	84.14
283.767	2.22
283.983	20.65
284.198	-5.97
284.413	18.6
284.628	22.7
284.843	47.27
285.058	77.99
285.274	-63.32
285.489	26.79
285.704	-3.93
285.919	77.99
286.134	-12.12
286.349	-30.55
286.564	59.56
286.779	-30.55
286.995	14.51
287.21	30.89
287.425	-8.02
287.64	-26.45
287.855	55.47
288.07	-28.5
288.285	39.08
288.5	10.41
288.715	14.51
288.93	-5.97
289.145	-14.17
289.36	34.99
289.575	-44.88
289.79	37.03
290.004	-3.93
290.219	69.8
290.434	-79.7
290.649	-18.26
290.864	34.99
291.079	45.23
291.294	41.13
291.509	10.41
291.724	41.13
291.938	-30.55
292.153	10.41
292.368	10.41
292.583	39.08
292.798	-51.03
293.012	2.22
293.227	67.75
293.442	53.42
293.657	121
293.871	94.38
294.086	-36.69
294.301	84.14
294.516	10.41
294.73	47.27
294.945	-10.07
295.16	-1.88
295.374	84.14
295.589	77.99
295.804	20.65
296.018	51.37
296.233	-10.07
296.447	26.79
296.662	10.41
296.877	-38.74
297.091	51.37
297.306	8.36
297.52	69.8
297.735	80.04
297.949	-40.79
298.164	26.79
298.378	4.27
298.593	34.99
298.807	-22.36
299.022	43.18
299.236	26.79
299.451	69.8
299.665	100.52
299.88	-61.27
300.094	-5.97
300.309	92.33
300.523	6.31
300.737	-14.17
300.952	26.79
301.166	2.22
301.381	-36.69
301.595	45.23
301.809	-46.93
302.024	-30.55
302.238	-14.17
302.452	26.79
302.667	86.19
302.881	67.75
303.095	53.42
303.309	39.08
303.524	-12.12
303.738	-10.07
303.952	-55.12
304.166	4.27
304.381	-18.26
304.595	41.13
304.809	-36.69
305.023	37.03
305.237	-20.31
305.452	-38.74
305.666	14.51
305.88	10.41
306.094	-14.17
306.308	37.03
306.522	-3.93
306.736	53.42
306.95	34.99
307.164	30.89
307.379	-55.12
307.593	59.56
307.807	30.89
308.021	47.27
308.235	18.6
308.449	-14.17
308.663	10.41
308.877	34.99
309.091	-3.93
309.305	61.61
309.519	-14.17
309.733	2.22
309.947	-51.03
310.161	-5.97
310.374	6.31
310.588	104.62
310.802	-22.36
311.016	-10.07
311.23	32.94
311.444	49.32
311.658	4.27
311.872	34.99
312.085	41.13
312.299	59.56
312.513	57.51
312.727	-20.31
312.941	-67.41
313.154	84.14
313.368	12.46
313.582	-26.45
313.796	-32.6
314.009	-3.93
314.223	14.51
314.437	34.99
314.651	20.65
314.864	-12.12
315.078	-38.74
315.292	-36.69
315.505	-30.55
315.719	26.79
315.933	-44.88
316.146	-22.36
316.36	-38.74
316.573	47.27
316.787	-63.32
317.001	26.79
317.214	63.66
317.428	6.31
317.641	-1.88
317.855	12.46
318.068	2.22
318.282	-3.93
318.495	22.7
318.709	4.27
318.922	-8.02
319.136	118.95
319.349	55.47
319.563	6.31
319.776	-10.07
319.99	-20.31
320.203	30.89
320.417	-53.08
320.63	6.31
320.843	88.23
321.057	4.27
321.27	2.22
321.483	18.6
321.697	55.47
321.91	-46.93
322.124	-18.26
322.337	51.37
322.55	-16.21
322.763	8.36
322.977	24.75
323.19	-46.93
323.403	22.7
323.617	26.79
323.83	34.99
324.043	14.51
324.256	12.46
324.469	-91.99
324.683	18.6
324.896	-61.27
325.109	-12.12
325.322	26.79
325.535	51.37
325.748	67.75
325.962	10.41
326.175	-12.12
326.388	37.03
326.601	71.85
326.814	-34.64
327.027	26.79
327.24	92.33
327.453	2.22
327.666	39.08
327.879	-10.07
328.092	43.18
328.305	-10.07
328.518	92.33
328.731	-3.93
328.944	-46.93
329.157	-3.93
329.37	86.19
329.583	67.75
329.796	55.47
330.009	26.79
330.222	-30.55
330.435	53.42
330.648	69.8
330.861	-36.69
331.073	43.18
331.286	18.6
331.499	34.99
331.712	-48.98
331.925	-22.36
332.138	71.85
332.35	26.79
332.563	-20.31
332.776	67.75
332.989	30.89
333.202	51.37
333.414	-30.55
333.627	-32.6
333.84	57.51
334.053	2.22
334.265	-22.36
334.478	8.36
334.691	43.18
334.903	-5.97
335.116	-5.97
335.329	26.79
335.541	22.7
335.754	28.84
335.966	-24.4
336.179	30.89
336.392	34.99
336.604	-12.12
336.817	4.27
337.029	94.38
337.242	-34.64
337.454	84.14
337.667	-36.69
337.88	67.75
338.092	-5.97
338.305	12.46
338.517	43.18
338.729	37.03
338.942	26.79
339.154	22.7
339.367	22.7
339.579	-59.22
339.792	-34.64
340.004	34.99
340.217	6.31
340.429	34.99
340.641	18.6
340.854	-30.55
341.066	-96.08
341.278	45.23
341.491	75.95
341.703	-20.31
341.915	-65.36
342.128	14.51
342.34	34.99
342.552	-38.74
342.764	2.22
342.977	34.99
343.189	34.99
343.401	55.47
343.613	-96.08
343.826	49.32
344.038	14.51
344.25	45.23
344.462	-20.31
344.674	37.03
344.886	2.22
345.099	55.47
345.311	34.99
345.523	51.37
345.735	-34.64
345.947	45.23
346.159	20.65
346.371	-42.84
346.583	75.95
346.795	55.47
347.007	-44.88
347.219	20.65
347.431	-40.79
347.643	32.94
347.855	-1.88
348.067	39.08
348.279	-18.26
348.491	18.6
348.703	-22.36
348.915	45.23
349.127	53.42
349.339	67.75
349.551	61.61
349.763	10.41
349.975	71.85
350.187	34.99
350.399	69.8
350.61	43.18
350.822	80.04
351.034	118.95
351.246	55.47
351.458	-5.97
351.669	22.7
351.881	-3.93
352.093	73.9
352.305	43.18
352.517	-30.55
352.728	63.66
352.94	2.22
353.152	26.79
353.363	-69.46
353.575	43.18
353.787	37.03
353.999	-20.31
354.21	2.22
354.422	-20.31
354.633	-1.88
354.845	-38.74
355.057	57.51
355.268	-5.97
355.48	63.66
355.692	10.41
355.903	30.89
356.115	2.22
356.326	-24.4
356.538	125.1
356.749	53.42
356.961	67.75
357.172	14.51
357.384	2.22
357.595	49.32
357.807	39.08
358.018	-3.93
358.23	-61.27
358.441	92.33
358.653	45.23
358.864	104.62
359.075	45.23
359.287	30.89
359.498	47.27
359.709	59.56
359.921	32.94
360.132	14.51
360.344	14.51
360.555	-63.32
360.766	55.47
360.977	63.66
361.189	69.8
361.4	18.6
361.611	51.37
361.823	75.95
362.034	4.27
362.245	-1.88
362.456	69.8
362.667	67.75
362.879	59.56
363.09	14.51
363.301	43.18
363.512	104.62
363.723	39.08
363.935	-24.4
364.146	41.13
364.357	-63.32
364.568	26.79
364.779	18.6
364.99	67.75
365.201	-18.26
365.412	100.52
365.623	30.89
365.834	34.99
366.045	-30.55
366.256	94.38
366.467	69.8
366.678	30.89
366.889	59.56
367.1	-14.17
367.311	82.09
367.522	10.41
367.733	55.47
367.944	127.14
368.155	45.23
368.366	51.37
368.577	37.03
368.788	30.89
368.999	18.6
369.209	-44.88
369.42	69.8
369.631	133.29
369.842	65.71
370.053	2.22
370.264	4.27
370.474	53.42
370.685	4.27
370.896	34.99
371.107	43.18
371.317	59.56
371.528	41.13
371.739	53.42
371.95	59.56
372.16	59.56
372.371	20.65
372.582	28.84
372.792	10.41
373.003	77.99
373.214	45.23
373.424	77.99
373.635	-24.4
373.846	47.27
374.056	22.7
374.267	84.14
374.477	18.6
374.688	26.79
374.898	32.94
375.109	41.13
375.319	10.41
375.53	77.99
375.74	100.52
375.951	-34.64
376.161	71.85
376.372	65.71
376.582	-12.12
376.793	37.03
377.003	-22.36
377.214	-5.97
377.424	57.51
377.635	2.22
377.845	-8.02
378.055	39.08
378.266	0.17
378.476	92.33
378.686	55.47
378.897	55.47
379.107	61.61
379.317	-3.93
379.528	45.23
379.738	131.24
379.948	-63.32
380.158	82.09
380.369	6.31
380.579	49.32
380.789	2.22
380.999	53.42
381.21	12.46
381.42	26.79
381.63	-18.26
381.84	28.84
382.05	80.04
382.261	12.46
382.471	69.8
382.681	2.22
382.891	69.8
383.101	34.99
383.311	4.27
383.521	-14.17
383.731	92.33
383.941	16.55
384.151	43.18
384.361	47.27
384.571	34.99
384.781	59.56
384.991	43.18
385.201	112.81
385.411	41.13
385.621	65.71
385.831	10.41
386.041	30.89
386.251	-22.36
386.461	53.42
386.671	77.99
386.881	30.89
387.091	-10.07
387.301	26.79
387.511	53.42
387.72	28.84
387.93	53.42
388.14	20.65
388.35	37.03
388.56	65.71
388.769	104.62
388.979	59.56
389.189	-22.36
389.399	-12.12
389.609	34.99
389.818	118.95
390.028	30.89
390.238	84.14
390.447	12.46
390.657	-12.12
390.867	28.84
391.076	-18.26
391.286	71.85
391.496	45.23
391.705	110.76
391.915	108.71
392.125	61.61
392.334	22.7
392.544	37.03
392.753	18.6
392.963	14.51
393.172	88.23
393.382	30.89
393.591	129.19
393.801	-5.97
394.01	133.29
394.22	20.65
394.429	75.95
394.639	18.6
394.848	-24.4
395.058	67.75
395.267	88.23
395.477	80.04
395.686	55.47
395.895	125.1
396.105	125.1
396.314	18.6
396.524	10.41
396.733	61.61
396.942	108.71
397.152	73.9
397.361	92.33
397.57	75.95
397.78	73.9
397.989	116.9
398.198	141.48
398.407	104.62
398.617	10.41
398.826	22.7
399.035	34.99
399.244	133.29
399.453	45.23
399.663	26.79
399.872	84.14
400.081	137.38
400.29	133.29
400.499	92.33
400.708	153.77
400.917	86.19
401.127	133.29
401.336	63.66
401.545	151.72
401.754	82.09
401.963	92.33
402.172	100.52
402.381	10.41
402.59	37.03
402.799	65.71
403.008	51.37
403.217	110.76
403.426	141.48
403.635	129.19
403.844	149.67
404.053	28.84
404.262	92.33
404.471	151.72
404.68	174.25
404.888	77.99
405.097	77.99
405.306	82.09
405.515	137.38
405.724	151.72
405.933	145.58
406.142	194.73
406.35	90.28
406.559	174.25
406.768	231.59
406.977	207.02
407.185	125.1
407.394	227.5
407.603	159.91
407.812	157.86
408.02	237.74
408.229	190.63
408.438	227.5
408.646	131.24
408.855	235.69
409.064	264.36
409.272	252.07
409.481	340.13
409.69	182.44
409.898	280.74
410.107	299.17
410.315	305.32
410.524	231.59
410.733	329.89
410.941	282.79
411.15	342.18
411.358	299.17
411.567	411.81
411.775	305.32
411.984	362.66
412.192	350.37
412.401	397.48
412.609	454.82
412.818	444.58
413.026	477.35
413.234	481.44
413.443	516.26
413.651	536.74
413.86	493.73
414.068	673.95
414.276	737.44
414.485	592.03
414.693	606.37
414.901	759.97
415.11	719.01
415.318	620.71
415.526	731.3
415.734	719.01
415.943	698.53
416.151	817.31
416.359	854.17
416.567	872.61
416.776	874.65
416.984	893.09
417.192	946.33
417.4	1024.16
417.608	1042.59
417.817	1050.78
418.025	1136.79
418.233	1151.13
418.441	1091.74
418.649	1149.08
418.857	1294.49
419.065	1280.15
419.273	1235.1
419.481	1355.93
419.689	1357.97
419.897	1329.3
420.105	1546.39
420.313	1540.24
420.521	1663.12
420.729	1710.22
420.937	1605.78
421.145	1675.41
421.353	1839.25
421.561	1945.74
421.769	1927.31
421.977	1972.36
422.185	2035.85
422.393	2146.44
422.601	2275.46
422.809	2328.71
423.017	2306.18
423.224	2422.92
423.432	2443.4
423.64	2519.17
423.848	2699.39
424.056	2685.06
424.263	2902.14
424.471	2959.49
424.679	2863.23
424.887	3092.6
425.094	3197.05
425.302	3158.14
425.51	3369.08
425.718	3297.4
425.925	3467.38
426.133	3663.99
426.341	3717.23
426.548	3985.52
426.756	3919.98
426.964	4006
427.171	4178.03
427.379	4216.94
427.586	4343.91
427.794	4495.46
428.001	4647.01
428.209	4925.54
428.417	4745.31
428.624	5214.3
428.832	5187.68
429.039	5064.8
429.247	5089.37
429.454	5574.74
429.662	6023.25
429.869	5728.34
430.076	5998.67
430.284	5671
430.491	6047.82
430.699	6385.74
430.906	6338.63
431.114	6303.82
431.321	6772.8
431.528	6694.98
431.736	7206.97
431.943	7596.09
432.15	7237.69
432.358	7524.41
432.565	7919.67
432.772	7759.92
432.979	8290.35
433.187	8409.13
433.394	8458.28
433.601	9007.14
433.808	9013.28
434.016	9013.28
434.223	9179.17
434.43	10047.51
434.637	9558.04
434.844	10405.9
435.052	10323.98
435.259	10561.55
435.466	10502.15
435.673	10479.63
435.88	11112.45
436.087	11663.35
436.294	11616.25
436.501	11425.79
436.708	11683.83
436.915	11974.64
437.122	12525.55
437.329	12527.6
437.537	12953.57
437.743	12875.75
437.95	13006.82
438.157	13578.2
438.364	13844.44
438.571	13883.35
438.778	14333.9
438.985	15462.33
439.192	14628.81
439.399	15196.1
439.606	14864.33
439.813	15804.35
440.02	16713.64
440.227	16066.49
440.433	16193.46
440.64	16746.41
440.847	16455.6
441.054	16975.78
441.261	18401.17
441.467	17844.12
441.674	18329.49
441.881	19056.52
442.088	18894.73
442.294	18782.09
442.501	19060.62
442.708	19562.37
442.914	20336.5
443.121	21112.68
443.328	20463.47
443.534	22054.75
443.741	21350.24
443.948	20989.8
444.154	22830.93
444.361	22290.26
444.568	22603.6
444.774	22493.01
444.981	22998.86
445.187	23484.23
445.394	24457.01
445.6	24184.63
445.807	26425.11
446.013	25155.37
446.22	25771.81
446.426	27072.27
446.633	27201.29
446.839	27807.49
447.046	26668.82
447.252	28481.27
447.459	28366.59
447.665	28294.91
447.871	29738.72
448.078	30672.6
448.284	29069.04
448.491	30230.24
448.697	30867.16
448.903	31633.1
449.11	31176.4
449.316	31092.43
449.522	32126.66
449.728	32456.38
449.935	32951.99
450.141	32775.86
450.347	33816.23
450.553	32587.45
450.76	33003.19
450.966	34311.84
451.172	33859.24
451.378	35008.15
451.584	33992.36
451.791	34846.36
451.997	34719.38
452.203	35466.89
452.409	35178.13
452.615	35085.97
452.821	33445.55
453.027	33541.8
453.233	35006.1
453.44	33232.56
453.646	33988.26
453.852	34393.76
454.058	34694.81
454.264	33826.47
454.47	34227.87
454.676	33527.47
454.882	34485.92
455.088	31450.83
455.294	32343.74
455.5	32382.65
455.705	32523.96
455.911	31475.4
456.117	30949.07
456.323	30633.69
456.529	28860.15
456.735	30080.74
456.941	29200.11
457.147	28851.95
457.352	27795.2
457.558	27571.97
457.764	27801.35
457.97	27414.28
458.176	26539.8
458.381	26580.76
458.587	25196.33
458.793	25331.5
458.999	23934.78
459.204	25499.43
459.41	25067.31
459.616	23011.15
459.821	23287.62
460.027	23054.15
460.233	22314.84
460.438	21335.91
460.644	21464.93
460.85	20864.88
461.055	20608.88
461.261	20238.2
461.466	18616.21
461.672	18286.48
461.878	19584.9
462.083	18194.33
462.289	18018.2
462.494	17645.47
462.7	16787.37
462.905	16445.36
463.111	16910.25
463.316	17008.55
463.522	16904.1
463.727	16594.86
463.932	16717.74
464.138	16320.43
464.343	16437.17
464.549	16005.05
464.754	16514.99
464.959	16519.09
465.165	16336.82
465.37	15486.91
465.575	15075.27
465.781	15734.71
465.986	15632.32
466.191	15286.21
466.397	14907.34
