Data from USB4F104151__148__14-31-55-374.txt Node

Date: Thu Mar 13 14:31:55 EDT 2025
User: louis
Spectrometer: USB4F10415
Trigger mode: 4
Integration Time (sec): 2.500000E-2
Scans to average: 1
Electric dark correction enabled: true
Nonlinearity correction enabled: false
Boxcar width: 0
XAxis mode: Wavelengths
Number of Pixels in Spectrum: 3648
>>>>>Begin Spectral Data<<<<<
178.204	-119.64
178.424	-119.64
178.644	-119.64
178.864	-148.31
179.084	-150.36
179.304	-13.14
179.524	-29.52
179.744	-43.86
179.964	89.26
180.184	7.34
180.404	-0.85
180.624	11.43
180.844	-13.14
181.064	-11.09
181.283	40.11
181.503	-2.9
181.723	-33.62
181.943	-95.06
182.163	36.01
182.383	58.54
182.602	64.68
182.822	115.88
183.042	64.68
183.262	23.72
183.482	44.2
183.701	44.2
183.921	-27.48
184.141	-35.67
184.361	17.58
184.58	31.91
184.8	54.44
185.02	48.3
185.239	68.78
185.459	36.01
185.679	27.82
185.898	-54.1
186.118	33.96
186.338	60.59
186.557	113.83
186.777	7.34
186.997	64.68
187.216	7.34
187.436	119.98
187.655	64.68
187.875	-37.72
188.095	-9.05
188.314	-43.86
188.534	72.87
188.753	38.06
188.973	15.53
189.192	44.2
189.412	42.15
189.631	3.24
189.851	15.53
190.07	76.97
190.29	-4.95
190.509	29.87
190.729	-45.91
190.948	113.83
191.168	154.79
191.387	-17.24
191.607	-41.81
191.826	27.82
192.045	40.11
192.265	-56.15
192.484	-13.14
192.704	52.39
192.923	21.67
193.142	81.07
193.362	42.15
193.581	68.78
193.8	60.59
194.02	52.39
194.239	38.06
194.458	29.87
194.678	25.77
194.897	-25.43
195.116	-23.38
195.335	13.48
195.555	3.24
195.774	29.87
195.993	38.06
196.212	81.07
196.432	44.2
196.651	-56.15
196.87	-58.2
197.089	76.97
197.308	1.19
197.528	56.49
197.747	-11.09
197.966	21.67
198.185	93.35
198.404	19.63
198.623	-2.9
198.842	111.78
199.062	68.78
199.281	68.78
199.5	-11.09
199.719	62.63
199.938	148.65
200.157	72.87
200.376	11.43
200.595	62.63
200.814	21.67
201.033	29.87
201.252	158.89
201.471	29.87
201.69	70.83
201.909	79.02
202.128	27.82
202.347	23.72
202.566	72.87
202.785	-13.14
203.004	27.82
203.223	62.63
203.442	72.87
203.661	15.53
203.879	72.87
204.098	36.01
204.317	1.19
204.536	54.44
204.755	44.2
204.974	95.4
205.193	36.01
205.411	62.63
205.63	62.63
205.849	36.01
206.068	52.39
206.287	-19.29
206.505	64.68
206.724	-15.19
206.943	13.48
207.162	64.68
207.381	46.25
207.599	54.44
207.818	21.67
208.037	36.01
208.255	52.39
208.474	21.67
208.693	44.2
208.911	44.2
209.13	52.39
209.349	109.74
209.567	40.11
209.786	119.98
210.005	52.39
210.223	36.01
210.442	9.39
210.661	52.39
210.879	117.93
211.098	13.48
211.316	42.15
211.535	17.58
211.753	-19.29
211.972	134.31
212.191	21.67
212.409	76.97
212.628	70.83
212.846	-11.09
213.065	48.3
213.283	60.59
213.502	25.77
213.72	19.63
213.938	48.3
214.157	111.78
214.375	50.35
214.594	54.44
214.812	29.87
215.031	-50
215.249	15.53
215.467	60.59
215.686	23.72
215.904	83.11
216.122	19.63
216.341	101.55
216.559	68.78
216.778	44.2
216.996	93.35
217.214	44.2
217.432	52.39
217.651	-37.72
217.869	48.3
218.087	13.48
218.306	109.74
218.524	31.91
218.742	9.39
218.96	-43.86
219.179	13.48
219.397	64.68
219.615	134.31
219.833	5.29
220.051	27.82
220.27	15.53
220.488	-17.24
220.706	52.39
220.924	-23.38
221.142	54.44
221.36	23.72
221.578	70.83
221.796	-50
222.015	122.02
222.233	44.2
222.451	68.78
222.669	-54.1
222.887	-2.9
223.105	19.63
223.323	-7
223.541	19.63
223.759	13.48
223.977	25.77
224.195	93.35
224.413	52.39
224.631	107.69
224.849	-11.09
225.067	93.35
225.285	19.63
225.503	62.63
225.721	3.24
225.939	-17.24
226.157	89.26
226.375	97.45
226.592	-15.19
226.81	52.39
227.028	101.55
227.246	83.11
227.464	97.45
227.682	95.4
227.9	27.82
228.117	31.91
228.335	40.11
228.553	3.24
228.771	50.35
228.989	31.91
229.206	38.06
229.424	-13.14
229.642	-19.29
229.86	95.4
230.077	101.55
230.295	7.34
230.513	87.21
230.731	40.11
230.948	148.65
231.166	87.21
231.384	36.01
231.601	97.45
231.819	128.17
232.037	60.59
232.254	19.63
232.472	31.91
232.689	91.31
232.907	-17.24
233.125	93.35
233.342	13.48
233.56	44.2
233.777	36.01
233.995	36.01
234.213	126.12
234.43	50.35
234.648	27.82
234.865	48.3
235.083	119.98
235.3	23.72
235.518	87.21
235.735	87.21
235.953	150.7
236.17	60.59
236.388	52.39
236.605	23.72
236.822	85.16
237.04	50.35
237.257	44.2
237.475	-29.52
237.692	5.29
237.909	40.11
238.127	27.82
238.344	50.35
238.562	60.59
238.779	-13.14
238.996	52.39
239.214	-45.91
239.431	33.96
239.648	44.2
239.865	103.59
240.083	38.06
240.3	60.59
240.517	76.97
240.735	11.43
240.952	52.39
241.169	85.16
241.386	48.3
241.603	25.77
241.821	27.82
242.038	19.63
242.255	27.82
242.472	-60.24
242.689	11.43
242.907	89.26
243.124	119.98
243.341	-82.77
243.558	-103.25
243.775	23.72
243.992	33.96
244.209	44.2
244.426	99.5
244.643	23.72
244.86	79.02
245.078	54.44
245.295	5.29
245.512	54.44
245.729	3.24
245.946	36.01
246.163	-7
246.38	72.87
246.597	56.49
246.814	-21.33
247.031	85.16
247.248	72.87
247.464	117.93
247.681	15.53
247.898	54.44
248.115	68.78
248.332	-35.67
248.549	52.39
248.766	87.21
248.983	85.16
249.2	93.35
249.417	160.94
249.633	9.39
249.85	119.98
250.067	31.91
250.284	3.24
250.501	17.58
250.717	48.3
250.934	-43.86
251.151	21.67
251.368	13.48
251.585	68.78
251.801	31.91
252.018	38.06
252.235	101.55
252.451	-66.39
252.668	46.25
252.885	128.17
253.102	85.16
253.318	62.63
253.535	79.02
253.752	44.2
253.968	25.77
254.185	-0.85
254.401	-11.09
254.618	68.78
254.835	58.54
255.051	142.5
255.268	17.58
255.484	74.92
255.701	3.24
255.917	70.83
256.134	21.67
256.351	167.08
256.567	23.72
256.784	97.45
257	13.48
257.217	60.59
257.433	5.29
257.65	60.59
257.866	109.74
258.082	-74.58
258.299	44.2
258.515	89.26
258.732	-11.09
258.948	11.43
259.165	109.74
259.381	54.44
259.597	56.49
259.814	54.44
260.03	109.74
260.246	21.67
260.463	109.74
260.679	109.74
260.895	11.43
261.112	68.78
261.328	58.54
261.544	52.39
261.761	101.55
261.977	87.21
262.193	109.74
262.409	44.2
262.626	85.16
262.842	-27.48
263.058	11.43
263.274	-9.05
263.49	3.24
263.707	46.25
263.923	5.29
264.139	5.29
264.355	-17.24
264.571	142.5
264.787	85.16
265.004	31.91
265.22	87.21
265.436	31.91
265.652	33.96
265.868	54.44
266.084	-13.14
266.3	44.2
266.516	31.91
266.732	70.83
266.948	-4.95
267.164	48.3
267.38	72.87
267.596	70.83
267.812	142.5
268.028	101.55
268.244	29.87
268.46	19.63
268.676	60.59
268.892	113.83
269.108	-21.33
269.324	27.82
269.54	-0.85
269.756	17.58
269.972	-4.95
270.188	27.82
270.403	15.53
270.619	48.3
270.835	60.59
271.051	70.83
271.267	11.43
271.483	76.97
271.698	38.06
271.914	60.59
272.13	52.39
272.346	17.58
272.562	27.82
272.777	126.12
272.993	36.01
273.209	81.07
273.425	70.83
273.64	40.11
273.856	60.59
274.072	19.63
274.287	52.39
274.503	89.26
274.719	91.31
274.934	-11.09
275.15	-95.06
275.366	27.82
275.581	-2.9
275.797	68.78
276.012	76.97
276.228	27.82
276.444	85.16
276.659	134.31
276.875	-4.95
277.09	9.39
277.306	68.78
277.521	38.06
277.737	23.72
277.952	66.73
278.168	89.26
278.383	109.74
278.599	56.49
278.814	27.82
279.03	-74.58
279.245	103.59
279.461	7.34
279.676	56.49
279.892	23.72
280.107	-4.95
280.322	15.53
280.538	162.98
280.753	38.06
280.969	95.4
281.184	111.78
281.399	44.2
281.615	46.25
281.83	27.82
282.045	-4.95
282.26	-43.86
282.476	11.43
282.691	70.83
282.906	54.44
283.122	-13.14
283.337	46.25
283.552	83.11
283.767	40.11
283.983	68.78
284.198	-58.2
284.413	60.59
284.628	29.87
284.843	68.78
285.058	72.87
285.274	103.59
285.489	40.11
285.704	76.97
285.919	25.77
286.134	109.74
286.349	60.59
286.564	60.59
286.779	109.74
286.995	68.78
287.21	3.24
287.425	40.11
287.64	46.25
287.855	130.22
288.07	7.34
288.285	79.02
288.5	60.59
288.715	52.39
288.93	66.73
289.145	36.01
289.36	40.11
289.575	36.01
289.79	99.5
290.004	60.59
290.219	136.36
290.434	33.96
290.649	11.43
290.864	60.59
291.079	128.17
291.294	115.88
291.509	58.54
291.724	19.63
291.938	60.59
292.153	54.44
292.368	42.15
292.583	-13.14
292.798	64.68
293.012	103.59
293.227	165.03
293.442	60.59
293.657	11.43
293.871	48.3
294.086	117.93
294.301	76.97
294.516	85.16
294.73	36.01
294.945	40.11
295.16	48.3
295.374	27.82
295.589	101.55
295.804	-13.14
296.018	58.54
296.233	23.72
296.447	46.25
296.662	54.44
296.877	76.97
297.091	56.49
297.306	46.25
297.52	36.01
297.735	81.07
297.949	29.87
298.164	54.44
298.378	-21.33
298.593	-0.85
298.807	44.2
299.022	-2.9
299.236	60.59
299.451	68.78
299.665	66.73
299.88	60.59
300.094	13.48
300.309	56.49
300.523	48.3
300.737	42.15
300.952	95.4
301.166	48.3
301.381	-45.91
301.595	52.39
301.809	58.54
302.024	85.16
302.238	-50
302.452	50.35
302.667	11.43
302.881	25.77
303.095	36.01
303.309	50.35
303.524	52.39
303.738	68.78
303.952	13.48
304.166	68.78
304.381	62.63
304.595	91.31
304.809	115.88
305.023	36.01
305.237	119.98
305.452	29.87
305.666	-2.9
305.88	89.26
306.094	103.59
306.308	46.25
306.522	40.11
306.736	76.97
306.95	-9.05
307.164	46.25
307.379	50.35
307.593	76.97
307.807	40.11
308.021	36.01
308.235	27.82
308.449	21.67
308.663	11.43
308.877	68.78
309.091	56.49
309.305	27.82
309.519	-37.72
309.733	36.01
309.947	-4.95
310.161	72.87
310.374	21.67
310.588	113.83
310.802	-0.85
311.016	-27.48
311.23	85.16
311.444	101.55
311.658	113.83
311.872	79.02
312.085	117.93
312.299	128.17
312.513	68.78
312.727	93.35
312.941	89.26
313.154	144.55
313.368	36.01
313.582	83.11
313.796	97.45
314.009	68.78
314.223	76.97
314.437	44.2
314.651	85.16
314.864	23.72
315.078	-29.52
315.292	-11.09
315.505	101.55
315.719	103.59
315.933	62.63
316.146	31.91
316.36	-21.33
316.573	144.55
316.787	85.16
317.001	68.78
317.214	-43.86
317.428	19.63
317.641	23.72
317.855	31.91
318.068	46.25
318.282	60.59
318.495	48.3
318.709	5.29
318.922	15.53
319.136	101.55
319.349	46.25
319.563	15.53
319.776	-7
319.99	38.06
320.203	158.89
320.417	60.59
320.63	38.06
320.843	142.5
321.057	76.97
321.27	60.59
321.483	46.25
321.697	13.48
321.91	70.83
322.124	-39.76
322.337	76.97
322.55	79.02
322.763	87.21
322.977	46.25
323.19	-0.85
323.403	27.82
323.617	119.98
323.83	38.06
324.043	-2.9
324.256	89.26
324.469	11.43
324.683	54.44
324.896	42.15
325.109	-13.14
325.322	50.35
325.535	87.21
325.748	115.88
325.962	62.63
326.175	46.25
326.388	15.53
326.601	83.11
326.814	7.34
327.027	68.78
327.24	85.16
327.453	-19.29
327.666	83.11
327.879	38.06
328.092	152.74
328.305	-31.57
328.518	13.48
328.731	64.68
328.944	81.07
329.157	60.59
329.37	101.55
329.583	85.16
329.796	128.17
330.009	-35.67
330.222	140.46
330.435	117.93
330.648	70.83
330.861	36.01
331.073	44.2
331.286	60.59
331.499	95.4
331.712	11.43
331.925	87.21
332.138	117.93
332.35	158.89
332.563	60.59
332.776	23.72
332.989	46.25
333.202	68.78
333.414	66.73
333.627	117.93
333.84	19.63
334.053	119.98
334.265	15.53
334.478	19.63
334.691	-35.67
334.903	128.17
335.116	95.4
335.329	85.16
335.541	-7
335.754	128.17
335.966	52.39
336.179	52.39
336.392	56.49
336.604	36.01
336.817	27.82
337.029	93.35
337.242	52.39
337.454	119.98
337.667	-29.52
337.88	171.18
338.092	105.64
338.305	56.49
338.517	-2.9
338.729	109.74
338.942	85.16
339.154	42.15
339.367	101.55
339.579	50.35
339.792	-19.29
340.004	134.31
340.217	56.49
340.429	95.4
340.641	-27.48
340.854	3.24
341.066	-13.14
341.278	60.59
341.491	162.98
341.703	128.17
341.915	48.3
342.128	52.39
342.34	44.2
342.552	13.48
342.764	46.25
342.977	7.34
343.189	54.44
343.401	103.59
343.613	5.29
343.826	105.64
344.038	13.48
344.25	3.24
344.462	7.34
344.674	60.59
344.886	68.78
345.099	36.01
345.311	27.82
345.523	64.68
345.735	-15.19
345.947	25.77
346.159	62.63
346.371	29.87
346.583	85.16
346.795	117.93
347.007	64.68
347.219	144.55
347.431	81.07
347.643	126.12
347.855	48.3
348.067	95.4
348.279	89.26
348.491	29.87
348.703	162.98
348.915	44.2
349.127	23.72
349.339	85.16
349.551	15.53
349.763	3.24
349.975	97.45
350.187	99.5
350.399	60.59
350.61	122.02
350.822	76.97
351.034	66.73
351.246	19.63
351.458	72.87
351.669	122.02
351.881	173.22
352.093	93.35
352.305	72.87
352.517	68.78
352.728	42.15
352.94	76.97
353.152	126.12
353.363	-4.95
353.575	113.83
353.787	48.3
353.999	85.16
354.21	62.63
354.422	46.25
354.633	101.55
354.845	101.55
355.057	72.87
355.268	52.39
355.48	103.59
355.692	119.98
355.903	54.44
356.115	103.59
356.326	-0.85
356.538	113.83
356.749	68.78
356.961	146.6
357.172	11.43
357.384	58.54
357.595	162.98
357.807	1.19
358.018	-21.33
358.23	113.83
358.441	132.26
358.653	105.64
358.864	66.73
359.075	42.15
359.287	119.98
359.498	93.35
359.709	13.48
359.921	52.39
360.132	68.78
360.344	58.54
360.555	64.68
360.766	138.41
360.977	87.21
361.189	119.98
361.4	11.43
361.611	74.92
361.823	101.55
362.034	167.08
362.245	54.44
362.456	54.44
362.667	3.24
362.879	60.59
363.09	48.3
363.301	119.98
363.512	74.92
363.723	85.16
363.935	60.59
364.146	152.74
364.357	93.35
364.568	68.78
364.779	19.63
364.99	70.83
365.201	117.93
365.412	119.98
365.623	15.53
365.834	117.93
366.045	38.06
366.256	142.5
366.467	7.34
366.678	101.55
366.889	15.53
367.1	27.82
367.311	64.68
367.522	95.4
367.733	44.2
367.944	62.63
368.155	74.92
368.366	60.59
368.577	76.97
368.788	203.94
368.999	60.59
369.209	134.31
369.42	124.07
369.631	103.59
369.842	60.59
370.053	21.67
370.264	33.96
370.474	38.06
370.685	97.45
370.896	126.12
371.107	158.89
371.317	93.35
371.528	64.68
371.739	134.31
371.95	81.07
372.16	138.41
372.371	11.43
372.582	36.01
372.792	130.22
373.003	-4.95
373.214	13.48
373.424	87.21
373.635	87.21
373.846	171.18
374.056	146.6
374.267	128.17
374.477	85.16
374.688	52.39
374.898	52.39
375.109	36.01
375.319	146.6
375.53	167.08
375.74	54.44
375.951	79.02
376.161	105.64
376.372	103.59
376.582	1.19
376.793	40.11
377.003	74.92
377.214	62.63
377.424	103.59
377.635	167.08
377.845	72.87
378.055	89.26
378.266	150.7
378.476	130.22
378.686	70.83
378.897	44.2
379.107	5.29
379.317	89.26
379.528	142.5
379.738	93.35
379.948	58.54
380.158	126.12
380.369	60.59
380.579	107.69
380.789	17.58
380.999	134.31
381.21	76.97
381.42	162.98
381.63	64.68
381.84	38.06
382.05	138.41
382.261	81.07
382.471	214.18
382.681	52.39
382.891	113.83
383.101	97.45
383.311	15.53
383.521	117.93
383.731	144.55
383.941	89.26
384.151	27.82
384.361	124.07
384.571	60.59
384.781	46.25
384.991	130.22
385.201	185.51
385.411	85.16
385.621	117.93
385.831	117.93
386.041	126.12
386.251	126.12
386.461	81.07
386.671	122.02
386.881	154.79
387.091	-9.05
387.301	76.97
387.511	70.83
387.72	138.41
387.93	23.72
388.14	126.12
388.35	117.93
388.56	79.02
388.769	85.16
388.979	76.97
389.189	87.21
389.399	64.68
389.609	76.97
389.818	111.78
390.028	101.55
390.238	124.07
390.447	87.21
390.657	128.17
390.867	103.59
391.076	-15.19
391.286	54.44
391.496	136.36
391.705	97.45
391.915	38.06
392.125	173.22
392.334	85.16
392.544	175.27
392.753	52.39
392.963	79.02
393.172	95.4
393.382	93.35
393.591	167.08
393.801	29.87
394.01	134.31
394.22	97.45
394.429	36.01
394.639	148.65
394.848	142.5
395.058	117.93
395.267	38.06
395.477	122.02
395.686	148.65
395.895	253.09
396.105	208.04
396.314	175.27
396.524	175.27
396.733	234.66
396.942	68.78
397.152	169.13
397.361	199.85
397.57	148.65
397.78	162.98
397.989	126.12
398.198	240.81
398.407	177.32
398.617	128.17
398.826	183.46
399.035	201.9
399.244	175.27
399.453	138.41
399.663	119.98
399.872	203.94
400.081	167.08
400.29	265.38
400.499	136.36
400.708	220.33
400.917	228.52
401.127	208.04
401.336	122.02
401.545	220.33
401.754	167.08
401.963	187.56
402.172	156.84
402.381	160.94
402.59	167.08
402.799	187.56
403.008	201.9
403.217	167.08
403.426	244.9
403.635	175.27
403.844	205.99
404.053	265.38
404.262	273.57
404.471	224.42
404.68	253.09
404.888	183.46
405.097	277.67
405.306	275.62
405.515	261.29
405.724	179.37
405.933	275.62
406.142	285.86
406.35	253.09
406.559	335.01
406.768	316.58
406.977	347.3
407.185	310.44
407.394	380.07
407.603	267.43
407.812	318.63
408.02	412.84
408.229	302.25
408.438	414.88
408.646	345.25
408.855	418.98
409.064	392.36
409.272	464.04
409.481	537.76
409.69	445.6
409.898	431.27
410.107	500.9
410.315	527.52
410.524	521.38
410.733	552.1
410.941	562.34
411.15	627.87
411.358	541.86
411.567	650.4
411.775	656.54
411.984	625.83
412.192	730.27
412.401	668.83
412.609	760.99
412.818	791.71
413.026	861.34
413.234	818.33
413.443	887.97
413.651	890.01
413.86	877.73
414.068	961.69
414.276	1084.57
414.485	980.12
414.693	1125.53
414.901	1111.19
415.11	1068.19
415.318	1219.74
415.526	1143.96
415.734	1264.79
415.943	1240.22
416.151	1445.01
416.359	1289.37
416.567	1430.68
416.776	1531.03
416.984	1571.99
417.192	1528.98
417.4	1528.98
417.608	1668.24
417.817	1744.02
418.025	1752.21
418.233	1840.27
418.441	1936.53
418.649	1952.91
418.857	2026.64
419.065	2122.89
419.273	2208.9
419.481	2266.25
419.689	2399.37
419.897	2380.93
420.105	2481.28
420.313	2550.92
420.521	2604.16
420.729	2612.35
420.937	2765.95
421.145	2993.28
421.353	2964.61
421.561	3210.36
421.769	3210.36
421.977	3345.53
422.185	3355.77
422.393	3570.8
422.601	3767.41
422.809	3685.49
423.017	3748.98
423.224	3961.97
423.432	4090.99
423.64	4279.4
423.848	4580.45
424.056	4459.62
424.263	4811.87
424.471	4684.9
424.679	4721.76
424.887	5041.25
425.094	5184.6
425.302	5209.18
425.51	5319.77
425.718	5592.15
425.925	5653.59
426.133	5819.47
426.341	6218.83
426.548	6462.54
426.756	6523.98
426.964	6460.49
427.171	6964.29
427.379	7097.41
427.586	7238.72
427.794	7226.43
428.001	7617.59
428.209	7973.94
428.417	7918.64
428.624	8295.47
428.832	8498.22
429.039	8391.72
429.247	8451.11
429.454	9202.72
429.662	9720.85
429.869	9235.49
430.076	10079.25
430.284	9507.87
430.491	10023.95
430.699	10466.31
430.906	10548.23
431.114	10882.05
431.321	11183.1
431.528	11238.4
431.736	11979.76
431.943	12426.22
432.15	12299.25
432.358	12446.7
432.565	13048.8
432.772	13011.94
432.979	13614.04
433.187	13706.2
433.394	13745.11
433.601	14791.62
433.808	14965.7
434.016	14986.18
434.223	15346.62
434.43	16364.46
434.637	15778.75
434.844	17042.34
435.052	17138.6
435.259	17396.64
435.466	17187.75
435.673	17300.39
435.88	18029.46
436.087	19135.37
436.294	19272.58
436.501	18854.79
436.708	19417.99
436.915	19696.51
437.122	20743.02
437.329	20679.54
437.537	21443.43
437.743	21672.8
437.95	21558.11
438.157	22694.74
438.364	23278.41
438.571	23571.27
438.778	23663.43
438.985	25471.78
439.192	24544.05
439.399	25256.75
439.606	24800.05
439.813	26561.3
440.02	28216.06
440.227	27384.58
440.433	27036.43
440.64	27704.07
440.847	27642.63
441.054	28523.26
441.261	30585.56
441.467	30186.21
441.674	30458.59
441.881	31851.2
442.088	31230.67
442.294	31320.78
442.501	31953.6
442.708	32854.71
442.914	33759.91
443.121	35429.01
443.328	33972.9
443.534	36475.52
443.741	35924.61
443.948	35275.41
444.154	37921.38
444.361	37407.34
444.568	38036.07
444.774	37784.17
444.981	38431.33
445.187	39314
445.394	40876.6
445.6	40708.67
445.807	44507.65
446.013	42428.96
446.22	43219.48
446.426	44722.69
446.633	44782.08
446.839	46580.2
447.046	44161.54
447.252	47084
447.459	47294.94
447.665	46651.87
447.871	49310.14
448.078	51073.44
448.284	48234.95
448.491	49848.75
448.697	51605.91
448.903	52388.24
449.11	52638.09
449.316	52115.86
449.522	53010.82
449.728	53963.12
449.935	54344.05
450.141	54862.18
450.347	55091.55
450.553	54034.8
450.76	54231.41
450.966	56219.98
451.172	55607.64
451.378	57327.94
451.584	55703.9
451.791	56928.58
451.997	56807.75
452.203	57758.01
452.409	58046.77
452.615	57502.01
452.821	55365.98
453.027	54851.94
453.233	57590.08
453.44	55640.41
453.646	56095.06
453.852	56039.76
454.058	57336.13
454.264	55365.98
454.47	56588.62
454.676	55253.34
454.882	56740.17
455.088	52646.28
455.294	53002.63
455.5	53684.6
455.705	54223.22
455.911	52304.27
456.117	51216.8
456.323	50911.65
456.529	48216.52
456.735	50051.5
456.941	49009.09
457.147	47991.25
457.352	46621.16
457.558	46385.64
457.764	46574.05
457.97	45646.32
458.176	44237.32
458.381	44476.93
458.587	42306.09
458.793	42435.11
458.999	39834.19
459.204	43074.07
459.41	42025.51
459.616	39010.9
459.821	39039.57
460.027	39019.1
460.233	37771.88
460.438	36551.29
460.644	36803.19
460.85	35168.91
461.055	34658.97
461.261	34415.26
461.466	31791.81
461.672	30872.28
461.878	33299.12
462.083	30868.18
462.289	30431.96
462.494	30112.48
462.7	28887.79
462.905	28001.02
463.111	29172.46
463.316	28830.45
463.522	28465.91
463.727	28523.26
463.932	28674.81
464.138	28095.23
464.343	28297.98
464.549	27439.88
464.754	28424.95
464.959	28175.1
465.165	27982.59
465.37	26907.41
465.575	26424.09
