Data from USB4F104151__149__14-31-55-699.txt Node

Date: Thu Mar 13 14:31:55 EDT 2025
User: louis
Spectrometer: USB4F10415
Trigger mode: 4
Integration Time (sec): 2.500000E-2
Scans to average: 1
Electric dark correction enabled: true
Nonlinearity correction enabled: false
Boxcar width: 0
XAxis mode: Wavelengths
Number of Pixels in Spectrum: 3648
>>>>>Begin Spectral Data<<<<<
178.204	-197.29
178.424	-197.29
178.644	-197.29
178.864	-148.14
179.084	-215.72
179.304	-41.64
179.524	-21.16
179.744	-6.83
179.964	64.85
180.184	-70.31
180.404	23.89
180.624	9.56
180.844	23.89
181.064	-0.68
181.283	-0.68
181.503	-29.35
181.723	48.47
181.943	-33.45
182.163	97.62
182.383	-47.79
182.602	44.37
182.822	56.66
183.042	17.75
183.262	-53.93
183.482	15.7
183.701	17.75
183.921	-0.68
184.141	52.56
184.361	109.91
184.58	32.08
184.8	-45.74
185.02	58.71
185.239	11.61
185.459	-8.87
185.679	71
185.898	-33.45
186.118	40.28
186.338	-51.88
186.557	38.23
186.777	7.51
186.997	-4.78
187.216	-10.92
187.436	81.24
187.655	114
187.875	19.8
188.095	-10.92
188.314	122.2
188.534	122.2
188.753	40.28
188.973	54.61
189.192	23.89
189.412	32.08
189.631	42.32
189.851	58.71
190.07	32.08
190.29	-17.07
190.509	48.47
190.729	-17.07
190.948	89.43
191.168	97.62
191.387	44.37
191.607	34.13
191.826	38.23
192.045	1.37
192.265	15.7
192.484	23.89
192.704	-39.59
192.923	34.13
193.142	146.77
193.362	19.8
193.581	107.86
193.8	19.8
194.02	89.43
194.239	40.28
194.458	36.18
194.678	-37.55
194.897	-25.26
195.116	-6.83
195.335	-15.02
195.555	46.42
195.774	-21.16
195.993	7.51
196.212	9.56
196.432	-6.83
196.651	-15.02
196.87	7.51
197.089	171.35
197.308	73.04
197.528	40.28
197.747	7.51
197.966	-17.07
198.185	66.9
198.404	19.8
198.623	23.89
198.842	-6.83
199.062	48.47
199.281	64.85
199.5	-4.78
199.719	114
199.938	81.24
200.157	9.56
200.376	38.23
200.595	64.85
200.814	40.28
201.033	-4.78
201.252	73.04
201.471	17.75
201.69	97.62
201.909	66.9
202.128	46.42
202.347	58.71
202.566	25.94
202.785	1.37
203.004	-19.11
203.223	91.48
203.442	11.61
203.661	54.61
203.879	107.86
204.098	48.47
204.317	-2.73
204.536	73.04
204.755	23.89
204.974	58.71
205.193	56.66
205.411	89.43
205.63	91.48
205.849	-0.68
206.068	-8.87
206.287	60.76
206.505	23.89
206.724	105.81
206.943	42.32
207.162	-0.68
207.381	-70.31
207.599	-10.92
207.818	42.32
208.037	7.51
208.255	-45.74
208.474	48.47
208.693	-74.41
208.911	36.18
209.13	-8.87
209.349	44.37
209.567	34.13
209.786	42.32
210.005	60.76
210.223	38.23
210.442	-10.92
210.661	7.51
210.879	-19.11
211.098	48.47
211.316	40.28
211.535	30.04
211.753	32.08
211.972	40.28
212.191	66.9
212.409	40.28
212.628	21.85
212.846	3.41
213.065	27.99
213.283	-25.26
213.502	44.37
213.72	-8.87
213.938	71
214.157	15.7
214.375	75.09
214.594	32.08
214.812	34.13
215.031	-0.68
215.249	38.23
215.467	23.89
215.686	7.51
215.904	48.47
216.122	64.85
216.341	56.66
216.559	56.66
216.778	44.37
216.996	50.52
217.214	62.8
217.432	21.85
217.651	-33.45
217.869	73.04
218.087	23.89
218.306	19.8
218.524	73.04
218.742	-23.21
218.96	-0.68
219.179	48.47
219.397	-8.87
219.615	60.76
219.833	-4.78
220.051	40.28
220.27	50.52
220.488	116.05
220.706	7.51
220.924	-49.83
221.142	32.08
221.36	23.89
221.578	36.18
221.796	40.28
222.015	23.89
222.233	52.56
222.451	9.56
222.669	25.94
222.887	73.04
223.105	-4.78
223.323	11.61
223.541	11.61
223.759	56.66
223.977	73.04
224.195	11.61
224.413	9.56
224.631	-49.83
224.849	40.28
225.067	27.99
225.285	-29.35
225.503	-25.26
225.721	-33.45
225.939	-17.07
226.157	75.09
226.375	124.24
226.592	-6.83
226.81	-12.97
227.028	25.94
227.246	58.71
227.464	-29.35
227.682	56.66
227.9	11.61
228.117	40.28
228.335	32.08
228.553	-53.93
228.771	50.52
228.989	91.48
229.206	-17.07
229.424	1.37
229.642	64.85
229.86	34.13
230.077	85.33
230.295	-23.21
230.513	19.8
230.731	15.7
230.948	97.62
231.166	25.94
231.384	19.8
231.601	89.43
231.819	73.04
232.037	-0.68
232.254	48.47
232.472	58.71
232.689	30.04
232.907	-0.68
233.125	3.41
233.342	9.56
233.56	-39.59
233.777	81.24
233.995	40.28
234.213	83.28
234.43	38.23
234.648	-12.97
234.865	56.66
235.083	46.42
235.3	50.52
235.518	19.8
235.735	111.96
235.953	9.56
236.17	23.89
236.388	-17.07
236.605	46.42
236.822	56.66
237.04	85.33
237.257	9.56
237.475	-37.55
237.692	52.56
237.909	89.43
238.127	-21.16
238.344	32.08
238.562	58.71
238.779	25.94
238.996	56.66
239.214	75.09
239.431	-31.4
239.648	23.89
239.865	-41.64
240.083	30.04
240.3	34.13
240.517	-23.21
240.735	-29.35
240.952	83.28
241.169	68.95
241.386	30.04
241.603	13.65
241.821	-6.83
242.038	60.76
242.255	50.52
242.472	7.51
242.689	77.14
242.907	83.28
243.124	9.56
243.341	-2.73
243.558	-17.07
243.775	52.56
243.992	-17.07
244.209	64.85
244.426	48.47
244.643	50.52
244.86	19.8
245.078	15.7
245.295	40.28
245.512	-8.87
245.729	40.28
245.946	73.04
246.163	25.94
246.38	-8.87
246.597	105.81
246.814	75.09
247.031	32.08
247.248	109.91
247.464	-4.78
247.681	-23.21
247.898	101.72
248.115	89.43
248.332	-33.45
248.549	-0.68
248.766	48.47
248.983	11.61
249.2	-8.87
249.417	21.85
249.633	64.85
249.85	23.89
250.067	3.41
250.284	50.52
250.501	32.08
250.717	54.61
250.934	-39.59
251.151	68.95
251.368	23.89
251.585	101.72
251.801	1.37
252.018	36.18
252.235	34.13
252.451	32.08
252.668	-10.92
252.885	97.62
253.102	75.09
253.318	42.32
253.535	40.28
253.752	103.76
253.968	27.99
254.185	-8.87
254.401	32.08
254.618	56.66
254.835	15.7
255.051	-2.73
255.268	3.41
255.484	40.28
255.701	-8.87
255.917	114
256.134	-23.21
256.351	56.66
256.567	25.94
256.784	89.43
257	19.8
257.217	56.66
257.433	40.28
257.65	81.24
257.866	48.47
258.082	-31.4
258.299	-15.02
258.515	32.08
258.732	-4.78
258.948	58.71
259.165	38.23
259.381	-23.21
259.597	-25.26
259.814	-4.78
260.03	50.52
260.246	44.37
260.463	83.28
260.679	111.96
260.895	-25.26
261.112	27.99
261.328	50.52
261.544	7.51
261.761	146.77
261.977	58.71
262.193	-12.97
262.409	-8.87
262.626	77.14
262.842	85.33
263.058	-66.22
263.274	68.95
263.49	56.66
263.707	95.57
263.923	66.9
264.139	25.94
264.355	15.7
264.571	97.62
264.787	-8.87
265.004	60.76
265.22	34.13
265.436	38.23
265.652	3.41
265.868	122.2
266.084	-25.26
266.3	32.08
266.516	15.7
266.732	-2.73
266.948	-39.59
267.164	23.89
267.38	71
267.596	15.7
267.812	124.24
268.028	48.47
268.244	-15.02
268.46	17.75
268.676	48.47
268.892	19.8
269.108	-64.17
269.324	52.56
269.54	15.7
269.756	73.04
269.972	-8.87
270.188	52.56
270.403	-25.26
270.619	42.32
270.835	120.15
271.051	73.04
271.267	-23.21
271.483	34.13
271.698	-15.02
271.914	17.75
272.13	-17.07
272.346	56.66
272.562	23.89
272.777	-0.68
272.993	40.28
273.209	36.18
273.425	-23.21
273.64	-0.68
273.856	81.24
274.072	-6.83
274.287	32.08
274.503	48.47
274.719	93.52
274.934	23.89
275.15	17.75
275.366	15.7
275.581	15.7
275.797	97.62
276.012	3.41
276.228	32.08
276.444	9.56
276.659	77.14
276.875	-25.26
277.09	52.56
277.306	68.95
277.521	75.09
277.737	-8.87
277.952	52.56
278.168	7.51
278.383	58.71
278.599	11.61
278.814	66.9
279.03	58.71
279.245	73.04
279.461	11.61
279.676	122.2
279.892	7.51
280.107	42.32
280.322	56.66
280.538	52.56
280.753	46.42
280.969	109.91
281.184	91.48
281.399	64.85
281.615	19.8
281.83	77.14
282.045	48.47
282.26	-17.07
282.476	-4.78
282.691	75.09
282.906	48.47
283.122	-37.55
283.337	1.37
283.552	54.61
283.767	44.37
283.983	34.13
284.198	73.04
284.413	64.85
284.628	40.28
284.843	9.56
285.058	36.18
285.274	-0.68
285.489	42.32
285.704	81.24
285.919	89.43
286.134	25.94
286.349	-33.45
286.564	75.09
286.779	36.18
286.995	81.24
287.21	-33.45
287.425	3.41
287.64	-17.07
287.855	126.29
288.07	42.32
288.285	81.24
288.5	103.76
288.715	46.42
288.93	-8.87
289.145	23.89
289.36	111.96
289.575	124.24
289.79	73.04
290.004	-66.22
290.219	118.1
290.434	44.37
290.649	19.8
290.864	-8.87
291.079	-0.68
291.294	60.76
291.509	81.24
291.724	60.76
291.938	-0.68
292.153	56.66
292.368	30.04
292.583	83.28
292.798	23.89
293.012	48.47
293.227	111.96
293.442	-6.83
293.657	48.47
293.871	124.24
294.086	40.28
294.301	95.57
294.516	75.09
294.73	81.24
294.945	-49.83
295.16	-17.07
295.374	99.67
295.589	75.09
295.804	56.66
296.018	101.72
296.233	48.47
296.447	15.7
296.662	-45.74
296.877	91.48
297.091	44.37
297.306	105.81
297.52	91.48
297.735	11.61
297.949	36.18
298.164	118.1
298.378	32.08
298.593	-64.17
298.807	15.7
299.022	40.28
299.236	17.75
299.451	7.51
299.665	73.04
299.88	42.32
300.094	36.18
300.309	68.95
300.523	32.08
300.737	-0.68
300.952	40.28
301.166	114
301.381	40.28
301.595	-41.64
301.809	25.94
302.024	40.28
302.238	42.32
302.452	21.85
302.667	73.04
302.881	130.39
303.095	48.47
303.309	50.52
303.524	1.37
303.738	-33.45
303.952	-10.92
304.166	73.04
304.381	-8.87
304.595	81.24
304.809	95.57
305.023	-25.26
305.237	-12.97
305.452	-0.68
305.666	9.56
305.88	91.48
306.094	19.8
306.308	99.67
306.522	128.34
306.736	48.47
306.95	81.24
307.164	15.7
307.379	64.85
307.593	27.99
307.807	114
308.021	89.43
308.235	54.61
308.449	-84.65
308.663	62.8
308.877	66.9
309.091	81.24
309.305	81.24
309.519	-33.45
309.733	19.8
309.947	66.9
310.161	40.28
310.374	118.1
310.588	66.9
310.802	-4.78
311.016	-8.87
311.23	66.9
311.444	23.89
311.658	-6.83
311.872	17.75
312.085	89.43
312.299	99.67
312.513	32.08
312.727	81.24
312.941	44.37
313.154	48.47
313.368	50.52
313.582	32.08
313.796	-49.83
314.009	75.09
314.223	224.59
314.437	15.7
314.651	99.67
314.864	122.2
315.078	89.43
315.292	71
315.505	48.47
315.719	116.05
315.933	-31.4
316.146	36.18
316.36	11.61
316.573	56.66
316.787	3.41
317.001	132.44
317.214	32.08
317.428	7.51
317.641	-10.92
317.855	40.28
318.068	25.94
318.282	25.94
318.495	56.66
318.709	3.41
318.922	66.9
319.136	105.81
319.349	122.2
319.563	11.61
319.776	44.37
319.99	-49.83
320.203	27.99
320.417	77.14
320.63	48.47
320.843	85.33
321.057	-23.21
321.27	1.37
321.483	50.52
321.697	25.94
321.91	91.48
322.124	48.47
322.337	36.18
322.55	-39.59
322.763	81.24
322.977	-0.68
323.19	23.89
323.403	130.39
323.617	107.86
323.83	73.04
324.043	-4.78
324.256	50.52
324.469	32.08
324.683	81.24
324.896	-47.79
325.109	25.94
325.322	44.37
325.535	58.71
325.748	7.51
325.962	21.85
326.175	52.56
326.388	7.51
326.601	32.08
326.814	-15.02
327.027	58.71
327.24	54.61
327.453	19.8
327.666	15.7
327.879	46.42
328.092	7.51
328.305	3.41
328.518	34.13
328.731	71
328.944	-29.35
329.157	93.52
329.37	-15.02
329.583	7.51
329.796	116.05
330.009	19.8
330.222	122.2
330.435	21.85
330.648	52.56
330.861	38.23
331.073	105.81
331.286	142.68
331.499	32.08
331.712	48.47
331.925	77.14
332.138	118.1
332.35	97.62
332.563	42.32
332.776	148.82
332.989	46.42
333.202	44.37
333.414	64.85
333.627	81.24
333.84	21.85
334.053	-23.21
334.265	52.56
334.478	3.41
334.691	44.37
334.903	50.52
335.116	60.76
335.329	-29.35
335.541	105.81
335.754	77.14
335.966	32.08
336.179	15.7
336.392	81.24
336.604	138.58
336.817	79.19
337.029	85.33
337.242	116.05
337.454	9.56
337.667	-8.87
337.88	73.04
338.092	-6.83
338.305	54.61
338.517	73.04
338.729	83.28
338.942	150.87
339.154	32.08
339.367	-25.26
339.579	-33.45
339.792	23.89
340.004	81.24
340.217	81.24
340.429	7.51
340.641	50.52
340.854	25.94
341.066	89.43
341.278	-27.31
341.491	130.39
341.703	7.51
341.915	25.94
342.128	66.9
342.34	40.28
342.552	-10.92
342.764	136.53
342.977	97.62
343.189	44.37
343.401	32.08
343.613	-68.27
343.826	19.8
344.038	-4.78
344.25	81.24
344.462	25.94
344.674	32.08
344.886	83.28
345.099	126.29
345.311	89.43
345.523	66.9
345.735	-15.02
345.947	-8.87
346.159	-33.45
346.371	68.95
346.583	32.08
346.795	140.63
347.007	9.56
347.219	58.71
347.431	114
347.643	64.85
347.855	3.41
348.067	114
348.279	15.7
348.491	34.13
348.703	60.76
348.915	-33.45
349.127	-17.07
349.339	64.85
349.551	25.94
349.763	99.67
349.975	1.37
350.187	161.11
350.399	91.48
350.61	23.89
350.822	66.9
351.034	66.9
351.246	32.08
351.458	17.75
351.669	89.43
351.881	42.32
352.093	48.47
352.305	105.81
352.517	105.81
352.728	105.81
352.94	-0.68
353.152	85.33
353.363	-6.83
353.575	81.24
353.787	97.62
353.999	27.99
354.21	81.24
354.422	64.85
354.633	56.66
354.845	32.08
355.057	46.42
355.268	91.48
355.48	85.33
355.692	77.14
355.903	64.85
356.115	79.19
356.326	32.08
356.538	109.91
356.749	58.71
356.961	89.43
357.172	101.72
357.384	46.42
357.595	48.47
357.807	-15.02
358.018	27.99
358.23	3.41
358.441	58.71
358.653	23.89
358.864	73.04
359.075	34.13
359.287	9.56
359.498	73.04
359.709	56.66
359.921	9.56
360.132	36.18
360.344	58.71
360.555	50.52
360.766	36.18
360.977	68.95
361.189	83.28
361.4	56.66
361.611	130.39
361.823	75.09
362.034	48.47
362.245	-33.45
362.456	56.66
362.667	81.24
362.879	30.04
363.09	40.28
363.301	40.28
363.512	42.32
363.723	27.99
363.935	-17.07
364.146	60.76
364.357	109.91
364.568	87.38
364.779	-12.97
364.99	89.43
365.201	71
365.412	77.14
365.623	-10.92
365.834	66.9
366.045	95.57
366.256	58.71
366.467	71
366.678	44.37
366.889	32.08
367.1	-12.97
367.311	124.24
367.522	11.61
367.733	9.56
367.944	66.9
368.155	40.28
368.366	93.52
368.577	124.24
368.788	146.77
368.999	167.25
369.209	124.24
369.42	95.57
369.631	101.72
369.842	50.52
370.053	25.94
370.264	50.52
370.474	114
370.685	83.28
370.896	52.56
371.107	52.56
371.317	64.85
371.528	50.52
371.739	85.33
371.95	77.14
372.16	48.47
372.371	27.99
372.582	48.47
372.792	126.29
373.003	116.05
373.214	-25.26
373.424	93.52
373.635	-6.83
373.846	73.04
374.056	73.04
374.267	140.63
374.477	38.23
374.688	60.76
374.898	68.95
375.109	25.94
375.319	68.95
375.53	101.72
375.74	27.99
375.951	66.9
376.161	52.56
376.372	163.15
376.582	9.56
376.793	58.71
377.003	-17.07
377.214	68.95
377.424	97.62
377.635	116.05
377.845	42.32
378.055	114
378.266	34.13
378.476	7.51
378.686	32.08
378.897	81.24
379.107	122.2
379.317	81.24
379.528	17.75
379.738	122.2
379.948	-0.68
380.158	105.81
380.369	89.43
380.579	81.24
380.789	-84.65
380.999	32.08
381.21	105.81
381.42	128.34
381.63	52.56
381.84	40.28
382.05	105.81
382.261	89.43
382.471	107.86
382.681	7.51
382.891	161.11
383.101	122.2
383.311	50.52
383.521	73.04
383.731	15.7
383.941	73.04
384.151	46.42
384.361	97.62
384.571	97.62
384.781	68.95
384.991	146.77
385.201	163.15
385.411	56.66
385.621	52.56
385.831	68.95
386.041	48.47
386.251	101.72
386.461	103.76
386.671	93.52
386.881	68.95
387.091	32.08
387.301	81.24
387.511	48.47
387.72	-0.68
387.93	116.05
388.14	71
388.35	73.04
388.56	130.39
388.769	126.29
388.979	7.51
389.189	118.1
389.399	73.04
389.609	81.24
389.818	171.35
390.028	79.19
390.238	167.25
390.447	64.85
390.657	40.28
390.867	83.28
391.076	136.53
391.286	64.85
391.496	105.81
391.705	27.99
391.915	99.67
392.125	97.62
392.334	81.24
392.544	50.52
392.753	138.58
392.963	15.7
393.172	91.48
393.382	148.82
393.591	206.16
393.801	101.72
394.01	134.48
394.22	126.29
394.429	159.06
394.639	66.9
394.848	105.81
395.058	128.34
395.267	101.72
395.477	171.35
395.686	163.15
395.895	118.1
396.105	136.53
396.314	103.76
396.524	93.52
396.733	85.33
396.942	195.92
397.152	163.15
397.361	154.96
397.57	101.72
397.78	122.2
397.989	124.24
398.198	171.35
398.407	134.48
398.617	58.71
398.826	103.76
399.035	130.39
399.244	124.24
399.453	89.43
399.663	134.48
399.872	195.92
400.081	142.68
400.29	163.15
400.499	99.67
400.708	173.39
400.917	204.11
401.127	58.71
401.336	134.48
401.545	195.92
401.754	122.2
401.963	177.49
402.172	222.55
402.381	171.35
402.59	183.63
402.799	132.44
403.008	245.07
403.217	107.86
403.426	265.55
403.635	191.83
403.844	150.87
404.053	245.07
404.262	206.16
404.471	290.13
404.68	230.74
404.888	224.59
405.097	230.74
405.306	253.27
405.515	253.27
405.724	175.44
405.933	257.36
406.142	240.98
406.35	290.13
406.559	290.13
406.768	247.12
406.977	300.37
407.185	245.07
407.394	263.51
407.603	310.61
407.812	236.88
408.02	372.05
408.229	384.34
408.438	384.34
408.646	279.89
408.855	308.56
409.064	314.7
409.272	367.95
409.481	413.01
409.69	345.42
409.898	386.38
410.107	417.1
410.315	474.45
410.524	435.53
410.733	433.49
410.941	460.11
411.15	548.17
411.358	509.26
411.567	564.56
411.775	507.21
411.984	523.6
412.192	566.6
412.401	486.73
412.609	613.71
412.818	671.05
413.026	769.35
413.234	793.93
413.443	777.55
413.651	789.83
413.86	705.87
414.068	884.04
414.276	908.62
414.485	812.36
414.693	1047.88
414.901	976.2
415.11	904.52
415.318	980.29
415.526	1060.17
415.734	1107.27
415.943	1125.7
416.151	1125.7
416.359	1195.33
416.567	1203.52
416.776	1203.52
416.984	1363.26
417.192	1400.13
417.4	1449.28
417.608	1402.18
417.817	1387.84
418.025	1482.05
418.233	1604.92
418.441	1604.92
418.649	1580.35
418.857	1860.92
419.065	1858.87
419.273	1842.49
419.481	1744.19
419.689	1916.22
419.897	1989.94
420.105	2114.87
420.313	2207.03
420.521	2274.61
420.729	2334
420.937	2245.94
421.145	2377.01
421.353	2608.43
421.561	2751.79
421.769	2671.92
421.977	2723.12
422.185	2805.03
422.393	3036.45
422.601	3177.76
422.809	3212.58
423.017	3118.37
423.224	3267.88
423.432	3292.45
423.64	3507.49
423.848	3767.58
424.056	3640.61
424.263	4021.53
424.471	3931.42
424.679	4062.49
424.887	4168.98
425.094	4472.08
425.302	4433.17
425.51	4406.55
425.718	4795.66
425.925	4807.95
426.133	4877.58
426.341	5086.47
426.548	5356.8
426.756	5510.4
426.964	5553.41
427.171	5711.1
427.379	5940.47
427.586	6120.7
427.794	6196.47
428.001	6458.61
428.209	6849.77
428.417	6700.27
428.624	7103.72
428.832	7281.89
429.039	7085.29
429.247	7113.96
429.454	7775.45
429.662	8428.76
429.869	7789.79
430.076	8344.79
430.284	8209.62
430.491	8412.37
430.699	8903.89
430.906	9075.91
431.114	9264.33
431.321	9395.4
431.528	9622.72
431.736	10292.41
431.943	10697.91
432.15	10333.37
432.358	10591.41
432.565	11093.16
432.772	10951.85
432.979	11496.61
433.187	11713.7
433.394	11652.26
433.601	12639.38
433.808	12747.92
434.016	12364.95
434.223	13018.25
434.43	13796.48
434.637	13614.21
434.844	14570.61
435.052	14632.05
435.259	14746.74
435.466	15004.78
435.673	14765.17
435.88	15481.96
436.087	16389.21
436.294	16307.29
436.501	16161.89
436.708	16342.11
436.915	16895.06
437.122	17777.73
437.329	17658.95
437.537	17990.72
437.743	18279.49
437.95	18336.83
438.157	19262.51
438.364	19831.85
438.571	19823.65
438.778	19971.11
438.985	21894.15
439.192	20966.42
439.399	21382.16
439.606	21140.5
439.813	22045.7
440.02	23774.19
440.227	22850.55
440.433	22920.18
440.64	23833.58
440.847	23604.21
441.054	23972.84
441.261	25529.3
441.467	25381.84
441.674	25646.03
441.881	26811.32
442.088	26514.37
442.294	26342.34
442.501	27294.64
442.708	27657.14
442.914	28795.81
443.121	30106.51
443.328	28861.34
443.534	31093.63
443.741	30387.08
443.948	29604.75
444.154	32142.19
444.361	31716.21
444.568	31968.11
444.774	31939.44
444.981	32586.6
445.187	33141.6
445.394	34698.05
445.6	34505.54
445.807	37325.6
446.013	36012.85
446.22	36705.06
446.426	37602.07
446.633	38075.15
446.839	39662.33
447.046	38087.44
447.252	39969.52
447.459	40098.55
447.665	39936.76
447.871	41919.19
448.078	43496.13
448.284	41138.91
448.491	42285.78
448.697	43840.18
448.903	44659.37
449.11	44741.29
449.316	44159.67
449.522	44925.61
449.728	45939.35
449.935	45976.22
450.141	46598.8
450.347	47692.41
450.553	46189.2
450.76	46582.41
450.966	48065.14
451.172	47358.59
451.378	48540.27
451.584	47952.51
451.791	48824.94
451.997	48648.81
452.203	49470.05
452.409	49652.32
452.615	49031.79
452.821	47432.32
453.027	46514.83
453.233	49300.07
453.44	47420.03
453.646	47706.75
453.852	47989.37
454.058	49019.5
454.264	47563.39
454.47	48386.67
454.676	47170.18
454.882	48589.42
455.088	44491.44
455.294	45216.42
455.5	45617.82
455.705	46307.99
455.911	44483.25
456.117	43619
456.323	43373.25
456.529	41128.67
456.735	42717.9
456.941	41298.66
457.147	40665.83
457.352	39725.82
457.558	39232.25
457.764	39547.64
457.97	38650.63
458.176	37612.31
458.381	37679.89
458.587	35615.54
458.793	35763
458.999	33870.67
459.204	36295.47
459.41	35271.48
459.616	33022.81
459.821	33020.77
460.027	32920.42
460.233	32232.3
460.438	31093.63
460.644	31128.44
460.85	29715.34
461.055	29500.31
461.261	29528.98
461.466	26940.35
461.672	26172.36
461.878	27837.36
462.083	26139.59
462.289	25648.08
462.494	25234.39
462.7	24423.39
462.905	23579.63
463.111	24832.99
463.316	24513.5
463.522	23999.46
463.727	24247.27
463.932	24253.41
464.138	23587.82
464.343	24243.17
464.549	23450.61
464.754	23849.96
464.959	23872.49
465.165	24007.65
465.37	22711.29
465.575	22115.33
465.781	22963.19
465.986	23004.15
466.191	22404.1
466.397	21785.61
466.602	20755.48
466.807	21566.48
