Data from USB4F104151__196__14-33-10-953.txt Node

Date: Thu Mar 13 14:33:10 EDT 2025
User: louis
Spectrometer: USB4F10415
Trigger mode: 4
Integration Time (sec): 2.500000E-2
Scans to average: 1
Electric dark correction enabled: true
Nonlinearity correction enabled: false
Boxcar width: 0
XAxis mode: Wavelengths
Number of Pixels in Spectrum: 3648
>>>>>Begin Spectral Data<<<<<
178.204	-203.26
178.424	-203.26
178.644	-203.26
178.864	-123.39
179.084	-74.24
179.304	9.73
179.524	3.58
179.744	-37.38
179.964	26.11
180.184	38.4
180.404	17.92
180.624	-41.47
180.844	-10.75
181.064	-0.51
181.283	-72.19
181.503	34.3
181.723	32.26
181.943	26.11
182.163	77.31
182.383	1.54
182.602	81.41
182.822	56.83
183.042	52.74
183.262	15.87
183.482	17.92
183.701	-23.04
183.921	77.31
184.141	69.12
184.361	81.41
184.58	26.11
184.8	44.54
185.02	62.98
185.239	81.41
185.459	-33.28
185.679	122.37
185.898	48.64
186.118	167.42
186.338	108.03
186.557	73.21
186.777	-16.9
186.997	11.78
187.216	1.54
187.436	138.75
187.655	73.21
187.875	-8.7
188.095	34.3
188.314	124.41
188.534	105.98
188.753	46.59
188.973	17.92
189.192	44.54
189.412	83.45
189.631	17.92
189.851	42.5
190.07	40.45
190.29	-23.04
190.509	-31.23
190.729	56.83
190.948	-16.9
191.168	151.04
191.387	83.45
191.607	40.45
191.826	79.36
192.045	32.26
192.265	60.93
192.484	-12.8
192.704	-16.9
192.923	36.35
193.142	75.26
193.362	7.68
193.581	75.26
193.8	7.68
194.02	118.27
194.239	40.45
194.458	11.78
194.678	-8.7
194.897	15.87
195.116	91.65
195.335	15.87
195.555	48.64
195.774	83.45
195.993	30.21
196.212	-12.8
196.432	-6.66
196.651	-16.9
196.87	65.02
197.089	138.75
197.308	65.02
197.528	44.54
197.747	-82.43
197.966	52.74
198.185	75.26
198.404	48.64
198.623	124.41
198.842	1.54
199.062	85.5
199.281	89.6
199.5	85.5
199.719	134.65
199.938	81.41
200.157	40.45
200.376	171.52
200.595	77.31
200.814	-27.14
201.033	24.06
201.252	87.55
201.471	73.21
201.69	81.41
201.909	85.5
202.128	52.74
202.347	73.21
202.566	40.45
202.785	26.11
203.004	-16.9
203.223	128.51
203.442	97.79
203.661	73.21
203.879	126.46
204.098	93.69
204.317	15.87
204.536	56.83
204.755	81.41
204.974	67.07
205.193	-12.8
205.411	73.21
205.63	32.26
205.849	34.3
206.068	44.54
206.287	32.26
206.505	17.92
206.724	34.3
206.943	52.74
207.162	26.11
207.381	122.37
207.599	34.3
207.818	48.64
208.037	101.89
208.255	22.02
208.474	101.89
208.693	69.12
208.911	-0.51
209.13	28.16
209.349	26.11
209.567	77.31
209.786	13.82
210.005	15.87
210.223	42.5
210.442	67.07
210.661	114.17
210.879	24.06
211.098	48.64
211.316	93.69
211.535	126.46
211.753	15.87
211.972	-8.7
212.191	93.69
212.409	44.54
212.628	50.69
212.846	56.83
213.065	38.4
213.283	99.84
213.502	89.6
213.72	116.22
213.938	24.06
214.157	60.93
214.375	40.45
214.594	-14.85
214.812	114.17
215.031	48.64
215.249	44.54
215.467	34.3
215.686	77.31
215.904	36.35
216.122	91.65
216.341	142.85
216.559	17.92
216.778	103.93
216.996	95.74
217.214	56.83
217.432	7.68
217.651	28.16
217.869	105.98
218.087	42.5
218.306	56.83
218.524	77.31
218.742	24.06
218.96	85.5
219.179	50.69
219.397	93.69
219.615	89.6
219.833	-0.51
220.051	28.16
220.27	7.68
220.488	3.58
220.706	28.16
220.924	44.54
221.142	3.58
221.36	65.02
221.578	97.79
221.796	7.68
222.015	105.98
222.233	-8.7
222.451	73.21
222.669	-47.62
222.887	50.69
223.105	7.68
223.323	97.79
223.541	9.73
223.759	54.78
223.977	-6.66
224.195	40.45
224.413	89.6
224.631	138.75
224.849	91.65
225.067	91.65
225.285	67.07
225.503	-12.8
225.721	-0.51
225.939	69.12
226.157	81.41
226.375	122.37
226.592	48.64
226.81	56.83
227.028	99.84
227.246	65.02
227.464	50.69
227.682	30.21
227.9	62.98
228.117	50.69
228.335	50.69
228.553	26.11
228.771	17.92
228.989	65.02
229.206	77.31
229.424	44.54
229.642	-35.33
229.86	-2.56
230.077	-0.51
230.295	19.97
230.513	24.06
230.731	5.63
230.948	81.41
231.166	58.88
231.384	28.16
231.601	97.79
231.819	73.21
232.037	44.54
232.254	-29.18
232.472	9.73
232.689	17.92
232.907	83.45
233.125	40.45
233.342	-0.51
233.56	30.21
233.777	24.06
233.995	7.68
234.213	73.21
234.43	48.64
234.648	93.69
234.865	13.82
235.083	81.41
235.3	24.06
235.518	58.88
235.735	48.64
235.953	112.13
236.17	83.45
236.388	-16.9
236.605	118.27
236.822	114.17
237.04	67.07
237.257	56.83
237.475	40.45
237.692	124.41
237.909	48.64
238.127	30.21
238.344	93.69
238.562	28.16
238.779	-12.8
238.996	26.11
239.214	42.5
239.431	42.5
239.648	17.92
239.865	54.78
240.083	116.22
240.3	40.45
240.517	40.45
240.735	44.54
240.952	42.5
241.169	77.31
241.386	32.26
241.603	9.73
241.821	114.17
242.038	103.93
242.255	56.83
242.472	-43.52
242.689	144.89
242.907	89.6
243.124	48.64
243.341	69.12
243.558	108.03
243.775	56.83
243.992	-16.9
244.209	77.31
244.426	56.83
244.643	69.12
244.86	52.74
245.078	24.06
245.295	140.8
245.512	34.3
245.729	67.07
245.946	24.06
246.163	-33.28
246.38	97.79
246.597	48.64
246.814	110.08
247.031	48.64
247.248	58.88
247.464	58.88
247.681	99.84
247.898	85.5
248.115	34.3
248.332	24.06
248.549	77.31
248.766	110.08
248.983	93.69
249.2	58.88
249.417	56.83
249.633	5.63
249.85	48.64
250.067	40.45
250.284	73.21
250.501	-23.04
250.717	56.83
250.934	-20.99
251.151	69.12
251.368	36.35
251.585	126.46
251.801	38.4
252.018	-8.7
252.235	73.21
252.451	-8.7
252.668	26.11
252.885	22.02
253.102	-16.9
253.318	11.78
253.535	32.26
253.752	28.16
253.968	48.64
254.185	40.45
254.401	126.46
254.618	28.16
254.835	42.5
255.051	69.12
255.268	48.64
255.484	19.97
255.701	81.41
255.917	48.64
256.134	3.58
256.351	24.06
256.567	17.92
256.784	15.87
257	-47.62
257.217	15.87
257.433	67.07
257.65	48.64
257.866	67.07
258.082	15.87
258.299	17.92
258.515	56.83
258.732	-8.7
258.948	34.3
259.165	46.59
259.381	-29.18
259.597	69.12
259.814	60.93
260.03	67.07
260.246	73.21
260.463	24.06
260.679	79.36
260.895	81.41
261.112	73.21
261.328	50.69
261.544	40.45
261.761	65.02
261.977	9.73
262.193	-16.9
262.409	73.21
262.626	40.45
262.842	65.02
263.058	9.73
263.274	103.93
263.49	1.54
263.707	110.08
263.923	151.04
264.139	24.06
264.355	71.17
264.571	58.88
264.787	19.97
265.004	48.64
265.22	54.78
265.436	83.45
265.652	11.78
265.868	15.87
266.084	40.45
266.3	36.35
266.516	11.78
266.732	50.69
266.948	83.45
267.164	32.26
267.38	122.37
267.596	24.06
267.812	75.26
268.028	126.46
268.244	-25.09
268.46	56.83
268.676	22.02
268.892	54.78
269.108	-2.56
269.324	48.64
269.54	48.64
269.756	120.32
269.972	-14.85
270.188	28.16
270.403	-31.23
270.619	-4.61
270.835	114.17
271.051	73.21
271.267	44.54
271.483	85.5
271.698	22.02
271.914	-0.51
272.13	73.21
272.346	22.02
272.562	50.69
272.777	99.84
272.993	124.41
273.209	36.35
273.425	91.65
273.64	-10.75
273.856	140.8
274.072	93.69
274.287	73.21
274.503	108.03
274.719	65.02
274.934	81.41
275.15	-31.23
275.366	7.68
275.581	28.16
275.797	3.58
276.012	40.45
276.228	73.21
276.444	44.54
276.659	81.41
276.875	-41.47
277.09	44.54
277.306	42.5
277.521	40.45
277.737	32.26
277.952	110.08
278.168	26.11
278.383	34.3
278.599	62.98
278.814	28.16
279.03	81.41
279.245	73.21
279.461	54.78
279.676	81.41
279.892	15.87
280.107	73.21
280.322	19.97
280.538	62.98
280.753	-23.04
280.969	89.6
281.184	-41.47
281.399	91.65
281.615	-0.51
281.83	81.41
282.045	3.58
282.26	50.69
282.476	-0.51
282.691	99.84
282.906	81.41
283.122	-0.51
283.337	44.54
283.552	89.6
283.767	83.45
283.983	75.26
284.198	5.63
284.413	75.26
284.628	-12.8
284.843	56.83
285.058	15.87
285.274	118.27
285.489	-0.51
285.704	42.5
285.919	-45.57
286.134	97.79
286.349	32.26
286.564	77.31
286.779	103.93
286.995	32.26
287.21	-12.8
287.425	48.64
287.64	62.98
287.855	9.73
288.07	24.06
288.285	105.98
288.5	-12.8
288.715	32.26
288.93	42.5
289.145	24.06
289.36	105.98
289.575	52.74
289.79	97.79
290.004	19.97
290.219	138.75
290.434	122.37
290.649	75.26
290.864	81.41
291.079	65.02
291.294	75.26
291.509	91.65
291.724	7.68
291.938	87.55
292.153	97.79
292.368	73.21
292.583	32.26
292.798	77.31
293.012	28.16
293.227	32.26
293.442	-8.7
293.657	56.83
293.871	187.9
294.086	32.26
294.301	105.98
294.516	75.26
294.73	36.35
294.945	34.3
295.16	-6.66
295.374	161.28
295.589	38.4
295.804	32.26
296.018	42.5
296.233	118.27
296.447	65.02
296.662	15.87
296.877	89.6
297.091	91.65
297.306	99.84
297.52	62.98
297.735	99.84
297.949	48.64
298.164	118.27
298.378	85.5
298.593	48.64
298.807	5.63
299.022	75.26
299.236	56.83
299.451	-25.09
299.665	65.02
299.88	-41.47
300.094	89.6
300.309	110.08
300.523	95.74
300.737	-37.38
300.952	83.45
301.166	89.6
301.381	-27.14
301.595	91.65
301.809	44.54
302.024	101.89
302.238	26.11
302.452	42.5
302.667	19.97
302.881	148.99
303.095	122.37
303.309	32.26
303.524	17.92
303.738	9.73
303.952	81.41
304.166	48.64
304.381	-55.81
304.595	146.94
304.809	112.13
305.023	19.97
305.237	54.78
305.452	93.69
305.666	60.93
305.88	56.83
306.094	65.02
306.308	101.89
306.522	60.93
306.736	52.74
306.95	42.5
307.164	130.56
307.379	44.54
307.593	148.99
307.807	112.13
308.021	69.12
308.235	71.17
308.449	58.88
308.663	-4.61
308.877	97.79
309.091	71.17
309.305	75.26
309.519	-0.51
309.733	146.94
309.947	13.82
310.161	65.02
310.374	17.92
310.588	134.65
310.802	1.54
311.016	56.83
311.23	65.02
311.444	42.5
311.658	48.64
311.872	75.26
312.085	9.73
312.299	87.55
312.513	48.64
312.727	73.21
312.941	42.5
313.154	42.5
313.368	101.89
313.582	58.88
313.796	48.64
314.009	40.45
314.223	52.74
314.437	40.45
314.651	24.06
314.864	56.83
315.078	83.45
315.292	56.83
315.505	42.5
315.719	26.11
315.933	3.58
316.146	120.32
316.36	19.97
316.573	13.82
316.787	67.07
317.001	-23.04
317.214	-8.7
317.428	89.6
317.641	-12.8
317.855	36.35
318.068	19.97
318.282	101.89
318.495	144.89
318.709	24.06
318.922	38.4
319.136	73.21
319.349	9.73
319.563	81.41
319.776	60.93
319.99	-37.38
320.203	24.06
320.417	54.78
320.63	26.11
320.843	75.26
321.057	140.8
321.27	46.59
321.483	101.89
321.697	79.36
321.91	40.45
322.124	62.98
322.337	-4.61
322.55	114.17
322.763	17.92
322.977	52.74
323.19	42.5
323.403	56.83
323.617	36.35
323.83	32.26
324.043	79.36
324.256	67.07
324.469	1.54
324.683	97.79
324.896	85.5
325.109	1.54
325.322	-12.8
325.535	83.45
325.748	67.07
325.962	79.36
326.175	114.17
326.388	15.87
326.601	7.68
326.814	48.64
327.027	67.07
327.24	91.65
327.453	17.92
327.666	73.21
327.879	40.45
328.092	40.45
328.305	77.31
328.518	15.87
328.731	19.97
328.944	97.79
329.157	46.59
329.37	54.78
329.583	83.45
329.796	151.04
330.009	48.64
330.222	48.64
330.435	75.26
330.648	52.74
330.861	75.26
331.073	67.07
331.286	32.26
331.499	91.65
331.712	34.3
331.925	54.78
332.138	46.59
332.35	108.03
332.563	42.5
332.776	79.36
332.989	48.64
333.202	89.6
333.414	13.82
333.627	15.87
333.84	120.32
334.053	24.06
334.265	65.02
334.478	32.26
334.691	52.74
334.903	77.31
335.116	-82.43
335.329	60.93
335.541	46.59
335.754	67.07
335.966	9.73
336.179	56.83
336.392	32.26
336.604	56.83
336.817	34.3
337.029	32.26
337.242	93.69
337.454	65.02
337.667	-0.51
337.88	81.41
338.092	128.51
338.305	93.69
338.517	44.54
338.729	91.65
338.942	56.83
339.154	-6.66
339.367	7.68
339.579	122.37
339.792	-4.61
340.004	97.79
340.217	40.45
340.429	114.17
340.641	89.6
340.854	91.65
341.066	19.97
341.278	126.46
341.491	85.5
341.703	58.88
341.915	36.35
342.128	81.41
342.34	95.74
342.552	50.69
342.764	122.37
342.977	75.26
343.189	17.92
343.401	58.88
343.613	118.27
343.826	19.97
344.038	11.78
344.25	114.17
344.462	67.07
344.674	42.5
344.886	22.02
345.099	19.97
345.311	103.93
345.523	26.11
345.735	19.97
345.947	28.16
346.159	34.3
346.371	19.97
346.583	1.54
346.795	118.27
347.007	101.89
347.219	81.41
347.431	67.07
347.643	116.22
347.855	7.68
348.067	118.27
348.279	56.83
348.491	140.8
348.703	142.85
348.915	32.26
349.127	69.12
349.339	34.3
349.551	13.82
349.763	73.21
349.975	75.26
350.187	75.26
350.399	97.79
350.61	167.42
350.822	24.06
351.034	148.99
351.246	95.74
351.458	42.5
351.669	83.45
351.881	56.83
352.093	81.41
352.305	97.79
352.517	97.79
352.728	146.94
352.94	56.83
353.152	122.37
353.363	15.87
353.575	73.21
353.787	138.75
353.999	56.83
354.21	192
354.422	40.45
354.633	89.6
354.845	15.87
355.057	75.26
355.268	136.7
355.48	89.6
355.692	9.73
355.903	81.41
356.115	32.26
356.326	-31.23
356.538	169.47
356.749	34.3
356.961	134.65
357.172	36.35
357.384	65.02
357.595	173.57
357.807	32.26
358.018	-4.61
358.23	77.31
358.441	134.65
358.653	91.65
358.864	97.79
359.075	54.78
359.287	42.5
359.498	132.61
359.709	85.5
359.921	95.74
360.132	126.46
360.344	-8.7
360.555	60.93
360.766	60.93
360.977	30.21
361.189	32.26
361.4	17.92
361.611	114.17
361.823	153.09
362.034	62.98
362.245	24.06
362.456	93.69
362.667	148.99
362.879	19.97
363.09	118.27
363.301	75.26
363.512	65.02
363.723	89.6
363.935	7.68
364.146	85.5
364.357	34.3
364.568	34.3
364.779	-33.28
364.99	89.6
365.201	19.97
365.412	126.46
365.623	38.4
365.834	52.74
366.045	118.27
366.256	130.56
366.467	56.83
366.678	15.87
366.889	5.63
367.1	65.02
367.311	52.74
367.522	97.79
367.733	99.84
367.944	108.03
368.155	17.92
368.366	81.41
368.577	151.04
368.788	48.64
368.999	28.16
369.209	-20.99
369.42	108.03
369.631	124.41
369.842	116.22
370.053	24.06
370.264	97.79
370.474	85.5
370.685	67.07
370.896	132.61
371.107	87.55
371.317	93.69
371.528	136.7
371.739	91.65
371.95	85.5
372.16	114.17
372.371	24.06
372.582	105.98
372.792	116.22
373.003	118.27
373.214	15.87
373.424	-4.61
373.635	65.02
373.846	138.75
374.056	81.41
374.267	48.64
374.477	114.17
374.688	73.21
374.898	81.41
375.109	108.03
375.319	97.79
375.53	7.68
375.74	50.69
375.951	69.12
376.161	89.6
376.372	50.69
376.582	-25.09
376.793	112.13
377.003	65.02
377.214	52.74
377.424	1.54
377.635	69.12
377.845	7.68
378.055	89.6
378.266	60.93
378.476	81.41
378.686	3.58
378.897	128.51
379.107	105.98
379.317	73.21
379.528	65.02
379.738	189.95
379.948	65.02
380.158	151.04
380.369	38.4
380.579	60.93
380.789	26.11
380.999	48.64
381.21	75.26
381.42	222.72
381.63	58.88
381.84	38.4
382.05	69.12
382.261	130.56
382.471	15.87
382.681	-12.8
382.891	81.41
383.101	99.84
383.311	19.97
383.521	91.65
383.731	105.98
383.941	97.79
384.151	67.07
384.361	151.04
384.571	151.04
384.781	118.27
384.991	218.62
385.201	157.18
385.411	36.35
385.621	83.45
385.831	19.97
386.041	81.41
386.251	91.65
386.461	163.33
386.671	83.45
386.881	155.13
387.091	97.79
387.301	138.75
387.511	91.65
387.72	91.65
387.93	103.93
388.14	19.97
388.35	50.69
388.56	58.88
388.769	26.11
388.979	97.79
389.189	83.45
389.399	36.35
389.609	73.21
389.818	136.7
390.028	155.13
390.238	183.81
390.447	73.21
390.657	91.65
390.867	114.17
391.076	-12.8
391.286	116.22
391.496	157.18
391.705	75.26
391.915	122.37
392.125	85.5
392.334	65.02
392.544	204.28
392.753	146.94
392.963	79.36
393.172	89.6
393.382	77.31
393.591	146.94
393.801	50.69
394.01	163.33
394.22	103.93
394.429	89.6
394.639	65.02
394.848	130.56
395.058	97.79
395.267	134.65
395.477	110.08
395.686	105.98
395.895	196.09
396.105	140.8
396.314	146.94
396.524	134.65
396.733	89.6
396.942	241.15
397.152	108.03
397.361	118.27
397.57	126.46
397.78	142.85
397.989	216.57
398.198	179.71
398.407	148.99
398.617	183.81
398.826	50.69
399.035	95.74
399.244	183.81
399.453	146.94
399.663	163.33
399.872	167.42
400.081	196.09
400.29	198.14
400.499	138.75
400.708	167.42
400.917	87.55
401.127	114.17
401.336	60.93
401.545	222.72
401.754	155.13
401.963	220.67
402.172	151.04
402.381	206.33
402.59	206.33
402.799	110.08
403.008	249.34
403.217	181.76
403.426	132.61
403.635	161.28
403.844	173.57
404.053	155.13
404.262	118.27
404.471	269.82
404.68	224.76
404.888	179.71
405.097	163.33
405.306	235
405.515	183.81
405.724	171.52
405.933	249.34
406.142	306.68
406.35	228.86
406.559	292.35
406.768	351.74
406.977	321.02
407.185	294.4
407.394	235
407.603	282.11
407.812	343.55
408.02	329.21
408.229	290.3
408.438	310.78
408.646	359.93
408.855	364.03
409.064	359.93
409.272	454.14
409.481	419.32
409.69	286.2
409.898	351.74
410.107	460.28
410.315	574.97
410.524	421.37
410.733	466.42
410.941	536.06
411.15	523.77
411.358	472.57
411.567	550.39
411.775	540.15
411.984	622.07
412.192	663.03
412.401	601.59
412.609	650.74
412.818	785.91
413.026	732.66
413.234	703.99
413.443	738.8
413.651	728.56
413.86	796.15
414.068	863.73
414.276	957.94
414.485	843.25
414.693	859.63
414.901	974.32
415.11	1023.47
415.318	998.9
415.526	951.79
415.734	1072.62
415.943	1189.36
416.151	1117.68
416.359	1158.64
416.567	1244.65
416.776	1271.28
416.984	1342.96
417.192	1408.49
417.4	1326.57
417.608	1281.52
417.817	1465.83
418.025	1486.31
418.233	1641.96
418.441	1588.71
418.649	1596.9
418.857	1805.8
419.065	1779.17
419.273	1744.36
419.481	1875.43
419.689	2031.07
419.897	2117.09
420.105	2010.59
420.313	2115.04
420.521	2270.69
420.729	2172.38
420.937	2299.36
421.145	2424.28
421.353	2651.61
421.561	2645.46
421.769	2686.42
421.977	2979.28
422.185	2817.49
422.393	2919.89
422.601	3177.94
422.809	3104.21
423.017	3102.16
423.224	3390.92
423.432	3517.9
423.64	3456.46
423.848	3837.38
424.056	3669.45
424.263	4052.42
424.471	3878.34
424.679	4007.36
424.887	4308.41
425.094	4269.5
425.302	4398.52
425.51	4556.22
425.718	4631.99
425.925	4914.61
426.133	4844.98
426.341	5234.1
426.548	5434.8
426.756	5369.26
426.964	5479.85
427.171	5836.2
427.379	5883.3
427.586	5914.02
427.794	6299.04
428.001	6532.51
428.209	6737.31
428.417	6538.65
428.624	7257.49
428.832	7142.8
429.039	6944.15
429.247	7079.32
429.454	7802.25
429.662	8344.96
429.869	7740.81
430.076	8433.02
430.284	8084.87
430.491	8371.58
430.699	8785.27
430.906	9039.22
431.114	8945.02
431.321	9198.96
431.528	9790.83
431.736	10241.38
431.943	10591.58
432.15	10370.4
432.358	10190.18
432.565	11050.33
432.772	10861.91
432.979	11466.07
433.187	11638.09
433.394	11683.15
433.601	12528.96
433.808	12506.43
434.016	12442.95
434.223	12979.51
434.43	13626.67
434.637	13669.68
434.844	14413.09
435.052	14556.45
435.259	14318.89
435.466	14402.85
435.673	14421.28
435.88	15289.62
436.087	16260.36
436.294	16033.04
436.501	15752.46
436.708	16037.13
436.915	16639.23
437.122	17409.27
437.329	17122.55
437.537	17880.3
437.743	18339.05
437.95	18015.47
438.157	18791.65
438.364	19551.45
438.571	19709.14
438.778	19707.09
438.985	21216.44
439.192	20585.67
439.399	20884.67
439.606	20858.05
439.813	21818.55
440.02	23178.4
440.227	22877.35
440.433	22688.93
440.64	23116.96
440.847	23366.81
441.054	23751.83
441.261	25203.84
441.467	24861.83
441.674	25609.34
441.881	26242.16
442.088	26356.85
442.294	26262.64
442.501	26729.58
442.708	27036.77
442.914	28363.86
443.121	29244.48
443.328	28392.53
443.534	30813.23
443.741	29570.11
443.948	29013.06
444.154	31747.1
444.361	31511.58
444.568	31552.54
444.774	31407.14
444.981	32029.72
445.187	32701.45
445.394	34350.07
445.6	34077.69
445.807	36809.68
446.013	35546.08
446.22	36037.59
446.426	37512.13
446.633	37682.11
446.839	38685.62
447.046	37227.46
447.252	39490.47
447.459	39752.61
447.665	39351.21
447.871	40702.87
448.078	42120.06
448.284	40782.74
448.491	41364.36
448.697	42775.41
448.903	44559.19
449.11	43797.35
449.316	43512.68
449.522	44426.07
449.728	45169.49
449.935	45695.81
450.141	46031.68
450.347	46752.57
450.553	45218.64
450.76	46029.63
450.966	47278.89
451.172	46648.12
451.378	48173.86
451.584	46691.13
451.791	48210.72
451.997	47825.7
452.203	48821.02
452.409	48624.41
452.615	48419.61
452.821	46340.92
453.027	45962.05
453.233	48311.07
453.44	46723.9
453.646	47139.63
453.852	46865.2
454.058	47866.66
454.264	46447.42
454.47	47379.25
454.676	46435.13
454.882	47975.2
455.088	43805.54
455.294	44534.62
455.5	45198.16
455.705	45181.77
455.911	43799.4
456.117	43023.22
456.323	42251.13
456.529	40094.62
456.735	42118.01
456.941	40907.66
457.147	40190.87
457.352	39187.37
457.558	38661.04
457.764	38783.92
457.97	37661.63
458.176	37120.97
458.381	37288.9
458.587	35439.59
458.793	35283.94
458.999	33676.29
459.204	35779.55
459.41	35032.04
459.616	32261.14
459.821	32594.96
460.027	32222.23
460.233	31593.5
460.438	29940.79
460.644	30680.11
460.85	29033.54
461.055	28646.47
461.261	28501.07
461.466	26496.11
461.672	25547.9
461.878	27317.34
462.083	25556.09
462.289	25132.16
462.494	24992.9
462.7	23903.38
462.905	23217.31
463.111	24007.83
463.316	23884.95
463.522	23522.46
463.727	23571.61
463.932	23323.8
464.138	23121.06
464.343	23446.68
464.549	22707.37
464.754	23514.27
464.959	23239.84
465.165	22914.21
465.37	21892.27
465.575	21576.89
465.781	22256.81
465.986	22236.33
466.191	21935.28
466.397	21243.07
466.602	20030.67
466.807	20696.26
