Data from USB4F104151__126__14-31-21-259.txt Node

Date: Thu Mar 13 14:31:21 EDT 2025
User: louis
Spectrometer: USB4F10415
Trigger mode: 4
Integration Time (sec): 2.500000E-2
Scans to average: 1
Electric dark correction enabled: true
Nonlinearity correction enabled: false
Boxcar width: 0
XAxis mode: Wavelengths
Number of Pixels in Spectrum: 3648
>>>>>Begin Spectral Data<<<<<
178.204	-129.19
178.424	-129.19
178.644	-129.19
178.864	-139.43
179.084	-133.29
179.304	-8.36
179.524	-26.79
179.744	-16.55
179.964	87.89
180.184	32.6
180.404	-24.75
180.624	44.88
180.844	-10.41
181.064	-26.79
181.283	-10.41
181.503	-10.41
181.723	-30.89
181.943	-71.85
182.163	65.36
182.383	38.74
182.602	36.69
182.822	91.99
183.042	-100.52
183.262	51.03
183.482	22.36
183.701	132.95
183.921	38.74
184.141	-18.6
184.361	96.08
184.58	51.03
184.8	1.88
185.02	32.6
185.239	85.84
185.459	59.22
185.679	79.7
185.898	3.93
186.118	69.46
186.338	22.36
186.557	57.17
186.777	10.07
186.997	-73.9
187.216	83.8
187.436	16.21
187.655	63.32
187.875	20.31
188.095	36.69
188.314	114.52
188.534	1.88
188.753	46.93
188.973	5.97
189.192	59.22
189.412	40.79
189.631	22.36
189.851	18.26
190.07	71.51
190.29	26.45
190.509	73.56
190.729	8.02
190.948	98.13
191.168	169.81
191.387	143.19
191.607	38.74
191.826	75.6
192.045	14.17
192.265	28.5
192.484	53.08
192.704	63.32
192.923	89.94
193.142	153.43
193.362	79.7
193.581	44.88
193.8	1.88
194.02	120.66
194.239	20.31
194.458	57.17
194.678	44.88
194.897	-47.27
195.116	-30.89
195.335	22.36
195.555	96.08
195.774	59.22
195.993	22.36
196.212	38.74
196.432	16.21
196.651	10.07
196.87	73.56
197.089	71.51
197.308	-16.55
197.528	38.74
197.747	16.21
197.966	57.17
198.185	71.51
198.404	55.12
198.623	79.7
198.842	67.41
199.062	96.08
199.281	-4.27
199.5	22.36
199.719	34.64
199.938	59.22
200.157	30.55
200.376	55.12
200.595	24.4
200.814	55.12
201.033	71.51
201.252	83.8
201.471	51.03
201.69	65.36
201.909	65.36
202.128	46.93
202.347	104.28
202.566	44.88
202.785	18.26
203.004	-51.37
203.223	87.89
203.442	63.32
203.661	24.4
203.879	34.64
204.098	128.85
204.317	8.02
204.536	145.24
204.755	108.37
204.974	81.75
205.193	42.84
205.411	71.51
205.63	55.12
205.849	-16.55
206.068	65.36
206.287	63.32
206.505	-53.42
206.724	38.74
206.943	32.6
207.162	59.22
207.381	38.74
207.599	22.36
207.818	22.36
208.037	38.74
208.255	87.89
208.474	-0.17
208.693	63.32
208.911	-10.41
209.13	-0.17
209.349	-39.08
209.567	69.46
209.786	143.19
210.005	91.99
210.223	30.55
210.442	46.93
210.661	24.4
210.879	24.4
211.098	59.22
211.316	98.13
211.535	44.88
211.753	5.97
211.972	55.12
212.191	14.17
212.409	-2.22
212.628	48.98
212.846	38.74
213.065	63.32
213.283	108.37
213.502	-24.75
213.72	42.84
213.938	40.79
214.157	32.6
214.375	5.97
214.594	32.6
214.812	65.36
215.031	42.84
215.249	14.17
215.467	14.17
215.686	14.17
215.904	26.45
216.122	-22.7
216.341	63.32
216.559	42.84
216.778	32.6
216.996	67.41
217.214	22.36
217.432	79.7
217.651	5.97
217.869	38.74
218.087	-39.08
218.306	5.97
218.524	91.99
218.742	5.97
218.96	89.94
219.179	112.47
219.397	63.32
219.615	73.56
219.833	48.98
220.051	-34.99
220.27	120.66
220.488	36.69
220.706	63.32
220.924	28.5
221.142	79.7
221.36	-8.36
221.578	14.17
221.796	89.94
222.015	-26.79
222.233	18.26
222.451	132.95
222.669	10.07
222.887	87.89
223.105	-6.31
223.323	-10.41
223.541	53.08
223.759	-2.22
223.977	-22.7
224.195	120.66
224.413	91.99
224.631	67.41
224.849	34.64
225.067	128.85
225.285	-10.41
225.503	79.7
225.721	-0.17
225.939	5.97
226.157	14.17
226.375	46.93
226.592	-49.32
226.81	-22.7
227.028	100.18
227.246	75.6
227.464	-43.18
227.682	71.51
227.9	104.28
228.117	-32.94
228.335	-10.41
228.553	55.12
228.771	22.36
228.989	96.08
229.206	-43.18
229.424	-43.18
229.642	40.79
229.86	48.98
230.077	81.75
230.295	65.36
230.513	65.36
230.731	100.18
230.948	24.4
231.166	55.12
231.384	12.12
231.601	1.88
231.819	104.28
232.037	42.84
232.254	5.97
232.472	-47.27
232.689	-59.56
232.907	22.36
233.125	10.07
233.342	71.51
233.56	30.55
233.777	75.6
233.995	26.45
234.213	63.32
234.43	55.12
234.648	91.99
234.865	65.36
235.083	32.6
235.3	42.84
235.518	38.74
235.735	65.36
235.953	55.12
236.17	55.12
236.388	14.17
236.605	67.41
236.822	32.6
237.04	-6.31
237.257	14.17
237.475	18.26
237.692	38.74
237.909	147.28
238.127	102.23
238.344	65.36
238.562	38.74
238.779	-12.46
238.996	71.51
239.214	30.55
239.431	87.89
239.648	-2.22
239.865	-22.7
240.083	55.12
240.3	104.28
240.517	40.79
240.735	10.07
240.952	132.95
241.169	71.51
241.386	104.28
241.603	-18.6
241.821	-0.17
242.038	79.7
242.255	79.7
242.472	26.45
242.689	32.6
242.907	106.32
243.124	63.32
243.341	79.7
243.558	75.6
243.775	3.93
243.992	5.97
244.209	65.36
244.426	73.56
244.643	46.93
244.86	89.94
245.078	59.22
245.295	89.94
245.512	124.76
245.729	30.55
245.946	112.47
246.163	69.46
246.38	108.37
246.597	96.08
246.814	55.12
247.031	100.18
247.248	42.84
247.464	63.32
247.681	75.6
247.898	14.17
248.115	120.66
248.332	-18.6
248.549	59.22
248.766	137.04
248.983	132.95
249.2	57.17
249.417	178
249.633	112.47
249.85	83.8
250.067	24.4
250.284	-18.6
250.501	85.84
250.717	96.08
250.934	26.45
251.151	73.56
251.368	34.64
251.585	12.12
251.801	40.79
252.018	-10.41
252.235	16.21
252.451	38.74
252.668	-34.99
252.885	79.7
253.102	22.36
253.318	5.97
253.535	44.88
253.752	14.17
253.968	14.17
254.185	48.98
254.401	89.94
254.618	46.93
254.835	24.4
255.051	149.33
255.268	77.65
255.484	104.28
255.701	12.12
255.917	98.13
256.134	-22.7
256.351	87.89
256.567	-30.89
256.784	10.07
257	-8.36
257.217	87.89
257.433	61.27
257.65	94.04
257.866	-18.6
258.082	55.12
258.299	-43.18
258.515	132.95
258.732	-32.94
258.948	16.21
259.165	73.56
259.381	18.26
259.597	53.08
259.814	71.51
260.03	30.55
260.246	79.7
260.463	-16.55
260.679	12.12
260.895	-14.51
261.112	116.56
261.328	61.27
261.544	65.36
261.761	169.81
261.977	-51.37
262.193	24.4
262.409	112.47
262.626	79.7
262.842	16.21
263.058	-10.41
263.274	120.66
263.49	161.62
263.707	38.74
263.923	83.8
264.139	96.08
264.355	89.94
264.571	46.93
264.787	16.21
265.004	110.42
265.22	18.26
265.436	81.75
265.652	14.17
265.868	73.56
266.084	51.03
266.3	-47.27
266.516	-34.99
266.732	55.12
266.948	-49.32
267.164	-22.7
267.38	124.76
267.596	14.17
267.812	132.95
268.028	38.74
268.244	22.36
268.46	104.28
268.676	73.56
268.892	48.98
269.108	26.45
269.324	24.4
269.54	48.98
269.756	55.12
269.972	-8.36
270.188	61.27
270.403	22.36
270.619	63.32
270.835	22.36
271.051	75.6
271.267	3.93
271.483	83.8
271.698	38.74
271.914	112.47
272.13	71.51
272.346	51.03
272.562	106.32
272.777	32.6
272.993	100.18
273.209	-0.17
273.425	-0.17
273.64	16.21
273.856	81.75
274.072	20.31
274.287	-2.22
274.503	61.27
274.719	83.8
274.934	46.93
275.15	5.97
275.366	120.66
275.581	30.55
275.797	55.12
276.012	67.41
276.228	24.4
276.444	38.74
276.659	30.55
276.875	1.88
277.09	22.36
277.306	-8.36
277.521	44.88
277.737	42.84
277.952	26.45
278.168	55.12
278.383	10.07
278.599	26.45
278.814	122.71
279.03	42.84
279.245	126.8
279.461	46.93
279.676	126.8
279.892	-26.79
280.107	5.97
280.322	44.88
280.538	83.8
280.753	22.36
280.969	48.98
281.184	98.13
281.399	59.22
281.615	42.84
281.83	46.93
282.045	18.26
282.26	-14.51
282.476	18.26
282.691	71.51
282.906	81.75
283.122	30.55
283.337	-24.75
283.552	108.37
283.767	14.17
283.983	89.94
284.198	46.93
284.413	83.8
284.628	5.97
284.843	55.12
285.058	22.36
285.274	30.55
285.489	-16.55
285.704	53.08
285.919	28.5
286.134	36.69
286.349	38.74
286.564	38.74
286.779	128.85
286.995	67.41
287.21	5.97
287.425	34.64
287.64	-12.46
287.855	32.6
288.07	-18.6
288.285	116.56
288.5	73.56
288.715	53.08
288.93	-16.55
289.145	104.28
289.36	71.51
289.575	59.22
289.79	100.18
290.004	48.98
290.219	65.36
290.434	-16.55
290.649	18.26
290.864	63.32
291.079	34.64
291.294	55.12
291.509	100.18
291.724	5.97
291.938	26.45
292.153	14.17
292.368	46.93
292.583	91.99
292.798	42.84
293.012	28.5
293.227	65.36
293.442	71.51
293.657	34.64
293.871	71.51
294.086	87.89
294.301	69.46
294.516	75.6
294.73	44.88
294.945	8.02
295.16	63.32
295.374	44.88
295.589	96.08
295.804	87.89
296.018	63.32
296.233	96.08
296.447	106.32
296.662	-39.08
296.877	77.65
297.091	34.64
297.306	132.95
297.52	22.36
297.735	71.51
297.949	67.41
298.164	-14.51
298.378	14.17
298.593	63.32
298.807	48.98
299.022	34.64
299.236	57.17
299.451	98.13
299.665	10.07
299.88	53.08
300.094	71.51
300.309	96.08
300.523	104.28
300.737	3.93
300.952	51.03
301.166	69.46
301.381	63.32
301.595	40.79
301.809	87.89
302.024	-4.27
302.238	-10.41
302.452	38.74
302.667	30.55
302.881	128.85
303.095	30.55
303.309	79.7
303.524	30.55
303.738	71.51
303.952	32.6
304.166	67.41
304.381	-8.36
304.595	104.28
304.809	30.55
305.023	30.55
305.237	46.93
305.452	-65.71
305.666	87.89
305.88	96.08
306.094	112.47
306.308	120.66
306.522	67.41
306.736	53.08
306.95	96.08
307.164	87.89
307.379	28.5
307.593	91.99
307.807	96.08
308.021	32.6
308.235	5.97
308.449	40.79
308.663	3.93
308.877	130.9
309.091	20.31
309.305	16.21
309.519	-6.31
309.733	67.41
309.947	-51.37
310.161	16.21
310.374	48.98
310.588	108.37
310.802	-18.6
311.016	16.21
311.23	89.94
311.444	38.74
311.658	51.03
311.872	91.99
312.085	-6.31
312.299	32.6
312.513	71.51
312.727	-26.79
312.941	83.8
313.154	42.84
313.368	20.31
313.582	51.03
313.796	-65.71
314.009	75.6
314.223	89.94
314.437	40.79
314.651	32.6
314.864	22.36
315.078	30.55
315.292	-16.55
315.505	65.36
315.719	120.66
315.933	53.08
316.146	5.97
316.36	40.79
316.573	48.98
316.787	59.22
317.001	139.09
317.214	1.88
317.428	63.32
317.641	-47.27
317.855	34.64
318.068	40.79
318.282	10.07
318.495	128.85
318.709	-10.41
318.922	34.64
319.136	-43.18
319.349	106.32
319.563	22.36
319.776	81.75
319.99	-10.41
320.203	98.13
320.417	65.36
320.63	22.36
320.843	130.9
321.057	67.41
321.27	26.45
321.483	65.36
321.697	137.04
321.91	75.6
322.124	5.97
322.337	51.03
322.55	-6.31
322.763	-10.41
322.977	-18.6
323.19	116.56
323.403	14.17
323.617	81.75
323.83	71.51
324.043	-10.41
324.256	69.46
324.469	14.17
324.683	104.28
324.896	-8.36
325.109	124.76
325.322	32.6
325.535	46.93
325.748	73.56
325.962	91.99
326.175	40.79
326.388	46.93
326.601	83.8
326.814	57.17
327.027	34.64
327.24	67.41
327.453	81.75
327.666	104.28
327.879	63.32
328.092	96.08
328.305	44.88
328.518	-22.7
328.731	22.36
328.944	30.55
329.157	55.12
329.37	57.17
329.583	91.99
329.796	120.66
330.009	-4.27
330.222	116.56
330.435	46.93
330.648	32.6
330.861	71.51
331.073	79.7
331.286	75.6
331.499	73.56
331.712	-2.22
331.925	-63.66
332.138	83.8
332.35	100.18
332.563	44.88
332.776	51.03
332.989	46.93
333.202	51.03
333.414	73.56
333.627	8.02
333.84	77.65
334.053	120.66
334.265	44.88
334.478	79.7
334.691	67.41
334.903	14.17
335.116	5.97
335.329	100.18
335.541	151.38
335.754	57.17
335.966	14.17
336.179	79.7
336.392	10.07
336.604	63.32
336.817	18.26
337.029	24.4
337.242	57.17
337.454	114.52
337.667	108.37
337.88	149.33
338.092	46.93
338.305	79.7
338.517	8.02
338.729	34.64
338.942	169.81
339.154	-22.7
339.367	24.4
339.579	79.7
339.792	34.64
340.004	69.46
340.217	83.8
340.429	55.12
340.641	63.32
340.854	96.08
341.066	30.55
341.278	40.79
341.491	141.14
341.703	71.51
341.915	16.21
342.128	26.45
342.34	30.55
342.552	51.03
342.764	24.4
342.977	67.41
343.189	137.04
343.401	63.32
343.613	38.74
343.826	14.17
344.038	48.98
344.25	51.03
344.462	1.88
344.674	141.14
344.886	83.8
345.099	-10.41
345.311	141.14
345.523	24.4
345.735	51.03
345.947	16.21
346.159	75.6
346.371	46.93
346.583	46.93
346.795	44.88
347.007	87.89
347.219	69.46
347.431	1.88
347.643	63.32
347.855	48.98
348.067	63.32
348.279	-12.46
348.491	79.7
348.703	147.28
348.915	126.8
349.127	57.17
349.339	38.74
349.551	94.04
349.763	30.55
349.975	30.55
350.187	112.47
350.399	104.28
350.61	120.66
350.822	38.74
351.034	40.79
351.246	55.12
351.458	112.47
351.669	32.6
351.881	128.85
352.093	87.89
352.305	112.47
352.517	42.84
352.728	85.84
352.94	73.56
353.152	85.84
353.363	63.32
353.575	151.38
353.787	96.08
353.999	98.13
354.21	153.43
354.422	30.55
354.633	48.98
354.845	96.08
355.057	22.36
355.268	-26.79
355.48	73.56
355.692	40.79
355.903	46.93
356.115	16.21
356.326	120.66
356.538	61.27
356.749	12.12
356.961	71.51
357.172	106.32
357.384	10.07
357.595	85.84
357.807	-14.51
358.018	30.55
358.23	104.28
358.441	89.94
358.653	89.94
358.864	71.51
359.075	40.79
359.287	32.6
359.498	104.28
359.709	112.47
359.921	30.55
360.132	32.6
360.344	106.32
360.555	-67.75
360.766	38.74
360.977	61.27
361.189	83.8
361.4	8.02
361.611	137.04
361.823	42.84
362.034	91.99
362.245	10.07
362.456	112.47
362.667	106.32
362.879	46.93
363.09	73.56
363.301	87.89
363.512	40.79
363.723	40.79
363.935	59.22
364.146	79.7
364.357	104.28
364.568	-2.22
364.779	-26.79
364.99	61.27
365.201	34.64
365.412	63.32
365.623	139.09
365.834	55.12
366.045	104.28
366.256	5.97
366.467	83.8
366.678	18.26
366.889	30.55
367.1	67.41
367.311	73.56
367.522	18.26
367.733	149.33
367.944	104.28
368.155	36.69
368.366	46.93
368.577	108.37
368.788	110.42
368.999	30.55
369.209	22.36
369.42	124.76
369.631	218.96
369.842	46.93
370.053	120.66
370.264	59.22
370.474	18.26
370.685	81.75
370.896	67.41
371.107	48.98
371.317	48.98
371.528	73.56
371.739	153.43
371.95	147.28
372.16	51.03
372.371	22.36
372.582	53.08
372.792	94.04
373.003	51.03
373.214	38.74
373.424	55.12
373.635	42.84
373.846	104.28
374.056	120.66
374.267	46.93
374.477	83.8
374.688	87.89
374.898	63.32
375.109	100.18
375.319	87.89
375.53	98.13
375.74	67.41
375.951	112.47
376.161	59.22
376.372	124.76
376.582	114.52
376.793	42.84
377.003	73.56
377.214	55.12
377.424	87.89
377.635	112.47
377.845	-14.51
378.055	112.47
378.266	59.22
378.476	96.08
378.686	59.22
378.897	139.09
379.107	155.47
379.317	108.37
379.528	55.12
379.738	67.41
379.948	55.12
380.158	79.7
380.369	112.47
380.579	40.79
380.789	94.04
380.999	145.24
381.21	77.65
381.42	79.7
381.63	104.28
381.84	46.93
382.05	81.75
382.261	38.74
382.471	94.04
382.681	57.17
382.891	165.71
383.101	48.98
383.311	98.13
383.521	65.36
383.731	143.19
383.941	38.74
384.151	30.55
384.361	63.32
384.571	75.6
384.781	137.04
384.991	79.7
385.201	155.47
385.411	165.71
385.621	77.65
385.831	106.32
386.041	163.67
386.251	63.32
386.461	91.99
386.671	104.28
386.881	77.65
387.091	40.79
387.301	57.17
387.511	106.32
387.72	71.51
387.93	124.76
388.14	75.6
388.35	46.93
388.56	112.47
388.769	116.56
388.979	108.37
389.189	18.26
389.399	112.47
389.609	63.32
389.818	98.13
390.028	124.76
390.238	114.52
390.447	83.8
390.657	137.04
390.867	89.94
391.076	91.99
391.286	149.33
391.496	104.28
391.705	163.67
391.915	186.19
392.125	147.28
392.334	73.56
392.544	198.48
392.753	130.9
392.963	100.18
393.172	145.24
393.382	73.56
393.591	104.28
393.801	55.12
394.01	118.61
394.22	114.52
394.429	132.95
394.639	141.14
394.848	169.81
395.058	42.84
395.267	73.56
395.477	24.4
395.686	114.52
395.895	124.76
396.105	124.76
396.314	173.91
396.524	153.43
396.733	55.12
396.942	161.62
397.152	175.95
397.361	137.04
397.57	210.77
397.78	139.09
397.989	153.43
398.198	223.06
398.407	165.71
398.617	104.28
398.826	180.05
399.035	91.99
399.244	139.09
399.453	137.04
399.663	100.18
399.872	163.67
400.081	118.61
400.29	124.76
400.499	157.52
400.708	192.34
400.917	116.56
401.127	188.24
401.336	145.24
401.545	237.39
401.754	155.47
401.963	175.95
402.172	114.52
402.381	128.85
402.59	200.53
402.799	184.15
403.008	216.91
403.217	194.39
403.426	210.77
403.635	153.43
403.844	83.8
404.053	202.58
404.262	210.77
404.471	257.87
404.68	169.81
404.888	202.58
405.097	214.87
405.306	210.77
405.515	165.71
405.724	235.35
405.933	218.96
406.142	208.72
406.35	245.59
406.559	270.16
406.768	167.76
406.977	286.54
407.185	212.82
407.394	282.45
407.603	294.74
407.812	350.03
408.02	298.83
408.229	317.26
408.438	268.11
408.646	257.87
408.855	378.7
409.064	343.89
409.272	300.88
409.481	390.99
409.69	290.64
409.898	335.7
410.107	399.18
410.315	438.09
410.524	460.62
410.733	493.39
410.941	423.76
411.15	499.53
411.358	382.8
411.567	599.88
411.775	526.16
411.984	565.07
412.192	522.06
412.401	530.25
412.609	649.04
412.818	628.56
413.026	651.08
413.234	669.52
413.443	614.22
413.651	710.47
413.86	698.19
414.068	825.16
414.276	786.25
414.485	825.16
414.693	857.93
414.901	894.79
415.11	882.5
415.318	915.27
415.526	876.36
415.734	1003.33
415.943	982.85
416.151	1089.35
416.359	1021.77
416.567	1097.54
416.776	1111.88
416.984	1193.8
417.192	1271.62
417.4	1269.57
417.608	1263.43
417.817	1326.91
418.025	1337.15
418.233	1513.28
418.441	1398.59
418.649	1529.66
418.857	1619.77
419.065	1595.2
419.273	1578.81
419.481	1816.38
419.689	1873.72
419.897	1949.5
420.105	1945.4
420.313	1949.5
420.521	2103.09
420.729	2170.68
420.937	2176.82
421.145	2299.7
421.353	2357.04
421.561	2537.26
421.769	2498.35
421.977	2578.22
422.185	2594.61
422.393	2823.98
422.601	2877.23
422.809	2909.99
423.017	2883.37
423.224	2957.1
423.432	3190.56
423.64	3168.04
423.848	3579.68
424.056	3333.92
424.263	3643.17
424.471	3700.51
424.679	3761.95
424.887	3972.89
425.094	3974.94
425.302	4157.21
425.51	4237.08
425.718	4239.12
425.925	4306.71
426.133	4448.02
426.341	4679.44
426.548	4972.3
426.756	5076.74
426.964	4990.73
427.171	5381.89
427.379	5338.88
427.586	5535.49
427.794	5725.95
428.001	6020.86
428.209	6283
428.417	6086.39
428.624	6778.61
428.832	6557.43
429.039	6594.29
429.247	6731.5
429.454	7161.58
429.662	7730.91
429.869	7157.48
430.076	7792.35
430.284	7560.93
430.491	7798.49
430.699	8281.81
430.906	8148.7
431.114	8189.66
431.321	8599.25
431.528	8885.97
431.736	9320.14
431.943	9785.02
432.15	9230.02
432.358	9533.12
432.565	9957.05
432.772	9907.9
432.979	10309.3
433.187	10567.35
433.394	10567.35
433.601	11554.47
433.808	11468.45
434.016	11540.13
434.223	11906.72
434.43	12662.42
434.637	12295.83
434.844	13196.94
435.052	13358.73
435.259	13342.35
435.466	13416.07
435.673	13481.61
435.88	13909.63
436.087	14886.51
436.294	15076.98
436.501	14542.46
436.708	14958.19
436.915	15357.55
437.122	15998.56
437.329	16176.73
437.537	16504.41
437.743	16795.22
437.95	16479.83
438.157	17894.98
438.364	18388.54
438.571	18046.53
438.778	18208.32
438.985	19623.47
439.192	18824.76
439.399	19600.94
439.606	19002.93
439.813	20473.37
440.02	21648.91
440.227	20985.37
440.433	20794.9
440.64	21423.63
440.847	21257.74
441.054	22078.98
441.261	23125.49
441.467	23090.68
441.674	23406.06
441.881	24417.76
442.088	24317.41
442.294	24350.18
442.501	24563.17
442.708	24993.24
442.914	26432.96
443.121	26994.11
443.328	26359.24
443.534	28431.78
443.741	27424.18
443.948	27243.96
444.154	29308.31
444.361	28949.92
444.568	29128.09
444.774	28829.09
444.981	29447.57
445.187	30018.96
445.394	31442.29
445.6	31133.05
445.807	34067.79
446.013	32705.89
446.22	33312.09
446.426	34633.03
446.633	34839.87
446.839	36142.38
447.046	34221.39
447.252	36314.41
447.459	36523.3
447.665	36629.8
447.871	37977.36
448.078	39654.65
448.284	37506.33
448.491	38690.05
448.697	39978.23
448.903	40922.34
449.11	40416.49
449.316	40262.89
449.522	40879.33
449.728	42388.69
449.935	42366.16
450.141	42048.72
450.347	43375.81
450.553	41616.6
450.76	42441.93
450.966	44031.16
451.172	43121.86
451.378	44526.77
451.584	43691.19
451.791	44485.81
451.997	44567.73
452.203	44778.67
452.409	45210.79
452.615	45044.9
452.821	43340.99
453.027	43136.2
453.233	45155.49
453.44	43543.74
453.646	43558.08
453.852	43576.51
454.058	45001.89
454.264	43533.5
454.47	44491.95
454.676	43271.36
454.882	44407.98
455.088	40928.48
455.294	41422.05
455.5	42323.15
455.705	42484.94
455.911	40865
456.117	40146.16
456.323	39597.31
456.529	37709.08
456.735	39238.91
456.941	38319.37
457.147	37588.25
457.352	36613.41
457.558	36164.91
457.764	36023.6
457.97	35826.99
458.176	34643.27
458.381	34667.84
458.587	33158.49
458.793	32585.06
458.999	31434.1
459.204	33467.73
459.41	32726.37
459.616	30735.74
459.821	30457.22
460.027	30676.35
460.233	29662.61
460.438	28364.2
460.644	28437.92
460.85	27385.27
461.055	26729.92
461.261	26768.83
461.466	24684
461.672	23737.84
461.878	25482.7
462.083	23889.38
462.289	23698.92
462.494	23408.11
462.7	22431.23
462.905	21724.68
463.111	22427.14
463.316	22681.08
463.522	22081.03
463.727	21886.47
463.932	21843.46
464.138	21419.53
464.343	21554.7
464.549	21427.73
464.754	21825.03
464.959	21743.11
465.165	21104.15
465.37	20313.63
465.575	19895.85
465.781	20608.54
465.986	20725.27
466.191	19895.85
