Data from USB4F104151__103__14-30-52-817.txt Node

Date: Thu Mar 13 14:30:52 EDT 2025
User: louis
Spectrometer: USB4F10415
Trigger mode: 4
Integration Time (sec): 2.500000E-2
Scans to average: 1
Electric dark correction enabled: true
Nonlinearity correction enabled: false
Boxcar width: 0
XAxis mode: Wavelengths
Number of Pixels in Spectrum: 3648
>>>>>Begin Spectral Data<<<<<
178.204	-138.75
178.424	-138.75
178.644	-138.75
178.864	-157.18
179.084	-167.42
179.304	-24.06
179.524	-58.88
179.744	8.7
179.964	35.33
180.184	-30.21
180.404	76.29
180.624	-28.16
180.844	0.51
181.064	-52.74
181.283	57.86
181.503	-40.45
181.723	55.81
181.943	-126.46
182.163	88.57
182.383	16.9
182.602	72.19
182.822	86.53
183.042	66.05
183.262	14.85
183.482	29.18
183.701	-44.54
183.921	47.62
184.141	-1.54
184.361	88.57
184.58	16.9
184.8	80.38
185.02	12.8
185.239	33.28
185.459	33.28
185.679	55.81
185.898	4.61
186.118	76.29
186.338	66.05
186.557	64
186.777	45.57
186.997	0.51
187.216	-9.73
187.436	80.38
187.655	16.9
187.875	-17.92
188.095	96.77
188.314	8.7
188.534	127.49
188.753	20.99
188.973	33.28
189.192	20.99
189.412	86.53
189.631	-28.16
189.851	-11.78
190.07	94.72
190.29	12.8
190.509	-26.11
190.729	16.9
190.948	137.73
191.168	135.68
191.387	20.99
191.607	49.66
191.826	72.19
192.045	61.95
192.265	29.18
192.484	51.71
192.704	61.95
192.923	31.23
193.142	143.87
193.362	23.04
193.581	23.04
193.8	66.05
194.02	121.34
194.239	96.77
194.458	20.99
194.678	12.8
194.897	47.62
195.116	45.57
195.335	4.61
195.555	90.62
195.774	57.86
195.993	12.8
196.212	29.18
196.432	31.23
196.651	53.76
196.87	61.95
197.089	147.97
197.308	109.05
197.528	107.01
197.747	78.33
197.966	-17.92
198.185	70.14
198.404	14.85
198.623	12.8
198.842	94.72
199.062	-30.21
199.281	47.62
199.5	23.04
199.719	111.1
199.938	49.66
200.157	55.81
200.376	-24.06
200.595	47.62
200.814	8.7
201.033	39.42
201.252	57.86
201.471	45.57
201.69	53.76
201.909	-7.68
202.128	135.68
202.347	66.05
202.566	-32.26
202.785	-5.63
203.004	37.38
203.223	135.68
203.442	90.62
203.661	20.99
203.879	53.76
204.098	-17.92
204.317	57.86
204.536	53.76
204.755	137.73
204.974	37.38
205.193	37.38
205.411	76.29
205.63	-58.88
205.849	29.18
206.068	49.66
206.287	16.9
206.505	41.47
206.724	61.95
206.943	29.18
207.162	-11.78
207.381	61.95
207.599	4.61
207.818	-11.78
208.037	94.72
208.255	2.56
208.474	0.51
208.693	16.9
208.911	53.76
209.13	-30.21
209.349	33.28
209.567	-7.68
209.786	80.38
210.005	66.05
210.223	6.66
210.442	10.75
210.661	23.04
210.879	31.23
211.098	-19.97
211.316	29.18
211.535	31.23
211.753	-13.82
211.972	10.75
212.191	70.14
212.409	119.29
212.628	-9.73
212.846	37.38
213.065	-7.68
213.283	94.72
213.502	98.81
213.72	-36.35
213.938	12.8
214.157	74.24
214.375	6.66
214.594	68.09
214.812	86.53
215.031	12.8
215.249	82.43
215.467	47.62
215.686	4.61
215.904	57.86
216.122	45.57
216.341	49.66
216.559	47.62
216.778	-28.16
216.996	-3.58
217.214	59.9
217.432	-9.73
217.651	37.38
217.869	88.57
218.087	113.15
218.306	18.94
218.524	92.67
218.742	37.38
218.96	23.04
219.179	68.09
219.397	4.61
219.615	139.77
219.833	4.61
220.051	74.24
220.27	156.16
220.488	57.86
220.706	61.95
220.924	-7.68
221.142	-3.58
221.36	61.95
221.578	47.62
221.796	57.86
222.015	-11.78
222.233	41.47
222.451	68.09
222.669	-1.54
222.887	53.76
223.105	12.8
223.323	23.04
223.541	-11.78
223.759	-48.64
223.977	-52.74
224.195	119.29
224.413	45.57
224.631	55.81
224.849	20.99
225.067	119.29
225.285	41.47
225.503	12.8
225.721	76.29
225.939	16.9
226.157	82.43
226.375	121.34
226.592	20.99
226.81	78.33
227.028	-3.58
227.246	35.33
227.464	55.81
227.682	39.42
227.9	70.14
228.117	64
228.335	41.47
228.553	-15.87
228.771	51.71
228.989	14.85
229.206	31.23
229.424	10.75
229.642	-1.54
229.86	20.99
230.077	72.19
230.295	25.09
230.513	109.05
230.731	96.77
230.948	111.1
231.166	-3.58
231.384	-9.73
231.601	-15.87
231.819	51.71
232.037	70.14
232.254	-15.87
232.472	47.62
232.689	14.85
232.907	37.38
233.125	-28.16
233.342	47.62
233.56	-9.73
233.777	25.09
233.995	2.56
234.213	119.29
234.43	4.61
234.648	102.91
234.865	37.38
235.083	2.56
235.3	31.23
235.518	-3.58
235.735	53.76
235.953	41.47
236.17	70.14
236.388	14.85
236.605	12.8
236.822	49.66
237.04	49.66
237.257	49.66
237.475	-40.45
237.692	45.57
237.909	16.9
238.127	-9.73
238.344	154.11
238.562	53.76
238.779	-9.73
238.996	-52.74
239.214	84.48
239.431	31.23
239.648	41.47
239.865	55.81
240.083	45.57
240.3	-52.74
240.517	-26.11
240.735	27.14
240.952	4.61
241.169	16.9
241.386	45.57
241.603	49.66
241.821	-9.73
242.038	53.76
242.255	20.99
242.472	-52.74
242.689	55.81
242.907	80.38
243.124	55.81
243.341	49.66
243.558	-26.11
243.775	-36.35
243.992	16.9
244.209	72.19
244.426	100.86
244.643	20.99
244.86	14.85
245.078	37.38
245.295	45.57
245.512	57.86
245.729	6.66
245.946	86.53
246.163	18.94
246.38	12.8
246.597	37.38
246.814	70.14
247.031	20.99
247.248	14.85
247.464	41.47
247.681	61.95
247.898	55.81
248.115	-11.78
248.332	37.38
248.549	129.53
248.766	102.91
248.983	78.33
249.2	53.76
249.417	41.47
249.633	-19.97
249.85	20.99
250.067	20.99
250.284	16.9
250.501	84.48
250.717	72.19
250.934	10.75
251.151	31.23
251.368	37.38
251.585	90.62
251.801	66.05
252.018	2.56
252.235	47.62
252.451	29.18
252.668	33.28
252.885	78.33
253.102	49.66
253.318	29.18
253.535	2.56
253.752	8.7
253.968	27.14
254.185	86.53
254.401	29.18
254.618	72.19
254.835	29.18
255.051	139.77
255.268	94.72
255.484	12.8
255.701	37.38
255.917	45.57
256.134	20.99
256.351	72.19
256.567	14.85
256.784	53.76
257	-48.64
257.217	135.68
257.433	102.91
257.65	70.14
257.866	0.51
258.082	-32.26
258.299	-22.02
258.515	86.53
258.732	-32.26
258.948	35.33
259.165	-5.63
259.381	68.09
259.597	-11.78
259.814	47.62
260.03	-50.69
260.246	115.2
260.463	33.28
260.679	64
260.895	49.66
261.112	4.61
261.328	84.48
261.544	-50.69
261.761	84.48
261.977	-42.5
262.193	-93.69
262.409	6.66
262.626	45.57
262.842	53.76
263.058	-24.06
263.274	-9.73
263.49	25.09
263.707	20.99
263.923	55.81
264.139	25.09
264.355	31.23
264.571	113.15
264.787	-3.58
265.004	61.95
265.22	51.71
265.436	41.47
265.652	-19.97
265.868	70.14
266.084	29.18
266.3	53.76
266.516	31.23
266.732	-1.54
266.948	74.24
267.164	39.42
267.38	109.05
267.596	78.33
267.812	111.1
268.028	4.61
268.244	41.47
268.46	-58.88
268.676	88.57
268.892	45.57
269.108	-32.26
269.324	8.7
269.54	33.28
269.756	45.57
269.972	-77.31
270.188	29.18
270.403	49.66
270.619	39.42
270.835	31.23
271.051	104.96
271.267	80.38
271.483	4.61
271.698	37.38
271.914	31.23
272.13	39.42
272.346	-48.64
272.562	25.09
272.777	74.24
272.993	39.42
273.209	98.81
273.425	-22.02
273.64	-28.16
273.856	51.71
274.072	47.62
274.287	-69.12
274.503	29.18
274.719	2.56
274.934	16.9
275.15	8.7
275.366	117.25
275.581	39.42
275.797	64
276.012	78.33
276.228	115.2
276.444	33.28
276.659	57.86
276.875	12.8
277.09	47.62
277.306	0.51
277.521	29.18
277.737	49.66
277.952	94.72
278.168	37.38
278.383	160.25
278.599	4.61
278.814	4.61
279.03	25.09
279.245	45.57
279.461	27.14
279.676	55.81
279.892	-34.3
280.107	37.38
280.322	37.38
280.538	35.33
280.753	37.38
280.969	20.99
281.184	18.94
281.399	111.1
281.615	31.23
281.83	20.99
282.045	45.57
282.26	-28.16
282.476	53.76
282.691	33.28
282.906	-38.4
283.122	45.57
283.337	45.57
283.552	78.33
283.767	-36.35
283.983	61.95
284.198	-15.87
284.413	70.14
284.628	8.7
284.843	104.96
285.058	78.33
285.274	70.14
285.489	29.18
285.704	39.42
285.919	0.51
286.134	53.76
286.349	-11.78
286.564	-34.3
286.779	131.58
286.995	14.85
287.21	-3.58
287.425	64
287.64	-1.54
287.855	135.68
288.07	8.7
288.285	55.81
288.5	16.9
288.715	-15.87
288.93	92.67
289.145	12.8
289.36	107.01
289.575	31.23
289.79	74.24
290.004	31.23
290.219	64
290.434	41.47
290.649	20.99
290.864	31.23
291.079	-17.92
291.294	0.51
291.509	70.14
291.724	70.14
291.938	33.28
292.153	37.38
292.368	49.66
292.583	57.86
292.798	70.14
293.012	88.57
293.227	-19.97
293.442	-7.68
293.657	41.47
293.871	129.53
294.086	33.28
294.301	131.58
294.516	53.76
294.73	35.33
294.945	-7.68
295.16	-9.73
295.374	78.33
295.589	129.53
295.804	-5.63
296.018	-15.87
296.233	90.62
296.447	55.81
296.662	-7.68
296.877	61.95
297.091	20.99
297.306	-17.92
297.52	-44.54
297.735	47.62
297.949	74.24
298.164	39.42
298.378	39.42
298.593	49.66
298.807	4.61
299.022	137.73
299.236	94.72
299.451	8.7
299.665	41.47
299.88	88.57
300.094	78.33
300.309	72.19
300.523	29.18
300.737	12.8
300.952	0.51
301.166	-28.16
301.381	45.57
301.595	51.71
301.809	6.66
302.024	53.76
302.238	-9.73
302.452	88.57
302.667	45.57
302.881	102.91
303.095	94.72
303.309	4.61
303.524	94.72
303.738	47.62
303.952	-3.58
304.166	12.8
304.381	-65.02
304.595	94.72
304.809	14.85
305.023	39.42
305.237	53.76
305.452	6.66
305.666	76.29
305.88	61.95
306.094	104.96
306.308	23.04
306.522	53.76
306.736	39.42
306.95	39.42
307.164	64
307.379	-9.73
307.593	123.39
307.807	94.72
308.021	127.49
308.235	27.14
308.449	-34.3
308.663	88.57
308.877	72.19
309.091	41.47
309.305	70.14
309.519	-32.26
309.733	94.72
309.947	-11.78
310.161	6.66
310.374	88.57
310.588	137.73
310.802	-24.06
311.016	16.9
311.23	37.38
311.444	-17.92
311.658	111.1
311.872	53.76
312.085	45.57
312.299	49.66
312.513	94.72
312.727	66.05
312.941	61.95
313.154	78.33
313.368	8.7
313.582	12.8
313.796	25.09
314.009	57.86
314.223	18.94
314.437	70.14
314.651	82.43
314.864	29.18
315.078	12.8
315.292	-65.02
315.505	-17.92
315.719	168.45
315.933	70.14
316.146	64
316.36	6.66
316.573	43.52
316.787	53.76
317.001	88.57
317.214	10.75
317.428	51.71
317.641	16.9
317.855	39.42
318.068	23.04
318.282	53.76
318.495	4.61
318.709	80.38
318.922	23.04
319.136	64
319.349	61.95
319.563	94.72
319.776	70.14
319.99	20.99
320.203	23.04
320.417	57.86
320.63	14.85
320.843	61.95
321.057	107.01
321.27	88.57
321.483	98.81
321.697	131.58
321.91	33.28
322.124	53.76
322.337	66.05
322.55	-3.58
322.763	49.66
322.977	-46.59
323.19	29.18
323.403	14.85
323.617	78.33
323.83	49.66
324.043	12.8
324.256	25.09
324.469	-24.06
324.683	37.38
324.896	49.66
325.109	86.53
325.322	23.04
325.535	90.62
325.748	10.75
325.962	12.8
326.175	41.47
326.388	102.91
326.601	78.33
326.814	-32.26
327.027	119.29
327.24	102.91
327.453	16.9
327.666	23.04
327.879	70.14
328.092	53.76
328.305	94.72
328.518	-11.78
328.731	45.57
328.944	25.09
329.157	111.1
329.37	-42.5
329.583	147.97
329.796	88.57
330.009	-26.11
330.222	61.95
330.435	59.9
330.648	37.38
330.861	-26.11
331.073	143.87
331.286	43.52
331.499	61.95
331.712	29.18
331.925	45.57
332.138	-7.68
332.35	111.1
332.563	82.43
332.776	160.25
332.989	55.81
333.202	20.99
333.414	2.56
333.627	-11.78
333.84	-75.26
334.053	25.09
334.265	49.66
334.478	4.61
334.691	107.01
334.903	53.76
335.116	47.62
335.329	-38.4
335.541	49.66
335.754	90.62
335.966	18.94
336.179	37.38
336.392	45.57
336.604	72.19
336.817	45.57
337.029	57.86
337.242	31.23
337.454	74.24
337.667	25.09
337.88	111.1
338.092	70.14
338.305	64
338.517	-3.58
338.729	70.14
338.942	113.15
339.154	23.04
339.367	-1.54
339.579	12.8
339.792	-7.68
340.004	111.1
340.217	80.38
340.429	10.75
340.641	57.86
340.854	16.9
341.066	70.14
341.278	70.14
341.491	119.29
341.703	51.71
341.915	39.42
342.128	45.57
342.34	29.18
342.552	37.38
342.764	96.77
342.977	4.61
343.189	47.62
343.401	170.49
343.613	-17.92
343.826	80.38
344.038	37.38
344.25	170.49
344.462	0.51
344.674	76.29
344.886	72.19
345.099	45.57
345.311	66.05
345.523	74.24
345.735	-9.73
345.947	94.72
346.159	76.29
346.371	39.42
346.583	45.57
346.795	188.93
347.007	107.01
347.219	68.09
347.431	-3.58
347.643	6.66
347.855	45.57
348.067	64
348.279	-11.78
348.491	-5.63
348.703	72.19
348.915	45.57
349.127	23.04
349.339	94.72
349.551	39.42
349.763	94.72
349.975	88.57
350.187	-19.97
350.399	57.86
350.61	53.76
350.822	57.86
351.034	74.24
351.246	-15.87
351.458	72.19
351.669	107.01
351.881	86.53
352.093	102.91
352.305	86.53
352.517	82.43
352.728	88.57
352.94	8.7
353.152	88.57
353.363	-11.78
353.575	61.95
353.787	72.19
353.999	43.52
354.21	152.06
354.422	47.62
354.633	94.72
354.845	37.38
355.057	53.76
355.268	78.33
355.48	94.72
355.692	-5.63
355.903	57.86
356.115	4.61
356.326	14.85
356.538	47.62
356.749	119.29
356.961	64
357.172	-24.06
357.384	14.85
357.595	170.49
357.807	45.57
358.018	8.7
358.23	102.91
358.441	137.73
358.653	123.39
358.864	37.38
359.075	61.95
359.287	0.51
359.498	133.63
359.709	70.14
359.921	86.53
360.132	104.96
360.344	98.81
360.555	0.51
360.766	35.33
360.977	119.29
361.189	23.04
361.4	-19.97
361.611	121.34
361.823	80.38
362.034	59.9
362.245	-3.58
362.456	39.42
362.667	119.29
362.879	39.42
363.09	27.14
363.301	94.72
363.512	-22.02
363.723	29.18
363.935	-7.68
364.146	12.8
364.357	47.62
364.568	154.11
364.779	82.43
364.99	102.91
365.201	55.81
365.412	33.28
365.623	-48.64
365.834	4.61
366.045	66.05
366.256	61.95
366.467	23.04
366.678	76.29
366.889	133.63
367.1	-7.68
367.311	74.24
367.522	86.53
367.733	64
367.944	-13.82
368.155	72.19
368.366	-1.54
368.577	154.11
368.788	37.38
368.999	59.9
369.209	78.33
369.42	115.2
369.631	127.49
369.842	137.73
370.053	41.47
370.264	100.86
370.474	61.95
370.685	49.66
370.896	37.38
371.107	70.14
371.317	102.91
371.528	92.67
371.739	137.73
371.95	78.33
372.16	170.49
372.371	-3.58
372.582	43.52
372.792	68.09
373.003	72.19
373.214	74.24
373.424	84.48
373.635	80.38
373.846	55.81
374.056	29.18
374.267	43.52
374.477	-11.78
374.688	55.81
374.898	29.18
375.109	102.91
375.319	84.48
375.53	119.29
375.74	61.95
375.951	47.62
376.161	102.91
376.372	70.14
376.582	10.75
376.793	72.19
377.003	6.66
377.214	66.05
377.424	39.42
377.635	66.05
377.845	43.52
378.055	37.38
378.266	35.33
378.476	31.23
378.686	90.62
378.897	121.34
379.107	-3.58
379.317	80.38
379.528	64
379.738	-9.73
379.948	92.67
380.158	37.38
380.369	12.8
380.579	45.57
380.789	57.86
380.999	168.45
381.21	47.62
381.42	135.68
381.63	-11.78
381.84	102.91
382.05	78.33
382.261	61.95
382.471	98.81
382.681	70.14
382.891	25.09
383.101	193.02
383.311	6.66
383.521	25.09
383.731	178.69
383.941	57.86
384.151	98.81
384.361	18.94
384.571	94.72
384.781	72.19
384.991	127.49
385.201	107.01
385.411	102.91
385.621	80.38
385.831	37.38
386.041	66.05
386.251	-28.16
386.461	102.91
386.671	70.14
386.881	39.42
387.091	51.71
387.301	49.66
387.511	80.38
387.72	111.1
387.93	123.39
388.14	29.18
388.35	33.28
388.56	39.42
388.769	29.18
388.979	84.48
389.189	102.91
389.399	70.14
389.609	113.15
389.818	96.77
390.028	162.3
390.238	72.19
390.447	4.61
390.657	123.39
390.867	131.58
391.076	49.66
391.286	117.25
391.496	25.09
391.705	20.99
391.915	107.01
392.125	172.54
392.334	53.76
392.544	193.02
392.753	70.14
392.963	88.57
393.172	137.73
393.382	4.61
393.591	180.73
393.801	74.24
394.01	176.64
394.22	86.53
394.429	160.25
394.639	131.58
394.848	135.68
395.058	68.09
395.267	94.72
395.477	20.99
395.686	145.92
395.895	113.15
396.105	233.98
396.314	61.95
396.524	119.29
396.733	104.96
396.942	80.38
397.152	127.49
397.361	225.79
397.57	147.97
397.78	127.49
397.989	160.25
398.198	129.53
398.407	94.72
398.617	107.01
398.826	111.1
399.035	88.57
399.244	94.72
399.453	123.39
399.663	139.77
399.872	180.73
400.081	135.68
400.29	113.15
400.499	184.83
400.708	160.25
400.917	66.05
401.127	135.68
401.336	195.07
401.545	162.3
401.754	188.93
401.963	147.97
402.172	135.68
402.381	119.29
402.59	113.15
402.799	135.68
403.008	176.64
403.217	109.05
403.426	190.97
403.635	119.29
403.844	129.53
404.053	135.68
404.262	121.34
404.471	244.22
404.68	256.51
404.888	188.93
405.097	217.6
405.306	209.4
405.515	162.3
405.724	119.29
405.933	283.13
406.142	283.13
406.35	240.12
406.559	164.35
406.768	215.55
406.977	266.75
407.185	227.84
407.394	291.32
407.603	291.32
407.812	311.8
408.02	320
408.229	315.9
408.438	334.33
408.646	307.71
408.855	330.23
409.064	381.43
409.272	322.04
409.481	465.4
409.69	342.52
409.898	473.59
410.107	414.2
410.315	348.67
410.524	383.48
410.733	440.83
410.941	446.97
411.15	514.55
411.358	621.05
411.567	598.52
411.775	545.27
411.984	553.46
412.192	590.33
412.401	612.85
412.609	614.9
412.818	743.92
413.026	700.92
413.234	672.25
413.443	688.63
413.651	723.44
413.86	850.42
414.068	815.6
414.276	791.03
414.485	823.8
414.693	946.67
414.901	934.39
415.11	987.63
415.318	983.54
415.526	981.49
415.734	1014.26
415.943	1096.18
416.151	1159.66
416.359	1161.71
416.567	1184.24
416.776	1307.12
416.984	1307.12
417.192	1360.36
417.4	1339.88
417.608	1399.27
417.817	1425.9
418.025	1583.59
418.233	1685.99
418.441	1563.11
418.649	1573.35
418.857	1716.71
419.065	1880.55
419.273	1755.62
419.481	1851.88
419.689	1978.85
419.897	2046.43
420.105	2105.82
420.313	2134.5
420.521	2218.46
420.729	2306.52
420.937	2259.42
421.145	2353.63
421.353	2544.09
421.561	2609.62
421.769	2679.26
421.977	2929.11
422.185	2695.64
422.393	3049.94
422.601	3228.11
422.809	3092.94
423.017	3264.97
423.224	3224.01
423.432	3578.31
423.64	3494.35
423.848	3772.87
424.056	3576.27
424.263	3803.59
424.471	3899.84
424.679	4002.24
424.887	4256.19
425.094	4362.69
425.302	4293.05
425.51	4563.39
425.718	4735.42
425.925	4698.55
426.133	4911.54
426.341	5231.02
426.548	5493.16
426.756	5415.34
426.964	5378.48
427.171	5554.6
427.379	5804.46
427.586	5859.75
427.794	6279.58
428.001	6488.48
428.209	6779.29
428.417	6506.91
428.624	7156.11
428.832	7188.88
429.039	7135.64
429.247	7082.39
429.454	7682.44
429.662	8214.91
429.869	7633.29
430.076	8214.91
430.284	8112.52
430.491	8444.29
430.699	8866.17
430.906	8874.36
431.114	8999.29
431.321	9279.86
431.528	9556.33
431.736	10074.47
431.943	10522.98
432.15	10213.73
432.358	10408.29
432.565	11018.58
432.772	10914.14
432.979	11260.24
433.187	11366.74
433.394	11618.64
433.601	12601.66
433.808	12357.96
434.016	12372.29
434.223	12790.08
434.43	13844.78
434.637	13441.33
434.844	14129.45
435.052	14414.12
435.259	14311.72
435.466	14713.12
435.673	14465.32
435.88	15616.27
436.087	15970.57
436.294	16304.39
436.501	15954.19
436.708	16013.58
436.915	16652.55
437.122	17391.86
437.329	17426.68
437.537	17807.6
437.743	18190.57
437.95	17832.18
438.157	18591.97
438.364	19609.81
438.571	19689.68
438.778	19544.28
438.985	21420.22
439.192	20578.5
439.399	21139.65
439.606	20893.89
439.813	22067.38
440.02	23027.87
440.227	22714.53
440.433	22321.32
440.64	23208.09
440.847	23031.97
441.054	23697.56
441.261	25235.58
441.467	25063.55
441.674	25464.96
441.881	26398.83
442.088	26265.71
442.294	26087.54
442.501	26777.7
442.708	27388
442.914	28198.99
443.121	29546.56
443.328	28516.43
443.534	30844.97
443.741	29730.87
443.948	29382.72
444.154	31799.32
444.361	31385.63
444.568	31492.13
444.774	31627.29
444.981	32004.12
445.187	32960.52
445.394	34101.24
445.6	33650.69
445.807	36798.41
446.013	35538.91
446.22	35768.29
446.426	37435.33
446.633	37881.79
446.839	38930.35
447.046	37324.74
447.252	39708.58
447.459	39720.87
447.665	39356.33
447.871	40875.92
448.078	42725.24
448.284	40834.96
448.491	41584.52
448.697	43239.28
448.903	44003.17
449.11	44150.62
449.316	43482.98
449.522	44597.08
449.728	45530.95
449.935	46348.09
450.141	45977.41
450.347	46542.65
450.553	45205.33
450.76	46012.23
450.966	47357.74
451.172	46735.16
451.378	47906.6
451.584	47030.07
451.791	48211.74
451.997	48351.01
452.203	49137.43
452.409	48688.92
452.615	48379.68
452.821	46888.76
453.027	46434.11
453.233	49084.18
453.44	46710.58
453.646	47583.02
453.852	47648.55
454.058	48359.2
454.264	46772.02
454.47	48084.77
454.676	46778.17
454.882	48465.69
455.088	44066.66
455.294	45168.46
455.5	45360.97
455.705	46051.14
455.911	44287.84
456.117	43620.2
456.323	42362.75
456.529	40351.64
456.735	42100.61
456.941	41209.74
457.147	40351.64
457.352	39212.97
457.558	39315.37
457.764	38881.2
457.97	38438.84
458.176	37447.62
458.381	37412.81
458.587	35737.57
458.793	35831.77
458.999	33832.96
459.204	36073.43
459.41	34930.67
459.616	32530.45
459.821	32868.36
460.027	32815.12
460.233	32032.79
460.438	30500.91
460.644	31090.73
460.85	29343.81
461.055	28989.51
461.261	29020.23
461.466	26929.25
461.672	26058.87
461.878	27820.12
462.083	25942.13
462.289	25532.54
462.494	25272.45
462.7	24082.58
462.905	23394.46
463.111	24567.95
463.316	24479.88
463.522	23834.77
463.727	23589.02
463.932	23562.39
464.138	23523.48
464.343	23306.4
464.549	23048.35
464.754	23746.71
464.959	23279.77
465.165	23175.33
465.37	22255.79
465.575	21704.88
465.781	22614.18
465.986	22677.67
466.191	21958.83
466.397	21219.52
466.602	20269.26
