Data from USB4F104151__118__14-31-14-136.txt Node

Date: Thu Mar 13 14:31:14 EDT 2025
User: louis
Spectrometer: USB4F10415
Trigger mode: 4
Integration Time (sec): 2.500000E-2
Scans to average: 1
Electric dark correction enabled: true
Nonlinearity correction enabled: false
Boxcar width: 0
XAxis mode: Wavelengths
Number of Pixels in Spectrum: 3648
>>>>>Begin Spectral Data<<<<<
178.204	-134.31
178.424	-134.31
178.644	-134.31
178.864	-230.57
179.084	-212.14
179.304	19.29
179.524	-40.11
179.744	-23.72
179.964	45.91
180.184	41.81
180.404	-19.63
180.624	-3.24
180.844	-50.35
181.064	-3.24
181.283	-27.82
181.503	-9.39
181.723	70.48
181.943	-15.53
182.163	56.15
182.383	-23.72
182.602	-11.43
182.822	56.15
183.042	-38.06
183.262	33.62
183.482	58.2
183.701	-27.82
183.921	56.15
184.141	-17.58
184.361	23.38
184.58	2.9
184.8	-27.82
185.02	-15.53
185.239	-25.77
185.459	-40.11
185.679	78.68
185.898	-17.58
186.118	99.16
186.338	4.95
186.557	45.91
186.777	-56.49
186.997	-27.82
187.216	0.85
187.436	45.91
187.655	-1.19
187.875	-3.24
188.095	31.57
188.314	70.48
188.534	21.33
188.753	-25.77
188.973	23.38
189.192	33.62
189.412	-36.01
189.631	78.68
189.851	17.24
190.07	47.96
190.29	17.24
190.509	-38.06
190.729	41.81
190.948	-5.29
191.168	242.51
191.387	103.25
191.607	-19.63
191.826	-3.24
192.045	41.81
192.265	-5.29
192.484	45.91
192.704	-3.24
192.923	-44.2
193.142	99.16
193.362	62.29
193.581	62.29
193.8	-15.53
194.02	-9.39
194.239	-27.82
194.458	-7.34
194.678	7
194.897	136.02
195.116	13.14
195.335	90.96
195.555	45.91
195.774	7
195.993	-1.19
196.212	13.14
196.432	78.68
196.651	15.19
196.87	25.43
197.089	80.72
197.308	86.87
197.528	-3.24
197.747	-62.63
197.966	7
198.185	144.21
198.404	33.62
198.623	29.52
198.842	43.86
199.062	95.06
199.281	0.85
199.5	-23.72
199.719	0.85
199.938	66.39
200.157	70.48
200.376	70.48
200.595	39.76
200.814	-29.87
201.033	97.11
201.252	15.19
201.471	4.95
201.69	115.54
201.909	45.91
202.128	35.67
202.347	58.2
202.566	-1.19
202.785	52.05
203.004	-72.87
203.223	127.83
203.442	58.2
203.661	21.33
203.879	-3.24
204.098	35.67
204.317	54.1
204.536	33.62
204.755	35.67
204.974	-48.3
205.193	39.76
205.411	86.87
205.63	78.68
205.849	107.35
206.068	37.72
206.287	15.19
206.505	41.81
206.724	39.76
206.943	-11.43
207.162	64.34
207.381	9.05
207.599	17.24
207.818	-31.91
208.037	-38.06
208.255	29.52
208.474	33.62
208.693	-48.3
208.911	-15.53
209.13	23.38
209.349	62.29
209.567	29.52
209.786	82.77
210.005	13.14
210.223	-5.29
210.442	21.33
210.661	-7.34
210.879	23.38
211.098	23.38
211.316	50
211.535	62.29
211.753	9.05
211.972	23.38
212.191	29.52
212.409	-29.87
212.628	86.87
212.846	-42.15
213.065	21.33
213.283	68.44
213.502	-42.15
213.72	62.29
213.938	76.63
214.157	7
214.375	25.43
214.594	31.57
214.812	62.29
215.031	-13.48
215.249	39.76
215.467	13.14
215.686	37.72
215.904	43.86
216.122	17.24
216.341	41.81
216.559	-25.77
216.778	56.15
216.996	62.29
217.214	45.91
217.432	7
217.651	56.15
217.869	-21.67
218.087	41.81
218.306	29.52
218.524	47.96
218.742	-101.55
218.96	97.11
219.179	-3.24
219.397	21.33
219.615	82.77
219.833	39.76
220.051	78.68
220.27	-17.58
220.488	45.91
220.706	-85.16
220.924	-50.35
221.142	31.57
221.36	-31.91
221.578	21.33
221.796	-17.58
222.015	-7.34
222.233	-33.96
222.451	9.05
222.669	-15.53
222.887	23.38
223.105	-11.43
223.323	-27.82
223.541	80.72
223.759	82.77
223.977	-11.43
224.195	56.15
224.413	31.57
224.631	64.34
224.849	101.2
225.067	99.16
225.285	-33.96
225.503	-54.44
225.721	0.85
225.939	37.72
226.157	37.72
226.375	78.68
226.592	-54.44
226.81	11.09
227.028	-31.91
227.246	127.83
227.464	56.15
227.682	15.19
227.9	-29.87
228.117	84.82
228.335	66.39
228.553	21.33
228.771	21.33
228.989	13.14
229.206	47.96
229.424	23.38
229.642	31.57
229.86	43.86
230.077	21.33
230.295	21.33
230.513	50
230.731	-11.43
230.948	78.68
231.166	41.81
231.384	25.43
231.601	31.57
231.819	17.24
232.037	19.29
232.254	-52.39
232.472	54.1
232.689	-46.25
232.907	72.53
233.125	-25.77
233.342	13.14
233.56	-25.77
233.777	47.96
233.995	13.14
234.213	21.33
234.43	131.92
234.648	45.91
234.865	-31.91
235.083	29.52
235.3	64.34
235.518	70.48
235.735	74.58
235.953	84.82
236.17	-9.39
236.388	0.85
236.605	76.63
236.822	50
237.04	19.29
237.257	37.72
237.475	0.85
237.692	62.29
237.909	-31.91
238.127	-3.24
238.344	17.24
238.562	90.96
238.779	-99.5
238.996	33.62
239.214	-44.2
239.431	95.06
239.648	21.33
239.865	4.95
240.083	80.72
240.3	-19.63
240.517	-7.34
240.735	37.72
240.952	19.29
241.169	66.39
241.386	47.96
241.603	86.87
241.821	-60.59
242.038	41.81
242.255	52.05
242.472	-25.77
242.689	109.4
242.907	-7.34
243.124	-58.54
243.341	-38.06
243.558	19.29
243.775	-58.54
243.992	21.33
244.209	15.19
244.426	11.09
244.643	-1.19
244.86	95.06
245.078	113.49
245.295	127.83
245.512	0.85
245.729	-33.96
245.946	21.33
246.163	23.38
246.38	4.95
246.597	54.1
246.814	21.33
247.031	37.72
247.248	56.15
247.464	13.14
247.681	37.72
247.898	72.53
248.115	23.38
248.332	-58.54
248.549	70.48
248.766	80.72
248.983	56.15
249.2	-13.48
249.417	-1.19
249.633	17.24
249.85	-3.24
250.067	21.33
250.284	50
250.501	15.19
250.717	58.2
250.934	-60.59
251.151	17.24
251.368	56.15
251.585	111.44
251.801	78.68
252.018	41.81
252.235	13.14
252.451	15.19
252.668	-68.78
252.885	39.76
253.102	21.33
253.318	-25.77
253.535	-52.39
253.752	17.24
253.968	-40.11
254.185	-33.96
254.401	4.95
254.618	13.14
254.835	19.29
255.051	103.25
255.268	37.72
255.484	4.95
255.701	37.72
255.917	72.53
256.134	29.52
256.351	78.68
256.567	25.43
256.784	4.95
257	37.72
257.217	121.68
257.433	101.2
257.65	95.06
257.866	31.57
258.082	-31.91
258.299	-76.97
258.515	4.95
258.732	21.33
258.948	-19.63
259.165	4.95
259.381	21.33
259.597	21.33
259.814	27.48
260.03	0.85
260.246	99.16
260.463	9.05
260.679	45.91
260.895	-11.43
261.112	95.06
261.328	9.05
261.544	31.57
261.761	72.53
261.977	7
262.193	-89.26
262.409	-33.96
262.626	29.52
262.842	54.1
263.058	72.53
263.274	-7.34
263.49	-1.19
263.707	29.52
263.923	15.19
264.139	-29.87
264.355	-70.83
264.571	90.96
264.787	37.72
265.004	13.14
265.22	-11.43
265.436	-27.82
265.652	37.72
265.868	113.49
266.084	-60.59
266.3	54.1
266.516	31.57
266.732	-33.96
266.948	15.19
267.164	7
267.38	-33.96
267.596	7
267.812	66.39
268.028	33.62
268.244	-7.34
268.46	23.38
268.676	54.1
268.892	-31.91
269.108	2.9
269.324	-11.43
269.54	-46.25
269.756	37.72
269.972	-52.39
270.188	-15.53
270.403	37.72
270.619	15.19
270.835	-21.67
271.051	21.33
271.267	31.57
271.483	4.95
271.698	76.63
271.914	-9.39
272.13	-27.82
272.346	-66.73
272.562	72.53
272.777	129.88
272.993	-36.01
273.209	-15.53
273.425	45.91
273.64	-19.63
273.856	144.21
274.072	-11.43
274.287	74.58
274.503	111.44
274.719	-3.24
274.934	70.48
275.15	31.57
275.366	-15.53
275.581	-36.01
275.797	103.25
276.012	29.52
276.228	21.33
276.444	105.3
276.659	142.16
276.875	43.86
277.09	-11.43
277.306	-38.06
277.521	39.76
277.737	13.14
277.952	4.95
278.168	72.53
278.383	-23.72
278.599	-36.01
278.814	60.24
279.03	35.67
279.245	41.81
279.461	21.33
279.676	95.06
279.892	13.14
280.107	39.76
280.322	37.72
280.538	74.58
280.753	-52.39
280.969	35.67
281.184	-21.67
281.399	23.38
281.615	21.33
281.83	4.95
282.045	-3.24
282.26	21.33
282.476	37.72
282.691	-19.63
282.906	66.39
283.122	25.43
283.337	23.38
283.552	-1.19
283.767	15.19
283.983	72.53
284.198	29.52
284.413	54.1
284.628	-36.01
284.843	21.33
285.058	54.1
285.274	45.91
285.489	41.81
285.704	29.52
285.919	-13.48
286.134	-27.82
286.349	4.95
286.564	21.33
286.779	45.91
286.995	7
287.21	23.38
287.425	15.19
287.64	43.86
287.855	4.95
288.07	64.34
288.285	29.52
288.5	99.16
288.715	78.68
288.93	39.76
289.145	-48.3
289.36	23.38
289.575	-1.19
289.79	70.48
290.004	70.48
290.219	41.81
290.434	29.52
290.649	-52.39
290.864	29.52
291.079	23.38
291.294	50
291.509	19.29
291.724	-3.24
291.938	-95.4
292.153	9.05
292.368	37.72
292.583	50
292.798	9.05
293.012	72.53
293.227	70.48
293.442	21.33
293.657	50
293.871	93.01
294.086	13.14
294.301	95.06
294.516	-42.15
294.73	60.24
294.945	-7.34
295.16	29.52
295.374	-5.29
295.589	29.52
295.804	15.19
296.018	54.1
296.233	109.4
296.447	13.14
296.662	-15.53
296.877	58.2
297.091	47.96
297.306	43.86
297.52	-99.5
297.735	93.01
297.949	-99.5
298.164	70.48
298.378	7
298.593	45.91
298.807	0.85
299.022	62.29
299.236	31.57
299.451	-68.78
299.665	13.14
299.88	29.52
300.094	-97.45
300.309	25.43
300.523	-3.24
300.737	2.9
300.952	103.25
301.166	-1.19
301.381	21.33
301.595	0.85
301.809	15.19
302.024	-11.43
302.238	23.38
302.452	25.43
302.667	41.81
302.881	101.2
303.095	4.95
303.309	-64.68
303.524	7
303.738	7
303.952	9.05
304.166	21.33
304.381	-15.53
304.595	39.76
304.809	50
305.023	62.29
305.237	52.05
305.452	47.96
305.666	72.53
305.88	-9.39
306.094	25.43
306.308	45.91
306.522	21.33
306.736	72.53
306.95	-17.58
307.164	-19.63
307.379	64.34
307.593	97.11
307.807	43.86
308.021	-27.82
308.235	90.96
308.449	72.53
308.663	-21.67
308.877	113.49
309.091	45.91
309.305	56.15
309.519	-36.01
309.733	84.82
309.947	7
310.161	54.1
310.374	-21.67
310.588	80.72
310.802	52.05
311.016	-42.15
311.23	58.2
311.444	84.82
311.658	7
311.872	84.82
312.085	56.15
312.299	111.44
312.513	37.72
312.727	47.96
312.941	111.44
313.154	70.48
313.368	-7.34
313.582	29.52
313.796	45.91
314.009	25.43
314.223	29.52
314.437	-31.91
314.651	64.34
314.864	-11.43
315.078	60.24
315.292	56.15
315.505	82.77
315.719	50
315.933	52.05
316.146	86.87
316.36	-48.3
316.573	58.2
316.787	39.76
317.001	66.39
317.214	-40.11
317.428	82.77
317.641	-3.24
317.855	72.53
318.068	15.19
318.282	13.14
318.495	70.48
318.709	68.44
318.922	50
319.136	72.53
319.349	54.1
319.563	15.19
319.776	45.91
319.99	29.52
320.203	62.29
320.417	-1.19
320.63	86.87
320.843	39.76
321.057	54.1
321.27	21.33
321.483	27.48
321.697	25.43
321.91	70.48
322.124	4.95
322.337	21.33
322.55	-5.29
322.763	29.52
322.977	9.05
323.19	-11.43
323.403	47.96
323.617	47.96
323.83	66.39
324.043	62.29
324.256	4.95
324.469	23.38
324.683	86.87
324.896	-13.48
325.109	62.29
325.322	-25.77
325.535	-21.67
325.748	47.96
325.962	15.19
326.175	80.72
326.388	41.81
326.601	72.53
326.814	58.2
327.027	39.76
327.24	29.52
327.453	-23.72
327.666	86.87
327.879	62.29
328.092	95.06
328.305	29.52
328.518	-7.34
328.731	13.14
328.944	-50.35
329.157	9.05
329.37	56.15
329.583	103.25
329.796	138.07
330.009	11.09
330.222	62.29
330.435	119.64
330.648	115.54
330.861	70.48
331.073	70.48
331.286	45.91
331.499	9.05
331.712	0.85
331.925	78.68
332.138	54.1
332.35	21.33
332.563	15.19
332.776	82.77
332.989	62.29
333.202	45.91
333.414	41.81
333.627	-27.82
333.84	39.76
334.053	21.33
334.265	-27.82
334.478	37.72
334.691	107.35
334.903	82.77
335.116	-54.44
335.329	21.33
335.541	21.33
335.754	78.68
335.966	45.91
336.179	56.15
336.392	117.59
336.604	-19.63
336.817	21.33
337.029	41.81
337.242	76.63
337.454	80.72
337.667	25.43
337.88	82.77
338.092	-31.91
338.305	-11.43
338.517	54.1
338.729	7
338.942	50
339.154	-60.59
339.367	-15.53
339.579	107.35
339.792	7
340.004	148.31
340.217	-9.39
340.429	37.72
340.641	15.19
340.854	78.68
341.066	50
341.278	78.68
341.491	47.96
341.703	-3.24
341.915	13.14
342.128	54.1
342.34	66.39
342.552	37.72
342.764	47.96
342.977	58.2
343.189	52.05
343.401	78.68
343.613	17.24
343.826	127.83
344.038	54.1
344.25	19.29
344.462	-27.82
344.674	-13.48
344.886	47.96
345.099	17.24
345.311	23.38
345.523	111.44
345.735	-36.01
345.947	78.68
346.159	-3.24
346.371	107.35
346.583	54.1
346.795	123.73
347.007	39.76
347.219	13.14
347.431	21.33
347.643	64.34
347.855	47.96
348.067	90.96
348.279	21.33
348.491	45.91
348.703	82.77
348.915	-15.53
349.127	11.09
349.339	-19.63
349.551	25.43
349.763	119.64
349.975	-1.19
350.187	21.33
350.399	62.29
350.61	70.48
350.822	15.19
351.034	7
351.246	47.96
351.458	-3.24
351.669	37.72
351.881	105.3
352.093	95.06
352.305	119.64
352.517	23.38
352.728	37.72
352.94	72.53
353.152	58.2
353.363	-52.39
353.575	86.87
353.787	119.64
353.999	47.96
354.21	99.16
354.422	-1.19
354.633	-11.43
354.845	15.19
355.057	7
355.268	25.43
355.48	21.33
355.692	-23.72
355.903	41.81
356.115	37.72
356.326	25.43
356.538	123.73
356.749	50
356.961	103.25
357.172	76.63
357.384	-5.29
357.595	140.12
357.807	11.09
358.018	99.16
358.23	29.52
358.441	45.91
358.653	50
358.864	21.33
359.075	11.09
359.287	-27.82
359.498	54.1
359.709	74.58
359.921	37.72
360.132	50
360.344	129.88
360.555	21.33
360.766	113.49
360.977	-17.58
361.189	109.4
361.4	21.33
361.611	25.43
361.823	54.1
362.034	37.72
362.245	41.81
362.456	56.15
362.667	80.72
362.879	33.62
363.09	144.21
363.301	54.1
363.512	43.86
363.723	-72.87
363.935	4.95
364.146	29.52
364.357	37.72
364.568	86.87
364.779	68.44
364.99	62.29
365.201	-60.59
365.412	76.63
365.623	0.85
365.834	13.14
366.045	78.68
366.256	50
366.467	13.14
366.678	86.87
366.889	37.72
367.1	45.91
367.311	93.01
367.522	35.67
367.733	31.57
367.944	109.4
368.155	50
368.366	66.39
368.577	-1.19
368.788	99.16
368.999	-36.01
369.209	66.39
369.42	160.59
369.631	70.48
369.842	60.24
370.053	13.14
370.264	72.53
370.474	-44.2
370.685	0.85
370.896	70.48
371.107	31.57
371.317	72.53
371.528	45.91
371.739	95.06
371.95	115.54
372.16	50
372.371	9.05
372.582	95.06
372.792	115.54
373.003	39.76
373.214	62.29
373.424	33.62
373.635	13.14
373.846	19.29
374.056	80.72
374.267	50
374.477	41.81
374.688	88.92
374.898	-9.39
375.109	86.87
375.319	-1.19
375.53	45.91
375.74	37.72
375.951	-33.96
376.161	86.87
376.372	62.29
376.582	13.14
376.793	50
377.003	56.15
377.214	2.9
377.424	80.72
377.635	45.91
377.845	-5.29
378.055	99.16
378.266	-36.01
378.476	47.96
378.686	15.19
378.897	62.29
379.107	54.1
379.317	72.53
379.528	117.59
379.738	168.79
379.948	23.38
380.158	88.92
380.369	-19.63
380.579	60.24
380.789	99.16
380.999	29.52
381.21	86.87
381.42	64.34
381.63	-27.82
381.84	76.63
382.05	70.48
382.261	105.3
382.471	78.68
382.681	-27.82
382.891	39.76
383.101	64.34
383.311	-3.24
383.521	13.14
383.731	21.33
383.941	99.16
384.151	93.01
384.361	54.1
384.571	86.87
384.781	37.72
384.991	97.11
385.201	113.49
385.411	64.34
385.621	78.68
385.831	56.15
386.041	47.96
386.251	17.24
386.461	144.21
386.671	21.33
386.881	123.73
387.091	39.76
387.301	21.33
387.511	13.14
387.72	136.02
387.93	37.72
388.14	31.57
388.35	50
388.56	99.16
388.769	56.15
388.979	29.52
389.189	62.29
389.399	127.83
389.609	93.01
389.818	82.77
390.028	19.29
390.238	66.39
390.447	25.43
390.657	74.58
390.867	-3.24
391.076	29.52
391.286	70.48
391.496	119.64
391.705	66.39
391.915	105.3
392.125	119.64
392.334	66.39
392.544	56.15
392.753	41.81
392.963	45.91
393.172	111.44
393.382	23.38
393.591	97.11
393.801	13.14
394.01	7
394.22	136.02
394.429	111.44
394.639	113.49
394.848	142.16
395.058	54.1
395.267	88.92
395.477	117.59
395.686	29.52
395.895	99.16
396.105	115.54
396.314	111.44
396.524	72.53
396.733	27.48
396.942	109.4
397.152	113.49
397.361	138.07
397.57	97.11
397.78	97.11
397.989	127.83
398.198	154.45
398.407	90.96
398.617	150.36
398.826	152.4
399.035	193.36
399.244	148.31
399.453	172.88
399.663	156.5
399.872	185.17
400.081	142.16
400.29	162.64
400.499	88.92
400.708	164.69
400.917	123.73
401.127	148.31
401.336	95.06
401.545	179.03
401.754	88.92
401.963	187.22
402.172	136.02
402.381	68.44
402.59	129.88
402.799	111.44
403.008	170.83
403.217	62.29
403.426	123.73
403.635	136.02
403.844	97.11
404.053	127.83
404.262	136.02
404.471	283.47
404.68	203.6
404.888	97.11
405.097	181.07
405.306	217.94
405.515	283.47
405.724	187.22
405.933	244.56
406.142	242.51
406.35	230.23
406.559	238.42
406.768	262.99
406.977	258.9
407.185	293.71
407.394	228.18
407.603	176.98
407.812	297.81
408.02	285.52
408.229	310.1
408.438	291.66
408.646	260.95
408.855	422.73
409.064	389.97
409.272	338.77
409.481	367.44
409.69	404.3
409.898	322.38
410.107	465.74
410.315	455.5
410.524	389.97
410.733	426.83
410.941	494.41
411.15	539.47
411.358	570.19
411.567	592.72
411.775	488.27
411.984	484.17
412.192	662.35
412.401	629.58
412.609	625.48
412.818	688.97
413.026	758.6
413.234	697.16
413.443	721.74
413.651	725.83
413.86	699.21
414.068	854.86
414.276	883.53
414.485	850.76
414.693	893.77
414.901	949.06
415.11	1067.85
415.318	914.25
415.526	947.01
415.734	1102.66
415.943	1053.51
416.151	1084.23
416.359	1080.13
416.567	1225.54
416.776	1200.96
416.984	1323.84
417.192	1241.92
417.4	1282.88
417.608	1456.96
417.817	1377.09
418.025	1522.49
418.233	1553.21
418.441	1540.93
418.649	1577.79
418.857	1755.96
419.065	1790.78
419.273	1762.11
419.481	1876.79
419.689	1973.05
419.897	2042.68
420.105	2167.6
420.313	2147.12
420.521	2313.01
420.729	2315.06
420.937	2327.35
421.145	2442.03
421.353	2482.99
421.561	2675.5
421.769	2759.47
421.977	2880.3
422.185	2833.19
422.393	2994.98
422.601	3199.78
422.809	3029.8
423.017	3134.25
423.224	3355.43
423.432	3486.5
423.64	3482.4
423.848	3920.67
424.056	3683.1
424.263	4057.88
424.471	4010.78
424.679	4029.21
424.887	4260.63
425.094	4264.72
425.302	4297.49
425.51	4420.37
425.718	4705.04
425.925	4717.33
426.133	4920.07
426.341	5296.9
426.548	5358.34
426.756	5395.2
426.964	5464.83
427.171	5847.8
427.379	5962.49
427.586	6122.23
427.794	6085.37
428.001	6607.6
428.209	6796.01
428.417	6552.31
428.624	7234.28
428.832	7123.69
429.039	6976.23
429.247	7095.02
429.454	7828.19
429.662	8188.63
429.869	7820
430.076	8364.76
430.284	8116.95
430.491	8510.16
430.699	8850.13
430.906	8852.17
431.114	9007.82
431.321	9390.79
431.528	9835.2
431.736	10097.34
431.943	10402.49
432.15	10187.45
432.358	10425.01
432.565	10922.67
432.772	11074.22
432.979	11451.05
433.187	11696.8
433.394	11811.49
433.601	12364.44
433.808	12655.25
434.016	12591.77
434.223	12960.4
434.43	13574.79
434.637	13435.53
434.844	14287.48
435.052	14586.49
435.259	14426.75
435.466	14740.08
435.673	14553.72
435.88	15540.84
436.087	16237.15
436.294	16196.19
436.501	15993.44
436.708	16194.14
436.915	16671.32
437.122	17508.94
437.329	17506.89
437.537	17754.69
437.743	18297.41
437.95	18295.36
438.157	19063.35
438.364	19558.95
438.571	19810.86
438.778	19589.67
438.985	21455.37
439.192	20412.96
439.399	21340.69
439.606	20630.04
439.813	22084.1
440.02	23259.63
440.227	22884.86
440.433	22737.4
440.64	23302.64
440.847	23235.06
441.054	24017.38
441.261	25450.96
441.467	25326.03
441.674	25829.84
441.881	26876.35
442.088	26563.01
442.294	26141.13
442.501	26749.37
442.708	27464.11
442.914	28400.04
443.121	29348.25
443.328	28879.26
443.534	31019.39
443.741	29806.99
443.948	29548.95
444.154	31623.54
444.361	31736.18
444.568	31420.79
444.774	31801.71
444.981	32342.38
445.187	32727.39
445.394	34109.77
445.6	33804.63
445.807	37251.36
446.013	35463.48
446.22	36278.57
446.426	37566.74
446.633	37607.7
446.839	39244.03
447.046	37751.06
447.252	39481.59
447.459	39379.2
447.665	39414.01
447.871	41091.3
448.078	42809.54
448.284	40962.28
448.491	42223.83
448.697	43428.03
448.903	44464.3
449.11	44841.13
449.316	43931.83
449.522	44406.96
449.728	45596.83
449.935	45613.21
450.141	46319.76
450.347	47075.46
450.553	45453.47
450.76	46031
450.966	47376.51
451.172	47341.7
451.378	48472.18
451.584	47542.4
451.791	48509.04
451.997	48523.38
452.203	49045.61
452.409	49274.98
452.615	48719.98
452.821	46921.87
453.027	46760.08
453.233	48787.56
453.44	47087.75
453.646	47401.09
453.852	47425.67
454.058	48740.46
454.264	47001.74
454.47	48121.98
454.676	46708.88
454.882	48269.43
455.088	44222.64
455.294	44847.27
455.5	45578.4
455.705	45881.5
455.911	44214.45
456.117	43524.29
456.323	43450.56
456.529	41095.39
456.735	42604.75
456.941	41447.64
457.147	40949.99
457.352	39899.38
457.558	39037.19
457.764	39205.12
457.97	38338.83
458.176	37525.78
458.381	37298.46
458.587	35969.33
458.793	35498.3
458.999	34107.72
459.204	36317.48
459.41	35363.13
459.616	33024.35
459.821	33237.34
460.027	33190.23
460.233	32262.51
460.438	31037.82
460.644	31218.04
460.85	29438.36
461.055	29342.1
461.261	28776.86
461.466	26972.6
461.672	26282.44
461.878	28037.55
462.083	26040.78
462.289	25448.91
462.494	25268.69
462.7	24392.16
462.905	23626.22
463.111	24220.13
463.316	24642.01
463.522	23972.33
463.727	24156.64
463.932	23914.98
464.138	23405.04
464.343	23730.67
464.549	23153.14
464.754	23558.64
464.959	23548.4
465.165	23237.11
465.37	22125.06
465.575	21848.58
465.781	22512.13
465.986	22843.9
466.191	21989.89
466.397	21461.52
466.602	20517.4
466.807	21299.73
467.012	21056.02
467.218	21084.69
467.423	20867.61
467.628	21096.98
