Data from USB4F104151__116__14-31-13-386.txt Node

Date: Thu Mar 13 14:31:13 EDT 2025
User: louis
Spectrometer: USB4F10415
Trigger mode: 4
Integration Time (sec): 2.500000E-2
Scans to average: 1
Electric dark correction enabled: true
Nonlinearity correction enabled: false
Boxcar width: 0
XAxis mode: Wavelengths
Number of Pixels in Spectrum: 3648
>>>>>Begin Spectral Data<<<<<
178.204	-108.88
178.424	-108.88
178.644	-108.88
178.864	-168.27
179.084	-119.12
179.304	-24.92
179.524	-14.68
179.744	34.47
179.964	50.86
180.184	20.14
180.404	-14.68
180.624	-14.68
180.844	-31.06
181.064	-59.73
181.283	93.87
181.503	-63.83
181.723	24.23
181.943	-31.06
182.163	112.3
182.383	18.09
182.602	83.63
182.822	63.15
183.042	52.91
183.262	38.57
183.482	-14.68
183.701	44.71
183.921	50.86
184.141	59.05
184.361	128.68
184.58	-67.92
184.8	18.09
185.02	28.33
185.239	71.34
185.459	42.67
185.679	20.14
185.898	44.71
186.118	87.72
186.338	67.24
186.557	26.28
186.777	36.52
186.997	61.1
187.216	38.57
187.436	100.01
187.655	100.01
187.875	20.14
188.095	61.1
188.314	108.2
188.534	67.24
188.753	34.47
188.973	38.57
189.192	161.45
189.412	59.05
189.631	46.76
189.851	79.53
190.07	54.95
190.29	-4.44
190.509	65.19
190.729	-20.82
190.948	3.75
191.168	181.93
191.387	38.57
191.607	52.91
191.826	95.91
192.045	75.43
192.265	32.43
192.484	11.95
192.704	38.57
192.923	-35.16
193.142	85.67
193.362	75.43
193.581	59.05
193.8	26.28
194.02	34.47
194.239	-14.68
194.458	-45.4
194.678	79.53
194.897	36.52
195.116	67.24
195.335	30.38
195.555	93.87
195.774	50.86
195.993	30.38
196.212	28.33
196.432	83.63
196.651	79.53
196.87	-20.82
197.089	36.52
197.308	61.1
197.528	-2.39
197.747	-6.49
197.966	-4.44
198.185	52.91
198.404	67.24
198.623	93.87
198.842	-12.63
199.062	30.38
199.281	108.2
199.5	110.25
199.719	87.72
199.938	120.49
200.157	110.25
200.376	9.9
200.595	57
200.814	83.63
201.033	20.14
201.252	38.57
201.471	59.05
201.69	11.95
201.909	11.95
202.128	26.28
202.347	-8.53
202.566	93.87
202.785	11.95
203.004	24.23
203.223	91.82
203.442	69.29
203.661	59.05
203.879	5.8
204.098	69.29
204.317	-14.68
204.536	71.34
204.755	61.1
204.974	91.82
205.193	122.54
205.411	93.87
205.63	11.95
205.849	13.99
206.068	22.19
206.287	-18.77
206.505	104.11
206.724	18.09
206.943	44.71
207.162	34.47
207.381	9.9
207.599	65.19
207.818	-51.54
208.037	-2.39
208.255	61.1
208.474	34.47
208.693	30.38
208.911	67.24
209.13	26.28
209.349	67.24
209.567	118.44
209.786	-22.87
210.005	91.82
210.223	50.86
210.442	-14.68
210.661	50.86
210.879	26.28
211.098	69.29
211.316	77.48
211.535	112.3
211.753	18.09
211.972	59.05
212.191	75.43
212.409	91.82
212.628	40.62
212.846	34.47
213.065	38.57
213.283	83.63
213.502	71.34
213.72	52.91
213.938	77.48
214.157	11.95
214.375	116.39
214.594	-29.01
214.812	-0.34
215.031	59.05
215.249	34.47
215.467	13.99
215.686	124.58
215.904	-24.92
216.122	26.28
216.341	77.48
216.559	1.71
216.778	77.48
216.996	52.91
217.214	28.33
217.432	22.19
217.651	3.75
217.869	40.62
218.087	7.85
218.306	50.86
218.524	95.91
218.742	-35.16
218.96	50.86
219.179	28.33
219.397	-39.25
219.615	124.58
219.833	-72.02
220.051	42.67
220.27	48.81
220.488	100.01
220.706	73.39
220.924	-14.68
221.142	-14.68
221.36	75.43
221.578	112.3
221.796	42.67
222.015	-29.01
222.233	46.76
222.451	87.72
222.669	-12.63
222.887	59.05
223.105	18.09
223.323	9.9
223.541	-10.58
223.759	95.91
223.977	85.67
224.195	83.63
224.413	67.24
224.631	42.67
224.849	57
225.067	5.8
225.285	-22.87
225.503	-20.82
225.721	9.9
225.939	9.9
226.157	34.47
226.375	102.06
226.592	44.71
226.81	97.96
227.028	61.1
227.246	91.82
227.464	1.71
227.682	42.67
227.9	20.14
228.117	5.8
228.335	5.8
228.553	118.44
228.771	-26.96
228.989	38.57
229.206	61.1
229.424	18.09
229.642	5.8
229.86	44.71
230.077	7.85
230.295	108.2
230.513	34.47
230.731	116.39
230.948	106.15
231.166	91.82
231.384	44.71
231.601	-0.34
231.819	108.2
232.037	75.43
232.254	-2.39
232.472	110.25
232.689	-6.49
232.907	108.2
233.125	77.48
233.342	59.05
233.56	3.75
233.777	11.95
233.995	22.19
234.213	100.01
234.43	102.06
234.648	26.28
234.865	-6.49
235.083	11.95
235.3	87.72
235.518	52.91
235.735	85.67
235.953	67.24
236.17	83.63
236.388	-31.06
236.605	75.43
236.822	83.63
237.04	50.86
237.257	67.24
237.475	-72.02
237.692	26.28
237.909	-6.49
238.127	97.96
238.344	57
238.562	63.15
238.779	-31.06
238.996	-26.96
239.214	48.81
239.431	100.01
239.648	9.9
239.865	26.28
240.083	69.29
240.3	32.43
240.517	54.95
240.735	71.34
240.952	102.06
241.169	116.39
241.386	52.91
241.603	81.58
241.821	34.47
242.038	91.82
242.255	13.99
242.472	-39.25
242.689	91.82
242.907	112.3
243.124	-20.82
243.341	38.57
243.558	-6.49
243.775	-39.25
243.992	-0.34
244.209	93.87
244.426	91.82
244.643	26.28
244.86	34.47
245.078	-6.49
245.295	42.67
245.512	-18.77
245.729	20.14
245.946	-14.68
246.163	81.58
246.38	9.9
246.597	34.47
246.814	38.57
247.031	-29.01
247.248	7.85
247.464	-14.68
247.681	-67.92
247.898	132.78
248.115	42.67
248.332	1.71
248.549	1.71
248.766	50.86
248.983	93.87
249.2	34.47
249.417	116.39
249.633	40.62
249.85	77.48
250.067	5.8
250.284	-12.63
250.501	-22.87
250.717	95.91
250.934	44.71
251.151	79.53
251.368	50.86
251.585	93.87
251.801	40.62
252.018	-29.01
252.235	63.15
252.451	-45.4
252.668	-10.58
252.885	124.58
253.102	20.14
253.318	11.95
253.535	-6.49
253.752	-20.82
253.968	-4.44
254.185	22.19
254.401	26.28
254.618	85.67
254.835	-4.44
255.051	13.99
255.268	77.48
255.484	63.15
255.701	36.52
255.917	54.95
256.134	18.09
256.351	52.91
256.567	36.52
256.784	34.47
257	-43.35
257.217	145.06
257.433	-35.16
257.65	48.81
257.866	54.95
258.082	-0.34
258.299	24.23
258.515	34.47
258.732	42.67
258.948	42.67
259.165	28.33
259.381	108.2
259.597	63.15
259.814	59.05
260.03	-4.44
260.246	-4.44
260.463	63.15
260.679	108.2
260.895	16.04
261.112	114.34
261.328	-2.39
261.544	114.34
261.761	188.07
261.977	-31.06
262.193	-14.68
262.409	16.04
262.626	28.33
262.842	26.28
263.058	-18.77
263.274	30.38
263.49	83.63
263.707	42.67
263.923	102.06
264.139	-47.44
264.355	-47.44
264.571	89.77
264.787	34.47
265.004	108.2
265.22	85.67
265.436	9.9
265.652	26.28
265.868	44.71
266.084	-35.16
266.3	44.71
266.516	-12.63
266.732	79.53
266.948	46.76
267.164	85.67
267.38	67.24
267.596	124.58
267.812	79.53
268.028	83.63
268.244	-18.77
268.46	67.24
268.676	91.82
268.892	91.82
269.108	-78.16
269.324	46.76
269.54	-35.16
269.756	110.25
269.972	-16.73
270.188	28.33
270.403	63.15
270.619	26.28
270.835	-10.58
271.051	100.01
271.267	69.29
271.483	63.15
271.698	124.58
271.914	22.19
272.13	38.57
272.346	1.71
272.562	13.99
272.777	132.78
272.993	34.47
273.209	26.28
273.425	67.24
273.64	28.33
273.856	79.53
274.072	-26.96
274.287	36.52
274.503	75.43
274.719	36.52
274.934	65.19
275.15	28.33
275.366	3.75
275.581	34.47
275.797	13.99
276.012	38.57
276.228	85.67
276.444	5.8
276.659	-4.44
276.875	32.43
277.09	11.95
277.306	32.43
277.521	75.43
277.737	63.15
277.952	63.15
278.168	52.91
278.383	42.67
278.599	26.28
278.814	61.1
279.03	67.24
279.245	71.34
279.461	63.15
279.676	67.24
279.892	-10.58
280.107	-0.34
280.322	9.9
280.538	57
280.753	26.28
280.969	83.63
281.184	-14.68
281.399	52.91
281.615	54.95
281.83	100.01
282.045	-43.35
282.26	18.09
282.476	30.38
282.691	63.15
282.906	54.95
283.122	57
283.337	63.15
283.552	50.86
283.767	28.33
283.983	42.67
284.198	3.75
284.413	-4.44
284.628	50.86
284.843	13.99
285.058	26.28
285.274	-29.01
285.489	26.28
285.704	67.24
285.919	26.28
286.134	73.39
286.349	5.8
286.564	34.47
286.779	20.14
286.995	13.99
287.21	36.52
287.425	30.38
287.64	-26.96
287.855	110.25
288.07	-29.01
288.285	116.39
288.5	75.43
288.715	71.34
288.93	67.24
289.145	30.38
289.36	59.05
289.575	61.1
289.79	40.62
290.004	-0.34
290.219	73.39
290.434	59.05
290.649	63.15
290.864	44.71
291.079	67.24
291.294	26.28
291.509	28.33
291.724	34.47
291.938	34.47
292.153	-45.4
292.368	-0.34
292.583	1.71
292.798	79.53
293.012	42.67
293.227	104.11
293.442	9.9
293.657	83.63
293.871	42.67
294.086	75.43
294.301	104.11
294.516	50.86
294.73	85.67
294.945	48.81
295.16	59.05
295.374	132.78
295.589	155.3
295.804	46.76
296.018	91.82
296.233	149.16
296.447	26.28
296.662	-63.83
296.877	100.01
297.091	108.2
297.306	26.28
297.52	36.52
297.735	63.15
297.949	26.28
298.164	44.71
298.378	42.67
298.593	1.71
298.807	26.28
299.022	100.01
299.236	100.01
299.451	38.57
299.665	9.9
299.88	91.82
300.094	-6.49
300.309	9.9
300.523	81.58
300.737	1.71
300.952	59.05
301.166	11.95
301.381	34.47
301.595	95.91
301.809	59.05
302.024	42.67
302.238	-51.54
302.452	79.53
302.667	91.82
302.881	34.47
303.095	93.87
303.309	67.24
303.524	54.95
303.738	42.67
303.952	28.33
304.166	67.24
304.381	-31.06
304.595	102.06
304.809	108.2
305.023	132.78
305.237	11.95
305.452	71.34
305.666	67.24
305.88	124.58
306.094	83.63
306.308	26.28
306.522	71.34
306.736	83.63
306.95	18.09
307.164	30.38
307.379	67.24
307.593	126.63
307.807	108.2
308.021	147.11
308.235	175.78
308.449	3.75
308.663	26.28
308.877	104.11
309.091	87.72
309.305	95.91
309.519	16.04
309.733	110.25
309.947	52.91
310.161	59.05
310.374	83.63
310.588	95.91
310.802	36.52
311.016	112.3
311.23	18.09
311.444	26.28
311.658	52.91
311.872	91.82
312.085	91.82
312.299	143.02
312.513	91.82
312.727	44.71
312.941	52.91
313.154	44.71
313.368	-2.39
313.582	83.63
313.796	71.34
314.009	34.47
314.223	44.71
314.437	50.86
314.651	71.34
314.864	63.15
315.078	-20.82
315.292	20.14
315.505	22.19
315.719	87.72
315.933	75.43
316.146	-31.06
316.36	13.99
316.573	91.82
316.787	-4.44
317.001	67.24
317.214	-55.64
317.428	-14.68
317.641	32.43
317.855	93.87
318.068	42.67
318.282	-20.82
318.495	100.01
318.709	61.1
318.922	11.95
319.136	140.97
319.349	65.19
319.563	87.72
319.776	-29.01
319.99	42.67
320.203	110.25
320.417	83.63
320.63	124.58
320.843	75.43
321.057	108.2
321.27	59.05
321.483	57
321.697	69.29
321.91	73.39
322.124	73.39
322.337	59.05
322.55	87.72
322.763	91.82
322.977	44.71
323.19	42.67
323.403	83.63
323.617	42.67
323.83	108.2
324.043	42.67
324.256	59.05
324.469	-14.68
324.683	108.2
324.896	-43.35
325.109	54.95
325.322	87.72
325.535	112.3
325.748	93.87
325.962	50.86
326.175	46.76
326.388	3.75
326.601	63.15
326.814	30.38
327.027	54.95
327.24	102.06
327.453	11.95
327.666	44.71
327.879	18.09
328.092	108.2
328.305	42.67
328.518	50.86
328.731	77.48
328.944	61.1
329.157	85.67
329.37	59.05
329.583	102.06
329.796	110.25
330.009	-45.4
330.222	50.86
330.435	63.15
330.648	83.63
330.861	7.85
331.073	63.15
331.286	38.57
331.499	67.24
331.712	104.11
331.925	34.47
332.138	102.06
332.35	59.05
332.563	-4.44
332.776	13.99
332.989	34.47
333.202	1.71
333.414	44.71
333.627	50.86
333.84	52.91
334.053	65.19
334.265	83.63
334.478	24.23
334.691	26.28
334.903	118.44
335.116	13.99
335.329	83.63
335.541	42.67
335.754	149.16
335.966	24.23
336.179	124.58
336.392	18.09
336.604	65.19
336.817	54.95
337.029	108.2
337.242	59.05
337.454	143.02
337.667	-6.49
337.88	73.39
338.092	67.24
338.305	194.22
338.517	42.67
338.729	59.05
338.942	85.67
339.154	34.47
339.367	24.23
339.579	52.91
339.792	75.43
340.004	26.28
340.217	71.34
340.429	-4.44
340.641	50.86
340.854	9.9
341.066	59.05
341.278	130.73
341.491	181.93
341.703	48.81
341.915	87.72
342.128	102.06
342.34	18.09
342.552	46.76
342.764	54.95
342.977	102.06
343.189	42.67
343.401	50.86
343.613	3.75
343.826	-29.01
344.038	85.67
344.25	16.04
344.462	79.53
344.674	138.92
344.886	124.58
345.099	87.72
345.311	63.15
345.523	20.14
345.735	-45.4
345.947	40.62
346.159	-10.58
346.371	36.52
346.583	73.39
346.795	52.91
347.007	11.95
347.219	77.48
347.431	1.71
347.643	42.67
347.855	-0.34
348.067	116.39
348.279	69.29
348.491	69.29
348.703	57
348.915	124.58
349.127	44.71
349.339	134.82
349.551	-55.64
349.763	24.23
349.975	54.95
350.187	116.39
350.399	75.43
350.61	73.39
350.822	18.09
351.034	77.48
351.246	26.28
351.458	110.25
351.669	112.3
351.881	104.11
352.093	87.72
352.305	89.77
352.517	89.77
352.728	124.58
352.94	114.34
353.152	20.14
353.363	-55.64
353.575	100.01
353.787	59.05
353.999	145.06
354.21	104.11
354.422	7.85
354.633	69.29
354.845	134.82
355.057	44.71
355.268	26.28
355.48	44.71
355.692	-22.87
355.903	100.01
356.115	59.05
356.326	-45.4
356.538	75.43
356.749	75.43
356.961	85.67
357.172	75.43
357.384	75.43
357.595	106.15
357.807	34.47
358.018	30.38
358.23	18.09
358.441	85.67
358.653	102.06
358.864	69.29
359.075	18.09
359.287	89.77
359.498	16.04
359.709	85.67
359.921	73.39
360.132	18.09
360.344	5.8
360.555	5.8
360.766	151.21
360.977	13.99
361.189	134.82
361.4	-29.01
361.611	83.63
361.823	118.44
362.034	32.43
362.245	71.34
362.456	38.57
362.667	46.76
362.879	71.34
363.09	112.3
363.301	36.52
363.512	108.2
363.723	-14.68
363.935	67.24
364.146	67.24
364.357	83.63
364.568	87.72
364.779	36.52
364.99	63.15
365.201	59.05
365.412	95.91
365.623	3.75
365.834	71.34
366.045	75.43
366.256	128.68
366.467	83.63
366.678	93.87
366.889	34.47
367.1	34.47
367.311	134.82
367.522	73.39
367.733	83.63
367.944	132.78
368.155	59.05
368.366	114.34
368.577	186.02
368.788	69.29
368.999	110.25
369.209	16.04
369.42	102.06
369.631	118.44
369.842	120.49
370.053	71.34
370.264	54.95
370.474	1.71
370.685	79.53
370.896	91.82
371.107	143.02
371.317	54.95
371.528	61.1
371.739	104.11
371.95	122.54
372.16	143.02
372.371	36.52
372.582	52.91
372.792	54.95
373.003	116.39
373.214	59.05
373.424	93.87
373.635	-26.96
373.846	134.82
374.056	18.09
374.267	140.97
374.477	93.87
374.688	-6.49
374.898	79.53
375.109	77.48
375.319	67.24
375.53	157.35
375.74	112.3
375.951	50.86
376.161	52.91
376.372	89.77
376.582	38.57
376.793	67.24
377.003	106.15
377.214	71.34
377.424	91.82
377.635	69.29
377.845	81.58
378.055	26.28
378.266	59.05
378.476	52.91
378.686	59.05
378.897	67.24
379.107	67.24
379.317	100.01
379.528	34.47
379.738	67.24
379.948	34.47
380.158	169.64
380.369	102.06
380.579	116.39
380.789	67.24
380.999	22.19
381.21	77.48
381.42	130.73
381.63	59.05
381.84	44.71
382.05	38.57
382.261	110.25
382.471	165.54
382.681	71.34
382.891	190.12
383.101	50.86
383.311	18.09
383.521	50.86
383.731	140.97
383.941	145.06
384.151	110.25
384.361	71.34
384.571	44.71
384.781	116.39
384.991	93.87
385.201	143.02
385.411	102.06
385.621	175.78
385.831	34.47
386.041	50.86
386.251	71.34
386.461	149.16
386.671	75.43
386.881	116.39
387.091	-2.39
387.301	149.16
387.511	34.47
387.72	83.63
387.93	97.96
388.14	75.43
388.35	108.2
388.56	112.3
388.769	75.43
388.979	75.43
389.189	22.19
389.399	151.21
389.609	75.43
389.818	128.68
390.028	118.44
390.238	67.24
390.447	93.87
390.657	97.96
390.867	110.25
391.076	38.57
391.286	5.8
391.496	147.11
391.705	124.58
391.915	128.68
392.125	100.01
392.334	71.34
392.544	128.68
392.753	118.44
392.963	20.14
393.172	181.93
393.382	61.1
393.591	140.97
393.801	79.53
394.01	132.78
394.22	143.02
394.429	42.67
394.639	87.72
394.848	153.26
395.058	136.87
395.267	75.43
395.477	124.58
395.686	132.78
395.895	157.35
396.105	186.02
396.314	59.05
396.524	106.15
396.733	81.58
396.942	151.21
397.152	157.35
397.361	110.25
397.57	104.11
397.78	145.06
397.989	118.44
398.198	149.16
398.407	165.54
398.617	169.64
398.826	143.02
399.035	108.2
399.244	136.87
399.453	132.78
399.663	188.07
399.872	186.02
400.081	108.2
400.29	173.74
400.499	169.64
400.708	124.58
400.917	136.87
401.127	134.82
401.336	153.26
401.545	222.89
401.754	198.31
401.963	149.16
402.172	241.32
402.381	106.15
402.59	136.87
402.799	147.11
403.008	134.82
403.217	247.46
403.426	190.12
403.635	157.35
403.844	222.89
404.053	214.7
404.262	208.55
404.471	247.46
404.68	177.83
404.888	181.93
405.097	181.93
405.306	239.27
405.515	325.29
405.724	202.41
405.933	274.09
406.142	263.85
406.35	263.85
406.559	284.33
406.768	210.6
406.977	296.61
407.185	292.52
407.394	269.99
407.603	192.17
407.812	331.43
408.02	448.16
408.229	321.19
408.438	292.52
408.646	317.09
408.855	306.85
409.064	435.88
409.272	296.61
409.481	429.73
409.69	444.07
409.898	345.77
410.107	448.16
410.315	444.07
410.524	452.26
410.733	542.37
410.941	464.55
411.15	503.46
411.358	509.6
411.567	501.41
411.775	575.14
411.984	501.41
412.192	542.37
412.401	597.67
412.609	698.02
412.818	714.4
413.026	743.07
413.234	759.46
413.443	824.99
413.651	738.98
413.86	804.51
414.068	890.53
414.276	931.48
414.485	859.81
414.693	886.43
414.901	939.68
415.11	894.62
415.318	970.4
415.526	1025.69
415.734	1005.21
415.943	1136.28
416.151	1173.14
416.359	1173.14
416.567	1273.5
416.776	1324.69
416.984	1330.84
417.192	1339.03
417.4	1373.85
417.608	1437.33
417.817	1410.71
418.025	1451.67
418.233	1554.07
418.441	1582.74
418.649	1603.22
418.857	1808.02
419.065	1887.89
419.273	1848.97
419.481	1877.65
419.689	1947.28
419.897	2141.83
420.105	2164.36
420.313	2188.94
420.521	2258.57
420.729	2207.37
420.937	2336.39
421.145	2535.04
421.353	2446.98
421.561	2721.41
421.769	2770.56
421.977	2848.38
422.185	2803.33
422.393	2893.44
422.601	3221.11
422.809	3159.67
423.017	3231.35
423.224	3348.09
423.432	3528.31
423.64	3511.93
423.848	3880.56
424.056	3755.63
424.263	3950.19
424.471	4017.77
424.679	3985.01
424.887	4228.71
425.094	4562.53
425.302	4378.22
425.51	4666.98
425.718	4740.71
425.925	4798.05
426.133	4853.34
426.341	5271.13
426.548	5439.06
426.756	5555.8
426.964	5545.56
427.171	5807.7
427.379	6102.61
427.586	6207.05
427.794	6342.22
428.001	6501.96
428.209	6811.2
428.417	6583.88
428.624	7226.94
428.832	7269.95
429.039	7079.49
429.247	7097.92
429.454	7777.84
429.662	8257.07
429.869	7884.34
430.076	8295.98
430.284	8209.97
430.491	8472.11
430.699	8908.32
430.906	9195.04
431.114	9090.59
431.321	9393.69
431.528	9582.1
431.736	10241.55
431.943	10561.03
432.15	10315.28
432.358	10788.36
432.565	11101.7
432.772	10909.19
432.979	11503.1
433.187	11625.98
433.394	11675.13
433.601	12465.64
433.808	12629.48
434.016	12576.23
434.223	12977.64
434.43	14142.93
434.637	13708.76
434.844	14337.49
435.052	14738.89
435.259	14659.02
435.466	14771.66
435.673	14966.21
435.88	15658.43
436.087	16371.12
436.294	16129.46
436.501	15908.28
436.708	16287.15
436.915	16881.07
437.122	17690.01
437.329	17581.47
437.537	18025.88
437.743	18261.4
437.95	18163.09
438.157	19182.98
438.364	20123
438.571	19744.13
438.778	19776.89
438.985	21644.64
439.192	20948.33
439.399	21634.4
439.606	21079.4
439.813	22134.1
440.02	23373.13
440.227	23022.92
440.433	22836.56
440.64	23559.49
440.847	23596.35
441.054	24175.93
441.261	25769.25
441.467	25144.62
441.674	26035.49
441.881	26717.46
442.088	26752.27
442.294	26377.5
442.501	27176.2
442.708	27622.66
442.914	28300.54
443.121	29779.17
443.328	28980.46
443.534	30874.84
443.741	30008.54
443.948	29723.88
444.154	31937.73
444.361	31741.13
444.568	31900.87
444.774	31843.52
444.981	32302.27
445.187	33119.41
445.394	34657.43
445.6	34157.73
445.807	37457.01
446.013	35873.93
446.22	36377.73
446.426	38284.39
446.633	38169.7
446.839	39279.7
447.046	37876.84
447.252	39789.64
447.459	40102.98
447.665	39621.71
447.871	41505.84
448.078	43254.81
448.284	41118.78
448.491	42349.6
448.697	44010.51
448.903	44856.32
449.11	44815.36
449.316	43895.82
449.522	44989.44
449.728	45939.69
449.935	46545.89
450.141	46185.45
450.347	47234.01
450.553	45698.03
450.76	46664.67
450.966	47780.82
451.172	47008.73
451.378	48563.14
451.584	47725.52
451.791	48915.39
451.997	48477.13
452.203	49222.59
452.409	49556.41
452.615	49335.23
452.821	47625.17
453.027	46783.46
453.233	49689.52
453.44	47573.97
453.646	47963.09
453.852	48241.61
454.058	48475.08
454.264	47369.18
454.47	48348.1
454.676	47668.18
454.882	48864.19
455.088	44581.89
455.294	45364.21
455.5	45892.59
455.705	46128.11
455.911	44780.54
456.117	43691.02
456.323	43691.02
456.529	41204.79
456.735	42660.9
456.941	41708.59
457.147	40985.66
457.352	39263.32
457.558	39359.57
457.764	38954.07
457.97	38800.47
458.176	37432.43
458.381	38026.34
458.587	36400.26
458.793	36189.31
458.999	34335.9
459.204	36629.63
459.41	35662.99
459.616	33547.43
459.821	33486
460.027	33356.97
460.233	32677.05
460.438	30911.7
460.644	31145.17
460.85	29713.64
461.055	29324.52
461.261	29408.49
461.466	26864.91
461.672	26172.7
461.878	28351.74
462.083	26268.95
462.289	25720.1
462.494	25654.56
462.7	24147.26
462.905	23659.84
463.111	24558.9
463.316	24806.7
463.522	24206.65
463.727	24026.43
463.932	23907.65
464.138	23887.17
464.343	23627.07
464.549	23078.22
464.754	23999.8
464.959	23868.73
465.165	23584.07
465.37	22523.22
465.575	22064.47
465.781	22842.7
