Data from USB4F104151__112__14-31-08-987.txt Node

Date: Thu Mar 13 14:31:08 EDT 2025
User: louis
Spectrometer: USB4F10415
Trigger mode: 4
Integration Time (sec): 2.500000E-2
Scans to average: 1
Electric dark correction enabled: true
Nonlinearity correction enabled: false
Boxcar width: 0
XAxis mode: Wavelengths
Number of Pixels in Spectrum: 3648
>>>>>Begin Spectral Data<<<<<
178.204	-156.16
178.424	-156.16
178.644	-156.16
178.864	-109.05
179.084	-117.25
179.304	5.63
179.524	-47.62
179.744	-57.86
179.964	-49.66
180.184	-0.51
180.404	42.5
180.624	54.78
180.844	-47.62
181.064	5.63
181.283	50.69
181.503	-27.14
181.723	71.17
181.943	-35.33
182.163	108.03
182.383	22.02
182.602	75.26
182.822	46.59
183.042	38.4
183.262	38.4
183.482	11.78
183.701	5.63
183.921	17.92
184.141	-6.66
184.361	30.21
184.58	101.89
184.8	5.63
185.02	48.64
185.239	48.64
185.459	54.78
185.679	89.6
185.898	-37.38
186.118	95.74
186.338	48.64
186.557	56.83
186.777	38.4
186.997	24.06
187.216	7.68
187.436	42.5
187.655	-0.51
187.875	93.69
188.095	30.21
188.314	26.11
188.534	77.31
188.753	46.59
188.973	48.64
189.192	79.36
189.412	-43.52
189.631	26.11
189.851	-35.33
190.07	136.7
190.29	-33.28
190.509	-41.47
190.729	30.21
190.948	30.21
191.168	97.79
191.387	34.3
191.607	42.5
191.826	60.93
192.045	73.21
192.265	-27.14
192.484	50.69
192.704	-18.94
192.923	91.65
193.142	114.17
193.362	99.84
193.581	83.45
193.8	22.02
194.02	46.59
194.239	71.17
194.458	103.93
194.678	-74.24
194.897	26.11
195.116	48.64
195.335	97.79
195.555	42.5
195.774	-14.85
195.993	62.98
196.212	5.63
196.432	19.97
196.651	46.59
196.87	32.26
197.089	71.17
197.308	60.93
197.528	52.74
197.747	24.06
197.966	15.87
198.185	110.08
198.404	32.26
198.623	30.21
198.842	75.26
199.062	79.36
199.281	120.32
199.5	54.78
199.719	81.41
199.938	44.54
200.157	118.27
200.376	-2.56
200.595	79.36
200.814	5.63
201.033	114.17
201.252	71.17
201.471	-10.75
201.69	40.45
201.909	3.58
202.128	54.78
202.347	24.06
202.566	79.36
202.785	-27.14
203.004	-16.9
203.223	118.27
203.442	32.26
203.661	54.78
203.879	9.73
204.098	50.69
204.317	9.73
204.536	38.4
204.755	103.93
204.974	67.07
205.193	50.69
205.411	159.23
205.63	22.02
205.849	75.26
206.068	19.97
206.287	50.69
206.505	5.63
206.724	75.26
206.943	-10.75
207.162	48.64
207.381	93.69
207.599	-6.66
207.818	95.74
208.037	93.69
208.255	-35.33
208.474	87.55
208.693	73.21
208.911	46.59
209.13	73.21
209.349	62.98
209.567	48.64
209.786	54.78
210.005	48.64
210.223	22.02
210.442	-27.14
210.661	56.83
210.879	26.11
211.098	-41.47
211.316	71.17
211.535	-59.9
211.753	-25.09
211.972	54.78
212.191	5.63
212.409	58.88
212.628	3.58
212.846	-25.09
213.065	79.36
213.283	144.89
213.502	9.73
213.72	73.21
213.938	71.17
214.157	3.58
214.375	54.78
214.594	34.3
214.812	73.21
215.031	-16.9
215.249	42.5
215.467	26.11
215.686	116.22
215.904	44.54
216.122	9.73
216.341	69.12
216.559	34.3
216.778	65.02
216.996	62.98
217.214	77.31
217.432	101.89
217.651	9.73
217.869	30.21
218.087	11.78
218.306	-25.09
218.524	24.06
218.742	-10.75
218.96	81.41
219.179	11.78
219.397	116.22
219.615	138.75
219.833	99.84
220.051	5.63
220.27	103.93
220.488	54.78
220.706	13.82
220.924	42.5
221.142	5.63
221.36	28.16
221.578	38.4
221.796	81.41
222.015	54.78
222.233	7.68
222.451	75.26
222.669	-10.75
222.887	17.92
223.105	-33.28
223.323	60.93
223.541	32.26
223.759	75.26
223.977	30.21
224.195	103.93
224.413	95.74
224.631	128.51
224.849	62.98
225.067	30.21
225.285	13.82
225.503	-43.52
225.721	22.02
225.939	97.79
226.157	5.63
226.375	155.13
226.592	75.26
226.81	-0.51
227.028	48.64
227.246	101.89
227.464	-25.09
227.682	30.21
227.9	91.65
228.117	87.55
228.335	52.74
228.553	65.02
228.771	67.07
228.989	19.97
229.206	28.16
229.424	-4.61
229.642	22.02
229.86	13.82
230.077	50.69
230.295	112.13
230.513	67.07
230.731	97.79
230.948	67.07
231.166	112.13
231.384	-4.61
231.601	9.73
231.819	38.4
232.037	-10.75
232.254	32.26
232.472	54.78
232.689	-12.8
232.907	50.69
233.125	26.11
233.342	-76.29
233.56	54.78
233.777	38.4
233.995	62.98
234.213	67.07
234.43	3.58
234.648	71.17
234.865	46.59
235.083	48.64
235.3	-20.99
235.518	85.5
235.735	42.5
235.953	138.75
236.17	30.21
236.388	1.54
236.605	13.82
236.822	103.93
237.04	7.68
237.257	19.97
237.475	34.3
237.692	5.63
237.909	-43.52
238.127	19.97
238.344	50.69
238.562	58.88
238.779	9.73
238.996	97.79
239.214	30.21
239.431	81.41
239.648	77.31
239.865	79.36
240.083	22.02
240.3	7.68
240.517	38.4
240.735	128.51
240.952	32.26
241.169	32.26
241.386	44.54
241.603	81.41
241.821	-41.47
242.038	132.61
242.255	54.78
242.472	-35.33
242.689	-6.66
242.907	206.33
243.124	99.84
243.341	-8.7
243.558	40.45
243.775	3.58
243.992	48.64
244.209	95.74
244.426	58.88
244.643	71.17
244.86	38.4
245.078	95.74
245.295	48.64
245.512	81.41
245.729	19.97
245.946	124.41
246.163	99.84
246.38	24.06
246.597	65.02
246.814	30.21
247.031	-39.42
247.248	103.93
247.464	48.64
247.681	-18.94
247.898	83.45
248.115	99.84
248.332	50.69
248.549	116.22
248.766	116.22
248.983	71.17
249.2	-10.75
249.417	89.6
249.633	19.97
249.85	87.55
250.067	-2.56
250.284	3.58
250.501	110.08
250.717	15.87
250.934	-49.66
251.151	108.03
251.368	7.68
251.585	73.21
251.801	19.97
252.018	22.02
252.235	30.21
252.451	30.21
252.668	-43.52
252.885	97.79
253.102	95.74
253.318	124.41
253.535	103.93
253.752	48.64
253.968	71.17
254.185	67.07
254.401	79.36
254.618	-8.7
254.835	48.64
255.051	114.17
255.268	38.4
255.484	50.69
255.701	69.12
255.917	56.83
256.134	46.59
256.351	54.78
256.567	-43.52
256.784	54.78
257	-35.33
257.217	32.26
257.433	42.5
257.65	9.73
257.866	71.17
258.082	65.02
258.299	30.21
258.515	112.13
258.732	30.21
258.948	13.82
259.165	15.87
259.381	17.92
259.597	24.06
259.814	48.64
260.03	32.26
260.246	46.59
260.463	89.6
260.679	44.54
260.895	62.98
261.112	58.88
261.328	22.02
261.544	-14.85
261.761	120.32
261.977	-0.51
262.193	26.11
262.409	71.17
262.626	22.02
262.842	22.02
263.058	112.13
263.274	19.97
263.49	81.41
263.707	130.56
263.923	91.65
264.139	38.4
264.355	-27.14
264.571	30.21
264.787	54.78
265.004	71.17
265.22	40.45
265.436	62.98
265.652	95.74
265.868	62.98
266.084	22.02
266.3	30.21
266.516	-43.52
266.732	54.78
266.948	-0.51
267.164	153.09
267.38	32.26
267.596	110.08
267.812	128.51
268.028	-4.61
268.244	62.98
268.46	97.79
268.676	1.54
268.892	22.02
269.108	38.4
269.324	13.82
269.54	22.02
269.756	54.78
269.972	65.02
270.188	79.36
270.403	108.03
270.619	30.21
270.835	9.73
271.051	17.92
271.267	40.45
271.483	34.3
271.698	-6.66
271.914	81.41
272.13	93.69
272.346	38.4
272.562	26.11
272.777	40.45
272.993	19.97
273.209	38.4
273.425	15.87
273.64	83.45
273.856	1.54
274.072	75.26
274.287	1.54
274.503	13.82
274.719	108.03
274.934	26.11
275.15	112.13
275.366	26.11
275.581	-10.75
275.797	38.4
276.012	95.74
276.228	-6.66
276.444	103.93
276.659	75.26
276.875	30.21
277.09	79.36
277.306	105.98
277.521	54.78
277.737	77.31
277.952	67.07
278.168	65.02
278.383	22.02
278.599	50.69
278.814	62.98
279.03	-57.86
279.245	157.18
279.461	54.78
279.676	99.84
279.892	-0.51
280.107	24.06
280.322	5.63
280.538	62.98
280.753	95.74
280.969	67.07
281.184	5.63
281.399	87.55
281.615	26.11
281.83	87.55
282.045	1.54
282.26	81.41
282.476	95.74
282.691	-6.66
282.906	81.41
283.122	79.36
283.337	42.5
283.552	62.98
283.767	24.06
283.983	157.18
284.198	3.58
284.413	81.41
284.628	1.54
284.843	171.52
285.058	50.69
285.274	-18.94
285.489	19.97
285.704	89.6
285.919	38.4
286.134	40.45
286.349	30.21
286.564	79.36
286.779	79.36
286.995	81.41
287.21	36.35
287.425	48.64
287.64	-35.33
287.855	40.45
288.07	-35.33
288.285	83.45
288.5	83.45
288.715	71.17
288.93	79.36
289.145	54.78
289.36	77.31
289.575	-43.52
289.79	122.37
290.004	30.21
290.219	54.78
290.434	-18.94
290.649	120.32
290.864	13.82
291.079	26.11
291.294	48.64
291.509	-10.75
291.724	32.26
291.938	13.82
292.153	103.93
292.368	46.59
292.583	67.07
292.798	112.13
293.012	79.36
293.227	-20.99
293.442	34.3
293.657	69.12
293.871	95.74
294.086	46.59
294.301	169.47
294.516	26.11
294.73	30.21
294.945	40.45
295.16	65.02
295.374	138.75
295.589	75.26
295.804	-35.33
296.018	75.26
296.233	163.33
296.447	5.63
296.662	67.07
296.877	81.41
297.091	50.69
297.306	46.59
297.52	165.37
297.735	128.51
297.949	89.6
298.164	89.6
298.378	89.6
298.593	60.93
298.807	42.5
299.022	62.98
299.236	103.93
299.451	50.69
299.665	105.98
299.88	73.21
300.094	50.69
300.309	46.59
300.523	87.55
300.737	38.4
300.952	67.07
301.166	99.84
301.381	34.3
301.595	89.6
301.809	122.37
302.024	77.31
302.238	5.63
302.452	-0.51
302.667	-29.18
302.881	42.5
303.095	75.26
303.309	-6.66
303.524	17.92
303.738	7.68
303.952	40.45
304.166	95.74
304.381	15.87
304.595	97.79
304.809	48.64
305.023	32.26
305.237	-39.42
305.452	50.69
305.666	48.64
305.88	103.93
306.094	46.59
306.308	116.22
306.522	83.45
306.736	36.35
306.95	40.45
307.164	-0.51
307.379	-18.94
307.593	60.93
307.807	65.02
308.021	73.21
308.235	40.45
308.449	13.82
308.663	85.5
308.877	136.7
309.091	95.74
309.305	19.97
309.519	26.11
309.733	85.5
309.947	71.17
310.161	30.21
310.374	-0.51
310.588	56.83
310.802	19.97
311.016	34.3
311.23	-18.94
311.444	79.36
311.658	69.12
311.872	75.26
312.085	83.45
312.299	101.89
312.513	124.41
312.727	101.89
312.941	48.64
313.154	110.08
313.368	-6.66
313.582	148.99
313.796	40.45
314.009	34.3
314.223	81.41
314.437	13.82
314.651	30.21
314.864	46.59
315.078	24.06
315.292	-33.28
315.505	22.02
315.719	81.41
315.933	71.17
316.146	13.82
316.36	105.98
316.573	103.93
316.787	60.93
317.001	114.17
317.214	60.93
317.428	32.26
317.641	-4.61
317.855	46.59
318.068	-25.09
318.282	54.78
318.495	40.45
318.709	112.13
318.922	5.63
319.136	79.36
319.349	26.11
319.563	26.11
319.776	46.59
319.99	46.59
320.203	30.21
320.417	65.02
320.63	73.21
320.843	103.93
321.057	65.02
321.27	42.5
321.483	138.75
321.697	89.6
321.91	91.65
322.124	105.98
322.337	40.45
322.55	19.97
322.763	40.45
322.977	-14.85
323.19	54.78
323.403	87.55
323.617	46.59
323.83	24.06
324.043	50.69
324.256	30.21
324.469	5.63
324.683	97.79
324.896	44.54
325.109	28.16
325.322	36.35
325.535	50.69
325.748	42.5
325.962	26.11
326.175	52.74
326.388	153.09
326.601	62.98
326.814	124.41
327.027	34.3
327.24	62.98
327.453	1.54
327.666	130.56
327.879	112.13
328.092	79.36
328.305	58.88
328.518	50.69
328.731	140.8
328.944	46.59
329.157	56.83
329.37	13.82
329.583	132.61
329.796	32.26
330.009	-2.56
330.222	62.98
330.435	99.84
330.648	87.55
330.861	87.55
331.073	-25.09
331.286	87.55
331.499	65.02
331.712	-0.51
331.925	30.21
332.138	71.17
332.35	83.45
332.563	71.17
332.776	95.74
332.989	3.58
333.202	65.02
333.414	32.26
333.627	91.65
333.84	-4.61
334.053	24.06
334.265	42.5
334.478	26.11
334.691	24.06
334.903	36.35
335.116	13.82
335.329	54.78
335.541	99.84
335.754	89.6
335.966	9.73
336.179	124.41
336.392	85.5
336.604	38.4
336.817	95.74
337.029	65.02
337.242	122.37
337.454	128.51
337.667	30.21
337.88	79.36
338.092	114.17
338.305	46.59
338.517	13.82
338.729	81.41
338.942	118.27
339.154	32.26
339.367	42.5
339.579	32.26
339.792	71.17
340.004	85.5
340.217	3.58
340.429	1.54
340.641	-35.33
340.854	75.26
341.066	17.92
341.278	56.83
341.491	54.78
341.703	65.02
341.915	108.03
342.128	89.6
342.34	46.59
342.552	-0.51
342.764	87.55
342.977	48.64
343.189	83.45
343.401	54.78
343.613	-2.56
343.826	89.6
344.038	15.87
344.25	65.02
344.462	9.73
344.674	-2.56
344.886	-16.9
345.099	114.17
345.311	-25.09
345.523	89.6
345.735	38.4
345.947	58.88
346.159	46.59
346.371	103.93
346.583	28.16
346.795	173.57
347.007	-20.99
347.219	108.03
347.431	24.06
347.643	62.98
347.855	50.69
348.067	81.41
348.279	-16.9
348.491	87.55
348.703	50.69
348.915	40.45
349.127	-8.7
349.339	62.98
349.551	118.27
349.763	112.13
349.975	65.02
350.187	32.26
350.399	65.02
350.61	32.26
350.822	83.45
351.034	105.98
351.246	48.64
351.458	-25.09
351.669	5.63
351.881	116.22
352.093	48.64
352.305	116.22
352.517	93.69
352.728	40.45
352.94	105.98
353.152	26.11
353.363	65.02
353.575	15.87
353.787	62.98
353.999	46.59
354.21	108.03
354.422	42.5
354.633	62.98
354.845	83.45
355.057	91.65
355.268	108.03
355.48	105.98
355.692	17.92
355.903	58.88
356.115	46.59
356.326	-27.14
356.538	136.7
356.749	50.69
356.961	116.22
357.172	97.79
357.384	71.17
357.595	136.7
357.807	28.16
358.018	163.33
358.23	58.88
358.441	95.74
358.653	81.41
358.864	15.87
359.075	48.64
359.287	36.35
359.498	105.98
359.709	56.83
359.921	19.97
360.132	46.59
360.344	30.21
360.555	34.3
360.766	22.02
360.977	56.83
361.189	79.36
361.4	-23.04
361.611	62.98
361.823	136.7
362.034	46.59
362.245	17.92
362.456	95.74
362.667	144.89
362.879	67.07
363.09	89.6
363.301	42.5
363.512	60.93
363.723	73.21
363.935	-10.75
364.146	97.79
364.357	58.88
364.568	9.73
364.779	13.82
364.99	112.13
365.201	81.41
365.412	89.6
365.623	54.78
365.834	108.03
366.045	5.63
366.256	116.22
366.467	62.98
366.678	56.83
366.889	136.7
367.1	65.02
367.311	103.93
367.522	83.45
367.733	99.84
367.944	159.23
368.155	-27.14
368.366	22.02
368.577	62.98
368.788	73.21
368.999	30.21
369.209	67.07
369.42	171.52
369.631	146.94
369.842	38.4
370.053	1.54
370.264	91.65
370.474	9.73
370.685	69.12
370.896	32.26
371.107	153.09
371.317	24.06
371.528	56.83
371.739	124.41
371.95	79.36
372.16	67.07
372.371	-18.94
372.582	30.21
372.792	99.84
373.003	146.94
373.214	77.31
373.424	95.74
373.635	95.74
373.846	65.02
374.056	112.13
374.267	114.17
374.477	62.98
374.688	95.74
374.898	118.27
375.109	58.88
375.319	36.35
375.53	48.64
375.74	79.36
375.951	32.26
376.161	46.59
376.372	50.69
376.582	30.21
376.793	91.65
377.003	32.26
377.214	26.11
377.424	62.98
377.635	83.45
377.845	22.02
378.055	105.98
378.266	-18.94
378.476	79.36
378.686	79.36
378.897	-49.66
379.107	97.79
379.317	108.03
379.528	42.5
379.738	24.06
379.948	130.56
380.158	48.64
380.369	48.64
380.579	87.55
380.789	124.41
380.999	75.26
381.21	97.79
381.42	114.17
381.63	17.92
381.84	79.36
382.05	38.4
382.261	83.45
382.471	120.32
382.681	54.78
382.891	189.95
383.101	138.75
383.311	-25.09
383.521	-18.94
383.731	99.84
383.941	126.46
384.151	67.07
384.361	89.6
384.571	81.41
384.781	101.89
384.991	128.51
385.201	103.93
385.411	52.74
385.621	93.69
385.831	112.13
386.041	144.89
386.251	73.21
386.461	153.09
386.671	116.22
386.881	87.55
387.091	67.07
387.301	163.33
387.511	108.03
387.72	112.13
387.93	171.52
388.14	93.69
388.35	93.69
388.56	179.71
388.769	148.99
388.979	75.26
389.189	83.45
389.399	26.11
389.609	95.74
389.818	87.55
390.028	97.79
390.238	151.04
390.447	71.17
390.657	62.98
390.867	116.22
391.076	22.02
391.286	112.13
391.496	40.45
391.705	54.78
391.915	58.88
392.125	118.27
392.334	144.89
392.544	130.56
392.753	105.98
392.963	54.78
393.172	140.8
393.382	105.98
393.591	202.24
393.801	159.23
394.01	138.75
394.22	103.93
394.429	54.78
394.639	114.17
394.848	159.23
395.058	46.59
395.267	73.21
395.477	210.43
395.686	124.41
395.895	146.94
396.105	120.32
396.314	60.93
396.524	128.51
396.733	75.26
396.942	189.95
397.152	185.85
397.361	155.13
397.57	132.61
397.78	148.99
397.989	81.41
398.198	206.33
398.407	132.61
398.617	87.55
398.826	128.51
399.035	169.47
399.244	130.56
399.453	200.19
399.663	140.8
399.872	202.24
400.081	103.93
400.29	157.18
400.499	189.95
400.708	179.71
400.917	169.47
401.127	99.84
401.336	122.37
401.545	161.28
401.754	194.05
401.963	177.66
402.172	189.95
402.381	210.43
402.59	116.22
402.799	112.13
403.008	210.43
403.217	228.86
403.426	224.76
403.635	116.22
403.844	194.05
404.053	214.52
404.262	128.51
404.471	271.87
404.68	185.85
404.888	235
405.097	169.47
405.306	218.62
405.515	222.72
405.724	194.05
405.933	304.64
406.142	280.06
406.35	218.62
406.559	245.24
406.768	218.62
406.977	269.82
407.185	292.35
407.394	261.63
407.603	161.28
407.812	308.73
408.02	300.54
408.229	302.59
408.438	278.01
408.646	243.2
408.855	368.12
409.064	341.5
409.272	292.35
409.481	400.89
409.69	361.98
409.898	374.27
410.107	431.61
410.315	357.88
410.524	384.51
410.733	415.23
410.941	425.47
411.15	523.77
411.358	515.58
411.567	538.1
411.775	529.91
411.984	554.49
412.192	605.69
412.401	591.35
412.609	568.82
412.818	638.45
413.026	654.84
413.234	636.41
413.443	671.22
413.651	648.69
413.86	726.52
414.068	767.48
414.276	869.87
414.485	816.63
414.693	941.55
414.901	896.5
415.11	996.85
415.318	906.74
415.526	984.56
415.734	953.84
415.943	1052.14
416.151	1035.76
416.359	1097.2
416.567	1091.06
416.776	1209.84
416.984	1269.23
417.192	1308.14
417.4	1154.54
417.608	1388.01
417.817	1349.1
418.025	1308.14
418.233	1476.07
418.441	1463.79
418.649	1580.52
418.857	1695.21
419.065	1687.01
419.273	1738.21
419.481	1754.6
419.689	1924.58
419.897	1889.76
420.105	1957.35
420.313	2078.18
420.521	2086.37
420.729	2217.44
420.937	2188.77
421.145	2397.66
421.353	2557.4
421.561	2600.41
421.769	2561.5
421.977	2629.08
422.185	2749.91
422.393	2883.03
422.601	3089.87
422.809	2966.99
423.017	2926.04
423.224	3096.02
423.432	3284.43
423.64	3278.29
423.848	3493.32
424.056	3556.81
424.263	3714.5
424.471	3710.41
424.679	3825.09
424.887	4122.05
425.094	4177.34
425.302	4220.35
425.51	4144.58
425.718	4408.76
425.925	4466.11
426.133	4740.54
426.341	4928.95
426.548	5088.69
426.756	5039.54
426.964	5248.43
427.171	5483.95
427.379	5690.79
427.586	5690.79
427.794	5871.01
428.001	6215.07
428.209	6458.78
428.417	6215.07
428.624	6733.21
428.832	6804.89
429.039	6667.67
429.247	6790.55
429.454	7290.26
429.662	7902.6
429.869	7331.22
430.076	8095.11
430.284	7642.51
430.491	8082.82
430.699	8344.96
430.906	8353.15
431.114	8560
431.321	8895.86
431.528	9180.53
431.736	9594.22
431.943	10237.28
432.15	9764.2
432.358	9903.46
432.565	10329.44
432.772	10278.24
432.979	10859.87
433.187	10937.69
433.394	11072.86
433.601	11672.91
433.808	11963.72
434.016	11881.8
434.223	12399.94
434.43	12926.27
434.637	12703.04
434.844	13542.71
435.052	13962.54
435.259	13710.64
435.466	13681.97
435.673	13753.65
435.88	14552.35
436.087	15172.89
436.294	15217.94
436.501	15234.33
436.708	15271.19
436.915	15760.66
437.122	16446.73
437.329	16454.92
437.537	17065.21
437.743	17044.73
437.95	17028.35
438.157	17956.08
438.364	18545.89
438.571	18388.2
438.778	18779.36
438.985	20337.87
439.192	19512.53
439.399	20282.57
439.606	19557.59
439.813	21236.92
440.02	22029.49
440.227	21730.48
440.433	21421.24
440.64	22174.89
440.847	22095.02
441.054	22621.35
441.261	24312.97
441.467	23835.8
441.674	24071.31
441.881	25056.39
442.088	25027.71
442.294	24773.77
442.501	25547.9
442.708	25902.2
442.914	27073.63
443.121	28122.19
443.328	27487.32
443.534	29283.39
443.741	28486.73
443.948	27841.62
444.154	30245.94
444.361	30194.74
444.568	29875.26
444.774	30286.9
444.981	30659.63
445.187	31292.45
445.394	32689.17
445.6	32326.67
445.807	35269.61
446.013	33530.88
446.22	33860.6
446.426	35576.8
446.633	36113.37
446.839	37149.64
447.046	35673.06
447.252	37583.81
447.459	37684.16
447.665	37454.79
447.871	39017.39
448.078	40942.48
448.284	39287.72
448.491	40305.56
448.697	41259.91
448.903	42072.96
449.11	42269.56
449.316	41501.57
449.522	42285.95
449.728	43318.12
449.935	43717.48
450.141	43797.35
450.347	44497.75
450.553	43166.57
450.76	43918.18
450.966	45316.94
451.172	44614.49
451.378	46021.44
451.584	44956.5
451.791	46084.93
451.997	45880.13
452.203	46895.92
452.409	47018.8
452.615	46598.97
452.821	44647.25
453.027	44444.51
453.233	46369.6
453.44	44802.9
453.646	45003.6
453.852	45087.57
454.058	46148.42
454.264	44505.94
454.47	45509.45
454.676	44413.79
454.882	45560.65
455.088	42175.36
455.294	43125.61
455.5	43369.32
455.705	43567.98
455.911	41986.94
456.117	41178
456.323	40455.06
456.529	38808.5
456.735	40168.35
456.941	39160.75
457.147	38532.02
457.352	37469.12
457.558	37176.26
457.764	37147.59
457.97	36430.8
458.176	35726.3
458.381	35308.52
458.587	33997.82
458.793	33680.38
458.999	32189.46
459.204	34243.57
459.41	33453.06
459.616	31239.2
459.821	31433.76
460.027	31292.45
460.233	30719.02
460.438	29191.23
460.644	29424.7
460.85	28073.04
461.055	27626.59
461.261	27311.2
461.466	25625.72
461.672	24769.67
461.878	26211.44
462.083	24761.48
462.289	24413.32
462.494	24259.73
462.7	22871.2
462.905	22420.65
463.111	23389.34
463.316	23157.92
463.522	22516.9
463.727	22768.8
463.932	22592.68
464.138	22506.66
464.343	22602.92
464.549	22035.63
464.754	22684.84
464.959	22181.04
465.165	22287.53
465.37	21009.6
465.575	20892.87
465.781	21415.1
465.986	21535.93
466.191	20796.61
466.397	20372.68
