Data from USB4F104151__141__14-31-49-701.txt Node

Date: Thu Mar 13 14:31:49 EDT 2025
User: louis
Spectrometer: USB4F10415
Trigger mode: 4
Integration Time (sec): 2.500000E-2
Scans to average: 1
Electric dark correction enabled: true
Nonlinearity correction enabled: false
Boxcar width: 0
XAxis mode: Wavelengths
Number of Pixels in Spectrum: 3648
>>>>>Begin Spectral Data<<<<<
178.204	-84.99
178.424	-84.99
178.644	-84.99
178.864	-115.71
179.084	-128
179.304	-3.07
179.524	-5.12
179.744	13.31
179.964	84.99
180.184	-68.61
180.404	7.17
180.624	-33.79
180.844	-3.07
181.064	-27.65
181.283	1.02
181.503	33.79
181.723	1.02
181.943	-35.84
182.163	140.29
182.383	-41.98
182.602	33.79
182.822	21.5
183.042	58.37
183.262	-19.46
183.482	72.7
183.701	37.89
183.921	82.94
184.141	-3.07
184.361	60.42
184.58	46.08
184.8	-17.41
185.02	5.12
185.239	95.23
185.459	19.46
185.679	146.43
185.898	5.12
186.118	80.89
186.338	72.7
186.557	89.09
186.777	-15.36
186.997	64.51
187.216	66.56
187.436	82.94
187.655	78.85
187.875	70.65
188.095	21.5
188.314	115.71
188.534	41.98
188.753	-5.12
188.973	103.42
189.192	56.32
189.412	17.41
189.631	13.31
189.851	33.79
190.07	74.75
190.29	-72.7
190.509	37.89
190.729	-39.94
190.948	111.61
191.168	158.72
191.387	54.27
191.607	46.08
191.826	56.32
192.045	13.31
192.265	50.18
192.484	29.7
192.704	-27.65
192.923	-39.94
193.142	177.15
193.362	-9.22
193.581	93.18
193.8	25.6
194.02	74.75
194.239	29.7
194.458	87.04
194.678	-37.89
194.897	39.94
195.116	25.6
195.335	29.7
195.555	7.17
195.774	-21.5
195.993	15.36
196.212	29.7
196.432	5.12
196.651	46.08
196.87	-46.08
197.089	54.27
197.308	-39.94
197.528	76.8
197.747	-66.56
197.966	5.12
198.185	80.89
198.404	80.89
198.623	60.42
198.842	111.61
199.062	130.05
199.281	48.13
199.5	13.31
199.719	52.22
199.938	15.36
200.157	37.89
200.376	37.89
200.595	74.75
200.814	46.08
201.033	-19.46
201.252	60.42
201.471	5.12
201.69	21.5
201.909	17.41
202.128	103.42
202.347	74.75
202.566	13.31
202.785	-27.65
203.004	7.17
203.223	54.27
203.442	-3.07
203.661	5.12
203.879	95.23
204.098	-7.17
204.317	13.31
204.536	103.42
204.755	111.61
204.974	62.46
205.193	-23.55
205.411	125.95
205.63	-5.12
205.849	-17.41
206.068	41.98
206.287	41.98
206.505	95.23
206.724	33.79
206.943	19.46
207.162	37.89
207.381	33.79
207.599	89.09
207.818	39.94
208.037	72.7
208.255	78.85
208.474	-17.41
208.693	13.31
208.911	7.17
209.13	31.74
209.349	68.61
209.567	19.46
209.786	109.57
210.005	-9.22
210.223	62.46
210.442	39.94
210.661	13.31
210.879	-48.13
211.098	-11.26
211.316	9.22
211.535	25.6
211.753	29.7
211.972	21.5
212.191	-11.26
212.409	-3.07
212.628	82.94
212.846	23.55
213.065	119.81
213.283	70.65
213.502	-11.26
213.72	58.37
213.938	62.46
214.157	-19.46
214.375	44.03
214.594	-11.26
214.812	78.85
215.031	66.56
215.249	1.02
215.467	70.65
215.686	66.56
215.904	56.32
216.122	-27.65
216.341	74.75
216.559	-7.17
216.778	7.17
216.996	33.79
217.214	66.56
217.432	99.33
217.651	37.89
217.869	25.6
218.087	-9.22
218.306	-17.41
218.524	19.46
218.742	15.36
218.96	54.27
219.179	-7.17
219.397	-19.46
219.615	97.28
219.833	25.6
220.051	19.46
220.27	89.09
220.488	82.94
220.706	-19.46
220.924	66.56
221.142	56.32
221.36	-11.26
221.578	37.89
221.796	5.12
222.015	103.42
222.233	25.6
222.451	154.62
222.669	7.17
222.887	70.65
223.105	-39.94
223.323	39.94
223.541	-27.65
223.759	62.46
223.977	93.18
224.195	-27.65
224.413	25.6
224.631	39.94
224.849	17.41
225.067	109.57
225.285	-3.07
225.503	13.31
225.721	25.6
225.939	39.94
226.157	82.94
226.375	103.42
226.592	46.08
226.81	23.55
227.028	37.89
227.246	50.18
227.464	21.5
227.682	37.89
227.9	29.7
228.117	33.79
228.335	54.27
228.553	82.94
228.771	15.36
228.989	-17.41
229.206	21.5
229.424	70.65
229.642	23.55
229.86	48.13
230.077	62.46
230.295	-17.41
230.513	72.7
230.731	13.31
230.948	156.67
231.166	46.08
231.384	-19.46
231.601	58.37
231.819	97.28
232.037	-1.02
232.254	1.02
232.472	-35.84
232.689	-15.36
232.907	33.79
233.125	-60.42
233.342	-9.22
233.56	-44.03
233.777	-23.55
233.995	-17.41
234.213	46.08
234.43	91.13
234.648	-41.98
234.865	7.17
235.083	23.55
235.3	-31.74
235.518	66.56
235.735	5.12
235.953	58.37
236.17	58.37
236.388	56.32
236.605	-11.26
236.822	29.7
237.04	54.27
237.257	64.51
237.475	21.5
237.692	99.33
237.909	31.74
238.127	37.89
238.344	80.89
238.562	52.22
238.779	39.94
238.996	15.36
239.214	13.31
239.431	66.56
239.648	37.89
239.865	78.85
240.083	64.51
240.3	119.81
240.517	23.55
240.735	103.42
240.952	41.98
241.169	119.81
241.386	7.17
241.603	44.03
241.821	-11.26
242.038	70.65
242.255	87.04
242.472	80.89
242.689	25.6
242.907	50.18
243.124	27.65
243.341	13.31
243.558	37.89
243.775	-27.65
243.992	21.5
244.209	9.22
244.426	82.94
244.643	107.52
244.86	56.32
245.078	21.5
245.295	-3.07
245.512	74.75
245.729	-68.61
245.946	13.31
246.163	56.32
246.38	15.36
246.597	-21.5
246.814	-23.55
247.031	13.31
247.248	48.13
247.464	25.6
247.681	78.85
247.898	62.46
248.115	46.08
248.332	31.74
248.549	62.46
248.766	29.7
248.983	66.56
249.2	-35.84
249.417	113.66
249.633	5.12
249.85	111.61
250.067	41.98
250.284	44.03
250.501	23.55
250.717	80.89
250.934	-25.6
251.151	60.42
251.368	-5.12
251.585	23.55
251.801	46.08
252.018	33.79
252.235	29.7
252.451	13.31
252.668	-52.22
252.885	29.7
253.102	35.84
253.318	1.02
253.535	7.17
253.752	-64.51
253.968	17.41
254.185	-35.84
254.401	37.89
254.618	146.43
254.835	-23.55
255.051	64.51
255.268	60.42
255.484	54.27
255.701	-7.17
255.917	148.48
256.134	-3.07
256.351	25.6
256.567	41.98
256.784	60.42
257	-72.7
257.217	105.47
257.433	89.09
257.65	91.13
257.866	33.79
258.082	25.6
258.299	-52.22
258.515	119.81
258.732	23.55
258.948	15.36
259.165	33.79
259.381	33.79
259.597	-3.07
259.814	31.74
260.03	62.46
260.246	-33.79
260.463	52.22
260.679	70.65
260.895	87.04
261.112	103.42
261.328	-1.02
261.544	-3.07
261.761	130.05
261.977	37.89
262.193	7.17
262.409	56.32
262.626	15.36
262.842	48.13
263.058	29.7
263.274	128
263.49	11.26
263.707	-1.02
263.923	68.61
264.139	-15.36
264.355	72.7
264.571	58.37
264.787	33.79
265.004	70.65
265.22	13.31
265.436	5.12
265.652	31.74
265.868	11.26
266.084	72.7
266.3	-17.41
266.516	-19.46
266.732	-21.5
266.948	-3.07
267.164	70.65
267.38	72.7
267.596	17.41
267.812	58.37
268.028	15.36
268.244	31.74
268.46	33.79
268.676	-11.26
268.892	-11.26
269.108	82.94
269.324	33.79
269.54	41.98
269.756	-9.22
269.972	7.17
270.188	44.03
270.403	58.37
270.619	-3.07
270.835	1.02
271.051	99.33
271.267	-44.03
271.483	15.36
271.698	66.56
271.914	64.51
272.13	-25.6
272.346	13.31
272.562	-15.36
272.777	62.46
272.993	17.41
273.209	15.36
273.425	17.41
273.64	7.17
273.856	111.61
274.072	46.08
274.287	72.7
274.503	19.46
274.719	48.13
274.934	-11.26
275.15	9.22
275.366	46.08
275.581	39.94
275.797	35.84
276.012	123.9
276.228	48.13
276.444	29.7
276.659	46.08
276.875	-35.84
277.09	56.32
277.306	5.12
277.521	62.46
277.737	13.31
277.952	78.85
278.168	-13.31
278.383	80.89
278.599	-19.46
278.814	21.5
279.03	31.74
279.245	105.47
279.461	29.7
279.676	33.79
279.892	-93.18
280.107	-66.56
280.322	-17.41
280.538	-19.46
280.753	21.5
280.969	113.66
281.184	21.5
281.399	113.66
281.615	62.46
281.83	-1.02
282.045	-44.03
282.26	-19.46
282.476	31.74
282.691	74.75
282.906	-17.41
283.122	44.03
283.337	17.41
283.552	33.79
283.767	31.74
283.983	115.71
284.198	44.03
284.413	13.31
284.628	37.89
284.843	89.09
285.058	78.85
285.274	-21.5
285.489	25.6
285.704	27.65
285.919	-46.08
286.134	-27.65
286.349	11.26
286.564	25.6
286.779	33.79
286.995	15.36
287.21	-33.79
287.425	109.57
287.64	13.31
287.855	87.04
288.07	-21.5
288.285	103.42
288.5	80.89
288.715	58.37
288.93	15.36
289.145	17.41
289.36	82.94
289.575	-93.18
289.79	78.85
290.004	54.27
290.219	91.13
290.434	68.61
290.649	-44.03
290.864	41.98
291.079	15.36
291.294	56.32
291.509	60.42
291.724	35.84
291.938	37.89
292.153	54.27
292.368	-15.36
292.583	80.89
292.798	78.85
293.012	58.37
293.227	66.56
293.442	128
293.657	62.46
293.871	54.27
294.086	62.46
294.301	66.56
294.516	87.04
294.73	15.36
294.945	21.5
295.16	-11.26
295.374	-1.02
295.589	9.22
295.804	54.27
296.018	3.07
296.233	95.23
296.447	89.09
296.662	21.5
296.877	111.61
297.091	37.89
297.306	58.37
297.52	23.55
297.735	60.42
297.949	-7.17
298.164	74.75
298.378	54.27
298.593	29.7
298.807	-3.07
299.022	19.46
299.236	87.04
299.451	39.94
299.665	21.5
299.88	39.94
300.094	78.85
300.309	37.89
300.523	87.04
300.737	54.27
300.952	-17.41
301.166	13.31
301.381	80.89
301.595	76.8
301.809	21.5
302.024	-1.02
302.238	29.7
302.452	31.74
302.667	-3.07
302.881	123.9
303.095	156.67
303.309	31.74
303.524	21.5
303.738	-52.22
303.952	-27.65
304.166	72.7
304.381	37.89
304.595	121.85
304.809	58.37
305.023	-3.07
305.237	-25.6
305.452	33.79
305.666	46.08
305.88	37.89
306.094	-19.46
306.308	27.65
306.522	80.89
306.736	138.24
306.95	66.56
307.164	99.33
307.379	46.08
307.593	56.32
307.807	58.37
308.021	35.84
308.235	58.37
308.449	74.75
308.663	39.94
308.877	3.07
309.091	136.19
309.305	15.36
309.519	11.26
309.733	78.85
309.947	7.17
310.161	62.46
310.374	15.36
310.588	78.85
310.802	23.55
311.016	23.55
311.23	52.22
311.444	60.42
311.658	25.6
311.872	105.47
312.085	111.61
312.299	62.46
312.513	60.42
312.727	15.36
312.941	19.46
313.154	7.17
313.368	76.8
313.582	109.57
313.796	62.46
314.009	-17.41
314.223	87.04
314.437	56.32
314.651	1.02
314.864	80.89
315.078	13.31
315.292	7.17
315.505	17.41
315.719	78.85
315.933	41.98
316.146	62.46
316.36	-23.55
316.573	56.32
316.787	87.04
317.001	5.12
317.214	50.18
317.428	37.89
317.641	-50.18
317.855	17.41
318.068	15.36
318.282	89.09
318.495	105.47
318.709	54.27
318.922	17.41
319.136	70.65
319.349	19.46
319.563	50.18
319.776	95.23
319.99	-35.84
320.203	105.47
320.417	13.31
320.63	64.51
320.843	97.28
321.057	33.79
321.27	7.17
321.483	7.17
321.697	109.57
321.91	50.18
322.124	140.29
322.337	50.18
322.55	50.18
322.763	66.56
322.977	-3.07
323.19	78.85
323.403	46.08
323.617	33.79
323.83	87.04
324.043	5.12
324.256	48.13
324.469	70.65
324.683	105.47
324.896	15.36
325.109	23.55
325.322	9.22
325.535	17.41
325.748	29.7
325.962	136.19
326.175	46.08
326.388	46.08
326.601	95.23
326.814	62.46
327.027	1.02
327.24	128
327.453	5.12
327.666	54.27
327.879	76.8
328.092	39.94
328.305	50.18
328.518	-15.36
328.731	31.74
328.944	95.23
329.157	19.46
329.37	54.27
329.583	138.24
329.796	89.09
330.009	-3.07
330.222	58.37
330.435	128
330.648	56.32
330.861	7.17
331.073	7.17
331.286	89.09
331.499	54.27
331.712	1.02
331.925	35.84
332.138	37.89
332.35	62.46
332.563	31.74
332.776	132.09
332.989	46.08
333.202	97.28
333.414	70.65
333.627	-3.07
333.84	23.55
334.053	70.65
334.265	103.42
334.478	25.6
334.691	78.85
334.903	46.08
335.116	41.98
335.329	64.51
335.541	7.17
335.754	97.28
335.966	17.41
336.179	5.12
336.392	-50.18
336.604	-15.36
336.817	70.65
337.029	107.52
337.242	70.65
337.454	7.17
337.667	46.08
337.88	101.37
338.092	13.31
338.305	19.46
338.517	-15.36
338.729	62.46
338.942	58.37
339.154	66.56
339.367	56.32
339.579	56.32
339.792	60.42
340.004	87.04
340.217	31.74
340.429	80.89
340.641	-17.41
340.854	15.36
341.066	-23.55
341.278	-11.26
341.491	115.71
341.703	89.09
341.915	31.74
342.128	25.6
342.34	82.94
342.552	33.79
342.764	50.18
342.977	-29.7
343.189	-25.6
343.401	29.7
343.613	-13.31
343.826	105.47
344.038	1.02
344.25	78.85
344.462	-3.07
344.674	9.22
344.886	54.27
345.099	62.46
345.311	39.94
345.523	46.08
345.735	-31.74
345.947	-11.26
346.159	70.65
346.371	7.17
346.583	-74.75
346.795	138.24
347.007	-3.07
347.219	60.42
347.431	66.56
347.643	78.85
347.855	87.04
348.067	41.98
348.279	58.37
348.491	56.32
348.703	56.32
348.915	-52.22
349.127	11.26
349.339	62.46
349.551	46.08
349.763	84.99
349.975	-1.02
350.187	25.6
350.399	128
350.61	46.08
350.822	5.12
351.034	89.09
351.246	21.5
351.458	132.09
351.669	91.13
351.881	37.89
352.093	48.13
352.305	15.36
352.517	54.27
352.728	58.37
352.94	58.37
353.152	70.65
353.363	70.65
353.575	82.94
353.787	82.94
353.999	-11.26
354.21	121.85
354.422	-31.74
354.633	29.7
354.845	21.5
355.057	21.5
355.268	87.04
355.48	-13.31
355.692	37.89
355.903	74.75
356.115	5.12
356.326	27.65
356.538	87.04
356.749	91.13
356.961	103.42
357.172	29.7
357.384	48.13
357.595	105.47
357.807	54.27
358.018	56.32
358.23	29.7
358.441	115.71
358.653	31.74
358.864	-11.26
359.075	21.5
359.287	15.36
359.498	-13.31
359.709	58.37
359.921	44.03
360.132	39.94
360.344	68.61
360.555	54.27
360.766	3.07
360.977	27.65
361.189	39.94
361.4	37.89
361.611	101.37
361.823	72.7
362.034	80.89
362.245	-7.17
362.456	68.61
362.667	62.46
362.879	29.7
363.09	54.27
363.301	62.46
363.512	99.33
363.723	76.8
363.935	7.17
364.146	109.57
364.357	82.94
364.568	103.42
364.779	78.85
364.99	103.42
365.201	-48.13
365.412	148.48
365.623	17.41
365.834	39.94
366.045	-3.07
366.256	13.31
366.467	115.71
366.678	105.47
366.889	54.27
367.1	62.46
367.311	93.18
367.522	54.27
367.733	128
367.944	97.28
368.155	31.74
368.366	21.5
368.577	46.08
368.788	80.89
368.999	105.47
369.209	44.03
369.42	91.13
369.631	119.81
369.842	50.18
370.053	78.85
370.264	54.27
370.474	3.07
370.685	56.32
370.896	23.55
371.107	15.36
371.317	113.66
371.528	7.17
371.739	91.13
371.95	95.23
372.16	128
372.371	72.7
372.582	23.55
372.792	23.55
373.003	31.74
373.214	74.75
373.424	91.13
373.635	39.94
373.846	46.08
374.056	46.08
374.267	29.7
374.477	60.42
374.688	-52.22
374.898	13.31
375.109	-19.46
375.319	13.31
375.53	128
375.74	-15.36
375.951	39.94
376.161	29.7
376.372	64.51
376.582	13.31
376.793	121.85
377.003	41.98
377.214	33.79
377.424	103.42
377.635	46.08
377.845	76.8
378.055	82.94
378.266	3.07
378.476	37.89
378.686	111.61
378.897	123.9
379.107	50.18
379.317	37.89
379.528	-19.46
379.738	123.9
379.948	23.55
380.158	50.18
380.369	3.07
380.579	156.67
380.789	-9.22
380.999	41.98
381.21	48.13
381.42	91.13
381.63	33.79
381.84	64.51
382.05	33.79
382.261	1.02
382.471	62.46
382.681	56.32
382.891	78.85
383.101	54.27
383.311	31.74
383.521	27.65
383.731	39.94
383.941	105.47
384.151	119.81
384.361	-3.07
384.571	72.7
384.781	37.89
384.991	105.47
385.201	134.14
385.411	74.75
385.621	29.7
385.831	144.38
386.041	1.02
386.251	15.36
386.461	123.9
386.671	-31.74
386.881	1.02
387.091	17.41
387.301	113.66
387.511	64.51
387.72	132.09
387.93	60.42
388.14	44.03
388.35	31.74
388.56	82.94
388.769	95.23
388.979	113.66
389.189	-33.79
389.399	87.04
389.609	39.94
389.818	87.04
390.028	11.26
390.238	56.32
390.447	107.52
390.657	46.08
390.867	107.52
391.076	41.98
391.286	80.89
391.496	29.7
391.705	46.08
391.915	95.23
392.125	58.37
392.334	39.94
392.544	93.18
392.753	111.61
392.963	111.61
393.172	48.13
393.382	78.85
393.591	119.81
393.801	46.08
394.01	70.65
394.22	80.89
394.429	80.89
394.639	39.94
394.848	119.81
395.058	91.13
395.267	70.65
395.477	111.61
395.686	37.89
395.895	101.37
396.105	173.05
396.314	130.05
396.524	15.36
396.733	62.46
396.942	132.09
397.152	168.96
397.361	105.47
397.57	209.92
397.78	138.24
397.989	177.15
398.198	158.72
398.407	70.65
398.617	140.29
398.826	78.85
399.035	121.85
399.244	70.65
399.453	54.27
399.663	54.27
399.872	179.2
400.081	66.56
400.29	201.72
400.499	31.74
400.708	105.47
400.917	89.09
401.127	125.95
401.336	13.31
401.545	154.62
401.754	142.33
401.963	103.42
402.172	128
402.381	72.7
402.59	87.04
402.799	111.61
403.008	179.2
403.217	82.94
403.426	142.33
403.635	87.04
403.844	214.01
404.053	181.25
404.262	177.15
404.471	250.88
404.68	177.15
404.888	138.24
405.097	123.9
405.306	144.38
405.515	216.06
405.724	146.43
405.933	203.77
406.142	140.29
406.35	287.74
406.559	261.12
406.768	222.2
406.977	261.12
407.185	283.64
407.394	211.96
407.603	244.73
407.812	234.49
408.02	199.68
408.229	310.27
408.438	295.93
408.646	252.92
408.855	273.4
409.064	279.55
409.272	316.41
409.481	394.23
409.69	310.27
409.898	340.99
410.107	338.94
410.315	357.37
410.524	373.75
410.733	359.42
410.941	377.85
411.15	474.1
411.358	455.67
411.567	396.28
411.775	480.25
411.984	455.67
412.192	472.06
412.401	447.48
412.609	525.3
412.818	619.51
413.026	498.68
413.234	523.26
413.443	523.26
413.651	449.53
413.86	674.81
414.068	596.98
414.276	721.91
414.485	693.24
414.693	670.71
414.901	791.54
415.11	881.65
415.318	775.16
415.526	752.63
415.734	801.78
415.943	906.23
416.151	973.81
416.359	926.71
416.567	1004.53
416.776	1045.49
416.984	1160.17
417.192	1192.94
417.4	1049.58
417.608	1229.81
417.817	1192.94
418.025	1283.05
418.233	1367.02
418.441	1319.92
418.649	1328.11
418.857	1364.97
419.065	1602.54
419.273	1510.38
419.481	1561.58
419.689	1645.54
419.897	1715.17
420.105	1631.21
420.313	1815.52
420.521	1942.5
420.729	1932.26
420.937	1891.3
421.145	1938.4
421.353	2118.62
421.561	2151.39
421.769	2286.56
421.977	2366.43
422.185	2345.95
422.393	2466.78
422.601	2634.71
422.809	2642.9
423.017	2601.94
423.224	2802.65
423.432	2905.04
423.64	2968.53
423.848	3120.08
424.056	2970.58
424.263	3300.3
424.471	3040.21
424.679	3388.36
424.887	3451.85
425.094	3544.01
425.302	3634.12
425.51	3838.92
425.718	3857.35
425.925	3896.26
426.133	4033.47
426.341	4330.43
426.548	4438.97
426.756	4484.03
426.964	4391.87
427.171	4842.42
427.379	4791.22
427.586	5026.74
427.794	5108.66
428.001	5378.99
428.209	5604.27
428.417	5522.35
428.624	5936.04
428.832	5858.21
429.039	5761.96
429.247	5647.27
429.454	6341.54
429.662	6732.7
429.869	6255.52
430.076	6869.91
430.284	6548.38
430.491	6767.51
430.699	7484.3
430.906	7441.29
431.114	7547.79
431.321	7435.15
431.528	7824.26
431.736	8158.08
431.943	8500.09
432.15	8371.07
432.358	8711.04
432.565	8958.84
432.772	8962.94
432.979	9544.56
433.187	9497.46
433.394	9487.22
433.601	10228.58
433.808	10457.95
434.016	10175.33
434.223	10672.99
434.43	11381.59
434.637	10994.52
434.844	11580.24
435.052	11760.46
435.259	11703.12
435.466	11950.92
435.673	11834.19
435.88	12759.87
436.087	13396.79
436.294	13296.44
436.501	13175.61
436.708	13202.23
436.915	13914.92
437.122	14140.2
437.329	14342.95
437.537	14674.72
437.743	14988.06
437.95	14748.45
438.157	15563.54
438.364	15891.21
438.571	15919.89
438.778	16042.76
438.985	17423.09
439.192	16988.92
439.399	17341.18
439.606	17005.31
439.813	17896.17
440.02	18881.25
440.227	18596.58
440.433	18512.61
440.64	19532.5
440.847	18907.87
441.054	19485.4
441.261	20658.88
441.467	20394.7
441.674	20947.65
441.881	21623.48
442.088	21660.34
442.294	21355.19
442.501	22031.02
442.708	22403.75
442.914	22944.42
443.121	24218.25
443.328	23517.85
443.534	25432.7
443.741	24783.49
443.948	24013.46
444.154	26163.82
444.361	25719.42
444.568	25989.75
444.774	25932.4
444.981	26030.71
445.187	27257.44
445.394	28035.67
445.6	28072.53
445.807	30532.14
446.013	28858.95
446.22	29608.51
446.426	30652.97
446.633	30960.17
446.839	32209.43
447.046	30650.92
447.252	32711.18
447.459	32725.52
447.665	32281.11
447.871	33890.81
448.078	35324.39
448.284	33419.78
448.491	34341.36
448.697	35389.92
448.903	36473.3
449.11	36254.17
449.316	35824.09
449.522	36624.85
449.728	37413.32
449.935	37489.09
450.141	37628.35
450.347	38672.82
450.553	37124.55
450.76	37632.45
450.966	38779.31
451.172	38611.38
451.378	39655.84
451.584	38805.94
451.791	39625.12
451.997	39709.09
452.203	40421.78
452.409	40348.06
452.615	39987.61
452.821	38465.97
453.027	37732.8
453.233	40085.92
453.44	38156.73
453.646	38595
453.852	38795.7
454.058	39567.78
454.264	38666.67
454.47	39465.38
454.676	37982.65
454.882	39227.82
455.088	36268.5
455.294	36551.12
455.5	37200.33
455.705	37183.94
455.911	35989.98
456.117	35326.44
456.323	35031.53
456.529	33024.52
456.735	34537.97
456.941	33657.34
457.147	32866.83
457.352	31818.27
457.558	31359.52
457.764	31394.34
457.97	30833.19
458.176	30134.84
458.381	30464.56
458.587	28953.16
458.793	28875.34
458.999	27142.75
459.204	29055.56
459.41	28201.55
459.616	26686.06
459.821	26753.64
460.027	26829.41
460.233	25850.49
460.438	24711.81
460.644	25041.54
460.85	24085.14
461.055	23239.33
461.261	23431.83
461.466	21689.01
461.672	20607.69
461.878	22530.73
462.083	20974.27
462.289	20634.31
462.494	20554.44
462.7	19380.95
462.905	19141.34
463.111	19747.54
463.316	19661.52
463.522	19040.99
463.727	19299.03
463.932	19104.48
464.138	18875.1
464.343	18979.55
464.549	18463.46
464.754	19405.53
464.959	19155.68
465.165	18924.26
465.37	18176.75
465.575	17631.99
465.781	18477.8
465.986	18289.38
466.191	17734.39
466.397	17394.42
466.602	16610.05
466.807	16947.97
467.012	17103.61
467.218	17203.96
