Data from USB4F104151__77__11-45-30-835.txt Node

Date: Fri Mar 14 11:45:30 EDT 2025
User: louis
Spectrometer: USB4F10415
Trigger mode: 4
Integration Time (sec): 2.000000E-2
Scans to average: 1
Electric dark correction enabled: true
Nonlinearity correction enabled: false
Boxcar width: 0
XAxis mode: Wavelengths
Number of Pixels in Spectrum: 3648
>>>>>Begin Spectral Data<<<<<
178.204	-91.48
178.424	-91.48
178.644	-91.48
178.864	-87.38
179.084	-93.52
179.304	-17.75
179.524	-38.23
179.744	-40.28
179.964	12.97
180.184	27.31
180.404	2.73
180.624	-11.61
180.844	4.78
181.064	-7.51
181.283	27.31
181.503	-15.7
181.723	55.98
181.943	-9.56
182.163	94.89
182.383	49.83
182.602	80.55
182.822	8.87
183.042	-1.37
183.262	-11.61
183.482	29.35
183.701	15.02
183.921	6.83
184.141	-40.28
184.361	88.75
184.58	-54.61
184.8	-30.04
185.02	-36.18
185.239	51.88
185.459	-30.04
185.679	45.74
185.898	-32.08
186.118	25.26
186.338	-27.99
186.557	62.12
186.777	0.68
186.997	-21.85
187.216	15.02
187.436	141.99
187.655	45.74
187.875	-5.46
188.095	37.55
188.314	12.97
188.534	21.16
188.753	-56.66
188.973	19.11
189.192	4.78
189.412	-9.56
189.631	-1.37
189.851	-21.85
190.07	123.56
190.29	23.21
190.509	-15.7
190.729	0.68
190.948	49.83
191.168	68.27
191.387	15.02
191.607	-7.51
191.826	17.07
192.045	27.31
192.265	43.69
192.484	-48.47
192.704	6.83
192.923	-13.65
193.142	4.78
193.362	33.45
193.581	41.64
193.8	60.07
194.02	27.31
194.239	27.31
194.458	0.68
194.678	10.92
194.897	66.22
195.116	10.92
195.335	23.21
195.555	74.41
195.774	-5.46
195.993	35.5
196.212	25.26
196.432	8.87
196.651	10.92
196.87	0.68
197.089	101.03
197.308	49.83
197.528	55.98
197.747	2.73
197.966	23.21
198.185	15.02
198.404	4.78
198.623	35.5
198.842	-21.85
199.062	-32.08
199.281	70.31
199.5	-17.75
199.719	47.79
199.938	15.02
200.157	103.08
200.376	62.12
200.595	-1.37
200.814	-13.65
201.033	43.69
201.252	29.35
201.471	23.21
201.69	21.16
201.909	94.89
202.128	15.02
202.347	115.37
202.566	55.98
202.785	68.27
203.004	39.59
203.223	115.37
203.442	49.83
203.661	29.35
203.879	78.51
204.098	-34.13
204.317	-52.56
204.536	121.51
204.755	55.98
204.974	31.4
205.193	17.07
205.411	27.31
205.63	10.92
205.849	21.16
206.068	19.11
206.287	6.83
206.505	4.78
206.724	21.16
206.943	-5.46
207.162	17.07
207.381	45.74
207.599	-23.89
207.818	-15.7
208.037	31.4
208.255	58.03
208.474	72.36
208.693	72.36
208.911	-3.41
209.13	12.97
209.349	-1.37
209.567	45.74
209.786	51.88
210.005	-17.75
210.223	29.35
210.442	-17.75
210.661	-11.61
210.879	-27.99
211.098	55.98
211.316	2.73
211.535	58.03
211.753	10.92
211.972	-19.8
212.191	-44.37
212.409	4.78
212.628	-21.85
212.846	47.79
213.065	33.45
213.283	29.35
213.502	12.97
213.72	0.68
213.938	17.07
214.157	8.87
214.375	19.11
214.594	21.16
214.812	39.59
215.031	66.22
215.249	-46.42
215.467	-17.75
215.686	-52.56
215.904	88.75
216.122	23.21
216.341	53.93
216.559	8.87
216.778	15.02
216.996	23.21
217.214	-42.32
217.432	19.11
217.651	-17.75
217.869	-15.7
218.087	103.08
218.306	31.4
218.524	29.35
218.742	43.69
218.96	21.16
219.179	0.68
219.397	21.16
219.615	53.93
219.833	35.5
220.051	37.55
220.27	55.98
220.488	10.92
220.706	-30.04
220.924	15.02
221.142	-11.61
221.36	94.89
221.578	60.07
221.796	23.21
222.015	58.03
222.233	-13.65
222.451	66.22
222.669	29.35
222.887	80.55
223.105	23.21
223.323	17.07
223.541	-25.94
223.759	64.17
223.977	-9.56
224.195	45.74
224.413	-25.94
224.631	64.17
224.849	-38.23
225.067	94.89
225.285	-1.37
225.503	47.79
225.721	-54.61
225.939	45.74
226.157	66.22
226.375	101.03
226.592	-1.37
226.81	2.73
227.028	43.69
227.246	94.89
227.464	-5.46
227.682	0.68
227.9	-25.94
228.117	-25.94
228.335	62.12
228.553	25.26
228.771	68.27
228.989	15.02
229.206	74.41
229.424	8.87
229.642	4.78
229.86	29.35
230.077	39.59
230.295	6.83
230.513	35.5
230.731	47.79
230.948	8.87
231.166	45.74
231.384	-19.8
231.601	92.84
231.819	107.18
232.037	6.83
232.254	-21.85
232.472	29.35
232.689	-9.56
232.907	2.73
233.125	47.79
233.342	103.08
233.56	2.73
233.777	-34.13
233.995	-7.51
234.213	78.51
234.43	-19.8
234.648	27.31
234.865	27.31
235.083	88.75
235.3	45.74
235.518	62.12
235.735	55.98
235.953	31.4
236.17	47.79
236.388	37.55
236.605	-38.23
236.822	4.78
237.04	10.92
237.257	-34.13
237.475	43.69
237.692	-9.56
237.909	43.69
238.127	-48.47
238.344	41.64
238.562	66.22
238.779	-7.51
238.996	-5.46
239.214	-15.7
239.431	55.98
239.648	15.02
239.865	55.98
240.083	25.26
240.3	4.78
240.517	78.51
240.735	-36.18
240.952	43.69
241.169	-1.37
241.386	21.16
241.603	-7.51
241.821	43.69
242.038	66.22
242.255	33.45
242.472	-25.94
242.689	33.45
242.907	8.87
243.124	8.87
243.341	-3.41
243.558	27.31
243.775	33.45
243.992	-62.8
244.209	6.83
244.426	51.88
244.643	31.4
244.86	19.11
245.078	-11.61
245.295	66.22
245.512	-9.56
245.729	17.07
245.946	31.4
246.163	-36.18
246.38	37.55
246.597	-25.94
246.814	39.59
247.031	-13.65
247.248	60.07
247.464	51.88
247.681	31.4
247.898	49.83
248.115	31.4
248.332	43.69
248.549	64.17
248.766	84.65
248.983	123.56
249.2	21.16
249.417	78.51
249.633	35.5
249.85	41.64
250.067	45.74
250.284	8.87
250.501	43.69
250.717	-44.37
250.934	-21.85
251.151	43.69
251.368	39.59
251.585	-5.46
251.801	25.26
252.018	8.87
252.235	-44.37
252.451	-1.37
252.668	35.5
252.885	62.12
253.102	53.93
253.318	25.26
253.535	33.45
253.752	55.98
253.968	15.02
254.185	-77.14
254.401	-13.65
254.618	107.18
254.835	17.07
255.051	127.66
255.268	37.55
255.484	-19.8
255.701	25.26
255.917	-15.7
256.134	15.02
256.351	113.32
256.567	15.02
256.784	25.26
257	10.92
257.217	6.83
257.433	-13.65
257.65	-5.46
257.866	-52.56
258.082	4.78
258.299	-25.94
258.515	-9.56
258.732	113.32
258.948	33.45
259.165	-1.37
259.381	-48.47
259.597	45.74
259.814	-34.13
260.03	21.16
260.246	96.94
260.463	6.83
260.679	29.35
260.895	43.69
261.112	64.17
261.328	8.87
261.544	2.73
261.761	35.5
261.977	47.79
262.193	-21.85
262.409	117.42
262.626	78.51
262.842	33.45
263.058	2.73
263.274	43.69
263.49	10.92
263.707	25.26
263.923	60.07
264.139	-1.37
264.355	-5.46
264.571	66.22
264.787	68.27
265.004	66.22
265.22	15.02
265.436	-9.56
265.652	35.5
265.868	-7.51
266.084	-5.46
266.3	35.5
266.516	-9.56
266.732	33.45
266.948	-11.61
267.164	33.45
267.38	15.02
267.596	49.83
267.812	41.64
268.028	51.88
268.244	-19.8
268.46	-23.89
268.676	-30.04
268.892	-15.7
269.108	76.46
269.324	-1.37
269.54	-13.65
269.756	84.65
269.972	-5.46
270.188	0.68
270.403	-73.04
270.619	-5.46
270.835	-1.37
271.051	-15.7
271.267	-25.94
271.483	12.97
271.698	-1.37
271.914	64.17
272.13	-21.85
272.346	12.97
272.562	2.73
272.777	53.93
272.993	107.18
273.209	-54.61
273.425	-7.51
273.64	47.79
273.856	58.03
274.072	-1.37
274.287	51.88
274.503	39.59
274.719	23.21
274.934	8.87
275.15	43.69
275.366	-7.51
275.581	-7.51
275.797	90.79
276.012	-25.94
276.228	0.68
276.444	27.31
276.659	88.75
276.875	-54.61
277.09	49.83
277.306	47.79
277.521	15.02
277.737	-68.95
277.952	-5.46
278.168	15.02
278.383	39.59
278.599	66.22
278.814	47.79
279.03	31.4
279.245	8.87
279.461	35.5
279.676	-38.23
279.892	-38.23
280.107	58.03
280.322	72.36
280.538	29.35
280.753	-1.37
280.969	115.37
281.184	27.31
281.399	2.73
281.615	-40.28
281.83	39.59
282.045	58.03
282.26	19.11
282.476	-3.41
282.691	96.94
282.906	-1.37
283.122	27.31
283.337	35.5
283.552	96.94
283.767	-64.85
283.983	74.41
284.198	-9.56
284.413	78.51
284.628	-3.41
284.843	84.65
285.058	31.4
285.274	6.83
285.489	0.68
285.704	2.73
285.919	49.83
286.134	0.68
286.349	-34.13
286.564	127.66
286.779	21.16
286.995	76.46
287.21	-5.46
287.425	109.22
287.64	0.68
287.855	17.07
288.07	4.78
288.285	35.5
288.5	27.31
288.715	27.31
288.93	45.74
289.145	-3.41
289.36	55.98
289.575	25.26
289.79	10.92
290.004	25.26
290.219	-25.94
290.434	19.11
290.649	0.68
290.864	-15.7
291.079	17.07
291.294	47.79
291.509	101.03
291.724	23.21
291.938	21.16
292.153	37.55
292.368	-21.85
292.583	33.45
292.798	-38.23
293.012	-11.61
293.227	-11.61
293.442	33.45
293.657	133.8
293.871	55.98
294.086	-21.85
294.301	41.64
294.516	105.13
294.73	92.84
294.945	-40.28
295.16	27.31
295.374	55.98
295.589	78.51
295.804	23.21
296.018	15.02
296.233	23.21
296.447	76.46
296.662	33.45
296.877	43.69
297.091	-15.7
297.306	2.73
297.52	37.55
297.735	10.92
297.949	-42.32
298.164	82.6
298.378	19.11
298.593	29.35
298.807	76.46
299.022	72.36
299.236	76.46
299.451	47.79
299.665	-7.51
299.88	68.27
300.094	-13.65
300.309	-38.23
300.523	-21.85
300.737	19.11
300.952	21.16
301.166	8.87
301.381	55.98
301.595	96.94
301.809	-7.51
302.024	-15.7
302.238	33.45
302.452	45.74
302.667	8.87
302.881	55.98
303.095	80.55
303.309	8.87
303.524	8.87
303.738	64.17
303.952	-79.19
304.166	17.07
304.381	-34.13
304.595	64.17
304.809	0.68
305.023	74.41
305.237	10.92
305.452	-5.46
305.666	66.22
305.88	53.93
306.094	33.45
306.308	21.16
306.522	55.98
306.736	21.16
306.95	-5.46
307.164	17.07
307.379	37.55
307.593	10.92
307.807	76.46
308.021	90.79
308.235	-11.61
308.449	0.68
308.663	-50.52
308.877	146.09
309.091	6.83
309.305	25.26
309.519	55.98
309.733	45.74
309.947	84.65
310.161	17.07
310.374	31.4
310.588	64.17
310.802	29.35
311.016	78.51
311.23	-13.65
311.444	45.74
311.658	101.03
311.872	68.27
312.085	31.4
312.299	66.22
312.513	94.89
312.727	12.97
312.941	2.73
313.154	78.51
313.368	60.07
313.582	35.5
313.796	-5.46
314.009	-17.75
314.223	17.07
314.437	31.4
314.651	-27.99
314.864	29.35
315.078	-7.51
315.292	-58.71
315.505	47.79
315.719	55.98
315.933	66.22
316.146	-42.32
316.36	49.83
316.573	101.03
316.787	133.8
317.001	80.55
317.214	-30.04
317.428	70.31
317.641	23.21
317.855	4.78
318.068	41.64
318.282	4.78
318.495	90.79
318.709	82.6
318.922	29.35
319.136	64.17
319.349	-13.65
319.563	17.07
319.776	15.02
319.99	21.16
320.203	15.02
320.417	84.65
320.63	123.56
320.843	47.79
321.057	60.07
321.27	43.69
321.483	35.5
321.697	37.55
321.91	-11.61
322.124	62.12
322.337	45.74
322.55	-19.8
322.763	10.92
322.977	62.12
323.19	17.07
323.403	51.88
323.617	43.69
323.83	35.5
324.043	-23.89
324.256	51.88
324.469	-13.65
324.683	62.12
324.896	15.02
325.109	-3.41
325.322	23.21
325.535	55.98
325.748	-3.41
325.962	-27.99
326.175	94.89
326.388	96.94
326.601	64.17
326.814	58.03
327.027	53.93
327.24	8.87
327.453	15.02
327.666	43.69
327.879	55.98
328.092	37.55
328.305	2.73
328.518	6.83
328.731	55.98
328.944	35.5
329.157	12.97
329.37	31.4
329.583	33.45
329.796	74.41
330.009	-81.24
330.222	39.59
330.435	-32.08
330.648	76.46
330.861	43.69
331.073	76.46
331.286	-3.41
331.499	4.78
331.712	8.87
331.925	70.31
332.138	12.97
332.35	66.22
332.563	47.79
332.776	-9.56
332.989	39.59
333.202	68.27
333.414	144.04
333.627	39.59
333.84	35.5
334.053	68.27
334.265	25.26
334.478	19.11
334.691	-68.95
334.903	-38.23
335.116	45.74
335.329	-9.56
335.541	35.5
335.754	74.41
335.966	45.74
336.179	15.02
336.392	49.83
336.604	45.74
336.817	-34.13
337.029	-32.08
337.242	43.69
337.454	15.02
337.667	8.87
337.88	35.5
338.092	49.83
338.305	84.65
338.517	-23.89
338.729	31.4
338.942	76.46
339.154	31.4
339.367	-7.51
339.579	96.94
339.792	35.5
340.004	-7.51
340.217	33.45
340.429	62.12
340.641	-13.65
340.854	-13.65
341.066	8.87
341.278	60.07
341.491	98.99
341.703	58.03
341.915	111.27
342.128	62.12
342.34	88.75
342.552	72.36
342.764	92.84
342.977	19.11
343.189	45.74
343.401	21.16
343.613	-5.46
343.826	17.07
344.038	43.69
344.25	10.92
344.462	70.31
344.674	51.88
344.886	47.79
345.099	60.07
345.311	88.75
345.523	49.83
345.735	23.21
345.947	35.5
346.159	25.26
346.371	15.02
346.583	-3.41
346.795	58.03
347.007	39.59
347.219	70.31
347.431	45.74
347.643	94.89
347.855	-62.8
348.067	35.5
348.279	-44.37
348.491	55.98
348.703	19.11
348.915	8.87
349.127	-27.99
349.339	-9.56
349.551	29.35
349.763	74.41
349.975	62.12
350.187	101.03
350.399	35.5
350.61	35.5
350.822	-44.37
351.034	86.7
351.246	51.88
351.458	60.07
351.669	64.17
351.881	23.21
352.093	51.88
352.305	80.55
352.517	41.64
352.728	82.6
352.94	17.07
353.152	84.65
353.363	31.4
353.575	21.16
353.787	58.03
353.999	17.07
354.21	66.22
354.422	94.89
354.633	23.21
354.845	17.07
355.057	55.98
355.268	64.17
355.48	0.68
355.692	4.78
355.903	17.07
356.115	43.69
356.326	55.98
356.538	53.93
356.749	31.4
356.961	129.7
357.172	101.03
357.384	-13.65
357.595	53.93
357.807	-17.75
358.018	21.16
358.23	23.21
358.441	37.55
358.653	-17.75
358.864	-7.51
359.075	0.68
359.287	33.45
359.498	51.88
359.709	41.64
359.921	6.83
360.132	39.59
360.344	4.78
360.555	76.46
360.766	47.79
360.977	10.92
361.189	62.12
361.4	74.41
361.611	127.66
361.823	129.7
362.034	80.55
362.245	27.31
362.456	25.26
362.667	31.4
362.879	-40.28
363.09	98.99
363.301	47.79
363.512	29.35
363.723	15.02
363.935	-21.85
364.146	66.22
364.357	53.93
364.568	49.83
364.779	76.46
364.99	72.36
365.201	64.17
365.412	88.75
365.623	-25.94
365.834	62.12
366.045	-34.13
366.256	-9.56
366.467	39.59
366.678	4.78
366.889	66.22
367.1	23.21
367.311	49.83
367.522	10.92
367.733	64.17
367.944	-25.94
368.155	27.31
368.366	64.17
368.577	4.78
368.788	98.99
368.999	19.11
369.209	43.69
369.42	15.02
369.631	90.79
369.842	21.16
370.053	37.55
370.264	43.69
370.474	33.45
370.685	21.16
370.896	86.7
371.107	103.08
371.317	92.84
371.528	129.7
371.739	72.36
371.95	-11.61
372.16	-21.85
372.371	21.16
372.582	121.51
372.792	51.88
373.003	23.21
373.214	78.51
373.424	96.94
373.635	25.26
373.846	84.65
374.056	33.45
374.267	78.51
374.477	78.51
374.688	62.12
374.898	55.98
375.109	58.03
375.319	-9.56
375.53	141.99
375.74	47.79
375.951	49.83
376.161	10.92
376.372	111.27
376.582	-17.75
376.793	41.64
377.003	0.68
377.214	31.4
377.424	31.4
377.635	60.07
377.845	74.41
378.055	-9.56
378.266	12.97
378.476	0.68
378.686	68.27
378.897	94.89
379.107	123.56
379.317	60.07
379.528	64.17
379.738	47.79
379.948	-11.61
380.158	66.22
380.369	-5.46
380.579	53.93
380.789	-19.8
380.999	31.4
381.21	-23.89
381.42	103.08
381.63	-11.61
381.84	-19.8
382.05	84.65
382.261	86.7
382.471	-9.56
382.681	4.78
382.891	127.66
383.101	66.22
383.311	4.78
383.521	60.07
383.731	107.18
383.941	88.75
384.151	29.35
384.361	90.79
384.571	27.31
384.781	47.79
384.991	115.37
385.201	74.41
385.411	27.31
385.621	84.65
385.831	80.55
386.041	105.13
386.251	62.12
386.461	35.5
386.671	-25.94
386.881	4.78
387.091	37.55
387.301	35.5
387.511	68.27
387.72	41.64
387.93	62.12
388.14	51.88
388.35	-32.08
388.56	82.6
388.769	121.51
388.979	51.88
389.189	45.74
389.399	25.26
389.609	80.55
389.818	53.93
390.028	86.7
390.238	45.74
390.447	35.5
390.657	115.37
390.867	68.27
391.076	60.07
391.286	10.92
391.496	8.87
391.705	82.6
391.915	60.07
392.125	111.27
392.334	66.22
392.544	133.8
392.753	12.97
392.963	58.03
393.172	47.79
393.382	86.7
393.591	2.73
393.801	98.99
394.01	55.98
394.22	64.17
394.429	60.07
394.639	70.31
394.848	113.32
395.058	160.42
395.267	62.12
395.477	68.27
395.686	123.56
395.895	133.8
396.105	105.13
396.314	86.7
396.524	76.46
396.733	64.17
396.942	150.18
397.152	109.22
397.361	148.14
397.57	109.22
397.78	84.65
397.989	74.41
398.198	55.98
398.407	127.66
398.617	125.61
398.826	113.32
399.035	98.99
399.244	58.03
399.453	105.13
399.663	98.99
399.872	92.84
400.081	78.51
400.29	160.42
400.499	72.36
400.708	158.38
400.917	43.69
401.127	113.32
401.336	60.07
401.545	74.41
401.754	94.89
401.963	43.69
402.172	109.22
402.381	146.09
402.59	92.84
402.799	103.08
403.008	96.94
403.217	119.46
403.426	78.51
403.635	119.46
403.844	39.59
404.053	129.7
404.262	158.38
404.471	88.75
404.68	60.07
404.888	185
405.097	68.27
405.306	166.57
405.515	137.9
405.724	117.42
405.933	170.66
406.142	55.98
406.35	164.52
406.559	135.85
406.768	197.29
406.977	109.22
407.185	129.7
407.394	256.68
407.603	129.7
407.812	152.23
408.02	168.62
408.229	174.76
408.438	166.57
408.646	217.77
408.855	201.38
409.064	246.44
409.272	275.11
409.481	250.53
409.69	281.25
409.898	275.11
410.107	197.29
410.315	283.3
410.524	211.62
410.733	365.22
410.941	350.89
411.15	373.41
411.358	346.79
411.567	322.21
411.775	328.36
411.984	363.17
412.192	387.75
412.401	416.42
412.609	492.2
412.818	520.87
413.026	451.24
413.234	475.81
413.443	488.1
413.651	445.09
413.86	479.91
414.068	610.98
414.276	613.03
414.485	477.86
414.693	596.64
414.901	545.44
415.11	645.79
415.318	596.64
415.526	733.86
415.734	709.28
415.943	641.7
416.151	821.92
416.359	735.9
416.567	692.9
416.776	805.53
416.984	793.25
417.192	918.17
417.4	903.84
417.608	871.07
417.817	889.5
418.025	985.76
418.233	987.8
418.441	1098.39
418.649	1073.82
418.857	1239.7
419.065	1129.11
419.273	1116.83
419.481	1104.54
419.689	1231.51
419.897	1321.62
420.105	1370.77
420.313	1364.63
420.521	1489.56
420.729	1417.88
420.937	1546.9
421.145	1544.85
421.353	1645.2
421.561	1696.4
421.769	1780.37
421.977	1737.36
422.185	1845.9
422.393	1917.58
422.601	2067.08
422.809	2042.51
423.017	2157.19
423.224	2130.57
423.432	2140.81
423.64	2323.08
423.848	2407.05
424.056	2304.65
424.263	2441.86
424.471	2470.53
424.679	2665.09
424.887	2769.54
425.094	2814.59
425.302	2955.9
425.51	3009.15
425.718	2970.24
425.925	3113.6
426.133	3201.66
426.341	3336.82
426.548	3506.81
426.756	3631.73
426.964	3443.32
427.171	3785.33
427.379	3877.49
427.586	4055.66
427.794	4092.52
428.001	4244.07
428.209	4469.35
428.417	4422.25
428.624	4700.77
428.832	4715.11
429.039	4635.24
429.247	4762.21
429.454	5061.21
429.662	5339.74
429.869	5175.9
430.076	5149.28
430.284	5397.08
430.491	5388.89
430.699	5882.45
430.906	5663.32
431.114	5757.52
431.321	6165.07
431.528	6394.44
431.736	6646.34
431.943	7098.94
432.15	6756.93
432.358	6791.75
432.565	7219.77
432.772	7123.52
432.979	7514.68
433.187	7637.56
433.394	7539.26
433.601	8292.91
433.808	8053.3
434.016	8213.04
434.223	8497.7
434.43	9034.27
434.637	8919.59
434.844	9304.6
435.052	9636.38
435.259	9609.75
435.466	9685.53
435.673	9433.63
435.88	10162.7
436.087	10662.41
436.294	10498.57
436.501	10453.52
436.708	10748.42
436.915	11084.29
437.122	11459.07
437.329	11532.79
437.537	11829.75
437.743	12059.12
437.95	11915.76
438.157	12653.03
438.364	13089.25
438.571	12863.97
438.778	13019.62
438.985	14299.6
439.192	13685.21
439.399	14127.57
439.606	13797.85
439.813	14367.18
440.02	15376.83
440.227	15245.76
440.433	14948.81
440.64	15573.44
440.847	15583.68
441.054	15858.1
441.261	17183.14
441.467	16701.87
441.674	17430.94
441.881	17580.45
442.088	17705.37
442.294	17312.16
442.501	18123.16
442.708	18479.5
442.914	18903.43
443.121	19714.43
443.328	19382.66
443.534	20654.45
443.741	19949.95
443.948	19650.94
444.154	21451.11
444.361	21088.62
444.568	21422.44
444.774	21338.47
444.981	21547.36
445.187	22196.57
445.394	23173.45
445.6	22753.62
445.807	25006.38
446.013	23853.37
446.22	24502.58
446.426	25178.41
446.633	25551.14
446.839	26405.14
447.046	25456.93
447.252	26824.98
447.459	26859.79
447.665	26802.45
447.871	27894.02
448.078	29057.26
448.284	27748.61
448.491	28539.13
448.697	29528.3
448.903	30030.05
449.11	29982.95
449.316	29815.01
449.522	30077.15
449.728	31236.3
449.935	31353.04
450.141	31260.88
450.347	31834.31
450.553	30902.48
450.76	31158.48
450.966	32080.07
451.172	31903.94
451.378	33024.18
451.584	32342.21
451.791	32784.57
451.997	32942.26
452.203	33437.87
452.409	33353.9
452.615	32952.5
452.821	32004.29
453.027	31844.55
453.233	33290.41
453.44	32059.59
453.646	32614.58
453.852	32825.53
454.058	32993.46
454.264	31979.71
454.47	33024.18
454.676	32327.87
454.882	33231.02
455.088	30191.84
455.294	30795.99
455.5	31318.22
455.705	31307.98
455.911	30148.83
456.117	29712.61
456.323	29206.76
456.529	27799.81
456.735	28623.09
456.941	28139.77
457.147	27691.27
457.352	26931.47
457.558	26413.34
457.764	26718.48
457.97	26245.4
458.176	25573.67
458.381	25590.05
458.587	24752.43
458.793	24363.32
458.999	23456.07
459.204	24805.68
459.41	24213.82
459.616	22301.01
459.821	22421.84
460.027	22364.5
460.233	21969.24
460.438	21096.81
460.644	21133.67
460.85	20007.29
461.055	19784.06
461.261	19833.21
461.466	18448.79
461.672	17838.49
461.878	19233.16
462.083	17721.76
462.289	17580.45
462.494	17205.67
462.7	16646.57
462.905	16093.62
463.111	16693.68
463.316	16939.43
463.522	16331.19
463.727	16339.38
463.932	16474.54
464.138	16122.29
464.343	16224.69
464.549	15866.3
464.754	16286.13
464.959	16155.06
465.165	15778.23
465.37	15354.3
465.575	14846.41
465.781	15442.37
465.986	15579.58
466.191	15133.12
466.397	14657.99
466.602	13994.45
466.807	14688.71
467.012	14502.35
467.218	14387.66
467.423	14295.5
467.628	14422.48
467.833	14901.7
