Data from USB4F104151__83__11-45-34-847.txt Node

Date: Fri Mar 14 11:45:34 EDT 2025
User: louis
Spectrometer: USB4F10415
Trigger mode: 4
Integration Time (sec): 2.000000E-2
Scans to average: 1
Electric dark correction enabled: true
Nonlinearity correction enabled: false
Boxcar width: 0
XAxis mode: Wavelengths
Number of Pixels in Spectrum: 3648
>>>>>Begin Spectral Data<<<<<
178.204	-79.7
178.424	-79.7
178.644	-79.7
178.864	-114.52
179.084	-44.88
179.304	-24.4
179.524	26.79
179.744	51.37
179.964	20.65
180.184	26.79
180.404	51.37
180.624	6.31
180.844	-8.02
181.064	-26.45
181.283	-12.12
181.503	-42.84
181.723	-69.46
181.943	-10.07
182.163	53.42
182.383	18.6
182.602	47.27
182.822	18.6
183.042	61.61
183.262	-34.64
183.482	123.05
183.701	26.79
183.921	20.65
184.141	55.47
184.361	88.23
184.58	47.27
184.8	-10.07
185.02	-20.31
185.239	32.94
185.459	41.13
185.679	26.79
185.898	-81.75
186.118	102.57
186.338	51.37
186.557	14.51
186.777	45.23
186.997	71.85
187.216	34.99
187.436	45.23
187.655	22.7
187.875	73.9
188.095	4.27
188.314	49.32
188.534	71.85
188.753	-24.4
188.973	37.03
189.192	14.51
189.412	12.46
189.631	39.08
189.851	73.9
190.07	30.89
190.29	45.23
190.509	39.08
190.729	-24.4
190.948	92.33
191.168	131.24
191.387	69.8
191.607	39.08
191.826	98.47
192.045	12.46
192.265	22.7
192.484	22.7
192.704	-26.45
192.923	2.22
193.142	94.38
193.362	57.51
193.581	-1.88
193.8	8.36
194.02	69.8
194.239	-46.93
194.458	4.27
194.678	84.14
194.897	69.8
195.116	16.55
195.335	47.27
195.555	65.71
195.774	0.17
195.993	63.66
196.212	6.31
196.432	39.08
196.651	45.23
196.87	59.56
197.089	90.28
197.308	39.08
197.528	16.55
197.747	-26.45
197.966	73.9
198.185	43.18
198.404	0.17
198.623	45.23
198.842	14.51
199.062	-42.84
199.281	90.28
199.5	116.9
199.719	16.55
199.938	6.31
200.157	100.52
200.376	24.75
200.595	39.08
200.814	28.84
201.033	-53.08
201.252	59.56
201.471	67.75
201.69	28.84
201.909	92.33
202.128	65.71
202.347	55.47
202.566	75.95
202.785	53.42
203.004	-8.02
203.223	16.55
203.442	28.84
203.661	32.94
203.879	32.94
204.098	55.47
204.317	65.71
204.536	2.22
204.755	77.99
204.974	-26.45
205.193	16.55
205.411	45.23
205.63	37.03
205.849	18.6
206.068	41.13
206.287	-32.6
206.505	57.51
206.724	51.37
206.943	8.36
207.162	20.65
207.381	14.51
207.599	16.55
207.818	-12.12
208.037	75.95
208.255	47.27
208.474	-5.97
208.693	-30.55
208.911	28.84
209.13	32.94
209.349	80.04
209.567	14.51
209.786	104.62
210.005	18.6
210.223	55.47
210.442	14.51
210.661	6.31
210.879	65.71
211.098	-1.88
211.316	53.42
211.535	125.1
211.753	20.65
211.972	-18.26
212.191	16.55
212.409	8.36
212.628	10.41
212.846	-8.02
213.065	28.84
213.283	86.19
213.502	8.36
213.72	80.04
213.938	53.42
214.157	47.27
214.375	8.36
214.594	-14.17
214.812	47.27
215.031	10.41
215.249	55.47
215.467	-28.5
215.686	69.8
215.904	82.09
216.122	47.27
216.341	37.03
216.559	96.43
216.778	41.13
216.996	22.7
217.214	26.79
217.432	10.41
217.651	-22.36
217.869	-36.69
218.087	53.42
218.306	51.37
218.524	63.66
218.742	61.61
218.96	82.09
219.179	53.42
219.397	4.27
219.615	127.14
219.833	39.08
220.051	59.56
220.27	14.51
220.488	108.71
220.706	75.95
220.924	6.31
221.142	53.42
221.36	63.66
221.578	63.66
221.796	86.19
222.015	37.03
222.233	49.32
222.451	125.1
222.669	-28.5
222.887	98.47
223.105	26.79
223.323	69.8
223.541	-16.21
223.759	57.51
223.977	32.94
224.195	47.27
224.413	28.84
224.631	41.13
224.849	-14.17
225.067	61.61
225.285	59.56
225.503	59.56
225.721	-26.45
225.939	20.65
226.157	73.9
226.375	69.8
226.592	45.23
226.81	59.56
227.028	41.13
227.246	63.66
227.464	-10.07
227.682	8.36
227.9	20.65
228.117	45.23
228.335	47.27
228.553	112.81
228.771	49.32
228.989	110.76
229.206	94.38
229.424	-22.36
229.642	-24.4
229.86	-16.21
230.077	-26.45
230.295	84.14
230.513	106.67
230.731	71.85
230.948	47.27
231.166	45.23
231.384	41.13
231.601	39.08
231.819	71.85
232.037	14.51
232.254	-73.56
232.472	55.47
232.689	-14.17
232.907	43.18
233.125	41.13
233.342	20.65
233.56	-5.97
233.777	102.57
233.995	-12.12
234.213	57.51
234.43	18.6
234.648	71.85
234.865	34.99
235.083	65.71
235.3	-20.31
235.518	121
235.735	26.79
235.953	77.99
236.17	57.51
236.388	135.34
236.605	-12.12
236.822	2.22
237.04	14.51
237.257	41.13
237.475	32.94
237.692	34.99
237.909	37.03
238.127	26.79
238.344	59.56
238.562	67.75
238.779	65.71
238.996	10.41
239.214	100.52
239.431	10.41
239.648	4.27
239.865	57.51
240.083	55.47
240.3	-12.12
240.517	41.13
240.735	67.75
240.952	6.31
241.169	121
241.386	32.94
241.603	37.03
241.821	51.37
242.038	75.95
242.255	32.94
242.472	22.7
242.689	45.23
242.907	65.71
243.124	30.89
243.341	94.38
243.558	65.71
243.775	10.41
243.992	41.13
244.209	75.95
244.426	53.42
244.643	45.23
244.86	18.6
245.078	63.66
245.295	20.65
245.512	16.55
245.729	14.51
245.946	49.32
246.163	32.94
246.38	28.84
246.597	-3.93
246.814	34.99
247.031	37.03
247.248	133.29
247.464	4.27
247.681	26.79
247.898	26.79
248.115	53.42
248.332	4.27
248.549	0.17
248.766	41.13
248.983	-5.97
249.2	41.13
249.417	53.42
249.633	39.08
249.85	16.55
250.067	-112.47
250.284	4.27
250.501	61.61
250.717	30.89
250.934	65.71
251.151	20.65
251.368	20.65
251.585	14.51
251.801	49.32
252.018	34.99
252.235	18.6
252.451	4.27
252.668	22.7
252.885	-26.45
253.102	-16.21
253.318	-30.55
253.535	-3.93
253.752	10.41
253.968	69.8
254.185	45.23
254.401	0.17
254.618	71.85
254.835	4.27
255.051	86.19
255.268	43.18
255.484	-14.17
255.701	-22.36
255.917	45.23
256.134	20.65
256.351	57.51
256.567	-10.07
256.784	65.71
257	0.17
257.217	16.55
257.433	0.17
257.65	55.47
257.866	43.18
258.082	73.9
258.299	16.55
258.515	65.71
258.732	-10.07
258.948	53.42
259.165	77.99
259.381	77.99
259.597	92.33
259.814	2.22
260.03	57.51
260.246	12.46
260.463	41.13
260.679	47.27
260.895	53.42
261.112	69.8
261.328	14.51
261.544	-57.17
261.761	106.67
261.977	12.46
262.193	6.31
262.409	24.75
262.626	57.51
262.842	32.94
263.058	37.03
263.274	45.23
263.49	8.36
263.707	34.99
263.923	16.55
264.139	75.95
264.355	30.89
264.571	94.38
264.787	10.41
265.004	131.24
265.22	82.09
265.436	8.36
265.652	-16.21
265.868	0.17
266.084	2.22
266.3	63.66
266.516	47.27
266.732	16.55
266.948	65.71
267.164	61.61
267.38	47.27
267.596	61.61
267.812	96.43
268.028	49.32
268.244	49.32
268.46	69.8
268.676	20.65
268.892	80.04
269.108	92.33
269.324	14.51
269.54	57.51
269.756	123.05
269.972	4.27
270.188	37.03
270.403	30.89
270.619	24.75
270.835	24.75
271.051	30.89
271.267	-8.02
271.483	47.27
271.698	98.47
271.914	22.7
272.13	30.89
272.346	20.65
272.562	-3.93
272.777	30.89
272.993	80.04
273.209	-22.36
273.425	108.71
273.64	8.36
273.856	59.56
274.072	41.13
274.287	32.94
274.503	69.8
274.719	106.67
274.934	37.03
275.15	39.08
275.366	18.6
275.581	49.32
275.797	16.55
276.012	14.51
276.228	69.8
276.444	80.04
276.659	39.08
276.875	77.99
277.09	55.47
277.306	118.95
277.521	37.03
277.737	12.46
277.952	94.38
278.168	77.99
278.383	18.6
278.599	-1.88
278.814	24.75
279.03	16.55
279.245	90.28
279.461	55.47
279.676	71.85
279.892	16.55
280.107	-1.88
280.322	71.85
280.538	-18.26
280.753	37.03
280.969	10.41
281.184	22.7
281.399	-10.07
281.615	30.89
281.83	75.95
282.045	22.7
282.26	-12.12
282.476	-28.5
282.691	-3.93
282.906	69.8
283.122	-22.36
283.337	55.47
283.552	149.67
283.767	-8.02
283.983	14.51
284.198	8.36
284.413	-34.64
284.628	51.37
284.843	41.13
285.058	51.37
285.274	14.51
285.489	16.55
285.704	80.04
285.919	94.38
286.134	20.65
286.349	90.28
286.564	86.19
286.779	57.51
286.995	22.7
287.21	12.46
287.425	20.65
287.64	24.75
287.855	59.56
288.07	49.32
288.285	53.42
288.5	71.85
288.715	39.08
288.93	80.04
289.145	53.42
289.36	69.8
289.575	-5.97
289.79	8.36
290.004	63.66
290.219	88.23
290.434	67.75
290.649	41.13
290.864	45.23
291.079	110.76
291.294	12.46
291.509	49.32
291.724	22.7
291.938	4.27
292.153	69.8
292.368	69.8
292.583	86.19
292.798	168.1
293.012	75.95
293.227	2.22
293.442	77.99
293.657	22.7
293.871	61.61
294.086	10.41
294.301	69.8
294.516	82.09
294.73	16.55
294.945	32.94
295.16	65.71
295.374	43.18
295.589	71.85
295.804	-14.17
296.018	-5.97
296.233	80.04
296.447	12.46
296.662	2.22
296.877	92.33
297.091	4.27
297.306	135.34
297.52	41.13
297.735	108.71
297.949	106.67
298.164	45.23
298.378	20.65
298.593	37.03
298.807	69.8
299.022	63.66
299.236	67.75
299.451	88.23
299.665	-22.36
299.88	65.71
300.094	57.51
300.309	30.89
300.523	67.75
300.737	6.31
300.952	49.32
301.166	22.7
301.381	37.03
301.595	98.47
301.809	32.94
302.024	4.27
302.238	2.22
302.452	45.23
302.667	-16.21
302.881	16.55
303.095	61.61
303.309	41.13
303.524	57.51
303.738	-18.26
303.952	-1.88
304.166	86.19
304.381	22.7
304.595	55.47
304.809	39.08
305.023	75.95
305.237	57.51
305.452	71.85
305.666	84.14
305.88	94.38
306.094	84.14
306.308	34.99
306.522	6.31
306.736	63.66
306.95	26.79
307.164	18.6
307.379	65.71
307.593	41.13
307.807	108.71
308.021	90.28
308.235	82.09
308.449	39.08
308.663	59.56
308.877	96.43
309.091	77.99
309.305	123.05
309.519	96.43
309.733	73.9
309.947	41.13
310.161	63.66
310.374	-10.07
310.588	100.52
310.802	20.65
311.016	45.23
311.23	80.04
311.444	67.75
311.658	59.56
311.872	57.51
312.085	55.47
312.299	135.34
312.513	112.81
312.727	71.85
312.941	65.71
313.154	75.95
313.368	125.1
313.582	98.47
313.796	-30.55
314.009	22.7
314.223	-1.88
314.437	102.57
314.651	112.81
314.864	-1.88
315.078	114.86
315.292	92.33
315.505	90.28
315.719	75.95
315.933	65.71
316.146	14.51
316.36	45.23
316.573	90.28
316.787	41.13
317.001	59.56
317.214	55.47
317.428	51.37
317.641	20.65
317.855	55.47
318.068	112.81
318.282	32.94
318.495	51.37
318.709	-10.07
318.922	125.1
319.136	22.7
319.349	59.56
319.563	22.7
319.776	43.18
319.99	82.09
320.203	75.95
320.417	104.62
320.63	75.95
320.843	59.56
321.057	18.6
321.27	53.42
321.483	86.19
321.697	18.6
321.91	0.17
322.124	84.14
322.337	75.95
322.55	90.28
322.763	32.94
322.977	45.23
323.19	57.51
323.403	61.61
323.617	59.56
323.83	159.91
324.043	73.9
324.256	55.47
324.469	-14.17
324.683	32.94
324.896	12.46
325.109	94.38
325.322	32.94
325.535	28.84
325.748	28.84
325.962	65.71
326.175	55.47
326.388	39.08
326.601	41.13
326.814	69.8
327.027	135.34
327.24	41.13
327.453	71.85
327.666	86.19
327.879	57.51
328.092	12.46
328.305	12.46
328.518	73.9
328.731	-5.97
328.944	77.99
329.157	10.41
329.37	69.8
329.583	39.08
329.796	65.71
330.009	20.65
330.222	65.71
330.435	69.8
330.648	106.67
330.861	55.47
331.073	127.14
331.286	94.38
331.499	77.99
331.712	-1.88
331.925	39.08
332.138	-3.93
332.35	2.22
332.563	49.32
332.776	106.67
332.989	71.85
333.202	0.17
333.414	24.75
333.627	69.8
333.84	-10.07
334.053	30.89
334.265	121
334.478	65.71
334.691	88.23
334.903	88.23
335.116	39.08
335.329	92.33
335.541	0.17
335.754	-1.88
335.966	28.84
336.179	77.99
336.392	57.51
336.604	106.67
336.817	73.9
337.029	69.8
337.242	67.75
337.454	51.37
337.667	32.94
337.88	59.56
338.092	71.85
338.305	53.42
338.517	39.08
338.729	55.47
338.942	84.14
339.154	45.23
339.367	53.42
339.579	22.7
339.792	41.13
340.004	8.36
340.217	77.99
340.429	57.51
340.641	75.95
340.854	114.86
341.066	2.22
341.278	53.42
341.491	69.8
341.703	43.18
341.915	14.51
342.128	92.33
342.34	20.65
342.552	63.66
342.764	37.03
342.977	75.95
343.189	112.81
343.401	32.94
343.613	10.41
343.826	41.13
344.038	24.75
344.25	94.38
344.462	53.42
344.674	121
344.886	57.51
345.099	49.32
345.311	41.13
345.523	26.79
345.735	-26.45
345.947	34.99
346.159	71.85
346.371	114.86
346.583	84.14
346.795	55.47
347.007	155.82
347.219	28.84
347.431	37.03
347.643	80.04
347.855	32.94
348.067	61.61
348.279	-12.12
348.491	55.47
348.703	102.57
348.915	77.99
349.127	-14.17
349.339	51.37
349.551	73.9
349.763	10.41
349.975	71.85
350.187	55.47
350.399	37.03
350.61	-14.17
350.822	141.48
351.034	131.24
351.246	63.66
351.458	4.27
351.669	75.95
351.881	104.62
352.093	37.03
352.305	55.47
352.517	71.85
352.728	49.32
352.94	20.65
353.152	61.61
353.363	0.17
353.575	110.76
353.787	147.62
353.999	118.95
354.21	47.27
354.422	80.04
354.633	-20.31
354.845	65.71
355.057	32.94
355.268	55.47
355.48	75.95
355.692	14.51
355.903	34.99
356.115	98.47
356.326	28.84
356.538	-3.93
356.749	69.8
356.961	161.96
357.172	90.28
357.384	55.47
357.595	92.33
357.807	0.17
358.018	32.94
358.23	63.66
358.441	104.62
358.653	112.81
358.864	-5.97
359.075	30.89
359.287	63.66
359.498	114.86
359.709	127.14
359.921	41.13
360.132	43.18
360.344	155.82
360.555	24.75
360.766	30.89
360.977	53.42
361.189	129.19
361.4	39.08
361.611	43.18
361.823	65.71
362.034	88.23
362.245	22.7
362.456	69.8
362.667	39.08
362.879	12.46
363.09	96.43
363.301	73.9
363.512	82.09
363.723	73.9
363.935	34.99
364.146	86.19
364.357	69.8
364.568	80.04
364.779	22.7
364.99	73.9
365.201	-10.07
365.412	43.18
365.623	61.61
365.834	-5.97
366.045	8.36
366.256	94.38
366.467	121
366.678	102.57
366.889	59.56
367.1	57.51
367.311	55.47
367.522	94.38
367.733	65.71
367.944	55.47
368.155	14.51
368.366	39.08
368.577	135.34
368.788	80.04
368.999	10.41
369.209	34.99
369.42	45.23
369.631	180.39
369.842	88.23
370.053	41.13
370.264	80.04
370.474	39.08
370.685	41.13
370.896	159.91
371.107	16.55
371.317	80.04
371.528	43.18
371.739	125.1
371.95	45.23
372.16	61.61
372.371	0.17
372.582	-1.88
372.792	139.43
373.003	110.76
373.214	86.19
373.424	39.08
373.635	55.47
373.846	77.99
374.056	100.52
374.267	102.57
374.477	59.56
374.688	125.1
374.898	73.9
375.109	77.99
375.319	67.75
375.53	135.34
375.74	-20.31
375.951	51.37
376.161	32.94
376.372	41.13
376.582	26.79
376.793	41.13
377.003	-24.4
377.214	104.62
377.424	84.14
377.635	32.94
377.845	45.23
378.055	121
378.266	47.27
378.476	55.47
378.686	102.57
378.897	77.99
379.107	77.99
379.317	80.04
379.528	96.43
379.738	73.9
379.948	73.9
380.158	61.61
380.369	57.51
380.579	39.08
380.789	73.9
380.999	4.27
381.21	26.79
381.42	110.76
381.63	61.61
381.84	73.9
382.05	57.51
382.261	69.8
382.471	77.99
382.681	53.42
382.891	92.33
383.101	114.86
383.311	-51.03
383.521	49.32
383.731	141.48
383.941	69.8
384.151	73.9
384.361	71.85
384.571	80.04
384.781	92.33
384.991	90.28
385.201	49.32
385.411	102.57
385.621	20.65
385.831	47.27
386.041	102.57
386.251	98.47
386.461	84.14
386.671	139.43
386.881	116.9
387.091	116.9
387.301	77.99
387.511	30.89
387.72	127.14
387.93	82.09
388.14	-14.17
388.35	94.38
388.56	125.1
388.769	84.14
388.979	102.57
389.189	61.61
389.399	153.77
389.609	84.14
389.818	153.77
390.028	121
390.238	143.53
390.447	45.23
390.657	69.8
390.867	75.95
391.076	92.33
391.286	47.27
391.496	73.9
391.705	67.75
391.915	114.86
392.125	55.47
392.334	139.43
392.544	67.75
392.753	30.89
392.963	86.19
393.172	135.34
393.382	104.62
393.591	110.76
393.801	84.14
394.01	106.67
394.22	63.66
394.429	45.23
394.639	69.8
394.848	57.51
395.058	159.91
395.267	137.38
395.477	108.71
395.686	88.23
395.895	266.41
396.105	137.38
396.314	82.09
396.524	112.81
396.733	129.19
396.942	188.58
397.152	149.67
397.361	86.19
397.57	92.33
397.78	96.43
397.989	131.24
398.198	135.34
398.407	133.29
398.617	125.1
398.826	106.67
399.035	98.47
399.244	110.76
399.453	118.95
399.663	73.9
399.872	104.62
400.081	153.77
400.29	121
400.499	61.61
400.708	106.67
400.917	110.76
401.127	88.23
401.336	114.86
401.545	172.2
401.754	135.34
401.963	164.01
402.172	161.96
402.381	77.99
402.59	153.77
402.799	166.06
403.008	121
403.217	180.39
403.426	178.34
403.635	90.28
403.844	170.15
404.053	174.25
404.262	125.1
404.471	141.48
404.68	198.82
404.888	204.97
405.097	256.17
405.306	186.54
405.515	188.58
405.724	166.06
405.933	131.24
406.142	245.93
406.35	196.78
406.559	204.97
406.768	194.73
406.977	252.07
407.185	256.17
407.394	270.5
407.603	202.92
407.812	247.97
408.02	256.17
408.229	168.1
408.438	233.64
408.646	305.32
408.855	315.56
409.064	342.18
409.272	276.65
409.481	364.71
409.69	387.24
409.898	358.57
410.107	323.75
410.315	333.99
410.524	385.19
410.733	336.04
410.941	428.2
411.15	446.63
411.358	411.81
411.567	438.44
411.775	501.92
411.984	426.15
412.192	469.16
412.401	485.54
412.609	563.36
412.818	479.4
413.026	663.71
413.234	567.46
413.443	526.5
413.651	624.8
413.86	581.79
414.068	671.9
414.276	696.48
414.485	708.77
414.693	698.53
414.901	725.15
415.11	788.64
415.318	782.49
415.526	845.98
415.734	866.46
415.943	911.52
416.151	895.13
416.359	866.46
416.567	950.43
416.776	950.43
416.984	1022.11
417.192	1073.31
417.4	989.34
417.608	1073.31
417.817	1114.27
418.025	1253.53
418.233	1261.72
418.441	1286.3
418.649	1265.82
418.857	1443.99
419.065	1368.21
419.273	1407.13
419.481	1425.56
419.689	1487
419.897	1630.35
420.105	1685.65
420.313	1724.56
420.521	1806.48
420.729	1738.9
420.937	1869.97
421.145	1865.87
421.353	1949.84
421.561	2123.91
421.769	2140.3
421.977	2152.59
422.185	2269.32
422.393	2441.35
422.601	2476.16
422.809	2416.77
423.017	2476.16
423.224	2627.71
423.432	2678.91
423.64	2635.91
423.848	2932.86
424.056	2918.53
424.263	3076.22
424.471	3086.46
424.679	3207.29
424.887	3338.36
425.094	3391.61
425.302	3463.29
425.51	3506.29
425.718	3666.03
425.925	3739.76
426.133	3770.48
426.341	4075.63
426.548	4221.03
426.756	4317.29
426.964	4259.95
427.171	4687.97
427.379	4599.91
427.586	4837.47
427.794	4868.19
428.001	5179.48
428.209	5339.23
428.417	5277.79
428.624	5574.74
428.832	5615.7
429.039	5552.21
429.247	5539.93
429.454	6076.49
429.662	6461.51
429.869	6275.15
430.076	6602.82
430.284	6391.88
430.491	6635.59
430.699	7145.53
430.906	7151.68
431.114	7106.62
431.321	7417.91
431.528	7518.26
431.736	8146.99
431.943	8425.51
432.15	7987.25
432.358	8265.77
432.565	8634.41
432.772	8589.35
432.979	9060.38
433.187	9152.54
433.394	9357.34
433.601	10014.74
433.808	10041.36
434.016	10145.81
434.223	10455.05
434.43	11014.15
434.637	10711.05
434.844	11380.73
435.052	11446.27
435.259	11618.3
435.466	11524.09
435.673	11665.4
435.88	12257.26
436.087	12759.02
436.294	12875.75
436.501	12795.88
436.708	12869.61
436.915	13361.12
437.122	14026.71
437.329	13764.57
437.537	14477.26
437.743	14637
437.95	14311.38
438.157	15171.52
438.364	15546.3
438.571	15552.45
438.778	15818.68
438.985	17244.07
439.192	16648.11
439.399	16877.48
439.606	16541.61
439.813	17526.69
440.02	18706.32
440.227	18276.24
440.433	18034.58
440.64	18935.69
440.847	18644.88
441.054	19169.16
441.261	20563.82
441.467	20252.53
441.674	20801.39
441.881	21290.85
442.088	21145.45
442.294	21182.31
442.501	21577.57
442.708	21849.95
442.914	23019.34
443.121	23756.61
443.328	23344.97
443.534	25126.7
443.741	23873.34
443.948	23795.52
444.154	25763.62
444.361	26009.37
444.568	25784.1
444.774	25677.6
444.981	26126.11
445.187	26699.54
445.394	27674.37
445.6	27594.5
445.807	30303.96
446.013	28933.87
446.22	29245.16
446.426	30611.16
446.633	30961.36
446.839	31909.57
447.046	30713.56
447.252	32167.62
447.459	32353.98
447.665	32003.78
447.871	33396.4
448.078	34862.74
448.284	33513.13
448.491	33746.6
448.697	35395.21
448.903	36013.7
449.11	36091.52
449.316	35843.72
449.522	36062.85
449.728	37340.78
449.935	37521.01
450.141	37576.3
450.347	38350.43
450.553	37504.62
450.76	37381.74
450.966	38983.26
451.172	38708.83
451.378	39386.71
451.584	38823.51
451.791	39581.26
451.997	39276.12
452.203	40224.32
452.409	40142.41
452.615	39829.07
452.821	38266.47
453.027	37918.31
453.233	39816.78
453.44	38377.06
453.646	39040.6
453.852	39495.25
454.058	39677.52
454.264	38477.41
454.47	39411.28
454.676	38076.01
454.882	39788.11
455.088	36310.66
455.294	36961.91
455.5	37228.15
455.705	37643.88
455.911	36447.87
456.117	35288.72
456.323	34846.36
456.529	33193.65
456.735	34836.12
456.941	33812.13
457.147	33320.62
457.352	32405.18
457.558	31999.68
457.764	31983.3
457.97	31342.28
458.176	30748.37
458.381	30670.55
458.587	29439.72
458.793	29271.79
458.999	27913.98
459.204	29873.89
459.41	28727.03
459.616	26930.96
459.821	27053.84
460.027	27219.72
460.233	26208.03
460.438	25046.83
460.644	25548.58
460.85	23979.84
461.055	23783.23
461.261	23789.38
461.466	21884.76
461.672	21557.09
461.878	22962
462.083	21763.93
462.289	21049.19
462.494	20701.04
462.7	19842.94
462.905	19283.84
463.111	20066.17
463.316	20305.78
463.522	19562.37
463.727	19810.17
463.932	19748.73
464.138	19302.28
464.343	19326.85
464.549	18669.45
464.754	19427.2
464.959	19326.85
465.165	19054.47
465.37	18345.87
465.575	17829.79
465.781	18671.5
465.986	18646.93
466.191	18016.15
466.397	17747.87
466.602	16684.97
466.807	17430.43
467.012	17469.34
467.218	17524.64
467.423	17180.58
467.628	17266.6
467.833	18274.2
