Data from USB4F104151__24__11-44-40-873.txt Node

Date: Fri Mar 14 11:44:40 EDT 2025
User: louis
Spectrometer: USB4F10415
Trigger mode: 4
Integration Time (sec): 2.000000E-2
Scans to average: 1
Electric dark correction enabled: true
Nonlinearity correction enabled: false
Boxcar width: 0
XAxis mode: Wavelengths
Number of Pixels in Spectrum: 3648
>>>>>Begin Spectral Data<<<<<
178.204	-101.03
178.424	-101.03
178.644	-101.03
178.864	-92.84
179.084	-41.64
179.304	42.32
179.524	-10.92
179.744	-41.64
179.964	1.37
180.184	11.61
180.404	5.46
180.624	-68.27
180.844	36.18
181.064	-72.36
181.283	13.65
181.503	40.28
181.723	42.32
181.943	-84.65
182.163	23.89
182.383	152.92
182.602	-35.5
182.822	7.51
183.042	36.18
183.262	1.37
183.482	-21.16
183.701	56.66
183.921	60.76
184.141	50.52
184.361	79.19
184.58	-51.88
184.8	85.33
185.02	15.7
185.239	34.13
185.459	-4.78
185.679	17.75
185.898	9.56
186.118	9.56
186.338	9.56
186.557	60.76
186.777	40.28
186.997	54.61
187.216	15.7
187.436	54.61
187.655	34.13
187.875	17.75
188.095	-15.02
188.314	-12.97
188.534	46.42
188.753	36.18
188.973	19.8
189.192	56.66
189.412	17.75
189.631	36.18
189.851	19.8
190.07	93.52
190.29	36.18
190.509	73.04
190.729	-8.87
190.948	130.39
191.168	105.81
191.387	13.65
191.607	-23.21
191.826	36.18
192.045	17.75
192.265	64.85
192.484	54.61
192.704	-35.5
192.923	-12.97
193.142	5.46
193.362	64.85
193.581	5.46
193.8	21.85
194.02	3.41
194.239	15.7
194.458	130.39
194.678	79.19
194.897	-39.59
195.116	62.8
195.335	25.94
195.555	-33.45
195.774	13.65
195.993	27.99
196.212	58.71
196.432	-33.45
196.651	3.41
196.87	46.42
197.089	111.96
197.308	73.04
197.528	25.94
197.747	-41.64
197.966	-6.83
198.185	15.7
198.404	71
198.623	68.95
198.842	46.42
199.062	77.14
199.281	38.23
199.5	15.7
199.719	34.13
199.938	105.81
200.157	89.43
200.376	44.37
200.595	73.04
200.814	89.43
201.033	58.71
201.252	-8.87
201.471	19.8
201.69	7.51
201.909	66.9
202.128	27.99
202.347	161.11
202.566	105.81
202.785	75.09
203.004	-2.73
203.223	38.23
203.442	85.33
203.661	25.94
203.879	-33.45
204.098	77.14
204.317	32.08
204.536	68.95
204.755	5.46
204.974	21.85
205.193	62.8
205.411	97.62
205.63	71
205.849	58.71
206.068	56.66
206.287	75.09
206.505	9.56
206.724	52.56
206.943	56.66
207.162	19.8
207.381	9.56
207.599	58.71
207.818	19.8
208.037	58.71
208.255	19.8
208.474	23.89
208.693	83.28
208.911	85.33
209.13	13.65
209.349	38.23
209.567	5.46
209.786	95.57
210.005	-19.11
210.223	83.28
210.442	-43.69
210.661	38.23
210.879	-66.22
211.098	13.65
211.316	116.05
211.535	73.04
211.753	11.61
211.972	109.91
212.191	97.62
212.409	27.99
212.628	66.9
212.846	5.46
213.065	44.37
213.283	23.89
213.502	5.46
213.72	66.9
213.938	93.52
214.157	5.46
214.375	81.24
214.594	34.13
214.812	60.76
215.031	25.94
215.249	-6.83
215.467	-21.16
215.686	9.56
215.904	101.72
216.122	-27.31
216.341	3.41
216.559	50.52
216.778	81.24
216.996	109.91
217.214	-21.16
217.432	9.56
217.651	36.18
217.869	54.61
218.087	25.94
218.306	83.28
218.524	62.8
218.742	9.56
218.96	50.52
219.179	85.33
219.397	42.32
219.615	64.85
219.833	46.42
220.051	13.65
220.27	56.66
220.488	23.89
220.706	36.18
220.924	-2.73
221.142	50.52
221.36	56.66
221.578	62.8
221.796	9.56
222.015	42.32
222.233	1.37
222.451	62.8
222.669	19.8
222.887	30.04
223.105	62.8
223.323	62.8
223.541	-31.4
223.759	-4.78
223.977	56.66
224.195	71
224.413	64.85
224.631	7.51
224.849	25.94
225.067	62.8
225.285	7.51
225.503	-31.4
225.721	7.51
225.939	40.28
226.157	1.37
226.375	21.85
226.592	-21.16
226.81	3.41
227.028	44.37
227.246	-15.02
227.464	42.32
227.682	132.44
227.9	27.99
228.117	83.28
228.335	13.65
228.553	50.52
228.771	40.28
228.989	91.48
229.206	42.32
229.424	-4.78
229.642	73.04
229.86	3.41
230.077	93.52
230.295	87.38
230.513	17.75
230.731	71
230.948	79.19
231.166	42.32
231.384	5.46
231.601	11.61
231.819	36.18
232.037	25.94
232.254	3.41
232.472	11.61
232.689	17.75
232.907	116.05
233.125	44.37
233.342	87.38
233.56	52.56
233.777	73.04
233.995	15.7
234.213	91.48
234.43	-19.11
234.648	-0.68
234.865	66.9
235.083	30.04
235.3	68.95
235.518	103.76
235.735	91.48
235.953	73.04
236.17	77.14
236.388	85.33
236.605	50.52
236.822	58.71
237.04	21.85
237.257	89.43
237.475	-17.07
237.692	36.18
237.909	36.18
238.127	5.46
238.344	89.43
238.562	66.9
238.779	21.85
238.996	-29.35
239.214	38.23
239.431	7.51
239.648	-17.07
239.865	-27.31
240.083	50.52
240.3	-21.16
240.517	17.75
240.735	9.56
240.952	-27.31
241.169	7.51
241.386	48.47
241.603	3.41
241.821	21.85
242.038	101.72
242.255	38.23
242.472	21.85
242.689	-19.11
242.907	42.32
243.124	48.47
243.341	25.94
243.558	66.9
243.775	11.61
243.992	36.18
244.209	23.89
244.426	85.33
244.643	58.71
244.86	46.42
245.078	48.47
245.295	-2.73
245.512	85.33
245.729	-15.02
245.946	5.46
246.163	-12.97
246.38	21.85
246.597	73.04
246.814	73.04
247.031	5.46
247.248	-2.73
247.464	11.61
247.681	44.37
247.898	34.13
248.115	101.72
248.332	23.89
248.549	79.19
248.766	111.96
248.983	132.44
249.2	7.51
249.417	40.28
249.633	93.52
249.85	40.28
250.067	36.18
250.284	44.37
250.501	34.13
250.717	71
250.934	25.94
251.151	21.85
251.368	81.24
251.585	97.62
251.801	58.71
252.018	-19.11
252.235	-6.83
252.451	9.56
252.668	23.89
252.885	85.33
253.102	36.18
253.318	30.04
253.535	73.04
253.752	-23.21
253.968	56.66
254.185	-12.97
254.401	62.8
254.618	81.24
254.835	23.89
255.051	73.04
255.268	40.28
255.484	56.66
255.701	9.56
255.917	52.56
256.134	38.23
256.351	71
256.567	5.46
256.784	27.99
257	-4.78
257.217	38.23
257.433	66.9
257.65	40.28
257.866	42.32
258.082	25.94
258.299	93.52
258.515	68.95
258.732	7.51
258.948	11.61
259.165	95.57
259.381	52.56
259.597	9.56
259.814	54.61
260.03	-31.4
260.246	50.52
260.463	17.75
260.679	46.42
260.895	42.32
261.112	58.71
261.328	79.19
261.544	-8.87
261.761	130.39
261.977	13.65
262.193	75.09
262.409	50.52
262.626	68.95
262.842	40.28
263.058	21.85
263.274	68.95
263.49	68.95
263.707	40.28
263.923	9.56
264.139	11.61
264.355	5.46
264.571	124.24
264.787	40.28
265.004	97.62
265.22	30.04
265.436	118.1
265.652	32.08
265.868	85.33
266.084	-0.68
266.3	46.42
266.516	38.23
266.732	50.52
266.948	23.89
267.164	73.04
267.38	3.41
267.596	38.23
267.812	83.28
268.028	75.09
268.244	17.75
268.46	64.85
268.676	-2.73
268.892	23.89
269.108	73.04
269.324	3.41
269.54	73.04
269.756	111.96
269.972	54.61
270.188	1.37
270.403	-17.07
270.619	11.61
270.835	36.18
271.051	101.72
271.267	13.65
271.483	17.75
271.698	189.78
271.914	116.05
272.13	36.18
272.346	7.51
272.562	-8.87
272.777	52.56
272.993	60.76
273.209	9.56
273.425	17.75
273.64	15.7
273.856	15.7
274.072	58.71
274.287	46.42
274.503	50.52
274.719	64.85
274.934	21.85
275.15	40.28
275.366	60.76
275.581	34.13
275.797	17.75
276.012	87.38
276.228	13.65
276.444	95.57
276.659	48.47
276.875	23.89
277.09	77.14
277.306	32.08
277.521	56.66
277.737	-29.35
277.952	54.61
278.168	58.71
278.383	107.86
278.599	-37.55
278.814	85.33
279.03	50.52
279.245	46.42
279.461	91.48
279.676	56.66
279.892	34.13
280.107	42.32
280.322	19.8
280.538	27.99
280.753	34.13
280.969	50.52
281.184	77.14
281.399	21.85
281.615	68.95
281.83	93.52
282.045	83.28
282.26	79.19
282.476	23.89
282.691	36.18
282.906	71
283.122	60.76
283.337	-6.83
283.552	77.14
283.767	95.57
283.983	25.94
284.198	42.32
284.413	93.52
284.628	-47.79
284.843	71
285.058	15.7
285.274	58.71
285.489	30.04
285.704	54.61
285.919	34.13
286.134	77.14
286.349	62.8
286.564	71
286.779	21.85
286.995	54.61
287.21	-15.02
287.425	93.52
287.64	15.7
287.855	56.66
288.07	68.95
288.285	-12.97
288.5	42.32
288.715	58.71
288.93	85.33
289.145	68.95
289.36	34.13
289.575	66.9
289.79	38.23
290.004	83.28
290.219	23.89
290.434	-12.97
290.649	-60.07
290.864	93.52
291.079	99.67
291.294	36.18
291.509	46.42
291.724	50.52
291.938	7.51
292.153	116.05
292.368	46.42
292.583	7.51
292.798	9.56
293.012	93.52
293.227	62.8
293.442	46.42
293.657	103.76
293.871	-12.97
294.086	128.34
294.301	54.61
294.516	114
294.73	89.43
294.945	40.28
295.16	44.37
295.374	99.67
295.589	95.57
295.804	36.18
296.018	25.94
296.233	56.66
296.447	54.61
296.662	54.61
296.877	15.7
297.091	87.38
297.306	-4.78
297.52	48.47
297.735	60.76
297.949	42.32
298.164	32.08
298.378	27.99
298.593	40.28
298.807	-8.87
299.022	52.56
299.236	109.91
299.451	44.37
299.665	79.19
299.88	30.04
300.094	56.66
300.309	38.23
300.523	-2.73
300.737	36.18
300.952	30.04
301.166	71
301.381	7.51
301.595	11.61
301.809	52.56
302.024	42.32
302.238	-10.92
302.452	52.56
302.667	66.9
302.881	111.96
303.095	83.28
303.309	40.28
303.524	77.14
303.738	75.09
303.952	48.47
304.166	64.85
304.381	40.28
304.595	99.67
304.809	25.94
305.023	66.9
305.237	42.32
305.452	81.24
305.666	34.13
305.88	79.19
306.094	54.61
306.308	81.24
306.522	83.28
306.736	85.33
306.95	73.04
307.164	36.18
307.379	62.8
307.593	109.91
307.807	7.51
308.021	48.47
308.235	99.67
308.449	-15.02
308.663	17.75
308.877	77.14
309.091	132.44
309.305	136.53
309.519	75.09
309.733	134.48
309.947	68.95
310.161	97.62
310.374	52.56
310.588	71
310.802	58.71
311.016	50.52
311.23	-0.68
311.444	7.51
311.658	50.52
311.872	66.9
312.085	73.04
312.299	105.81
312.513	3.41
312.727	68.95
312.941	23.89
313.154	83.28
313.368	68.95
313.582	-31.4
313.796	75.09
314.009	99.67
314.223	64.85
314.437	99.67
314.651	93.52
314.864	138.58
315.078	56.66
315.292	56.66
315.505	62.8
315.719	19.8
315.933	105.81
316.146	99.67
316.36	21.85
316.573	56.66
316.787	81.24
317.001	107.86
317.214	56.66
317.428	54.61
317.641	38.23
317.855	58.71
318.068	58.71
318.282	52.56
318.495	97.62
318.709	68.95
318.922	-25.26
319.136	68.95
319.349	68.95
319.563	21.85
319.776	48.47
319.99	46.42
320.203	-27.31
320.417	91.48
320.63	89.43
320.843	122.2
321.057	42.32
321.27	27.99
321.483	58.71
321.697	95.57
321.91	38.23
322.124	54.61
322.337	-62.12
322.55	81.24
322.763	66.9
322.977	27.99
323.19	34.13
323.403	34.13
323.617	54.61
323.83	42.32
324.043	68.95
324.256	91.48
324.469	97.62
324.683	73.04
324.896	15.7
325.109	73.04
325.322	15.7
325.535	99.67
325.748	71
325.962	73.04
326.175	38.23
326.388	44.37
326.601	132.44
326.814	36.18
327.027	46.42
327.24	95.57
327.453	17.75
327.666	38.23
327.879	27.99
328.092	62.8
328.305	68.95
328.518	140.63
328.731	161.11
328.944	52.56
329.157	46.42
329.37	-10.92
329.583	30.04
329.796	58.71
330.009	-2.73
330.222	60.76
330.435	118.1
330.648	73.04
330.861	58.71
331.073	46.42
331.286	105.81
331.499	23.89
331.712	-2.73
331.925	44.37
332.138	32.08
332.35	152.92
332.563	38.23
332.776	25.94
332.989	73.04
333.202	5.46
333.414	58.71
333.627	66.9
333.84	19.8
334.053	71
334.265	103.76
334.478	93.52
334.691	15.7
334.903	101.72
335.116	15.7
335.329	66.9
335.541	75.09
335.754	130.39
335.966	64.85
336.179	30.04
336.392	9.56
336.604	103.76
336.817	38.23
337.029	54.61
337.242	85.33
337.454	48.47
337.667	15.7
337.88	48.47
338.092	15.7
338.305	114
338.517	71
338.729	44.37
338.942	75.09
339.154	21.85
339.367	87.38
339.579	97.62
339.792	58.71
340.004	64.85
340.217	34.13
340.429	89.43
340.641	17.75
340.854	44.37
341.066	71
341.278	111.96
341.491	111.96
341.703	-10.92
341.915	64.85
342.128	105.81
342.34	77.14
342.552	114
342.764	38.23
342.977	44.37
343.189	36.18
343.401	79.19
343.613	21.85
343.826	99.67
344.038	38.23
344.25	81.24
344.462	1.37
344.674	79.19
344.886	68.95
345.099	21.85
345.311	42.32
345.523	27.99
345.735	13.65
345.947	-21.16
346.159	138.58
346.371	111.96
346.583	21.85
346.795	81.24
347.007	-4.78
347.219	77.14
347.431	64.85
347.643	75.09
347.855	-6.83
348.067	122.2
348.279	50.52
348.491	75.09
348.703	81.24
348.915	5.46
349.127	-35.5
349.339	81.24
349.551	-6.83
349.763	79.19
349.975	9.56
350.187	75.09
350.399	-6.83
350.61	75.09
350.822	64.85
351.034	38.23
351.246	97.62
351.458	103.76
351.669	103.76
351.881	58.71
352.093	85.33
352.305	101.72
352.517	38.23
352.728	114
352.94	56.66
353.152	126.29
353.363	87.38
353.575	68.95
353.787	58.71
353.999	66.9
354.21	130.39
354.422	52.56
354.633	21.85
354.845	118.1
355.057	32.08
355.268	107.86
355.48	101.72
355.692	73.04
355.903	128.34
356.115	89.43
356.326	-8.87
356.538	34.13
356.749	81.24
356.961	62.8
357.172	62.8
357.384	116.05
357.595	132.44
357.807	101.72
358.018	83.28
358.23	38.23
358.441	56.66
358.653	138.58
358.864	79.19
359.075	68.95
359.287	64.85
359.498	114
359.709	38.23
359.921	54.61
360.132	-6.83
360.344	116.05
360.555	83.28
360.766	64.85
360.977	68.95
361.189	134.48
361.4	13.65
361.611	136.53
361.823	75.09
362.034	95.57
362.245	58.71
362.456	66.9
362.667	58.71
362.879	101.72
363.09	71
363.301	52.56
363.512	73.04
363.723	93.52
363.935	13.65
364.146	68.95
364.357	134.48
364.568	116.05
364.779	32.08
364.99	140.63
365.201	62.8
365.412	148.82
365.623	44.37
365.834	56.66
366.045	30.04
366.256	81.24
366.467	58.71
366.678	83.28
366.889	75.09
367.1	187.73
367.311	23.89
367.522	68.95
367.733	30.04
367.944	46.42
368.155	-0.68
368.366	128.34
368.577	105.81
368.788	81.24
368.999	21.85
369.209	83.28
369.42	103.76
369.631	111.96
369.842	101.72
370.053	64.85
370.264	46.42
370.474	64.85
370.685	-2.73
370.896	89.43
371.107	150.87
371.317	103.76
371.528	99.67
371.739	60.76
371.95	56.66
372.16	81.24
372.371	58.71
372.582	77.14
372.792	1.37
373.003	91.48
373.214	87.38
373.424	-0.68
373.635	50.52
373.846	50.52
374.056	32.08
374.267	136.53
374.477	89.43
374.688	9.56
374.898	50.52
375.109	120.15
375.319	95.57
375.53	130.39
375.74	85.33
375.951	136.53
376.161	97.62
376.372	89.43
376.582	9.56
376.793	107.86
377.003	46.42
377.214	42.32
377.424	75.09
377.635	23.89
377.845	116.05
378.055	107.86
378.266	-6.83
378.476	66.9
378.686	77.14
378.897	46.42
379.107	13.65
379.317	25.94
379.528	-33.45
379.738	99.67
379.948	54.61
380.158	99.67
380.369	68.95
380.579	138.58
380.789	75.09
380.999	118.1
381.21	134.48
381.42	128.34
381.63	50.52
381.84	154.96
382.05	1.37
382.261	99.67
382.471	7.51
382.681	75.09
382.891	38.23
383.101	93.52
383.311	50.52
383.521	50.52
383.731	111.96
383.941	54.61
384.151	118.1
384.361	101.72
384.571	75.09
384.781	126.29
384.991	134.48
385.201	114
385.411	11.61
385.621	132.44
385.831	71
386.041	107.86
386.251	107.86
386.461	114
386.671	54.61
386.881	42.32
387.091	130.39
387.301	91.48
387.511	126.29
387.72	130.39
387.93	118.1
388.14	60.76
388.35	140.63
388.56	130.39
388.769	118.1
388.979	64.85
389.189	17.75
389.399	93.52
389.609	71
389.818	-12.97
390.028	99.67
390.238	130.39
390.447	58.71
390.657	89.43
390.867	40.28
391.076	58.71
391.286	136.53
391.496	101.72
391.705	101.72
391.915	91.48
392.125	54.61
392.334	27.99
392.544	138.58
392.753	77.14
392.963	58.71
393.172	62.8
393.382	64.85
393.591	146.77
393.801	75.09
394.01	109.91
394.22	175.44
394.429	34.13
394.639	173.39
394.848	58.71
395.058	91.48
395.267	142.68
395.477	81.24
395.686	103.76
395.895	124.24
396.105	202.07
396.314	157.01
396.524	75.09
396.733	56.66
396.942	202.07
397.152	181.59
397.361	185.68
397.57	171.35
397.78	146.77
397.989	204.11
398.198	210.26
398.407	163.15
398.617	189.78
398.826	124.24
399.035	140.63
399.244	114
399.453	85.33
399.663	191.83
399.872	175.44
400.081	130.39
400.29	183.63
400.499	130.39
400.708	150.87
400.917	171.35
401.127	163.15
401.336	134.48
401.545	251.22
401.754	206.16
401.963	136.53
402.172	247.12
402.381	171.35
402.59	130.39
402.799	177.49
403.008	236.88
403.217	173.39
403.426	130.39
403.635	95.57
403.844	177.49
404.053	181.59
404.262	152.92
404.471	208.21
404.68	185.68
404.888	212.31
405.097	230.74
405.306	253.27
405.515	304.46
405.724	218.45
405.933	206.16
406.142	193.87
406.35	238.93
406.559	288.08
406.768	232.79
406.977	300.37
407.185	214.35
407.394	335.18
407.603	191.83
407.812	247.12
408.02	370
408.229	386.38
408.438	341.33
408.646	331.09
408.855	312.66
409.064	341.33
409.272	394.58
409.481	435.53
409.69	402.77
409.898	460.11
410.107	404.82
410.315	386.38
410.524	431.44
410.733	458.06
410.941	441.68
411.15	423.25
411.358	552.27
411.567	505.17
411.775	640.33
411.984	535.89
412.192	638.28
412.401	654.67
412.609	664.91
412.818	640.33
413.026	750.92
413.234	671.05
413.443	677.19
413.651	681.29
413.86	798.03
414.068	830.79
414.276	808.27
414.485	820.55
414.693	822.6
414.901	916.81
415.11	974.15
415.318	957.77
415.526	1031.49
415.734	1013.06
415.943	1140.04
416.151	1176.9
416.359	1170.76
416.567	1168.71
416.776	1246.53
416.984	1324.35
417.192	1293.63
417.4	1424.7
417.608	1402.18
417.817	1367.36
418.025	1531.2
418.233	1602.88
418.441	1471.81
418.649	1660.22
418.857	1760.57
419.065	1738.04
419.273	1772.86
419.481	1787.19
419.689	1965.37
419.897	2125.11
420.105	2178.36
420.313	2172.21
420.521	2262.32
420.729	2342.19
420.937	2309.43
421.145	2342.19
421.353	2585.9
421.561	2590
421.769	2737.45
421.977	2862.38
422.185	2835.75
422.393	3122.47
422.601	3136.81
422.809	3061.03
423.017	3169.57
423.224	3323.17
423.432	3482.91
423.64	3433.76
423.848	3800.35
424.056	3585.31
424.263	4013.34
424.471	4013.34
424.679	3841.31
424.887	4228.37
425.094	4312.34
425.302	4429.07
425.51	4541.71
425.718	4828.43
425.925	4721.93
426.133	4928.78
426.341	5201.16
426.548	5444.87
426.756	5569.79
426.964	5602.56
427.171	5938.43
427.379	5956.86
427.586	6118.65
427.794	6237.43
428.001	6554.87
428.209	6857.96
428.417	6728.94
428.624	7126.25
428.832	7316.71
429.039	7288.04
429.247	7185.64
429.454	7918.81
429.662	8414.42
429.869	7949.53
430.076	8502.48
430.284	8422.61
430.491	8645.84
430.699	9049.29
430.906	9024.72
431.114	9176.27
431.321	9678.02
431.528	9800.9
431.736	10163.39
431.943	10951.85
432.15	10353.85
432.358	10548.4
432.565	11091.12
432.772	11072.68
432.979	11451.56
433.187	11988.13
433.394	12149.92
433.601	12702.87
433.808	12729.49
434.016	12803.22
434.223	13096.08
434.43	14029.95
434.637	13581.45
434.844	14681.21
435.052	15064.18
435.259	14640.25
435.466	14881.91
435.673	15055.98
435.88	15926.37
436.087	16759.89
436.294	16675.93
436.501	16215.13
436.708	16657.5
436.915	17263.69
437.122	18146.37
437.329	18093.12
437.537	18621.5
437.743	18992.18
437.95	18635.83
438.157	19649.58
438.364	20227.1
438.571	20132.9
438.778	20349.98
438.985	22119.43
439.192	21298.19
439.399	22176.77
439.606	21453.84
439.813	22834.17
440.02	24232.93
440.227	23733.23
440.433	23561.2
440.64	24447.97
440.847	24282.08
441.054	24816.6
441.261	26538.94
441.467	26112.97
441.674	26561.47
441.881	27384.76
442.088	27493.3
442.294	26774.46
442.501	27911.08
442.708	28343.2
442.914	29815.69
443.121	30622.59
443.328	30163.85
443.534	32285.54
443.741	31310.71
443.948	30987.13
444.154	32998.24
444.361	33051.48
444.568	33377.11
444.774	32938.85
444.981	33651.54
445.187	34566.98
445.394	35683.12
445.6	35463.99
445.807	38855.43
446.013	36803.36
446.22	37999.38
446.426	39287.55
446.633	39820.02
446.839	41183.97
447.046	39398.14
447.252	41429.73
447.459	41259.74
447.665	41421.53
447.871	42971.85
448.078	44839.59
448.284	42814.15
448.491	44040.89
448.697	46011.03
448.903	46205.59
449.11	46422.67
449.316	45783.71
449.522	46340.75
449.728	47727.23
449.935	48247.41
450.141	47764.09
450.347	48872.04
450.553	47723.13
450.76	48151.16
450.966	49597.02
451.172	49146.47
451.378	50530.9
451.584	49570.4
451.791	50522.71
451.997	50604.63
452.203	51085.9
452.409	50897.48
452.615	51300.93
452.821	49367.65
453.027	48527.98
453.233	51038.79
453.44	49402.47
453.646	50023
453.852	49726.05
454.058	50768.46
454.264	49250.92
454.47	50678.35
454.676	49287.78
454.882	50911.82
455.088	46062.23
455.294	47049.35
455.5	47848.06
455.705	48222.84
455.911	46828.17
456.117	45501.09
456.323	45001.38
456.529	42984.13
456.735	44585.64
456.941	42959.56
457.147	42756.81
457.352	41792.22
457.558	41003.75
457.764	41085.67
457.97	40338.16
458.176	39353.08
458.381	39359.23
458.587	37663.51
458.793	37630.74
458.999	35662.65
459.204	37899.03
459.41	36881.19
459.616	34638.66
459.821	34642.76
460.027	34444.1
460.233	33682.26
460.438	32172.91
460.644	32846.69
460.85	31210.36
461.055	30548.87
461.261	30362.5
461.466	28314.53
461.672	27165.62
461.878	29295.51
462.083	27237.3
462.289	27079.61
462.494	26696.64
462.7	25437.14
462.905	24726.49
463.111	25580.49
463.316	25578.45
463.522	24986.58
463.727	25220.05
463.932	25033.69
464.138	24824.79
464.343	25320.4
464.549	24200.16
464.754	24906.71
464.959	25000.92
465.165	24728.54
465.37	23604.21
465.575	23118.84
465.781	23976.94
465.986	24286.18
466.191	23110.64
466.397	22725.63
466.602	21439.5
466.807	22363.14
467.012	22572.03
467.218	22150.15
467.423	21781.51
467.628	22373.38
467.833	23200.76
