Data from USB4F104151__25__11-44-48-473.txt Node

Date: Fri Mar 14 11:44:48 EDT 2025
User: louis
Spectrometer: USB4F10415
Trigger mode: 4
Integration Time (sec): 2.000000E-2
Scans to average: 1
Electric dark correction enabled: true
Nonlinearity correction enabled: false
Boxcar width: 0
XAxis mode: Wavelengths
Number of Pixels in Spectrum: 3648
>>>>>Begin Spectral Data<<<<<
178.204	-91.65
178.424	-91.65
178.644	-91.65
178.864	-101.89
179.084	-77.31
179.304	-67.07
179.524	-5.63
179.744	-34.3
179.964	25.09
180.184	35.33
180.404	2.56
180.624	23.04
180.844	88.57
181.064	-28.16
181.283	-46.59
181.503	10.75
181.723	-3.58
181.943	-30.21
182.163	53.76
182.383	-5.63
182.602	72.19
182.822	104.96
183.042	-17.92
183.262	-7.68
183.482	68.09
183.701	55.81
183.921	94.72
184.141	-22.02
184.361	80.38
184.58	88.57
184.8	113.15
185.02	10.75
185.239	76.29
185.459	98.81
185.679	27.14
185.898	-62.98
186.118	53.76
186.338	51.71
186.557	39.42
186.777	-7.68
186.997	2.56
187.216	39.42
187.436	86.53
187.655	96.77
187.875	61.95
188.095	-17.92
188.314	72.19
188.534	57.86
188.753	78.33
188.973	-24.06
189.192	-22.02
189.412	41.47
189.631	51.71
189.851	43.52
190.07	86.53
190.29	-46.59
190.509	10.75
190.729	55.81
190.948	-48.64
191.168	117.25
191.387	59.9
191.607	4.61
191.826	66.05
192.045	41.47
192.265	49.66
192.484	33.28
192.704	27.14
192.923	-40.45
193.142	162.3
193.362	59.9
193.581	35.33
193.8	23.04
194.02	78.33
194.239	76.29
194.458	104.96
194.678	51.71
194.897	139.77
195.116	33.28
195.335	27.14
195.555	8.7
195.774	35.33
195.993	41.47
196.212	29.18
196.432	33.28
196.651	47.62
196.87	29.18
197.089	84.48
197.308	43.52
197.528	27.14
197.747	10.75
197.966	16.9
198.185	29.18
198.404	33.28
198.623	82.43
198.842	59.9
199.062	14.85
199.281	18.94
199.5	6.66
199.719	2.56
199.938	27.14
200.157	45.57
200.376	33.28
200.595	84.48
200.814	12.8
201.033	8.7
201.252	43.52
201.471	94.72
201.69	92.67
201.909	53.76
202.128	18.94
202.347	-32.26
202.566	25.09
202.785	39.42
203.004	88.57
203.223	27.14
203.442	14.85
203.661	117.25
203.879	53.76
204.098	53.76
204.317	61.95
204.536	84.48
204.755	104.96
204.974	47.62
205.193	18.94
205.411	49.66
205.63	41.47
205.849	25.09
206.068	61.95
206.287	18.94
206.505	2.56
206.724	39.42
206.943	-22.02
207.162	47.62
207.381	55.81
207.599	59.9
207.818	-7.68
208.037	55.81
208.255	-58.88
208.474	43.52
208.693	33.28
208.911	61.95
209.13	20.99
209.349	86.53
209.567	57.86
209.786	96.77
210.005	37.38
210.223	70.14
210.442	-46.59
210.661	166.4
210.879	53.76
211.098	66.05
211.316	-3.58
211.535	-1.54
211.753	82.43
211.972	64
212.191	-3.58
212.409	12.8
212.628	74.24
212.846	98.81
213.065	-13.82
213.283	31.23
213.502	-1.54
213.72	78.33
213.938	35.33
214.157	102.91
214.375	10.75
214.594	-44.54
214.812	39.42
215.031	111.1
215.249	4.61
215.467	-3.58
215.686	31.23
215.904	-79.36
216.122	10.75
216.341	25.09
216.559	90.62
216.778	14.85
216.996	45.57
217.214	84.48
217.432	78.33
217.651	25.09
217.869	-28.16
218.087	98.81
218.306	16.9
218.524	55.81
218.742	-30.21
218.96	68.09
219.179	84.48
219.397	111.1
219.615	133.63
219.833	47.62
220.051	-54.78
220.27	88.57
220.488	88.57
220.706	27.14
220.924	-3.58
221.142	-1.54
221.36	127.49
221.578	121.34
221.796	25.09
222.015	10.75
222.233	2.56
222.451	55.81
222.669	-9.73
222.887	86.53
223.105	51.71
223.323	10.75
223.541	-26.11
223.759	92.67
223.977	43.52
224.195	-11.78
224.413	53.76
224.631	10.75
224.849	-48.64
225.067	100.86
225.285	39.42
225.503	55.81
225.721	-5.63
225.939	37.38
226.157	59.9
226.375	109.05
226.592	61.95
226.81	82.43
227.028	107.01
227.246	113.15
227.464	4.61
227.682	35.33
227.9	94.72
228.117	31.23
228.335	-40.45
228.553	94.72
228.771	176.64
228.989	53.76
229.206	57.86
229.424	49.66
229.642	12.8
229.86	10.75
230.077	53.76
230.295	78.33
230.513	59.9
230.731	31.23
230.948	61.95
231.166	57.86
231.384	10.75
231.601	66.05
231.819	66.05
232.037	86.53
232.254	51.71
232.472	53.76
232.689	55.81
232.907	74.24
233.125	31.23
233.342	66.05
233.56	45.57
233.777	39.42
233.995	37.38
234.213	16.9
234.43	-22.02
234.648	102.91
234.865	102.91
235.083	107.01
235.3	37.38
235.518	70.14
235.735	31.23
235.953	64
236.17	0.51
236.388	39.42
236.605	76.29
236.822	41.47
237.04	92.67
237.257	55.81
237.475	0.51
237.692	27.14
237.909	94.72
238.127	35.33
238.344	18.94
238.562	115.2
238.779	-15.87
238.996	27.14
239.214	39.42
239.431	90.62
239.648	29.18
239.865	57.86
240.083	49.66
240.3	70.14
240.517	10.75
240.735	29.18
240.952	43.52
241.169	-28.16
241.386	123.39
241.603	45.57
241.821	25.09
242.038	43.52
242.255	74.24
242.472	39.42
242.689	53.76
242.907	74.24
243.124	-28.16
243.341	68.09
243.558	-17.92
243.775	12.8
243.992	-1.54
244.209	33.28
244.426	70.14
244.643	76.29
244.86	59.9
245.078	18.94
245.295	74.24
245.512	29.18
245.729	2.56
245.946	111.1
246.163	68.09
246.38	47.62
246.597	82.43
246.814	0.51
247.031	49.66
247.248	64
247.464	43.52
247.681	0.51
247.898	6.66
248.115	96.77
248.332	41.47
248.549	59.9
248.766	51.71
248.983	66.05
249.2	88.57
249.417	31.23
249.633	14.85
249.85	53.76
250.067	25.09
250.284	96.77
250.501	96.77
250.717	70.14
250.934	16.9
251.151	76.29
251.368	66.05
251.585	96.77
251.801	14.85
252.018	33.28
252.235	37.38
252.451	-11.78
252.668	18.94
252.885	80.38
253.102	39.42
253.318	72.19
253.535	4.61
253.752	-13.82
253.968	59.9
254.185	66.05
254.401	-52.74
254.618	23.04
254.835	39.42
255.051	41.47
255.268	76.29
255.484	68.09
255.701	0.51
255.917	59.9
256.134	51.71
256.351	121.34
256.567	14.85
256.784	98.81
257	14.85
257.217	96.77
257.433	-1.54
257.65	68.09
257.866	64
258.082	-9.73
258.299	45.57
258.515	117.25
258.732	0.51
258.948	-3.58
259.165	78.33
259.381	2.56
259.597	25.09
259.814	-5.63
260.03	31.23
260.246	78.33
260.463	37.38
260.679	84.48
260.895	47.62
261.112	53.76
261.328	125.44
261.544	55.81
261.761	82.43
261.977	25.09
262.193	35.33
262.409	29.18
262.626	64
262.842	53.76
263.058	6.66
263.274	37.38
263.49	96.77
263.707	59.9
263.923	33.28
264.139	49.66
264.355	12.8
264.571	135.68
264.787	55.81
265.004	82.43
265.22	-15.87
265.436	6.66
265.652	-9.73
265.868	80.38
266.084	41.47
266.3	66.05
266.516	31.23
266.732	55.81
266.948	35.33
267.164	70.14
267.38	12.8
267.596	117.25
267.812	104.96
268.028	84.48
268.244	20.99
268.46	6.66
268.676	37.38
268.892	115.2
269.108	43.52
269.324	80.38
269.54	41.47
269.756	49.66
269.972	2.56
270.188	45.57
270.403	100.86
270.619	66.05
270.835	49.66
271.051	-32.26
271.267	102.91
271.483	-9.73
271.698	47.62
271.914	0.51
272.13	80.38
272.346	70.14
272.562	37.38
272.777	96.77
272.993	43.52
273.209	66.05
273.425	64
273.64	55.81
273.856	43.52
274.072	61.95
274.287	47.62
274.503	107.01
274.719	94.72
274.934	-15.87
275.15	-1.54
275.366	78.33
275.581	80.38
275.797	64
276.012	33.28
276.228	33.28
276.444	49.66
276.659	37.38
276.875	2.56
277.09	33.28
277.306	25.09
277.521	70.14
277.737	98.81
277.952	64
278.168	6.66
278.383	98.81
278.599	25.09
278.814	20.99
279.03	96.77
279.245	78.33
279.461	64
279.676	53.76
279.892	6.66
280.107	18.94
280.322	-26.11
280.538	29.18
280.753	41.47
280.969	35.33
281.184	8.7
281.399	33.28
281.615	43.52
281.83	68.09
282.045	59.9
282.26	-7.68
282.476	51.71
282.691	39.42
282.906	100.86
283.122	61.95
283.337	49.66
283.552	16.9
283.767	6.66
283.983	84.48
284.198	-1.54
284.413	41.47
284.628	33.28
284.843	47.62
285.058	39.42
285.274	-15.87
285.489	70.14
285.704	51.71
285.919	76.29
286.134	39.42
286.349	49.66
286.564	68.09
286.779	90.62
286.995	43.52
287.21	-22.02
287.425	68.09
287.64	10.75
287.855	43.52
288.07	-11.78
288.285	61.95
288.5	14.85
288.715	8.7
288.93	59.9
289.145	35.33
289.36	39.42
289.575	45.57
289.79	68.09
290.004	90.62
290.219	66.05
290.434	82.43
290.649	18.94
290.864	-32.26
291.079	10.75
291.294	29.18
291.509	78.33
291.724	33.28
291.938	23.04
292.153	16.9
292.368	8.7
292.583	16.9
292.798	37.38
293.012	94.72
293.227	18.94
293.442	31.23
293.657	43.52
293.871	49.66
294.086	86.53
294.301	59.9
294.516	12.8
294.73	74.24
294.945	4.61
295.16	121.34
295.374	74.24
295.589	123.39
295.804	37.38
296.018	16.9
296.233	31.23
296.447	35.33
296.662	35.33
296.877	80.38
297.091	92.67
297.306	23.04
297.52	25.09
297.735	94.72
297.949	55.81
298.164	107.01
298.378	55.81
298.593	14.85
298.807	39.42
299.022	37.38
299.236	104.96
299.451	39.42
299.665	6.66
299.88	2.56
300.094	57.86
300.309	-7.68
300.523	41.47
300.737	16.9
300.952	70.14
301.166	55.81
301.381	27.14
301.595	43.52
301.809	68.09
302.024	76.29
302.238	37.38
302.452	-38.4
302.667	35.33
302.881	72.19
303.095	47.62
303.309	68.09
303.524	-7.68
303.738	-30.21
303.952	-5.63
304.166	96.77
304.381	18.94
304.595	76.29
304.809	68.09
305.023	2.56
305.237	27.14
305.452	72.19
305.666	20.99
305.88	84.48
306.094	70.14
306.308	45.57
306.522	47.62
306.736	45.57
306.95	35.33
307.164	72.19
307.379	-5.63
307.593	76.29
307.807	4.61
308.021	33.28
308.235	-19.97
308.449	61.95
308.663	29.18
308.877	152.06
309.091	53.76
309.305	68.09
309.519	43.52
309.733	86.53
309.947	82.43
310.161	53.76
310.374	109.05
310.588	31.23
310.802	51.71
311.016	88.57
311.23	45.57
311.444	47.62
311.658	74.24
311.872	111.1
312.085	129.53
312.299	66.05
312.513	104.96
312.727	94.72
312.941	109.05
313.154	18.94
313.368	23.04
313.582	57.86
313.796	98.81
314.009	96.77
314.223	33.28
314.437	70.14
314.651	49.66
314.864	121.34
315.078	57.86
315.292	31.23
315.505	4.61
315.719	47.62
315.933	86.53
316.146	8.7
316.36	-17.92
316.573	127.49
316.787	66.05
317.001	6.66
317.214	82.43
317.428	117.25
317.641	98.81
317.855	90.62
318.068	86.53
318.282	51.71
318.495	100.86
318.709	86.53
318.922	39.42
319.136	100.86
319.349	47.62
319.563	66.05
319.776	27.14
319.99	45.57
320.203	80.38
320.417	37.38
320.63	76.29
320.843	129.53
321.057	51.71
321.27	-3.58
321.483	107.01
321.697	78.33
321.91	57.86
322.124	-1.54
322.337	82.43
322.55	61.95
322.763	-13.82
322.977	49.66
323.19	18.94
323.403	135.68
323.617	59.9
323.83	64
324.043	51.71
324.256	145.92
324.469	102.91
324.683	47.62
324.896	47.62
325.109	35.33
325.322	25.09
325.535	86.53
325.748	23.04
325.962	111.1
326.175	25.09
326.388	8.7
326.601	68.09
326.814	37.38
327.027	57.86
327.24	123.39
327.453	47.62
327.666	72.19
327.879	37.38
328.092	35.33
328.305	64
328.518	55.81
328.731	-1.54
328.944	111.1
329.157	31.23
329.37	41.47
329.583	57.86
329.796	154.11
330.009	92.67
330.222	-15.87
330.435	131.58
330.648	98.81
330.861	76.29
331.073	127.49
331.286	27.14
331.499	66.05
331.712	96.77
331.925	55.81
332.138	37.38
332.35	61.95
332.563	84.48
332.776	109.05
332.989	4.61
333.202	66.05
333.414	-17.92
333.627	37.38
333.84	59.9
334.053	49.66
334.265	94.72
334.478	57.86
334.691	55.81
334.903	94.72
335.116	18.94
335.329	41.47
335.541	27.14
335.754	102.91
335.966	121.34
336.179	0.51
336.392	49.66
336.604	145.92
336.817	78.33
337.029	61.95
337.242	27.14
337.454	74.24
337.667	49.66
337.88	133.63
338.092	80.38
338.305	76.29
338.517	37.38
338.729	64
338.942	55.81
339.154	49.66
339.367	33.28
339.579	78.33
339.792	49.66
340.004	49.66
340.217	127.49
340.429	133.63
340.641	18.94
340.854	100.86
341.066	57.86
341.278	57.86
341.491	102.91
341.703	4.61
341.915	90.62
342.128	137.73
342.34	100.86
342.552	20.99
342.764	96.77
342.977	147.97
343.189	57.86
343.401	16.9
343.613	127.49
343.826	133.63
344.038	-26.11
344.25	84.48
344.462	45.57
344.674	121.34
344.886	33.28
345.099	31.23
345.311	82.43
345.523	107.01
345.735	47.62
345.947	113.15
346.159	27.14
346.371	-11.78
346.583	131.58
346.795	84.48
347.007	27.14
347.219	68.09
347.431	-1.54
347.643	74.24
347.855	49.66
348.067	76.29
348.279	6.66
348.491	45.57
348.703	86.53
348.915	94.72
349.127	35.33
349.339	72.19
349.551	31.23
349.763	14.85
349.975	41.47
350.187	82.43
350.399	31.23
350.61	16.9
350.822	0.51
351.034	80.38
351.246	61.95
351.458	111.1
351.669	131.58
351.881	61.95
352.093	111.1
352.305	143.87
352.517	102.91
352.728	55.81
352.94	0.51
353.152	20.99
353.363	78.33
353.575	2.56
353.787	-13.82
353.999	72.19
354.21	88.57
354.422	18.94
354.633	127.49
354.845	76.29
355.057	100.86
355.268	107.01
355.48	76.29
355.692	25.09
355.903	68.09
356.115	94.72
356.326	41.47
356.538	55.81
356.749	131.58
356.961	76.29
357.172	82.43
357.384	35.33
357.595	88.57
357.807	86.53
358.018	66.05
358.23	33.28
358.441	84.48
358.653	100.86
358.864	78.33
359.075	-9.73
359.287	102.91
359.498	76.29
359.709	59.9
359.921	31.23
360.132	43.52
360.344	133.63
360.555	23.04
360.766	88.57
360.977	70.14
361.189	61.95
361.4	53.76
361.611	80.38
361.823	70.14
362.034	20.99
362.245	-5.63
362.456	25.09
362.667	92.67
362.879	80.38
363.09	80.38
363.301	61.95
363.512	39.42
363.723	84.48
363.935	31.23
364.146	45.57
364.357	61.95
364.568	55.81
364.779	45.57
364.99	45.57
365.201	57.86
365.412	80.38
365.623	57.86
365.834	86.53
366.045	66.05
366.256	55.81
366.467	117.25
366.678	88.57
366.889	64
367.1	72.19
367.311	113.15
367.522	29.18
367.733	78.33
367.944	102.91
368.155	14.85
368.366	104.96
368.577	88.57
368.788	129.53
368.999	53.76
369.209	57.86
369.42	45.57
369.631	137.73
369.842	119.29
370.053	70.14
370.264	66.05
370.474	49.66
370.685	74.24
370.896	35.33
371.107	55.81
371.317	82.43
371.528	84.48
371.739	88.57
371.95	94.72
372.16	107.01
372.371	113.15
372.582	115.2
372.792	80.38
373.003	55.81
373.214	80.38
373.424	111.1
373.635	117.25
373.846	92.67
374.056	80.38
374.267	82.43
374.477	-40.45
374.688	102.91
374.898	82.43
375.109	100.86
375.319	78.33
375.53	154.11
375.74	92.67
375.951	-1.54
376.161	111.1
376.372	70.14
376.582	43.52
376.793	33.28
377.003	37.38
377.214	94.72
377.424	12.8
377.635	117.25
377.845	78.33
378.055	57.86
378.266	82.43
378.476	53.76
378.686	43.52
378.897	55.81
379.107	2.56
379.317	137.73
379.528	137.73
379.738	70.14
379.948	104.96
380.158	74.24
380.369	29.18
380.579	86.53
380.789	41.47
380.999	55.81
381.21	104.96
381.42	102.91
381.63	88.57
381.84	94.72
382.05	61.95
382.261	145.92
382.471	0.51
382.681	49.66
382.891	94.72
383.101	55.81
383.311	20.99
383.521	43.52
383.731	66.05
383.941	84.48
384.151	104.96
384.361	133.63
384.571	39.42
384.781	88.57
384.991	39.42
385.201	152.06
385.411	25.09
385.621	12.8
385.831	16.9
386.041	68.09
386.251	27.14
386.461	102.91
386.671	100.86
386.881	117.25
387.091	-42.5
387.301	57.86
387.511	100.86
387.72	147.97
387.93	64
388.14	113.15
388.35	115.2
388.56	20.99
388.769	96.77
388.979	68.09
389.189	59.9
389.399	143.87
389.609	47.62
389.818	98.81
390.028	147.97
390.238	47.62
390.447	41.47
390.657	25.09
390.867	45.57
391.076	86.53
391.286	68.09
391.496	78.33
391.705	96.77
391.915	104.96
392.125	102.91
392.334	104.96
392.544	68.09
392.753	137.73
392.963	125.44
393.172	66.05
393.382	86.53
393.591	135.68
393.801	55.81
394.01	117.25
394.22	39.42
394.429	78.33
394.639	90.62
394.848	102.91
395.058	104.96
395.267	70.14
395.477	139.77
395.686	133.63
395.895	133.63
396.105	162.3
396.314	123.39
396.524	147.97
396.733	115.2
396.942	74.24
397.152	113.15
397.361	104.96
397.57	121.34
397.78	96.77
397.989	51.71
398.198	166.4
398.407	80.38
398.617	141.82
398.826	141.82
399.035	158.21
399.244	172.54
399.453	117.25
399.663	70.14
399.872	154.11
400.081	66.05
400.29	125.44
400.499	143.87
400.708	145.92
400.917	195.07
401.127	186.88
401.336	90.62
401.545	209.4
401.754	100.86
401.963	127.49
402.172	129.53
402.381	166.4
402.59	158.21
402.799	166.4
403.008	135.68
403.217	215.55
403.426	158.21
403.635	121.34
403.844	133.63
404.053	195.07
404.262	221.69
404.471	209.4
404.68	131.58
404.888	150.01
405.097	115.2
405.306	207.36
405.515	135.68
405.724	147.97
405.933	186.88
406.142	211.45
406.35	190.97
406.559	154.11
406.768	256.51
406.977	254.46
407.185	236.03
407.394	264.7
407.603	211.45
407.812	188.93
408.02	317.95
408.229	264.7
408.438	244.22
408.646	238.08
408.855	313.85
409.064	328.19
409.272	334.33
409.481	324.09
409.69	334.33
409.898	344.57
410.107	295.42
410.315	457.21
410.524	406.01
410.733	385.53
410.941	442.87
411.15	444.92
411.358	473.59
411.567	436.73
411.775	426.49
411.984	401.91
412.192	504.31
412.401	635.38
412.609	479.74
412.818	514.55
413.026	551.42
413.234	592.37
413.443	653.81
413.651	649.72
413.86	666.1
414.068	571.9
414.276	700.92
414.485	657.91
414.693	764.4
414.901	745.97
415.11	811.51
415.318	811.51
415.526	821.75
415.734	897.52
415.943	870.9
416.151	893.43
416.359	1053.17
416.567	991.73
416.776	1001.97
416.984	1022.45
417.192	1149.42
417.4	1028.59
417.608	1161.71
417.817	1012.21
418.025	1182.19
418.233	1366.51
418.441	1274.35
418.649	1339.88
418.857	1450.47
419.065	1516.01
419.273	1440.23
419.481	1593.83
419.689	1655.27
419.897	1634.79
420.105	1675.75
420.313	1796.58
420.521	1853.92
420.729	1898.98
420.937	1833.44
421.145	1933.79
421.353	2132.45
421.561	2197.98
421.769	2249.18
421.977	2343.39
422.185	2265.57
422.393	2486.75
422.601	2603.48
422.809	2599.38
423.017	2646.49
423.224	2656.73
423.432	2763.22
423.64	2791.89
423.848	3135.95
424.056	2974.16
424.263	3408.33
424.471	3199.44
424.679	3269.07
424.887	3394
425.094	3594.7
425.302	3549.64
425.51	3606.98
425.718	3674.57
425.925	3938.76
426.133	4037.06
426.341	4198.85
426.548	4428.22
426.756	4481.47
426.964	4542.91
427.171	4827.57
427.379	4911.54
427.586	4979.12
427.794	5183.92
428.001	5265.84
428.209	5372.33
428.417	5347.76
428.624	5695.91
428.832	5794.22
429.039	5794.22
429.247	5763.5
429.454	6312.35
429.662	6877.59
429.869	6285.73
430.076	6717.85
430.284	6640.03
430.491	6662.55
430.699	7494.03
430.906	7305.62
431.114	7494.03
431.321	7457.17
431.528	7764.36
431.736	8247.68
431.943	8577.41
432.15	8382.85
432.358	8696.19
432.565	8952.18
432.772	8915.32
432.979	9267.57
433.187	9705.84
433.394	9750.89
433.601	10180.96
433.808	10275.17
434.016	10213.73
434.223	10701.15
434.43	11245.91
434.637	11188.57
434.844	11565.39
435.052	12048.71
435.259	11741.52
435.466	11983.18
435.673	11962.7
435.88	12753.21
436.087	13246.77
436.294	13054.26
436.501	13021.5
436.708	13318.45
436.915	13932.84
437.122	14309.67
437.329	14375.2
437.537	14889.24
437.743	15061.27
437.95	14891.29
438.157	15679.76
438.364	16277.77
438.571	16054.54
438.778	16445.7
438.985	17715.44
439.192	17094.91
439.399	17559.8
439.606	17281.27
439.813	18258.15
440.02	18981.09
440.227	19017.95
440.433	19003.61
440.64	19296.47
440.847	19243.23
441.054	19921.1
441.261	21278.91
441.467	20889.79
441.674	21145.79
441.881	22014.13
442.088	22218.92
442.294	21833.91
442.501	22464.68
442.708	22982.82
442.914	23552.15
443.121	24760.45
443.328	24006.8
443.534	25673.85
443.741	25053.31
443.948	24811.65
444.154	26482.8
444.361	26415.21
444.568	26593.39
444.774	26286.19
444.981	27082.85
445.187	27316.32
445.394	28581.96
445.6	28368.98
445.807	31080.49
446.013	29872.18
446.22	30328.88
446.426	31608.86
446.633	31887.39
446.839	32622.61
447.046	31244.32
447.252	33505.28
447.459	33167.37
447.665	33144.84
447.871	34867.18
448.078	35882.97
448.284	34287.6
448.491	35454.95
448.697	36632.53
448.903	37265.35
449.11	37314.5
449.316	36736.98
449.522	36855.76
449.728	38309.82
449.935	38424.5
450.141	38596.53
450.347	39661.47
450.553	38125.5
450.76	38739.89
450.966	39792.54
451.172	39645.09
451.378	40423.32
451.584	39907.23
451.791	40728.47
451.997	40529.81
452.203	41222.03
452.409	40994.7
452.615	40779.67
452.821	39405.48
453.027	39227.31
453.233	41406.34
453.44	39634.85
453.646	39864.22
453.852	40415.13
454.058	41006.99
454.264	39350.18
454.47	40378.26
454.676	38969.26
454.882	40767.38
455.088	36999.12
455.294	37425.09
455.5	38092.73
455.705	38531
455.911	36806.61
456.117	36466.64
456.323	35981.27
456.529	34170.87
456.735	35647.46
456.941	34514.93
457.147	34220.02
457.352	33222.66
457.558	32694.29
457.764	32813.07
457.97	31963.16
458.176	31385.63
458.381	31436.83
458.587	29710.39
458.793	30144.56
458.999	28403.79
459.204	30566.45
459.41	29403.2
459.616	27687
459.821	28035.16
460.027	27562.08
460.233	27097.19
460.438	25460.86
460.644	25723
460.85	24823.94
461.055	24754.31
461.261	24316.04
461.466	22448.3
461.672	21653.69
461.878	23638.17
462.083	21735.6
462.289	21418.17
462.494	21190.84
462.7	20289.74
462.905	19714.26
463.111	20377.8
463.316	20523.21
463.522	20048.08
463.727	20355.27
463.932	20232.4
464.138	19839.19
464.343	19822.8
464.549	19067.1
464.754	19962.06
464.959	19861.71
465.165	19810.51
465.37	18831.58
465.575	18092.27
465.781	18913.5
465.986	19146.97
466.191	18778.34
466.397	18127.08
466.602	17127.67
466.807	17983.73
467.012	17854.7
467.218	17713.39
467.423	17584.37
