Data from USB4F104151__59__11-45-16-172.txt Node

Date: Fri Mar 14 11:45:16 EDT 2025
User: louis
Spectrometer: USB4F10415
Trigger mode: 4
Integration Time (sec): 2.000000E-2
Scans to average: 1
Electric dark correction enabled: true
Nonlinearity correction enabled: false
Boxcar width: 0
XAxis mode: Wavelengths
Number of Pixels in Spectrum: 3648
>>>>>Begin Spectral Data<<<<<
178.204	-85.84
178.424	-85.84
178.644	-85.84
178.864	-106.32
179.084	-55.12
179.304	37.03
179.524	-8.02
179.744	20.65
179.964	12.46
180.184	-20.31
180.404	6.31
180.624	-36.69
180.844	-20.31
181.064	-12.12
181.283	-10.07
181.503	18.6
181.723	12.46
181.943	-30.55
182.163	32.94
182.383	4.27
182.602	4.27
182.822	41.13
183.042	65.71
183.262	4.27
183.482	57.51
183.701	6.31
183.921	26.79
184.141	-30.55
184.361	125.1
184.58	-36.69
184.8	43.18
185.02	45.23
185.239	12.46
185.459	-26.45
185.679	18.6
185.898	0.17
186.118	63.66
186.338	45.23
186.557	22.7
186.777	6.31
186.997	32.94
187.216	-40.79
187.436	6.31
187.655	-48.98
187.875	39.08
188.095	43.18
188.314	55.47
188.534	100.52
188.753	57.51
188.973	41.13
189.192	39.08
189.412	14.51
189.631	24.75
189.851	43.18
190.07	34.99
190.29	12.46
190.509	20.65
190.729	20.65
190.948	104.62
191.168	98.47
191.387	63.66
191.607	24.75
191.826	20.65
192.045	118.95
192.265	51.37
192.484	-3.93
192.704	-8.02
192.923	-61.27
193.142	61.61
193.362	116.9
193.581	102.57
193.8	41.13
194.02	41.13
194.239	10.41
194.458	75.95
194.678	67.75
194.897	-22.36
195.116	-5.97
195.335	82.09
195.555	69.8
195.774	-24.4
195.993	94.38
196.212	22.7
196.432	4.27
196.651	28.84
196.87	12.46
197.089	30.89
197.308	-3.93
197.528	-8.02
197.747	32.94
197.966	34.99
198.185	108.71
198.404	-44.88
198.623	24.75
198.842	-32.6
199.062	2.22
199.281	94.38
199.5	41.13
199.719	-18.26
199.938	94.38
200.157	77.99
200.376	2.22
200.595	26.79
200.814	-1.88
201.033	63.66
201.252	-3.93
201.471	104.62
201.69	61.61
201.909	65.71
202.128	30.89
202.347	47.27
202.566	53.42
202.785	59.56
203.004	57.51
203.223	96.43
203.442	-10.07
203.661	37.03
203.879	96.43
204.098	-48.98
204.317	24.75
204.536	16.55
204.755	49.32
204.974	2.22
205.193	110.76
205.411	108.71
205.63	-10.07
205.849	-5.97
206.068	28.84
206.287	32.94
206.505	-14.17
206.724	47.27
206.943	69.8
207.162	51.37
207.381	2.22
207.599	-57.17
207.818	30.89
208.037	51.37
208.255	53.42
208.474	24.75
208.693	63.66
208.911	16.55
209.13	65.71
209.349	32.94
209.567	-18.26
209.786	67.75
210.005	37.03
210.223	-3.93
210.442	37.03
210.661	49.32
210.879	55.47
211.098	45.23
211.316	-1.88
211.535	77.99
211.753	57.51
211.972	34.99
212.191	-32.6
212.409	6.31
212.628	90.28
212.846	24.75
213.065	67.75
213.283	32.94
213.502	43.18
213.72	-44.88
213.938	53.42
214.157	53.42
214.375	43.18
214.594	-44.88
214.812	53.42
215.031	90.28
215.249	43.18
215.467	4.27
215.686	69.8
215.904	24.75
216.122	77.99
216.341	30.89
216.559	-12.12
216.778	106.67
216.996	98.47
217.214	59.56
217.432	-38.74
217.651	10.41
217.869	39.08
218.087	57.51
218.306	-20.31
218.524	-5.97
218.742	100.52
218.96	65.71
219.179	45.23
219.397	-12.12
219.615	80.04
219.833	98.47
220.051	39.08
220.27	112.81
220.488	92.33
220.706	53.42
220.924	2.22
221.142	22.7
221.36	-8.02
221.578	26.79
221.796	10.41
222.015	65.71
222.233	55.47
222.451	51.37
222.669	71.85
222.887	22.7
223.105	-14.17
223.323	-22.36
223.541	-10.07
223.759	28.84
223.977	77.99
224.195	92.33
224.413	34.99
224.631	34.99
224.849	65.71
225.067	37.03
225.285	57.51
225.503	98.47
225.721	8.36
225.939	8.36
226.157	22.7
226.375	159.91
226.592	55.47
226.81	43.18
227.028	75.95
227.246	57.51
227.464	-57.17
227.682	94.38
227.9	65.71
228.117	61.61
228.335	86.19
228.553	59.56
228.771	37.03
228.989	37.03
229.206	47.27
229.424	51.37
229.642	43.18
229.86	-5.97
230.077	-20.31
230.295	41.13
230.513	108.71
230.731	61.61
230.948	118.95
231.166	12.46
231.384	-46.93
231.601	65.71
231.819	20.65
232.037	39.08
232.254	-16.21
232.472	-14.17
232.689	61.61
232.907	47.27
233.125	-24.4
233.342	24.75
233.56	-8.02
233.777	-16.21
233.995	-5.97
234.213	71.85
234.43	-34.64
234.648	57.51
234.865	-26.45
235.083	8.36
235.3	6.31
235.518	32.94
235.735	43.18
235.953	102.57
236.17	26.79
236.388	14.51
236.605	39.08
236.822	80.04
237.04	88.23
237.257	69.8
237.475	4.27
237.692	34.99
237.909	12.46
238.127	32.94
238.344	102.57
238.562	100.52
238.779	24.75
238.996	28.84
239.214	-36.69
239.431	26.79
239.648	61.61
239.865	71.85
240.083	24.75
240.3	37.03
240.517	61.61
240.735	63.66
240.952	28.84
241.169	67.75
241.386	61.61
241.603	-38.74
241.821	71.85
242.038	-8.02
242.255	100.52
242.472	28.84
242.689	121
242.907	84.14
243.124	-14.17
243.341	47.27
243.558	-36.69
243.775	12.46
243.992	-1.88
244.209	77.99
244.426	63.66
244.643	-26.45
244.86	80.04
245.078	43.18
245.295	8.36
245.512	75.95
245.729	-16.21
245.946	80.04
246.163	16.55
246.38	57.51
246.597	-36.69
246.814	0.17
247.031	12.46
247.248	24.75
247.464	8.36
247.681	32.94
247.898	80.04
248.115	2.22
248.332	8.36
248.549	32.94
248.766	123.05
248.983	55.47
249.2	-1.88
249.417	104.62
249.633	2.22
249.85	8.36
250.067	2.22
250.284	-3.93
250.501	61.61
250.717	104.62
250.934	22.7
251.151	8.36
251.368	2.22
251.585	8.36
251.801	98.47
252.018	49.32
252.235	65.71
252.451	41.13
252.668	77.99
252.885	82.09
253.102	75.95
253.318	-8.02
253.535	73.9
253.752	47.27
253.968	61.61
254.185	69.8
254.401	61.61
254.618	37.03
254.835	30.89
255.051	104.62
255.268	-16.21
255.484	59.56
255.701	45.23
255.917	12.46
256.134	67.75
256.351	51.37
256.567	-38.74
256.784	53.42
257	14.51
257.217	100.52
257.433	98.47
257.65	32.94
257.866	65.71
258.082	47.27
258.299	57.51
258.515	77.99
258.732	-3.93
258.948	-22.36
259.165	43.18
259.381	0.17
259.597	4.27
259.814	20.65
260.03	45.23
260.246	2.22
260.463	43.18
260.679	121
260.895	-28.5
261.112	84.14
261.328	34.99
261.544	53.42
261.761	123.05
261.977	47.27
262.193	-40.79
262.409	12.46
262.626	57.51
262.842	127.14
263.058	102.57
263.274	18.6
263.49	37.03
263.707	90.28
263.923	80.04
264.139	28.84
264.355	34.99
264.571	41.13
264.787	-5.97
265.004	30.89
265.22	73.9
265.436	24.75
265.652	12.46
265.868	53.42
266.084	37.03
266.3	30.89
266.516	34.99
266.732	49.32
266.948	65.71
267.164	-5.97
267.38	10.41
267.596	26.79
267.812	-32.6
268.028	71.85
268.244	69.8
268.46	39.08
268.676	30.89
268.892	61.61
269.108	-18.26
269.324	8.36
269.54	-20.31
269.756	71.85
269.972	10.41
270.188	112.81
270.403	10.41
270.619	63.66
270.835	41.13
271.051	28.84
271.267	88.23
271.483	-12.12
271.698	12.46
271.914	61.61
272.13	-16.21
272.346	18.6
272.562	28.84
272.777	28.84
272.993	104.62
273.209	53.42
273.425	57.51
273.64	-14.17
273.856	88.23
274.072	123.05
274.287	41.13
274.503	28.84
274.719	-3.93
274.934	24.75
275.15	2.22
275.366	26.79
275.581	30.89
275.797	14.51
276.012	65.71
276.228	26.79
276.444	86.19
276.659	116.9
276.875	41.13
277.09	6.31
277.306	69.8
277.521	30.89
277.737	45.23
277.952	75.95
278.168	59.56
278.383	6.31
278.599	-12.12
278.814	-26.45
279.03	26.79
279.245	112.81
279.461	39.08
279.676	133.29
279.892	45.23
280.107	41.13
280.322	41.13
280.538	63.66
280.753	53.42
280.969	12.46
281.184	0.17
281.399	77.99
281.615	18.6
281.83	61.61
282.045	49.32
282.26	37.03
282.476	67.75
282.691	32.94
282.906	37.03
283.122	73.9
283.337	-18.26
283.552	57.51
283.767	8.36
283.983	-20.31
284.198	8.36
284.413	53.42
284.628	22.7
284.843	-5.97
285.058	-67.41
285.274	114.86
285.489	12.46
285.704	51.37
285.919	92.33
286.134	39.08
286.349	-1.88
286.564	53.42
286.779	43.18
286.995	88.23
287.21	69.8
287.425	26.79
287.64	28.84
287.855	67.75
288.07	-32.6
288.285	18.6
288.5	53.42
288.715	121
288.93	110.76
289.145	51.37
289.36	80.04
289.575	69.8
289.79	34.99
290.004	30.89
290.219	92.33
290.434	45.23
290.649	67.75
290.864	32.94
291.079	26.79
291.294	133.29
291.509	69.8
291.724	77.99
291.938	-3.93
292.153	94.38
292.368	-30.55
292.583	2.22
292.798	80.04
293.012	18.6
293.227	71.85
293.442	18.6
293.657	0.17
293.871	18.6
294.086	73.9
294.301	69.8
294.516	0.17
294.73	-12.12
294.945	65.71
295.16	4.27
295.374	26.79
295.589	65.71
295.804	0.17
296.018	110.76
296.233	32.94
296.447	63.66
296.662	-32.6
296.877	71.85
297.091	110.76
297.306	53.42
297.52	10.41
297.735	20.65
297.949	-18.26
298.164	-5.97
298.378	51.37
298.593	-44.88
298.807	94.38
299.022	12.46
299.236	45.23
299.451	8.36
299.665	53.42
299.88	30.89
300.094	26.79
300.309	-1.88
300.523	47.27
300.737	55.47
300.952	22.7
301.166	47.27
301.381	39.08
301.595	65.71
301.809	67.75
302.024	-12.12
302.238	80.04
302.452	37.03
302.667	37.03
302.881	118.95
303.095	80.04
303.309	30.89
303.524	45.23
303.738	24.75
303.952	94.38
304.166	67.75
304.381	20.65
304.595	86.19
304.809	-10.07
305.023	75.95
305.237	86.19
305.452	30.89
305.666	-22.36
305.88	10.41
306.094	94.38
306.308	12.46
306.522	80.04
306.736	18.6
306.95	6.31
307.164	41.13
307.379	75.95
307.593	53.42
307.807	-18.26
308.021	61.61
308.235	55.47
308.449	8.36
308.663	47.27
308.877	59.56
309.091	18.6
309.305	71.85
309.519	55.47
309.733	116.9
309.947	-14.17
310.161	77.99
310.374	24.75
310.588	61.61
310.802	-12.12
311.016	67.75
311.23	10.41
311.444	30.89
311.658	59.56
311.872	43.18
312.085	116.9
312.299	39.08
312.513	28.84
312.727	102.57
312.941	65.71
313.154	6.31
313.368	20.65
313.582	69.8
313.796	100.52
314.009	12.46
314.223	100.52
314.437	18.6
314.651	80.04
314.864	94.38
315.078	-5.97
315.292	39.08
315.505	-20.31
315.719	63.66
315.933	114.86
316.146	24.75
316.36	-40.79
316.573	100.52
316.787	84.14
317.001	96.43
317.214	8.36
317.428	49.32
317.641	26.79
317.855	30.89
318.068	37.03
318.282	-18.26
318.495	-3.93
318.709	41.13
318.922	18.6
319.136	28.84
319.349	16.55
319.563	30.89
319.776	53.42
319.99	-1.88
320.203	67.75
320.417	45.23
320.63	82.09
320.843	110.76
321.057	32.94
321.27	57.51
321.483	57.51
321.697	69.8
321.91	125.1
322.124	77.99
322.337	55.47
322.55	8.36
322.763	49.32
322.977	86.19
323.19	108.71
323.403	63.66
323.617	77.99
323.83	77.99
324.043	6.31
324.256	133.29
324.469	102.57
324.683	100.52
324.896	32.94
325.109	43.18
325.322	77.99
325.535	67.75
325.748	55.47
325.962	47.27
326.175	51.37
326.388	110.76
326.601	24.75
326.814	34.99
327.027	-18.26
327.24	121
327.453	-34.64
327.666	53.42
327.879	28.84
328.092	28.84
328.305	10.41
328.518	16.55
328.731	104.62
328.944	12.46
329.157	51.37
329.37	86.19
329.583	86.19
329.796	57.51
330.009	41.13
330.222	22.7
330.435	26.79
330.648	22.7
330.861	100.52
331.073	90.28
331.286	92.33
331.499	71.85
331.712	18.6
331.925	10.41
332.138	30.89
332.35	104.62
332.563	75.95
332.776	90.28
332.989	47.27
333.202	164.01
333.414	-8.02
333.627	37.03
333.84	-12.12
334.053	30.89
334.265	34.99
334.478	71.85
334.691	112.81
334.903	69.8
335.116	47.27
335.329	75.95
335.541	-8.02
335.754	94.38
335.966	53.42
336.179	34.99
336.392	-10.07
336.604	59.56
336.817	73.9
337.029	161.96
337.242	53.42
337.454	-26.45
337.667	14.51
337.88	88.23
338.092	102.57
338.305	41.13
338.517	6.31
338.729	-1.88
338.942	63.66
339.154	10.41
339.367	28.84
339.579	24.75
339.792	37.03
340.004	110.76
340.217	73.9
340.429	82.09
340.641	30.89
340.854	164.01
341.066	59.56
341.278	51.37
341.491	20.65
341.703	73.9
341.915	22.7
342.128	98.47
342.34	-48.98
342.552	67.75
342.764	26.79
342.977	6.31
343.189	18.6
343.401	8.36
343.613	45.23
343.826	-28.5
344.038	57.51
344.25	73.9
344.462	98.47
344.674	129.19
344.886	61.61
345.099	127.14
345.311	108.71
345.523	53.42
345.735	77.99
345.947	104.62
346.159	63.66
346.371	118.95
346.583	84.14
346.795	59.56
347.007	39.08
347.219	94.38
347.431	-51.03
347.643	73.9
347.855	20.65
348.067	88.23
348.279	75.95
348.491	32.94
348.703	86.19
348.915	6.31
349.127	110.76
349.339	86.19
349.551	100.52
349.763	75.95
349.975	34.99
350.187	32.94
350.399	131.24
350.61	49.32
350.822	16.55
351.034	75.95
351.246	26.79
351.458	30.89
351.669	73.9
351.881	41.13
352.093	67.75
352.305	86.19
352.517	92.33
352.728	73.9
352.94	63.66
353.152	118.95
353.363	127.14
353.575	84.14
353.787	84.14
353.999	98.47
354.21	102.57
354.422	30.89
354.633	6.31
354.845	98.47
355.057	73.9
355.268	51.37
355.48	90.28
355.692	10.41
355.903	104.62
356.115	116.9
356.326	28.84
356.538	24.75
356.749	61.61
356.961	153.77
357.172	67.75
357.384	63.66
357.595	28.84
357.807	61.61
358.018	18.6
358.23	30.89
358.441	84.14
358.653	71.85
358.864	100.52
359.075	98.47
359.287	6.31
359.498	45.23
359.709	-1.88
359.921	-24.4
360.132	28.84
360.344	28.84
360.555	39.08
360.766	77.99
360.977	98.47
361.189	102.57
361.4	82.09
361.611	0.17
361.823	39.08
362.034	57.51
362.245	34.99
362.456	67.75
362.667	20.65
362.879	59.56
363.09	37.03
363.301	8.36
363.512	106.67
363.723	41.13
363.935	43.18
364.146	98.47
364.357	34.99
364.568	53.42
364.779	26.79
364.99	69.8
365.201	63.66
365.412	155.82
365.623	118.95
365.834	41.13
366.045	47.27
366.256	51.37
366.467	53.42
366.678	28.84
366.889	57.51
367.1	143.53
367.311	98.47
367.522	145.58
367.733	82.09
367.944	53.42
368.155	75.95
368.366	110.76
368.577	67.75
368.788	147.62
368.999	34.99
369.209	88.23
369.42	69.8
369.631	125.1
369.842	151.72
370.053	49.32
370.264	118.95
370.474	-53.08
370.685	73.9
370.896	129.19
371.107	106.67
371.317	39.08
371.528	34.99
371.739	114.86
371.95	32.94
372.16	34.99
372.371	90.28
372.582	55.47
372.792	14.51
373.003	32.94
373.214	98.47
373.424	82.09
373.635	18.6
373.846	39.08
374.056	98.47
374.267	123.05
374.477	37.03
374.688	55.47
374.898	49.32
375.109	69.8
375.319	94.38
375.53	98.47
375.74	26.79
375.951	32.94
376.161	55.47
376.372	110.76
376.582	80.04
376.793	51.37
377.003	67.75
377.214	32.94
377.424	80.04
377.635	102.57
377.845	-30.55
378.055	45.23
378.266	-46.93
378.476	51.37
378.686	63.66
378.897	45.23
379.107	86.19
379.317	57.51
379.528	47.27
379.738	112.81
379.948	90.28
380.158	65.71
380.369	82.09
380.579	80.04
380.789	39.08
380.999	28.84
381.21	82.09
381.42	90.28
381.63	32.94
381.84	75.95
382.05	39.08
382.261	98.47
382.471	75.95
382.681	22.7
382.891	32.94
383.101	37.03
383.311	102.57
383.521	77.99
383.731	108.71
383.941	-8.02
384.151	100.52
384.361	32.94
384.571	82.09
384.781	59.56
384.991	135.34
385.201	102.57
385.411	106.67
385.621	71.85
385.831	82.09
386.041	39.08
386.251	112.81
386.461	118.95
386.671	45.23
386.881	51.37
387.091	90.28
387.301	26.79
387.511	2.22
387.72	92.33
387.93	121
388.14	80.04
388.35	80.04
388.56	137.38
388.769	106.67
388.979	98.47
389.189	121
389.399	135.34
389.609	94.38
389.818	57.51
390.028	53.42
390.238	61.61
390.447	114.86
390.657	43.18
390.867	59.56
391.076	37.03
391.286	41.13
391.496	65.71
391.705	49.32
391.915	106.67
392.125	94.38
392.334	121
392.544	96.43
392.753	98.47
392.963	110.76
393.172	73.9
393.382	100.52
393.591	80.04
393.801	110.76
394.01	114.86
394.22	57.51
394.429	86.19
394.639	184.49
394.848	135.34
395.058	135.34
395.267	80.04
395.477	141.48
395.686	59.56
395.895	172.2
396.105	188.58
396.314	102.57
396.524	157.86
396.733	125.1
396.942	108.71
397.152	166.06
397.361	104.62
397.57	135.34
397.78	155.82
397.989	151.72
398.198	184.49
398.407	153.77
398.617	121
398.826	157.86
399.035	200.87
399.244	118.95
399.453	116.9
399.663	186.54
399.872	133.29
400.081	131.24
400.29	172.2
400.499	88.23
400.708	108.71
400.917	221.35
401.127	204.97
401.336	80.04
401.545	164.01
401.754	141.48
401.963	188.58
402.172	143.53
402.381	106.67
402.59	188.58
402.799	129.19
403.008	172.2
403.217	141.48
403.426	172.2
403.635	166.06
403.844	153.77
404.053	147.62
404.262	143.53
404.471	192.68
404.68	182.44
404.888	184.49
405.097	198.82
405.306	182.44
405.515	196.78
405.724	196.78
405.933	170.15
406.142	188.58
406.35	207.02
406.559	268.45
406.768	180.39
406.977	266.41
407.185	237.74
407.394	305.32
407.603	256.17
407.812	178.34
408.02	231.59
408.229	282.79
408.438	299.17
408.646	262.31
408.855	299.17
409.064	282.79
409.272	325.8
409.481	352.42
409.69	272.55
409.898	352.42
410.107	366.76
410.315	422.05
410.524	340.13
410.733	434.34
410.941	442.53
411.15	434.34
411.358	483.49
411.567	434.34
411.775	460.96
411.984	493.73
412.192	530.59
412.401	522.4
412.609	536.74
412.818	600.23
413.026	577.7
413.234	651.42
413.443	643.23
413.651	657.57
413.86	710.82
414.068	751.78
414.276	802.97
414.485	792.73
414.693	747.68
414.901	862.37
415.11	884.89
415.318	870.56
415.526	884.89
415.734	975
415.943	983.2
416.151	1040.54
416.359	948.38
416.567	1024.16
416.776	1101.98
416.984	1120.41
417.192	1136.79
417.4	1216.66
417.608	1169.56
417.817	1153.18
418.025	1323.16
418.233	1415.32
418.441	1372.31
418.649	1446.04
418.857	1630.35
419.065	1620.11
419.273	1519.76
419.481	1730.7
419.689	1697.94
419.897	1810.58
420.105	1826.96
420.313	1869.97
420.521	1876.11
420.729	1998.99
420.937	2085
421.145	2232.46
421.353	2193.55
421.561	2422.92
421.769	2381.96
421.977	2533.51
422.185	2570.37
422.393	2633.86
422.601	2859.14
422.809	2748.54
423.017	2904.19
423.224	2965.63
423.432	3076.22
423.64	3061.88
423.848	3350.65
424.056	3160.19
424.263	3416.18
424.471	3461.24
424.679	3563.64
424.887	3612.79
425.094	3745.91
425.302	3838.06
425.51	3887.22
425.718	4208.75
425.925	4247.66
426.133	4391.02
426.341	4683.88
426.548	4667.49
426.756	4935.78
426.964	4829.28
427.171	5197.92
427.379	5386.33
427.586	5351.51
427.794	5427.29
428.001	5836.88
428.209	5931.09
428.417	6023.25
428.624	6467.66
428.832	6447.18
429.039	6324.3
429.247	6463.56
429.454	6971.46
429.662	7452.73
429.869	6881.35
430.076	7411.77
430.284	7014.46
430.491	7512.12
430.699	7895.09
430.906	7874.61
431.114	8007.73
431.321	8402.99
431.528	8429.61
431.736	9031.71
431.943	9351.2
432.15	9144.35
432.358	9351.2
432.565	9877.52
432.772	9674.78
432.979	10342.41
433.187	10418.19
433.394	10450.96
433.601	11188.22
433.808	11235.33
434.016	11153.41
434.223	11515.9
434.43	12449.77
434.637	12287.98
434.844	12728.3
435.052	12845.03
435.259	13168.61
435.466	13393.89
435.673	13201.38
435.88	13897.69
436.087	14649.29
436.294	14671.82
436.501	14327.76
436.708	14532.56
436.915	14841.8
437.122	15853.5
437.329	15765.43
437.537	16388.02
437.743	16533.42
437.95	16142.26
438.157	17274.79
438.364	17790.88
438.571	17577.89
438.778	17928.09
438.985	19521.41
439.192	18773.9
439.399	19455.87
439.606	18784.14
439.813	20176.76
440.02	21323.62
440.227	21026.67
440.433	20469.62
440.64	21311.33
440.847	21391.2
441.054	21825.37
441.261	23136.07
441.467	23127.88
441.674	23351.11
441.881	24100.67
442.088	24289.08
442.294	24037.18
442.501	24512.31
442.708	25159.47
442.914	25937.69
443.121	27006.73
443.328	26013.47
443.534	28047.1
443.741	27647.75
443.948	27064.08
444.154	29003.5
444.361	28524.28
444.568	28892.91
444.774	29077.23
444.981	29630.18
445.187	30353.12
445.394	31383.24
445.6	31319.76
445.807	34408.09
446.013	32513.72
446.22	33304.24
446.426	34467.48
446.633	34821.78
446.839	35993.22
447.046	34696.86
447.252	36789.88
447.459	36478.59
447.665	36150.92
447.871	37994.09
448.078	39302.74
448.284	37721.71
448.491	38497.89
448.697	40267.33
448.903	40830.52
449.11	41023.03
449.316	40257.09
449.522	40869.44
449.728	42030.63
449.935	42210.85
450.141	42272.29
450.347	43308.57
450.553	41889.32
450.76	42790.43
450.966	44199.43
451.172	43771.41
451.378	44328.45
451.584	43419.16
451.791	44488.2
451.997	44488.2
452.203	45002.24
452.409	45116.92
452.615	45108.73
452.821	43499.03
453.027	42595.87
453.233	45487.6
453.44	43357.72
453.646	43865.61
453.852	43537.94
454.058	44920.32
454.264	43410.96
454.47	44461.57
454.676	43302.42
454.882	44805.63
455.088	40803.9
455.294	41268.79
455.5	42321.44
455.705	42743.33
455.911	40855.1
456.117	40222.28
456.323	39597.65
456.529	37475.95
456.735	38993.5
456.941	38110.82
457.147	37643.88
457.352	36124.29
457.558	36306.56
457.764	35886.73
457.97	35231.38
458.176	34236.06
458.381	34616.99
458.587	33111.73
458.793	32939.7
458.999	31305.42
459.204	33535.66
459.41	32640.7
459.616	30512.86
459.821	30377.69
460.027	30547.67
460.233	29671.14
460.438	28411.64
460.644	28589.81
460.85	27297.55
461.055	26834.71
461.261	27012.88
461.466	24622.9
461.672	23885.63
461.878	25659.17
462.083	24035.13
462.289	23695.17
462.494	23377.73
462.7	22134.62
462.905	21901.15
463.111	22501.2
463.316	22734.67
463.522	21909.34
463.727	21954.4
463.932	21856.09
464.138	21864.29
464.343	22120.28
464.549	21196.65
464.754	21919.58
464.959	21901.15
465.165	21362.53
465.37	20750.19
465.575	20166.52
465.781	20850.54
465.986	21303.14
466.191	20426.61
466.397	20045.69
466.602	18780.04
466.807	19619.71
467.012	19736.45
