Data from USB4F104151__35__11-44-56-239.txt Node

Date: Fri Mar 14 11:44:56 EDT 2025
User: louis
Spectrometer: USB4F10415
Trigger mode: 4
Integration Time (sec): 2.000000E-2
Scans to average: 1
Electric dark correction enabled: true
Nonlinearity correction enabled: false
Boxcar width: 0
XAxis mode: Wavelengths
Number of Pixels in Spectrum: 3648
>>>>>Begin Spectral Data<<<<<
178.204	-133.97
178.424	-133.97
178.644	-133.97
178.864	-78.68
179.084	-39.76
179.304	-29.52
179.524	5.29
179.744	21.67
179.964	25.77
180.184	1.19
180.404	44.2
180.624	31.91
180.844	-9.05
181.064	-31.57
181.283	21.67
181.503	-56.15
181.723	-25.43
181.943	-17.24
182.163	40.11
182.383	-2.9
182.602	74.92
182.822	64.68
183.042	29.87
183.262	-27.48
183.482	72.87
183.701	5.29
183.921	56.49
184.141	40.11
184.361	54.44
184.58	40.11
184.8	-25.43
185.02	36.01
185.239	33.96
185.459	79.02
185.679	9.39
185.898	-0.85
186.118	87.21
186.338	66.73
186.557	29.87
186.777	-52.05
186.997	54.44
187.216	21.67
187.436	74.92
187.655	91.31
187.875	29.87
188.095	72.87
188.314	-2.9
188.534	46.25
188.753	64.68
188.973	33.96
189.192	54.44
189.412	58.54
189.631	27.82
189.851	36.01
190.07	64.68
190.29	25.77
190.509	-11.09
190.729	-21.33
190.948	70.83
191.168	126.12
191.387	93.35
191.607	46.25
191.826	76.97
192.045	107.69
192.265	-2.9
192.484	50.35
192.704	33.96
192.923	7.34
193.142	7.34
193.362	72.87
193.581	79.02
193.8	87.21
194.02	31.91
194.239	36.01
194.458	27.82
194.678	60.59
194.897	48.3
195.116	17.58
195.335	27.82
195.555	-31.57
195.774	-9.05
195.993	109.74
196.212	52.39
196.432	-2.9
196.651	1.19
196.87	9.39
197.089	83.11
197.308	-31.57
197.528	25.77
197.747	60.59
197.966	19.63
198.185	58.54
198.404	58.54
198.623	-4.95
198.842	99.5
199.062	87.21
199.281	50.35
199.5	3.24
199.719	-21.33
199.938	113.83
200.157	23.72
200.376	52.39
200.595	66.73
200.814	23.72
201.033	44.2
201.252	7.34
201.471	11.43
201.69	21.67
201.909	64.68
202.128	58.54
202.347	19.63
202.566	44.2
202.785	50.35
203.004	44.2
203.223	85.16
203.442	56.49
203.661	-31.57
203.879	111.78
204.098	113.83
204.317	-2.9
204.536	25.77
204.755	89.26
204.974	36.01
205.193	56.49
205.411	25.77
205.63	31.91
205.849	23.72
206.068	58.54
206.287	-0.85
206.505	40.11
206.724	42.15
206.943	109.74
207.162	11.43
207.381	9.39
207.599	76.97
207.818	52.39
208.037	-37.72
208.255	-7
208.474	42.15
208.693	76.97
208.911	58.54
209.13	58.54
209.349	36.01
209.567	124.07
209.786	91.31
210.005	42.15
210.223	17.58
210.442	97.45
210.661	33.96
210.879	50.35
211.098	50.35
211.316	3.24
211.535	38.06
211.753	79.02
211.972	38.06
212.191	-29.52
212.409	-2.9
212.628	42.15
212.846	5.29
213.065	122.02
213.283	29.87
213.502	11.43
213.72	66.73
213.938	5.29
214.157	23.72
214.375	-25.43
214.594	-31.57
214.812	68.78
215.031	134.31
215.249	29.87
215.467	-11.09
215.686	25.77
215.904	64.68
216.122	5.29
216.341	-9.05
216.559	56.49
216.778	72.87
216.996	79.02
217.214	-13.14
217.432	-11.09
217.651	9.39
217.869	-41.81
218.087	42.15
218.306	-7
218.524	9.39
218.742	-21.33
218.96	27.82
219.179	3.24
219.397	27.82
219.615	87.21
219.833	-11.09
220.051	5.29
220.27	66.73
220.488	50.35
220.706	52.39
220.924	-21.33
221.142	9.39
221.36	-9.05
221.578	7.34
221.796	25.77
222.015	44.2
222.233	54.44
222.451	64.68
222.669	-7
222.887	11.43
223.105	89.26
223.323	31.91
223.541	38.06
223.759	7.34
223.977	13.48
224.195	44.2
224.413	42.15
224.631	-9.05
224.849	33.96
225.067	74.92
225.285	56.49
225.503	103.59
225.721	68.78
225.939	21.67
226.157	-25.43
226.375	60.59
226.592	48.3
226.81	15.53
227.028	48.3
227.246	79.02
227.464	38.06
227.682	27.82
227.9	81.07
228.117	70.83
228.335	27.82
228.553	-4.95
228.771	83.11
228.989	11.43
229.206	85.16
229.424	79.02
229.642	-17.24
229.86	33.96
230.077	27.82
230.295	85.16
230.513	-9.05
230.731	109.74
230.948	68.78
231.166	99.5
231.384	-47.96
231.601	68.78
231.819	91.31
232.037	40.11
232.254	64.68
232.472	-15.19
232.689	-2.9
232.907	85.16
233.125	33.96
233.342	33.96
233.56	21.67
233.777	-2.9
233.995	15.53
234.213	62.63
234.43	9.39
234.648	-2.9
234.865	27.82
235.083	38.06
235.3	-60.24
235.518	52.39
235.735	42.15
235.953	-19.29
236.17	99.5
236.388	93.35
236.605	101.55
236.822	124.07
237.04	130.22
237.257	7.34
237.475	66.73
237.692	54.44
237.909	-7
238.127	17.58
238.344	-2.9
238.562	64.68
238.779	52.39
238.996	5.29
239.214	13.48
239.431	111.78
239.648	25.77
239.865	115.88
240.083	85.16
240.3	-9.05
240.517	46.25
240.735	21.67
240.952	76.97
241.169	130.22
241.386	70.83
241.603	44.2
241.821	58.54
242.038	101.55
242.255	52.39
242.472	-0.85
242.689	5.29
242.907	111.78
243.124	-0.85
243.341	54.44
243.558	72.87
243.775	1.19
243.992	15.53
244.209	70.83
244.426	29.87
244.643	36.01
244.86	70.83
245.078	60.59
245.295	9.39
245.512	109.74
245.729	54.44
245.946	5.29
246.163	115.88
246.38	72.87
246.597	79.02
246.814	54.44
247.031	21.67
247.248	93.35
247.464	44.2
247.681	25.77
247.898	74.92
248.115	21.67
248.332	103.59
248.549	15.53
248.766	70.83
248.983	85.16
249.2	1.19
249.417	19.63
249.633	38.06
249.85	54.44
250.067	23.72
250.284	81.07
250.501	64.68
250.717	21.67
250.934	-0.85
251.151	58.54
251.368	66.73
251.585	1.19
251.801	54.44
252.018	36.01
252.235	21.67
252.451	11.43
252.668	13.48
252.885	19.63
253.102	21.67
253.318	29.87
253.535	-4.95
253.752	70.83
253.968	-7
254.185	25.77
254.401	-39.76
254.618	-4.95
254.835	42.15
255.051	38.06
255.268	38.06
255.484	46.25
255.701	-0.85
255.917	101.55
256.134	76.97
256.351	87.21
256.567	13.48
256.784	83.11
257	11.43
257.217	70.83
257.433	79.02
257.65	140.46
257.866	44.2
258.082	15.53
258.299	52.39
258.515	87.21
258.732	-25.43
258.948	5.29
259.165	58.54
259.381	79.02
259.597	36.01
259.814	109.74
260.03	87.21
260.246	25.77
260.463	58.54
260.679	17.58
260.895	33.96
261.112	66.73
261.328	23.72
261.544	68.78
261.761	103.59
261.977	21.67
262.193	25.77
262.409	-0.85
262.626	19.63
262.842	38.06
263.058	-27.48
263.274	79.02
263.49	29.87
263.707	11.43
263.923	83.11
264.139	87.21
264.355	81.07
264.571	62.63
264.787	23.72
265.004	66.73
265.22	-25.43
265.436	56.49
265.652	21.67
265.868	50.35
266.084	81.07
266.3	58.54
266.516	-60.24
266.732	93.35
266.948	111.78
267.164	60.59
267.38	23.72
267.596	54.44
267.812	46.25
268.028	40.11
268.244	79.02
268.46	50.35
268.676	42.15
268.892	119.98
269.108	29.87
269.324	68.78
269.54	-25.43
269.756	107.69
269.972	3.24
270.188	23.72
270.403	-7
270.619	-15.19
270.835	13.48
271.051	40.11
271.267	46.25
271.483	38.06
271.698	83.11
271.914	36.01
272.13	40.11
272.346	76.97
272.562	70.83
272.777	124.07
272.993	79.02
273.209	72.87
273.425	-33.62
273.64	5.29
273.856	76.97
274.072	5.29
274.287	-19.29
274.503	29.87
274.719	54.44
274.934	48.3
275.15	81.07
275.366	-19.29
275.581	-11.09
275.797	27.82
276.012	46.25
276.228	19.63
276.444	93.35
276.659	13.48
276.875	21.67
277.09	1.19
277.306	-0.85
277.521	60.59
277.737	15.53
277.952	89.26
278.168	-54.1
278.383	9.39
278.599	15.53
278.814	31.91
279.03	81.07
279.245	15.53
279.461	29.87
279.676	85.16
279.892	-13.14
280.107	21.67
280.322	11.43
280.538	5.29
280.753	-9.05
280.969	-7
281.184	21.67
281.399	115.88
281.615	74.92
281.83	56.49
282.045	-9.05
282.26	-11.09
282.476	52.39
282.691	74.92
282.906	107.69
283.122	-37.72
283.337	48.3
283.552	81.07
283.767	48.3
283.983	91.31
284.198	17.58
284.413	3.24
284.628	-4.95
284.843	48.3
285.058	87.21
285.274	17.58
285.489	5.29
285.704	17.58
285.919	48.3
286.134	97.45
286.349	91.31
286.564	48.3
286.779	119.98
286.995	70.83
287.21	126.12
287.425	81.07
287.64	91.31
287.855	38.06
288.07	109.74
288.285	56.49
288.5	66.73
288.715	119.98
288.93	13.48
289.145	46.25
289.36	91.31
289.575	-21.33
289.79	101.55
290.004	60.59
290.219	56.49
290.434	91.31
290.649	50.35
290.864	48.3
291.079	52.39
291.294	79.02
291.509	52.39
291.724	-13.14
291.938	19.63
292.153	72.87
292.368	3.24
292.583	60.59
292.798	70.83
293.012	-19.29
293.227	68.78
293.442	3.24
293.657	48.3
293.871	89.26
294.086	52.39
294.301	97.45
294.516	56.49
294.73	33.96
294.945	83.11
295.16	29.87
295.374	3.24
295.589	93.35
295.804	42.15
296.018	23.72
296.233	9.39
296.447	111.78
296.662	64.68
296.877	119.98
297.091	60.59
297.306	3.24
297.52	64.68
297.735	29.87
297.949	52.39
298.164	-4.95
298.378	46.25
298.593	40.11
298.807	-11.09
299.022	-9.05
299.236	126.12
299.451	-2.9
299.665	-11.09
299.88	68.78
300.094	64.68
300.309	66.73
300.523	27.82
300.737	93.35
300.952	128.17
301.166	38.06
301.381	15.53
301.595	36.01
301.809	3.24
302.024	7.34
302.238	27.82
302.452	40.11
302.667	64.68
302.881	83.11
303.095	48.3
303.309	89.26
303.524	27.82
303.738	36.01
303.952	9.39
304.166	-15.19
304.381	-7
304.595	111.78
304.809	-35.67
305.023	85.16
305.237	66.73
305.452	11.43
305.666	-11.09
305.88	29.87
306.094	-0.85
306.308	29.87
306.522	-7
306.736	31.91
306.95	58.54
307.164	56.49
307.379	13.48
307.593	60.59
307.807	-4.95
308.021	62.63
308.235	31.91
308.449	23.72
308.663	19.63
308.877	68.78
309.091	13.48
309.305	13.48
309.519	-31.57
309.733	52.39
309.947	-23.38
310.161	87.21
310.374	54.44
310.588	101.55
310.802	42.15
311.016	85.16
311.23	54.44
311.444	-2.9
311.658	83.11
311.872	33.96
312.085	70.83
312.299	31.91
312.513	79.02
312.727	60.59
312.941	-72.53
313.154	48.3
313.368	54.44
313.582	87.21
313.796	-25.43
314.009	48.3
314.223	76.97
314.437	33.96
314.651	60.59
314.864	68.78
315.078	5.29
315.292	52.39
315.505	64.68
315.719	25.77
315.933	101.55
316.146	15.53
316.36	81.07
316.573	62.63
316.787	29.87
317.001	9.39
317.214	-2.9
317.428	83.11
317.641	-7
317.855	44.2
318.068	-25.43
318.282	97.45
318.495	25.77
318.709	7.34
318.922	15.53
319.136	97.45
319.349	83.11
319.563	5.29
319.776	99.5
319.99	29.87
320.203	142.5
320.417	81.07
320.63	56.49
320.843	36.01
321.057	50.35
321.27	7.34
321.483	76.97
321.697	83.11
321.91	50.35
322.124	31.91
322.337	50.35
322.55	101.55
322.763	-23.38
322.977	29.87
323.19	38.06
323.403	3.24
323.617	11.43
323.83	74.92
324.043	3.24
324.256	79.02
324.469	19.63
324.683	150.7
324.896	74.92
325.109	21.67
325.322	13.48
325.535	21.67
325.748	107.69
325.962	74.92
326.175	187.56
326.388	93.35
326.601	87.21
326.814	89.26
327.027	15.53
327.24	46.25
327.453	36.01
327.666	5.29
327.879	111.78
328.092	33.96
328.305	68.78
328.518	66.73
328.731	115.88
328.944	17.58
329.157	64.68
329.37	-4.95
329.583	19.63
329.796	122.02
330.009	72.87
330.222	56.49
330.435	11.43
330.648	66.73
330.861	79.02
331.073	91.31
331.286	17.58
331.499	89.26
331.712	68.78
331.925	-7
332.138	9.39
332.35	76.97
332.563	38.06
332.776	9.39
332.989	50.35
333.202	50.35
333.414	56.49
333.627	27.82
333.84	36.01
334.053	72.87
334.265	-17.24
334.478	33.96
334.691	-21.33
334.903	91.31
335.116	134.31
335.329	50.35
335.541	27.82
335.754	68.78
335.966	-4.95
336.179	76.97
336.392	13.48
336.604	87.21
336.817	27.82
337.029	79.02
337.242	33.96
337.454	111.78
337.667	58.54
337.88	19.63
338.092	15.53
338.305	48.3
338.517	111.78
338.729	-0.85
338.942	38.06
339.154	-27.48
339.367	25.77
339.579	79.02
339.792	85.16
340.004	113.83
340.217	-2.9
340.429	33.96
340.641	68.78
340.854	11.43
341.066	27.82
341.278	76.97
341.491	93.35
341.703	1.19
341.915	29.87
342.128	56.49
342.34	52.39
342.552	72.87
342.764	13.48
342.977	-7
343.189	13.48
343.401	27.82
343.613	15.53
343.826	-11.09
344.038	9.39
344.25	-0.85
344.462	23.72
344.674	109.74
344.886	95.4
345.099	-0.85
345.311	11.43
345.523	64.68
345.735	42.15
345.947	81.07
346.159	36.01
346.371	54.44
346.583	-11.09
346.795	122.02
347.007	46.25
347.219	-17.24
347.431	29.87
347.643	76.97
347.855	29.87
348.067	79.02
348.279	87.21
348.491	31.91
348.703	7.34
348.915	17.58
349.127	111.78
349.339	111.78
349.551	1.19
349.763	83.11
349.975	68.78
350.187	107.69
350.399	76.97
350.61	89.26
350.822	19.63
351.034	130.22
351.246	-13.14
351.458	48.3
351.669	33.96
351.881	128.17
352.093	89.26
352.305	68.78
352.517	60.59
352.728	54.44
352.94	50.35
353.152	42.15
353.363	40.11
353.575	42.15
353.787	33.96
353.999	99.5
354.21	36.01
354.422	50.35
354.633	54.44
354.845	17.58
355.057	70.83
355.268	87.21
355.48	111.78
355.692	54.44
355.903	50.35
356.115	64.68
356.326	54.44
356.538	105.64
356.749	-11.09
356.961	81.07
357.172	-2.9
357.384	99.5
357.595	52.39
357.807	60.59
358.018	58.54
358.23	74.92
358.441	76.97
358.653	54.44
358.864	95.4
359.075	23.72
359.287	50.35
359.498	50.35
359.709	38.06
359.921	107.69
360.132	87.21
360.344	101.55
360.555	27.82
360.766	62.63
360.977	87.21
361.189	107.69
361.4	107.69
361.611	46.25
361.823	93.35
362.034	140.46
362.245	64.68
362.456	138.41
362.667	13.48
362.879	5.29
363.09	87.21
363.301	101.55
363.512	5.29
363.723	9.39
363.935	11.43
364.146	70.83
364.357	46.25
364.568	-7
364.779	9.39
364.99	134.31
365.201	62.63
365.412	44.2
365.623	56.49
365.834	50.35
366.045	115.88
366.256	54.44
366.467	38.06
366.678	5.29
366.889	85.16
367.1	134.31
367.311	138.41
367.522	70.83
367.733	-4.95
367.944	113.83
368.155	103.59
368.366	40.11
368.577	64.68
368.788	87.21
368.999	50.35
369.209	15.53
369.42	95.4
369.631	83.11
369.842	81.07
370.053	70.83
370.264	97.45
370.474	27.82
370.685	93.35
370.896	50.35
371.107	56.49
371.317	48.3
371.528	48.3
371.739	19.63
371.95	76.97
372.16	107.69
372.371	15.53
372.582	66.73
372.792	31.91
373.003	70.83
373.214	33.96
373.424	48.3
373.635	11.43
373.846	46.25
374.056	128.17
374.267	54.44
374.477	29.87
374.688	33.96
374.898	68.78
375.109	52.39
375.319	83.11
375.53	81.07
375.74	46.25
375.951	91.31
376.161	89.26
376.372	79.02
376.582	31.91
376.793	29.87
377.003	140.46
377.214	64.68
377.424	60.59
377.635	58.54
377.845	81.07
378.055	93.35
378.266	-47.96
378.476	-23.38
378.686	83.11
378.897	72.87
379.107	58.54
379.317	103.59
379.528	101.55
379.738	95.4
379.948	36.01
380.158	93.35
380.369	107.69
380.579	89.26
380.789	76.97
380.999	42.15
381.21	91.31
381.42	103.59
381.63	95.4
381.84	132.26
382.05	91.31
382.261	83.11
382.471	33.96
382.681	74.92
382.891	85.16
383.101	79.02
383.311	-27.48
383.521	46.25
383.731	119.98
383.941	83.11
384.151	79.02
384.361	29.87
384.571	33.96
384.781	5.29
384.991	-7
385.201	42.15
385.411	-2.9
385.621	87.21
385.831	68.78
386.041	64.68
386.251	21.67
386.461	74.92
386.671	46.25
386.881	68.78
387.091	83.11
387.301	85.16
387.511	76.97
387.72	-15.19
387.93	23.72
388.14	13.48
388.35	74.92
388.56	107.69
388.769	68.78
388.979	83.11
389.189	42.15
389.399	64.68
389.609	66.73
389.818	87.21
390.028	23.72
390.238	44.2
390.447	60.59
390.657	148.65
390.867	70.83
391.076	52.39
391.286	23.72
391.496	58.54
391.705	54.44
391.915	124.07
392.125	81.07
392.334	70.83
392.544	44.2
392.753	56.49
392.963	42.15
393.172	85.16
393.382	25.77
393.591	136.36
393.801	113.83
394.01	162.98
394.22	93.35
394.429	70.83
394.639	62.63
394.848	152.74
395.058	58.54
395.267	72.87
395.477	101.55
395.686	33.96
395.895	46.25
396.105	87.21
396.314	128.17
396.524	52.39
396.733	68.78
396.942	66.73
397.152	83.11
397.361	5.29
397.57	9.39
397.78	70.83
397.989	132.26
398.198	130.22
398.407	87.21
398.617	144.55
398.826	93.35
399.035	126.12
399.244	158.89
399.453	40.11
399.663	103.59
399.872	95.4
400.081	134.31
400.29	189.61
400.499	70.83
400.708	134.31
400.917	93.35
401.127	95.4
401.336	38.06
401.545	197.8
401.754	89.26
401.963	177.32
402.172	122.02
402.381	81.07
402.59	201.9
402.799	130.22
403.008	111.78
403.217	99.5
403.426	99.5
403.635	165.03
403.844	152.74
404.053	130.22
404.262	130.22
404.471	144.55
404.68	177.32
404.888	208.04
405.097	83.11
405.306	109.74
405.515	177.32
405.724	212.14
405.933	146.6
406.142	144.55
406.35	240.81
406.559	156.84
406.768	136.36
406.977	214.18
407.185	208.04
407.394	228.52
407.603	179.37
407.812	165.03
408.02	234.66
408.229	208.04
408.438	197.8
408.646	208.04
408.855	208.04
409.064	304.29
409.272	205.99
409.481	316.58
409.69	259.24
409.898	281.77
410.107	234.66
410.315	328.87
410.524	320.68
410.733	255.14
410.941	255.14
411.15	349.35
411.358	390.31
411.567	412.84
411.775	306.34
411.984	414.88
412.192	384.16
412.401	416.93
412.609	431.27
412.818	455.84
413.026	421.03
413.234	382.12
413.443	472.23
413.651	441.51
413.86	488.61
414.068	425.12
414.276	476.32
414.485	576.67
414.693	562.34
414.901	584.87
415.11	580.77
415.318	613.54
415.526	644.26
415.734	603.3
415.943	642.21
416.151	711.84
416.359	689.31
416.567	763.04
416.776	789.66
416.984	824.48
417.192	822.43
417.4	842.91
417.608	951.45
417.817	873.63
418.025	941.21
418.233	1012.89
418.441	1008.8
418.649	1023.13
418.857	1103
419.065	1064.09
419.273	994.46
419.481	1213.59
419.689	1289.37
419.897	1320.09
420.105	1381.53
420.313	1459.35
420.521	1410.2
420.729	1496.21
420.937	1514.64
421.145	1473.68
421.353	1537.17
421.561	1692.82
421.769	1721.49
421.977	1772.69
422.185	1664.15
422.393	1895.57
422.601	2106.51
422.809	2065.55
423.017	1922.19
423.224	2153.61
423.432	2079.88
423.64	2219.14
423.848	2382.98
424.056	2274.44
424.263	2571.4
424.471	2397.32
424.679	2616.45
424.887	2700.42
425.094	2616.45
425.302	2724.99
425.51	2712.71
425.718	2978.94
425.925	3044.48
426.133	3085.44
426.341	3294.33
426.548	3433.59
426.756	3413.11
426.964	3374.2
427.171	3671.15
427.379	3761.27
427.586	3736.69
427.794	3863.66
428.001	4035.69
428.209	4234.35
428.417	4224.11
428.624	4533.35
428.832	4584.55
429.039	4357.22
429.247	4408.42
429.454	4803.68
429.662	5188.7
429.869	4738.15
430.076	5287
430.284	5131.36
430.491	5278.81
430.699	5557.33
430.906	5502.04
431.114	5610.58
431.321	5899.34
431.528	6128.72
431.736	6276.17
431.943	6771.78
432.15	6470.73
432.358	6659.14
432.565	6980.67
432.772	7017.54
432.979	7150.65
433.187	7357.5
433.394	7441.47
433.601	7887.92
433.808	7965.75
434.016	7859.25
434.223	8213.55
434.43	8768.55
434.637	8422.44
434.844	9145.38
435.052	9309.21
435.259	9215.01
435.466	9284.64
435.673	9190.43
435.88	9804.82
436.087	10228.75
436.294	10406.92
436.501	10181.65
436.708	10212.37
436.915	10613.77
437.122	10853.38
437.329	11039.75
437.537	11187.2
437.743	11682.81
437.95	11377.66
438.157	12037.11
438.364	12487.66
438.571	12135.41
438.778	12567.53
438.985	13532.12
439.192	13151.2
439.399	13589.47
439.606	13163.49
439.813	14121.94
440.02	14844.87
440.227	14517.2
440.433	14574.54
440.64	14726.09
440.847	14932.93
441.054	15375.3
441.261	16255.92
441.467	15950.78
441.674	16313.27
441.881	17034.15
442.088	16954.28
442.294	16772.01
442.501	17124.26
442.708	17429.41
442.914	18379.67
443.121	19090.31
443.328	18590.61
443.534	19731.33
443.741	19258.24
443.948	18992.01
444.154	20435.83
444.361	20038.52
444.568	20491.12
444.774	20231.03
444.981	20355.96
445.187	21089.13
445.394	22016.86
445.6	22125.4
445.807	23984.96
446.013	22889.29
446.22	23276.36
446.426	24093.5
446.633	24472.37
446.839	25219.88
447.046	24222.52
447.252	25713.44
447.459	25572.13
447.665	25451.3
447.871	26659.6
448.078	27722.5
448.284	26385.18
448.491	27038.48
448.697	28467.96
448.903	28486.39
449.11	28750.58
449.316	28306.17
449.522	28805.88
449.728	29391.59
449.935	29700.84
450.141	29676.26
450.347	30636.76
450.553	29606.63
450.76	29901.54
450.966	30927.57
451.172	30358.24
451.378	31236.81
451.584	30685.91
451.791	31238.86
451.997	31259.34
452.203	31918.79
452.409	31986.37
452.615	31838.92
452.821	30657.24
453.027	30188.25
453.233	31687.37
453.44	30536.41
453.646	30794.45
453.852	30948.05
454.058	31898.31
454.264	30139.1
454.47	31040.21
454.676	30567.13
454.882	31507.15
455.088	28945.14
455.294	29012.72
455.5	29754.08
455.705	29967.07
455.911	28572.41
456.117	28027.65
456.323	27900.67
456.529	26325.78
456.735	27368.2
456.941	26573.59
457.147	26280.73
457.352	25682.72
457.558	25113.39
457.764	25215.79
457.97	24718.13
458.176	24277.82
458.381	24062.78
458.587	23067.47
458.793	23208.78
458.999	21795.68
459.204	23343.94
459.41	22752.08
459.616	21136.23
459.821	21459.81
460.027	21054.31
460.233	20720.49
460.438	19587.97
460.644	20091.77
460.85	18879.37
461.055	18693.01
461.261	18934.67
461.466	17513.38
461.672	16657.32
461.878	17920.92
462.083	16896.94
462.289	16448.43
462.494	16520.11
462.7	15623.1
462.905	15311.81
463.111	15582.14
463.316	15696.83
463.522	15393.73
463.727	15422.4
463.932	15326.14
464.138	15221.7
464.343	15293.38
464.549	14726.09
464.754	15190.98
464.959	15160.26
465.165	14914.5
465.37	14355.41
465.575	14152.66
465.781	14656.46
465.986	14752.71
466.191	14265.3
466.397	14058.45
466.602	13153.25
466.807	13974.49
467.012	13513.69
467.218	13759.45
467.423	13476.83
467.628	13671.39
467.833	14126.04
468.038	13642.71
