Data from USB4F104151__63__11-45-19-269.txt Node

Date: Fri Mar 14 11:45:19 EDT 2025
User: louis
Spectrometer: USB4F10415
Trigger mode: 4
Integration Time (sec): 2.000000E-2
Scans to average: 1
Electric dark correction enabled: true
Nonlinearity correction enabled: false
Boxcar width: 0
XAxis mode: Wavelengths
Number of Pixels in Spectrum: 3648
>>>>>Begin Spectral Data<<<<<
178.204	-109.57
178.424	-109.57
178.644	-109.57
178.864	-103.42
179.084	-117.76
179.304	80.89
179.524	-66.56
179.744	-50.18
179.964	11.26
180.184	-56.32
180.404	15.36
180.624	66.56
180.844	39.94
181.064	1.02
181.283	-9.22
181.503	-60.42
181.723	27.65
181.943	-64.51
182.163	3.07
182.383	-23.55
182.602	58.37
182.822	-11.26
183.042	15.36
183.262	-11.26
183.482	5.12
183.701	37.89
183.921	11.26
184.141	48.13
184.361	66.56
184.58	31.74
184.8	13.31
185.02	68.61
185.239	27.65
185.459	29.7
185.679	35.84
185.898	-37.89
186.118	44.03
186.338	54.27
186.557	56.32
186.777	-25.6
186.997	39.94
187.216	62.46
187.436	48.13
187.655	64.51
187.875	64.51
188.095	-74.75
188.314	33.79
188.534	68.61
188.753	-5.12
188.973	82.94
189.192	46.08
189.412	21.5
189.631	17.41
189.851	3.07
190.07	119.81
190.29	54.27
190.509	25.6
190.729	-11.26
190.948	-60.42
191.168	62.46
191.387	27.65
191.607	-70.65
191.826	31.74
192.045	-3.07
192.265	-29.7
192.484	52.22
192.704	87.04
192.923	23.55
193.142	99.33
193.362	11.26
193.581	21.5
193.8	35.84
194.02	58.37
194.239	29.7
194.458	11.26
194.678	64.51
194.897	84.99
195.116	46.08
195.335	44.03
195.555	31.74
195.774	37.89
195.993	7.17
196.212	82.94
196.432	13.31
196.651	-7.17
196.87	31.74
197.089	87.04
197.308	7.17
197.528	52.22
197.747	-84.99
197.966	-44.03
198.185	37.89
198.404	60.42
198.623	9.22
198.842	-41.98
199.062	64.51
199.281	97.28
199.5	-3.07
199.719	21.5
199.938	11.26
200.157	1.02
200.376	39.94
200.595	60.42
200.814	21.5
201.033	25.6
201.252	13.31
201.471	56.32
201.69	-3.07
201.909	21.5
202.128	21.5
202.347	19.46
202.566	-35.84
202.785	-1.02
203.004	13.31
203.223	-1.02
203.442	5.12
203.661	46.08
203.879	7.17
204.098	35.84
204.317	-7.17
204.536	3.07
204.755	25.6
204.974	-33.79
205.193	31.74
205.411	89.09
205.63	-11.26
205.849	19.46
206.068	-3.07
206.287	5.12
206.505	1.02
206.724	35.84
206.943	-5.12
207.162	17.41
207.381	13.31
207.599	-9.22
207.818	-54.27
208.037	-19.46
208.255	35.84
208.474	17.41
208.693	-9.22
208.911	23.55
209.13	-5.12
209.349	15.36
209.567	-9.22
209.786	117.76
210.005	60.42
210.223	17.41
210.442	-66.56
210.661	11.26
210.879	35.84
211.098	-25.6
211.316	-21.5
211.535	68.61
211.753	31.74
211.972	-31.74
212.191	1.02
212.409	111.61
212.628	89.09
212.846	29.7
213.065	66.56
213.283	-7.17
213.502	23.55
213.72	37.89
213.938	-15.36
214.157	-31.74
214.375	5.12
214.594	-37.89
214.812	115.71
215.031	54.27
215.249	-13.31
215.467	44.03
215.686	3.07
215.904	13.31
216.122	50.18
216.341	50.18
216.559	-11.26
216.778	-13.31
216.996	41.98
217.214	1.02
217.432	31.74
217.651	33.79
217.869	21.5
218.087	-1.02
218.306	72.7
218.524	29.7
218.742	-13.31
218.96	78.85
219.179	31.74
219.397	33.79
219.615	80.89
219.833	52.22
220.051	-44.03
220.27	35.84
220.488	37.89
220.706	11.26
220.924	23.55
221.142	58.37
221.36	44.03
221.578	48.13
221.796	52.22
222.015	-52.22
222.233	68.61
222.451	64.51
222.669	-25.6
222.887	19.46
223.105	56.32
223.323	70.65
223.541	3.07
223.759	15.36
223.977	-17.41
224.195	87.04
224.413	48.13
224.631	74.75
224.849	15.36
225.067	64.51
225.285	66.56
225.503	17.41
225.721	1.02
225.939	52.22
226.157	-19.46
226.375	31.74
226.592	60.42
226.81	3.07
227.028	21.5
227.246	76.8
227.464	-5.12
227.682	56.32
227.9	35.84
228.117	68.61
228.335	52.22
228.553	64.51
228.771	-41.98
228.989	-13.31
229.206	58.37
229.424	-50.18
229.642	9.22
229.86	5.12
230.077	15.36
230.295	29.7
230.513	37.89
230.731	35.84
230.948	35.84
231.166	125.95
231.384	-13.31
231.601	11.26
231.819	31.74
232.037	-41.98
232.254	31.74
232.472	111.61
232.689	-23.55
232.907	-25.6
233.125	13.31
233.342	80.89
233.56	-33.79
233.777	-5.12
233.995	56.32
234.213	27.65
234.43	48.13
234.648	62.46
234.865	21.5
235.083	29.7
235.3	-41.98
235.518	-33.79
235.735	95.23
235.953	9.22
236.17	29.7
236.388	11.26
236.605	101.37
236.822	5.12
237.04	25.6
237.257	27.65
237.475	19.46
237.692	7.17
237.909	-21.5
238.127	64.51
238.344	58.37
238.562	33.79
238.779	3.07
238.996	115.71
239.214	11.26
239.431	31.74
239.648	56.32
239.865	31.74
240.083	17.41
240.3	31.74
240.517	-5.12
240.735	62.46
240.952	74.75
241.169	17.41
241.386	33.79
241.603	17.41
241.821	19.46
242.038	-7.17
242.255	21.5
242.472	23.55
242.689	9.22
242.907	17.41
243.124	35.84
243.341	-3.07
243.558	56.32
243.775	74.75
243.992	27.65
244.209	29.7
244.426	-9.22
244.643	17.41
244.86	15.36
245.078	-25.6
245.295	31.74
245.512	93.18
245.729	-44.03
245.946	44.03
246.163	48.13
246.38	-5.12
246.597	39.94
246.814	33.79
247.031	1.02
247.248	-54.27
247.464	3.07
247.681	-13.31
247.898	-25.6
248.115	-1.02
248.332	15.36
248.549	39.94
248.766	11.26
248.983	-25.6
249.2	-9.22
249.417	7.17
249.633	82.94
249.85	-31.74
250.067	-39.94
250.284	27.65
250.501	31.74
250.717	31.74
250.934	31.74
251.151	13.31
251.368	17.41
251.585	50.18
251.801	48.13
252.018	11.26
252.235	33.79
252.451	37.89
252.668	62.46
252.885	21.5
253.102	11.26
253.318	48.13
253.535	11.26
253.752	-29.7
253.968	-50.18
254.185	50.18
254.401	48.13
254.618	134.14
254.835	15.36
255.051	72.7
255.268	3.07
255.484	-13.31
255.701	9.22
255.917	27.65
256.134	41.98
256.351	-5.12
256.567	-23.55
256.784	72.7
257	-25.6
257.217	23.55
257.433	3.07
257.65	27.65
257.866	62.46
258.082	89.09
258.299	21.5
258.515	-15.36
258.732	-37.89
258.948	-76.8
259.165	27.65
259.381	9.22
259.597	46.08
259.814	23.55
260.03	9.22
260.246	113.66
260.463	62.46
260.679	64.51
260.895	13.31
261.112	39.94
261.328	-46.08
261.544	41.98
261.761	87.04
261.977	15.36
262.193	3.07
262.409	56.32
262.626	3.07
262.842	-3.07
263.058	-54.27
263.274	58.37
263.49	52.22
263.707	25.6
263.923	54.27
264.139	9.22
264.355	23.55
264.571	62.46
264.787	82.94
265.004	-5.12
265.22	-19.46
265.436	17.41
265.652	-15.36
265.868	58.37
266.084	87.04
266.3	29.7
266.516	31.74
266.732	97.28
266.948	-3.07
267.164	39.94
267.38	66.56
267.596	17.41
267.812	117.76
268.028	31.74
268.244	60.42
268.46	-7.17
268.676	39.94
268.892	113.66
269.108	-17.41
269.324	-7.17
269.54	-3.07
269.756	7.17
269.972	13.31
270.188	-1.02
270.403	1.02
270.619	41.98
270.835	3.07
271.051	41.98
271.267	15.36
271.483	29.7
271.698	15.36
271.914	97.28
272.13	46.08
272.346	-11.26
272.562	23.55
272.777	35.84
272.993	17.41
273.209	27.65
273.425	-31.74
273.64	54.27
273.856	3.07
274.072	48.13
274.287	66.56
274.503	48.13
274.719	56.32
274.934	58.37
275.15	-27.65
275.366	1.02
275.581	54.27
275.797	31.74
276.012	-1.02
276.228	41.98
276.444	68.61
276.659	64.51
276.875	11.26
277.09	11.26
277.306	13.31
277.521	128
277.737	-17.41
277.952	13.31
278.168	19.46
278.383	44.03
278.599	15.36
278.814	17.41
279.03	17.41
279.245	52.22
279.461	-23.55
279.676	-17.41
279.892	-29.7
280.107	52.22
280.322	37.89
280.538	-3.07
280.753	35.84
280.969	35.84
281.184	54.27
281.399	25.6
281.615	-3.07
281.83	9.22
282.045	-23.55
282.26	-54.27
282.476	7.17
282.691	35.84
282.906	7.17
283.122	23.55
283.337	50.18
283.552	50.18
283.767	72.7
283.983	11.26
284.198	64.51
284.413	58.37
284.628	-27.65
284.843	-19.46
285.058	60.42
285.274	-48.13
285.489	-64.51
285.704	-25.6
285.919	-29.7
286.134	-15.36
286.349	15.36
286.564	11.26
286.779	99.33
286.995	31.74
287.21	13.31
287.425	37.89
287.64	-17.41
287.855	70.65
288.07	17.41
288.285	17.41
288.5	7.17
288.715	23.55
288.93	13.31
289.145	19.46
289.36	17.41
289.575	-31.74
289.79	84.99
290.004	5.12
290.219	29.7
290.434	35.84
290.649	-11.26
290.864	33.79
291.079	21.5
291.294	-23.55
291.509	21.5
291.724	-3.07
291.938	15.36
292.153	-52.22
292.368	44.03
292.583	-39.94
292.798	21.5
293.012	41.98
293.227	33.79
293.442	-17.41
293.657	17.41
293.871	15.36
294.086	44.03
294.301	17.41
294.516	-17.41
294.73	58.37
294.945	56.32
295.16	11.26
295.374	7.17
295.589	66.56
295.804	33.79
296.018	70.65
296.233	37.89
296.447	48.13
296.662	17.41
296.877	54.27
297.091	52.22
297.306	-13.31
297.52	44.03
297.735	44.03
297.949	13.31
298.164	33.79
298.378	7.17
298.593	-13.31
298.807	37.89
299.022	25.6
299.236	66.56
299.451	-33.79
299.665	-17.41
299.88	-1.02
300.094	13.31
300.309	29.7
300.523	72.7
300.737	29.7
300.952	52.22
301.166	33.79
301.381	-17.41
301.595	5.12
301.809	84.99
302.024	-15.36
302.238	44.03
302.452	-21.5
302.667	-37.89
302.881	101.37
303.095	25.6
303.309	46.08
303.524	31.74
303.738	13.31
303.952	-9.22
304.166	-35.84
304.381	-21.5
304.595	97.28
304.809	-41.98
305.023	52.22
305.237	48.13
305.452	105.47
305.666	-27.65
305.88	52.22
306.094	21.5
306.308	46.08
306.522	103.42
306.736	60.42
306.95	9.22
307.164	95.23
307.379	15.36
307.593	52.22
307.807	60.42
308.021	99.33
308.235	29.7
308.449	13.31
308.663	46.08
308.877	29.7
309.091	13.31
309.305	70.65
309.519	84.99
309.733	23.55
309.947	33.79
310.161	25.6
310.374	37.89
310.588	-19.46
310.802	11.26
311.016	-39.94
311.23	9.22
311.444	23.55
311.658	-44.03
311.872	7.17
312.085	-17.41
312.299	17.41
312.513	17.41
312.727	5.12
312.941	15.36
313.154	-5.12
313.368	44.03
313.582	17.41
313.796	-17.41
314.009	-60.42
314.223	21.5
314.437	9.22
314.651	44.03
314.864	25.6
315.078	76.8
315.292	91.13
315.505	29.7
315.719	76.8
315.933	21.5
316.146	13.31
316.36	-21.5
316.573	27.65
316.787	50.18
317.001	84.99
317.214	7.17
317.428	19.46
317.641	-1.02
317.855	21.5
318.068	-11.26
318.282	60.42
318.495	52.22
318.709	52.22
318.922	-29.7
319.136	66.56
319.349	107.52
319.563	62.46
319.776	23.55
319.99	23.55
320.203	21.5
320.417	66.56
320.63	27.65
320.843	-21.5
321.057	52.22
321.27	17.41
321.483	68.61
321.697	19.46
321.91	-1.02
322.124	46.08
322.337	-19.46
322.55	-13.31
322.763	-54.27
322.977	60.42
323.19	-46.08
323.403	76.8
323.617	-5.12
323.83	5.12
324.043	50.18
324.256	44.03
324.469	48.13
324.683	31.74
324.896	66.56
325.109	11.26
325.322	1.02
325.535	44.03
325.748	3.07
325.962	62.46
326.175	-3.07
326.388	29.7
326.601	-9.22
326.814	91.13
327.027	39.94
327.24	9.22
327.453	-15.36
327.666	19.46
327.879	-27.65
328.092	48.13
328.305	31.74
328.518	-3.07
328.731	1.02
328.944	31.74
329.157	-25.6
329.37	23.55
329.583	105.47
329.796	76.8
330.009	-23.55
330.222	46.08
330.435	7.17
330.648	84.99
330.861	1.02
331.073	44.03
331.286	31.74
331.499	82.94
331.712	13.31
331.925	-17.41
332.138	50.18
332.35	84.99
332.563	1.02
332.776	31.74
332.989	23.55
333.202	11.26
333.414	76.8
333.627	-5.12
333.84	9.22
334.053	25.6
334.265	3.07
334.478	5.12
334.691	64.51
334.903	39.94
335.116	52.22
335.329	52.22
335.541	-17.41
335.754	48.13
335.966	25.6
336.179	29.7
336.392	-21.5
336.604	-56.32
336.817	25.6
337.029	5.12
337.242	-11.26
337.454	7.17
337.667	54.27
337.88	50.18
338.092	21.5
338.305	17.41
338.517	-7.17
338.729	37.89
338.942	70.65
339.154	-13.31
339.367	-66.56
339.579	82.94
339.792	21.5
340.004	68.61
340.217	11.26
340.429	60.42
340.641	54.27
340.854	52.22
341.066	54.27
341.278	82.94
341.491	80.89
341.703	46.08
341.915	33.79
342.128	76.8
342.34	52.22
342.552	31.74
342.764	39.94
342.977	21.5
343.189	-11.26
343.401	107.52
343.613	-3.07
343.826	-25.6
344.038	-29.7
344.25	29.7
344.462	21.5
344.674	50.18
344.886	33.79
345.099	-27.65
345.311	99.33
345.523	46.08
345.735	-13.31
345.947	99.33
346.159	41.98
346.371	-21.5
346.583	17.41
346.795	117.76
347.007	19.46
347.219	5.12
347.431	-15.36
347.643	48.13
347.855	17.41
348.067	-31.74
348.279	21.5
348.491	-15.36
348.703	97.28
348.915	17.41
349.127	60.42
349.339	23.55
349.551	23.55
349.763	60.42
349.975	27.65
350.187	25.6
350.399	48.13
350.61	93.18
350.822	5.12
351.034	80.89
351.246	48.13
351.458	17.41
351.669	80.89
351.881	-7.17
352.093	39.94
352.305	29.7
352.517	68.61
352.728	93.18
352.94	74.75
353.152	54.27
353.363	3.07
353.575	48.13
353.787	62.46
353.999	74.75
354.21	44.03
354.422	33.79
354.633	23.55
354.845	64.51
355.057	56.32
355.268	25.6
355.48	113.66
355.692	31.74
355.903	103.42
356.115	60.42
356.326	60.42
356.538	66.56
356.749	-58.37
356.961	101.37
357.172	64.51
357.384	80.89
357.595	91.13
357.807	23.55
358.018	-25.6
358.23	33.79
358.441	39.94
358.653	66.56
358.864	27.65
359.075	-11.26
359.287	11.26
359.498	107.52
359.709	62.46
359.921	82.94
360.132	68.61
360.344	52.22
360.555	60.42
360.766	-37.89
360.977	7.17
361.189	70.65
361.4	105.47
361.611	72.7
361.823	52.22
362.034	41.98
362.245	-5.12
362.456	-11.26
362.667	82.94
362.879	15.36
363.09	19.46
363.301	31.74
363.512	50.18
363.723	17.41
363.935	-1.02
364.146	35.84
364.357	-9.22
364.568	60.42
364.779	-11.26
364.99	17.41
365.201	-27.65
365.412	41.98
365.623	74.75
365.834	62.46
366.045	74.75
366.256	72.7
366.467	87.04
366.678	29.7
366.889	117.76
367.1	-15.36
367.311	54.27
367.522	56.32
367.733	56.32
367.944	125.95
368.155	-21.5
368.366	-33.79
368.577	-17.41
368.788	48.13
368.999	-19.46
369.209	66.56
369.42	113.66
369.631	115.71
369.842	-13.31
370.053	48.13
370.264	84.99
370.474	-54.27
370.685	13.31
370.896	109.57
371.107	44.03
371.317	74.75
371.528	44.03
371.739	13.31
371.95	103.42
372.16	91.13
372.371	11.26
372.582	17.41
372.792	11.26
373.003	-11.26
373.214	144.38
373.424	99.33
373.635	48.13
373.846	107.52
374.056	37.89
374.267	46.08
374.477	46.08
374.688	17.41
374.898	31.74
375.109	52.22
375.319	21.5
375.53	35.84
375.74	50.18
375.951	91.13
376.161	50.18
376.372	103.42
376.582	15.36
376.793	-31.74
377.003	89.09
377.214	25.6
377.424	29.7
377.635	17.41
377.845	-31.74
378.055	117.76
378.266	21.5
378.476	39.94
378.686	23.55
378.897	56.32
379.107	87.04
379.317	74.75
379.528	41.98
379.738	56.32
379.948	-11.26
380.158	54.27
380.369	39.94
380.579	89.09
380.789	78.85
380.999	82.94
381.21	97.28
381.42	105.47
381.63	-35.84
381.84	95.23
382.05	82.94
382.261	84.99
382.471	39.94
382.681	33.79
382.891	134.14
383.101	39.94
383.311	-17.41
383.521	-3.07
383.731	93.18
383.941	97.28
384.151	-9.22
384.361	41.98
384.571	35.84
384.781	19.46
384.991	21.5
385.201	121.85
385.411	44.03
385.621	74.75
385.831	56.32
386.041	17.41
386.251	87.04
386.461	46.08
386.671	64.51
386.881	50.18
387.091	35.84
387.301	31.74
387.511	7.17
387.72	50.18
387.93	56.32
388.14	-7.17
388.35	58.37
388.56	107.52
388.769	64.51
388.979	37.89
389.189	25.6
389.399	91.13
389.609	56.32
389.818	109.57
390.028	23.55
390.238	82.94
390.447	23.55
390.657	72.7
390.867	52.22
391.076	37.89
391.286	44.03
391.496	84.99
391.705	23.55
391.915	101.37
392.125	119.81
392.334	93.18
392.544	103.42
392.753	50.18
392.963	11.26
393.172	21.5
393.382	140.29
393.591	128
393.801	125.95
394.01	115.71
394.22	103.42
394.429	58.37
394.639	80.89
394.848	87.04
395.058	50.18
395.267	48.13
395.477	52.22
395.686	41.98
395.895	91.13
396.105	95.23
396.314	89.09
396.524	91.13
396.733	21.5
396.942	142.33
397.152	115.71
397.361	105.47
397.57	52.22
397.78	64.51
397.989	62.46
398.198	132.09
398.407	107.52
398.617	82.94
398.826	68.61
399.035	89.09
399.244	171.01
399.453	87.04
399.663	191.49
399.872	101.37
400.081	72.7
400.29	154.62
400.499	76.8
400.708	128
400.917	150.53
401.127	154.62
401.336	21.5
401.545	158.72
401.754	68.61
401.963	134.14
402.172	87.04
402.381	70.65
402.59	136.19
402.799	189.44
403.008	130.05
403.217	89.09
403.426	140.29
403.635	123.9
403.844	130.05
404.053	125.95
404.262	105.47
404.471	156.67
404.68	168.96
404.888	121.85
405.097	119.81
405.306	214.01
405.515	175.1
405.724	214.01
405.933	134.14
406.142	134.14
406.35	254.97
406.559	226.3
406.768	109.57
406.977	173.05
407.185	224.25
407.394	195.58
407.603	199.68
407.812	207.87
408.02	263.16
408.229	181.25
408.438	228.35
408.646	242.68
408.855	316.41
409.064	285.69
409.272	187.39
409.481	355.32
409.69	252.92
409.898	318.46
410.107	306.17
410.315	371.71
410.524	306.17
410.733	322.56
410.941	257.02
411.15	361.47
411.358	379.9
411.567	435.19
411.775	404.47
411.984	330.75
412.192	453.63
412.401	420.86
412.609	515.06
412.818	519.16
413.026	459.77
413.234	625.65
413.443	578.55
413.651	605.17
413.86	556.02
414.068	723.96
414.276	527.35
414.485	648.18
414.693	699.38
414.901	687.09
415.11	670.71
415.318	760.82
415.526	828.4
415.734	715.77
415.943	840.69
416.151	904.18
416.359	846.84
416.567	943.09
416.776	898.03
416.984	998.38
417.192	1059.82
417.4	928.75
417.608	986.1
417.817	1108.98
418.025	1184.75
418.233	1264.62
418.441	1135.6
418.649	1233.9
418.857	1350.64
419.065	1369.07
419.273	1391.59
419.481	1354.73
419.689	1500.14
419.897	1541.1
420.105	1696.74
420.313	1627.11
420.521	1709.03
420.729	1653.73
420.937	1815.52
421.145	1813.48
421.353	1899.49
421.561	2036.7
421.769	1991.65
421.977	2159.58
422.185	2120.67
422.393	2190.3
422.601	2403.29
422.809	2409.44
423.017	2364.38
423.224	2497.5
423.432	2661.34
423.64	2515.93
423.848	2733.01
424.056	2898.9
424.263	3003.35
424.471	2984.91
424.679	3036.11
424.887	3171.28
425.094	3343.31
425.302	3292.11
425.51	3544.01
425.718	3605.45
425.925	3623.88
426.133	3634.12
426.341	3988.42
426.548	4135.87
426.756	4174.78
426.964	4248.51
427.171	4506.56
427.379	4586.43
427.586	4654.01
427.794	4611
428.001	4969.4
428.209	5168.05
428.417	5184.43
428.624	5399.47
428.832	5522.35
429.039	5352.37
429.247	5512.11
429.454	6032.29
429.662	6321.06
429.869	5989.28
430.076	6433.69
430.284	6179.75
430.491	6470.56
430.699	6787.99
430.906	6712.22
431.114	7039.89
431.321	7230.35
431.528	7261.07
431.736	7789.45
431.943	8012.68
432.15	7992.2
432.358	8008.58
432.565	8354.69
432.772	8311.68
432.979	8995.7
433.187	8995.7
433.394	9151.35
433.601	9782.12
433.808	9642.86
434.016	9671.53
434.223	10163.04
434.43	10613.6
434.637	10361.7
434.844	11174.74
435.052	11426.64
435.259	11066.2
435.466	11172.69
435.673	11299.67
435.88	11707.21
436.087	12489.54
436.294	12692.29
436.501	12297.03
436.708	12540.74
436.915	13009.72
437.122	13415.22
437.329	13450.03
437.537	14068.52
437.743	14201.64
437.95	14091.05
438.157	14861.09
438.364	15364.89
438.571	15196.95
438.778	15379.22
438.985	16878.33
439.192	16190.22
439.399	16481.03
439.606	16505.6
439.813	17163
440.02	18252.52
440.227	17986.29
440.433	17885.94
440.64	18340.58
440.847	18316.01
441.054	18694.88
441.261	20126.41
441.467	19700.44
441.674	19989.2
441.881	20716.23
442.088	20720.32
442.294	20751.04
442.501	21252.8
442.708	21742.26
442.914	22383.27
443.121	23452.31
443.328	22620.84
443.534	24224.4
443.741	23628.44
443.948	23122.59
444.154	24814.21
444.361	25217.66
444.568	25158.27
444.774	25062.02
444.981	25428.6
445.187	26305.13
445.394	27574.88
445.6	26790.5
445.807	29264.45
446.013	28398.16
446.22	28764.75
446.426	30048.82
446.633	30226.99
446.839	30687.79
447.046	29866.55
447.252	31681.05
447.459	31484.45
447.665	31293.99
447.871	32401.94
448.078	34388.47
448.284	32637.45
448.491	33360.39
448.697	34830.83
448.903	35293.67
449.11	35111.4
449.316	34945.51
449.522	35514.85
449.728	36305.37
449.935	36749.78
450.141	36860.37
450.347	37409.22
450.553	36547.03
450.76	36932.04
450.966	37804.48
451.172	37474.76
451.378	38814.13
451.584	37796.29
451.791	38613.43
451.997	38703.54
452.203	38959.53
452.409	38832.56
452.615	39029.16
452.821	37331.4
453.027	37218.76
453.233	39260.58
453.44	37773.76
453.646	38277.56
453.852	38240.7
454.058	38975.92
454.264	37519.81
454.47	38298.04
454.676	37312.97
454.882	38730.16
455.088	35523.04
455.294	35672.54
455.5	36436.44
455.705	37083.59
455.911	35570.15
456.117	34580.98
456.323	34595.31
456.529	32494.1
456.735	33833.47
456.941	33079.82
457.147	32461.33
457.352	31545.89
457.558	31244.84
457.764	31142.44
457.97	30784.04
458.176	30124.6
458.381	30143.03
458.587	28525.13
458.793	28600.91
458.999	27159.14
459.204	28924.49
459.41	28113.49
459.616	26352.24
459.821	26440.3
460.027	26241.65
460.233	25733.75
460.438	24367.76
460.644	24767.11
460.85	23552.66
461.055	23507.61
461.261	22999.71
461.466	21576.37
461.672	21156.54
461.878	22432.43
462.083	20806.34
462.289	20404.94
462.494	20191.95
462.7	19225.31
462.905	18995.93
463.111	19466.97
463.316	19403.48
463.522	18997.98
463.727	19305.18
463.932	18905.82
464.138	18991.84
464.343	19217.11
464.549	18332.39
464.754	18897.63
464.959	19065.57
465.165	18453.22
465.37	17758.96
465.575	17414.9
465.781	18244.33
465.986	18371.3
466.191	17677.04
466.397	17408.76
466.602	16253.7
466.807	17095.42
467.012	17380.09
467.218	17109.75
467.423	17074.94
467.628	16720.64
467.833	17672.95
