Data from USB4F104151__91__11-45-44-366.txt Node

Date: Fri Mar 14 11:45:44 EDT 2025
User: louis
Spectrometer: USB4F10415
Trigger mode: 4
Integration Time (sec): 2.000000E-2
Scans to average: 1
Electric dark correction enabled: true
Nonlinearity correction enabled: false
Boxcar width: 0
XAxis mode: Wavelengths
Number of Pixels in Spectrum: 3648
>>>>>Begin Spectral Data<<<<<
178.204	-64.85
178.424	-64.85
178.644	-64.85
178.864	-30.04
179.084	-68.95
179.304	-58.71
179.524	-50.52
179.744	15.02
179.964	-25.94
180.184	84.65
180.404	43.69
180.624	58.03
180.844	-40.28
181.064	-30.04
181.283	17.07
181.503	-81.24
181.723	68.27
181.943	-13.65
182.163	105.13
182.383	-64.85
182.602	15.02
182.822	-23.89
183.042	10.92
183.262	-17.75
183.482	-52.56
183.701	51.88
183.921	-7.51
184.141	-13.65
184.361	19.11
184.58	-13.65
184.8	-30.04
185.02	-23.89
185.239	12.97
185.459	33.45
185.679	-75.09
185.898	23.21
186.118	-19.8
186.338	68.27
186.557	-7.51
186.777	-42.32
186.997	-93.52
187.216	8.87
187.436	0.68
187.655	19.11
187.875	64.17
188.095	-3.41
188.314	68.27
188.534	74.41
188.753	-60.76
188.973	23.21
189.192	35.5
189.412	-60.76
189.631	-30.04
189.851	17.07
190.07	37.55
190.29	-40.28
190.509	-21.85
190.729	-3.41
190.948	-21.85
191.168	74.41
191.387	70.31
191.607	-25.94
191.826	4.78
192.045	23.21
192.265	-30.04
192.484	-13.65
192.704	58.03
192.923	-5.46
193.142	39.59
193.362	8.87
193.581	37.55
193.8	53.93
194.02	66.22
194.239	-19.8
194.458	35.5
194.678	-36.18
194.897	-17.75
195.116	33.45
195.335	35.5
195.555	-21.85
195.774	15.02
195.993	68.27
196.212	8.87
196.432	-21.85
196.651	-1.37
196.87	-19.8
197.089	111.27
197.308	21.16
197.528	33.45
197.747	-13.65
197.966	-27.99
198.185	-15.7
198.404	76.46
198.623	31.4
198.842	35.5
199.062	70.31
199.281	53.93
199.5	41.64
199.719	-17.75
199.938	15.02
200.157	82.6
200.376	27.31
200.595	12.97
200.814	33.45
201.033	21.16
201.252	2.73
201.471	72.36
201.69	-11.61
201.909	55.98
202.128	21.16
202.347	-38.23
202.566	0.68
202.785	45.74
203.004	-56.66
203.223	29.35
203.442	27.31
203.661	-44.37
203.879	6.83
204.098	45.74
204.317	-13.65
204.536	-7.51
204.755	4.78
204.974	-11.61
205.193	64.17
205.411	66.22
205.63	10.92
205.849	72.36
206.068	-73.04
206.287	27.31
206.505	47.79
206.724	-13.65
206.943	21.16
207.162	-19.8
207.381	-17.75
207.599	27.31
207.818	21.16
208.037	4.78
208.255	-54.61
208.474	-64.85
208.693	6.83
208.911	33.45
209.13	27.31
209.349	27.31
209.567	10.92
209.786	6.83
210.005	37.55
210.223	37.55
210.442	0.68
210.661	-56.66
210.879	-15.7
211.098	4.78
211.316	39.59
211.535	4.78
211.753	-46.42
211.972	2.73
212.191	31.4
212.409	-42.32
212.628	19.11
212.846	15.02
213.065	53.93
213.283	64.17
213.502	21.16
213.72	23.21
213.938	-38.23
214.157	15.02
214.375	-17.75
214.594	-11.61
214.812	-44.37
215.031	15.02
215.249	-75.09
215.467	86.7
215.686	-7.51
215.904	-23.89
216.122	70.31
216.341	41.64
216.559	64.17
216.778	15.02
216.996	41.64
217.214	55.98
217.432	51.88
217.651	-38.23
217.869	-5.46
218.087	17.07
218.306	-7.51
218.524	33.45
218.742	62.12
218.96	-13.65
219.179	17.07
219.397	55.98
219.615	4.78
219.833	45.74
220.051	-27.99
220.27	51.88
220.488	25.26
220.706	101.03
220.924	31.4
221.142	62.12
221.36	41.64
221.578	51.88
221.796	27.31
222.015	15.02
222.233	49.83
222.451	37.55
222.669	2.73
222.887	-40.28
223.105	-27.99
223.323	29.35
223.541	12.97
223.759	4.78
223.977	-17.75
224.195	109.22
224.413	70.31
224.631	45.74
224.849	29.35
225.067	-15.7
225.285	17.07
225.503	-54.61
225.721	10.92
225.939	31.4
226.157	35.5
226.375	17.07
226.592	6.83
226.81	27.31
227.028	64.17
227.246	29.35
227.464	45.74
227.682	41.64
227.9	33.45
228.117	78.51
228.335	-27.99
228.553	-68.95
228.771	-23.89
228.989	-1.37
229.206	6.83
229.424	-66.9
229.642	6.83
229.86	-30.04
230.077	15.02
230.295	29.35
230.513	0.68
230.731	-15.7
230.948	-7.51
231.166	125.61
231.384	-13.65
231.601	17.07
231.819	62.12
232.037	10.92
232.254	-7.51
232.472	12.97
232.689	29.35
232.907	47.79
233.125	39.59
233.342	8.87
233.56	-17.75
233.777	0.68
233.995	45.74
234.213	60.07
234.43	15.02
234.648	33.45
234.865	19.11
235.083	27.31
235.3	2.73
235.518	74.41
235.735	15.02
235.953	43.69
236.17	66.22
236.388	15.02
236.605	8.87
236.822	6.83
237.04	43.69
237.257	43.69
237.475	-71
237.692	33.45
237.909	49.83
238.127	15.02
238.344	64.17
238.562	-19.8
238.779	-13.65
238.996	60.07
239.214	-46.42
239.431	43.69
239.648	39.59
239.865	60.07
240.083	55.98
240.3	-11.61
240.517	2.73
240.735	6.83
240.952	2.73
241.169	31.4
241.386	-3.41
241.603	-7.51
241.821	17.07
242.038	-36.18
242.255	0.68
242.472	-11.61
242.689	35.5
242.907	58.03
243.124	0.68
243.341	-54.61
243.558	-25.94
243.775	8.87
243.992	-56.66
244.209	4.78
244.426	62.12
244.643	47.79
244.86	-36.18
245.078	78.51
245.295	72.36
245.512	49.83
245.729	-23.89
245.946	31.4
246.163	-13.65
246.38	92.84
246.597	8.87
246.814	29.35
247.031	6.83
247.248	101.03
247.464	-5.46
247.681	53.93
247.898	-3.41
248.115	33.45
248.332	45.74
248.549	17.07
248.766	123.56
248.983	19.11
249.2	-19.8
249.417	47.79
249.633	-46.42
249.85	70.31
250.067	-9.56
250.284	98.99
250.501	35.5
250.717	72.36
250.934	-56.66
251.151	2.73
251.368	37.55
251.585	76.46
251.801	-27.99
252.018	4.78
252.235	33.45
252.451	17.07
252.668	58.03
252.885	58.03
253.102	-36.18
253.318	10.92
253.535	-27.99
253.752	-36.18
253.968	-11.61
254.185	-36.18
254.401	4.78
254.618	39.59
254.835	33.45
255.051	33.45
255.268	6.83
255.484	-13.65
255.701	53.93
255.917	-3.41
256.134	6.83
256.351	37.55
256.567	-15.7
256.784	12.97
257	-50.52
257.217	43.69
257.433	12.97
257.65	10.92
257.866	43.69
258.082	-15.7
258.299	-36.18
258.515	88.75
258.732	-17.75
258.948	74.41
259.165	-11.61
259.381	45.74
259.597	66.22
259.814	41.64
260.03	-17.75
260.246	10.92
260.463	29.35
260.679	29.35
260.895	25.26
261.112	-58.71
261.328	51.88
261.544	-30.04
261.761	15.02
261.977	82.6
262.193	-58.71
262.409	123.56
262.626	-23.89
262.842	-25.94
263.058	-7.51
263.274	19.11
263.49	68.27
263.707	47.79
263.923	51.88
264.139	37.55
264.355	-40.28
264.571	-3.41
264.787	53.93
265.004	17.07
265.22	21.16
265.436	47.79
265.652	-40.28
265.868	17.07
266.084	-32.08
266.3	-11.61
266.516	-15.7
266.732	-1.37
266.948	15.02
267.164	8.87
267.38	37.55
267.596	31.4
267.812	68.27
268.028	70.31
268.244	27.31
268.46	-32.08
268.676	58.03
268.892	72.36
269.108	37.55
269.324	47.79
269.54	41.64
269.756	74.41
269.972	-27.99
270.188	-25.94
270.403	-13.65
270.619	49.83
270.835	53.93
271.051	25.26
271.267	-25.94
271.483	86.7
271.698	6.83
271.914	-25.94
272.13	64.17
272.346	27.31
272.562	-36.18
272.777	66.22
272.993	-11.61
273.209	53.93
273.425	-1.37
273.64	17.07
273.856	4.78
274.072	35.5
274.287	31.4
274.503	82.6
274.719	4.78
274.934	8.87
275.15	47.79
275.366	43.69
275.581	55.98
275.797	78.51
276.012	-9.56
276.228	-46.42
276.444	-17.75
276.659	33.45
276.875	2.73
277.09	53.93
277.306	-36.18
277.521	62.12
277.737	39.59
277.952	6.83
278.168	21.16
278.383	-11.61
278.599	-21.85
278.814	23.21
279.03	-36.18
279.245	19.11
279.461	25.26
279.676	17.07
279.892	72.36
280.107	55.98
280.322	25.26
280.538	49.83
280.753	60.07
280.969	-3.41
281.184	78.51
281.399	-11.61
281.615	53.93
281.83	-13.65
282.045	2.73
282.26	10.92
282.476	-5.46
282.691	-17.75
282.906	53.93
283.122	-13.65
283.337	51.88
283.552	-3.41
283.767	-23.89
283.983	12.97
284.198	-5.46
284.413	60.07
284.628	-36.18
284.843	64.17
285.058	25.26
285.274	2.73
285.489	-60.76
285.704	25.26
285.919	27.31
286.134	10.92
286.349	10.92
286.564	43.69
286.779	17.07
286.995	-19.8
287.21	-62.8
287.425	12.97
287.64	74.41
287.855	12.97
288.07	10.92
288.285	2.73
288.5	23.21
288.715	53.93
288.93	-5.46
289.145	47.79
289.36	-46.42
289.575	15.02
289.79	15.02
290.004	37.55
290.219	64.17
290.434	43.69
290.649	17.07
290.864	39.59
291.079	-83.28
291.294	17.07
291.509	-40.28
291.724	10.92
291.938	-5.46
292.153	-7.51
292.368	27.31
292.583	15.02
292.798	-68.95
293.012	58.03
293.227	2.73
293.442	58.03
293.657	4.78
293.871	94.89
294.086	27.31
294.301	33.45
294.516	64.17
294.73	-60.76
294.945	-48.47
295.16	21.16
295.374	53.93
295.589	66.22
295.804	-11.61
296.018	-19.8
296.233	37.55
296.447	84.65
296.662	47.79
296.877	-19.8
297.091	-19.8
297.306	27.31
297.52	41.64
297.735	0.68
297.949	39.59
298.164	74.41
298.378	8.87
298.593	-15.7
298.807	-30.04
299.022	49.83
299.236	45.74
299.451	6.83
299.665	27.31
299.88	35.5
300.094	-13.65
300.309	-1.37
300.523	51.88
300.737	8.87
300.952	-15.7
301.166	37.55
301.381	74.41
301.595	-27.99
301.809	39.59
302.024	23.21
302.238	12.97
302.452	33.45
302.667	8.87
302.881	45.74
303.095	78.51
303.309	-7.51
303.524	-25.94
303.738	-52.56
303.952	-15.7
304.166	86.7
304.381	29.35
304.595	94.89
304.809	31.4
305.023	-13.65
305.237	0.68
305.452	8.87
305.666	-40.28
305.88	-89.43
306.094	49.83
306.308	53.93
306.522	-21.85
306.736	31.4
306.95	25.26
307.164	-44.37
307.379	-44.37
307.593	51.88
307.807	45.74
308.021	60.07
308.235	0.68
308.449	-11.61
308.663	19.11
308.877	33.45
309.091	-15.7
309.305	2.73
309.519	8.87
309.733	35.5
309.947	23.21
310.161	47.79
310.374	51.88
310.588	33.45
310.802	62.12
311.016	4.78
311.23	10.92
311.444	74.41
311.658	-34.13
311.872	53.93
312.085	15.02
312.299	6.83
312.513	-5.46
312.727	35.5
312.941	-52.56
313.154	17.07
313.368	60.07
313.582	37.55
313.796	76.46
314.009	-23.89
314.223	-23.89
314.437	76.46
314.651	58.03
314.864	-21.85
315.078	-25.94
315.292	45.74
315.505	19.11
315.719	27.31
315.933	-30.04
316.146	6.83
316.36	-7.51
316.573	10.92
316.787	17.07
317.001	-38.23
317.214	0.68
317.428	8.87
317.641	-11.61
317.855	37.55
318.068	-5.46
318.282	-42.32
318.495	-7.51
318.709	8.87
318.922	2.73
319.136	-9.56
319.349	21.16
319.563	35.5
319.776	-32.08
319.99	-32.08
320.203	29.35
320.417	39.59
320.63	-13.65
320.843	72.36
321.057	49.83
321.27	19.11
321.483	27.31
321.697	58.03
321.91	-68.95
322.124	2.73
322.337	74.41
322.55	-13.65
322.763	-7.51
322.977	15.02
323.19	19.11
323.403	17.07
323.617	-13.65
323.83	94.89
324.043	-54.61
324.256	15.02
324.469	4.78
324.683	8.87
324.896	21.16
325.109	-25.94
325.322	-30.04
325.535	66.22
325.748	17.07
325.962	-13.65
326.175	64.17
326.388	49.83
326.601	78.51
326.814	19.11
327.027	53.93
327.24	15.02
327.453	82.6
327.666	-13.65
327.879	-19.8
328.092	39.59
328.305	68.27
328.518	31.4
328.731	21.16
328.944	4.78
329.157	60.07
329.37	64.17
329.583	-1.37
329.796	158.38
330.009	-93.52
330.222	25.26
330.435	66.22
330.648	19.11
330.861	21.16
331.073	0.68
331.286	12.97
331.499	2.73
331.712	27.31
331.925	-68.95
332.138	-13.65
332.35	12.97
332.563	-11.61
332.776	6.83
332.989	0.68
333.202	-7.51
333.414	31.4
333.627	105.13
333.84	-40.28
334.053	51.88
334.265	8.87
334.478	35.5
334.691	8.87
334.903	4.78
335.116	-1.37
335.329	-15.7
335.541	66.22
335.754	76.46
335.966	-32.08
336.179	-11.61
336.392	25.26
336.604	-15.7
336.817	-19.8
337.029	47.79
337.242	6.83
337.454	-44.37
337.667	-19.8
337.88	64.17
338.092	123.56
338.305	-21.85
338.517	0.68
338.729	45.74
338.942	-11.61
339.154	53.93
339.367	-23.89
339.579	0.68
339.792	2.73
340.004	88.75
340.217	43.69
340.429	70.31
340.641	27.31
340.854	-11.61
341.066	-7.51
341.278	41.64
341.491	82.6
341.703	62.12
341.915	-19.8
342.128	15.02
342.34	41.64
342.552	39.59
342.764	-9.56
342.977	25.26
343.189	-19.8
343.401	53.93
343.613	-7.51
343.826	-21.85
344.038	12.97
344.25	29.35
344.462	8.87
344.674	2.73
344.886	-11.61
345.099	37.55
345.311	21.16
345.523	15.02
345.735	12.97
345.947	64.17
346.159	39.59
346.371	35.5
346.583	49.83
346.795	111.27
347.007	-25.94
347.219	31.4
347.431	8.87
347.643	37.55
347.855	-25.94
348.067	70.31
348.279	-68.95
348.491	17.07
348.703	12.97
348.915	68.27
349.127	-30.04
349.339	4.78
349.551	74.41
349.763	-34.13
349.975	33.45
350.187	-13.65
350.399	41.64
350.61	27.31
350.822	29.35
351.034	-7.51
351.246	6.83
351.458	6.83
351.669	45.74
351.881	-32.08
352.093	51.88
352.305	-23.89
352.517	27.31
352.728	27.31
352.94	29.35
353.152	-1.37
353.363	72.36
353.575	37.55
353.787	29.35
353.999	2.73
354.21	82.6
354.422	82.6
354.633	21.16
354.845	35.5
355.057	68.27
355.268	15.02
355.48	-9.56
355.692	27.31
355.903	25.26
356.115	119.46
356.326	-54.61
356.538	4.78
356.749	4.78
356.961	39.59
357.172	84.65
357.384	55.98
357.595	-13.65
357.807	35.5
358.018	-21.85
358.23	-27.99
358.441	39.59
358.653	10.92
358.864	0.68
359.075	8.87
359.287	47.79
359.498	21.16
359.709	19.11
359.921	-19.8
360.132	117.42
360.344	47.79
360.555	4.78
360.766	-5.46
360.977	41.64
361.189	39.59
361.4	-38.23
361.611	35.5
361.823	64.17
362.034	4.78
362.245	35.5
362.456	21.16
362.667	23.21
362.879	4.78
363.09	51.88
363.301	55.98
363.512	-48.47
363.723	-17.75
363.935	-40.28
364.146	70.31
364.357	51.88
364.568	45.74
364.779	-46.42
364.99	49.83
365.201	29.35
365.412	4.78
365.623	-11.61
365.834	37.55
366.045	51.88
366.256	6.83
366.467	8.87
366.678	12.97
366.889	-40.28
367.1	84.65
367.311	-32.08
367.522	4.78
367.733	31.4
367.944	27.31
368.155	53.93
368.366	35.5
368.577	37.55
368.788	84.65
368.999	-56.66
369.209	55.98
369.42	103.08
369.631	80.55
369.842	4.78
370.053	0.68
370.264	-38.23
370.474	-25.94
370.685	-40.28
370.896	21.16
371.107	68.27
371.317	43.69
371.528	-25.94
371.739	8.87
371.95	0.68
372.16	123.56
372.371	66.22
372.582	19.11
372.792	55.98
373.003	-13.65
373.214	43.69
373.424	62.12
373.635	45.74
373.846	96.94
374.056	-38.23
374.267	8.87
374.477	84.65
374.688	-30.04
374.898	-9.56
375.109	43.69
375.319	43.69
375.53	25.26
375.74	0.68
375.951	31.4
376.161	25.26
376.372	80.55
376.582	-5.46
376.793	37.55
377.003	51.88
377.214	-9.56
377.424	-7.51
377.635	27.31
377.845	-11.61
378.055	70.31
378.266	2.73
378.476	33.45
378.686	53.93
378.897	-1.37
379.107	2.73
379.317	0.68
379.528	19.11
379.738	35.5
379.948	0.68
380.158	49.83
380.369	41.64
380.579	72.36
380.789	60.07
380.999	33.45
381.21	39.59
381.42	70.31
381.63	31.4
381.84	-34.13
382.05	41.64
382.261	51.88
382.471	-27.99
382.681	47.79
382.891	109.22
383.101	51.88
383.311	-5.46
383.521	39.59
383.731	92.84
383.941	58.03
384.151	58.03
384.361	17.07
384.571	55.98
384.781	33.45
384.991	12.97
385.201	80.55
385.411	45.74
385.621	74.41
385.831	66.22
386.041	58.03
386.251	86.7
386.461	60.07
386.671	66.22
386.881	72.36
387.091	29.35
387.301	78.51
387.511	139.94
387.72	70.31
387.93	60.07
388.14	-81.24
388.35	-25.94
388.56	-7.51
388.769	41.64
388.979	-3.41
389.189	-3.41
389.399	15.02
389.609	78.51
389.818	68.27
390.028	47.79
390.238	84.65
390.447	-7.51
390.657	25.26
390.867	-9.56
391.076	0.68
391.286	-9.56
391.496	39.59
391.705	29.35
391.915	-11.61
392.125	39.59
392.334	41.64
392.544	-13.65
392.753	55.98
392.963	-30.04
393.172	17.07
393.382	-42.32
393.591	47.79
393.801	4.78
394.01	127.66
394.22	113.32
394.429	127.66
394.639	2.73
394.848	47.79
395.058	58.03
395.267	-11.61
395.477	47.79
395.686	158.38
395.895	84.65
396.105	76.46
396.314	103.08
396.524	43.69
396.733	92.84
396.942	6.83
397.152	55.98
397.361	41.64
397.57	62.12
397.78	55.98
397.989	43.69
398.198	53.93
398.407	64.17
398.617	94.89
398.826	70.31
399.035	-23.89
399.244	117.42
399.453	21.16
399.663	33.45
399.872	141.99
400.081	51.88
400.29	133.8
400.499	78.51
400.708	113.32
400.917	80.55
401.127	107.18
401.336	19.11
401.545	74.41
401.754	127.66
401.963	131.75
402.172	12.97
402.381	53.93
402.59	8.87
402.799	15.02
403.008	25.26
403.217	98.99
403.426	98.99
403.635	41.64
403.844	33.45
404.053	53.93
404.262	55.98
404.471	103.08
404.68	121.51
404.888	129.7
405.097	90.79
405.306	117.42
405.515	86.7
405.724	144.04
405.933	82.6
406.142	60.07
406.35	125.61
406.559	101.03
406.768	111.27
406.977	90.79
407.185	119.46
407.394	131.75
407.603	139.94
407.812	121.51
408.02	191.14
408.229	144.04
408.438	92.84
408.646	74.41
408.855	189.1
409.064	213.67
409.272	180.9
409.481	166.57
409.69	131.75
409.898	199.34
410.107	197.29
410.315	201.38
410.524	205.48
410.733	166.57
410.941	154.28
411.15	199.34
411.358	170.66
411.567	287.4
411.775	137.9
411.984	273.06
412.192	223.91
412.401	291.49
412.609	381.6
412.818	281.25
413.026	254.63
413.234	285.35
413.443	371.37
413.651	299.69
413.86	324.26
414.068	336.55
414.276	336.55
414.485	416.42
414.693	443.04
414.901	490.15
415.11	434.85
415.318	459.43
415.526	494.24
415.734	492.2
415.943	510.63
416.151	555.68
416.359	500.39
416.567	535.2
416.776	514.72
416.984	572.07
417.192	590.5
417.4	598.69
417.608	580.26
417.817	711.33
418.025	668.32
418.233	678.56
418.441	766.62
418.649	819.87
418.857	760.48
419.065	846.49
419.273	723.62
419.481	957.08
419.689	842.4
419.897	1016.48
420.105	909.98
420.313	1108.63
420.521	1073.82
420.729	1018.52
420.937	993.95
421.145	1106.59
421.353	1180.31
421.561	1270.42
421.769	1215.13
421.977	1217.18
422.185	1323.67
422.393	1411.73
422.601	1319.57
422.809	1405.59
423.017	1487.51
423.224	1471.12
423.432	1528.47
423.64	1581.71
423.848	1745.55
424.056	1626.77
424.263	1843.85
424.471	1761.94
424.679	1751.7
424.887	1942.16
425.094	1993.36
425.302	1981.07
425.51	2075.27
425.718	2157.19
425.925	2036.36
426.133	2232.97
426.341	2351.75
426.548	2405
426.756	2523.78
426.964	2398.85
427.171	2626.18
427.379	2808.45
427.586	2718.34
427.794	2808.45
428.001	2972.29
428.209	3144.31
428.417	3025.53
428.624	3170.94
428.832	3279.48
429.039	3187.32
429.247	3199.61
429.454	3459.7
429.662	3713.65
429.869	3474.04
430.076	3869.3
430.284	3650.16
430.491	3838.58
430.699	3961.45
430.906	4070
431.114	4072.04
431.321	4262.51
431.528	4282.99
431.736	4729.44
431.943	4713.06
432.15	4684.39
432.358	4840.03
432.565	5132.89
432.772	4909.66
432.979	5188.19
433.187	5456.47
433.394	5399.13
433.601	5763.67
433.808	5702.23
434.016	5696.08
434.223	5876.31
434.43	6363.72
434.637	6230.6
434.844	6738.5
435.052	6718.02
435.259	6548.04
435.466	6902.34
435.673	6593.09
435.88	7201.34
436.087	7438.91
436.294	7531.06
436.501	7273.02
436.708	7408.19
436.915	7674.42
437.122	7967.28
437.329	8049.2
437.537	8256.04
437.743	8471.08
437.95	8342.06
438.157	9073.18
438.364	9105.95
438.571	9101.86
438.778	9064.99
438.985	9998.87
439.192	9669.14
439.399	9804.31
439.606	9648.66
439.813	10234.38
440.02	10793.48
440.227	10686.98
440.433	10404.36
440.64	10834.44
440.847	10742.28
441.054	11170.3
441.261	11655.67
441.467	11655.67
441.674	11772.41
441.881	12347.89
442.088	12300.78
442.294	12243.44
442.501	12495.34
442.708	12915.17
442.914	13238.75
443.121	13767.13
443.328	13359.58
443.534	14377.42
443.741	14066.13
443.948	13922.77
444.154	14885.32
444.361	14584.27
444.568	15030.73
444.774	15075.78
444.981	15049.16
445.187	15423.94
445.394	15907.26
445.6	15841.72
445.807	17039.78
446.013	16693.68
446.22	16935.34
446.426	17572.25
446.633	17762.72
446.839	18545.04
447.046	17951.13
447.252	18493.84
447.459	18618.77
447.665	18604.43
447.871	19358.08
448.078	20115.83
448.284	19263.88
448.491	19886.46
448.697	20588.91
448.903	20908.4
449.11	21158.25
449.316	20654.45
449.522	20906.35
449.728	21475.68
449.935	21803.36
450.141	21637.47
450.347	22282.58
450.553	21604.7
450.76	21752.16
450.966	22403.41
451.172	22178.14
451.378	22944.08
451.584	22190.42
451.791	22665.55
451.997	22839.63
452.203	23802.18
452.409	23437.64
452.615	23189.83
452.821	22509.91
453.027	22317.4
453.233	23529.8
453.44	22321.49
453.646	22653.26
453.852	22868.3
454.058	23042.38
454.264	22364.5
454.47	22772.05
454.676	22298.97
454.882	23091.53
455.088	20996.46
455.294	21551.46
455.5	21961.05
455.705	22311.25
455.911	20951.4
456.117	20679.02
456.323	20463.99
456.529	19157.38
456.735	19997.05
456.941	19564.93
457.147	19282.31
457.352	18684.3
457.558	18555.28
457.764	18559.38
457.97	18151.83
458.176	17877.4
458.381	17955.22
458.587	16777.64
458.793	16927.14
458.999	15921.59
459.204	17181.09
459.41	16728.49
459.616	15458.75
459.821	15663.55
460.027	15432.13
460.233	15180.23
460.438	14272.98
460.644	14610.89
460.85	14088.66
461.055	13738.46
461.261	13769.18
461.466	12902.89
461.672	12337.65
461.878	13400.54
462.083	12425.71
462.289	12114.42
462.494	12083.7
462.7	11629.05
462.905	11065.86
463.111	11635.19
463.316	11534.84
463.522	11301.37
463.727	11344.38
463.932	11137.54
464.138	11307.52
464.343	11248.13
464.549	11004.42
464.754	11313.66
464.959	11176.45
465.165	10891.78
465.37	10623.5
465.575	10375.69
465.781	10758.66
465.986	11006.47
466.191	10375.69
466.397	10424.84
466.602	9642.52
466.807	10183.18
467.012	10125.84
467.218	10119.7
467.423	10131.98
467.628	10013.2
467.833	10254.86
