Data from USB4F104151__73__11-45-28-188.txt Node

Date: Fri Mar 14 11:45:28 EDT 2025
User: louis
Spectrometer: USB4F10415
Trigger mode: 4
Integration Time (sec): 2.000000E-2
Scans to average: 1
Electric dark correction enabled: true
Nonlinearity correction enabled: false
Boxcar width: 0
XAxis mode: Wavelengths
Number of Pixels in Spectrum: 3648
>>>>>Begin Spectral Data<<<<<
178.204	-57
178.424	-57
178.644	-57
178.864	-48.81
179.084	-50.86
179.304	-20.14
179.524	-26.28
179.744	16.73
179.964	18.77
180.184	-30.38
180.404	-48.81
180.624	24.92
180.844	16.73
181.064	-50.86
181.283	51.54
181.503	8.53
181.723	39.25
181.943	-40.62
182.163	31.06
182.383	24.92
182.602	-3.75
182.822	35.16
183.042	102.74
183.262	24.92
183.482	29.01
183.701	45.4
183.921	4.44
184.141	24.92
184.361	65.88
184.58	10.58
184.8	-28.33
185.02	6.49
185.239	12.63
185.459	-11.95
185.679	51.54
185.898	-42.67
186.118	84.31
186.338	29.01
186.557	29.01
186.777	37.2
186.997	-26.28
187.216	-13.99
187.436	-16.04
187.655	22.87
187.875	90.45
188.095	37.2
188.314	55.64
188.534	43.35
188.753	69.97
188.973	82.26
189.192	67.92
189.412	37.2
189.631	69.97
189.851	41.3
190.07	-20.14
190.29	45.4
190.509	55.64
190.729	-3.75
190.948	131.41
191.168	102.74
191.387	37.2
191.607	-32.43
191.826	57.68
192.045	26.96
192.265	47.44
192.484	61.78
192.704	20.82
192.923	-30.38
193.142	115.03
193.362	59.73
193.581	35.16
193.8	47.44
194.02	67.92
194.239	26.96
194.458	72.02
194.678	55.64
194.897	-11.95
195.116	-9.9
195.335	0.34
195.555	16.73
195.774	-3.75
195.993	37.2
196.212	-24.23
196.432	33.11
196.651	57.68
196.87	6.49
197.089	20.82
197.308	96.6
197.528	37.2
197.747	-3.75
197.966	88.4
198.185	121.17
198.404	4.44
198.623	102.74
198.842	29.01
199.062	133.46
199.281	61.78
199.5	-18.09
199.719	80.21
199.938	53.59
200.157	61.78
200.376	72.02
200.595	33.11
200.814	4.44
201.033	67.92
201.252	84.31
201.471	65.88
201.69	63.83
201.909	-5.8
202.128	86.36
202.347	86.36
202.566	-30.38
202.785	39.25
203.004	65.88
203.223	39.25
203.442	78.16
203.661	12.63
203.879	8.53
204.098	82.26
204.317	8.53
204.536	41.3
204.755	4.44
204.974	14.68
205.193	33.11
205.411	35.16
205.63	-5.8
205.849	-16.04
206.068	-3.75
206.287	72.02
206.505	119.12
206.724	55.64
206.943	24.92
207.162	35.16
207.381	29.01
207.599	26.96
207.818	43.35
208.037	47.44
208.255	57.68
208.474	57.68
208.693	47.44
208.911	-36.52
209.13	37.2
209.349	12.63
209.567	43.35
209.786	82.26
210.005	20.82
210.223	-13.99
210.442	-73.39
210.661	10.58
210.879	29.01
211.098	49.49
211.316	31.06
211.535	22.87
211.753	41.3
211.972	69.97
212.191	39.25
212.409	-30.38
212.628	-38.57
212.846	12.63
213.065	29.01
213.283	-9.9
213.502	20.82
213.72	14.68
213.938	90.45
214.157	51.54
214.375	8.53
214.594	90.45
214.812	-22.19
215.031	6.49
215.249	88.4
215.467	31.06
215.686	0.34
215.904	84.31
216.122	67.92
216.341	53.59
216.559	67.92
216.778	49.49
216.996	61.78
217.214	-42.67
217.432	92.5
217.651	45.4
217.869	20.82
218.087	86.36
218.306	94.55
218.524	45.4
218.742	-26.28
218.96	86.36
219.179	-28.33
219.397	6.49
219.615	35.16
219.833	119.12
220.051	-26.28
220.27	112.98
220.488	37.2
220.706	84.31
220.924	26.96
221.142	47.44
221.36	12.63
221.578	4.44
221.796	24.92
222.015	53.59
222.233	20.82
222.451	98.64
222.669	4.44
222.887	-9.9
223.105	-1.71
223.323	90.45
223.541	-102.06
223.759	33.11
223.977	-5.8
224.195	86.36
224.413	39.25
224.631	112.98
224.849	-16.04
225.067	10.58
225.285	88.4
225.503	47.44
225.721	2.39
225.939	53.59
226.157	24.92
226.375	74.07
226.592	35.16
226.81	123.22
227.028	16.73
227.246	137.56
227.464	74.07
227.682	67.92
227.9	76.12
228.117	22.87
228.335	10.58
228.553	24.92
228.771	6.49
228.989	33.11
229.206	-3.75
229.424	18.77
229.642	14.68
229.86	43.35
230.077	20.82
230.295	24.92
230.513	61.78
230.731	20.82
230.948	22.87
231.166	76.12
231.384	16.73
231.601	18.77
231.819	65.88
232.037	29.01
232.254	-1.71
232.472	110.93
232.689	35.16
232.907	49.49
233.125	74.07
233.342	16.73
233.56	12.63
233.777	0.34
233.995	51.54
234.213	33.11
234.43	10.58
234.648	29.01
234.865	65.88
235.083	55.64
235.3	20.82
235.518	45.4
235.735	137.56
235.953	57.68
236.17	33.11
236.388	-44.71
236.605	-5.8
236.822	10.58
237.04	-3.75
237.257	37.2
237.475	43.35
237.692	0.34
237.909	16.73
238.127	14.68
238.344	53.59
238.562	35.16
238.779	47.44
238.996	-13.99
239.214	47.44
239.431	47.44
239.648	45.4
239.865	53.59
240.083	20.82
240.3	6.49
240.517	0.34
240.735	35.16
240.952	100.69
241.169	-9.9
241.386	51.54
241.603	4.44
241.821	-5.8
242.038	78.16
242.255	63.83
242.472	-26.28
242.689	100.69
242.907	2.39
243.124	74.07
243.341	29.01
243.558	41.3
243.775	-13.99
243.992	16.73
244.209	24.92
244.426	61.78
244.643	86.36
244.86	-57
245.078	74.07
245.295	84.31
245.512	59.73
245.729	-20.14
245.946	37.2
246.163	14.68
246.38	47.44
246.597	-38.57
246.814	24.92
247.031	55.64
247.248	49.49
247.464	37.2
247.681	-13.99
247.898	65.88
248.115	-16.04
248.332	-3.75
248.549	106.84
248.766	84.31
248.983	37.2
249.2	14.68
249.417	59.73
249.633	0.34
249.85	80.21
250.067	-3.75
250.284	47.44
250.501	35.16
250.717	74.07
250.934	35.16
251.151	-3.75
251.368	-13.99
251.585	69.97
251.801	72.02
252.018	31.06
252.235	55.64
252.451	8.53
252.668	-7.85
252.885	47.44
253.102	67.92
253.318	35.16
253.535	-20.14
253.752	-28.33
253.968	59.73
254.185	-28.33
254.401	-7.85
254.618	24.92
254.835	61.78
255.051	24.92
255.268	16.73
255.484	4.44
255.701	59.73
255.917	18.77
256.134	10.58
256.351	29.01
256.567	-50.86
256.784	53.59
257	26.96
257.217	78.16
257.433	67.92
257.65	24.92
257.866	45.4
258.082	14.68
258.299	55.64
258.515	102.74
258.732	55.64
258.948	69.97
259.165	4.44
259.381	-1.71
259.597	29.01
259.814	39.25
260.03	69.97
260.246	35.16
260.463	-32.43
260.679	59.73
260.895	2.39
261.112	18.77
261.328	4.44
261.544	59.73
261.761	74.07
261.977	-24.23
262.193	-30.38
262.409	51.54
262.626	41.3
262.842	12.63
263.058	-7.85
263.274	41.3
263.49	37.2
263.707	59.73
263.923	88.4
264.139	0.34
264.355	20.82
264.571	39.25
264.787	-16.04
265.004	55.64
265.22	4.44
265.436	55.64
265.652	29.01
265.868	-1.71
266.084	12.63
266.3	31.06
266.516	-26.28
266.732	4.44
266.948	162.13
267.164	55.64
267.38	76.12
267.596	26.96
267.812	82.26
268.028	22.87
268.244	-44.71
268.46	74.07
268.676	72.02
268.892	51.54
269.108	29.01
269.324	37.2
269.54	26.96
269.756	117.08
269.972	6.49
270.188	49.49
270.403	20.82
270.619	45.4
270.835	100.69
271.051	18.77
271.267	24.92
271.483	6.49
271.698	20.82
271.914	39.25
272.13	33.11
272.346	35.16
272.562	-34.47
272.777	94.55
272.993	-44.71
273.209	-5.8
273.425	10.58
273.64	-26.28
273.856	74.07
274.072	61.78
274.287	31.06
274.503	51.54
274.719	8.53
274.934	59.73
275.15	22.87
275.366	59.73
275.581	-79.53
275.797	-50.86
276.012	88.4
276.228	22.87
276.444	115.03
276.659	-5.8
276.875	-7.85
277.09	37.2
277.306	47.44
277.521	22.87
277.737	47.44
277.952	67.92
278.168	-3.75
278.383	72.02
278.599	61.78
278.814	69.97
279.03	14.68
279.245	51.54
279.461	24.92
279.676	102.74
279.892	6.49
280.107	47.44
280.322	10.58
280.538	57.68
280.753	98.64
280.969	49.49
281.184	69.97
281.399	-24.23
281.615	108.88
281.83	0.34
282.045	-61.1
282.26	-11.95
282.476	59.73
282.691	55.64
282.906	29.01
283.122	94.55
283.337	-26.28
283.552	74.07
283.767	-9.9
283.983	96.6
284.198	37.2
284.413	33.11
284.628	-9.9
284.843	33.11
285.058	39.25
285.274	-18.09
285.489	4.44
285.704	69.97
285.919	59.73
286.134	-11.95
286.349	47.44
286.564	37.2
286.779	74.07
286.995	59.73
287.21	57.68
287.425	49.49
287.64	59.73
287.855	61.78
288.07	-20.14
288.285	61.78
288.5	55.64
288.715	20.82
288.93	43.35
289.145	51.54
289.36	41.3
289.575	2.39
289.79	31.06
290.004	51.54
290.219	29.01
290.434	-16.04
290.649	96.6
290.864	61.78
291.079	-7.85
291.294	96.6
291.509	16.73
291.724	65.88
291.938	37.2
292.153	39.25
292.368	41.3
292.583	76.12
292.798	16.73
293.012	94.55
293.227	-40.62
293.442	37.2
293.657	82.26
293.871	96.6
294.086	67.92
294.301	178.51
294.516	31.06
294.73	26.96
294.945	-13.99
295.16	-13.99
295.374	69.97
295.589	59.73
295.804	112.98
296.018	20.82
296.233	74.07
296.447	-9.9
296.662	-40.62
296.877	22.87
297.091	121.17
297.306	76.12
297.52	20.82
297.735	6.49
297.949	31.06
298.164	24.92
298.378	-20.14
298.593	24.92
298.807	-42.67
299.022	31.06
299.236	49.49
299.451	67.92
299.665	22.87
299.88	10.58
300.094	10.58
300.309	12.63
300.523	-20.14
300.737	-9.9
300.952	16.73
301.166	16.73
301.381	53.59
301.595	22.87
301.809	131.41
302.024	37.2
302.238	-9.9
302.452	63.83
302.667	-34.47
302.881	10.58
303.095	55.64
303.309	63.83
303.524	51.54
303.738	151.89
303.952	57.68
304.166	12.63
304.381	-73.39
304.595	78.16
304.809	90.45
305.023	94.55
305.237	29.01
305.452	14.68
305.666	53.59
305.88	65.88
306.094	51.54
306.308	-7.85
306.522	78.16
306.736	-20.14
306.95	47.44
307.164	4.44
307.379	76.12
307.593	47.44
307.807	69.97
308.021	117.08
308.235	63.83
308.449	12.63
308.663	98.64
308.877	45.4
309.091	12.63
309.305	72.02
309.519	18.77
309.733	53.59
309.947	-11.95
310.161	67.92
310.374	74.07
310.588	63.83
310.802	12.63
311.016	35.16
311.23	49.49
311.444	33.11
311.658	53.59
311.872	49.49
312.085	26.96
312.299	84.31
312.513	55.64
312.727	-5.8
312.941	92.5
313.154	37.2
313.368	117.08
313.582	-11.95
313.796	20.82
314.009	26.96
314.223	55.64
314.437	78.16
314.651	67.92
314.864	10.58
315.078	-28.33
315.292	45.4
315.505	29.01
315.719	86.36
315.933	94.55
316.146	82.26
316.36	37.2
316.573	59.73
316.787	76.12
317.001	94.55
317.214	10.58
317.428	59.73
317.641	22.87
317.855	-13.99
318.068	49.49
318.282	78.16
318.495	45.4
318.709	67.92
318.922	123.22
319.136	-20.14
319.349	4.44
319.563	57.68
319.776	49.49
319.99	39.25
320.203	26.96
320.417	51.54
320.63	55.64
320.843	98.64
321.057	59.73
321.27	39.25
321.483	57.68
321.697	145.75
321.91	72.02
322.124	-34.47
322.337	41.3
322.55	55.64
322.763	-7.85
322.977	43.35
323.19	6.49
323.403	-7.85
323.617	22.87
323.83	72.02
324.043	65.88
324.256	63.83
324.469	33.11
324.683	88.4
324.896	-44.71
325.109	29.01
325.322	61.78
325.535	35.16
325.748	115.03
325.962	31.06
326.175	-13.99
326.388	112.98
326.601	72.02
326.814	117.08
327.027	55.64
327.24	65.88
327.453	-63.15
327.666	115.03
327.879	74.07
328.092	24.92
328.305	37.2
328.518	-13.99
328.731	20.82
328.944	24.92
329.157	43.35
329.37	-13.99
329.583	76.12
329.796	37.2
330.009	0.34
330.222	22.87
330.435	90.45
330.648	-22.19
330.861	59.73
331.073	35.16
331.286	65.88
331.499	106.84
331.712	26.96
331.925	72.02
332.138	106.84
332.35	10.58
332.563	90.45
332.776	90.45
332.989	-3.75
333.202	16.73
333.414	39.25
333.627	35.16
333.84	24.92
334.053	108.88
334.265	6.49
334.478	67.92
334.691	92.5
334.903	63.83
335.116	90.45
335.329	41.3
335.541	37.2
335.754	41.3
335.966	37.2
336.179	35.16
336.392	-20.14
336.604	84.31
336.817	45.4
337.029	72.02
337.242	72.02
337.454	35.16
337.667	39.25
337.88	100.69
338.092	33.11
338.305	-24.23
338.517	131.41
338.729	112.98
338.942	-1.71
339.154	78.16
339.367	45.4
339.579	41.3
339.792	14.68
340.004	29.01
340.217	33.11
340.429	47.44
340.641	4.44
340.854	-22.19
341.066	55.64
341.278	20.82
341.491	86.36
341.703	74.07
341.915	-36.52
342.128	121.17
342.34	18.77
342.552	86.36
342.764	51.54
342.977	133.46
343.189	53.59
343.401	59.73
343.613	51.54
343.826	22.87
344.038	82.26
344.25	-7.85
344.462	24.92
344.674	53.59
344.886	8.53
345.099	45.4
345.311	8.53
345.523	57.68
345.735	59.73
345.947	121.17
346.159	45.4
346.371	72.02
346.583	-44.71
346.795	123.22
347.007	-3.75
347.219	127.32
347.431	78.16
347.643	151.89
347.855	-18.09
348.067	8.53
348.279	41.3
348.491	80.21
348.703	33.11
348.915	33.11
349.127	-5.8
349.339	57.68
349.551	26.96
349.763	-16.04
349.975	-18.09
350.187	35.16
350.399	61.78
350.61	43.35
350.822	-18.09
351.034	78.16
351.246	18.77
351.458	-5.8
351.669	86.36
351.881	90.45
352.093	37.2
352.305	-13.99
352.517	102.74
352.728	149.84
352.94	53.59
353.152	2.39
353.363	-11.95
353.575	20.82
353.787	102.74
353.999	63.83
354.21	6.49
354.422	45.4
354.633	88.4
354.845	104.79
355.057	49.49
355.268	39.25
355.48	6.49
355.692	69.97
355.903	84.31
356.115	8.53
356.326	72.02
356.538	115.03
356.749	74.07
356.961	86.36
357.172	90.45
357.384	72.02
357.595	-5.8
357.807	74.07
358.018	139.6
358.23	22.87
358.441	86.36
358.653	72.02
358.864	-11.95
359.075	-7.85
359.287	90.45
359.498	84.31
359.709	137.56
359.921	41.3
360.132	72.02
360.344	90.45
360.555	-20.14
360.766	65.88
360.977	65.88
361.189	94.55
361.4	127.32
361.611	106.84
361.823	57.68
362.034	31.06
362.245	55.64
362.456	16.73
362.667	51.54
362.879	51.54
363.09	67.92
363.301	-1.71
363.512	39.25
363.723	-30.38
363.935	14.68
364.146	72.02
364.357	8.53
364.568	65.88
364.779	92.5
364.99	49.49
365.201	12.63
365.412	110.93
365.623	94.55
365.834	127.32
366.045	53.59
366.256	110.93
366.467	67.92
366.678	35.16
366.889	-3.75
367.1	6.49
367.311	51.54
367.522	69.97
367.733	33.11
367.944	-26.28
368.155	-11.95
368.366	127.32
368.577	47.44
368.788	41.3
368.999	2.39
369.209	20.82
369.42	104.79
369.631	67.92
369.842	22.87
370.053	88.4
370.264	2.39
370.474	100.69
370.685	51.54
370.896	133.46
371.107	41.3
371.317	47.44
371.528	33.11
371.739	74.07
371.95	26.96
372.16	35.16
372.371	57.68
372.582	51.54
372.792	16.73
373.003	65.88
373.214	6.49
373.424	31.06
373.635	26.96
373.846	131.41
374.056	-3.75
374.267	22.87
374.477	61.78
374.688	117.08
374.898	78.16
375.109	47.44
375.319	84.31
375.53	57.68
375.74	86.36
375.951	69.97
376.161	102.74
376.372	24.92
376.582	55.64
376.793	33.11
377.003	106.84
377.214	61.78
377.424	78.16
377.635	102.74
377.845	-11.95
378.055	106.84
378.266	12.63
378.476	37.2
378.686	63.83
378.897	86.36
379.107	-20.14
379.317	112.98
379.528	94.55
379.738	74.07
379.948	43.35
380.158	72.02
380.369	16.73
380.579	45.4
380.789	80.21
380.999	153.94
381.21	6.49
381.42	123.22
381.63	2.39
381.84	67.92
382.05	92.5
382.261	65.88
382.471	112.98
382.681	108.88
382.891	39.25
383.101	37.2
383.311	20.82
383.521	55.64
383.731	72.02
383.941	69.97
384.151	45.4
384.361	39.25
384.571	78.16
384.781	104.79
384.991	86.36
385.201	61.78
385.411	90.45
385.621	104.79
385.831	74.07
386.041	67.92
386.251	94.55
386.461	117.08
386.671	90.45
386.881	82.26
387.091	94.55
387.301	98.64
387.511	37.2
387.72	108.88
387.93	106.84
388.14	10.58
388.35	94.55
388.56	74.07
388.769	78.16
388.979	80.21
389.189	24.92
389.399	123.22
389.609	72.02
389.818	94.55
390.028	72.02
390.238	67.92
390.447	12.63
390.657	61.78
390.867	82.26
391.076	2.39
391.286	39.25
391.496	112.98
391.705	86.36
391.915	90.45
392.125	35.16
392.334	100.69
392.544	94.55
392.753	72.02
392.963	59.73
393.172	61.78
393.382	59.73
393.591	88.4
393.801	147.8
394.01	119.12
394.22	119.12
394.429	155.99
394.639	53.59
394.848	84.31
395.058	94.55
395.267	139.6
395.477	143.7
395.686	55.64
395.895	115.03
396.105	131.41
396.314	102.74
396.524	100.69
396.733	69.97
396.942	84.31
397.152	16.73
397.361	172.37
397.57	86.36
397.78	88.4
397.989	88.4
398.198	106.84
398.407	123.22
398.617	172.37
398.826	147.8
399.035	139.6
399.244	192.85
399.453	74.07
399.663	153.94
399.872	100.69
400.081	108.88
400.29	192.85
400.499	131.41
400.708	160.08
400.917	67.92
401.127	131.41
401.336	18.77
401.545	186.71
401.754	106.84
401.963	143.7
402.172	145.75
402.381	41.3
402.59	92.5
402.799	110.93
403.008	160.08
403.217	80.21
403.426	160.08
403.635	78.16
403.844	158.03
404.053	92.5
404.262	125.27
404.471	180.56
404.68	151.89
404.888	143.7
405.097	196.95
405.306	151.89
405.515	110.93
405.724	145.75
405.933	184.66
406.142	178.51
406.35	74.07
406.559	201.04
406.768	155.99
406.977	174.42
407.185	242
407.394	209.23
407.603	213.33
407.812	231.76
408.02	274.77
408.229	227.67
408.438	205.14
408.646	137.56
408.855	205.14
409.064	270.67
409.272	291.15
409.481	239.95
409.69	192.85
409.898	192.85
410.107	338.26
410.315	321.87
410.524	330.06
410.733	325.97
410.941	276.82
411.15	309.58
411.358	328.02
411.567	383.31
411.775	338.26
411.984	409.94
412.192	375.12
412.401	409.94
412.609	530.77
412.818	500.05
413.026	403.79
413.234	461.13
413.443	502.09
413.651	614.73
413.86	512.33
414.068	510.29
414.276	641.36
414.485	541.01
414.693	717.13
414.901	696.65
415.11	620.88
415.318	594.25
415.526	700.75
415.734	649.55
415.943	778.57
416.151	780.62
416.359	885.06
416.567	776.52
416.776	872.78
416.984	872.78
417.192	917.83
417.4	915.78
417.608	1020.23
417.817	969.03
418.025	1100.1
418.233	1093.96
418.441	1030.47
418.649	1110.34
418.857	1245.51
419.065	1145.16
419.273	1208.64
419.481	1300.8
419.689	1446.21
419.897	1417.54
420.105	1413.44
420.313	1386.82
420.521	1528.13
420.729	1589.57
420.937	1610.04
421.145	1685.82
421.353	1700.16
421.561	1845.56
421.769	1851.71
421.977	1929.53
422.185	1907
422.393	2005.3
422.601	2117.94
422.809	2191.67
423.017	2158.9
423.224	2177.33
423.432	2332.98
423.64	2197.81
423.848	2525.49
424.056	2369.84
424.263	2623.79
424.471	2621.74
424.679	2720.04
424.887	2947.37
425.094	2842.92
425.302	2928.94
425.51	2992.42
425.718	3205.41
425.925	3262.76
426.133	3391.78
426.341	3475.74
426.548	3666.21
426.756	3637.53
426.964	3543.33
427.171	3971.35
427.379	4065.56
427.586	4051.22
427.794	4202.77
428.001	4522.26
428.209	4690.19
428.417	4417.81
428.624	4739.34
428.832	4849.93
429.039	4593.94
429.247	4888.84
429.454	5331.2
429.662	5628.16
429.869	5429.51
430.076	5595.39
430.284	5507.33
430.491	5777.66
430.699	6002.94
430.906	6052.09
431.114	6144.25
431.321	6459.63
431.528	6439.16
431.736	6969.58
431.943	7278.82
432.15	6969.58
432.358	6983.91
432.565	7467.24
432.772	7413.99
432.979	7696.61
433.187	7860.45
433.394	8069.34
433.601	8618.19
433.808	8458.45
434.016	8446.16
434.223	8954.06
434.43	9259.21
434.637	9081.03
434.844	9648.32
435.052	10055.87
435.259	9971.9
435.466	10182.84
435.673	10025.15
435.88	10576.05
436.087	11157.68
436.294	11329.7
436.501	11008.17
436.708	10987.69
436.915	11602.08
437.122	12095.64
437.329	11784.35
437.537	12261.53
437.743	12480.66
437.95	12480.66
438.157	12994.7
438.364	13564.04
438.571	13455.5
438.778	13518.98
438.985	14915.7
439.192	14372.99
439.399	14905.46
439.606	14407.8
439.813	15177.84
440.02	16097.38
440.227	15976.55
440.433	15708.26
440.64	16320.6
440.847	16011.36
441.054	16545.88
441.261	17459.27
441.467	17305.68
441.674	17686.6
441.881	18395.2
442.088	18507.83
442.294	18298.94
442.501	18540.6
442.708	18962.48
442.914	19599.4
443.121	20426.78
443.328	20115.49
443.534	21504.01
443.741	20854.81
443.948	20860.95
444.154	21874.7
444.361	22044.68
444.568	22267.91
444.774	22294.53
444.981	22093.83
445.187	23228.4
445.394	24025.06
445.6	23838.7
445.807	25923.53
446.013	25047
446.22	25307.09
446.426	26347.46
446.633	26605.5
446.839	27408.31
447.046	26202.05
447.252	27867.05
447.459	28211.11
447.665	27967.4
447.871	29083.55
448.078	29998.99
448.284	28479.39
448.491	29427.6
448.697	30656.39
448.903	31014.78
449.11	31020.92
449.316	30541.7
449.522	31524.72
449.728	32493.41
449.935	32698.21
450.141	32440.17
450.347	33355.61
450.553	31958.89
450.76	32501.61
450.966	33464.15
451.172	33101.66
451.378	34076.49
451.584	33660.76
451.791	34385.74
451.997	34379.59
452.203	34963.26
452.409	34477.9
452.615	34613.06
452.821	32964.45
453.027	33165.15
453.233	34481.99
453.44	33476.44
453.646	33609.56
453.852	33800.02
454.058	34428.74
454.264	33263.45
454.47	33816.4
454.676	33380.18
454.882	34090.83
455.088	31328.12
455.294	31745.9
455.5	32026.48
455.705	32462.69
455.911	31100.79
456.117	30551.94
456.323	30242.7
456.529	28909.47
456.735	29693.84
456.941	29130.65
457.147	28987.29
457.352	27752.37
457.558	27645.87
457.764	27785.13
457.97	26892.22
458.176	26505.15
458.381	26490.82
458.587	25268.18
458.793	25251.8
458.999	24131.56
459.204	25694.16
459.41	24993.75
459.616	23269.36
459.821	23199.73
460.027	23136.24
460.233	22859.77
460.438	21661.71
460.644	22118.4
460.85	21002.26
461.055	20611.1
461.261	20639.77
461.466	18929.72
461.672	18294.85
461.878	19689.51
462.083	18522.17
462.289	18202.69
462.494	17795.14
462.7	17211.47
462.905	16513.11
463.111	17262.67
463.316	17209.42
463.522	16816.21
463.727	16795.73
463.932	16793.69
464.138	16631.9
464.343	16666.71
464.549	16316.51
464.754	16769.11
464.959	16406.62
465.165	16676.95
465.37	15738.98
465.575	15399.02
465.781	16080.99
465.986	15935.59
466.191	15415.4
466.397	15503.46
466.602	14418.04
466.807	15100.01
467.012	14829.68
467.218	14942.32
467.423	14694.52
467.628	14940.27
467.833	15497.32
