Data from USB4F104151__9__11-44-27-075.txt Node

Date: Fri Mar 14 11:44:27 EDT 2025
User: louis
Spectrometer: USB4F10415
Trigger mode: 4
Integration Time (sec): 2.000000E-2
Scans to average: 1
Electric dark correction enabled: true
Nonlinearity correction enabled: false
Boxcar width: 0
XAxis mode: Wavelengths
Number of Pixels in Spectrum: 3648
>>>>>Begin Spectral Data<<<<<
178.204	-84.31
178.424	-84.31
178.644	-84.31
178.864	-82.26
179.084	-98.64
179.304	-20.82
179.524	24.23
179.744	-55.64
179.964	-16.73
180.184	-16.73
180.404	5.8
180.624	16.04
180.844	34.47
181.064	5.8
181.283	20.14
181.503	-6.49
181.723	9.9
181.943	-110.93
182.163	20.14
182.383	-33.11
182.602	-41.3
182.822	3.75
183.042	63.15
183.262	-10.58
183.482	5.8
183.701	16.04
183.921	-26.96
184.141	-0.34
184.361	61.1
184.58	-12.63
184.8	3.75
185.02	-65.88
185.239	24.23
185.459	-45.4
185.679	36.52
185.898	-53.59
186.118	54.95
186.338	-37.2
186.557	38.57
186.777	-51.54
186.997	-24.92
187.216	-0.34
187.436	46.76
187.655	-10.58
187.875	-8.53
188.095	-33.11
188.314	-24.92
188.534	57
188.753	-12.63
188.973	-8.53
189.192	-31.06
189.412	-0.34
189.631	-55.64
189.851	16.04
190.07	30.38
190.29	-12.63
190.509	-2.39
190.729	-35.16
190.948	5.8
191.168	59.05
191.387	48.81
191.607	26.28
191.826	-53.59
192.045	-59.73
192.265	-49.49
192.484	42.67
192.704	-12.63
192.923	24.23
193.142	26.28
193.362	134.82
193.581	5.8
193.8	-35.16
194.02	40.62
194.239	-37.2
194.458	24.23
194.678	11.95
194.897	-31.06
195.116	-37.2
195.335	-33.11
195.555	20.14
195.774	-26.96
195.993	46.76
196.212	-29.01
196.432	57
196.651	26.28
196.87	75.43
197.089	73.39
197.308	-2.39
197.528	48.81
197.747	-51.54
197.966	54.95
198.185	-14.68
198.404	-16.73
198.623	5.8
198.842	38.57
199.062	32.43
199.281	3.75
199.5	3.75
199.719	36.52
199.938	36.52
200.157	16.04
200.376	46.76
200.595	61.1
200.814	-8.53
201.033	20.14
201.252	-10.58
201.471	40.62
201.69	46.76
201.909	40.62
202.128	-41.3
202.347	52.91
202.566	-86.36
202.785	-51.54
203.004	-10.58
203.223	61.1
203.442	-59.73
203.661	24.23
203.879	-29.01
204.098	-14.68
204.317	-31.06
204.536	-6.49
204.755	24.23
204.974	26.28
205.193	85.67
205.411	54.95
205.63	26.28
205.849	28.33
206.068	-37.2
206.287	-14.68
206.505	-16.73
206.724	26.28
206.943	24.23
207.162	16.04
207.381	67.24
207.599	3.75
207.818	-16.73
208.037	3.75
208.255	-14.68
208.474	-2.39
208.693	-47.44
208.911	-110.93
209.13	5.8
209.349	5.8
209.567	7.85
209.786	52.91
210.005	48.81
210.223	9.9
210.442	-8.53
210.661	28.33
210.879	-24.92
211.098	46.76
211.316	-8.53
211.535	54.95
211.753	34.47
211.972	81.58
212.191	-10.58
212.409	16.04
212.628	-4.44
212.846	59.05
213.065	40.62
213.283	-10.58
213.502	-6.49
213.72	-20.82
213.938	22.19
214.157	59.05
214.375	46.76
214.594	50.86
214.812	44.71
215.031	-14.68
215.249	-74.07
215.467	-10.58
215.686	-37.2
215.904	-98.64
216.122	-10.58
216.341	69.29
216.559	11.95
216.778	48.81
216.996	-22.87
217.214	-24.92
217.432	1.71
217.651	-0.34
217.869	-47.44
218.087	-37.2
218.306	9.9
218.524	16.04
218.742	52.91
218.96	-0.34
219.179	-2.39
219.397	22.19
219.615	77.48
219.833	-6.49
220.051	-41.3
220.27	-8.53
220.488	77.48
220.706	44.71
220.924	-12.63
221.142	5.8
221.36	42.67
221.578	26.28
221.796	-20.82
222.015	36.52
222.233	-31.06
222.451	42.67
222.669	-0.34
222.887	-39.25
223.105	-29.01
223.323	-12.63
223.541	54.95
223.759	-2.39
223.977	-0.34
224.195	-37.2
224.413	50.86
224.631	-33.11
224.849	-72.02
225.067	106.15
225.285	-88.4
225.503	67.24
225.721	-51.54
225.939	-39.25
226.157	97.96
226.375	61.1
226.592	-22.87
226.81	22.19
227.028	28.33
227.246	122.54
227.464	28.33
227.682	-0.34
227.9	20.14
228.117	28.33
228.335	-0.34
228.553	13.99
228.771	-22.87
228.989	61.1
229.206	54.95
229.424	11.95
229.642	54.95
229.86	-57.68
230.077	3.75
230.295	22.19
230.513	50.86
230.731	50.86
230.948	13.99
231.166	77.48
231.384	20.14
231.601	-39.25
231.819	87.72
232.037	-33.11
232.254	46.76
232.472	28.33
232.689	20.14
232.907	42.67
233.125	63.15
233.342	20.14
233.56	-12.63
233.777	20.14
233.995	-37.2
234.213	26.28
234.43	-61.78
234.648	18.09
234.865	75.43
235.083	-2.39
235.3	-33.11
235.518	-39.25
235.735	52.91
235.953	50.86
236.17	48.81
236.388	9.9
236.605	-57.68
236.822	61.1
237.04	-4.44
237.257	-8.53
237.475	-12.63
237.692	13.99
237.909	-8.53
238.127	-74.07
238.344	30.38
238.562	-2.39
238.779	-0.34
238.996	-100.69
239.214	-22.87
239.431	24.23
239.648	11.95
239.865	-20.82
240.083	26.28
240.3	3.75
240.517	-41.3
240.735	-8.53
240.952	22.19
241.169	5.8
241.386	28.33
241.603	16.04
241.821	20.14
242.038	67.24
242.255	61.1
242.472	3.75
242.689	7.85
242.907	-20.82
243.124	44.71
243.341	-0.34
243.558	5.8
243.775	-16.73
243.992	24.23
244.209	-14.68
244.426	22.19
244.643	-20.82
244.86	-10.58
245.078	-10.58
245.295	-22.87
245.512	48.81
245.729	-96.6
245.946	54.95
246.163	22.19
246.38	24.23
246.597	38.57
246.814	1.71
247.031	-2.39
247.248	26.28
247.464	3.75
247.681	50.86
247.898	-41.3
248.115	-20.82
248.332	20.14
248.549	75.43
248.766	34.47
248.983	97.96
249.2	-37.2
249.417	48.81
249.633	13.99
249.85	30.38
250.067	13.99
250.284	-57.68
250.501	50.86
250.717	102.06
250.934	-69.97
251.151	42.67
251.368	-33.11
251.585	-16.73
251.801	11.95
252.018	5.8
252.235	-0.34
252.451	26.28
252.668	-0.34
252.885	91.82
253.102	3.75
253.318	61.1
253.535	-2.39
253.752	-8.53
253.968	42.67
254.185	24.23
254.401	54.95
254.618	48.81
254.835	7.85
255.051	36.52
255.268	38.57
255.484	-18.77
255.701	46.76
255.917	-10.58
256.134	-35.16
256.351	34.47
256.567	85.67
256.784	28.33
257	-4.44
257.217	28.33
257.433	42.67
257.65	-37.2
257.866	-2.39
258.082	-10.58
258.299	-20.82
258.515	44.71
258.732	9.9
258.948	-24.92
259.165	79.53
259.381	-2.39
259.597	-12.63
259.814	87.72
260.03	5.8
260.246	-31.06
260.463	-31.06
260.679	-41.3
260.895	-45.4
261.112	52.91
261.328	24.23
261.544	-24.92
261.761	118.44
261.977	-57.68
262.193	20.14
262.409	44.71
262.626	22.19
262.842	63.15
263.058	22.19
263.274	22.19
263.49	50.86
263.707	7.85
263.923	40.62
264.139	-10.58
264.355	22.19
264.571	24.23
264.787	-6.49
265.004	28.33
265.22	3.75
265.436	-8.53
265.652	-10.58
265.868	26.28
266.084	-14.68
266.3	5.8
266.516	-20.82
266.732	57
266.948	54.95
267.164	42.67
267.38	13.99
267.596	-55.64
267.812	26.28
268.028	-2.39
268.244	3.75
268.46	54.95
268.676	22.19
268.892	-37.2
269.108	67.24
269.324	34.47
269.54	-31.06
269.756	69.29
269.972	-24.92
270.188	-33.11
270.403	24.23
270.619	89.77
270.835	-69.97
271.051	100.01
271.267	30.38
271.483	22.19
271.698	42.67
271.914	52.91
272.13	13.99
272.346	-53.59
272.562	20.14
272.777	40.62
272.993	-6.49
273.209	-39.25
273.425	48.81
273.64	-35.16
273.856	44.71
274.072	75.43
274.287	28.33
274.503	73.39
274.719	28.33
274.934	-14.68
275.15	-41.3
275.366	34.47
275.581	-16.73
275.797	-14.68
276.012	-65.88
276.228	67.24
276.444	-0.34
276.659	114.34
276.875	-31.06
277.09	26.28
277.306	-8.53
277.521	3.75
277.737	50.86
277.952	44.71
278.168	32.43
278.383	54.95
278.599	9.9
278.814	75.43
279.03	-49.49
279.245	32.43
279.461	42.67
279.676	-37.2
279.892	16.04
280.107	-55.64
280.322	16.04
280.538	65.19
280.753	20.14
280.969	-26.96
281.184	-10.58
281.399	13.99
281.615	-6.49
281.83	-6.49
282.045	-10.58
282.26	-18.77
282.476	28.33
282.691	36.52
282.906	57
283.122	-10.58
283.337	-31.06
283.552	3.75
283.767	7.85
283.983	57
284.198	22.19
284.413	-26.96
284.628	22.19
284.843	-22.87
285.058	11.95
285.274	-33.11
285.489	7.85
285.704	57
285.919	30.38
286.134	-31.06
286.349	46.76
286.564	20.14
286.779	22.19
286.995	13.99
287.21	-49.49
287.425	48.81
287.64	65.19
287.855	93.87
288.07	-45.4
288.285	1.71
288.5	79.53
288.715	24.23
288.93	-96.6
289.145	3.75
289.36	-14.68
289.575	-39.25
289.79	5.8
290.004	20.14
290.219	52.91
290.434	-41.3
290.649	-33.11
290.864	1.71
291.079	-14.68
291.294	36.52
291.509	-20.82
291.724	26.28
291.938	-2.39
292.153	-2.39
292.368	18.09
292.583	-12.63
292.798	71.34
293.012	1.71
293.227	46.76
293.442	34.47
293.657	61.1
293.871	61.1
294.086	28.33
294.301	-55.64
294.516	16.04
294.73	16.04
294.945	-49.49
295.16	36.52
295.374	48.81
295.589	32.43
295.804	-49.49
296.018	11.95
296.233	95.91
296.447	36.52
296.662	44.71
296.877	95.91
297.091	32.43
297.306	44.71
297.52	42.67
297.735	59.05
297.949	34.47
298.164	-33.11
298.378	-2.39
298.593	-22.87
298.807	-41.3
299.022	-16.73
299.236	3.75
299.451	48.81
299.665	-31.06
299.88	42.67
300.094	-47.44
300.309	30.38
300.523	-16.73
300.737	32.43
300.952	9.9
301.166	-49.49
301.381	1.71
301.595	46.76
301.809	3.75
302.024	46.76
302.238	11.95
302.452	13.99
302.667	3.75
302.881	73.39
303.095	-84.31
303.309	69.29
303.524	-16.73
303.738	85.67
303.952	20.14
304.166	-16.73
304.381	16.04
304.595	46.76
304.809	-33.11
305.023	67.24
305.237	5.8
305.452	32.43
305.666	-4.44
305.88	22.19
306.094	1.71
306.308	69.29
306.522	83.63
306.736	-18.77
306.95	59.05
307.164	-0.34
307.379	18.09
307.593	-0.34
307.807	57
308.021	30.38
308.235	61.1
308.449	-8.53
308.663	3.75
308.877	93.87
309.091	32.43
309.305	61.1
309.519	3.75
309.733	46.76
309.947	-10.58
310.161	69.29
310.374	13.99
310.588	1.71
310.802	7.85
311.016	-51.54
311.23	28.33
311.444	16.04
311.658	20.14
311.872	97.96
312.085	61.1
312.299	-0.34
312.513	-24.92
312.727	97.96
312.941	-33.11
313.154	52.91
313.368	5.8
313.582	-12.63
313.796	81.58
314.009	-0.34
314.223	67.24
314.437	95.91
314.651	-29.01
314.864	9.9
315.078	11.95
315.292	16.04
315.505	1.71
315.719	26.28
315.933	-31.06
316.146	-0.34
316.36	30.38
316.573	63.15
316.787	30.38
317.001	75.43
317.214	-22.87
317.428	36.52
317.641	36.52
317.855	18.09
318.068	-18.77
318.282	26.28
318.495	54.95
318.709	75.43
318.922	9.9
319.136	-10.58
319.349	1.71
319.563	44.71
319.776	63.15
319.99	-26.96
320.203	38.57
320.417	73.39
320.63	57
320.843	30.38
321.057	16.04
321.27	-22.87
321.483	-4.44
321.697	38.57
321.91	67.24
322.124	61.1
322.337	3.75
322.55	-10.58
322.763	1.71
322.977	91.82
323.19	-43.35
323.403	-37.2
323.617	-24.92
323.83	50.86
324.043	26.28
324.256	18.09
324.469	42.67
324.683	30.38
324.896	54.95
325.109	20.14
325.322	79.53
325.535	18.09
325.748	3.75
325.962	67.24
326.175	18.09
326.388	7.85
326.601	-78.16
326.814	63.15
327.027	-16.73
327.24	-37.2
327.453	42.67
327.666	30.38
327.879	63.15
328.092	54.95
328.305	28.33
328.518	9.9
328.731	44.71
328.944	11.95
329.157	38.57
329.37	24.23
329.583	85.67
329.796	-22.87
330.009	77.48
330.222	26.28
330.435	11.95
330.648	9.9
330.861	61.1
331.073	-51.54
331.286	118.44
331.499	5.8
331.712	-6.49
331.925	9.9
332.138	36.52
332.35	26.28
332.563	42.67
332.776	-76.12
332.989	5.8
333.202	-8.53
333.414	54.95
333.627	-18.77
333.84	7.85
334.053	-6.49
334.265	-10.58
334.478	48.81
334.691	61.1
334.903	-2.39
335.116	-14.68
335.329	63.15
335.541	18.09
335.754	118.44
335.966	20.14
336.179	-8.53
336.392	24.23
336.604	40.62
336.817	18.09
337.029	42.67
337.242	11.95
337.454	89.77
337.667	11.95
337.88	46.76
338.092	40.62
338.305	85.67
338.517	-10.58
338.729	36.52
338.942	44.71
339.154	-4.44
339.367	-12.63
339.579	97.96
339.792	13.99
340.004	22.19
340.217	85.67
340.429	36.52
340.641	-10.58
340.854	18.09
341.066	-22.87
341.278	26.28
341.491	83.63
341.703	30.38
341.915	38.57
342.128	40.62
342.34	52.91
342.552	7.85
342.764	38.57
342.977	93.87
343.189	34.47
343.401	28.33
343.613	1.71
343.826	52.91
344.038	24.23
344.25	16.04
344.462	7.85
344.674	3.75
344.886	5.8
345.099	-45.4
345.311	61.1
345.523	-2.39
345.735	3.75
345.947	54.95
346.159	42.67
346.371	50.86
346.583	-49.49
346.795	38.57
347.007	63.15
347.219	57
347.431	57
347.643	85.67
347.855	24.23
348.067	97.96
348.279	42.67
348.491	65.19
348.703	50.86
348.915	32.43
349.127	11.95
349.339	104.11
349.551	7.85
349.763	122.54
349.975	50.86
350.187	77.48
350.399	28.33
350.61	36.52
350.822	-22.87
351.034	40.62
351.246	77.48
351.458	9.9
351.669	-18.77
351.881	24.23
352.093	26.28
352.305	-18.77
352.517	3.75
352.728	42.67
352.94	48.81
353.152	89.77
353.363	-18.77
353.575	28.33
353.787	75.43
353.999	-4.44
354.21	93.87
354.422	32.43
354.633	7.85
354.845	-20.82
355.057	16.04
355.268	32.43
355.48	57
355.692	11.95
355.903	59.05
356.115	67.24
356.326	-18.77
356.538	32.43
356.749	22.19
356.961	36.52
357.172	-16.73
357.384	134.82
357.595	-20.82
357.807	-45.4
358.018	106.15
358.23	-4.44
358.441	-24.92
358.653	54.95
358.864	-29.01
359.075	40.62
359.287	44.71
359.498	-16.73
359.709	52.91
359.921	57
360.132	18.09
360.344	63.15
360.555	-4.44
360.766	26.28
360.977	-2.39
361.189	38.57
361.4	3.75
361.611	61.1
361.823	73.39
362.034	61.1
362.245	100.01
362.456	9.9
362.667	3.75
362.879	112.3
363.09	44.71
363.301	69.29
363.512	46.76
363.723	24.23
363.935	3.75
364.146	40.62
364.357	1.71
364.568	3.75
364.779	38.57
364.99	-8.53
365.201	54.95
365.412	-33.11
365.623	9.9
365.834	91.82
366.045	140.97
366.256	26.28
366.467	9.9
366.678	-4.44
366.889	16.04
367.1	57
367.311	32.43
367.522	46.76
367.733	50.86
367.944	61.1
368.155	57
368.366	46.76
368.577	104.11
368.788	97.96
368.999	24.23
369.209	11.95
369.42	71.34
369.631	85.67
369.842	48.81
370.053	54.95
370.264	59.05
370.474	40.62
370.685	-22.87
370.896	85.67
371.107	40.62
371.317	40.62
371.528	-37.2
371.739	18.09
371.95	75.43
372.16	30.38
372.371	36.52
372.582	50.86
372.792	81.58
373.003	1.71
373.214	77.48
373.424	40.62
373.635	20.14
373.846	48.81
374.056	22.19
374.267	18.09
374.477	13.99
374.688	34.47
374.898	136.87
375.109	38.57
375.319	46.76
375.53	54.95
375.74	50.86
375.951	-59.73
376.161	77.48
376.372	13.99
376.582	42.67
376.793	11.95
377.003	59.05
377.214	61.1
377.424	34.47
377.635	18.09
377.845	63.15
378.055	163.5
378.266	52.91
378.476	36.52
378.686	46.76
378.897	34.47
379.107	42.67
379.317	48.81
379.528	16.04
379.738	73.39
379.948	-12.63
380.158	106.15
380.369	59.05
380.579	75.43
380.789	9.9
380.999	44.71
381.21	36.52
381.42	69.29
381.63	59.05
381.84	32.43
382.05	63.15
382.261	63.15
382.471	73.39
382.681	87.72
382.891	50.86
383.101	44.71
383.311	-6.49
383.521	118.44
383.731	1.71
383.941	48.81
384.151	97.96
384.361	5.8
384.571	-10.58
384.781	26.28
384.991	83.63
385.201	5.8
385.411	75.43
385.621	81.58
385.831	3.75
386.041	85.67
386.251	-8.53
386.461	159.4
386.671	-12.63
386.881	24.23
387.091	81.58
387.301	120.49
387.511	36.52
387.72	30.38
387.93	-0.34
388.14	9.9
388.35	-2.39
388.56	54.95
388.769	30.38
388.979	114.34
389.189	85.67
389.399	83.63
389.609	32.43
389.818	79.53
390.028	69.29
390.238	3.75
390.447	-26.96
390.657	93.87
390.867	48.81
391.076	3.75
391.286	93.87
391.496	63.15
391.705	24.23
391.915	67.24
392.125	36.52
392.334	48.81
392.544	81.58
392.753	138.92
392.963	20.14
393.172	100.01
393.382	54.95
393.591	91.82
393.801	63.15
394.01	126.63
394.22	42.67
394.429	77.48
394.639	63.15
394.848	73.39
395.058	-6.49
395.267	42.67
395.477	65.19
395.686	112.3
395.895	122.54
396.105	183.98
396.314	89.77
396.524	97.96
396.733	48.81
396.942	61.1
397.152	145.06
397.361	69.29
397.57	65.19
397.78	128.68
397.989	22.19
398.198	186.02
398.407	151.21
398.617	57
398.826	100.01
399.035	24.23
399.244	52.91
399.453	124.58
399.663	102.06
399.872	159.4
400.081	128.68
400.29	132.78
400.499	81.58
400.708	169.64
400.917	126.63
401.127	97.96
401.336	91.82
401.545	177.83
401.754	110.25
401.963	102.06
402.172	175.78
402.381	75.43
402.59	85.67
402.799	151.21
403.008	208.55
403.217	161.45
403.426	179.88
403.635	147.11
403.844	202.41
404.053	149.16
404.262	196.26
404.471	231.08
404.68	77.48
404.888	183.98
405.097	175.78
405.306	169.64
405.515	204.46
405.724	181.93
405.933	239.27
406.142	204.46
406.35	253.61
406.559	181.93
406.768	224.94
406.977	257.7
407.185	196.26
407.394	159.4
407.603	183.98
407.812	294.57
408.02	286.37
408.229	253.61
408.438	323.24
408.646	308.9
408.855	251.56
409.064	261.8
409.272	380.58
409.481	325.29
409.69	306.85
409.898	413.35
410.107	470.69
410.315	337.57
410.524	337.57
410.733	442.02
410.941	409.25
411.15	472.74
411.358	439.97
411.567	487.08
411.775	523.94
411.984	568.99
412.192	546.47
412.401	612
412.609	544.42
412.818	640.67
413.026	628.39
413.234	640.67
413.443	659.1
413.651	655.01
413.86	767.65
414.068	724.64
414.276	693.92
414.485	798.37
414.693	855.71
414.901	824.99
415.11	997.02
415.318	945.82
415.526	898.72
415.734	992.92
415.943	1003.16
416.151	1072.79
416.359	1107.61
416.567	1060.51
416.776	1101.47
416.984	1250.97
417.192	1363.61
417.4	1259.16
417.608	1351.32
417.817	1384.09
418.025	1455.76
418.233	1644.18
418.441	1488.53
418.649	1599.12
418.857	1711.76
419.065	1699.47
419.273	1705.62
419.481	1816.21
419.689	1824.4
419.897	2021
420.105	1994.38
420.313	2045.58
420.521	2182.79
420.729	2158.22
420.937	2295.43
421.145	2354.82
421.353	2410.12
421.561	2533
421.769	2678.4
421.977	2719.36
422.185	2637.44
422.393	2852.48
422.601	2989.69
422.809	3055.23
423.017	3034.75
423.224	3169.91
423.432	3483.25
423.64	3249.79
423.848	3599.99
424.056	3501.69
424.263	3821.17
424.471	3862.13
424.679	3935.85
424.887	4216.43
425.094	4175.47
425.302	4181.61
425.51	4394.6
425.718	4603.49
425.925	4679.27
426.133	4775.52
426.341	5105.24
426.548	5080.67
426.756	5242.46
426.964	5439.06
427.171	5756.5
427.379	6004.3
427.586	5830.23
427.794	6057.55
428.001	6256.2
428.209	6708.8
428.417	6366.79
428.624	6997.57
428.832	6956.61
429.039	7020.1
429.247	7024.19
429.454	7642.68
429.662	8148.53
429.869	7730.74
430.076	7827
430.284	8060.46
430.491	8328.75
430.699	8732.2
430.906	8824.36
431.114	8719.91
431.321	9274.91
431.528	9424.41
431.736	9967.12
431.943	10599.94
432.15	10239.5
432.358	10249.74
432.565	10798.6
432.772	10671.62
432.979	11179.52
433.187	11605.5
433.394	11640.31
433.601	12293.62
433.808	12451.31
434.016	12168.69
434.223	12813.8
434.43	13622.75
434.637	13403.61
434.844	14114.26
435.052	14519.76
435.259	14212.56
435.466	14538.19
435.673	14439.89
435.88	15244.74
436.087	16289.2
436.294	16174.52
436.501	15939
436.708	15996.34
436.915	16530.86
437.122	17270.18
437.329	17196.45
437.537	17825.18
437.743	17913.24
437.95	18359.7
438.157	18996.62
438.364	19824
438.571	19500.42
438.778	19776.89
438.985	21276.01
439.192	20700.53
439.399	21230.95
439.606	20737.39
439.813	21923.16
440.02	23635.27
440.227	23037.26
440.433	22621.52
440.64	23651.65
440.847	23471.43
441.054	24028.48
441.261	25367.85
441.467	25287.98
441.674	26027.29
441.881	26711.32
442.088	26643.73
442.294	26494.23
442.501	27075.85
442.708	27286.79
442.914	28634.36
443.121	29936.87
443.328	29074.67
443.534	31040.72
443.741	30172.38
443.948	30008.54
444.154	32289.98
444.361	32107.71
444.568	32289.98
444.774	32187.58
444.981	32232.64
445.187	33508.52
445.394	34690.2
445.6	34466.97
445.807	37559.41
446.013	35923.08
446.22	36523.13
446.426	38067.3
446.633	38360.16
446.839	39709.77
447.046	38161.51
447.252	40326.21
447.459	40537.15
447.665	39984.2
447.871	41440.31
448.078	43635.73
448.284	41567.28
448.491	42517.54
448.697	43971.6
448.903	45030.4
449.11	44860.41
449.316	44639.23
449.522	45343.73
449.728	46195.69
449.935	46969.82
450.141	46664.67
450.347	47725.52
450.553	46369.77
450.76	47315.93
450.966	48622.53
451.172	47772.63
451.378	48702.4
451.584	48120.78
451.791	49083.33
451.997	49241.02
452.203	49302.46
452.409	49884.08
452.615	49599.41
452.821	47911.89
453.027	47502.29
453.233	49873.84
453.44	47621.08
453.646	48141.26
453.852	48489.41
454.058	48890.82
454.264	47709.14
454.47	48911.3
454.676	47217.63
454.882	49091.52
455.088	45032.44
455.294	45581.3
455.5	46431.21
455.705	47207.39
455.911	44846.08
456.117	44356.61
456.323	43762.7
456.529	41210.93
456.735	43082.78
456.941	41641.01
457.147	41151.54
457.352	40256.58
457.558	39793.74
457.764	39920.71
457.97	38714.46
458.176	38249.57
458.381	37942.38
458.587	36422.78
458.793	36371.58
458.999	34739.35
459.204	36699.26
459.41	35460.24
459.616	33811.62
459.821	33655.98
460.027	33666.22
460.233	33066.16
460.438	31458.51
460.644	31288.53
460.85	29928.67
461.055	29324.52
461.261	29629.67
461.466	27321.61
461.672	26318.11
461.878	28364.03
462.083	26651.92
462.289	26195.23
462.494	25771.3
462.7	24638.77
462.905	24143.16
463.111	24962.35
463.316	25255.21
463.522	24569.14
463.727	24376.63
463.932	24374.58
464.138	24120.63
464.343	24008
464.549	23289.16
464.754	23835.97
464.959	24223.03
465.165	23901.5
465.37	22920.52
465.575	22293.85
465.781	23176.52
465.986	23369.03
466.191	22469.97
466.397	21914.97
466.602	21050.73
466.807	21728.61
467.012	21714.27
467.218	21663.07
467.423	21136.74
467.628	21288.29
