Data from USB4F104151__3__11-44-22-775.txt Node

Date: Fri Mar 14 11:44:22 EDT 2025
User: louis
Spectrometer: USB4F10415
Trigger mode: 4
Integration Time (sec): 2.000000E-2
Scans to average: 1
Electric dark correction enabled: true
Nonlinearity correction enabled: false
Boxcar width: 0
XAxis mode: Wavelengths
Number of Pixels in Spectrum: 3648
>>>>>Begin Spectral Data<<<<<
178.204	-101.55
178.424	-101.55
178.644	-101.55
178.864	-111.78
179.084	-115.88
179.304	31.57
179.524	-46.25
179.744	33.62
179.964	37.72
180.184	-11.43
180.404	43.86
180.624	21.33
180.844	-23.72
181.064	-23.72
181.283	39.76
181.503	-62.63
181.723	-40.11
181.943	-15.53
182.163	66.39
182.383	72.53
182.602	62.29
182.822	37.72
183.042	19.29
183.262	-25.77
183.482	-15.53
183.701	2.9
183.921	52.05
184.141	-89.26
184.361	72.53
184.58	-25.77
184.8	76.63
185.02	-29.87
185.239	0.85
185.459	64.34
185.679	50
185.898	7
186.118	41.81
186.338	-7.34
186.557	15.19
186.777	-27.82
186.997	121.68
187.216	-52.39
187.436	47.96
187.655	-7.34
187.875	-29.87
188.095	2.9
188.314	109.4
188.534	-31.91
188.753	11.09
188.973	105.3
189.192	43.86
189.412	-21.67
189.631	-21.67
189.851	-25.77
190.07	11.09
190.29	-7.34
190.509	95.06
190.729	4.95
190.948	-7.34
191.168	78.68
191.387	27.48
191.607	25.43
191.826	2.9
192.045	-62.63
192.265	15.19
192.484	39.76
192.704	2.9
192.923	29.52
193.142	31.57
193.362	27.48
193.581	17.24
193.8	-5.29
194.02	25.43
194.239	101.2
194.458	31.57
194.678	9.05
194.897	68.44
195.116	0.85
195.335	66.39
195.555	27.48
195.774	-11.43
195.993	-3.24
196.212	17.24
196.432	19.29
196.651	54.1
196.87	41.81
197.089	25.43
197.308	60.24
197.528	56.15
197.747	-44.2
197.966	52.05
198.185	-5.29
198.404	-40.11
198.623	97.11
198.842	41.81
199.062	58.2
199.281	47.96
199.5	2.9
199.719	17.24
199.938	-17.58
200.157	41.81
200.376	39.76
200.595	-15.53
200.814	19.29
201.033	-17.58
201.252	103.25
201.471	0.85
201.69	15.19
201.909	17.24
202.128	41.81
202.347	90.96
202.566	37.72
202.785	-13.48
203.004	-64.68
203.223	37.72
203.442	-7.34
203.661	-1.19
203.879	50
204.098	52.05
204.317	-1.19
204.536	13.14
204.755	23.38
204.974	60.24
205.193	17.24
205.411	43.86
205.63	11.09
205.849	21.33
206.068	29.52
206.287	9.05
206.505	70.48
206.724	21.33
206.943	62.29
207.162	4.95
207.381	54.1
207.599	0.85
207.818	39.76
208.037	29.52
208.255	60.24
208.474	15.19
208.693	-27.82
208.911	17.24
209.13	62.29
209.349	60.24
209.567	86.87
209.786	-48.3
210.005	66.39
210.223	-13.48
210.442	35.67
210.661	66.39
210.879	-19.63
211.098	47.96
211.316	13.14
211.535	0.85
211.753	-11.43
211.972	41.81
212.191	-21.67
212.409	62.29
212.628	-21.67
212.846	80.72
213.065	56.15
213.283	-21.67
213.502	0.85
213.72	56.15
213.938	78.68
214.157	-11.43
214.375	31.57
214.594	-15.53
214.812	0.85
215.031	107.35
215.249	-11.43
215.467	33.62
215.686	33.62
215.904	4.95
216.122	23.38
216.341	62.29
216.559	27.48
216.778	72.53
216.996	74.58
217.214	78.68
217.432	2.9
217.651	-44.2
217.869	-23.72
218.087	82.77
218.306	58.2
218.524	29.52
218.742	-1.19
218.96	33.62
219.179	15.19
219.397	-25.77
219.615	19.29
219.833	52.05
220.051	-60.59
220.27	74.58
220.488	45.91
220.706	41.81
220.924	-5.29
221.142	4.95
221.36	54.1
221.578	27.48
221.796	33.62
222.015	4.95
222.233	15.19
222.451	62.29
222.669	47.96
222.887	39.76
223.105	43.86
223.323	45.91
223.541	-74.92
223.759	17.24
223.977	19.29
224.195	31.57
224.413	17.24
224.631	39.76
224.849	-9.39
225.067	50
225.285	64.34
225.503	70.48
225.721	-66.73
225.939	2.9
226.157	-46.25
226.375	21.33
226.592	31.57
226.81	50
227.028	7
227.246	33.62
227.464	-33.96
227.682	119.64
227.9	15.19
228.117	60.24
228.335	0.85
228.553	-11.43
228.771	35.67
228.989	-1.19
229.206	45.91
229.424	31.57
229.642	39.76
229.86	45.91
230.077	50
230.295	-50.35
230.513	2.9
230.731	27.48
230.948	50
231.166	19.29
231.384	50
231.601	-9.39
231.819	54.1
232.037	95.06
232.254	29.52
232.472	84.82
232.689	43.86
232.907	0.85
233.125	74.58
233.342	-21.67
233.56	-27.82
233.777	15.19
233.995	41.81
234.213	60.24
234.43	56.15
234.648	103.25
234.865	-27.82
235.083	13.14
235.3	-7.34
235.518	-5.29
235.735	27.48
235.953	23.38
236.17	21.33
236.388	43.86
236.605	33.62
236.822	41.81
237.04	133.97
237.257	33.62
237.475	21.33
237.692	-25.77
237.909	68.44
238.127	45.91
238.344	-7.34
238.562	97.11
238.779	-7.34
238.996	52.05
239.214	13.14
239.431	29.52
239.648	-13.48
239.865	-19.63
240.083	39.76
240.3	74.58
240.517	-29.87
240.735	93.01
240.952	129.88
241.169	17.24
241.386	-1.19
241.603	-85.16
241.821	-36.01
242.038	7
242.255	78.68
242.472	29.52
242.689	97.11
242.907	-11.43
243.124	15.19
243.341	13.14
243.558	-7.34
243.775	76.63
243.992	-23.72
244.209	-1.19
244.426	21.33
244.643	58.2
244.86	72.53
245.078	-64.68
245.295	45.91
245.512	54.1
245.729	-5.29
245.946	21.33
246.163	11.09
246.38	117.59
246.597	29.52
246.814	93.01
247.031	119.64
247.248	72.53
247.464	17.24
247.681	33.62
247.898	45.91
248.115	7
248.332	54.1
248.549	27.48
248.766	41.81
248.983	99.16
249.2	11.09
249.417	127.83
249.633	39.76
249.85	-1.19
250.067	39.76
250.284	-5.29
250.501	50
250.717	66.39
250.934	-58.54
251.151	84.82
251.368	78.68
251.585	35.67
251.801	86.87
252.018	-38.06
252.235	11.09
252.451	29.52
252.668	-25.77
252.885	45.91
253.102	0.85
253.318	117.59
253.535	50
253.752	-68.78
253.968	21.33
254.185	-17.58
254.401	54.1
254.618	105.3
254.835	-21.67
255.051	84.82
255.268	58.2
255.484	64.34
255.701	-33.96
255.917	23.38
256.134	-15.53
256.351	13.14
256.567	-19.63
256.784	25.43
257	-52.39
257.217	11.09
257.433	60.24
257.65	17.24
257.866	45.91
258.082	39.76
258.299	-19.63
258.515	17.24
258.732	17.24
258.948	17.24
259.165	-31.91
259.381	13.14
259.597	7
259.814	41.81
260.03	133.97
260.246	21.33
260.463	17.24
260.679	80.72
260.895	-40.11
261.112	2.9
261.328	41.81
261.544	15.19
261.761	-3.24
261.977	41.81
262.193	21.33
262.409	37.72
262.626	7
262.842	50
263.058	-11.43
263.274	-9.39
263.49	58.2
263.707	50
263.923	54.1
264.139	52.05
264.355	4.95
264.571	54.1
264.787	50
265.004	52.05
265.22	17.24
265.436	-3.24
265.652	-17.58
265.868	37.72
266.084	82.77
266.3	64.34
266.516	-29.87
266.732	52.05
266.948	66.39
267.164	80.72
267.38	101.2
267.596	-29.87
267.812	29.52
268.028	82.77
268.244	17.24
268.46	66.39
268.676	31.57
268.892	37.72
269.108	78.68
269.324	-44.2
269.54	-15.53
269.756	78.68
269.972	72.53
270.188	19.29
270.403	52.05
270.619	11.09
270.835	25.43
271.051	2.9
271.267	-11.43
271.483	13.14
271.698	21.33
271.914	50
272.13	47.96
272.346	66.39
272.562	21.33
272.777	109.4
272.993	31.57
273.209	29.52
273.425	17.24
273.64	76.63
273.856	4.95
274.072	86.87
274.287	-72.87
274.503	66.39
274.719	93.01
274.934	47.96
275.15	15.19
275.366	27.48
275.581	35.67
275.797	41.81
276.012	-15.53
276.228	93.01
276.444	23.38
276.659	52.05
276.875	-66.73
277.09	19.29
277.306	-40.11
277.521	41.81
277.737	-54.44
277.952	33.62
278.168	-48.3
278.383	58.2
278.599	41.81
278.814	43.86
279.03	29.52
279.245	-17.58
279.461	54.1
279.676	-40.11
279.892	13.14
280.107	41.81
280.322	4.95
280.538	47.96
280.753	74.58
280.969	31.57
281.184	-15.53
281.399	43.86
281.615	-7.34
281.83	19.29
282.045	37.72
282.26	-11.43
282.476	0.85
282.691	99.16
282.906	68.44
283.122	47.96
283.337	-36.01
283.552	70.48
283.767	64.34
283.983	41.81
284.198	33.62
284.413	23.38
284.628	-31.91
284.843	43.86
285.058	19.29
285.274	-17.58
285.489	-9.39
285.704	50
285.919	-11.43
286.134	-5.29
286.349	-29.87
286.564	-52.39
286.779	39.76
286.995	17.24
287.21	15.19
287.425	74.58
287.64	-11.43
287.855	115.54
288.07	-7.34
288.285	19.29
288.5	-17.58
288.715	-11.43
288.93	35.67
289.145	39.76
289.36	17.24
289.575	25.43
289.79	-27.82
290.004	-56.49
290.219	27.48
290.434	2.9
290.649	64.34
290.864	58.2
291.079	60.24
291.294	-9.39
291.509	-23.72
291.724	29.52
291.938	39.76
292.153	-36.01
292.368	-60.59
292.583	82.77
292.798	115.54
293.012	29.52
293.227	82.77
293.442	21.33
293.657	-44.2
293.871	41.81
294.086	37.72
294.301	25.43
294.516	37.72
294.73	-21.67
294.945	84.82
295.16	21.33
295.374	99.16
295.589	11.09
295.804	4.95
296.018	52.05
296.233	-7.34
296.447	2.9
296.662	-29.87
296.877	41.81
297.091	29.52
297.306	13.14
297.52	27.48
297.735	7
297.949	29.52
298.164	78.68
298.378	72.53
298.593	25.43
298.807	0.85
299.022	43.86
299.236	21.33
299.451	54.1
299.665	39.76
299.88	74.58
300.094	-1.19
300.309	-27.82
300.523	13.14
300.737	60.24
300.952	-15.53
301.166	70.48
301.381	11.09
301.595	-1.19
301.809	-1.19
302.024	29.52
302.238	-13.48
302.452	-5.29
302.667	17.24
302.881	84.82
303.095	68.44
303.309	-31.91
303.524	13.14
303.738	70.48
303.952	11.09
304.166	25.43
304.381	-25.77
304.595	54.1
304.809	19.29
305.023	115.54
305.237	7
305.452	88.92
305.666	56.15
305.88	25.43
306.094	21.33
306.308	17.24
306.522	47.96
306.736	13.14
306.95	62.29
307.164	82.77
307.379	78.68
307.593	-13.48
307.807	21.33
308.021	19.29
308.235	82.77
308.449	54.1
308.663	-3.24
308.877	-5.29
309.091	-3.24
309.305	70.48
309.519	-5.29
309.733	41.81
309.947	-19.63
310.161	62.29
310.374	23.38
310.588	60.24
310.802	-79.02
311.016	103.25
311.23	35.67
311.444	-7.34
311.658	-29.87
311.872	62.29
312.085	47.96
312.299	13.14
312.513	47.96
312.727	58.2
312.941	19.29
313.154	45.91
313.368	-5.29
313.582	111.44
313.796	-17.58
314.009	58.2
314.223	107.35
314.437	35.67
314.651	35.67
314.864	-7.34
315.078	-9.39
315.292	2.9
315.505	-3.24
315.719	68.44
315.933	2.9
316.146	-21.67
316.36	9.05
316.573	35.67
316.787	11.09
317.001	19.29
317.214	23.38
317.428	17.24
317.641	70.48
317.855	-7.34
318.068	-15.53
318.282	52.05
318.495	76.63
318.709	62.29
318.922	11.09
319.136	86.87
319.349	66.39
319.563	45.91
319.776	17.24
319.99	31.57
320.203	-3.24
320.417	2.9
320.63	17.24
320.843	93.01
321.057	-11.43
321.27	111.44
321.483	74.58
321.697	17.24
321.91	35.67
322.124	9.05
322.337	31.57
322.55	97.11
322.763	41.81
322.977	-15.53
323.19	-29.87
323.403	74.58
323.617	33.62
323.83	90.96
324.043	4.95
324.256	0.85
324.469	109.4
324.683	7
324.896	52.05
325.109	56.15
325.322	68.44
325.535	29.52
325.748	54.1
325.962	21.33
326.175	4.95
326.388	78.68
326.601	62.29
326.814	11.09
327.027	33.62
327.24	62.29
327.453	9.05
327.666	50
327.879	84.82
328.092	19.29
328.305	56.15
328.518	-19.63
328.731	-17.58
328.944	41.81
329.157	64.34
329.37	15.19
329.583	84.82
329.796	60.24
330.009	-5.29
330.222	-15.53
330.435	31.57
330.648	-25.77
330.861	-11.43
331.073	29.52
331.286	35.67
331.499	39.76
331.712	-29.87
331.925	2.9
332.138	13.14
332.35	52.05
332.563	45.91
332.776	13.14
332.989	33.62
333.202	9.05
333.414	-42.15
333.627	54.1
333.84	29.52
334.053	31.57
334.265	78.68
334.478	62.29
334.691	-42.15
334.903	-9.39
335.116	0.85
335.329	47.96
335.541	62.29
335.754	66.39
335.966	101.2
336.179	84.82
336.392	-17.58
336.604	0.85
336.817	13.14
337.029	68.44
337.242	60.24
337.454	70.48
337.667	45.91
337.88	17.24
338.092	62.29
338.305	31.57
338.517	95.06
338.729	35.67
338.942	35.67
339.154	35.67
339.367	4.95
339.579	95.06
339.792	103.25
340.004	54.1
340.217	-1.19
340.429	-3.24
340.641	25.43
340.854	11.09
341.066	19.29
341.278	99.16
341.491	41.81
341.703	27.48
341.915	-17.58
342.128	105.3
342.34	4.95
342.552	45.91
342.764	-19.63
342.977	-40.11
343.189	82.77
343.401	131.92
343.613	80.72
343.826	62.29
344.038	82.77
344.25	35.67
344.462	43.86
344.674	52.05
344.886	70.48
345.099	39.76
345.311	86.87
345.523	-1.19
345.735	0.85
345.947	35.67
346.159	13.14
346.371	2.9
346.583	13.14
346.795	84.82
347.007	-3.24
347.219	88.92
347.431	-13.48
347.643	115.54
347.855	27.48
348.067	41.81
348.279	21.33
348.491	66.39
348.703	27.48
348.915	43.86
349.127	35.67
349.339	-3.24
349.551	17.24
349.763	68.44
349.975	39.76
350.187	76.63
350.399	72.53
350.61	-7.34
350.822	-21.67
351.034	54.1
351.246	52.05
351.458	56.15
351.669	-13.48
351.881	37.72
352.093	60.24
352.305	39.76
352.517	21.33
352.728	-31.91
352.94	41.81
353.152	45.91
353.363	-3.24
353.575	35.67
353.787	9.05
353.999	27.48
354.21	78.68
354.422	11.09
354.633	17.24
354.845	54.1
355.057	47.96
355.268	52.05
355.48	31.57
355.692	41.81
355.903	9.05
356.115	64.34
356.326	21.33
356.538	93.01
356.749	21.33
356.961	64.34
357.172	-11.43
357.384	54.1
357.595	62.29
357.807	43.86
358.018	39.76
358.23	123.73
358.441	115.54
358.653	107.35
358.864	47.96
359.075	19.29
359.287	11.09
359.498	33.62
359.709	88.92
359.921	62.29
360.132	82.77
360.344	15.19
360.555	43.86
360.766	43.86
360.977	-7.34
361.189	70.48
361.4	-1.19
361.611	84.82
361.823	39.76
362.034	7
362.245	27.48
362.456	64.34
362.667	37.72
362.879	19.29
363.09	2.9
363.301	-1.19
363.512	23.38
363.723	13.14
363.935	72.53
364.146	50
364.357	43.86
364.568	-40.11
364.779	64.34
364.99	70.48
365.201	7
365.412	-19.63
365.623	19.29
365.834	25.43
366.045	84.82
366.256	80.72
366.467	90.96
366.678	86.87
366.889	56.15
367.1	13.14
367.311	-60.59
367.522	39.76
367.733	109.4
367.944	7
368.155	-38.06
368.366	15.19
368.577	62.29
368.788	15.19
368.999	15.19
369.209	27.48
369.42	99.16
369.631	84.82
369.842	27.48
370.053	101.2
370.264	97.11
370.474	64.34
370.685	0.85
370.896	15.19
371.107	33.62
371.317	50
371.528	97.11
371.739	115.54
371.95	93.01
372.16	19.29
372.371	103.25
372.582	-7.34
372.792	-21.67
373.003	-7.34
373.214	54.1
373.424	86.87
373.635	13.14
373.846	13.14
374.056	-5.29
374.267	95.06
374.477	70.48
374.688	17.24
374.898	33.62
375.109	7
375.319	54.1
375.53	60.24
375.74	41.81
375.951	29.52
376.161	13.14
376.372	125.78
376.582	19.29
376.793	88.92
377.003	95.06
377.214	47.96
377.424	64.34
377.635	21.33
377.845	-3.24
378.055	39.76
378.266	-40.11
378.476	56.15
378.686	68.44
378.897	13.14
379.107	119.64
379.317	54.1
379.528	23.38
379.738	39.76
379.948	13.14
380.158	41.81
380.369	72.53
380.579	62.29
380.789	-9.39
380.999	78.68
381.21	45.91
381.42	54.1
381.63	35.67
381.84	15.19
382.05	60.24
382.261	-5.29
382.471	74.58
382.681	-27.82
382.891	86.87
383.101	25.43
383.311	-5.29
383.521	62.29
383.731	121.68
383.941	23.38
384.151	90.96
384.361	80.72
384.571	68.44
384.781	-7.34
384.991	11.09
385.201	90.96
385.411	68.44
385.621	72.53
385.831	54.1
386.041	115.54
386.251	76.63
386.461	76.63
386.671	41.81
386.881	43.86
387.091	-31.91
387.301	115.54
387.511	27.48
387.72	60.24
387.93	88.92
388.14	7
388.35	76.63
388.56	47.96
388.769	29.52
388.979	45.91
389.189	74.58
389.399	17.24
389.609	39.76
389.818	23.38
390.028	2.9
390.238	62.29
390.447	-1.19
390.657	39.76
390.867	72.53
391.076	43.86
391.286	86.87
391.496	101.2
391.705	41.81
391.915	54.1
392.125	72.53
392.334	125.78
392.544	103.25
392.753	80.72
392.963	88.92
393.172	56.15
393.382	41.81
393.591	93.01
393.801	105.3
394.01	131.92
394.22	50
394.429	78.68
394.639	66.39
394.848	156.5
395.058	45.91
395.267	60.24
395.477	68.44
395.686	78.68
395.895	111.44
396.105	68.44
396.314	0.85
396.524	129.88
396.733	72.53
396.942	121.68
397.152	113.49
397.361	43.86
397.57	27.48
397.78	45.91
397.989	68.44
398.198	62.29
398.407	47.96
398.617	39.76
398.826	68.44
399.035	117.59
399.244	170.83
399.453	144.21
399.663	103.25
399.872	43.86
400.081	62.29
400.29	82.77
400.499	86.87
400.708	121.68
400.917	84.82
401.127	129.88
401.336	109.4
401.545	150.36
401.754	138.07
401.963	115.54
402.172	193.36
402.381	109.4
402.59	111.44
402.799	76.63
403.008	148.31
403.217	119.64
403.426	107.35
403.635	156.5
403.844	168.79
404.053	111.44
404.262	144.21
404.471	154.45
404.68	170.83
404.888	90.96
405.097	82.77
405.306	68.44
405.515	176.98
405.724	174.93
405.933	185.17
406.142	133.97
406.35	127.83
406.559	160.59
406.768	176.98
406.977	160.59
407.185	189.27
407.394	101.2
407.603	193.36
407.812	191.31
408.02	330.58
408.229	185.17
408.438	275.28
408.646	191.31
408.855	242.51
409.064	269.14
409.272	230.23
409.481	262.99
409.69	203.6
409.898	211.79
410.107	271.19
410.315	340.82
410.524	285.52
410.733	332.62
410.941	344.91
411.15	287.57
411.358	340.82
411.567	398.16
411.775	402.26
411.984	357.2
412.192	428.88
412.401	369.49
412.609	451.41
412.818	418.64
413.026	492.37
413.234	475.98
413.443	553.8
413.651	471.89
413.86	492.37
414.068	557.9
414.276	566.09
414.485	623.44
414.693	635.72
414.901	654.16
415.11	643.92
415.318	639.82
415.526	652.11
415.734	762.7
415.943	754.51
416.151	805.71
416.359	834.38
416.567	783.18
416.776	883.53
416.984	887.62
417.192	983.88
417.4	957.25
417.608	932.68
417.817	1012.55
418.025	1086.28
418.233	1213.25
418.441	953.16
418.649	1104.71
418.857	1203.01
419.065	1239.87
419.273	1168.2
419.481	1213.25
419.689	1407.81
419.897	1456.96
420.105	1327.94
420.313	1387.33
420.521	1549.12
420.729	1514.3
420.937	1516.35
421.145	1645.37
421.353	1758.01
421.561	1782.59
421.769	1891.13
421.977	2048.82
422.185	1866.55
422.393	2128.69
422.601	2112.31
422.809	2214.71
423.017	2171.7
423.224	2243.38
423.432	2423.6
423.64	2417.46
423.848	2607.92
424.056	2538.29
424.263	2683.69
424.471	2779.95
424.679	2806.57
424.887	2827.05
425.094	2986.79
425.302	3033.9
425.51	3130.15
425.718	3191.59
425.925	3408.67
426.133	3216.16
426.341	3535.65
426.548	3613.47
426.756	3752.73
426.964	3715.87
427.171	3943.19
427.379	4188.95
427.586	4176.66
427.794	4369.17
428.001	4506.38
428.209	4565.78
428.417	4479.76
428.624	5040.9
428.832	4932.36
429.039	4920.07
429.247	4832.01
429.454	5526.27
429.662	5704.45
429.869	5470.98
430.076	5667.58
430.284	5579.52
430.491	5645.06
430.699	6165.24
430.906	6060.79
431.114	6214.39
431.321	6460.15
431.528	6595.31
431.736	7086.83
431.943	7308.01
432.15	7062.25
432.358	7338.73
432.565	7465.7
432.772	7557.86
432.979	8051.42
433.187	8301.27
433.394	8196.82
433.601	8530.64
433.808	8772.3
434.016	8788.69
434.223	9087.69
434.43	9628.35
434.637	9554.63
434.844	9781.95
435.052	10343.1
435.259	10142.39
435.466	10169.02
435.673	10054.33
435.88	10914.48
436.087	11485.86
436.294	11520.68
436.501	11096.75
436.708	11496.1
436.915	11737.76
437.122	12180.12
437.329	12171.93
437.537	12575.38
437.743	12655.25
437.95	12667.54
438.157	13390.47
438.364	13795.97
438.571	14090.88
438.778	13859.46
438.985	15288.94
439.192	14664.31
439.399	14940.79
439.606	14766.71
439.813	15592.04
440.02	16462.43
440.227	16323.16
440.433	16134.75
440.64	16632.41
440.847	16689.75
441.054	16763.48
441.261	17953.35
441.467	17893.96
441.674	18147.9
441.881	18879.03
442.088	18807.35
442.294	18793.01
442.501	19180.08
442.708	19673.64
442.914	20193.83
443.121	21092.88
443.328	20443.68
443.534	21895.69
443.741	21217.81
443.948	20951.57
444.154	22755.83
444.361	22725.11
444.568	22333.95
444.774	22905.34
444.981	23020.02
445.187	23564.78
445.394	24469.98
445.6	24240.61
445.807	26841.53
446.013	25653.71
446.22	25883.08
446.426	27001.27
446.633	27146.68
446.839	28230.05
447.046	27204.02
447.252	28406.18
447.459	28717.47
447.665	28287.4
447.871	29432.21
448.078	31123.83
448.284	29413.78
448.491	30206.34
448.697	31469.94
448.903	31906.16
449.11	32172.39
449.316	31457.65
449.522	31893.87
449.728	33155.42
449.935	33452.37
450.141	32801.12
450.347	33728.85
450.553	32934.24
450.76	33403.22
450.966	34279.75
451.172	34085.2
451.378	34847.04
451.584	34478.41
451.791	35057.98
451.997	34879.81
452.203	35209.53
452.409	35688.76
452.615	35197.24
452.821	34048.33
453.027	33716.56
453.233	35352.89
453.44	34019.66
453.646	34451.78
453.852	34474.31
454.058	34990.4
454.264	34021.71
454.47	34720.07
454.676	33718.61
454.882	35012.93
455.088	32041.32
455.294	32565.6
455.5	33335.64
455.705	33415.51
455.911	31877.49
456.117	31222.14
456.323	31093.11
456.529	29319.57
456.735	30744.96
456.941	29968.78
457.147	29340.05
457.352	28346.79
457.558	28379.56
457.764	28234.15
457.97	27713.97
458.176	26937.79
458.381	27118.01
458.587	25874.89
458.793	25377.23
458.999	24209.89
459.204	26257.86
459.41	25342.42
459.616	23595.5
459.821	23861.74
460.027	23599.6
460.233	23077.37
460.438	22129.16
460.644	22442.49
460.85	21121.56
461.055	20947.48
461.261	21072.4
461.466	19397.17
461.672	18711.1
461.878	19952.16
462.083	18846.26
462.289	18643.51
462.494	18262.59
462.7	17416.78
462.905	16781.91
463.111	17545.8
463.316	17510.99
463.522	16947.79
463.727	17173.07
463.932	17021.52
464.138	17050.19
464.343	17050.19
464.549	16603.74
464.754	17144.4
464.959	16900.69
465.165	16724.57
465.37	16405.08
465.575	15805.03
465.781	16339.55
465.986	16380.51
466.191	15956.58
466.397	15481.45
466.602	14805.62
466.807	15463.02
467.012	15362.67
467.218	15047.28
467.423	15020.66
467.628	15159.92
467.833	15741.54
468.038	15399.53
468.244	14834.29
468.449	15510.12
