Data from USB4F104151__33__11-44-53-553.txt Node

Date: Fri Mar 14 11:44:53 EDT 2025
User: louis
Spectrometer: USB4F10415
Trigger mode: 4
Integration Time (sec): 2.000000E-2
Scans to average: 1
Electric dark correction enabled: true
Nonlinearity correction enabled: false
Boxcar width: 0
XAxis mode: Wavelengths
Number of Pixels in Spectrum: 3648
>>>>>Begin Spectral Data<<<<<
178.204	-54.1
178.424	-54.1
178.644	-54.1
178.864	-142.16
179.084	-17.24
179.304	7.34
179.524	-2.9
179.744	-13.14
179.964	13.48
180.184	25.77
180.404	21.67
180.624	3.24
180.844	25.77
181.064	-27.48
181.283	-7
181.503	-78.68
181.723	31.91
181.943	-74.58
182.163	83.11
182.383	33.96
182.602	68.78
182.822	3.24
183.042	-11.09
183.262	17.58
183.482	-39.76
183.701	-7
183.921	48.3
184.141	-17.24
184.361	11.43
184.58	7.34
184.8	-0.85
185.02	36.01
185.239	-9.05
185.459	-17.24
185.679	-0.85
185.898	21.67
186.118	38.06
186.338	64.68
186.557	36.01
186.777	-39.76
186.997	31.91
187.216	25.77
187.436	11.43
187.655	-11.09
187.875	93.35
188.095	5.29
188.314	81.07
188.534	29.87
188.753	-43.86
188.973	-2.9
189.192	48.3
189.412	-29.52
189.631	-15.19
189.851	-21.33
190.07	-4.95
190.29	-60.24
190.509	70.83
190.729	91.31
190.948	87.21
191.168	128.17
191.387	48.3
191.607	3.24
191.826	19.63
192.045	33.96
192.265	-9.05
192.484	-25.43
192.704	40.11
192.923	-23.38
193.142	62.63
193.362	64.68
193.581	-7
193.8	13.48
194.02	48.3
194.239	25.77
194.458	-4.95
194.678	9.39
194.897	-2.9
195.116	-15.19
195.335	11.43
195.555	-0.85
195.774	83.11
195.993	7.34
196.212	25.77
196.432	-37.72
196.651	29.87
196.87	15.53
197.089	36.01
197.308	42.15
197.528	33.96
197.747	3.24
197.966	13.48
198.185	36.01
198.404	1.19
198.623	93.35
198.842	-7
199.062	13.48
199.281	-27.48
199.5	-17.24
199.719	-25.43
199.938	33.96
200.157	50.35
200.376	-15.19
200.595	19.63
200.814	-54.1
201.033	-37.72
201.252	13.48
201.471	62.63
201.69	-7
201.909	-11.09
202.128	52.39
202.347	33.96
202.566	19.63
202.785	-0.85
203.004	25.77
203.223	105.64
203.442	-56.15
203.661	27.82
203.879	56.49
204.098	48.3
204.317	-11.09
204.536	33.96
204.755	-15.19
204.974	58.54
205.193	15.53
205.411	66.73
205.63	7.34
205.849	23.72
206.068	-66.39
206.287	23.72
206.505	-11.09
206.724	64.68
206.943	54.44
207.162	-54.1
207.381	-0.85
207.599	-25.43
207.818	42.15
208.037	5.29
208.255	70.83
208.474	81.07
208.693	50.35
208.911	21.67
209.13	-2.9
209.349	11.43
209.567	48.3
209.786	144.55
210.005	-15.19
210.223	-15.19
210.442	-62.29
210.661	60.59
210.879	-0.85
211.098	-7
211.316	60.59
211.535	56.49
211.753	29.87
211.972	-45.91
212.191	-7
212.409	-9.05
212.628	-25.43
212.846	-33.62
213.065	23.72
213.283	54.44
213.502	52.39
213.72	36.01
213.938	48.3
214.157	-0.85
214.375	25.77
214.594	13.48
214.812	27.82
215.031	13.48
215.249	62.63
215.467	50.35
215.686	54.44
215.904	107.69
216.122	74.92
216.341	54.44
216.559	38.06
216.778	79.02
216.996	44.2
217.214	44.2
217.432	13.48
217.651	9.39
217.869	-25.43
218.087	17.58
218.306	40.11
218.524	-19.29
218.742	-13.14
218.96	60.59
219.179	21.67
219.397	27.82
219.615	48.3
219.833	103.59
220.051	-27.48
220.27	-0.85
220.488	25.77
220.706	-9.05
220.924	60.59
221.142	62.63
221.36	72.87
221.578	31.91
221.796	13.48
222.015	-13.14
222.233	-35.67
222.451	3.24
222.669	11.43
222.887	9.39
223.105	3.24
223.323	29.87
223.541	-7
223.759	42.15
223.977	68.78
224.195	29.87
224.413	15.53
224.631	-7
224.849	21.67
225.067	119.98
225.285	76.97
225.503	66.73
225.721	-2.9
225.939	31.91
226.157	74.92
226.375	36.01
226.592	-9.05
226.81	-17.24
227.028	48.3
227.246	74.92
227.464	40.11
227.682	5.29
227.9	101.55
228.117	64.68
228.335	13.48
228.553	40.11
228.771	-70.48
228.989	13.48
229.206	40.11
229.424	3.24
229.642	48.3
229.86	-2.9
230.077	70.83
230.295	11.43
230.513	27.82
230.731	64.68
230.948	74.92
231.166	31.91
231.384	40.11
231.601	25.77
231.819	85.16
232.037	-82.77
232.254	1.19
232.472	48.3
232.689	36.01
232.907	87.21
233.125	9.39
233.342	27.82
233.56	15.53
233.777	42.15
233.995	-64.34
234.213	11.43
234.43	-25.43
234.648	9.39
234.865	13.48
235.083	38.06
235.3	89.26
235.518	-2.9
235.735	50.35
235.953	21.67
236.17	21.67
236.388	33.96
236.605	54.44
236.822	1.19
237.04	13.48
237.257	50.35
237.475	5.29
237.692	23.72
237.909	3.24
238.127	-2.9
238.344	-7
238.562	38.06
238.779	13.48
238.996	19.63
239.214	13.48
239.431	-25.43
239.648	-21.33
239.865	3.24
240.083	-0.85
240.3	29.87
240.517	52.39
240.735	-50
240.952	79.02
241.169	83.11
241.386	56.49
241.603	68.78
241.821	42.15
242.038	-17.24
242.255	48.3
242.472	23.72
242.689	11.43
242.907	115.88
243.124	-45.91
243.341	111.78
243.558	-60.24
243.775	31.91
243.992	25.77
244.209	62.63
244.426	19.63
244.643	54.44
244.86	1.19
245.078	60.59
245.295	27.82
245.512	13.48
245.729	44.2
245.946	-52.05
246.163	25.77
246.38	-41.81
246.597	-11.09
246.814	-11.09
247.031	-72.53
247.248	72.87
247.464	27.82
247.681	62.63
247.898	7.34
248.115	-0.85
248.332	-27.48
248.549	64.68
248.766	76.97
248.983	48.3
249.2	36.01
249.417	46.25
249.633	-21.33
249.85	21.67
250.067	-7
250.284	17.58
250.501	87.21
250.717	17.58
250.934	-7
251.151	54.44
251.368	1.19
251.585	-35.67
251.801	-27.48
252.018	-39.76
252.235	89.26
252.451	3.24
252.668	31.91
252.885	38.06
253.102	124.07
253.318	62.63
253.535	-47.96
253.752	-13.14
253.968	50.35
254.185	72.87
254.401	60.59
254.618	29.87
254.835	68.78
255.051	1.19
255.268	17.58
255.484	60.59
255.701	-4.95
255.917	-17.24
256.134	38.06
256.351	38.06
256.567	1.19
256.784	62.63
257	-45.91
257.217	79.02
257.433	40.11
257.65	46.25
257.866	-58.2
258.082	38.06
258.299	-95.06
258.515	3.24
258.732	3.24
258.948	-9.05
259.165	-9.05
259.381	9.39
259.597	5.29
259.814	40.11
260.03	-68.44
260.246	-9.05
260.463	1.19
260.679	109.74
260.895	11.43
261.112	79.02
261.328	36.01
261.544	-50
261.761	36.01
261.977	3.24
262.193	-37.72
262.409	70.83
262.626	17.58
262.842	36.01
263.058	-45.91
263.274	31.91
263.49	-37.72
263.707	7.34
263.923	60.59
264.139	29.87
264.355	7.34
264.571	60.59
264.787	117.93
265.004	40.11
265.22	-70.48
265.436	31.91
265.652	13.48
265.868	25.77
266.084	-2.9
266.3	81.07
266.516	38.06
266.732	21.67
266.948	-33.62
267.164	36.01
267.38	-7
267.596	68.78
267.812	25.77
268.028	50.35
268.244	-39.76
268.46	23.72
268.676	-35.67
268.892	-13.14
269.108	-101.2
269.324	25.77
269.54	5.29
269.756	52.39
269.972	3.24
270.188	62.63
270.403	-13.14
270.619	-4.95
270.835	19.63
271.051	13.48
271.267	-21.33
271.483	50.35
271.698	19.63
271.914	11.43
272.13	15.53
272.346	15.53
272.562	-58.2
272.777	66.73
272.993	-45.91
273.209	64.68
273.425	31.91
273.64	74.92
273.856	-37.72
274.072	64.68
274.287	58.54
274.503	-9.05
274.719	23.72
274.934	19.63
275.15	58.54
275.366	40.11
275.581	9.39
275.797	-29.52
276.012	-35.67
276.228	19.63
276.444	85.16
276.659	85.16
276.875	17.58
277.09	3.24
277.306	42.15
277.521	-11.09
277.737	-0.85
277.952	1.19
278.168	11.43
278.383	11.43
278.599	21.67
278.814	23.72
279.03	7.34
279.245	31.91
279.461	58.54
279.676	72.87
279.892	31.91
280.107	-11.09
280.322	42.15
280.538	36.01
280.753	81.07
280.969	21.67
281.184	-27.48
281.399	42.15
281.615	29.87
281.83	40.11
282.045	-17.24
282.26	58.54
282.476	54.44
282.691	36.01
282.906	46.25
283.122	66.73
283.337	38.06
283.552	54.44
283.767	54.44
283.983	17.58
284.198	50.35
284.413	1.19
284.628	-43.86
284.843	36.01
285.058	1.19
285.274	11.43
285.489	11.43
285.704	46.25
285.919	11.43
286.134	-33.62
286.349	66.73
286.564	29.87
286.779	29.87
286.995	-7
287.21	-41.81
287.425	95.4
287.64	-13.14
287.855	27.82
288.07	-27.48
288.285	3.24
288.5	42.15
288.715	64.68
288.93	48.3
289.145	-11.09
289.36	36.01
289.575	-52.05
289.79	19.63
290.004	-27.48
290.219	5.29
290.434	29.87
290.649	-45.91
290.864	-27.48
291.079	36.01
291.294	48.3
291.509	-47.96
291.724	7.34
291.938	52.39
292.153	97.45
292.368	-2.9
292.583	46.25
292.798	15.53
293.012	-13.14
293.227	64.68
293.442	23.72
293.657	76.97
293.871	68.78
294.086	-4.95
294.301	33.96
294.516	64.68
294.73	64.68
294.945	3.24
295.16	-33.62
295.374	81.07
295.589	54.44
295.804	9.39
296.018	68.78
296.233	72.87
296.447	-11.09
296.662	36.01
296.877	50.35
297.091	76.97
297.306	23.72
297.52	99.5
297.735	7.34
297.949	-13.14
298.164	3.24
298.378	40.11
298.593	-27.48
298.807	-54.1
299.022	33.96
299.236	9.39
299.451	15.53
299.665	-7
299.88	21.67
300.094	31.91
300.309	44.2
300.523	9.39
300.737	-29.52
300.952	38.06
301.166	-11.09
301.381	38.06
301.595	68.78
301.809	64.68
302.024	50.35
302.238	-25.43
302.452	48.3
302.667	-15.19
302.881	119.98
303.095	60.59
303.309	3.24
303.524	9.39
303.738	-62.29
303.952	-0.85
304.166	-29.52
304.381	-39.76
304.595	25.77
304.809	11.43
305.023	66.73
305.237	46.25
305.452	31.91
305.666	33.96
305.88	140.46
306.094	119.98
306.308	48.3
306.522	54.44
306.736	85.16
306.95	-4.95
307.164	25.77
307.379	-7
307.593	46.25
307.807	66.73
308.021	15.53
308.235	64.68
308.449	-27.48
308.663	17.58
308.877	52.39
309.091	-25.43
309.305	23.72
309.519	-23.38
309.733	1.19
309.947	-39.76
310.161	27.82
310.374	60.59
310.588	-2.9
310.802	-45.91
311.016	48.3
311.23	33.96
311.444	33.96
311.658	81.07
311.872	62.63
312.085	87.21
312.299	50.35
312.513	23.72
312.727	46.25
312.941	29.87
313.154	50.35
313.368	-0.85
313.582	46.25
313.796	36.01
314.009	-23.38
314.223	7.34
314.437	42.15
314.651	21.67
314.864	17.58
315.078	-0.85
315.292	5.29
315.505	9.39
315.719	97.45
315.933	33.96
316.146	-21.33
316.36	7.34
316.573	119.98
316.787	52.39
317.001	23.72
317.214	-4.95
317.428	83.11
317.641	25.77
317.855	38.06
318.068	27.82
318.282	103.59
318.495	62.63
318.709	44.2
318.922	36.01
319.136	93.35
319.349	58.54
319.563	48.3
319.776	-7
319.99	-0.85
320.203	42.15
320.417	60.59
320.63	7.34
320.843	42.15
321.057	5.29
321.27	76.97
321.483	105.64
321.697	83.11
321.91	-15.19
322.124	46.25
322.337	31.91
322.55	3.24
322.763	46.25
322.977	9.39
323.19	74.92
323.403	-29.52
323.617	38.06
323.83	68.78
324.043	-43.86
324.256	66.73
324.469	-23.38
324.683	25.77
324.896	19.63
325.109	9.39
325.322	40.11
325.535	29.87
325.748	19.63
325.962	81.07
326.175	48.3
326.388	-4.95
326.601	119.98
326.814	29.87
327.027	23.72
327.24	-21.33
327.453	-39.76
327.666	25.77
327.879	85.16
328.092	-7
328.305	52.39
328.518	21.67
328.731	-29.52
328.944	58.54
329.157	-68.44
329.37	29.87
329.583	1.19
329.796	23.72
330.009	3.24
330.222	44.2
330.435	99.5
330.648	25.77
330.861	42.15
331.073	46.25
331.286	64.68
331.499	21.67
331.712	7.34
331.925	76.97
332.138	27.82
332.35	103.59
332.563	52.39
332.776	21.67
332.989	25.77
333.202	58.54
333.414	33.96
333.627	13.48
333.84	97.45
334.053	56.49
334.265	48.3
334.478	-4.95
334.691	9.39
334.903	42.15
335.116	9.39
335.329	17.58
335.541	1.19
335.754	13.48
335.966	38.06
336.179	13.48
336.392	99.5
336.604	38.06
336.817	44.2
337.029	50.35
337.242	52.39
337.454	42.15
337.667	5.29
337.88	25.77
338.092	85.16
338.305	60.59
338.517	-0.85
338.729	87.21
338.942	62.63
339.154	11.43
339.367	48.3
339.579	-29.52
339.792	76.97
340.004	89.26
340.217	17.58
340.429	60.59
340.641	-78.68
340.854	48.3
341.066	25.77
341.278	146.6
341.491	48.3
341.703	42.15
341.915	-23.38
342.128	15.53
342.34	-11.09
342.552	15.53
342.764	17.58
342.977	38.06
343.189	19.63
343.401	-0.85
343.613	66.73
343.826	64.68
344.038	76.97
344.25	27.82
344.462	76.97
344.674	-0.85
344.886	72.87
345.099	52.39
345.311	36.01
345.523	56.49
345.735	44.2
345.947	87.21
346.159	42.15
346.371	29.87
346.583	7.34
346.795	99.5
347.007	-2.9
347.219	40.11
347.431	19.63
347.643	50.35
347.855	-7
348.067	-27.48
348.279	46.25
348.491	36.01
348.703	87.21
348.915	60.59
349.127	89.26
349.339	103.59
349.551	15.53
349.763	42.15
349.975	56.49
350.187	54.44
350.399	3.24
350.61	56.49
350.822	1.19
351.034	29.87
351.246	25.77
351.458	3.24
351.669	64.68
351.881	19.63
352.093	31.91
352.305	66.73
352.517	66.73
352.728	91.31
352.94	5.29
353.152	50.35
353.363	-7
353.575	42.15
353.787	-4.95
353.999	48.3
354.21	7.34
354.422	21.67
354.633	-17.24
354.845	64.68
355.057	40.11
355.268	19.63
355.48	50.35
355.692	-4.95
355.903	99.5
356.115	19.63
356.326	-33.62
356.538	81.07
356.749	11.43
356.961	17.58
357.172	31.91
357.384	21.67
357.595	97.45
357.807	3.24
358.018	48.3
358.23	64.68
358.441	70.83
358.653	60.59
358.864	1.19
359.075	-2.9
359.287	-25.43
359.498	58.54
359.709	33.96
359.921	9.39
360.132	3.24
360.344	9.39
360.555	33.96
360.766	15.53
360.977	5.29
361.189	1.19
361.4	-54.1
361.611	93.35
361.823	36.01
362.034	9.39
362.245	15.53
362.456	11.43
362.667	62.63
362.879	58.54
363.09	29.87
363.301	46.25
363.512	72.87
363.723	-4.95
363.935	42.15
364.146	25.77
364.357	-4.95
364.568	23.72
364.779	74.92
364.99	52.39
365.201	-25.43
365.412	29.87
365.623	17.58
365.834	44.2
366.045	9.39
366.256	83.11
366.467	42.15
366.678	50.35
366.889	76.97
367.1	50.35
367.311	74.92
367.522	-4.95
367.733	62.63
367.944	19.63
368.155	17.58
368.366	79.02
368.577	52.39
368.788	68.78
368.999	36.01
369.209	7.34
369.42	54.44
369.631	64.68
369.842	-7
370.053	29.87
370.264	72.87
370.474	44.2
370.685	23.72
370.896	85.16
371.107	29.87
371.317	76.97
371.528	101.55
371.739	109.74
371.95	13.48
372.16	150.7
372.371	1.19
372.582	66.73
372.792	76.97
373.003	74.92
373.214	54.44
373.424	40.11
373.635	19.63
373.846	40.11
374.056	25.77
374.267	119.98
374.477	83.11
374.688	-0.85
374.898	36.01
375.109	122.02
375.319	31.91
375.53	105.64
375.74	36.01
375.951	23.72
376.161	9.39
376.372	79.02
376.582	-9.05
376.793	44.2
377.003	50.35
377.214	62.63
377.424	23.72
377.635	101.55
377.845	-9.05
378.055	93.35
378.266	52.39
378.476	44.2
378.686	111.78
378.897	7.34
379.107	105.64
379.317	89.26
379.528	83.11
379.738	89.26
379.948	-82.77
380.158	42.15
380.369	40.11
380.579	87.21
380.789	-17.24
380.999	66.73
381.21	-13.14
381.42	154.79
381.63	-19.29
381.84	21.67
382.05	97.45
382.261	50.35
382.471	56.49
382.681	38.06
382.891	111.78
383.101	42.15
383.311	33.96
383.521	-11.09
383.731	50.35
383.941	44.2
384.151	46.25
384.361	40.11
384.571	130.22
384.781	48.3
384.991	17.58
385.201	70.83
385.411	36.01
385.621	64.68
385.831	52.39
386.041	85.16
386.251	13.48
386.461	87.21
386.671	-21.33
386.881	58.54
387.091	36.01
387.301	64.68
387.511	62.63
387.72	56.49
387.93	66.73
388.14	7.34
388.35	105.64
388.56	60.59
388.769	48.3
388.979	68.78
389.189	58.54
389.399	11.43
389.609	-19.29
389.818	72.87
390.028	5.29
390.238	128.17
390.447	33.96
390.657	50.35
390.867	-50
391.076	74.92
391.286	79.02
391.496	27.82
391.705	50.35
391.915	70.83
392.125	79.02
392.334	81.07
392.544	15.53
392.753	56.49
392.963	-41.81
393.172	81.07
393.382	56.49
393.591	72.87
393.801	58.54
394.01	72.87
394.22	124.07
394.429	68.78
394.639	33.96
394.848	119.98
395.058	74.92
395.267	68.78
395.477	64.68
395.686	87.21
395.895	79.02
396.105	162.98
396.314	158.89
396.524	64.68
396.733	56.49
396.942	64.68
397.152	107.69
397.361	146.6
397.57	85.16
397.78	3.24
397.989	42.15
398.198	171.18
398.407	140.46
398.617	79.02
398.826	132.26
399.035	76.97
399.244	132.26
399.453	52.39
399.663	79.02
399.872	119.98
400.081	74.92
400.29	197.8
400.499	152.74
400.708	158.89
400.917	74.92
401.127	113.83
401.336	124.07
401.545	95.4
401.754	150.7
401.963	142.5
402.172	167.08
402.381	38.06
402.59	107.69
402.799	85.16
403.008	128.17
403.217	162.98
403.426	117.93
403.635	187.56
403.844	124.07
404.053	148.65
404.262	179.37
404.471	205.99
404.68	58.54
404.888	130.22
405.097	148.65
405.306	158.89
405.515	179.37
405.724	212.14
405.933	162.98
406.142	130.22
406.35	183.46
406.559	208.04
406.768	132.26
406.977	251.05
407.185	167.08
407.394	165.03
407.603	117.93
407.812	224.42
408.02	275.62
408.229	232.62
408.438	253.09
408.646	205.99
408.855	279.72
409.064	246.95
409.272	210.09
409.481	253.09
409.69	294.05
409.898	298.15
410.107	306.34
410.315	312.49
410.524	369.83
410.733	359.59
410.941	339.11
411.15	337.06
411.358	349.35
411.567	412.84
411.775	408.74
411.984	373.92
412.192	390.31
412.401	464.04
412.609	408.74
412.818	459.94
413.026	429.22
413.234	494.76
413.443	498.85
413.651	525.47
413.86	611.49
414.068	601.25
414.276	621.73
414.485	717.98
414.693	691.36
414.901	740.51
415.11	732.32
415.318	685.22
415.526	717.98
415.734	738.46
415.943	867.49
416.151	793.76
416.359	861.34
416.567	832.67
416.776	1053.85
416.984	861.34
417.192	914.59
417.4	1082.52
417.608	947.36
417.817	1115.29
418.025	1137.82
418.233	1180.82
418.441	1078.43
418.649	1184.92
418.857	1268.89
419.065	1272.98
419.273	1303.7
419.481	1322.13
419.689	1467.54
419.897	1434.77
420.105	1465.49
420.313	1655.95
420.521	1682.58
420.729	1658
420.937	1737.87
421.145	1776.78
421.353	1762.45
421.561	1993.87
421.769	1918.09
421.977	2063.5
422.185	2000.01
422.393	2268.3
422.601	2256.01
422.809	2368.65
423.017	2313.35
423.224	2552.96
423.432	2520.2
423.64	2641.03
423.848	2854.02
424.056	2665.6
424.263	2843.78
424.471	2888.83
424.679	2960.51
424.887	3107.96
425.094	3212.41
425.302	3325.05
425.51	3300.47
425.718	3562.61
425.925	3513.46
426.133	3675.25
426.341	3794.03
426.548	3957.87
426.756	3900.53
426.964	4002.93
427.171	4342.89
427.379	4412.52
427.586	4385.9
427.794	4510.82
428.001	4861.02
428.209	5004.38
428.417	5024.86
428.624	5282.91
428.832	5262.43
429.039	5243.99
429.247	5348.44
429.454	5997.65
429.662	6130.77
429.869	5766.23
430.076	6134.86
430.284	5950.54
430.491	6427.72
430.699	6693.96
430.906	6597.7
431.114	6671.43
431.321	6984.77
431.528	7023.68
431.736	7511.1
431.943	7834.68
432.15	7537.72
432.358	7654.45
432.565	8074.29
432.772	8211.5
432.979	8469.55
433.187	8653.86
433.394	8875.04
433.601	9311.26
433.808	9417.75
434.016	9161.76
434.223	9757.72
434.43	10333.2
434.637	10126.35
434.844	10515.47
435.052	10910.72
435.259	10679.3
435.466	10933.25
435.673	10796.04
435.88	11514.87
436.087	11971.57
436.294	12295.15
436.501	11918.32
436.708	12270.58
436.915	12495.85
437.122	13112.29
437.329	13317.09
437.537	13558.75
437.743	13482.97
437.95	13419.49
438.157	14027.73
438.364	14853.06
438.571	14779.34
438.778	14752.71
438.985	16235.44
439.192	15571.9
439.399	15958.97
439.606	15915.96
439.813	16561.07
440.02	17603.49
440.227	17216.42
440.433	17238.95
440.64	17724.32
440.847	17638.3
441.054	18189.21
441.261	19092.36
441.467	18740.11
441.674	19434.37
441.881	20085.62
442.088	20054.9
442.294	19708.8
442.501	20431.73
442.708	20810.61
442.914	21787.49
443.121	22420.31
443.328	21951.32
443.534	23481.16
443.741	22573.91
443.948	22467.41
444.154	24066.88
444.361	24081.21
444.568	24054.59
444.774	24083.26
444.981	24525.62
445.187	24916.78
445.394	26233.63
445.6	25754.4
445.807	28261.12
446.013	27329.29
446.22	27493.13
446.426	28601.08
446.633	28689.14
446.839	29864.67
447.046	28668.66
447.252	30122.72
447.459	30165.73
447.665	30425.82
447.871	31328.97
448.078	32801.46
448.284	31032.02
448.491	31896.26
448.697	33495.72
448.903	34038.44
449.11	33845.93
449.316	33325.74
449.522	34020
449.728	34714.26
449.935	35363.47
450.141	35418.77
450.347	35826.31
450.553	34880.15
450.76	34874.01
450.966	36586.11
451.172	35742.35
451.378	36919.93
451.584	36262.53
451.791	36811.38
451.997	37259.89
452.203	37573.23
452.409	37542.51
452.615	37343.86
452.821	36088.45
453.027	35408.53
453.233	37374.58
453.44	35805.83
453.646	36242.05
453.852	36414.08
454.058	37194.36
454.264	35871.37
454.47	37151.35
454.676	36113.03
454.882	36934.26
455.088	33819.3
455.294	34316.96
455.5	34980.5
455.705	35420.81
455.911	34001.57
456.117	33141.42
456.323	33131.19
456.529	31298.25
456.735	32281.28
456.941	31451.85
457.147	31136.46
457.352	30247.65
457.558	29760.23
457.764	30067.42
457.97	29627.11
458.176	28820.21
458.381	28799.73
458.587	27364.11
458.793	27343.63
458.999	26032.93
459.204	27810.56
459.41	27112.2
459.616	25355.05
459.821	25193.26
460.027	25301.8
460.233	24619.83
460.438	23335.75
460.644	23358.28
460.85	22799.18
461.055	22260.57
461.261	22086.49
461.466	20450.16
461.672	19753.85
461.878	21238.63
462.083	19954.55
462.289	19608.45
462.494	19196.81
462.7	18359.19
462.905	17787.8
463.111	18398.1
463.316	18512.78
463.522	18117.53
463.727	18289.56
463.932	18166.68
464.138	17943.45
464.343	18051.99
464.549	17564.57
464.754	18168.73
464.959	18170.77
465.165	17763.23
465.37	17251.24
465.575	16802.73
465.781	17593.25
465.986	17275.81
466.191	16825.26
466.397	16417.71
466.602	15776.7
466.807	16204.72
467.012	16122.8
467.218	16235.44
467.423	15907.77
467.628	15956.92
467.833	16817.07
468.038	16194.48
468.244	15504.32
468.449	16391.09
