Data from USB4F104151__26__11-44-48-852.txt Node

Date: Fri Mar 14 11:44:48 EDT 2025
User: louis
Spectrometer: USB4F10415
Trigger mode: 4
Integration Time (sec): 2.000000E-2
Scans to average: 1
Electric dark correction enabled: true
Nonlinearity correction enabled: false
Boxcar width: 0
XAxis mode: Wavelengths
Number of Pixels in Spectrum: 3648
>>>>>Begin Spectral Data<<<<<
178.204	-42.67
178.424	-42.67
178.644	-42.67
178.864	-95.91
179.084	-11.95
179.304	-11.95
179.524	37.2
179.744	-59.05
179.964	2.39
180.184	43.35
180.404	41.3
180.624	6.49
180.844	22.87
181.064	-87.72
181.283	-44.71
181.503	2.39
181.723	47.44
181.943	24.92
182.163	29.01
182.383	22.87
182.602	100.69
182.822	6.49
183.042	12.63
183.262	35.16
183.482	33.11
183.701	51.54
183.921	-28.33
184.141	-18.09
184.361	-11.95
184.58	10.58
184.8	12.63
185.02	-65.19
185.239	-20.14
185.459	-13.99
185.679	-13.99
185.898	18.77
186.118	4.44
186.338	-42.67
186.557	57.68
186.777	35.16
186.997	69.97
187.216	88.4
187.436	20.82
187.655	74.07
187.875	-9.9
188.095	29.01
188.314	29.01
188.534	65.88
188.753	-30.38
188.973	24.92
189.192	39.25
189.412	80.21
189.631	29.01
189.851	-13.99
190.07	100.69
190.29	-5.8
190.509	-32.43
190.729	12.63
190.948	92.5
191.168	47.44
191.387	119.12
191.607	35.16
191.826	8.53
192.045	14.68
192.265	-18.09
192.484	26.96
192.704	24.92
192.923	47.44
193.142	100.69
193.362	39.25
193.581	31.06
193.8	76.12
194.02	65.88
194.239	18.77
194.458	6.49
194.678	-26.28
194.897	-50.86
195.116	4.44
195.335	61.78
195.555	-1.71
195.774	29.01
195.993	-59.05
196.212	78.16
196.432	4.44
196.651	-13.99
196.87	-3.75
197.089	24.92
197.308	33.11
197.528	-7.85
197.747	18.77
197.966	35.16
198.185	33.11
198.404	16.73
198.623	12.63
198.842	2.39
199.062	35.16
199.281	31.06
199.5	69.97
199.719	12.63
199.938	26.96
200.157	45.4
200.376	57.68
200.595	8.53
200.814	-16.04
201.033	67.92
201.252	4.44
201.471	49.49
201.69	76.12
201.909	8.53
202.128	12.63
202.347	29.01
202.566	45.4
202.785	26.96
203.004	-40.62
203.223	76.12
203.442	53.59
203.661	72.02
203.879	12.63
204.098	39.25
204.317	16.73
204.536	-26.28
204.755	33.11
204.974	51.54
205.193	65.88
205.411	106.84
205.63	6.49
205.849	-5.8
206.068	37.2
206.287	0.34
206.505	4.44
206.724	0.34
206.943	78.16
207.162	76.12
207.381	-24.23
207.599	12.63
207.818	-16.04
208.037	47.44
208.255	33.11
208.474	129.36
208.693	16.73
208.911	61.78
209.13	24.92
209.349	80.21
209.567	0.34
209.786	59.73
210.005	65.88
210.223	14.68
210.442	-11.95
210.661	69.97
210.879	20.82
211.098	51.54
211.316	47.44
211.535	-13.99
211.753	33.11
211.972	80.21
212.191	-11.95
212.409	-22.19
212.628	2.39
212.846	-59.05
213.065	80.21
213.283	86.36
213.502	69.97
213.72	31.06
213.938	20.82
214.157	12.63
214.375	-3.75
214.594	16.73
214.812	2.39
215.031	6.49
215.249	8.53
215.467	-71.34
215.686	-20.14
215.904	37.2
216.122	24.92
216.341	39.25
216.559	26.96
216.778	45.4
216.996	63.83
217.214	92.5
217.432	2.39
217.651	51.54
217.869	-1.71
218.087	-42.67
218.306	49.49
218.524	4.44
218.742	2.39
218.96	29.01
219.179	39.25
219.397	31.06
219.615	80.21
219.833	63.83
220.051	20.82
220.27	39.25
220.488	-26.28
220.706	12.63
220.924	-5.8
221.142	24.92
221.36	61.78
221.578	55.64
221.796	-7.85
222.015	26.96
222.233	-16.04
222.451	43.35
222.669	29.01
222.887	92.5
223.105	18.77
223.323	37.2
223.541	6.49
223.759	45.4
223.977	6.49
224.195	55.64
224.413	-13.99
224.631	80.21
224.849	39.25
225.067	35.16
225.285	67.92
225.503	43.35
225.721	-40.62
225.939	20.82
226.157	-9.9
226.375	74.07
226.592	57.68
226.81	-1.71
227.028	53.59
227.246	131.41
227.464	20.82
227.682	67.92
227.9	18.77
228.117	-26.28
228.335	35.16
228.553	4.44
228.771	6.49
228.989	84.31
229.206	43.35
229.424	29.01
229.642	14.68
229.86	26.96
230.077	-34.47
230.295	67.92
230.513	37.2
230.731	-1.71
230.948	24.92
231.166	41.3
231.384	-13.99
231.601	-26.28
231.819	63.83
232.037	24.92
232.254	-3.75
232.472	55.64
232.689	57.68
232.907	72.02
233.125	39.25
233.342	133.46
233.56	24.92
233.777	-13.99
233.995	-26.28
234.213	43.35
234.43	39.25
234.648	53.59
234.865	-54.95
235.083	35.16
235.3	12.63
235.518	26.96
235.735	-18.09
235.953	57.68
236.17	-5.8
236.388	-3.75
236.605	-20.14
236.822	45.4
237.04	-16.04
237.257	65.88
237.475	-34.47
237.692	33.11
237.909	-3.75
238.127	-22.19
238.344	-5.8
238.562	51.54
238.779	-24.23
238.996	67.92
239.214	35.16
239.431	-7.85
239.648	-18.09
239.865	41.3
240.083	49.49
240.3	26.96
240.517	31.06
240.735	24.92
240.952	43.35
241.169	-26.28
241.386	-28.33
241.603	-7.85
241.821	2.39
242.038	59.73
242.255	57.68
242.472	-18.09
242.689	43.35
242.907	35.16
243.124	45.4
243.341	-11.95
243.558	-18.09
243.775	14.68
243.992	-22.19
244.209	26.96
244.426	55.64
244.643	39.25
244.86	-3.75
245.078	69.97
245.295	88.4
245.512	51.54
245.729	37.2
245.946	20.82
246.163	24.92
246.38	117.08
246.597	8.53
246.814	24.92
247.031	12.63
247.248	-16.04
247.464	24.92
247.681	-24.23
247.898	29.01
248.115	-16.04
248.332	65.88
248.549	94.55
248.766	4.44
248.983	26.96
249.2	24.92
249.417	147.8
249.633	8.53
249.85	-22.19
250.067	47.44
250.284	16.73
250.501	-54.95
250.717	26.96
250.934	47.44
251.151	45.4
251.368	0.34
251.585	53.59
251.801	4.44
252.018	-9.9
252.235	45.4
252.451	2.39
252.668	20.82
252.885	106.84
253.102	98.64
253.318	82.26
253.535	37.2
253.752	26.96
253.968	10.58
254.185	-73.39
254.401	12.63
254.618	-7.85
254.835	-9.9
255.051	-28.33
255.268	6.49
255.484	-9.9
255.701	22.87
255.917	90.45
256.134	31.06
256.351	94.55
256.567	18.77
256.784	96.6
257	41.3
257.217	108.88
257.433	41.3
257.65	-22.19
257.866	94.55
258.082	43.35
258.299	26.96
258.515	90.45
258.732	47.44
258.948	-1.71
259.165	-9.9
259.381	-20.14
259.597	33.11
259.814	37.2
260.03	-7.85
260.246	-1.71
260.463	49.49
260.679	41.3
260.895	4.44
261.112	-46.76
261.328	-20.14
261.544	6.49
261.761	4.44
261.977	88.4
262.193	16.73
262.409	-16.04
262.626	49.49
262.842	51.54
263.058	49.49
263.274	133.46
263.49	14.68
263.707	61.78
263.923	26.96
264.139	14.68
264.355	8.53
264.571	82.26
264.787	-65.19
265.004	94.55
265.22	80.21
265.436	33.11
265.652	16.73
265.868	53.59
266.084	-44.71
266.3	-1.71
266.516	47.44
266.732	24.92
266.948	63.83
267.164	35.16
267.38	29.01
267.596	49.49
267.812	20.82
268.028	18.77
268.244	-44.71
268.46	0.34
268.676	0.34
268.892	57.68
269.108	53.59
269.324	76.12
269.54	4.44
269.756	41.3
269.972	26.96
270.188	12.63
270.403	51.54
270.619	0.34
270.835	10.58
271.051	106.84
271.267	18.77
271.483	45.4
271.698	141.65
271.914	14.68
272.13	20.82
272.346	43.35
272.562	39.25
272.777	-5.8
272.993	104.79
273.209	102.74
273.425	55.64
273.64	45.4
273.856	22.87
274.072	-5.8
274.287	8.53
274.503	78.16
274.719	22.87
274.934	-40.62
275.15	16.73
275.366	37.2
275.581	55.64
275.797	-34.47
276.012	37.2
276.228	49.49
276.444	51.54
276.659	96.6
276.875	12.63
277.09	33.11
277.306	76.12
277.521	6.49
277.737	43.35
277.952	2.39
278.168	33.11
278.383	35.16
278.599	67.92
278.814	121.17
279.03	12.63
279.245	82.26
279.461	72.02
279.676	76.12
279.892	2.39
280.107	67.92
280.322	6.49
280.538	4.44
280.753	-54.95
280.969	67.92
281.184	14.68
281.399	39.25
281.615	18.77
281.83	49.49
282.045	-42.67
282.26	16.73
282.476	53.59
282.691	35.16
282.906	31.06
283.122	24.92
283.337	43.35
283.552	69.97
283.767	26.96
283.983	33.11
284.198	20.82
284.413	51.54
284.628	43.35
284.843	74.07
285.058	-24.23
285.274	59.73
285.489	2.39
285.704	37.2
285.919	92.5
286.134	108.88
286.349	-11.95
286.564	4.44
286.779	84.31
286.995	102.74
287.21	6.49
287.425	-30.38
287.64	72.02
287.855	39.25
288.07	53.59
288.285	57.68
288.5	-1.71
288.715	47.44
288.93	51.54
289.145	26.96
289.36	12.63
289.575	6.49
289.79	57.68
290.004	12.63
290.219	72.02
290.434	43.35
290.649	20.82
290.864	26.96
291.079	4.44
291.294	37.2
291.509	-9.9
291.724	31.06
291.938	-16.04
292.153	31.06
292.368	-22.19
292.583	-9.9
292.798	39.25
293.012	80.21
293.227	57.68
293.442	-3.75
293.657	2.39
293.871	74.07
294.086	125.27
294.301	-1.71
294.516	41.3
294.73	78.16
294.945	20.82
295.16	55.64
295.374	26.96
295.589	51.54
295.804	69.97
296.018	39.25
296.233	31.06
296.447	37.2
296.662	65.88
296.877	12.63
297.091	33.11
297.306	12.63
297.52	-67.24
297.735	-3.75
297.949	51.54
298.164	24.92
298.378	-26.28
298.593	20.82
298.807	8.53
299.022	82.26
299.236	147.8
299.451	80.21
299.665	-16.04
299.88	82.26
300.094	51.54
300.309	14.68
300.523	-40.62
300.737	100.69
300.952	10.58
301.166	22.87
301.381	33.11
301.595	14.68
301.809	67.92
302.024	16.73
302.238	26.96
302.452	127.32
302.667	82.26
302.881	4.44
303.095	104.79
303.309	78.16
303.524	-40.62
303.738	100.69
303.952	-32.43
304.166	61.78
304.381	14.68
304.595	84.31
304.809	10.58
305.023	-22.19
305.237	67.92
305.452	-5.8
305.666	37.2
305.88	18.77
306.094	45.4
306.308	-36.52
306.522	57.68
306.736	76.12
306.95	41.3
307.164	123.22
307.379	33.11
307.593	37.2
307.807	22.87
308.021	35.16
308.235	33.11
308.449	-5.8
308.663	-18.09
308.877	80.21
309.091	43.35
309.305	41.3
309.519	-44.71
309.733	72.02
309.947	2.39
310.161	59.73
310.374	26.96
310.588	65.88
310.802	22.87
311.016	6.49
311.23	18.77
311.444	-46.76
311.658	47.44
311.872	4.44
312.085	76.12
312.299	100.69
312.513	74.07
312.727	24.92
312.941	65.88
313.154	59.73
313.368	-13.99
313.582	18.77
313.796	43.35
314.009	-1.71
314.223	55.64
314.437	47.44
314.651	33.11
314.864	31.06
315.078	-1.71
315.292	63.83
315.505	33.11
315.719	53.59
315.933	-7.85
316.146	6.49
316.36	24.92
316.573	31.06
316.787	98.64
317.001	8.53
317.214	12.63
317.428	108.88
317.641	24.92
317.855	22.87
318.068	22.87
318.282	47.44
318.495	8.53
318.709	10.58
318.922	33.11
319.136	129.36
319.349	67.92
319.563	63.83
319.776	35.16
319.99	51.54
320.203	127.32
320.417	10.58
320.63	57.68
320.843	110.93
321.057	74.07
321.27	47.44
321.483	-1.71
321.697	55.64
321.91	59.73
322.124	0.34
322.337	22.87
322.55	59.73
322.763	45.4
322.977	41.3
323.19	-3.75
323.403	-1.71
323.617	80.21
323.83	55.64
324.043	39.25
324.256	78.16
324.469	-3.75
324.683	63.83
324.896	18.77
325.109	65.88
325.322	18.77
325.535	18.77
325.748	10.58
325.962	57.68
326.175	55.64
326.388	-3.75
326.601	43.35
326.814	88.4
327.027	55.64
327.24	78.16
327.453	35.16
327.666	-7.85
327.879	63.83
328.092	26.96
328.305	-5.8
328.518	24.92
328.731	26.96
328.944	18.77
329.157	86.36
329.37	53.59
329.583	35.16
329.796	80.21
330.009	104.79
330.222	43.35
330.435	65.88
330.648	22.87
330.861	51.54
331.073	0.34
331.286	-28.33
331.499	33.11
331.712	26.96
331.925	82.26
332.138	47.44
332.35	-13.99
332.563	18.77
332.776	115.03
332.989	26.96
333.202	22.87
333.414	-7.85
333.627	29.01
333.84	0.34
334.053	57.68
334.265	-7.85
334.478	51.54
334.691	29.01
334.903	6.49
335.116	35.16
335.329	47.44
335.541	67.92
335.754	151.89
335.966	16.73
336.179	-9.9
336.392	80.21
336.604	-1.71
336.817	20.82
337.029	88.4
337.242	37.2
337.454	43.35
337.667	24.92
337.88	8.53
338.092	2.39
338.305	45.4
338.517	-13.99
338.729	12.63
338.942	0.34
339.154	12.63
339.367	29.01
339.579	18.77
339.792	78.16
340.004	39.25
340.217	29.01
340.429	37.2
340.641	-7.85
340.854	96.6
341.066	6.49
341.278	22.87
341.491	123.22
341.703	22.87
341.915	20.82
342.128	69.97
342.34	8.53
342.552	96.6
342.764	51.54
342.977	16.73
343.189	63.83
343.401	59.73
343.613	16.73
343.826	24.92
344.038	22.87
344.25	69.97
344.462	49.49
344.674	41.3
344.886	74.07
345.099	67.92
345.311	31.06
345.523	4.44
345.735	47.44
345.947	47.44
346.159	43.35
346.371	41.3
346.583	16.73
346.795	92.5
347.007	65.88
347.219	49.49
347.431	43.35
347.643	76.12
347.855	37.2
348.067	51.54
348.279	110.93
348.491	41.3
348.703	4.44
348.915	67.92
349.127	78.16
349.339	22.87
349.551	41.3
349.763	49.49
349.975	10.58
350.187	92.5
350.399	67.92
350.61	0.34
350.822	45.4
351.034	22.87
351.246	-40.62
351.458	51.54
351.669	-26.28
351.881	18.77
352.093	94.55
352.305	162.13
352.517	78.16
352.728	133.46
352.94	110.93
353.152	35.16
353.363	16.73
353.575	-24.23
353.787	43.35
353.999	100.69
354.21	82.26
354.422	39.25
354.633	67.92
354.845	67.92
355.057	112.98
355.268	65.88
355.48	84.31
355.692	55.64
355.903	117.08
356.115	39.25
356.326	63.83
356.538	39.25
356.749	59.73
356.961	35.16
357.172	4.44
357.384	26.96
357.595	84.31
357.807	31.06
358.018	74.07
358.23	53.59
358.441	49.49
358.653	104.79
358.864	55.64
359.075	57.68
359.287	65.88
359.498	90.45
359.709	65.88
359.921	-20.14
360.132	-24.23
360.344	65.88
360.555	16.73
360.766	57.68
360.977	0.34
361.189	41.3
361.4	110.93
361.611	98.64
361.823	112.98
362.034	31.06
362.245	10.58
362.456	69.97
362.667	6.49
362.879	20.82
363.09	35.16
363.301	59.73
363.512	63.83
363.723	55.64
363.935	49.49
364.146	102.74
364.357	-7.85
364.568	59.73
364.779	-3.75
364.99	82.26
365.201	-3.75
365.412	-26.28
365.623	72.02
365.834	39.25
366.045	49.49
366.256	63.83
366.467	137.56
366.678	37.2
366.889	-3.75
367.1	31.06
367.311	45.4
367.522	88.4
367.733	37.2
367.944	12.63
368.155	16.73
368.366	80.21
368.577	65.88
368.788	115.03
368.999	14.68
369.209	57.68
369.42	100.69
369.631	129.36
369.842	63.83
370.053	43.35
370.264	67.92
370.474	-3.75
370.685	76.12
370.896	49.49
371.107	53.59
371.317	18.77
371.528	65.88
371.739	63.83
371.95	-38.57
372.16	86.36
372.371	20.82
372.582	59.73
372.792	86.36
373.003	67.92
373.214	80.21
373.424	131.41
373.635	90.45
373.846	100.69
374.056	78.16
374.267	59.73
374.477	26.96
374.688	29.01
374.898	-11.95
375.109	33.11
375.319	92.5
375.53	108.88
375.74	117.08
375.951	39.25
376.161	92.5
376.372	65.88
376.582	59.73
376.793	78.16
377.003	-59.05
377.214	67.92
377.424	-65.19
377.635	98.64
377.845	18.77
378.055	43.35
378.266	104.79
378.476	63.83
378.686	-13.99
378.897	88.4
379.107	41.3
379.317	90.45
379.528	-7.85
379.738	88.4
379.948	78.16
380.158	92.5
380.369	164.18
380.579	90.45
380.789	12.63
380.999	106.84
381.21	61.78
381.42	61.78
381.63	14.68
381.84	72.02
382.05	147.8
382.261	102.74
382.471	80.21
382.681	37.2
382.891	72.02
383.101	45.4
383.311	33.11
383.521	31.06
383.731	43.35
383.941	135.51
384.151	26.96
384.361	6.49
384.571	72.02
384.781	76.12
384.991	104.79
385.201	215.38
385.411	0.34
385.621	37.2
385.831	125.27
386.041	82.26
386.251	43.35
386.461	86.36
386.671	106.84
386.881	76.12
387.091	119.12
387.301	24.92
387.511	88.4
387.72	-5.8
387.93	72.02
388.14	92.5
388.35	69.97
388.56	72.02
388.769	35.16
388.979	33.11
389.189	-7.85
389.399	31.06
389.609	92.5
389.818	110.93
390.028	41.3
390.238	98.64
390.447	47.44
390.657	182.61
390.867	104.79
391.076	20.82
391.286	98.64
391.496	80.21
391.705	20.82
391.915	141.65
392.125	43.35
392.334	39.25
392.544	96.6
392.753	67.92
392.963	86.36
393.172	106.84
393.382	61.78
393.591	139.6
393.801	98.64
394.01	78.16
394.22	170.32
394.429	2.39
394.639	94.55
394.848	82.26
395.058	123.22
395.267	61.78
395.477	100.69
395.686	115.03
395.895	92.5
396.105	123.22
396.314	53.59
396.524	72.02
396.733	74.07
396.942	115.03
397.152	84.31
397.361	117.08
397.57	135.51
397.78	69.97
397.989	72.02
398.198	102.74
398.407	63.83
398.617	35.16
398.826	86.36
399.035	203.09
399.244	131.41
399.453	106.84
399.663	123.22
399.872	80.21
400.081	49.49
400.29	174.42
400.499	117.08
400.708	145.75
400.917	160.08
401.127	92.5
401.336	133.46
401.545	131.41
401.754	96.6
401.963	174.42
402.172	98.64
402.381	215.38
402.59	112.98
402.799	100.69
403.008	164.18
403.217	164.18
403.426	20.82
403.635	69.97
403.844	80.21
404.053	196.95
404.262	108.88
404.471	209.23
404.68	147.8
404.888	178.51
405.097	135.51
405.306	139.6
405.515	151.89
405.724	164.18
405.933	155.99
406.142	186.71
406.35	215.38
406.559	168.27
406.768	256.34
406.977	242
407.185	248.15
407.394	127.32
407.603	276.82
407.812	182.61
408.02	303.44
408.229	276.82
408.438	278.87
408.646	229.71
408.855	256.34
409.064	268.63
409.272	334.16
409.481	330.06
409.69	360.78
409.898	289.1
410.107	321.87
410.315	411.98
410.524	405.84
410.733	387.41
410.941	459.09
411.15	395.6
411.358	420.17
411.567	444.75
411.775	520.53
411.984	424.27
412.192	411.98
412.401	477.52
412.609	602.44
412.818	581.96
413.026	571.72
413.234	639.31
413.443	651.6
413.651	604.49
413.86	641.36
414.068	629.07
414.276	676.17
414.485	776.52
414.693	678.22
414.901	850.25
415.11	772.43
415.318	753.99
415.526	813.38
415.734	885.06
415.943	926.02
416.151	880.97
416.359	833.86
416.567	938.31
416.776	1020.23
416.984	1098.05
417.192	1003.85
417.4	1018.18
417.608	1077.57
417.817	1118.53
418.025	1149.25
418.233	1354.05
418.441	1397.06
418.649	1366.34
418.857	1395.01
419.065	1423.68
419.273	1413.44
419.481	1507.65
419.689	1628.48
419.897	1614.14
420.105	1704.25
420.313	1790.27
420.521	1863.99
420.729	1794.36
420.937	1939.77
421.145	2025.78
421.353	2021.69
421.561	2103.61
421.769	2097.46
421.977	2302.26
422.185	2183.48
422.393	2459.95
422.601	2507.06
422.809	2570.54
423.017	2513.2
423.224	2666.8
423.432	2734.38
423.64	2840.87
423.848	3098.92
424.056	2879.79
424.263	3086.63
424.471	3236.13
424.679	3330.34
424.887	3557.66
425.094	3621.15
425.302	3545.38
425.51	3692.83
425.718	3733.79
425.925	3854.62
426.133	3965.21
426.341	4231.44
426.548	4438.29
426.756	4522.26
426.964	4444.43
427.171	4651.28
427.379	4870.41
427.586	4757.77
427.794	5077.26
428.001	5247.24
428.209	5533.95
428.417	5437.7
428.624	5894.4
428.832	5945.59
429.039	5720.32
429.247	5855.48
429.454	6379.76
429.662	6787.31
429.869	6240.5
430.076	6822.13
430.284	6582.51
430.491	6811.89
430.699	7422.18
430.906	7172.33
431.114	7334.12
431.321	7518.43
431.528	7907.55
431.736	8253.66
431.943	8556.75
432.15	8333.53
432.358	8532.18
432.565	9011.4
432.772	9011.4
432.979	9228.49
433.187	9547.97
433.394	9687.23
433.601	10180.79
433.808	10174.65
434.016	10234.04
434.223	10547.38
434.43	11215.02
434.637	11147.44
434.844	11593.89
435.052	12181.66
435.259	11776.16
435.466	12052.64
435.673	11833.5
435.88	12517.53
436.087	13488.26
436.294	13281.42
436.501	13056.14
436.708	13269.13
436.915	13834.37
437.122	14563.45
437.329	14313.59
437.537	14753.91
437.743	14901.36
437.95	14850.16
438.157	15327.34
438.364	16148.57
438.571	16150.62
438.778	16181.34
438.985	17694.79
439.192	17125.46
439.399	17471.56
439.606	17113.17
439.813	18194.5
440.02	19236.91
440.227	18794.55
440.433	18741.3
440.64	19574.83
440.847	19464.24
441.054	19716.14
441.261	21291.02
441.467	20989.97
441.674	21422.09
441.881	22173.7
442.088	22206.47
442.294	21829.64
442.501	22345.73
442.708	22806.52
442.914	23861.23
443.121	24741.85
443.328	23996.39
443.534	25585.61
443.741	25118.68
443.948	24764.38
444.154	26482.63
444.361	26200.01
444.568	26417.09
444.774	26445.76
444.981	26636.22
445.187	27549.62
445.394	28639.14
445.6	28530.59
445.807	31240.06
446.013	29304.73
446.22	30191.5
446.426	31522.68
446.633	31637.36
446.839	32745.31
447.046	31358.84
447.252	33247.07
447.459	33795.92
447.665	32964.45
447.871	34565.96
448.078	36376.36
448.284	34373.45
448.491	34920.26
448.697	36642.6
448.903	37078.82
449.11	37383.96
449.316	36581.16
449.522	37476.12
449.728	38041.36
449.935	38305.55
450.141	38539.02
450.347	39440.12
450.553	38215.44
450.76	38784.77
450.966	40048.37
451.172	39603.96
451.378	40142.58
451.584	39775.99
451.791	40607.47
451.997	40476.4
452.203	41228
452.409	40914.66
452.615	40623.85
452.821	39233.28
453.027	39268.09
453.233	41326.3
453.44	39360.25
453.646	40007.41
453.852	40062.71
454.058	40705.77
454.264	39608.06
454.47	40128.24
454.676	39401.21
454.882	40814.31
455.088	37394.2
455.294	37949.2
455.5	38215.44
455.705	38899.46
455.911	37203.74
456.117	36267.82
456.323	35893.04
456.529	34092.88
456.735	35452.73
456.941	35000.13
457.147	33912.66
457.352	33265.5
457.558	32665.44
457.764	32733.03
457.97	31807.34
458.176	31407.99
458.381	31332.22
458.587	30209.93
458.793	30025.61
458.999	28211.11
459.204	30336.9
459.41	29351.83
459.616	27684.78
459.821	27660.21
460.027	27545.52
460.233	26953.66
460.438	25372.63
460.644	25853.9
460.85	24709.08
461.055	23975.91
461.261	24127.46
461.466	22577.15
461.672	21497.87
461.878	23582.7
462.083	21848.07
462.289	21409.81
462.494	21094.42
462.7	20068.39
462.905	19699.75
463.111	20420.64
463.316	20414.49
463.522	20045.86
463.727	19984.42
463.932	19861.54
464.138	19898.41
464.343	19882.02
464.549	19427.37
464.754	19771.43
464.959	19679.27
465.165	19603.5
465.37	18786.36
465.575	18126.91
465.781	18743.35
465.986	19298.35
466.191	18602.04
466.397	17967.17
466.602	17242.19
466.807	17870.92
467.012	17760.33
467.218	18088
467.423	17401.93
467.628	17694.79
467.833	18333.76
