Data from USB4F104151__23__11-44-40-513.txt Node

Date: Fri Mar 14 11:44:40 EDT 2025
User: louis
Spectrometer: USB4F10415
Trigger mode: 4
Integration Time (sec): 2.000000E-2
Scans to average: 1
Electric dark correction enabled: true
Nonlinearity correction enabled: false
Boxcar width: 0
XAxis mode: Wavelengths
Number of Pixels in Spectrum: 3648
>>>>>Begin Spectral Data<<<<<
178.204	-75.09
178.424	-75.09
178.644	-75.09
178.864	-64.85
179.084	-34.13
179.304	-9.56
179.524	-71
179.744	-30.04
179.964	86.7
180.184	15.02
180.404	64.17
180.624	-15.7
180.844	-9.56
181.064	-71
181.283	23.21
181.503	-5.46
181.723	23.21
181.943	-36.18
182.163	0.68
182.383	19.11
182.602	70.31
182.822	82.6
183.042	17.07
183.262	-30.04
183.482	25.26
183.701	105.13
183.921	-40.28
184.141	-17.75
184.361	111.27
184.58	19.11
184.8	51.88
185.02	19.11
185.239	-19.8
185.459	72.36
185.679	-7.51
185.898	-58.71
186.118	58.03
186.338	43.69
186.557	0.68
186.777	12.97
186.997	-5.46
187.216	53.93
187.436	92.84
187.655	-15.7
187.875	2.73
188.095	-40.28
188.314	49.83
188.534	45.74
188.753	51.88
188.973	-7.51
189.192	78.51
189.412	6.83
189.631	-15.7
189.851	-17.75
190.07	31.4
190.29	53.93
190.509	17.07
190.729	-7.51
190.948	19.11
191.168	74.41
191.387	-48.47
191.607	35.5
191.826	-30.04
192.045	33.45
192.265	117.42
192.484	15.02
192.704	53.93
192.923	-40.28
193.142	111.27
193.362	-42.32
193.581	88.75
193.8	55.98
194.02	-7.51
194.239	27.31
194.458	19.11
194.678	55.98
194.897	27.31
195.116	74.41
195.335	53.93
195.555	64.17
195.774	21.16
195.993	8.87
196.212	74.41
196.432	10.92
196.651	29.35
196.87	-3.41
197.089	98.99
197.308	29.35
197.528	15.02
197.747	66.22
197.966	60.07
198.185	80.55
198.404	6.83
198.623	15.02
198.842	2.73
199.062	8.87
199.281	53.93
199.5	-9.56
199.719	2.73
199.938	27.31
200.157	-25.94
200.376	35.5
200.595	72.36
200.814	49.83
201.033	35.5
201.252	47.79
201.471	53.93
201.69	84.65
201.909	39.59
202.128	0.68
202.347	23.21
202.566	-23.89
202.785	-1.37
203.004	-30.04
203.223	10.92
203.442	43.69
203.661	88.75
203.879	19.11
204.098	2.73
204.317	10.92
204.536	25.26
204.755	47.79
204.974	45.74
205.193	8.87
205.411	119.46
205.63	47.79
205.849	12.97
206.068	21.16
206.287	27.31
206.505	80.55
206.724	33.45
206.943	-38.23
207.162	84.65
207.381	43.69
207.599	-27.99
207.818	62.12
208.037	23.21
208.255	39.59
208.474	-21.84
208.693	29.35
208.911	49.83
209.13	-60.76
209.349	123.56
209.567	15.02
209.786	29.35
210.005	35.5
210.223	39.59
210.442	-30.04
210.661	27.31
210.879	53.93
211.098	45.74
211.316	-58.71
211.535	51.88
211.753	70.31
211.972	21.16
212.191	21.16
212.409	35.5
212.628	33.45
212.846	43.69
213.065	29.35
213.283	76.46
213.502	45.74
213.72	82.6
213.938	29.35
214.157	27.31
214.375	-1.37
214.594	-13.65
214.812	66.22
215.031	4.78
215.249	-3.41
215.467	12.97
215.686	-17.75
215.904	119.46
216.122	43.69
216.341	92.84
216.559	4.78
216.778	49.83
216.996	31.4
217.214	-42.32
217.432	27.31
217.651	-21.84
217.869	27.31
218.087	15.02
218.306	-42.32
218.524	121.51
218.742	58.03
218.96	74.41
219.179	-23.89
219.397	17.07
219.615	64.17
219.833	80.55
220.051	-19.8
220.27	78.51
220.488	53.93
220.706	39.59
220.924	2.73
221.142	23.21
221.36	-34.13
221.578	0.68
221.796	-25.94
222.015	-3.41
222.233	2.73
222.451	33.45
222.669	12.97
222.887	-32.08
223.105	66.22
223.323	29.35
223.541	-95.57
223.759	78.51
223.977	-13.65
224.195	88.75
224.413	62.12
224.631	-34.13
224.849	-1.37
225.067	88.75
225.285	-11.61
225.503	6.83
225.721	-38.23
225.939	4.78
226.157	47.79
226.375	84.65
226.592	-15.7
226.81	51.88
227.028	51.88
227.246	6.83
227.464	-7.51
227.682	60.07
227.9	-32.08
228.117	0.68
228.335	25.26
228.553	31.4
228.771	45.74
228.989	-11.61
229.206	-42.32
229.424	-21.84
229.642	-17.75
229.86	8.87
230.077	0.68
230.295	-5.46
230.513	27.31
230.731	82.6
230.948	35.5
231.166	-32.08
231.384	-1.37
231.601	-34.13
231.819	58.03
232.037	62.12
232.254	45.74
232.472	47.79
232.689	78.51
232.907	45.74
233.125	31.4
233.342	-44.37
233.56	-25.94
233.777	17.07
233.995	-3.41
234.213	60.07
234.43	62.12
234.648	-83.28
234.865	-9.56
235.083	27.31
235.3	33.45
235.518	55.98
235.735	86.7
235.953	17.07
236.17	88.75
236.388	35.5
236.605	58.03
236.822	70.31
237.04	70.31
237.257	27.31
237.475	-21.84
237.692	-62.8
237.909	74.41
238.127	58.03
238.344	-9.56
238.562	37.55
238.779	-32.08
238.996	-23.89
239.214	19.11
239.431	80.55
239.648	-30.04
239.865	10.92
240.083	23.21
240.3	21.16
240.517	2.73
240.735	-19.8
240.952	43.69
241.169	-5.46
241.386	23.21
241.603	-3.41
241.821	-30.04
242.038	135.85
242.255	33.45
242.472	25.26
242.689	66.22
242.907	74.41
243.124	17.07
243.341	35.5
243.558	72.36
243.775	39.59
243.992	29.35
244.209	-23.89
244.426	82.6
244.643	76.46
244.86	-25.94
245.078	17.07
245.295	58.03
245.512	68.27
245.729	-46.42
245.946	41.64
246.163	-42.32
246.38	47.79
246.597	39.59
246.814	27.31
247.031	-21.84
247.248	103.08
247.464	62.12
247.681	8.87
247.898	86.7
248.115	47.79
248.332	45.74
248.549	53.93
248.766	103.08
248.983	39.59
249.2	2.73
249.417	72.36
249.633	19.11
249.85	60.07
250.067	58.03
250.284	31.4
250.501	-60.76
250.717	35.5
250.934	35.5
251.151	-40.28
251.368	17.07
251.585	-34.13
251.801	49.83
252.018	2.73
252.235	4.78
252.451	68.27
252.668	-9.56
252.885	68.27
253.102	-17.75
253.318	37.55
253.535	-58.71
253.752	17.07
253.968	58.03
254.185	49.83
254.401	8.87
254.618	-15.7
254.835	60.07
255.051	135.85
255.268	-17.75
255.484	2.73
255.701	37.55
255.917	2.73
256.134	68.27
256.351	78.51
256.567	-23.89
256.784	25.26
257	41.64
257.217	-3.41
257.433	70.31
257.65	25.26
257.866	4.78
258.082	-13.65
258.299	-62.8
258.515	27.31
258.732	43.69
258.948	109.23
259.165	-15.7
259.381	-34.13
259.597	58.03
259.814	66.22
260.03	51.88
260.246	0.68
260.463	-21.84
260.679	2.73
260.895	12.97
261.112	33.45
261.328	-9.56
261.544	-11.61
261.761	90.79
261.977	31.4
262.193	76.46
262.409	47.79
262.626	49.83
262.842	-5.46
263.058	-40.28
263.274	29.35
263.49	58.03
263.707	80.55
263.923	58.03
264.139	33.45
264.355	-30.04
264.571	35.5
264.787	39.59
265.004	41.64
265.22	-15.7
265.436	-42.32
265.652	23.21
265.868	49.83
266.084	-25.94
266.3	27.31
266.516	17.07
266.732	82.6
266.948	53.93
267.164	21.16
267.38	107.18
267.596	19.11
267.812	43.69
268.028	21.16
268.244	12.97
268.46	49.83
268.676	-5.46
268.892	6.83
269.108	55.98
269.324	-19.8
269.54	-1.37
269.756	49.83
269.972	121.51
270.188	0.68
270.403	2.73
270.619	-1.37
270.835	-15.7
271.051	76.46
271.267	6.83
271.483	-23.89
271.698	72.36
271.914	88.75
272.13	66.22
272.346	60.07
272.562	-21.84
272.777	74.41
272.993	39.59
273.209	12.97
273.425	55.98
273.64	58.03
273.856	62.12
274.072	17.07
274.287	39.59
274.503	76.46
274.719	-13.65
274.934	86.7
275.15	0.68
275.366	15.02
275.581	-32.08
275.797	60.07
276.012	60.07
276.228	43.69
276.444	8.87
276.659	58.03
276.875	53.93
277.09	8.87
277.306	58.03
277.521	35.5
277.737	80.55
277.952	29.35
278.168	-9.56
278.383	17.07
278.599	64.17
278.814	39.59
279.03	21.16
279.245	94.89
279.461	-13.65
279.676	-34.13
279.892	-17.75
280.107	-25.94
280.322	27.31
280.538	55.98
280.753	-36.18
280.969	15.02
281.184	-23.89
281.399	62.12
281.615	10.92
281.83	84.65
282.045	6.83
282.26	4.78
282.476	-7.51
282.691	35.5
282.906	-5.46
283.122	49.83
283.337	27.31
283.552	68.27
283.767	19.11
283.983	21.16
284.198	62.12
284.413	8.87
284.628	35.5
284.843	60.07
285.058	-15.7
285.274	2.73
285.489	23.21
285.704	15.02
285.919	-9.56
286.134	-3.41
286.349	62.12
286.564	12.97
286.779	66.22
286.995	76.46
287.21	-64.85
287.425	43.69
287.64	62.12
287.855	37.55
288.07	78.51
288.285	33.45
288.5	70.31
288.715	49.83
288.93	45.74
289.145	15.02
289.36	12.97
289.575	23.21
289.79	41.64
290.004	55.98
290.219	27.31
290.434	15.02
290.649	55.98
290.864	111.27
291.079	19.11
291.294	141.99
291.509	15.02
291.724	29.35
291.938	6.83
292.153	-1.37
292.368	8.87
292.583	58.03
292.798	51.88
293.012	60.07
293.227	33.45
293.442	21.16
293.657	8.87
293.871	80.55
294.086	-3.41
294.301	27.31
294.516	23.21
294.73	27.31
294.945	-30.04
295.16	55.98
295.374	12.97
295.589	51.88
295.804	55.98
296.018	35.5
296.233	96.94
296.447	76.46
296.662	29.35
296.877	-21.84
297.091	76.46
297.306	43.69
297.52	4.78
297.735	15.02
297.949	41.64
298.164	41.64
298.378	0.68
298.593	127.66
298.807	35.5
299.022	41.64
299.236	39.59
299.451	-13.65
299.665	43.69
299.88	2.73
300.094	19.11
300.309	12.97
300.523	39.59
300.737	62.12
300.952	-40.28
301.166	12.97
301.381	-15.7
301.595	-7.51
301.809	17.07
302.024	66.22
302.238	4.78
302.452	25.26
302.667	60.07
302.881	43.69
303.095	33.45
303.309	70.31
303.524	-17.75
303.738	23.21
303.952	-1.37
304.166	101.03
304.381	-60.76
304.595	35.5
304.809	-7.51
305.023	2.73
305.237	60.07
305.452	-36.18
305.666	78.51
305.88	60.07
306.094	10.92
306.308	39.59
306.522	2.73
306.736	37.55
306.95	25.26
307.164	96.94
307.379	33.45
307.593	78.51
307.807	47.79
308.021	86.7
308.235	41.64
308.449	43.69
308.663	17.07
308.877	166.57
309.091	62.12
309.305	2.73
309.519	86.7
309.733	49.83
309.947	27.31
310.161	84.65
310.374	25.26
310.588	55.98
310.802	49.83
311.016	-9.56
311.23	45.74
311.444	37.55
311.658	-11.61
311.872	-44.37
312.085	86.7
312.299	92.84
312.513	35.5
312.727	101.03
312.941	21.16
313.154	80.55
313.368	2.73
313.582	92.84
313.796	21.16
314.009	68.27
314.223	17.07
314.437	-60.76
314.651	80.55
314.864	113.32
315.078	37.55
315.292	49.83
315.505	8.87
315.719	111.27
315.933	-19.8
316.146	51.88
316.36	10.92
316.573	15.02
316.787	35.5
317.001	88.75
317.214	78.51
317.428	-7.51
317.641	39.59
317.855	66.22
318.068	21.16
318.282	88.75
318.495	41.64
318.709	21.16
318.922	-25.94
319.136	-3.41
319.349	-1.37
319.563	-36.18
319.776	107.18
319.99	55.98
320.203	37.55
320.417	25.26
320.63	-25.94
320.843	12.97
321.057	80.55
321.27	47.79
321.483	33.45
321.697	27.31
321.91	2.73
322.124	43.69
322.337	15.02
322.55	12.97
322.763	43.69
322.977	8.87
323.19	23.21
323.403	101.03
323.617	4.78
323.83	41.64
324.043	21.16
324.256	19.11
324.469	92.84
324.683	107.18
324.896	-7.51
325.109	4.78
325.322	6.83
325.535	66.22
325.748	53.93
325.962	41.64
326.175	33.45
326.388	105.13
326.601	4.78
326.814	53.93
327.027	-3.41
327.24	31.4
327.453	10.92
327.666	98.99
327.879	41.64
328.092	80.55
328.305	78.51
328.518	105.13
328.731	31.4
328.944	47.79
329.157	66.22
329.37	41.64
329.583	-11.61
329.796	68.27
330.009	0.68
330.222	66.22
330.435	23.21
330.648	47.79
330.861	-1.37
331.073	21.16
331.286	-13.65
331.499	80.55
331.712	-44.37
331.925	23.21
332.138	66.22
332.35	-23.89
332.563	27.31
332.776	98.99
332.989	25.26
333.202	29.35
333.414	-1.37
333.627	66.22
333.84	58.03
334.053	21.16
334.265	90.79
334.478	62.12
334.691	39.59
334.903	-38.23
335.116	4.78
335.329	101.03
335.541	17.07
335.754	76.46
335.966	-50.52
336.179	41.64
336.392	49.83
336.604	39.59
336.817	2.73
337.029	80.55
337.242	119.46
337.454	47.79
337.667	4.78
337.88	0.68
338.092	51.88
338.305	29.35
338.517	29.35
338.729	25.26
338.942	17.07
339.154	49.83
339.367	-11.61
339.579	-11.61
339.792	27.31
340.004	123.56
340.217	78.51
340.429	62.12
340.641	72.36
340.854	39.59
341.066	45.74
341.278	98.99
341.491	-7.51
341.703	123.56
341.915	33.45
342.128	117.42
342.34	39.59
342.552	53.93
342.764	10.92
342.977	82.6
343.189	-17.75
343.401	-1.37
343.613	47.79
343.826	53.93
344.038	-1.37
344.25	0.68
344.462	25.26
344.674	6.83
344.886	41.64
345.099	60.07
345.311	31.4
345.523	86.7
345.735	39.59
345.947	41.64
346.159	66.22
346.371	82.6
346.583	31.4
346.795	127.66
347.007	-5.46
347.219	-32.08
347.431	15.02
347.643	39.59
347.855	58.03
348.067	86.7
348.279	70.31
348.491	23.21
348.703	4.78
348.915	6.83
349.127	121.51
349.339	66.22
349.551	29.35
349.763	72.36
349.975	-9.56
350.187	66.22
350.399	62.12
350.61	29.35
350.822	23.21
351.034	53.93
351.246	51.88
351.458	80.55
351.669	62.12
351.881	4.78
352.093	39.59
352.305	35.5
352.517	25.26
352.728	43.69
352.94	105.13
353.152	55.98
353.363	41.64
353.575	-5.46
353.787	76.46
353.999	29.35
354.21	6.83
354.422	43.69
354.633	15.02
354.845	6.83
355.057	-21.84
355.268	111.27
355.48	43.69
355.692	6.83
355.903	2.73
356.115	88.75
356.326	76.46
356.538	55.98
356.749	-5.46
356.961	25.26
357.172	27.31
357.384	8.87
357.595	80.55
357.807	17.07
358.018	98.99
358.23	29.35
358.441	62.12
358.653	94.89
358.864	39.59
359.075	6.83
359.287	53.93
359.498	78.51
359.709	47.79
359.921	70.31
360.132	88.75
360.344	45.74
360.555	-5.46
360.766	17.07
360.977	35.5
361.189	58.03
361.4	21.16
361.611	-30.04
361.823	70.31
362.034	39.59
362.245	55.98
362.456	109.23
362.667	-19.8
362.879	76.46
363.09	137.9
363.301	72.36
363.512	68.27
363.723	107.18
363.935	62.12
364.146	49.83
364.357	39.59
364.568	23.21
364.779	39.59
364.99	98.99
365.201	10.92
365.412	37.55
365.623	78.51
365.834	70.31
366.045	51.88
366.256	12.97
366.467	25.26
366.678	37.55
366.889	68.27
367.1	29.35
367.311	60.07
367.522	109.23
367.733	-5.46
367.944	0.68
368.155	-1.37
368.366	-40.28
368.577	96.94
368.788	92.84
368.999	74.41
369.209	10.92
369.42	68.27
369.631	129.7
369.842	17.07
370.053	45.74
370.264	-3.41
370.474	62.12
370.685	107.18
370.896	129.7
371.107	21.16
371.317	58.03
371.528	39.59
371.739	8.87
371.95	33.45
372.16	103.08
372.371	82.6
372.582	31.4
372.792	10.92
373.003	23.21
373.214	66.22
373.424	55.98
373.635	64.17
373.846	144.04
374.056	2.73
374.267	76.46
374.477	113.32
374.688	31.4
374.898	21.16
375.109	-5.46
375.319	15.02
375.53	78.51
375.74	4.78
375.951	119.46
376.161	74.41
376.372	111.27
376.582	25.26
376.793	113.32
377.003	150.18
377.214	49.83
377.424	21.16
377.635	35.5
377.845	80.55
378.055	131.75
378.266	-34.13
378.476	86.7
378.686	86.7
378.897	45.74
379.107	76.46
379.317	12.97
379.528	80.55
379.738	45.74
379.948	37.55
380.158	101.03
380.369	98.99
380.579	76.46
380.789	80.55
380.999	80.55
381.21	31.4
381.42	39.59
381.63	12.97
381.84	15.02
382.05	21.16
382.261	47.79
382.471	35.5
382.681	74.41
382.891	17.07
383.101	78.51
383.311	23.21
383.521	86.7
383.731	92.84
383.941	66.22
384.151	84.65
384.361	88.75
384.571	-9.56
384.781	88.75
384.991	105.13
385.201	105.13
385.411	107.18
385.621	64.17
385.831	86.7
386.041	76.46
386.251	90.79
386.461	86.7
386.671	84.65
386.881	55.98
387.091	49.83
387.301	21.16
387.511	78.51
387.72	82.6
387.93	117.42
388.14	29.35
388.35	117.42
388.56	55.98
388.769	113.32
388.979	74.41
389.189	33.45
389.399	107.18
389.609	53.93
389.818	74.41
390.028	113.32
390.238	72.36
390.447	80.55
390.657	103.08
390.867	49.83
391.076	55.98
391.286	23.21
391.496	25.26
391.705	-21.84
391.915	144.04
392.125	94.89
392.334	19.11
392.544	58.03
392.753	8.87
392.963	64.17
393.172	98.99
393.382	62.12
393.591	94.89
393.801	70.31
394.01	125.61
394.22	119.46
394.429	170.66
394.639	144.04
394.848	129.7
395.058	94.89
395.267	127.66
395.477	111.27
395.686	144.04
395.895	125.61
396.105	86.7
396.314	109.23
396.524	148.14
396.733	70.31
396.942	103.08
397.152	137.9
397.361	88.75
397.57	133.8
397.78	90.79
397.989	109.23
398.198	191.14
398.407	74.41
398.617	82.6
398.826	66.22
399.035	137.9
399.244	180.9
399.453	154.28
399.663	123.56
399.872	101.03
400.081	94.89
400.29	131.75
400.499	152.23
400.708	160.42
400.917	160.42
401.127	121.51
401.336	160.42
401.545	197.29
401.754	121.51
401.963	176.81
402.172	195.24
402.381	182.95
402.59	135.85
402.799	107.18
403.008	170.66
403.217	185
403.426	209.58
403.635	137.9
403.844	154.28
404.053	195.24
404.262	139.94
404.471	225.96
404.68	230.06
404.888	246.44
405.097	197.29
405.306	254.63
405.515	252.58
405.724	244.39
405.933	164.52
406.142	271.01
406.35	156.33
406.559	307.88
406.768	195.24
406.977	258.73
407.185	248.49
407.394	336.55
407.603	324.26
407.812	289.45
408.02	297.64
408.229	271.01
408.438	303.78
408.646	350.89
408.855	336.55
409.064	346.79
409.272	397.99
409.481	402.08
409.69	352.93
409.898	385.7
410.107	408.23
410.315	432.8
410.524	445.09
410.733	473.76
410.941	469.67
411.15	473.76
411.358	563.87
411.567	549.54
411.775	461.48
411.984	623.27
412.192	572.07
412.401	576.16
412.609	608.93
412.818	563.87
413.026	666.27
413.234	643.74
413.443	656.03
413.651	705.18
413.86	772.77
414.068	813.73
414.276	920.22
414.485	858.78
414.693	819.87
414.901	938.65
415.11	946.84
415.318	885.41
415.526	1079.96
415.734	1088.15
415.943	1159.83
416.151	1131.16
416.359	1217.18
416.567	1168.02
416.776	1233.56
416.984	1315.48
417.192	1331.86
417.4	1358.49
417.608	1372.82
417.817	1393.3
418.025	1467.03
418.233	1557.14
418.441	1559.19
418.649	1753.74
418.857	1692.3
419.065	1809.04
419.273	1847.95
419.481	1868.43
419.689	2007.69
419.897	2077.32
420.105	2038.41
420.313	2142.86
420.521	2210.44
420.729	2142.86
420.937	2321.03
421.145	2435.72
421.353	2648.71
421.561	2681.47
421.769	2810.5
421.977	2812.54
422.185	2767.49
422.393	2968.19
422.601	3234.43
422.809	3144.31
423.017	3125.88
423.224	3355.26
423.432	3355.26
423.64	3445.37
423.848	3707.51
424.056	3682.93
424.263	3928.69
424.471	3940.97
424.679	4006.51
424.887	4219.5
425.094	4418.15
425.302	4452.97
425.51	4551.27
425.718	4856.42
425.925	4723.3
426.133	4940.38
426.341	5124.7
426.548	5464.66
426.756	5362.26
426.964	5605.97
427.171	5726.8
427.379	5925.46
427.586	6036.05
427.794	6263.37
428.001	6638.15
428.209	6885.95
428.417	6670.92
428.624	7324.22
428.832	7115.33
429.039	7164.48
429.247	7354.94
429.454	7803.44
429.662	8413.74
429.869	7907.89
430.076	8284.72
430.284	8204.85
430.491	8458.79
430.699	9146.91
430.906	9017.89
431.114	9243.17
431.321	9538.07
431.528	9665.05
431.736	10312.21
431.943	10699.27
432.15	10418.7
432.358	10418.7
432.565	11131.39
432.772	11115.01
432.979	11846.13
433.187	11811.32
433.394	12034.55
433.601	13011.43
433.808	12777.96
434.016	12700.14
434.223	13230.56
434.43	14074.32
434.637	13738.46
434.844	14813.64
435.052	15120.84
435.259	14932.42
435.466	15020.49
435.673	14952.9
435.88	16001.46
436.087	16564.65
436.294	16708.01
436.501	16267.7
436.708	16628.14
436.915	17082.79
437.122	18033.05
437.329	17926.55
437.537	18540.94
437.743	18729.36
437.95	18637.2
438.157	19763.58
438.364	20257.14
438.571	20081.02
438.778	20513.14
438.985	22131.03
439.192	21250.41
439.399	22137.18
439.606	21213.54
439.813	22729.04
440.02	24267.06
440.227	24037.69
440.433	23216.46
440.64	24213.82
440.847	24015.16
441.054	24674.61
441.261	26689.81
441.467	26179.87
441.674	26726.67
441.881	27390.22
442.088	27539.72
442.294	27146.51
442.501	27973.89
442.708	28221.69
442.914	29743.33
443.121	30986.45
443.328	30111.97
443.534	32037.06
443.741	31244.49
443.948	30757.08
444.154	33472.68
444.361	32874.68
444.568	33044.66
444.774	32989.36
444.981	33378.48
445.187	34529.44
445.394	35887.24
445.6	35440.78
445.807	38938.71
446.013	37466.22
446.22	37630.06
446.426	39196.76
446.633	39637.07
446.839	40810.56
447.046	39428.18
447.252	41467.95
447.459	41478.19
447.665	40908.86
447.871	43261.97
448.078	44998.65
448.284	42897.44
448.491	43814.93
448.697	45549.56
448.903	46303.21
449.11	46467.05
449.316	45848.56
449.522	46680.03
449.728	47833.04
449.935	48287.69
450.141	47896.53
450.347	48906.18
450.553	47785.94
450.76	48605.12
450.966	49465.27
451.172	49074.11
451.378	50692.01
451.584	49739.7
451.791	50614.18
451.997	50554.79
452.203	51009.44
452.409	51226.52
452.615	51238.81
452.821	49528.76
453.027	48902.08
453.233	51267.48
453.44	49643.45
453.646	50227.12
453.852	50050.99
454.058	51713.94
454.264	49100.73
454.47	50605.99
454.676	49203.13
454.882	50976.67
455.088	46258.15
455.294	47134.68
455.5	47892.43
455.705	48426.95
455.911	46512.1
456.117	45527.03
456.323	44902.4
456.529	42557.47
456.735	44709.89
456.941	43358.23
457.147	42653.73
457.352	41453.62
457.558	40900.67
457.764	41023.54
457.97	40169.54
458.176	39297.11
458.381	39305.3
458.587	37290.1
458.793	37775.47
458.999	35653.77
459.204	38017.13
459.41	36843.64
459.616	34535.58
459.821	34470.04
460.027	34697.37
460.233	33697.96
460.438	32213.18
460.644	32733.37
460.85	30888.15
461.055	30501.08
461.261	30177.5
461.466	28565.75
461.672	27529.48
461.878	29538.54
462.083	27472.14
462.289	27355.4
462.494	26964.24
462.7	25729.31
462.905	24774.96
463.111	25612.58
463.316	25547.04
463.522	24987.95
463.727	25307.43
463.932	25196.84
464.138	24746.29
464.343	25014.57
464.549	24099.13
464.754	25098.54
464.959	25180.46
465.165	24547.64
465.37	23707.97
465.575	23028.04
465.781	24037.69
465.986	24066.36
466.191	23247.18
466.397	22708.56
466.602	21655.9
466.807	22634.83
467.012	22403.41
