Data from USB4F104151__56__11-45-15-269.txt Node

Date: Fri Mar 14 11:45:15 EDT 2025
User: louis
Spectrometer: USB4F10415
Trigger mode: 4
Integration Time (sec): 2.000000E-2
Scans to average: 1
Electric dark correction enabled: true
Nonlinearity correction enabled: false
Boxcar width: 0
XAxis mode: Wavelengths
Number of Pixels in Spectrum: 3648
>>>>>Begin Spectral Data<<<<<
178.204	-95.23
178.424	-95.23
178.644	-95.23
178.864	-76.8
179.084	-113.66
179.304	31.74
179.524	-58.37
179.744	-29.7
179.964	9.22
180.184	35.84
180.404	-17.41
180.624	29.7
180.844	-35.84
181.064	-5.12
181.283	35.84
181.503	-25.6
181.723	29.7
181.943	-5.12
182.163	19.46
182.383	-11.26
182.602	50.18
182.822	-78.85
183.042	-21.5
183.262	13.31
183.482	23.55
183.701	11.26
183.921	-13.31
184.141	-41.98
184.361	-31.74
184.58	11.26
184.8	29.7
185.02	1.02
185.239	-21.5
185.459	-17.41
185.679	25.6
185.898	7.17
186.118	111.61
186.338	-9.22
186.557	-52.22
186.777	-31.74
186.997	-21.5
187.216	29.7
187.436	82.94
187.655	-21.5
187.875	31.74
188.095	31.74
188.314	-17.41
188.534	15.36
188.753	3.07
188.973	44.03
189.192	21.5
189.412	-41.98
189.631	-5.12
189.851	-7.17
190.07	107.52
190.29	-3.07
190.509	52.22
190.729	11.26
190.948	44.03
191.168	64.51
191.387	21.5
191.607	9.22
191.826	25.6
192.045	5.12
192.265	-60.42
192.484	33.79
192.704	31.74
192.923	11.26
193.142	76.8
193.362	7.17
193.581	41.98
193.8	48.13
194.02	72.7
194.239	60.42
194.458	76.8
194.678	7.17
194.897	-19.46
195.116	97.28
195.335	68.61
195.555	7.17
195.774	3.07
195.993	50.18
196.212	29.7
196.432	-5.12
196.651	31.74
196.87	35.84
197.089	140.29
197.308	31.74
197.528	56.32
197.747	-33.79
197.966	48.13
198.185	70.65
198.404	39.94
198.623	60.42
198.842	-17.41
199.062	-27.65
199.281	50.18
199.5	44.03
199.719	-17.41
199.938	46.08
200.157	64.51
200.376	56.32
200.595	19.46
200.814	-1.02
201.033	7.17
201.252	89.09
201.471	-1.02
201.69	-7.17
201.909	58.37
202.128	15.36
202.347	52.22
202.566	46.08
202.785	41.98
203.004	3.07
203.223	56.32
203.442	60.42
203.661	-68.61
203.879	23.55
204.098	68.61
204.317	68.61
204.536	62.46
204.755	17.41
204.974	72.7
205.193	-39.94
205.411	37.89
205.63	-19.46
205.849	68.61
206.068	7.17
206.287	31.74
206.505	31.74
206.724	21.5
206.943	33.79
207.162	27.65
207.381	60.42
207.599	25.6
207.818	70.65
208.037	52.22
208.255	-17.41
208.474	52.22
208.693	23.55
208.911	76.8
209.13	-15.36
209.349	33.79
209.567	15.36
209.786	54.27
210.005	44.03
210.223	64.51
210.442	-48.13
210.661	70.65
210.879	-1.02
211.098	95.23
211.316	-5.12
211.535	35.84
211.753	52.22
211.972	-17.41
212.191	39.94
212.409	19.46
212.628	3.07
212.846	-5.12
213.065	66.56
213.283	52.22
213.502	15.36
213.72	-9.22
213.938	46.08
214.157	-21.5
214.375	39.94
214.594	31.74
214.812	39.94
215.031	-19.46
215.249	68.61
215.467	41.98
215.686	15.36
215.904	-5.12
216.122	29.7
216.341	58.37
216.559	-70.65
216.778	48.13
216.996	68.61
217.214	-15.36
217.432	21.5
217.651	-41.98
217.869	-80.89
218.087	1.02
218.306	-3.07
218.524	-9.22
218.742	-17.41
218.96	-15.36
219.179	62.46
219.397	44.03
219.615	68.61
219.833	25.6
220.051	-66.56
220.27	46.08
220.488	11.26
220.706	-11.26
220.924	-7.17
221.142	-1.02
221.36	31.74
221.578	-11.26
221.796	-60.42
222.015	-52.22
222.233	1.02
222.451	52.22
222.669	-11.26
222.887	60.42
223.105	-3.07
223.323	-13.31
223.541	-66.56
223.759	46.08
223.977	19.46
224.195	31.74
224.413	29.7
224.631	113.66
224.849	-52.22
225.067	39.94
225.285	-13.31
225.503	64.51
225.721	-46.08
225.939	-1.02
226.157	-50.18
226.375	1.02
226.592	-17.41
226.81	50.18
227.028	70.65
227.246	64.51
227.464	-17.41
227.682	29.7
227.9	113.66
228.117	7.17
228.335	9.22
228.553	-15.36
228.771	31.74
228.989	48.13
229.206	25.6
229.424	3.07
229.642	25.6
229.86	7.17
230.077	15.36
230.295	11.26
230.513	68.61
230.731	3.07
230.948	-25.6
231.166	41.98
231.384	48.13
231.601	50.18
231.819	19.46
232.037	25.6
232.254	35.84
232.472	-35.84
232.689	74.75
232.907	37.89
233.125	-15.36
233.342	-21.5
233.56	-29.7
233.777	-13.31
233.995	-19.46
234.213	7.17
234.43	-3.07
234.648	-19.46
234.865	9.22
235.083	76.8
235.3	-48.13
235.518	-33.79
235.735	-5.12
235.953	23.55
236.17	-11.26
236.388	21.5
236.605	-48.13
236.822	54.27
237.04	-29.7
237.257	-31.74
237.475	39.94
237.692	48.13
237.909	27.65
238.127	39.94
238.344	-9.22
238.562	-41.98
238.779	-23.55
238.996	-29.7
239.214	33.79
239.431	7.17
239.648	-15.36
239.865	39.94
240.083	-19.46
240.3	9.22
240.517	13.31
240.735	13.31
240.952	37.89
241.169	74.75
241.386	-78.85
241.603	-54.27
241.821	27.65
242.038	56.32
242.255	35.84
242.472	44.03
242.689	33.79
242.907	41.98
243.124	-3.07
243.341	17.41
243.558	-13.31
243.775	31.74
243.992	33.79
244.209	15.36
244.426	27.65
244.643	23.55
244.86	-33.79
245.078	-7.17
245.295	-3.07
245.512	48.13
245.729	-7.17
245.946	21.5
246.163	-1.02
246.38	-3.07
246.597	-9.22
246.814	52.22
247.031	3.07
247.248	-15.36
247.464	-15.36
247.681	23.55
247.898	17.41
248.115	35.84
248.332	-19.46
248.549	-17.41
248.766	-35.84
248.983	78.85
249.2	41.98
249.417	46.08
249.633	48.13
249.85	33.79
250.067	5.12
250.284	-19.46
250.501	87.04
250.717	39.94
250.934	-72.7
251.151	-11.26
251.368	-31.74
251.585	37.89
251.801	-44.03
252.018	95.23
252.235	-13.31
252.451	-27.65
252.668	-31.74
252.885	19.46
253.102	29.7
253.318	-7.17
253.535	-3.07
253.752	3.07
253.968	46.08
254.185	-50.18
254.401	1.02
254.618	-5.12
254.835	-29.7
255.051	-31.74
255.268	-54.27
255.484	37.89
255.701	23.55
255.917	56.32
256.134	-17.41
256.351	-23.55
256.567	-25.6
256.784	29.7
257	-15.36
257.217	39.94
257.433	56.32
257.65	70.65
257.866	60.42
258.082	-39.94
258.299	54.27
258.515	60.42
258.732	17.41
258.948	33.79
259.165	48.13
259.381	-19.46
259.597	54.27
259.814	41.98
260.03	50.18
260.246	19.46
260.463	54.27
260.679	93.18
260.895	9.22
261.112	46.08
261.328	11.26
261.544	9.22
261.761	48.13
261.977	97.28
262.193	-13.31
262.409	33.79
262.626	41.98
262.842	3.07
263.058	15.36
263.274	72.7
263.49	7.17
263.707	7.17
263.923	68.61
264.139	-5.12
264.355	-7.17
264.571	39.94
264.787	123.9
265.004	60.42
265.22	-25.6
265.436	-7.17
265.652	97.28
265.868	7.17
266.084	23.55
266.3	87.04
266.516	-37.89
266.732	5.12
266.948	31.74
267.164	50.18
267.38	37.89
267.596	35.84
267.812	33.79
268.028	13.31
268.244	-11.26
268.46	50.18
268.676	1.02
268.892	48.13
269.108	31.74
269.324	19.46
269.54	-15.36
269.756	23.55
269.972	19.46
270.188	-3.07
270.403	31.74
270.619	1.02
270.835	39.94
271.051	66.56
271.267	-15.36
271.483	-11.26
271.698	17.41
271.914	33.79
272.13	58.37
272.346	-54.27
272.562	9.22
272.777	1.02
272.993	-1.02
273.209	39.94
273.425	-11.26
273.64	101.37
273.856	-7.17
274.072	19.46
274.287	48.13
274.503	91.13
274.719	82.94
274.934	54.27
275.15	-11.26
275.366	7.17
275.581	5.12
275.797	44.03
276.012	64.51
276.228	41.98
276.444	-15.36
276.659	134.14
276.875	-27.65
277.09	3.07
277.306	39.94
277.521	25.6
277.737	-21.5
277.952	25.6
278.168	29.7
278.383	-52.22
278.599	-29.7
278.814	72.7
279.03	7.17
279.245	25.6
279.461	72.7
279.676	41.98
279.892	-27.65
280.107	-33.79
280.322	21.5
280.538	62.46
280.753	-7.17
280.969	-35.84
281.184	121.85
281.399	1.02
281.615	19.46
281.83	3.07
282.045	-35.84
282.26	11.26
282.476	-84.99
282.691	130.05
282.906	23.55
283.122	19.46
283.337	-56.32
283.552	35.84
283.767	-1.02
283.983	-35.84
284.198	78.85
284.413	99.33
284.628	-25.6
284.843	39.94
285.058	103.42
285.274	-11.26
285.489	39.94
285.704	-5.12
285.919	13.31
286.134	-35.84
286.349	25.6
286.564	56.32
286.779	41.98
286.995	35.84
287.21	-1.02
287.425	13.31
287.64	27.65
287.855	-52.22
288.07	31.74
288.285	80.89
288.5	-9.22
288.715	25.6
288.93	-11.26
289.145	52.22
289.36	64.51
289.575	39.94
289.79	-1.02
290.004	33.79
290.219	58.37
290.434	-1.02
290.649	44.03
290.864	41.98
291.079	-5.12
291.294	3.07
291.509	15.36
291.724	-37.89
291.938	-35.84
292.153	17.41
292.368	25.6
292.583	3.07
292.798	60.42
293.012	46.08
293.227	-13.31
293.442	33.79
293.657	41.98
293.871	5.12
294.086	78.85
294.301	48.13
294.516	62.46
294.73	3.07
294.945	-11.26
295.16	-23.55
295.374	33.79
295.589	60.42
295.804	-35.84
296.018	27.65
296.233	35.84
296.447	21.5
296.662	-9.22
296.877	19.46
297.091	29.7
297.306	33.79
297.52	70.65
297.735	21.5
297.949	15.36
298.164	23.55
298.378	39.94
298.593	35.84
298.807	15.36
299.022	7.17
299.236	31.74
299.451	99.33
299.665	-17.41
299.88	-50.18
300.094	64.51
300.309	37.89
300.523	13.31
300.737	-23.55
300.952	72.7
301.166	66.56
301.381	-29.7
301.595	13.31
301.809	-11.26
302.024	-1.02
302.238	-29.7
302.452	54.27
302.667	-25.6
302.881	58.37
303.095	31.74
303.309	5.12
303.524	89.09
303.738	19.46
303.952	-19.46
304.166	23.55
304.381	21.5
304.595	56.32
304.809	52.22
305.023	62.46
305.237	41.98
305.452	74.75
305.666	-11.26
305.88	95.23
306.094	91.13
306.308	-17.41
306.522	-41.98
306.736	11.26
306.95	-13.31
307.164	27.65
307.379	-19.46
307.593	13.31
307.807	60.42
308.021	35.84
308.235	-17.41
308.449	7.17
308.663	-46.08
308.877	9.22
309.091	68.61
309.305	48.13
309.519	15.36
309.733	95.23
309.947	1.02
310.161	52.22
310.374	9.22
310.588	7.17
310.802	48.13
311.016	-3.07
311.23	56.32
311.444	-48.13
311.658	72.7
311.872	82.94
312.085	62.46
312.299	72.7
312.513	29.7
312.727	84.99
312.941	66.56
313.154	21.5
313.368	37.89
313.582	31.74
313.796	44.03
314.009	31.74
314.223	15.36
314.437	58.37
314.651	39.94
314.864	7.17
315.078	1.02
315.292	-44.03
315.505	21.5
315.719	9.22
315.933	-9.22
316.146	-25.6
316.36	41.98
316.573	11.26
316.787	-33.79
317.001	62.46
317.214	64.51
317.428	23.55
317.641	78.85
317.855	41.98
318.068	80.89
318.282	113.66
318.495	29.7
318.709	-21.5
318.922	9.22
319.136	35.84
319.349	50.18
319.563	54.27
319.776	31.74
319.99	1.02
320.203	-50.18
320.417	68.61
320.63	3.07
320.843	50.18
321.057	-13.31
321.27	52.22
321.483	37.89
321.697	74.75
321.91	-37.89
322.124	-5.12
322.337	58.37
322.55	3.07
322.763	62.46
322.977	-58.37
323.19	11.26
323.403	52.22
323.617	-56.32
323.83	-35.84
324.043	41.98
324.256	74.75
324.469	-62.46
324.683	37.89
324.896	7.17
325.109	66.56
325.322	19.46
325.535	128
325.748	33.79
325.962	58.37
326.175	54.27
326.388	93.18
326.601	74.75
326.814	17.41
327.027	-25.6
327.24	70.65
327.453	-19.46
327.666	35.84
327.879	19.46
328.092	39.94
328.305	58.37
328.518	78.85
328.731	-9.22
328.944	-9.22
329.157	25.6
329.37	46.08
329.583	31.74
329.796	33.79
330.009	-48.13
330.222	76.8
330.435	5.12
330.648	56.32
330.861	27.65
331.073	-1.02
331.286	15.36
331.499	21.5
331.712	-37.89
331.925	19.46
332.138	41.98
332.35	87.04
332.563	-44.03
332.776	82.94
332.989	25.6
333.202	17.41
333.414	15.36
333.627	31.74
333.84	15.36
334.053	66.56
334.265	46.08
334.478	44.03
334.691	48.13
334.903	60.42
335.116	-46.08
335.329	46.08
335.541	-21.5
335.754	48.13
335.966	35.84
336.179	50.18
336.392	66.56
336.604	19.46
336.817	-9.22
337.029	7.17
337.242	37.89
337.454	80.89
337.667	29.7
337.88	46.08
338.092	19.46
338.305	52.22
338.517	17.41
338.729	41.98
338.942	64.51
339.154	-3.07
339.367	31.74
339.579	-44.03
339.792	-23.55
340.004	48.13
340.217	68.61
340.429	48.13
340.641	62.46
340.854	68.61
341.066	46.08
341.278	101.37
341.491	31.74
341.703	44.03
341.915	-1.02
342.128	82.94
342.34	21.5
342.552	-25.6
342.764	-23.55
342.977	72.7
343.189	82.94
343.401	-54.27
343.613	-5.12
343.826	27.65
344.038	39.94
344.25	64.51
344.462	-56.32
344.674	76.8
344.886	91.13
345.099	84.99
345.311	29.7
345.523	15.36
345.735	39.94
345.947	60.42
346.159	33.79
346.371	37.89
346.583	23.55
346.795	117.76
347.007	48.13
347.219	-9.22
347.431	72.7
347.643	27.65
347.855	-21.5
348.067	66.56
348.279	33.79
348.491	76.8
348.703	35.84
348.915	-25.6
349.127	66.56
349.339	-27.65
349.551	9.22
349.763	-11.26
349.975	56.32
350.187	-27.65
350.399	109.57
350.61	33.79
350.822	50.18
351.034	46.08
351.246	-1.02
351.458	78.85
351.669	39.94
351.881	107.52
352.093	13.31
352.305	-3.07
352.517	13.31
352.728	39.94
352.94	-13.31
353.152	25.6
353.363	56.32
353.575	-19.46
353.787	74.75
353.999	50.18
354.21	46.08
354.422	31.74
354.633	-3.07
354.845	35.84
355.057	80.89
355.268	33.79
355.48	62.46
355.692	23.55
355.903	9.22
356.115	-37.89
356.326	17.41
356.538	62.46
356.749	52.22
356.961	82.94
357.172	-13.31
357.384	-5.12
357.595	17.41
357.807	-37.89
358.018	31.74
358.23	80.89
358.441	39.94
358.653	-5.12
358.864	-13.31
359.075	-1.02
359.287	19.46
359.498	-46.08
359.709	68.61
359.921	7.17
360.132	29.7
360.344	-17.41
360.555	84.99
360.766	76.8
360.977	-15.36
361.189	70.65
361.4	64.51
361.611	60.42
361.823	68.61
362.034	76.8
362.245	72.7
362.456	25.6
362.667	52.22
362.879	19.46
363.09	44.03
363.301	115.71
363.512	9.22
363.723	93.18
363.935	80.89
364.146	76.8
364.357	1.02
364.568	80.89
364.779	3.07
364.99	60.42
365.201	39.94
365.412	17.41
365.623	11.26
365.834	78.85
366.045	33.79
366.256	68.61
366.467	60.42
366.678	103.42
366.889	-1.02
367.1	27.65
367.311	29.7
367.522	15.36
367.733	-15.36
367.944	66.56
368.155	-15.36
368.366	66.56
368.577	31.74
368.788	84.99
368.999	-11.26
369.209	-9.22
369.42	62.46
369.631	66.56
369.842	46.08
370.053	25.6
370.264	87.04
370.474	76.8
370.685	29.7
370.896	17.41
371.107	66.56
371.317	-13.31
371.528	21.5
371.739	54.27
371.95	84.99
372.16	84.99
372.371	35.84
372.582	17.41
372.792	58.37
373.003	56.32
373.214	89.09
373.424	29.7
373.635	33.79
373.846	23.55
374.056	-9.22
374.267	66.56
374.477	7.17
374.688	72.7
374.898	33.79
375.109	97.28
375.319	50.18
375.53	107.52
375.74	97.28
375.951	-23.55
376.161	76.8
376.372	76.8
376.582	19.46
376.793	60.42
377.003	80.89
377.214	3.07
377.424	48.13
377.635	91.13
377.845	46.08
378.055	101.37
378.266	-52.22
378.476	29.7
378.686	60.42
378.897	60.42
379.107	107.52
379.317	31.74
379.528	-7.17
379.738	68.61
379.948	1.02
380.158	56.32
380.369	17.41
380.579	70.65
380.789	78.85
380.999	27.65
381.21	105.47
381.42	64.51
381.63	17.41
381.84	52.22
382.05	52.22
382.261	13.31
382.471	64.51
382.681	66.56
382.891	121.85
383.101	66.56
383.311	-19.46
383.521	3.07
383.731	17.41
383.941	23.55
384.151	-3.07
384.361	99.33
384.571	80.89
384.781	37.89
384.991	35.84
385.201	91.13
385.411	119.81
385.621	72.7
385.831	56.32
386.041	35.84
386.251	-9.22
386.461	111.61
386.671	27.65
386.881	56.32
387.091	39.94
387.301	62.46
387.511	82.94
387.72	58.37
387.93	93.18
388.14	48.13
388.35	80.89
388.56	56.32
388.769	168.96
388.979	62.46
389.189	25.6
389.399	87.04
389.609	29.7
389.818	109.57
390.028	64.51
390.238	80.89
390.447	78.85
390.657	56.32
390.867	78.85
391.076	-17.41
391.286	56.32
391.496	23.55
391.705	35.84
391.915	87.04
392.125	17.41
392.334	91.13
392.544	95.23
392.753	56.32
392.963	64.51
393.172	78.85
393.382	33.79
393.591	95.23
393.801	50.18
394.01	62.46
394.22	68.61
394.429	80.89
394.639	58.37
394.848	101.37
395.058	107.52
395.267	109.57
395.477	7.17
395.686	52.22
395.895	64.51
396.105	156.67
396.314	128
396.524	66.56
396.733	39.94
396.942	132.09
397.152	87.04
397.361	78.85
397.57	162.81
397.78	70.65
397.989	107.52
398.198	72.7
398.407	89.09
398.617	144.38
398.826	140.29
399.035	128
399.244	103.42
399.453	101.37
399.663	84.99
399.872	105.47
400.081	78.85
400.29	130.05
400.499	125.95
400.708	173.05
400.917	105.47
401.127	115.71
401.336	97.28
401.545	113.66
401.754	113.66
401.963	232.44
402.172	173.05
402.381	183.29
402.59	175.1
402.799	95.23
403.008	125.95
403.217	134.14
403.426	138.24
403.635	105.47
403.844	144.38
404.053	123.9
404.262	84.99
404.471	146.43
404.68	113.66
404.888	130.05
405.097	191.49
405.306	252.92
405.515	158.72
405.724	158.72
405.933	189.44
406.142	195.58
406.35	236.54
406.559	234.49
406.768	248.83
406.977	252.92
407.185	224.25
407.394	218.11
407.603	187.39
407.812	289.79
408.02	265.21
408.229	220.16
408.438	271.36
408.646	320.51
408.855	320.51
409.064	267.26
409.272	351.23
409.481	314.36
409.69	314.36
409.898	379.9
410.107	406.52
410.315	367.61
410.524	295.93
410.733	402.43
410.941	392.19
411.15	416.76
411.358	437.24
411.567	439.29
411.775	472.06
411.984	500.73
412.192	531.45
412.401	535.54
412.609	492.54
412.818	525.3
413.026	580.6
413.234	588.79
413.443	637.94
413.651	635.89
413.86	701.43
414.068	717.81
414.276	728.05
414.485	715.77
414.693	699.38
414.901	762.87
415.11	748.53
415.318	869.36
415.526	932.85
415.734	922.61
415.943	965.62
416.151	1059.82
416.359	1033.2
416.567	1018.86
416.776	1035.25
416.984	1176.56
417.192	1176.56
417.4	1205.23
417.608	1231.85
417.817	1235.95
418.025	1342.44
418.233	1416.17
418.441	1405.93
418.649	1448.94
418.857	1502.19
419.065	1567.72
419.273	1481.71
419.481	1686.5
419.689	1813.48
419.897	1944.55
420.105	1932.26
420.313	1881.06
420.521	2005.99
420.729	2012.13
420.937	2036.7
421.145	2214.88
421.353	2249.69
421.561	2343.9
421.769	2393.05
421.977	2462.68
422.185	2528.22
422.393	2642.9
422.601	2706.39
422.809	2722.77
423.017	2745.3
423.224	2896.85
423.432	3007.44
423.64	2968.53
423.848	3275.73
424.056	3187.66
424.263	3451.85
424.471	3439.56
424.679	3572.68
424.887	3732.42
425.094	3888.07
425.302	4006.85
425.51	4025.28
425.718	4062.15
425.925	4105.15
426.133	4326.33
426.341	4604.86
426.548	4836.28
426.756	4922.29
426.964	4807.61
427.171	5129.14
427.379	5340.08
427.586	5333.93
427.794	5508.01
428.001	5903.27
428.209	6077.35
428.417	5819.3
428.624	6368.16
428.832	6271.9
429.039	6288.29
429.247	6452.13
429.454	7062.42
429.662	7359.38
429.869	6839.19
430.076	7332.75
430.284	7087
430.491	7525.26
430.699	7984.01
430.906	7965.57
431.114	7949.19
431.321	8313.73
431.528	8557.44
431.736	8954.74
431.943	9290.61
432.15	9137.01
432.358	9421.68
432.565	9784.17
432.772	9833.32
432.979	10204
433.187	10460
433.394	10402.66
433.601	11381.59
433.808	11305.81
434.016	11182.93
434.223	11570
434.43	12272.45
434.637	11905.87
434.844	12794.68
435.052	13142.84
435.259	12880.7
435.466	13275.96
435.673	13044.54
435.88	14048.04
436.087	14621.47
436.294	14517.03
436.501	14172.97
436.708	14525.22
436.915	14977.82
437.122	15704.85
437.329	15510.29
437.537	16202.5
437.743	16407.3
437.95	16476.93
438.157	17314.55
438.364	17808.11
438.571	17967.85
438.778	17734.39
438.985	19348.18
439.192	18662.12
439.399	19225.31
439.606	19026.65
439.813	19974.86
440.02	21232.32
440.227	20775.62
440.433	20869.83
440.64	21402.3
440.847	21011.14
441.054	21353.15
441.261	23231.13
441.467	22704.81
441.674	23290.52
441.881	24089.23
442.088	24242.83
442.294	23517.85
442.501	24509.07
442.708	24937.09
442.914	26180.21
443.121	27056.74
443.328	26055.28
443.534	28115.54
443.741	27460.19
443.948	26933.86
444.154	28971.59
444.361	29004.36
444.568	28961.35
444.774	29129.28
444.981	29319.74
445.187	30028.34
445.394	31523.36
445.6	31144.48
445.807	34304.5
446.013	32528.91
446.22	33126.92
446.426	34642.42
446.633	34580.98
446.839	35928.54
447.046	34529.78
447.252	36499.92
447.459	36354.52
447.665	36272.6
447.871	37884.35
448.078	39561.64
448.284	37583.3
448.491	38595
448.697	40243.61
448.903	41087.37
449.11	40550.81
449.316	40192.41
449.522	41238.92
449.728	42289.53
449.935	42598.77
450.141	42328.44
450.347	43024.75
450.553	42086.78
450.76	42539.38
450.966	43725.16
451.172	43182.45
451.378	44712.28
451.584	43497.83
451.791	44693.85
451.997	44390.75
452.203	45074.77
452.409	45435.21
452.615	45144.4
452.821	43602.28
453.027	43065.71
453.233	45420.87
453.44	43530.6
453.646	43450.73
453.852	43981.15
454.058	44777.81
454.264	43039.09
454.47	44880.21
454.676	43213.16
454.882	44822.87
455.088	40470.93
455.294	41435.53
455.5	41820.55
455.705	42973.55
455.911	40329.62
456.117	39917.98
456.323	39293.35
456.529	37689.79
456.735	39311.78
456.941	38216.12
457.147	37380.55
457.352	36559.31
457.558	36190.68
457.764	36026.84
457.97	35635.68
458.176	34662.9
458.381	34408.95
458.587	32643.6
458.793	33006.09
458.999	31064.61
459.204	33559.04
459.41	32659.98
459.616	30915.11
459.821	30644.78
460.027	30593.58
460.233	29798.97
460.438	28164.69
460.644	28564.04
460.85	27339.36
461.055	26819.17
461.261	26909.29
461.466	24976
461.672	24355.47
461.878	25887.35
462.083	24124.05
462.289	23466.65
462.494	23464.6
462.7	22145.71
462.905	21744.31
463.111	22457
463.316	22770.34
463.522	21936.82
463.727	21947.06
463.932	21981.87
464.138	21922.48
464.343	21996.21
464.549	21377.72
464.754	21836.47
464.959	21922.48
465.165	21551.8
465.37	20878.02
465.575	20208.33
465.781	21189.31
465.986	21179.07
466.191	20026.06
466.397	19813.07
466.602	19090.14
466.807	20038.35
467.012	19770.07
467.218	19493.59
467.423	19262.17
