Data from USB4F104151__21__11-44-39-753.txt Node

Date: Fri Mar 14 11:44:39 EDT 2025
User: louis
Spectrometer: USB4F10415
Trigger mode: 4
Integration Time (sec): 2.000000E-2
Scans to average: 1
Electric dark correction enabled: true
Nonlinearity correction enabled: false
Boxcar width: 0
XAxis mode: Wavelengths
Number of Pixels in Spectrum: 3648
>>>>>Begin Spectral Data<<<<<
178.204	-50.86
178.424	-50.86
178.644	-50.86
178.864	-50.86
179.084	-120.49
179.304	10.58
179.524	-28.33
179.744	-13.99
179.964	-1.71
180.184	-5.8
180.404	-48.81
180.624	49.49
180.844	33.11
181.064	-9.9
181.283	-42.67
181.503	-13.99
181.723	72.02
181.943	-30.38
182.163	29.01
182.383	24.92
182.602	61.78
182.822	10.58
183.042	108.88
183.262	10.58
183.482	-5.8
183.701	63.83
183.921	59.73
184.141	-28.33
184.361	78.16
184.58	37.2
184.8	-18.09
185.02	6.49
185.239	55.64
185.459	35.16
185.679	49.49
185.898	-5.8
186.118	14.68
186.338	-1.71
186.557	-20.14
186.777	18.77
186.997	29.01
187.216	-3.75
187.436	80.21
187.655	59.73
187.875	61.78
188.095	49.49
188.314	82.26
188.534	2.39
188.753	37.2
188.973	6.49
189.192	55.64
189.412	57.68
189.631	33.11
189.851	41.3
190.07	47.44
190.29	31.06
190.509	125.27
190.729	-1.71
190.948	14.68
191.168	129.36
191.387	20.82
191.607	-20.14
191.826	22.87
192.045	35.16
192.265	-32.43
192.484	26.96
192.704	110.93
192.923	18.77
193.142	106.84
193.362	55.64
193.581	8.53
193.8	-1.71
194.02	98.64
194.239	33.11
194.458	53.59
194.678	-13.99
194.897	37.2
195.116	72.02
195.335	65.88
195.555	43.35
195.774	49.49
195.993	96.6
196.212	100.69
196.432	-22.19
196.651	39.25
196.87	51.54
197.089	96.6
197.308	47.44
197.528	90.45
197.747	-13.99
197.966	-11.95
198.185	39.25
198.404	-30.38
198.623	-24.23
198.842	22.87
199.062	4.44
199.281	121.17
199.5	8.53
199.719	108.88
199.938	96.6
200.157	22.87
200.376	41.3
200.595	24.92
200.814	67.92
201.033	18.77
201.252	-7.85
201.471	74.07
201.69	55.64
201.909	18.77
202.128	53.59
202.347	-5.8
202.566	63.83
202.785	8.53
203.004	14.68
203.223	76.12
203.442	29.01
203.661	59.73
203.879	37.2
204.098	4.44
204.317	-7.85
204.536	55.64
204.755	47.44
204.974	65.88
205.193	35.16
205.411	51.54
205.63	67.92
205.849	49.49
206.068	67.92
206.287	22.87
206.505	49.49
206.724	12.63
206.943	45.4
207.162	31.06
207.381	22.87
207.599	26.96
207.818	47.44
208.037	39.25
208.255	72.02
208.474	51.54
208.693	104.79
208.911	0.34
209.13	65.88
209.349	22.87
209.567	-9.9
209.786	31.06
210.005	45.4
210.223	63.83
210.442	-20.14
210.661	41.3
210.879	61.78
211.098	106.84
211.316	14.68
211.535	29.01
211.753	-22.19
211.972	108.88
212.191	14.68
212.409	39.25
212.628	57.68
212.846	63.83
213.065	37.2
213.283	104.79
213.502	57.68
213.72	92.5
213.938	-7.85
214.157	49.49
214.375	80.21
214.594	-5.8
214.812	51.54
215.031	8.53
215.249	31.06
215.467	49.49
215.686	43.35
215.904	86.36
216.122	80.21
216.341	51.54
216.559	33.11
216.778	-5.8
216.996	31.06
217.214	65.88
217.432	53.59
217.651	-22.19
217.869	69.97
218.087	-18.09
218.306	119.12
218.524	78.16
218.742	22.87
218.96	-22.19
219.179	108.88
219.397	80.21
219.615	49.49
219.833	26.96
220.051	26.96
220.27	82.26
220.488	61.78
220.706	45.4
220.924	92.5
221.142	-5.8
221.36	-9.9
221.578	4.44
221.796	-1.71
222.015	84.31
222.233	41.3
222.451	69.97
222.669	10.58
222.887	123.22
223.105	-87.72
223.323	80.21
223.541	-46.76
223.759	104.79
223.977	78.16
224.195	65.88
224.413	117.08
224.631	31.06
224.849	55.64
225.067	84.31
225.285	-5.8
225.503	80.21
225.721	-30.38
225.939	69.97
226.157	37.2
226.375	20.82
226.592	20.82
226.81	131.41
227.028	49.49
227.246	94.55
227.464	16.73
227.682	43.35
227.9	29.01
228.117	43.35
228.335	129.36
228.553	92.5
228.771	18.77
228.989	67.92
229.206	0.34
229.424	82.26
229.642	49.49
229.86	69.97
230.077	6.49
230.295	43.35
230.513	78.16
230.731	43.35
230.948	123.22
231.166	100.69
231.384	-9.9
231.601	47.44
231.819	96.6
232.037	24.92
232.254	33.11
232.472	-24.23
232.689	63.83
232.907	8.53
233.125	33.11
233.342	55.64
233.56	-11.95
233.777	57.68
233.995	-34.47
234.213	37.2
234.43	26.96
234.648	-3.75
234.865	29.01
235.083	108.88
235.3	33.11
235.518	65.88
235.735	43.35
235.953	43.35
236.17	6.49
236.388	24.92
236.605	24.92
236.822	84.31
237.04	96.6
237.257	-22.19
237.475	61.78
237.692	53.59
237.909	-13.99
238.127	49.49
238.344	39.25
238.562	72.02
238.779	26.96
238.996	12.63
239.214	24.92
239.431	55.64
239.648	14.68
239.865	57.68
240.083	92.5
240.3	72.02
240.517	-28.33
240.735	6.49
240.952	69.97
241.169	51.54
241.386	90.45
241.603	41.3
241.821	115.03
242.038	133.46
242.255	67.92
242.472	43.35
242.689	45.4
242.907	53.59
243.124	14.68
243.341	94.55
243.558	41.3
243.775	63.83
243.992	35.16
244.209	53.59
244.426	6.49
244.643	112.98
244.86	20.82
245.078	-32.43
245.295	22.87
245.512	100.69
245.729	16.73
245.946	0.34
246.163	84.31
246.38	108.88
246.597	37.2
246.814	76.12
247.031	65.88
247.248	43.35
247.464	41.3
247.681	90.45
247.898	37.2
248.115	80.21
248.332	72.02
248.549	63.83
248.766	26.96
248.983	49.49
249.2	2.39
249.417	69.97
249.633	74.07
249.85	94.55
250.067	39.25
250.284	84.31
250.501	47.44
250.717	43.35
250.934	67.92
251.151	53.59
251.368	41.3
251.585	76.12
251.801	41.3
252.018	31.06
252.235	96.6
252.451	16.73
252.668	-63.15
252.885	10.58
253.102	18.77
253.318	72.02
253.535	-18.09
253.752	137.56
253.968	-34.47
254.185	37.2
254.401	37.2
254.618	84.31
254.835	59.73
255.051	131.41
255.268	51.54
255.484	117.08
255.701	-1.71
255.917	127.32
256.134	-5.8
256.351	22.87
256.567	33.11
256.784	35.16
257	-36.52
257.217	80.21
257.433	-1.71
257.65	65.88
257.866	59.73
258.082	74.07
258.299	92.5
258.515	45.4
258.732	-18.09
258.948	-13.99
259.165	63.83
259.381	-3.75
259.597	102.74
259.814	72.02
260.03	61.78
260.246	110.93
260.463	-9.9
260.679	43.35
260.895	76.12
261.112	49.49
261.328	76.12
261.544	90.45
261.761	59.73
261.977	45.4
262.193	45.4
262.409	12.63
262.626	65.88
262.842	96.6
263.058	47.44
263.274	61.78
263.49	78.16
263.707	49.49
263.923	51.54
264.139	-38.57
264.355	65.88
264.571	96.6
264.787	80.21
265.004	43.35
265.22	96.6
265.436	72.02
265.652	14.68
265.868	86.36
266.084	22.87
266.3	57.68
266.516	-7.85
266.732	53.59
266.948	45.4
267.164	22.87
267.38	29.01
267.596	104.79
267.812	115.03
268.028	78.16
268.244	14.68
268.46	96.6
268.676	57.68
268.892	65.88
269.108	41.3
269.324	35.16
269.54	59.73
269.756	92.5
269.972	33.11
270.188	-44.71
270.403	-9.9
270.619	96.6
270.835	49.49
271.051	96.6
271.267	112.98
271.483	47.44
271.698	57.68
271.914	12.63
272.13	47.44
272.346	43.35
272.562	31.06
272.777	37.2
272.993	24.92
273.209	76.12
273.425	39.25
273.64	-5.8
273.856	37.2
274.072	31.06
274.287	49.49
274.503	2.39
274.719	133.46
274.934	84.31
275.15	2.39
275.366	33.11
275.581	55.64
275.797	-59.05
276.012	-36.52
276.228	119.12
276.444	41.3
276.659	43.35
276.875	43.35
277.09	80.21
277.306	-34.47
277.521	65.88
277.737	26.96
277.952	20.82
278.168	39.25
278.383	82.26
278.599	86.36
278.814	76.12
279.03	88.4
279.245	74.07
279.461	63.83
279.676	69.97
279.892	2.39
280.107	-30.38
280.322	47.44
280.538	29.01
280.753	57.68
280.969	45.4
281.184	80.21
281.399	123.22
281.615	31.06
281.83	45.4
282.045	137.56
282.26	-11.95
282.476	-42.67
282.691	45.4
282.906	20.82
283.122	47.44
283.337	63.83
283.552	10.58
283.767	4.44
283.983	24.92
284.198	80.21
284.413	22.87
284.628	0.34
284.843	55.64
285.058	57.68
285.274	49.49
285.489	14.68
285.704	100.69
285.919	141.65
286.134	51.54
286.349	43.35
286.564	-54.95
286.779	76.12
286.995	47.44
287.21	55.64
287.425	14.68
287.64	72.02
287.855	14.68
288.07	0.34
288.285	80.21
288.5	18.77
288.715	100.69
288.93	14.68
289.145	31.06
289.36	18.77
289.575	45.4
289.79	76.12
290.004	80.21
290.219	6.49
290.434	41.3
290.649	74.07
290.864	20.82
291.079	41.3
291.294	53.59
291.509	8.53
291.724	67.92
291.938	67.92
292.153	125.27
292.368	-50.86
292.583	104.79
292.798	119.12
293.012	59.73
293.227	55.64
293.442	80.21
293.657	45.4
293.871	51.54
294.086	115.03
294.301	90.45
294.516	76.12
294.73	29.01
294.945	26.96
295.16	-28.33
295.374	55.64
295.589	78.16
295.804	76.12
296.018	18.77
296.233	86.36
296.447	16.73
296.662	-34.47
296.877	0.34
297.091	41.3
297.306	74.07
297.52	-20.14
297.735	45.4
297.949	14.68
298.164	-34.47
298.378	67.92
298.593	20.82
298.807	61.78
299.022	69.97
299.236	65.88
299.451	80.21
299.665	12.63
299.88	-38.57
300.094	18.77
300.309	108.88
300.523	-16.04
300.737	-1.71
300.952	45.4
301.166	80.21
301.381	39.25
301.595	102.74
301.809	-16.04
302.024	61.78
302.238	43.35
302.452	92.5
302.667	65.88
302.881	98.64
303.095	82.26
303.309	37.2
303.524	53.59
303.738	72.02
303.952	31.06
304.166	74.07
304.381	-67.24
304.595	106.84
304.809	39.25
305.023	59.73
305.237	47.44
305.452	18.77
305.666	119.12
305.88	35.16
306.094	47.44
306.308	41.3
306.522	22.87
306.736	29.01
306.95	59.73
307.164	41.3
307.379	119.12
307.593	45.4
307.807	80.21
308.021	115.03
308.235	112.98
308.449	10.58
308.663	47.44
308.877	117.08
309.091	65.88
309.305	78.16
309.519	14.68
309.733	82.26
309.947	35.16
310.161	22.87
310.374	141.65
310.588	67.92
310.802	53.59
311.016	37.2
311.23	33.11
311.444	45.4
311.658	22.87
311.872	96.6
312.085	57.68
312.299	80.21
312.513	57.68
312.727	108.88
312.941	55.64
313.154	61.78
313.368	78.16
313.582	-16.04
313.796	57.68
314.009	-7.85
314.223	31.06
314.437	26.96
314.651	57.68
314.864	72.02
315.078	-7.85
315.292	49.49
315.505	76.12
315.719	49.49
315.933	92.5
316.146	69.97
316.36	16.73
316.573	74.07
316.787	84.31
317.001	24.92
317.214	-18.09
317.428	67.92
317.641	98.64
317.855	12.63
318.068	-5.8
318.282	63.83
318.495	112.98
318.709	55.64
318.922	78.16
319.136	20.82
319.349	69.97
319.563	12.63
319.776	-3.75
319.99	35.16
320.203	49.49
320.417	24.92
320.63	69.97
320.843	108.88
321.057	39.25
321.27	51.54
321.483	18.77
321.697	76.12
321.91	82.26
322.124	8.53
322.337	80.21
322.55	82.26
322.763	55.64
322.977	61.78
323.19	37.2
323.403	112.98
323.617	96.6
323.83	90.45
324.043	43.35
324.256	-5.8
324.469	63.83
324.683	98.64
324.896	78.16
325.109	-3.75
325.322	-9.9
325.535	-22.19
325.748	18.77
325.962	57.68
326.175	51.54
326.388	72.02
326.601	49.49
326.814	-13.99
327.027	-16.04
327.24	47.44
327.453	18.77
327.666	-1.71
327.879	14.68
328.092	57.68
328.305	14.68
328.518	108.88
328.731	59.73
328.944	37.2
329.157	117.08
329.37	16.73
329.583	96.6
329.796	139.6
330.009	33.11
330.222	37.2
330.435	86.36
330.648	88.4
330.861	57.68
331.073	55.64
331.286	67.92
331.499	61.78
331.712	33.11
331.925	26.96
332.138	-16.04
332.35	37.2
332.563	35.16
332.776	135.51
332.989	112.98
333.202	2.39
333.414	55.64
333.627	59.73
333.84	39.25
334.053	57.68
334.265	-11.95
334.478	63.83
334.691	102.74
334.903	43.35
335.116	-3.75
335.329	41.3
335.541	59.73
335.754	76.12
335.966	63.83
336.179	18.77
336.392	63.83
336.604	47.44
336.817	65.88
337.029	45.4
337.242	14.68
337.454	74.07
337.667	-59.05
337.88	131.41
338.092	98.64
338.305	92.5
338.517	-1.71
338.729	61.78
338.942	96.6
339.154	76.12
339.367	86.36
339.579	39.25
339.792	45.4
340.004	47.44
340.217	80.21
340.429	78.16
340.641	115.03
340.854	108.88
341.066	61.78
341.278	145.75
341.491	65.88
341.703	80.21
341.915	37.2
342.128	90.45
342.34	115.03
342.552	96.6
342.764	69.97
342.977	22.87
343.189	57.68
343.401	45.4
343.613	31.06
343.826	84.31
344.038	49.49
344.25	51.54
344.462	-24.23
344.674	104.79
344.886	59.73
345.099	67.92
345.311	80.21
345.523	-5.8
345.735	80.21
345.947	86.36
346.159	53.59
346.371	51.54
346.583	24.92
346.795	84.31
347.007	72.02
347.219	125.27
347.431	16.73
347.643	129.36
347.855	41.3
348.067	82.26
348.279	106.84
348.491	-67.24
348.703	49.49
348.915	55.64
349.127	33.11
349.339	14.68
349.551	119.12
349.763	100.69
349.975	55.64
350.187	90.45
350.399	74.07
350.61	76.12
350.822	78.16
351.034	72.02
351.246	6.49
351.458	72.02
351.669	14.68
351.881	76.12
352.093	102.74
352.305	29.01
352.517	80.21
352.728	94.55
352.94	106.84
353.152	61.78
353.363	26.96
353.575	168.27
353.787	96.6
353.999	98.64
354.21	96.6
354.422	14.68
354.633	26.96
354.845	59.73
355.057	88.4
355.268	127.32
355.48	26.96
355.692	76.12
355.903	59.73
356.115	65.88
356.326	49.49
356.538	39.25
356.749	57.68
356.961	35.16
357.172	24.92
357.384	39.25
357.595	74.07
357.807	57.68
358.018	112.98
358.23	137.56
358.441	98.64
358.653	51.54
358.864	65.88
359.075	8.53
359.287	-5.8
359.498	117.08
359.709	49.49
359.921	10.58
360.132	37.2
360.344	63.83
360.555	82.26
360.766	67.92
360.977	51.54
361.189	117.08
361.4	80.21
361.611	88.4
361.823	139.6
362.034	51.54
362.245	35.16
362.456	39.25
362.667	6.49
362.879	119.12
363.09	108.88
363.301	102.74
363.512	49.49
363.723	35.16
363.935	65.88
364.146	57.68
364.357	18.77
364.568	63.83
364.779	8.53
364.99	143.7
365.201	-1.71
365.412	98.64
365.623	55.64
365.834	69.97
366.045	78.16
366.256	166.23
366.467	65.88
366.678	35.16
366.889	45.4
367.1	86.36
367.311	29.01
367.522	41.3
367.733	31.06
367.944	65.88
368.155	35.16
368.366	102.74
368.577	112.98
368.788	55.64
368.999	49.49
369.209	41.3
369.42	69.97
369.631	125.27
369.842	102.74
370.053	2.39
370.264	133.46
370.474	43.35
370.685	51.54
370.896	67.92
371.107	67.92
371.317	61.78
371.528	100.69
371.739	125.27
371.95	49.49
372.16	6.49
372.371	43.35
372.582	49.49
372.792	133.46
373.003	90.45
373.214	67.92
373.424	47.44
373.635	35.16
373.846	108.88
374.056	59.73
374.267	59.73
374.477	67.92
374.688	43.35
374.898	55.64
375.109	53.59
375.319	121.17
375.53	39.25
375.74	115.03
375.951	133.46
376.161	59.73
376.372	106.84
376.582	123.22
376.793	76.12
377.003	29.01
377.214	123.22
377.424	31.06
377.635	133.46
377.845	104.79
378.055	49.49
378.266	98.64
378.476	12.63
378.686	94.55
378.897	84.31
379.107	37.2
379.317	35.16
379.528	67.92
379.738	135.51
379.948	84.31
380.158	125.27
380.369	69.97
380.579	45.4
380.789	39.25
380.999	106.84
381.21	117.08
381.42	69.97
381.63	80.21
381.84	74.07
382.05	139.6
382.261	76.12
382.471	96.6
382.681	88.4
382.891	121.17
383.101	112.98
383.311	6.49
383.521	80.21
383.731	57.68
383.941	108.88
384.151	65.88
384.361	98.64
384.571	78.16
384.781	133.46
384.991	139.6
385.201	137.56
385.411	115.03
385.621	102.74
385.831	47.44
386.041	121.17
386.251	135.51
386.461	96.6
386.671	96.6
386.881	92.5
387.091	47.44
387.301	143.7
387.511	166.23
387.72	92.5
387.93	57.68
388.14	147.8
388.35	135.51
388.56	117.08
388.769	94.55
388.979	135.51
389.189	117.08
389.399	108.88
389.609	80.21
389.818	96.6
390.028	106.84
390.238	162.13
390.447	84.31
390.657	90.45
390.867	84.31
391.076	57.68
391.286	92.5
391.496	102.74
391.705	84.31
391.915	98.64
392.125	112.98
392.334	112.98
392.544	102.74
392.753	123.22
392.963	78.16
393.172	84.31
393.382	186.71
393.591	90.45
393.801	133.46
394.01	137.56
394.22	131.41
394.429	80.21
394.639	51.54
394.848	43.35
395.058	106.84
395.267	137.56
395.477	141.65
395.686	65.88
395.895	141.65
396.105	141.65
396.314	90.45
396.524	231.76
396.733	137.56
396.942	158.03
397.152	172.37
397.361	143.7
397.57	110.93
397.78	127.32
397.989	121.17
398.198	250.19
398.407	207.19
398.617	207.19
398.826	153.94
399.035	178.51
399.244	137.56
399.453	153.94
399.663	250.19
399.872	129.36
400.081	86.36
400.29	133.46
400.499	158.03
400.708	112.98
400.917	248.15
401.127	143.7
401.336	178.51
401.545	291.15
401.754	155.99
401.963	219.47
402.172	143.7
402.381	131.41
402.59	153.94
402.799	184.66
403.008	196.95
403.217	184.66
403.426	174.42
403.635	104.79
403.844	242
404.053	248.15
404.262	145.75
404.471	215.38
404.68	104.79
404.888	188.75
405.097	231.76
405.306	223.57
405.515	209.23
405.724	256.34
405.933	246.1
406.142	235.86
406.35	254.29
406.559	221.52
406.768	282.96
406.977	235.86
407.185	219.47
407.394	280.91
407.603	188.75
407.812	262.48
408.02	362.83
408.229	344.4
408.438	371.02
408.646	354.64
408.855	348.5
409.064	414.03
409.272	315.73
409.481	313.68
409.69	338.26
409.898	459.09
410.107	393.55
410.315	452.94
410.524	420.17
410.733	477.52
410.941	506.19
411.15	551.24
411.358	549.2
411.567	610.64
411.775	579.92
411.984	489.81
412.192	584.01
412.401	612.68
412.609	737.61
412.818	696.65
413.026	688.46
413.234	803.15
413.443	751.95
413.651	743.75
413.86	846.15
414.068	749.9
414.276	942.41
414.485	823.62
414.693	909.64
414.901	883.02
415.11	1042.76
415.318	919.88
415.526	960.84
415.734	1139.01
415.943	997.7
416.151	1055.05
416.359	1153.35
416.567	1155.4
416.776	1145.16
416.984	1337.66
417.192	1456.45
417.4	1368.38
417.608	1368.38
417.817	1503.55
418.025	1552.7
418.233	1610.04
418.441	1591.61
418.649	1714.49
418.857	1704.25
419.065	1800.51
419.273	1775.93
419.481	1931.58
419.689	1974.58
419.897	2099.51
420.105	2064.69
420.313	2201.91
420.521	2195.76
420.729	2156.85
420.937	2328.88
421.145	2371.89
421.353	2580.78
421.561	2689.32
421.769	2767.15
421.977	2781.48
422.185	2859.31
422.393	3182.88
422.601	3096.87
422.809	3252.52
423.017	3242.28
423.224	3373.35
423.432	3363.11
423.64	3397.92
423.848	3797.28
424.056	3625.25
424.263	3961.11
424.471	3932.44
424.679	4040.98
424.887	4256.02
425.094	4231.44
425.302	4548.88
425.51	4581.65
425.718	4763.92
425.925	4798.73
426.133	4972.81
426.341	5163.27
426.548	5585.15
426.756	5368.07
426.964	5513.47
427.171	5953.79
427.379	6013.18
427.586	6205.69
427.794	6150.39
428.001	6357.24
428.209	6994.15
428.417	6775.02
428.624	7420.13
428.832	7303.4
429.039	7178.47
429.247	7268.58
429.454	7751.9
429.662	8231.13
429.869	7889.12
430.076	8390.87
430.284	8143.07
430.491	8642.77
430.699	9048.27
430.906	9019.6
431.114	9236.68
431.321	9769.15
431.528	9726.14
431.736	10238.14
431.943	10883.25
432.15	10426.55
432.358	10776.75
432.565	11200.68
432.772	11065.52
432.979	11645.09
433.187	11817.12
433.394	12079.26
433.601	12990.61
433.808	12939.41
434.016	12781.71
434.223	13435.02
434.43	14092.41
434.637	13682.82
434.844	14485.62
435.052	14964.85
435.259	14819.44
435.466	15005.81
435.673	14968.94
435.88	15831.14
436.087	16543.83
436.294	16625.75
436.501	16343.13
436.708	16592.98
436.915	17168.46
437.122	18128.96
437.329	17903.68
437.537	18720.82
437.743	18630.71
437.95	18534.46
438.157	19527.72
438.364	20279.33
438.571	20084.77
438.778	20269.09
438.985	22265.86
439.192	21352.46
439.399	21940.23
439.606	21467.15
439.813	22902.78
440.02	24176.61
440.227	23482.35
440.433	23570.41
440.64	24391.65
440.847	24193
441.054	24539.1
441.261	26394.56
441.467	26263.49
441.674	26750.91
441.881	27592.62
442.088	27631.54
442.294	27402.16
442.501	27824.04
442.708	28602.27
442.914	29532.05
443.121	30613.38
443.328	30154.63
443.534	31752.05
443.741	31156.09
443.948	30652.29
444.154	32984.93
444.361	32986.97
444.568	32857.95
444.774	33197.91
444.981	33673.04
445.187	34336.59
445.394	36181.81
445.6	35653.43
445.807	38842.12
446.013	36927.27
446.22	37846.8
446.426	39315.2
446.633	39436.03
446.839	40900.33
447.046	39481.08
447.252	41373.41
447.459	41228
447.665	41316.06
447.871	43220.67
448.078	44813.99
448.284	42794.7
448.491	43546.3
448.697	45461.15
448.903	46513.81
449.11	46562.96
449.316	45559.45
449.522	46636.69
449.728	48135.8
449.935	48336.5
450.141	48486
450.347	49124.97
450.553	47566.46
450.76	48428.66
450.966	49874.52
451.172	49186.41
451.378	50277.97
451.584	49385.06
451.791	50835.02
451.997	50146.9
452.203	51496.52
452.409	51156.55
452.615	50966.09
452.821	49036.91
453.027	49004.14
453.233	50947.66
453.44	49311.33
453.646	50042.46
453.852	49829.47
454.058	50925.13
454.264	49241.7
454.47	50343.51
454.676	48772.72
454.882	51050.06
455.088	46476.94
455.294	47044.23
455.5	47947.39
455.705	48205.43
455.911	46003.86
456.117	45473.44
456.323	44691.12
456.529	42344.14
456.735	44740.27
456.941	43335.36
457.147	42606.28
457.352	41367.26
457.558	40881.89
457.764	41168.61
457.97	40406.76
458.176	39882.48
458.381	39595.77
458.587	38004.5
458.793	37762.84
458.999	35497.78
459.204	38024.98
459.41	36886.31
459.616	34662.21
459.821	34746.18
460.027	34418.5
460.233	33826.64
460.438	32175.98
460.644	32604
460.85	31113.08
461.055	30660.48
461.261	30797.7
461.466	28311.46
461.672	27381.68
461.878	29462.42
462.083	27494.32
462.289	26789.82
462.494	26462.15
462.7	25595.85
462.905	24424.42
463.111	25681.87
463.316	26060.74
463.522	24924.12
463.727	24973.27
463.932	24924.12
464.138	24920.03
464.343	24872.92
464.549	24362.98
464.754	25077.72
464.959	24995.8
465.165	24715.23
465.37	23728.11
465.575	22802.43
465.781	23992.3
465.986	24213.48
466.191	23308.27
466.397	22624.25
466.602	21483.53
466.807	22630.4
467.012	22401.02
