Data from USB4F104151__7__11-44-26-195.txt Node

Date: Fri Mar 14 11:44:26 EDT 2025
User: louis
Spectrometer: USB4F10415
Trigger mode: 4
Integration Time (sec): 2.000000E-2
Scans to average: 1
Electric dark correction enabled: true
Nonlinearity correction enabled: false
Boxcar width: 0
XAxis mode: Wavelengths
Number of Pixels in Spectrum: 3648
>>>>>Begin Spectral Data<<<<<
178.204	-105.81
178.424	-105.81
178.644	-105.81
178.864	-95.57
179.084	-109.91
179.304	53.93
179.524	-54.61
179.744	53.93
179.964	21.16
180.184	10.92
180.404	15.02
180.624	-54.61
180.844	-27.99
181.064	-38.23
181.283	-7.51
181.503	23.21
181.723	4.78
181.943	-17.75
182.163	-15.7
182.383	12.97
182.602	-105.81
182.822	-19.8
183.042	-11.61
183.262	82.6
183.482	68.27
183.701	-11.61
183.921	0.68
184.141	8.87
184.361	37.55
184.58	53.93
184.8	27.31
185.02	-71
185.239	-17.75
185.459	49.83
185.679	12.97
185.898	-32.08
186.118	-1.37
186.338	-50.52
186.557	72.36
186.777	8.87
186.997	-103.76
187.216	-79.19
187.436	43.69
187.655	-36.18
187.875	27.31
188.095	58.03
188.314	-27.99
188.534	19.11
188.753	-93.52
188.973	-7.51
189.192	-13.65
189.412	27.31
189.631	-3.41
189.851	12.97
190.07	-30.04
190.29	-40.28
190.509	45.74
190.729	12.97
190.948	25.26
191.168	135.85
191.387	27.31
191.607	-9.56
191.826	-23.89
192.045	0.68
192.265	70.31
192.484	31.4
192.704	-17.75
192.923	58.03
193.142	33.45
193.362	17.07
193.581	39.59
193.8	19.11
194.02	4.78
194.239	-5.46
194.458	70.31
194.678	-44.37
194.897	-62.8
195.116	-19.8
195.335	2.73
195.555	43.69
195.774	53.93
195.993	-7.51
196.212	12.97
196.432	-91.48
196.651	37.55
196.87	62.12
197.089	72.36
197.308	-50.52
197.528	62.12
197.747	78.51
197.966	-15.7
198.185	58.03
198.404	8.87
198.623	43.69
198.842	31.4
199.062	-13.65
199.281	-44.37
199.5	4.78
199.719	39.59
199.938	12.97
200.157	31.4
200.376	103.08
200.595	-25.94
200.814	-36.18
201.033	-32.08
201.252	45.74
201.471	-9.56
201.69	62.12
201.909	92.84
202.128	17.07
202.347	-21.84
202.566	12.97
202.785	-68.95
203.004	-5.46
203.223	25.26
203.442	43.69
203.661	-27.99
203.879	64.17
204.098	31.4
204.317	-11.61
204.536	-40.28
204.755	-56.66
204.974	6.83
205.193	-71
205.411	35.5
205.63	-11.61
205.849	17.07
206.068	49.83
206.287	-19.8
206.505	84.65
206.724	35.5
206.943	-11.61
207.162	23.21
207.381	-9.56
207.599	25.26
207.818	53.93
208.037	-73.04
208.255	41.64
208.474	17.07
208.693	-54.61
208.911	-40.28
209.13	-66.9
209.349	-21.84
209.567	31.4
209.786	6.83
210.005	17.07
210.223	0.68
210.442	-3.41
210.661	-15.7
210.879	19.11
211.098	25.26
211.316	51.88
211.535	-7.51
211.753	-5.46
211.972	27.31
212.191	-17.75
212.409	41.64
212.628	-34.13
212.846	-3.41
213.065	-38.23
213.283	31.4
213.502	29.35
213.72	47.79
213.938	45.74
214.157	-19.8
214.375	37.55
214.594	10.92
214.812	2.73
215.031	53.93
215.249	35.5
215.467	82.6
215.686	-40.28
215.904	37.55
216.122	-34.13
216.341	33.45
216.559	29.35
216.778	47.79
216.996	17.07
217.214	45.74
217.432	29.35
217.651	21.16
217.869	45.74
218.087	21.16
218.306	90.79
218.524	31.4
218.742	-13.65
218.96	49.83
219.179	-17.75
219.397	-38.23
219.615	43.69
219.833	45.74
220.051	-17.75
220.27	15.02
220.488	39.59
220.706	76.46
220.924	4.78
221.142	-3.41
221.36	37.55
221.578	2.73
221.796	27.31
222.015	37.55
222.233	-32.08
222.451	45.74
222.669	-97.62
222.887	-46.42
223.105	51.88
223.323	8.87
223.541	49.83
223.759	62.12
223.977	45.74
224.195	-1.37
224.413	29.35
224.631	-71
224.849	39.59
225.067	6.83
225.285	45.74
225.503	-30.04
225.721	74.41
225.939	35.5
226.157	80.55
226.375	103.08
226.592	17.07
226.81	62.12
227.028	33.45
227.246	82.6
227.464	-30.04
227.682	-23.89
227.9	49.83
228.117	6.83
228.335	35.5
228.553	0.68
228.771	-11.61
228.989	37.55
229.206	0.68
229.424	-23.89
229.642	15.02
229.86	-9.56
230.077	15.02
230.295	15.02
230.513	8.87
230.731	53.93
230.948	98.99
231.166	-3.41
231.384	-40.28
231.601	35.5
231.819	29.35
232.037	51.88
232.254	-34.13
232.472	58.03
232.689	-38.23
232.907	35.5
233.125	19.11
233.342	33.45
233.56	33.45
233.777	-13.65
233.995	-19.8
234.213	39.59
234.43	0.68
234.648	-21.84
234.865	-34.13
235.083	0.68
235.3	-9.56
235.518	6.83
235.735	53.93
235.953	27.31
236.17	-1.37
236.388	-34.13
236.605	31.4
236.822	23.21
237.04	0.68
237.257	53.93
237.475	4.78
237.692	74.41
237.909	12.97
238.127	12.97
238.344	58.03
238.562	60.07
238.779	12.97
238.996	-30.04
239.214	-15.7
239.431	45.74
239.648	35.5
239.865	109.23
240.083	41.64
240.3	4.78
240.517	-30.04
240.735	39.59
240.952	-13.65
241.169	23.21
241.386	-36.18
241.603	74.41
241.821	19.11
242.038	51.88
242.255	60.07
242.472	12.97
242.689	58.03
242.907	47.79
243.124	-38.23
243.341	-46.42
243.558	-9.56
243.775	-21.84
243.992	6.83
244.209	117.42
244.426	37.55
244.643	84.65
244.86	-7.51
245.078	2.73
245.295	86.7
245.512	58.03
245.729	-46.42
245.946	31.4
246.163	17.07
246.38	2.73
246.597	-3.41
246.814	2.73
247.031	-75.09
247.248	6.83
247.464	2.73
247.681	43.69
247.898	-13.65
248.115	98.99
248.332	-21.84
248.549	90.79
248.766	62.12
248.983	45.74
249.2	-11.61
249.417	15.02
249.633	6.83
249.85	121.51
250.067	68.27
250.284	-3.41
250.501	6.83
250.717	64.17
250.934	21.16
251.151	-5.46
251.368	-48.47
251.585	8.87
251.801	37.55
252.018	39.59
252.235	45.74
252.451	-23.89
252.668	60.07
252.885	82.6
253.102	-3.41
253.318	-19.8
253.535	-81.24
253.752	58.03
253.968	53.93
254.185	-13.65
254.401	6.83
254.618	-5.46
254.835	-19.8
255.051	62.12
255.268	45.74
255.484	29.35
255.701	-19.8
255.917	17.07
256.134	-50.52
256.351	-17.75
256.567	66.22
256.784	-3.41
257	-68.95
257.217	21.16
257.433	-5.46
257.65	55.98
257.866	-15.7
258.082	-40.28
258.299	51.88
258.515	15.02
258.732	15.02
258.948	-40.28
259.165	64.17
259.381	-54.61
259.597	72.36
259.814	-3.41
260.03	8.87
260.246	35.5
260.463	51.88
260.679	-54.61
260.895	58.03
261.112	90.79
261.328	47.79
261.544	29.35
261.761	12.97
261.977	6.83
262.193	41.64
262.409	29.35
262.626	94.89
262.842	88.75
263.058	-48.47
263.274	-7.51
263.49	-1.37
263.707	-52.56
263.923	-11.61
264.139	51.88
264.355	94.89
264.571	53.93
264.787	21.16
265.004	60.07
265.22	2.73
265.436	10.92
265.652	62.12
265.868	15.02
266.084	21.16
266.3	37.55
266.516	39.59
266.732	35.5
266.948	-48.47
267.164	51.88
267.38	33.45
267.596	60.07
267.812	31.4
268.028	58.03
268.244	-13.65
268.46	62.12
268.676	-19.8
268.892	-5.46
269.108	-17.75
269.324	15.02
269.54	-73.04
269.756	53.93
269.972	2.73
270.188	92.84
270.403	19.11
270.619	58.03
270.835	-54.61
271.051	58.03
271.267	-17.75
271.483	78.51
271.698	53.93
271.914	115.37
272.13	-30.04
272.346	0.68
272.562	-21.84
272.777	35.5
272.993	29.35
273.209	-46.42
273.425	45.74
273.64	21.16
273.856	21.16
274.072	-11.61
274.287	4.78
274.503	60.07
274.719	29.35
274.934	62.12
275.15	2.73
275.366	-38.23
275.581	-9.56
275.797	41.64
276.012	-13.65
276.228	15.02
276.444	29.35
276.659	29.35
276.875	-1.37
277.09	27.31
277.306	-36.18
277.521	23.21
277.737	17.07
277.952	23.21
278.168	-15.7
278.383	29.35
278.599	8.87
278.814	37.55
279.03	58.03
279.245	51.88
279.461	74.41
279.676	60.07
279.892	-7.51
280.107	47.79
280.322	-11.61
280.538	45.74
280.753	-3.41
280.969	-1.37
281.184	25.26
281.399	51.88
281.615	-23.89
281.83	37.55
282.045	0.68
282.26	41.64
282.476	103.08
282.691	8.87
282.906	2.73
283.122	2.73
283.337	51.88
283.552	45.74
283.767	15.02
283.983	51.88
284.198	53.93
284.413	64.17
284.628	-58.71
284.843	-3.41
285.058	6.83
285.274	-15.7
285.489	45.74
285.704	58.03
285.919	39.59
286.134	-23.89
286.349	-36.18
286.564	49.83
286.779	41.64
286.995	4.78
287.21	-19.8
287.425	2.73
287.64	86.7
287.855	17.07
288.07	-60.76
288.285	19.11
288.5	21.16
288.715	-40.28
288.93	74.41
289.145	-21.84
289.36	39.59
289.575	17.07
289.79	25.26
290.004	17.07
290.219	55.98
290.434	27.31
290.649	37.55
290.864	25.26
291.079	23.21
291.294	41.64
291.509	8.87
291.724	8.87
291.938	6.83
292.153	12.97
292.368	78.51
292.583	62.12
292.798	-7.51
293.012	21.16
293.227	23.21
293.442	-5.46
293.657	78.51
293.871	60.07
294.086	-15.7
294.301	90.79
294.516	55.98
294.73	-3.41
294.945	31.4
295.16	27.31
295.374	58.03
295.589	6.83
295.804	-13.65
296.018	-17.75
296.233	117.42
296.447	43.69
296.662	37.55
296.877	23.21
297.091	115.37
297.306	33.45
297.52	53.93
297.735	15.02
297.949	12.97
298.164	-15.7
298.378	98.99
298.593	15.02
298.807	0.68
299.022	23.21
299.236	-11.61
299.451	-23.89
299.665	29.35
299.88	25.26
300.094	39.59
300.309	21.16
300.523	51.88
300.737	4.78
300.952	-17.75
301.166	39.59
301.381	23.21
301.595	47.79
301.809	37.55
302.024	15.02
302.238	12.97
302.452	74.41
302.667	-21.84
302.881	82.6
303.095	51.88
303.309	19.11
303.524	-46.42
303.738	-9.56
303.952	-15.7
304.166	90.79
304.381	12.97
304.595	53.93
304.809	45.74
305.023	8.87
305.237	49.83
305.452	37.55
305.666	47.79
305.88	103.08
306.094	47.79
306.308	39.59
306.522	2.73
306.736	74.41
306.95	58.03
307.164	-5.46
307.379	-17.75
307.593	70.31
307.807	123.56
308.021	-32.08
308.235	70.31
308.449	41.64
308.663	6.83
308.877	92.84
309.091	68.27
309.305	41.64
309.519	-71
309.733	15.02
309.947	2.73
310.161	19.11
310.374	6.83
310.588	60.07
310.802	-21.84
311.016	-19.8
311.23	60.07
311.444	6.83
311.658	25.26
311.872	127.66
312.085	-56.66
312.299	68.27
312.513	103.08
312.727	37.55
312.941	-7.51
313.154	12.97
313.368	-9.56
313.582	66.22
313.796	-13.65
314.009	82.6
314.223	25.26
314.437	62.12
314.651	-7.51
314.864	8.87
315.078	35.5
315.292	84.65
315.505	8.87
315.719	45.74
315.933	-5.46
316.146	4.78
316.36	37.55
316.573	-5.46
316.787	-32.08
317.001	70.31
317.214	45.74
317.428	68.27
317.641	58.03
317.855	78.51
318.068	8.87
318.282	-3.41
318.495	6.83
318.709	15.02
318.922	35.5
319.136	-13.65
319.349	68.27
319.563	-11.61
319.776	37.55
319.99	62.12
320.203	-13.65
320.417	-9.56
320.63	72.36
320.843	6.83
321.057	-21.84
321.27	29.35
321.483	10.92
321.697	60.07
321.91	41.64
322.124	8.87
322.337	12.97
322.55	2.73
322.763	41.64
322.977	-79.19
323.19	23.21
323.403	12.97
323.617	43.69
323.83	45.74
324.043	62.12
324.256	121.51
324.469	-9.56
324.683	60.07
324.896	-15.7
325.109	21.16
325.322	19.11
325.535	84.65
325.748	-3.41
325.962	60.07
326.175	29.35
326.388	55.98
326.601	6.83
326.814	33.45
327.027	-1.37
327.24	8.87
327.453	0.68
327.666	101.03
327.879	47.79
328.092	72.36
328.305	4.78
328.518	70.31
328.731	-60.76
328.944	58.03
329.157	45.74
329.37	62.12
329.583	41.64
329.796	45.74
330.009	-75.09
330.222	70.31
330.435	70.31
330.648	25.26
330.861	43.69
331.073	29.35
331.286	70.31
331.499	80.55
331.712	37.55
331.925	98.99
332.138	31.4
332.35	70.31
332.563	25.26
332.776	45.74
332.989	-3.41
333.202	-23.89
333.414	12.97
333.627	23.21
333.84	0.68
334.053	76.46
334.265	-15.7
334.478	-11.61
334.691	55.98
334.903	53.93
335.116	8.87
335.329	15.02
335.541	133.8
335.754	101.03
335.966	4.78
336.179	53.93
336.392	21.16
336.604	68.27
336.817	-44.37
337.029	53.93
337.242	70.31
337.454	55.98
337.667	8.87
337.88	49.83
338.092	21.16
338.305	25.26
338.517	-11.61
338.729	2.73
338.942	19.11
339.154	-1.37
339.367	4.78
339.579	-34.13
339.792	21.16
340.004	-30.04
340.217	90.79
340.429	6.83
340.641	60.07
340.854	-19.8
341.066	-52.56
341.278	25.26
341.491	10.92
341.703	76.46
341.915	62.12
342.128	31.4
342.34	23.21
342.552	-1.37
342.764	47.79
342.977	-30.04
343.189	-32.08
343.401	0.68
343.613	21.16
343.826	68.27
344.038	49.83
344.25	49.83
344.462	21.16
344.674	58.03
344.886	45.74
345.099	10.92
345.311	115.37
345.523	39.59
345.735	2.73
345.947	37.55
346.159	35.5
346.371	86.7
346.583	98.99
346.795	55.98
347.007	15.02
347.219	49.83
347.431	58.03
347.643	6.83
347.855	41.64
348.067	70.31
348.279	-13.65
348.491	33.45
348.703	74.41
348.915	19.11
349.127	21.16
349.339	12.97
349.551	-38.23
349.763	-3.41
349.975	80.55
350.187	51.88
350.399	86.7
350.61	53.93
350.822	0.68
351.034	45.74
351.246	37.55
351.458	-1.37
351.669	33.45
351.881	98.99
352.093	70.31
352.305	58.03
352.517	-19.8
352.728	35.5
352.94	10.92
353.152	31.4
353.363	17.07
353.575	62.12
353.787	64.17
353.999	72.36
354.21	27.31
354.422	-5.46
354.633	25.26
354.845	58.03
355.057	17.07
355.268	66.22
355.48	-48.47
355.692	53.93
355.903	47.79
356.115	6.83
356.326	12.97
356.538	4.78
356.749	6.83
356.961	17.07
357.172	43.69
357.384	-52.56
357.595	88.75
357.807	62.12
358.018	70.31
358.23	60.07
358.441	51.88
358.653	115.37
358.864	-17.75
359.075	-30.04
359.287	35.5
359.498	82.6
359.709	-13.65
359.921	82.6
360.132	29.35
360.344	53.93
360.555	47.79
360.766	33.45
360.977	-32.08
361.189	33.45
361.4	39.59
361.611	88.75
361.823	64.17
362.034	72.36
362.245	-64.85
362.456	86.7
362.667	115.37
362.879	2.73
363.09	-11.61
363.301	-13.65
363.512	60.07
363.723	39.59
363.935	60.07
364.146	27.31
364.357	-89.43
364.568	45.74
364.779	47.79
364.99	53.93
365.201	37.55
365.412	55.98
365.623	25.26
365.834	15.02
366.045	37.55
366.256	51.88
366.467	58.03
366.678	35.5
366.889	10.92
367.1	19.11
367.311	94.89
367.522	49.83
367.733	64.17
367.944	-15.7
368.155	23.21
368.366	96.94
368.577	66.22
368.788	111.27
368.999	27.31
369.209	-1.37
369.42	123.56
369.631	70.31
369.842	47.79
370.053	15.02
370.264	37.55
370.474	6.83
370.685	33.45
370.896	74.41
371.107	129.7
371.317	0.68
371.528	17.07
371.739	66.22
371.95	101.03
372.16	-5.46
372.371	-9.56
372.582	31.4
372.792	12.97
373.003	12.97
373.214	49.83
373.424	98.99
373.635	-27.99
373.846	109.23
374.056	78.51
374.267	78.51
374.477	-23.89
374.688	-3.41
374.898	53.93
375.109	47.79
375.319	68.27
375.53	49.83
375.74	21.16
375.951	90.79
376.161	17.07
376.372	125.61
376.582	12.97
376.793	70.31
377.003	41.64
377.214	12.97
377.424	17.07
377.635	119.46
377.845	15.02
378.055	35.5
378.266	25.26
378.476	35.5
378.686	66.22
378.897	172.71
379.107	-25.94
379.317	-11.61
379.528	64.17
379.738	131.75
379.948	15.02
380.158	72.36
380.369	94.89
380.579	70.31
380.789	33.45
380.999	29.35
381.21	105.13
381.42	84.65
381.63	162.47
381.84	58.03
382.05	72.36
382.261	76.46
382.471	96.94
382.681	82.6
382.891	139.94
383.101	82.6
383.311	-3.41
383.521	64.17
383.731	43.69
383.941	103.08
384.151	82.6
384.361	41.64
384.571	41.64
384.781	19.11
384.991	80.55
385.201	115.37
385.411	53.93
385.621	109.23
385.831	6.83
386.041	-3.41
386.251	109.23
386.461	21.16
386.671	-3.41
386.881	29.35
387.091	10.92
387.301	70.31
387.511	76.46
387.72	23.21
387.93	72.36
388.14	47.79
388.35	70.31
388.56	115.37
388.769	58.03
388.979	111.27
389.189	-11.61
389.399	33.45
389.609	107.18
389.818	139.94
390.028	119.46
390.238	90.79
390.447	55.98
390.657	76.46
390.867	76.46
391.076	-21.84
391.286	64.17
391.496	78.51
391.705	123.56
391.915	74.41
392.125	86.7
392.334	90.79
392.544	123.56
392.753	37.55
392.963	41.64
393.172	72.36
393.382	47.79
393.591	51.88
393.801	92.84
394.01	82.6
394.22	105.13
394.429	86.7
394.639	60.07
394.848	62.12
395.058	78.51
395.267	66.22
395.477	135.85
395.686	51.88
395.895	137.9
396.105	109.23
396.314	66.22
396.524	105.13
396.733	90.79
396.942	160.42
397.152	90.79
397.361	121.51
397.57	109.23
397.78	121.51
397.989	74.41
398.198	125.61
398.407	33.45
398.617	154.28
398.826	76.46
399.035	119.46
399.244	152.23
399.453	66.22
399.663	98.99
399.872	103.08
400.081	131.75
400.29	139.94
400.499	76.46
400.708	223.91
400.917	160.42
401.127	94.89
401.336	164.52
401.545	160.42
401.754	172.71
401.963	154.28
402.172	154.28
402.381	168.62
402.59	144.04
402.799	137.9
403.008	164.52
403.217	148.14
403.426	152.23
403.635	158.38
403.844	168.62
404.053	158.38
404.262	176.81
404.471	193.19
404.68	180.9
404.888	185
405.097	166.57
405.306	201.38
405.515	242.34
405.724	129.7
405.933	260.77
406.142	158.38
406.35	262.82
406.559	203.43
406.768	238.25
406.977	305.83
407.185	283.3
407.394	271.01
407.603	266.92
407.812	217.77
408.02	307.88
408.229	248.49
408.438	316.07
408.646	340.65
408.855	307.88
409.064	357.03
409.272	357.03
409.481	328.36
409.69	305.83
409.898	408.23
410.107	402.08
410.315	408.23
410.524	443.04
410.733	395.94
410.941	508.58
411.15	436.9
411.358	471.72
411.567	459.43
411.775	527.01
411.984	512.67
412.192	473.76
412.401	613.03
412.609	717.47
412.818	598.69
413.026	680.61
413.234	653.98
413.443	735.9
413.651	719.52
413.86	805.53
414.068	836.25
414.276	815.77
414.485	838.3
414.693	838.3
414.901	940.7
415.11	922.27
415.318	895.64
415.526	942.75
415.734	1104.54
415.943	1096.35
416.151	1094.3
416.359	1112.73
416.567	1028.76
416.776	1219.22
416.984	1239.7
417.192	1206.94
417.4	1276.57
417.608	1258.14
417.817	1520.28
418.025	1362.58
418.233	1583.76
418.441	1520.28
418.649	1555.09
418.857	1778.32
419.065	1755.79
419.273	1698.45
419.481	1850
419.689	1985.16
419.897	2054.8
420.105	1952.4
420.313	1995.4
420.521	2208.39
420.729	2124.43
420.937	2237.06
421.145	2417.29
421.353	2392.71
421.561	2611.84
421.769	2620.03
421.977	2681.47
422.185	2726.53
422.393	2888.32
422.601	3076.73
422.809	3048.06
423.017	3031.68
423.224	3228.28
423.432	3275.38
423.64	3293.82
423.848	3605.11
424.056	3646.07
424.263	3797.62
424.471	3752.56
424.679	3754.61
424.887	4147.82
425.094	4227.69
425.302	4289.13
425.51	4452.97
425.718	4614.76
425.925	4668
426.133	4690.53
426.341	4977.25
426.548	5288.54
426.756	5413.46
426.964	5292.63
427.171	5614.16
427.379	5743.19
427.586	5921.36
427.794	5960.27
428.001	6453.83
428.209	6554.18
428.417	6599.24
428.624	7127.61
428.832	7234.11
429.039	6855.23
429.247	6957.63
429.454	7561.78
429.662	8147.5
429.869	7696.95
430.076	8292.91
430.284	7914.03
430.491	8190.51
430.699	8626.73
430.906	8671.78
431.114	8872.48
431.321	9259.55
431.528	9294.36
431.736	9804.31
431.943	10455.56
432.15	10111.5
432.358	10340.88
432.565	10744.33
432.772	10586.63
432.979	11117.06
433.187	11551.23
433.394	11620.86
433.601	12272.11
433.808	12313.07
434.016	12229.1
434.223	12775.91
434.43	13689.31
434.637	13337.06
434.844	14031.32
435.052	14698.95
435.259	14244.31
435.466	14541.26
435.673	14430.67
435.88	15419.84
436.087	16050.61
436.294	16259.51
436.501	15870.39
436.708	16040.37
436.915	16548.27
437.122	17453.47
437.329	17410.46
437.537	17992.09
437.743	18143.64
437.95	18151.83
438.157	18946.44
438.364	19515.78
438.571	19884.41
438.778	19693.95
438.985	21338.47
439.192	20627.82
439.399	21408.1
439.606	20681.07
439.813	22067.55
440.02	23228.74
440.227	22925.64
440.433	22708.56
440.64	23499.08
440.847	23429.45
441.054	23880
441.261	25350.44
441.467	25053.48
441.674	25901.34
441.881	26822.93
442.088	26712.34
442.294	26421.53
442.501	27091.21
442.708	27488.52
442.914	28666.1
443.121	30040.29
443.328	29071.6
443.534	30963.92
443.741	30335.2
443.948	29763.81
444.154	32291.01
444.361	31903.94
444.568	32088.26
444.774	31924.42
444.981	32434.36
445.187	33237.17
445.394	34652.31
445.6	34246.82
445.807	37638.25
446.013	35633.29
446.22	36210.82
446.426	38080.61
446.633	38072.42
446.839	39360.59
447.046	38088.81
447.252	40253.51
447.459	40400.96
447.665	40157.25
447.871	41584.69
448.078	43620.37
448.284	41582.64
448.491	42616.86
448.697	43915.28
448.903	44722.18
449.11	44793.86
449.316	43925.52
449.522	44752.9
449.728	46241.77
449.935	46620.64
450.141	46241.77
450.347	47611.86
450.553	46475.24
450.76	46974.94
450.966	48150.48
451.172	47548.37
451.378	49043.39
451.584	47970.25
451.791	48744.39
451.997	48379.85
452.203	50116.53
452.409	49706.93
452.615	49119.17
452.821	47761.36
453.027	47407.06
453.233	49921.97
453.44	47386.58
453.646	48023.5
453.852	48209.87
454.058	49424.31
454.264	47933.39
454.47	48605.12
454.676	47593.43
454.882	49442.74
455.088	45066.24
455.294	45830.13
455.5	46487.53
455.705	46847.97
455.911	44818.43
456.117	44093.45
456.323	43370.52
456.529	41535.54
456.735	43028.51
456.941	41805.87
457.147	41363.51
457.352	40112.2
457.558	39614.54
457.764	39690.32
457.97	38985.82
458.176	38170.72
458.381	38156.39
458.587	36366.46
458.793	36673.66
458.999	34277.54
459.204	37089.4
459.41	36034.69
459.616	33052.85
459.821	33591.47
460.027	33122.48
460.233	32796.85
460.438	31041.74
460.644	31314.12
460.85	29993.18
461.055	29571.3
461.261	29638.89
461.466	27111.69
461.672	26437.91
461.878	28432.63
462.083	26595.6
462.289	26034.46
462.494	25803.04
462.7	25033
462.905	24144.19
463.111	24629.55
463.316	24922.41
463.522	24377.65
463.727	24310.07
463.932	23976.25
464.138	24174.91
464.343	23910.72
464.549	23380.29
464.754	24029.5
464.959	24004.92
465.165	23830.85
465.37	22679.89
465.575	22208.86
465.781	23021.9
465.986	23376.2
466.191	22608.21
466.397	21987.68
466.602	20855.15
466.807	21778.78
467.012	21717.34
