Data from USB4F104151__89__11-45-41-958.txt Node

Date: Fri Mar 14 11:45:41 EDT 2025
User: louis
Spectrometer: USB4F10415
Trigger mode: 4
Integration Time (sec): 2.000000E-2
Scans to average: 1
Electric dark correction enabled: true
Nonlinearity correction enabled: false
Boxcar width: 0
XAxis mode: Wavelengths
Number of Pixels in Spectrum: 3648
>>>>>Begin Spectral Data<<<<<
178.204	-123.39
178.424	-123.39
178.644	-123.39
178.864	-12.8
179.084	-33.28
179.304	-0.51
179.524	-29.18
179.744	28.16
179.964	11.78
180.184	-27.14
180.404	67.07
180.624	-61.95
180.844	50.69
181.064	30.21
181.283	-25.09
181.503	-33.28
181.723	-10.75
181.943	-25.09
182.163	65.02
182.383	-10.75
182.602	-20.99
182.822	69.12
183.042	71.17
183.262	-10.75
183.482	40.45
183.701	38.4
183.921	46.59
184.141	-4.61
184.361	-6.66
184.58	7.68
184.8	1.54
185.02	7.68
185.239	-6.66
185.459	-51.71
185.679	77.31
185.898	-4.61
186.118	101.89
186.338	3.58
186.557	89.6
186.777	11.78
186.997	44.54
187.216	-45.57
187.436	91.65
187.655	19.97
187.875	3.58
188.095	-8.7
188.314	48.64
188.534	42.5
188.753	-57.86
188.973	46.59
189.192	54.78
189.412	34.3
189.631	103.93
189.851	38.4
190.07	60.93
190.29	60.93
190.509	-14.85
190.729	-23.04
190.948	-2.56
191.168	62.98
191.387	52.74
191.607	3.58
191.826	15.87
192.045	60.93
192.265	-20.99
192.484	-18.94
192.704	44.54
192.923	-35.33
193.142	81.41
193.362	44.54
193.581	7.68
193.8	67.07
194.02	5.63
194.239	-25.09
194.458	46.59
194.678	9.73
194.897	50.69
195.116	30.21
195.335	-2.56
195.555	-12.8
195.774	77.31
195.993	50.69
196.212	36.35
196.432	34.3
196.651	30.21
196.87	62.98
197.089	144.89
197.308	-8.7
197.528	-12.8
197.747	36.35
197.966	60.93
198.185	48.64
198.404	-14.85
198.623	32.26
198.842	67.07
199.062	15.87
199.281	60.93
199.5	-20.99
199.719	36.35
199.938	24.06
200.157	7.68
200.376	122.37
200.595	26.11
200.814	-0.51
201.033	44.54
201.252	-37.38
201.471	-2.56
201.69	17.92
201.909	83.45
202.128	-0.51
202.347	-2.56
202.566	9.73
202.785	-4.61
203.004	11.78
203.223	17.92
203.442	-4.61
203.661	-27.14
203.879	65.02
204.098	1.54
204.317	-20.99
204.536	-4.61
204.755	65.02
204.974	7.68
205.193	38.4
205.411	44.54
205.63	5.63
205.849	83.45
206.068	56.83
206.287	15.87
206.505	7.68
206.724	3.58
206.943	22.02
207.162	-2.56
207.381	15.87
207.599	-6.66
207.818	17.92
208.037	36.35
208.255	9.73
208.474	34.3
208.693	-8.7
208.911	60.93
209.13	97.79
209.349	46.59
209.567	-0.51
209.786	13.82
210.005	15.87
210.223	-20.99
210.442	-33.28
210.661	11.78
210.879	-4.61
211.098	65.02
211.316	1.54
211.535	15.87
211.753	52.74
211.972	19.97
212.191	40.45
212.409	26.11
212.628	-111.1
212.846	-4.61
213.065	11.78
213.283	48.64
213.502	26.11
213.72	56.83
213.938	1.54
214.157	60.93
214.375	-0.51
214.594	26.11
214.812	69.12
215.031	69.12
215.249	36.35
215.467	44.54
215.686	-49.66
215.904	46.59
216.122	-18.94
216.341	11.78
216.559	28.16
216.778	17.92
216.996	48.64
217.214	-16.9
217.432	9.73
217.651	-25.09
217.869	32.26
218.087	26.11
218.306	-41.47
218.524	95.74
218.742	28.16
218.96	101.89
219.179	22.02
219.397	60.93
219.615	50.69
219.833	28.16
220.051	22.02
220.27	112.13
220.488	7.68
220.706	60.93
220.924	48.64
221.142	-39.42
221.36	24.06
221.578	-25.09
221.796	-6.66
222.015	69.12
222.233	69.12
222.451	75.26
222.669	-57.86
222.887	-18.94
223.105	34.3
223.323	-57.86
223.541	42.5
223.759	-43.52
223.977	50.69
224.195	-33.28
224.413	42.5
224.631	-45.57
224.849	-43.52
225.067	71.17
225.285	-53.76
225.503	30.21
225.721	38.4
225.939	7.68
226.157	28.16
226.375	69.12
226.592	-35.33
226.81	75.26
227.028	-41.47
227.246	114.17
227.464	71.17
227.682	44.54
227.9	-16.9
228.117	-20.99
228.335	56.83
228.553	62.98
228.771	-64
228.989	69.12
229.206	1.54
229.424	46.59
229.642	26.11
229.86	24.06
230.077	-16.9
230.295	69.12
230.513	17.92
230.731	15.87
230.948	36.35
231.166	5.63
231.384	-41.47
231.601	15.87
231.819	110.08
232.037	-10.75
232.254	22.02
232.472	30.21
232.689	73.21
232.907	58.88
233.125	17.92
233.342	22.02
233.56	28.16
233.777	36.35
233.995	9.73
234.213	-20.99
234.43	-6.66
234.648	9.73
234.865	-16.9
235.083	44.54
235.3	-12.8
235.518	83.45
235.735	44.54
235.953	11.78
236.17	24.06
236.388	-6.66
236.605	44.54
236.822	34.3
237.04	24.06
237.257	81.41
237.475	-94.72
237.692	38.4
237.909	71.17
238.127	-10.75
238.344	1.54
238.562	3.58
238.779	-31.23
238.996	24.06
239.214	17.92
239.431	26.11
239.648	17.92
239.865	130.56
240.083	24.06
240.3	22.02
240.517	28.16
240.735	5.63
240.952	28.16
241.169	95.74
241.386	48.64
241.603	-12.8
241.821	11.78
242.038	77.31
242.255	69.12
242.472	3.58
242.689	7.68
242.907	9.73
243.124	38.4
243.341	3.58
243.558	-55.81
243.775	-14.85
243.992	-33.28
244.209	-4.61
244.426	48.64
244.643	28.16
244.86	1.54
245.078	15.87
245.295	7.68
245.512	32.26
245.729	-10.75
245.946	-0.51
246.163	-6.66
246.38	-27.14
246.597	30.21
246.814	65.02
247.031	56.83
247.248	19.97
247.464	38.4
247.681	-23.04
247.898	42.5
248.115	60.93
248.332	-55.81
248.549	62.98
248.766	17.92
248.983	-20.99
249.2	62.98
249.417	58.88
249.633	1.54
249.85	30.21
250.067	22.02
250.284	40.45
250.501	65.02
250.717	69.12
250.934	-4.61
251.151	-43.52
251.368	44.54
251.585	7.68
251.801	44.54
252.018	58.88
252.235	50.69
252.451	19.97
252.668	38.4
252.885	28.16
253.102	-0.51
253.318	-33.28
253.535	-16.9
253.752	-29.18
253.968	24.06
254.185	-18.94
254.401	42.5
254.618	-0.51
254.835	1.54
255.051	36.35
255.268	15.87
255.484	-12.8
255.701	19.97
255.917	-18.94
256.134	22.02
256.351	44.54
256.567	24.06
256.784	1.54
257	19.97
257.217	28.16
257.433	67.07
257.65	44.54
257.866	67.07
258.082	3.58
258.299	13.82
258.515	-10.75
258.732	40.45
258.948	-14.85
259.165	91.65
259.381	-59.9
259.597	17.92
259.814	50.69
260.03	-74.24
260.246	-4.61
260.463	-37.38
260.679	36.35
260.895	-14.85
261.112	38.4
261.328	5.63
261.544	48.64
261.761	24.06
261.977	44.54
262.193	13.82
262.409	54.78
262.626	-23.04
262.842	58.88
263.058	38.4
263.274	58.88
263.49	24.06
263.707	32.26
263.923	22.02
264.139	-2.56
264.355	3.58
264.571	87.55
264.787	-49.66
265.004	26.11
265.22	-16.9
265.436	24.06
265.652	-2.56
265.868	-8.7
266.084	-2.56
266.3	48.64
266.516	-20.99
266.732	38.4
266.948	-4.61
267.164	32.26
267.38	24.06
267.596	40.45
267.812	5.63
268.028	71.17
268.244	-12.8
268.46	-8.7
268.676	32.26
268.892	46.59
269.108	-8.7
269.324	30.21
269.54	-2.56
269.756	65.02
269.972	19.97
270.188	22.02
270.403	9.73
270.619	60.93
270.835	-8.7
271.051	58.88
271.267	26.11
271.483	34.3
271.698	36.35
271.914	11.78
272.13	85.5
272.346	-31.23
272.562	-8.7
272.777	116.22
272.993	-37.38
273.209	19.97
273.425	-0.51
273.64	9.73
273.856	17.92
274.072	-49.66
274.287	-51.71
274.503	56.83
274.719	-78.33
274.934	32.26
275.15	69.12
275.366	65.02
275.581	-25.09
275.797	3.58
276.012	15.87
276.228	11.78
276.444	52.74
276.659	67.07
276.875	60.93
277.09	26.11
277.306	30.21
277.521	7.68
277.737	32.26
277.952	13.82
278.168	71.17
278.383	73.21
278.599	5.63
278.814	1.54
279.03	46.59
279.245	71.17
279.461	26.11
279.676	19.97
279.892	44.54
280.107	48.64
280.322	-49.66
280.538	22.02
280.753	-18.94
280.969	42.5
281.184	5.63
281.399	130.56
281.615	-6.66
281.83	1.54
282.045	-10.75
282.26	15.87
282.476	-6.66
282.691	13.82
282.906	73.21
283.122	5.63
283.337	-39.42
283.552	-6.66
283.767	-6.66
283.983	71.17
284.198	-18.94
284.413	-18.94
284.628	15.87
284.843	56.83
285.058	17.92
285.274	7.68
285.489	-20.99
285.704	32.26
285.919	-16.9
286.134	9.73
286.349	36.35
286.564	56.83
286.779	56.83
286.995	-8.7
287.21	-59.9
287.425	36.35
287.64	32.26
287.855	28.16
288.07	1.54
288.285	1.54
288.5	-41.47
288.715	116.22
288.93	11.78
289.145	50.69
289.36	54.78
289.575	19.97
289.79	42.5
290.004	-37.38
290.219	11.78
290.434	-20.99
290.649	-6.66
290.864	52.74
291.079	9.73
291.294	60.93
291.509	-4.61
291.724	56.83
291.938	56.83
292.153	-8.7
292.368	-76.29
292.583	-25.09
292.798	3.58
293.012	40.45
293.227	62.98
293.442	-45.57
293.657	-20.99
293.871	42.5
294.086	34.3
294.301	65.02
294.516	81.41
294.73	22.02
294.945	-2.56
295.16	-35.33
295.374	28.16
295.589	67.07
295.804	28.16
296.018	44.54
296.233	-23.04
296.447	32.26
296.662	48.64
296.877	71.17
297.091	-12.8
297.306	26.11
297.52	-33.28
297.735	1.54
297.949	32.26
298.164	89.6
298.378	11.78
298.593	5.63
298.807	13.82
299.022	34.3
299.236	-8.7
299.451	60.93
299.665	69.12
299.88	-20.99
300.094	7.68
300.309	-55.81
300.523	24.06
300.737	-2.56
300.952	5.63
301.166	81.41
301.381	48.64
301.595	67.07
301.809	-18.94
302.024	-16.9
302.238	34.3
302.452	81.41
302.667	24.06
302.881	60.93
303.095	17.92
303.309	-4.61
303.524	1.54
303.738	5.63
303.952	32.26
304.166	-29.18
304.381	-2.56
304.595	42.5
304.809	-4.61
305.023	50.69
305.237	-35.33
305.452	13.82
305.666	65.02
305.88	54.78
306.094	-14.85
306.308	7.68
306.522	52.74
306.736	185.85
306.95	-18.94
307.164	54.78
307.379	30.21
307.593	69.12
307.807	48.64
308.021	50.69
308.235	-33.28
308.449	38.4
308.663	22.02
308.877	19.97
309.091	62.98
309.305	1.54
309.519	36.35
309.733	7.68
309.947	-16.9
310.161	67.07
310.374	15.87
310.588	17.92
310.802	26.11
311.016	87.55
311.23	28.16
311.444	26.11
311.658	32.26
311.872	5.63
312.085	38.4
312.299	56.83
312.513	50.69
312.727	-4.61
312.941	56.83
313.154	44.54
313.368	11.78
313.582	17.92
313.796	42.5
314.009	-6.66
314.223	83.45
314.437	-23.04
314.651	60.93
314.864	50.69
315.078	-53.76
315.292	48.64
315.505	40.45
315.719	56.83
315.933	9.73
316.146	-43.52
316.36	28.16
316.573	52.74
316.787	5.63
317.001	-12.8
317.214	9.73
317.428	60.93
317.641	-4.61
317.855	-4.61
318.068	36.35
318.282	-6.66
318.495	40.45
318.709	36.35
318.922	28.16
319.136	17.92
319.349	44.54
319.563	75.26
319.776	58.88
319.99	48.64
320.203	40.45
320.417	7.68
320.63	7.68
320.843	52.74
321.057	-10.75
321.27	5.63
321.483	36.35
321.697	15.87
321.91	-2.56
322.124	11.78
322.337	-0.51
322.55	-10.75
322.763	116.22
322.977	40.45
323.19	48.64
323.403	19.97
323.617	-12.8
323.83	-2.56
324.043	32.26
324.256	17.92
324.469	-16.9
324.683	46.59
324.896	-18.94
325.109	-59.9
325.322	48.64
325.535	44.54
325.748	-29.18
325.962	-23.04
326.175	-4.61
326.388	17.92
326.601	7.68
326.814	28.16
327.027	3.58
327.24	79.36
327.453	-33.28
327.666	44.54
327.879	-12.8
328.092	7.68
328.305	36.35
328.518	19.97
328.731	-16.9
328.944	26.11
329.157	44.54
329.37	26.11
329.583	93.69
329.796	30.21
330.009	-0.51
330.222	62.98
330.435	-20.99
330.648	56.83
330.861	67.07
331.073	62.98
331.286	54.78
331.499	22.02
331.712	-82.43
331.925	36.35
332.138	-0.51
332.35	38.4
332.563	26.11
332.776	71.17
332.989	26.11
333.202	-4.61
333.414	9.73
333.627	-2.56
333.84	1.54
334.053	19.97
334.265	15.87
334.478	73.21
334.691	3.58
334.903	13.82
335.116	60.93
335.329	28.16
335.541	34.3
335.754	9.73
335.966	17.92
336.179	7.68
336.392	-6.66
336.604	19.97
336.817	7.68
337.029	44.54
337.242	13.82
337.454	1.54
337.667	69.12
337.88	69.12
338.092	-33.28
338.305	-29.18
338.517	-12.8
338.729	56.83
338.942	62.98
339.154	-6.66
339.367	-14.85
339.579	48.64
339.792	5.63
340.004	-8.7
340.217	67.07
340.429	26.11
340.641	-16.9
340.854	22.02
341.066	32.26
341.278	42.5
341.491	19.97
341.703	-2.56
341.915	34.3
342.128	48.64
342.34	17.92
342.552	11.78
342.764	28.16
342.977	7.68
343.189	40.45
343.401	-12.8
343.613	15.87
343.826	3.58
344.038	11.78
344.25	-25.09
344.462	-8.7
344.674	24.06
344.886	-39.42
345.099	28.16
345.311	15.87
345.523	77.31
345.735	44.54
345.947	32.26
346.159	-6.66
346.371	3.58
346.583	13.82
346.795	54.78
347.007	105.98
347.219	24.06
347.431	56.83
347.643	34.3
347.855	-27.14
348.067	91.65
348.279	-94.72
348.491	77.31
348.703	114.17
348.915	-37.38
349.127	7.68
349.339	-16.9
349.551	13.82
349.763	34.3
349.975	-10.75
350.187	19.97
350.399	-20.99
350.61	36.35
350.822	26.11
351.034	11.78
351.246	97.79
351.458	19.97
351.669	50.69
351.881	36.35
352.093	83.45
352.305	28.16
352.517	40.45
352.728	3.58
352.94	50.69
353.152	79.36
353.363	-14.85
353.575	-27.14
353.787	56.83
353.999	5.63
354.21	-16.9
354.422	30.21
354.633	-16.9
354.845	52.74
355.057	-20.99
355.268	22.02
355.48	11.78
355.692	3.58
355.903	30.21
356.115	-20.99
356.326	-16.9
356.538	-23.04
356.749	28.16
356.961	93.69
357.172	34.3
357.384	-27.14
357.595	99.84
357.807	60.93
358.018	38.4
358.23	15.87
358.441	122.37
358.653	89.6
358.864	-8.7
359.075	69.12
359.287	15.87
359.498	19.97
359.709	-14.85
359.921	17.92
360.132	60.93
360.344	36.35
360.555	13.82
360.766	22.02
360.977	30.21
361.189	73.21
361.4	-20.99
361.611	101.89
361.823	101.89
362.034	38.4
362.245	9.73
362.456	-12.8
362.667	52.74
362.879	99.84
363.09	13.82
363.301	40.45
363.512	11.78
363.723	19.97
363.935	-6.66
364.146	38.4
364.357	-4.61
364.568	-6.66
364.779	44.54
364.99	65.02
365.201	22.02
365.412	7.68
365.623	-57.86
365.834	-10.75
366.045	-92.67
366.256	5.63
366.467	-6.66
366.678	26.11
366.889	26.11
367.1	-4.61
367.311	11.78
367.522	19.97
367.733	7.68
367.944	11.78
368.155	46.59
368.366	77.31
368.577	30.21
368.788	56.83
368.999	13.82
369.209	36.35
369.42	73.21
369.631	101.89
369.842	118.27
370.053	-10.75
370.264	15.87
370.474	-12.8
370.685	75.26
370.896	79.36
371.107	77.31
371.317	38.4
371.528	19.97
371.739	36.35
371.95	67.07
372.16	-33.28
372.371	36.35
372.582	30.21
372.792	54.78
373.003	28.16
373.214	71.17
373.424	54.78
373.635	-8.7
373.846	44.54
374.056	54.78
374.267	46.59
374.477	77.31
374.688	58.88
374.898	-16.9
375.109	50.69
375.319	40.45
375.53	77.31
375.74	-37.38
375.951	22.02
376.161	52.74
376.372	19.97
376.582	-12.8
376.793	42.5
377.003	56.83
377.214	1.54
377.424	28.16
377.635	-2.56
377.845	-6.66
378.055	65.02
378.266	48.64
378.476	24.06
378.686	65.02
378.897	-37.38
379.107	3.58
379.317	71.17
379.528	71.17
379.738	34.3
379.948	-16.9
380.158	15.87
380.369	15.87
380.579	11.78
380.789	60.93
380.999	101.89
381.21	93.69
381.42	65.02
381.63	50.69
381.84	65.02
382.05	44.54
382.261	17.92
382.471	36.35
382.681	-31.23
382.891	54.78
383.101	1.54
383.311	38.4
383.521	5.63
383.731	13.82
383.941	22.02
384.151	93.69
384.361	-41.47
384.571	30.21
384.781	-0.51
384.991	22.02
385.201	95.74
385.411	56.83
385.621	54.78
385.831	13.82
386.041	56.83
386.251	46.59
386.461	79.36
386.671	97.79
386.881	46.59
387.091	56.83
387.301	-0.51
387.511	1.54
387.72	110.08
387.93	69.12
388.14	26.11
388.35	-43.52
388.56	89.6
388.769	26.11
388.979	58.88
389.189	71.17
389.399	56.83
389.609	30.21
389.818	50.69
390.028	22.02
390.238	79.36
390.447	99.84
390.657	36.35
390.867	-6.66
391.076	87.55
391.286	-16.9
391.496	132.61
391.705	67.07
391.915	50.69
392.125	28.16
392.334	65.02
392.544	58.88
392.753	32.26
392.963	17.92
393.172	85.5
393.382	-6.66
393.591	38.4
393.801	-14.85
394.01	-2.56
394.22	48.64
394.429	5.63
394.639	56.83
394.848	81.41
395.058	48.64
395.267	91.65
395.477	26.11
395.686	58.88
395.895	120.32
396.105	120.32
396.314	28.16
396.524	44.54
396.733	-10.75
396.942	81.41
397.152	24.06
397.361	71.17
397.57	40.45
397.78	11.78
397.989	11.78
398.198	62.98
398.407	13.82
398.617	79.36
398.826	48.64
399.035	-6.66
399.244	17.92
399.453	95.74
399.663	81.41
399.872	26.11
400.081	95.74
400.29	75.26
400.499	79.36
400.708	24.06
400.917	77.31
401.127	91.65
401.336	13.82
401.545	28.16
401.754	89.6
401.963	71.17
402.172	112.13
402.381	42.5
402.59	101.89
402.799	83.45
403.008	130.56
403.217	54.78
403.426	32.26
403.635	1.54
403.844	38.4
404.053	60.93
404.262	-12.8
404.471	97.79
404.68	77.31
404.888	62.98
405.097	71.17
405.306	146.94
405.515	91.65
405.724	140.8
405.933	58.88
406.142	89.6
406.35	108.03
406.559	73.21
406.768	95.74
406.977	132.61
407.185	93.69
407.394	151.04
407.603	22.02
407.812	126.46
408.02	17.92
408.229	110.08
408.438	103.93
408.646	110.08
408.855	105.98
409.064	124.41
409.272	151.04
409.481	116.22
409.69	138.75
409.898	151.04
410.107	110.08
410.315	151.04
410.524	146.94
410.733	134.65
410.941	101.89
411.15	130.56
411.358	206.33
411.567	136.7
411.775	302.59
411.984	235
412.192	232.96
412.401	218.62
412.609	257.53
412.818	263.68
413.026	220.67
413.234	278.01
413.443	331.26
413.651	241.15
413.86	351.74
414.068	294.4
414.276	273.92
414.485	343.55
414.693	294.4
414.901	325.12
415.11	427.51
415.318	310.78
415.526	353.79
415.734	314.88
415.943	333.31
416.151	460.28
416.359	441.85
416.567	407.03
416.776	435.71
416.984	435.71
417.192	443.9
417.4	474.62
417.608	509.43
417.817	415.23
418.025	495.1
418.233	613.88
418.441	540.15
418.649	546.3
418.857	531.96
419.065	626.17
419.273	609.78
419.481	656.89
419.689	626.17
419.897	720.37
420.105	753.14
420.313	747
420.521	749.04
420.729	792.05
420.937	798.2
421.145	757.24
421.353	820.72
421.561	955.89
421.769	914.93
421.977	871.92
422.185	921.07
422.393	972.27
422.601	1046
422.809	1046
423.017	1170.93
423.224	1080.82
423.432	1177.07
423.64	1191.41
423.848	1275.37
424.056	1207.79
424.263	1340.91
424.471	1215.98
424.679	1377.77
424.887	1424.87
425.094	1469.93
425.302	1480.17
425.51	1529.32
425.718	1603.05
425.925	1613.29
426.133	1584.62
426.341	1768.93
426.548	1816.04
426.756	1854.95
426.964	1807.84
427.171	1983.97
427.379	2084.32
427.586	1961.44
427.794	2088.42
428.001	2168.29
428.209	2213.34
428.417	2266.59
428.624	2450.91
428.832	2334.17
429.039	2452.95
429.247	2280.93
429.454	2620.89
429.662	2815.45
429.869	2711
430.076	2784.73
430.284	2622.94
430.491	2762.2
430.699	2905.56
430.906	2887.12
431.114	2971.09
431.321	3106.26
431.528	3096.02
431.736	3415.5
431.943	3694.02
432.15	3380.68
432.358	3468.75
432.565	3640.78
432.772	3657.16
432.979	3814.85
433.187	3962.31
433.394	3898.82
433.601	4165.06
433.808	4222.4
434.016	4158.91
434.223	4332.99
434.43	4670.9
434.637	4611.51
434.844	4838.84
435.052	5074.35
435.259	4976.05
435.466	5033.4
435.673	4947.38
435.88	5266.86
436.087	5598.63
436.294	5512.62
436.501	5465.52
436.708	5393.84
436.915	5754.28
437.122	6000.04
437.329	5791.14
437.537	6012.32
437.743	6100.39
437.95	6131.11
438.157	6630.81
438.364	6548.89
438.571	6630.81
438.778	6741.4
438.985	7335.31
439.192	7052.69
439.399	7325.07
439.606	6780.31
439.813	7437.71
440.02	8017.29
440.227	7855.5
440.433	7814.54
440.64	8123.78
440.847	7908.74
441.054	8068.48
441.261	8621.44
441.467	8574.33
441.674	8783.23
441.881	9045.37
442.088	8822.14
442.294	9004.41
442.501	9221.49
442.708	9489.78
442.914	9889.13
443.121	10100.07
443.328	9874.79
443.534	10337.63
443.741	10243.43
443.948	9948.52
444.154	10857.82
444.361	10777.95
444.568	10788.19
444.774	10880.35
444.981	10982.74
445.187	11322.71
445.394	11828.56
445.6	11609.42
445.807	12973.37
446.013	12260.68
446.22	12504.39
446.426	12666.17
446.633	12799.29
446.839	13495.6
447.046	12993.85
447.252	13600.05
447.459	13724.97
447.665	13622.58
447.871	14282.02
448.078	14918.94
448.284	14372.13
448.491	14646.56
448.697	15119.64
448.903	15459.6
449.11	15371.54
449.316	14986.52
449.522	15369.49
449.728	15865.1
449.935	15918.35
450.141	15846.67
450.347	16127.24
450.553	15764.75
450.76	15930.64
450.966	16749.82
451.172	16358.66
451.378	16723.2
451.584	16360.71
451.791	16901.37
451.997	17032.44
452.203	17091.84
452.409	17116.41
452.615	17218.81
452.821	16278.79
453.027	16100.62
453.233	17138.94
453.44	16553.22
453.646	16551.17
453.852	16864.51
454.058	17024.25
454.264	16399.62
454.47	16678.15
454.676	16272.65
454.882	16975.1
455.088	15412.5
455.294	15842.57
455.5	15928.59
455.705	16110.86
455.911	15426.84
456.117	14959.9
456.323	14929.18
456.529	14148.9
456.735	14751.01
456.941	14583.07
457.147	14079.27
457.352	13686.06
457.558	13647.15
457.764	13747.5
457.97	13274.42
458.176	12997.95
458.381	12911.93
458.587	12352.84
458.793	12426.56
458.999	11873.61
459.204	12672.32
459.41	12465.47
459.616	11263.32
459.821	11634
460.027	11298.13
460.233	11136.34
460.438	10784.09
460.644	10800.48
460.85	10306.91
461.055	10048.87
461.261	10030.44
461.466	9395.57
461.672	9209.2
461.878	9715.05
462.083	9026.93
462.289	8760.7
462.494	8656.25
462.7	8514.94
462.905	8142.21
463.111	8418.69
463.316	8318.34
463.522	8340.86
463.727	8312.19
463.932	8473.98
464.138	8195.46
464.343	8265.09
464.549	8043.91
464.754	8220.03
464.959	8113.54
465.165	8095.11
465.37	7935.37
465.575	7619.98
465.781	7898.5
465.986	8109.44
466.191	7628.17
466.397	7509.39
466.602	7099.8
466.807	7388.56
467.012	7488.91
467.218	7409.04
467.423	7431.57
467.628	7282.06
467.833	7660.94
468.038	7357.84
468.244	7183.76
468.449	7392.66
468.654	7421.33
468.859	7048.6
469.064	6999.45
469.269	6768.02
469.474	6802.84
469.679	7169.43
469.885	6927.77
