Data from USB4F104151__48__11-45-08-710.txt Node

Date: Fri Mar 14 11:45:08 EDT 2025
User: louis
Spectrometer: USB4F10415
Trigger mode: 4
Integration Time (sec): 2.000000E-2
Scans to average: 1
Electric dark correction enabled: true
Nonlinearity correction enabled: false
Boxcar width: 0
XAxis mode: Wavelengths
Number of Pixels in Spectrum: 3648
>>>>>Begin Spectral Data<<<<<
178.204	-62.63
178.424	-62.63
178.644	-62.63
178.864	-68.78
179.084	-52.39
179.304	60.24
179.524	-58.54
179.744	-1.19
179.964	-5.29
180.184	7
180.404	4.95
180.624	9.05
180.844	37.72
181.064	7
181.283	-50.35
181.503	-33.96
181.723	23.38
181.943	-58.54
182.163	-11.43
182.383	29.52
182.602	68.44
182.822	52.05
183.042	11.09
183.262	17.24
183.482	17.24
183.701	-27.82
183.921	19.29
184.141	-31.91
184.361	80.72
184.58	-46.25
184.8	37.72
185.02	-1.19
185.239	76.63
185.459	11.09
185.679	-15.53
185.898	23.38
186.118	21.33
186.338	39.76
186.557	-5.29
186.777	13.14
186.997	-9.39
187.216	9.05
187.436	62.29
187.655	17.24
187.875	13.14
188.095	17.24
188.314	21.33
188.534	88.92
188.753	-31.91
188.973	25.43
189.192	-17.58
189.412	47.96
189.631	68.44
189.851	43.86
190.07	70.48
190.29	23.38
190.509	19.29
190.729	37.72
190.948	82.77
191.168	74.58
191.387	-3.24
191.607	2.9
191.826	15.19
192.045	4.95
192.265	39.76
192.484	-5.29
192.704	13.14
192.923	-21.67
193.142	72.53
193.362	-1.19
193.581	13.14
193.8	31.57
194.02	68.44
194.239	-40.11
194.458	2.9
194.678	-5.29
194.897	11.09
195.116	25.43
195.335	62.29
195.555	-25.77
195.774	37.72
195.993	15.19
196.212	41.81
196.432	-44.2
196.651	29.52
196.87	58.2
197.089	123.73
197.308	-3.24
197.528	-23.72
197.747	25.43
197.966	25.43
198.185	-3.24
198.404	7
198.623	-15.53
198.842	15.19
199.062	56.15
199.281	45.91
199.5	-21.67
199.719	39.76
199.938	21.33
200.157	23.38
200.376	-11.43
200.595	50
200.814	-5.29
201.033	-40.11
201.252	62.29
201.471	-1.19
201.69	-7.34
201.909	15.19
202.128	64.34
202.347	29.52
202.566	41.81
202.785	-38.06
203.004	-33.96
203.223	11.09
203.442	-11.43
203.661	62.29
203.879	-3.24
204.098	-9.39
204.317	43.86
204.536	19.29
204.755	-3.24
204.974	84.82
205.193	17.24
205.411	72.53
205.63	-3.24
205.849	68.44
206.068	45.91
206.287	-5.29
206.505	13.14
206.724	7
206.943	-36.01
207.162	76.63
207.381	2.9
207.599	4.95
207.818	-29.87
208.037	17.24
208.255	33.62
208.474	103.25
208.693	37.72
208.911	52.05
209.13	31.57
209.349	74.58
209.567	39.76
209.786	0.85
210.005	29.52
210.223	-15.53
210.442	15.19
210.661	-50.35
210.879	-48.3
211.098	-7.34
211.316	33.62
211.535	13.14
211.753	-38.06
211.972	23.38
212.191	-38.06
212.409	56.15
212.628	35.67
212.846	82.77
213.065	-17.58
213.283	58.2
213.502	29.52
213.72	58.2
213.938	31.57
214.157	58.2
214.375	41.81
214.594	-46.25
214.812	-17.58
215.031	33.62
215.249	-25.77
215.467	9.05
215.686	84.82
215.904	-25.77
216.122	33.62
216.341	-29.87
216.559	-44.2
216.778	15.19
216.996	13.14
217.214	43.86
217.432	56.15
217.651	-21.67
217.869	21.33
218.087	-11.43
218.306	39.76
218.524	60.24
218.742	52.05
218.96	25.43
219.179	-23.72
219.397	-42.15
219.615	90.96
219.833	41.81
220.051	21.33
220.27	47.96
220.488	-13.48
220.706	13.14
220.924	-72.87
221.142	-3.24
221.36	15.19
221.578	13.14
221.796	56.15
222.015	0.85
222.233	-48.3
222.451	-33.96
222.669	27.48
222.887	-42.15
223.105	-11.43
223.323	-58.54
223.541	25.43
223.759	-36.01
223.977	17.24
224.195	54.1
224.413	-19.63
224.631	-11.43
224.849	-13.48
225.067	62.29
225.285	-33.96
225.503	-1.19
225.721	17.24
225.939	66.39
226.157	25.43
226.375	82.77
226.592	-1.19
226.81	11.09
227.028	74.58
227.246	56.15
227.464	25.43
227.682	39.76
227.9	78.68
228.117	93.01
228.335	23.38
228.553	2.9
228.771	29.52
228.989	35.67
229.206	31.57
229.424	17.24
229.642	-36.01
229.86	21.33
230.077	29.52
230.295	45.91
230.513	43.86
230.731	17.24
230.948	35.67
231.166	82.77
231.384	15.19
231.601	27.48
231.819	76.63
232.037	0.85
232.254	2.9
232.472	-23.72
232.689	-48.3
232.907	7
233.125	4.95
233.342	25.43
233.56	13.14
233.777	-31.91
233.995	103.25
234.213	54.1
234.43	2.9
234.648	74.58
234.865	-7.34
235.083	13.14
235.3	4.95
235.518	-5.29
235.735	21.33
235.953	43.86
236.17	-15.53
236.388	17.24
236.605	56.15
236.822	45.91
237.04	-1.19
237.257	-36.01
237.475	54.1
237.692	74.58
237.909	-42.15
238.127	2.9
238.344	-19.63
238.562	0.85
238.779	19.29
238.996	-48.3
239.214	15.19
239.431	-7.34
239.648	-21.67
239.865	25.43
240.083	23.38
240.3	2.9
240.517	29.52
240.735	-1.19
240.952	-36.01
241.169	-13.48
241.386	43.86
241.603	19.29
241.821	64.34
242.038	37.72
242.255	-3.24
242.472	-68.78
242.689	-3.24
242.907	-7.34
243.124	-15.53
243.341	33.62
243.558	-9.39
243.775	33.62
243.992	19.29
244.209	80.72
244.426	93.01
244.643	0.85
244.86	13.14
245.078	13.14
245.295	54.1
245.512	17.24
245.729	31.57
245.946	-5.29
246.163	62.29
246.38	-56.49
246.597	25.43
246.814	-1.19
247.031	17.24
247.248	-5.29
247.464	-3.24
247.681	21.33
247.898	-27.82
248.115	-9.39
248.332	-107.69
248.549	33.62
248.766	60.24
248.983	62.29
249.2	27.48
249.417	76.63
249.633	-56.49
249.85	80.72
250.067	31.57
250.284	66.39
250.501	50
250.717	-3.24
250.934	27.48
251.151	11.09
251.368	43.86
251.585	0.85
251.801	0.85
252.018	4.95
252.235	29.52
252.451	29.52
252.668	-60.59
252.885	93.01
253.102	54.1
253.318	35.67
253.535	19.29
253.752	86.87
253.968	47.96
254.185	-5.29
254.401	111.44
254.618	37.72
254.835	-5.29
255.051	82.77
255.268	-13.48
255.484	33.62
255.701	62.29
255.917	105.3
256.134	-31.91
256.351	31.57
256.567	-19.63
256.784	2.9
257	15.19
257.217	-25.77
257.433	-19.63
257.65	7
257.866	56.15
258.082	58.2
258.299	27.48
258.515	45.91
258.732	-87.21
258.948	54.1
259.165	21.33
259.381	-38.06
259.597	0.85
259.814	-17.58
260.03	-15.53
260.246	29.52
260.463	29.52
260.679	101.2
260.895	-9.39
261.112	33.62
261.328	-31.91
261.544	23.38
261.761	31.57
261.977	-9.39
262.193	72.53
262.409	56.15
262.626	60.24
262.842	13.14
263.058	-3.24
263.274	66.39
263.49	-50.35
263.707	13.14
263.923	25.43
264.139	-9.39
264.355	35.67
264.571	52.05
264.787	15.19
265.004	35.67
265.22	82.77
265.436	4.95
265.652	-19.63
265.868	33.62
266.084	21.33
266.3	-25.77
266.516	-5.29
266.732	70.48
266.948	90.96
267.164	93.01
267.38	2.9
267.596	54.1
267.812	43.86
268.028	-52.39
268.244	21.33
268.46	-19.63
268.676	-9.39
268.892	-3.24
269.108	23.38
269.324	19.29
269.54	-68.78
269.756	-21.67
269.972	11.09
270.188	33.62
270.403	-33.96
270.619	41.81
270.835	47.96
271.051	7
271.267	-33.96
271.483	82.77
271.698	25.43
271.914	82.77
272.13	-1.19
272.346	-25.77
272.562	41.81
272.777	21.33
272.993	-48.3
273.209	11.09
273.425	23.38
273.64	-15.53
273.856	107.35
274.072	4.95
274.287	35.67
274.503	62.29
274.719	35.67
274.934	39.76
275.15	11.09
275.366	39.76
275.581	68.44
275.797	66.39
276.012	35.67
276.228	7
276.444	-3.24
276.659	113.49
276.875	4.95
277.09	90.96
277.306	-13.48
277.521	4.95
277.737	-15.53
277.952	-5.29
278.168	0.85
278.383	27.48
278.599	41.81
278.814	-1.19
279.03	-19.63
279.245	35.67
279.461	25.43
279.676	-9.39
279.892	-15.53
280.107	-29.87
280.322	33.62
280.538	2.9
280.753	-11.43
280.969	4.95
281.184	50
281.399	31.57
281.615	-13.48
281.83	54.1
282.045	-36.01
282.26	47.96
282.476	-23.72
282.691	123.73
282.906	-42.15
283.122	-15.53
283.337	27.48
283.552	27.48
283.767	-5.29
283.983	62.29
284.198	27.48
284.413	45.91
284.628	25.43
284.843	127.83
285.058	-62.63
285.274	19.29
285.489	60.24
285.704	-44.2
285.919	-19.63
286.134	74.58
286.349	64.34
286.564	13.14
286.779	17.24
286.995	105.3
287.21	37.72
287.425	37.72
287.64	-7.34
287.855	76.63
288.07	64.34
288.285	74.58
288.5	4.95
288.715	4.95
288.93	35.67
289.145	2.9
289.36	21.33
289.575	-7.34
289.79	-42.15
290.004	-5.29
290.219	9.05
290.434	52.05
290.649	43.86
290.864	4.95
291.079	-11.43
291.294	-40.11
291.509	-3.24
291.724	41.81
291.938	78.68
292.153	43.86
292.368	23.38
292.583	35.67
292.798	41.81
293.012	7
293.227	-36.01
293.442	-3.24
293.657	-31.91
293.871	93.01
294.086	2.9
294.301	-11.43
294.516	45.91
294.73	-58.54
294.945	-31.91
295.16	62.29
295.374	13.14
295.589	-74.92
295.804	37.72
296.018	31.57
296.233	-15.53
296.447	52.05
296.662	2.9
296.877	13.14
297.091	-27.82
297.306	-5.29
297.52	45.91
297.735	0.85
297.949	33.62
298.164	-7.34
298.378	50
298.593	23.38
298.807	31.57
299.022	7
299.236	29.52
299.451	47.96
299.665	99.16
299.88	33.62
300.094	4.95
300.309	-25.77
300.523	0.85
300.737	13.14
300.952	31.57
301.166	70.48
301.381	-19.63
301.595	37.72
301.809	11.09
302.024	13.14
302.238	-23.72
302.452	119.64
302.667	-3.24
302.881	37.72
303.095	54.1
303.309	35.67
303.524	-31.91
303.738	7
303.952	58.2
304.166	7
304.381	-9.39
304.595	-27.82
304.809	19.29
305.023	-21.67
305.237	-62.63
305.452	80.72
305.666	-5.29
305.88	66.39
306.094	2.9
306.308	21.33
306.522	56.15
306.736	29.52
306.95	-19.63
307.164	33.62
307.379	80.72
307.593	86.87
307.807	74.58
308.021	29.52
308.235	17.24
308.449	52.05
308.663	27.48
308.877	45.91
309.091	9.05
309.305	-29.87
309.519	7
309.733	43.86
309.947	-13.48
310.161	31.57
310.374	45.91
310.588	74.58
310.802	19.29
311.016	31.57
311.23	7
311.444	9.05
311.658	11.09
311.872	-11.43
312.085	58.2
312.299	7
312.513	62.29
312.727	27.48
312.941	-58.54
313.154	17.24
313.368	7
313.582	-21.67
313.796	-1.19
314.009	11.09
314.223	54.1
314.437	-56.49
314.651	-5.29
314.864	86.87
315.078	-3.24
315.292	-7.34
315.505	-42.15
315.719	-38.06
315.933	19.29
316.146	37.72
316.36	23.38
316.573	29.52
316.787	0.85
317.001	60.24
317.214	-5.29
317.428	109.4
317.641	0.85
317.855	23.38
318.068	50
318.282	-38.06
318.495	68.44
318.709	105.3
318.922	58.2
319.136	70.48
319.349	27.48
319.563	58.2
319.776	47.96
319.99	66.39
320.203	56.15
320.417	-64.68
320.63	41.81
320.843	47.96
321.057	15.19
321.27	9.05
321.483	25.43
321.697	56.15
321.91	93.01
322.124	19.29
322.337	-15.53
322.55	7
322.763	-19.63
322.977	88.92
323.19	25.43
323.403	-3.24
323.617	25.43
323.83	21.33
324.043	17.24
324.256	78.68
324.469	11.09
324.683	115.54
324.896	13.14
325.109	-5.29
325.322	11.09
325.535	25.43
325.748	33.62
325.962	2.9
326.175	80.72
326.388	74.58
326.601	50
326.814	52.05
327.027	-3.24
327.24	125.78
327.453	-38.06
327.666	15.19
327.879	-25.77
328.092	29.52
328.305	-40.11
328.518	101.2
328.731	15.19
328.944	72.53
329.157	31.57
329.37	-23.72
329.583	0.85
329.796	31.57
330.009	21.33
330.222	68.44
330.435	9.05
330.648	-9.39
330.861	31.57
331.073	0.85
331.286	-19.63
331.499	88.92
331.712	-36.01
331.925	60.24
332.138	0.85
332.35	-29.87
332.563	-13.48
332.776	33.62
332.989	27.48
333.202	23.38
333.414	50
333.627	-5.29
333.84	-36.01
334.053	64.34
334.265	27.48
334.478	2.9
334.691	4.95
334.903	13.14
335.116	-1.19
335.329	72.53
335.541	37.72
335.754	93.01
335.966	-15.53
336.179	-76.97
336.392	41.81
336.604	25.43
336.817	9.05
337.029	-40.11
337.242	37.72
337.454	27.48
337.667	19.29
337.88	-9.39
338.092	35.67
338.305	45.91
338.517	-5.29
338.729	13.14
338.942	2.9
339.154	17.24
339.367	-27.82
339.579	70.48
339.792	15.19
340.004	31.57
340.217	31.57
340.429	37.72
340.641	17.24
340.854	78.68
341.066	25.43
341.278	78.68
341.491	93.01
341.703	7
341.915	-9.39
342.128	82.77
342.34	-19.63
342.552	-9.39
342.764	0.85
342.977	-60.59
343.189	47.96
343.401	58.2
343.613	11.09
343.826	76.63
344.038	37.72
344.25	43.86
344.462	4.95
344.674	25.43
344.886	41.81
345.099	0.85
345.311	13.14
345.523	45.91
345.735	-11.43
345.947	52.05
346.159	66.39
346.371	29.52
346.583	62.29
346.795	56.15
347.007	-15.53
347.219	-3.24
347.431	45.91
347.643	80.72
347.855	39.76
348.067	21.33
348.279	54.1
348.491	45.91
348.703	52.05
348.915	19.29
349.127	-15.53
349.339	-15.53
349.551	23.38
349.763	9.05
349.975	-1.19
350.187	-9.39
350.399	37.72
350.61	25.43
350.822	-17.58
351.034	76.63
351.246	62.29
351.458	39.76
351.669	45.91
351.881	47.96
352.093	4.95
352.305	-1.19
352.517	35.67
352.728	29.52
352.94	43.86
353.152	70.48
353.363	0.85
353.575	25.43
353.787	9.05
353.999	23.38
354.21	60.24
354.422	109.4
354.633	60.24
354.845	4.95
355.057	72.53
355.268	15.19
355.48	4.95
355.692	64.34
355.903	13.14
356.115	35.67
356.326	-19.63
356.538	-11.43
356.749	29.52
356.961	80.72
357.172	-9.39
357.384	21.33
357.595	43.86
357.807	-36.01
358.018	-3.24
358.23	2.9
358.441	35.67
358.653	86.87
358.864	62.29
359.075	17.24
359.287	15.19
359.498	7
359.709	31.57
359.921	80.72
360.132	45.91
360.344	-23.72
360.555	9.05
360.766	-17.58
360.977	45.91
361.189	4.95
361.4	11.09
361.611	72.53
361.823	72.53
362.034	7
362.245	39.76
362.456	27.48
362.667	-3.24
362.879	-68.78
363.09	-11.43
363.301	74.58
363.512	2.9
363.723	-17.58
363.935	-7.34
364.146	9.05
364.357	54.1
364.568	-23.72
364.779	0.85
364.99	52.05
365.201	27.48
365.412	23.38
365.623	101.2
365.834	-25.77
366.045	-36.01
366.256	58.2
366.467	23.38
366.678	11.09
366.889	33.62
367.1	64.34
367.311	70.48
367.522	76.63
367.733	31.57
367.944	84.82
368.155	33.62
368.366	93.01
368.577	0.85
368.788	76.63
368.999	-23.72
369.209	0.85
369.42	17.24
369.631	76.63
369.842	13.14
370.053	27.48
370.264	54.1
370.474	43.86
370.685	23.38
370.896	56.15
371.107	68.44
371.317	43.86
371.528	74.58
371.739	-52.39
371.95	31.57
372.16	15.19
372.371	-40.11
372.582	97.11
372.792	31.57
373.003	52.05
373.214	39.76
373.424	13.14
373.635	-7.34
373.846	56.15
374.056	70.48
374.267	13.14
374.477	23.38
374.688	27.48
374.898	21.33
375.109	78.68
375.319	4.95
375.53	-3.24
375.74	-40.11
375.951	37.72
376.161	41.81
376.372	60.24
376.582	54.1
376.793	117.59
377.003	-25.77
377.214	-83.11
377.424	13.14
377.635	9.05
377.845	37.72
378.055	29.52
378.266	7
378.476	-9.39
378.686	47.96
378.897	35.67
379.107	-17.58
379.317	45.91
379.528	-27.82
379.738	25.43
379.948	11.09
380.158	43.86
380.369	-1.19
380.579	58.2
380.789	39.76
380.999	17.24
381.21	41.81
381.42	80.72
381.63	-19.63
381.84	82.77
382.05	58.2
382.261	52.05
382.471	43.86
382.681	2.9
382.891	33.62
383.101	19.29
383.311	88.92
383.521	-31.91
383.731	50
383.941	78.68
384.151	-38.06
384.361	23.38
384.571	107.35
384.781	-15.53
384.991	21.33
385.201	111.44
385.411	66.39
385.621	43.86
385.831	76.63
386.041	52.05
386.251	105.3
386.461	129.88
386.671	35.67
386.881	43.86
387.091	66.39
387.301	82.77
387.511	9.05
387.72	80.72
387.93	25.43
388.14	86.87
388.35	54.1
388.56	103.25
388.769	66.39
388.979	45.91
389.189	45.91
389.399	76.63
389.609	66.39
389.818	107.35
390.028	43.86
390.238	70.48
390.447	19.29
390.657	45.91
390.867	37.72
391.076	74.58
391.286	103.25
391.496	56.15
391.705	99.16
391.915	123.73
392.125	-31.91
392.334	29.52
392.544	82.77
392.753	70.48
392.963	80.72
393.172	15.19
393.382	25.43
393.591	78.68
393.801	17.24
394.01	136.02
394.22	13.14
394.429	52.05
394.639	4.95
394.848	95.06
395.058	13.14
395.267	25.43
395.477	25.43
395.686	86.87
395.895	56.15
396.105	113.49
396.314	23.38
396.524	39.76
396.733	72.53
396.942	111.44
397.152	95.06
397.361	37.72
397.57	60.24
397.78	93.01
397.989	41.81
398.198	82.77
398.407	60.24
398.617	144.21
398.826	37.72
399.035	84.82
399.244	127.83
399.453	82.77
399.663	90.96
399.872	45.91
400.081	31.57
400.29	43.86
400.499	54.1
400.708	76.63
400.917	66.39
401.127	29.52
401.336	39.76
401.545	88.92
401.754	95.06
401.963	117.59
402.172	19.29
402.381	60.24
402.59	146.26
402.799	90.96
403.008	86.87
403.217	90.96
403.426	142.16
403.635	50
403.844	117.59
404.053	99.16
404.262	101.2
404.471	86.87
404.68	84.82
404.888	78.68
405.097	78.68
405.306	105.3
405.515	103.25
405.724	82.77
405.933	88.92
406.142	99.16
406.35	158.55
406.559	162.64
406.768	88.92
406.977	95.06
407.185	125.78
407.394	156.5
407.603	35.67
407.812	172.88
408.02	170.83
408.229	103.25
408.438	148.31
408.646	138.07
408.855	138.07
409.064	197.46
409.272	138.07
409.481	219.99
409.69	230.23
409.898	228.18
410.107	154.45
410.315	201.55
410.524	160.59
410.733	289.62
410.941	189.27
411.15	232.27
411.358	170.83
411.567	213.84
411.775	279.38
411.984	291.66
412.192	289.62
412.401	369.49
412.609	283.47
412.818	269.14
413.026	285.52
413.234	326.48
413.443	336.72
413.651	299.86
413.86	310.1
414.068	394.06
414.276	394.06
414.485	334.67
414.693	389.97
414.901	498.51
415.11	465.74
415.318	426.83
415.526	443.21
415.734	428.88
415.943	508.75
416.151	594.76
416.359	611.15
416.567	533.33
416.776	553.8
416.984	637.77
417.192	650.06
417.4	672.59
417.608	590.67
417.817	674.64
418.025	631.63
418.233	752.46
418.441	719.69
418.649	824.14
418.857	826.18
419.065	799.56
419.273	799.56
419.481	801.61
419.689	963.4
419.897	998.21
420.105	1008.45
420.313	1000.26
420.521	973.64
420.729	1047.37
420.937	1219.39
421.145	1198.92
421.353	1215.3
421.561	1180.48
421.769	1284.93
421.977	1360.7
422.185	1354.56
422.393	1387.33
422.601	1536.83
422.809	1459.01
423.017	1528.64
423.224	1495.87
423.432	1598.27
423.64	1669.95
423.848	1776.44
424.056	1737.53
424.263	1823.55
424.471	1831.74
424.679	1936.18
424.887	2063.16
425.094	2022.2
425.302	2087.73
425.51	2091.83
425.718	2161.46
425.925	2227
426.133	2304.82
426.341	2366.26
426.548	2640.69
426.756	2577.2
426.964	2652.97
427.171	2820.91
427.379	2900.78
427.586	2872.11
427.794	2902.83
428.001	3042.09
428.209	3183.4
428.417	3257.12
428.624	3478.3
428.832	3390.24
429.039	3375.91
429.247	3468.06
429.454	3812.12
429.662	3842.84
429.869	3937.05
430.076	4035.35
430.284	3746.59
430.491	4061.98
430.699	4297.49
430.906	4315.92
431.114	4455.19
431.321	4485.9
431.528	4625.17
431.736	4825.87
431.943	5110.54
432.15	4934.41
432.358	5090.06
432.565	5255.94
432.772	5296.9
432.979	5405.44
433.187	5638.91
433.394	5792.51
433.601	6052.6
433.808	6138.62
434.016	6007.55
434.223	6198.01
434.43	6615.79
434.637	6763.25
434.844	6802.16
435.052	7140.07
435.259	6980.33
435.466	7066.35
435.673	7019.24
435.88	7430.88
436.087	7867.1
436.294	7883.49
436.501	7600.87
436.708	7623.39
436.915	8110.81
437.122	8415.96
437.329	8573.65
437.537	8760.02
437.743	8946.38
437.95	8983.24
438.157	9274.06
438.364	9585.35
438.571	9638.59
438.778	9679.55
438.985	10787.5
439.192	10044.09
439.399	10291.9
439.606	10156.73
439.813	10672.82
440.02	11412.14
440.227	11342.5
440.433	11154.09
440.64	11518.63
440.847	11328.17
441.054	11805.35
441.261	12264.09
441.467	12284.57
441.674	12483.22
441.881	12956.3
442.088	12890.77
442.294	13060.75
442.501	13005.45
442.708	13697.67
442.914	13881.99
443.121	14604.92
443.328	14178.94
443.534	15184.49
443.741	14637.69
443.948	14244.48
444.154	15649.38
444.361	15647.33
444.568	15475.31
444.774	15514.22
444.981	15749.73
445.187	16362.08
445.394	16861.78
445.6	17117.78
445.807	18416.19
446.013	17490.51
446.22	17990.21
446.426	18498.11
446.633	18807.35
446.839	19614.25
447.046	18481.72
447.252	19657.26
447.459	19864.1
447.665	19311.15
447.871	20394.53
448.078	21447.18
448.284	20128.29
448.491	21033.49
448.697	21889.54
448.903	21946.89
449.11	22166.02
449.316	21731.85
449.522	22075.91
449.728	22868.47
449.935	23052.79
450.141	23083.51
450.347	23370.22
450.553	22602.24
450.76	22764.03
450.966	23722.48
451.172	23443.95
451.378	24029.67
451.584	23724.52
451.791	24259.04
451.997	23992.81
452.203	24736.22
452.409	24476.13
452.615	24476.13
452.821	23503.34
453.027	23179.76
453.233	24375.78
453.44	23607.79
453.646	24148.45
453.852	24158.69
454.058	24500.7
454.264	23628.27
454.47	24306.15
454.676	23583.21
454.882	24580.57
455.088	22333.95
455.294	22733.31
455.5	22757.88
455.705	22831.61
455.911	22401.54
456.117	21791.24
456.323	21277.2
456.529	20341.28
456.735	21281.3
456.941	20568.6
457.147	20441.63
457.352	19927.59
457.558	19507.76
457.764	19616.3
457.97	19284.53
458.176	18958.9
458.381	18807.35
458.587	17910.34
458.793	17900.1
458.999	16831.06
459.204	18164.29
459.41	17560.14
459.616	16636.5
459.821	16556.63
460.027	16425.56
460.233	16282.2
460.438	15424.11
460.644	15135.34
460.85	14738.04
461.055	14574.2
461.261	14424.7
461.466	13517.45
461.672	12927.63
461.878	13978.24
462.083	13181.58
462.289	12876.43
462.494	12530.33
462.7	12198.56
462.905	11944.61
463.111	12196.51
463.316	12280.47
463.522	12016.29
463.727	11932.32
463.932	12081.82
464.138	11793.06
464.343	11946.66
464.549	11342.5
464.754	11854.5
464.959	11588.26
465.165	11721.38
465.37	11115.18
465.575	10924.72
465.781	11256.49
465.986	11492.01
466.191	10795.7
466.397	10721.97
466.602	10339
466.807	10699.44
467.012	10834.61
467.218	10431.16
467.423	10439.35
467.628	10613.43
467.833	10894
468.038	10527.41
468.244	10158.78
468.449	10736.31
468.654	10388.15
468.859	10005.18
469.064	10113.72
469.269	9777.86
