Data from USB4F104151__18__11-44-36-694.txt Node

Date: Fri Mar 14 11:44:36 EDT 2025
User: louis
Spectrometer: USB4F10415
Trigger mode: 4
Integration Time (sec): 2.000000E-2
Scans to average: 1
Electric dark correction enabled: true
Nonlinearity correction enabled: false
Boxcar width: 0
XAxis mode: Wavelengths
Number of Pixels in Spectrum: 3648
>>>>>Begin Spectral Data<<<<<
178.204	-76.63
178.424	-76.63
178.644	-76.63
178.864	-64.34
179.084	-76.63
179.304	-37.72
179.524	-27.48
179.744	33.96
179.964	-62.29
180.184	44.2
180.404	-2.9
180.624	85.16
180.844	-31.57
181.064	-43.86
181.283	66.73
181.503	17.58
181.723	-41.81
181.943	-56.15
182.163	29.87
182.383	27.82
182.602	50.35
182.822	48.3
183.042	15.53
183.262	-2.9
183.482	44.2
183.701	64.68
183.921	33.96
184.141	25.77
184.361	42.15
184.58	27.82
184.8	-9.05
185.02	1.19
185.239	15.53
185.459	13.48
185.679	-25.43
185.898	1.19
186.118	21.67
186.338	-54.1
186.557	7.34
186.777	-72.53
186.997	-50
187.216	-60.24
187.436	44.2
187.655	-4.95
187.875	-21.33
188.095	27.82
188.314	68.78
188.534	-7
188.753	52.39
188.973	23.72
189.192	-27.48
189.412	38.06
189.631	-41.81
189.851	23.72
190.07	29.87
190.29	31.91
190.509	-82.77
190.729	15.53
190.948	-15.19
191.168	99.5
191.387	1.19
191.607	-84.82
191.826	58.54
192.045	-54.1
192.265	13.48
192.484	-90.96
192.704	33.96
192.923	-27.48
193.142	70.83
193.362	9.39
193.581	68.78
193.8	101.55
194.02	38.06
194.239	-29.52
194.458	91.31
194.678	-11.09
194.897	-41.81
195.116	62.63
195.335	-27.48
195.555	3.24
195.774	31.91
195.993	-29.52
196.212	85.16
196.432	-4.95
196.651	13.48
196.87	81.07
197.089	95.4
197.308	-2.9
197.528	9.39
197.747	-33.62
197.966	11.43
198.185	85.16
198.404	7.34
198.623	-4.95
198.842	60.59
199.062	15.53
199.281	-7
199.5	5.29
199.719	52.39
199.938	72.87
200.157	56.49
200.376	62.63
200.595	-31.57
200.814	-15.19
201.033	-11.09
201.252	58.54
201.471	7.34
201.69	64.68
201.909	76.97
202.128	54.44
202.347	56.49
202.566	52.39
202.785	-11.09
203.004	5.29
203.223	64.68
203.442	42.15
203.661	27.82
203.879	36.01
204.098	115.88
204.317	21.67
204.536	25.77
204.755	-43.86
204.974	-19.29
205.193	44.2
205.411	-23.38
205.63	124.07
205.849	7.34
206.068	70.83
206.287	29.87
206.505	44.2
206.724	72.87
206.943	-29.52
207.162	42.15
207.381	46.25
207.599	-11.09
207.818	15.53
208.037	56.49
208.255	-27.48
208.474	17.58
208.693	-35.67
208.911	-7
209.13	29.87
209.349	-4.95
209.567	-37.72
209.786	66.73
210.005	58.54
210.223	17.58
210.442	-15.19
210.661	13.48
210.879	36.01
211.098	3.24
211.316	68.78
211.535	-41.81
211.753	-9.05
211.972	23.72
212.191	-11.09
212.409	5.29
212.628	-17.24
212.846	-17.24
213.065	31.91
213.283	27.82
213.502	-45.91
213.72	17.58
213.938	29.87
214.157	19.63
214.375	62.63
214.594	-27.48
214.812	-43.86
215.031	-13.14
215.249	-35.67
215.467	-23.38
215.686	-23.38
215.904	81.07
216.122	-13.14
216.341	48.3
216.559	81.07
216.778	58.54
216.996	89.26
217.214	-64.34
217.432	66.73
217.651	48.3
217.869	13.48
218.087	13.48
218.306	103.59
218.524	-43.86
218.742	-27.48
218.96	56.49
219.179	15.53
219.397	-52.05
219.615	107.69
219.833	-35.67
220.051	-82.77
220.27	113.83
220.488	-50
220.706	-70.48
220.924	-21.33
221.142	52.39
221.36	42.15
221.578	13.48
221.796	-31.57
222.015	1.19
222.233	-19.29
222.451	91.31
222.669	7.34
222.887	21.67
223.105	15.53
223.323	17.58
223.541	-37.72
223.759	13.48
223.977	-2.9
224.195	33.96
224.413	27.82
224.631	29.87
224.849	29.87
225.067	33.96
225.285	36.01
225.503	21.67
225.721	19.63
225.939	-13.14
226.157	-23.38
226.375	60.59
226.592	81.07
226.81	5.29
227.028	74.92
227.246	3.24
227.464	29.87
227.682	23.72
227.9	-15.19
228.117	66.73
228.335	-9.05
228.553	11.43
228.771	23.72
228.989	44.2
229.206	15.53
229.424	23.72
229.642	56.49
229.86	-17.24
230.077	48.3
230.295	-35.67
230.513	64.68
230.731	-39.76
230.948	17.58
231.166	50.35
231.384	11.43
231.601	-27.48
231.819	58.54
232.037	-29.52
232.254	-33.62
232.472	-54.1
232.689	38.06
232.907	38.06
233.125	-11.09
233.342	1.19
233.56	-39.76
233.777	-13.14
233.995	46.25
234.213	93.35
234.43	-29.52
234.648	60.59
234.865	13.48
235.083	79.02
235.3	31.91
235.518	60.59
235.735	17.58
235.953	9.39
236.17	46.25
236.388	31.91
236.605	-41.81
236.822	-0.85
237.04	38.06
237.257	99.5
237.475	17.58
237.692	21.67
237.909	58.54
238.127	1.19
238.344	27.82
238.562	15.53
238.779	5.29
238.996	66.73
239.214	42.15
239.431	42.15
239.648	21.67
239.865	44.2
240.083	38.06
240.3	62.63
240.517	54.44
240.735	27.82
240.952	29.87
241.169	-21.33
241.386	-15.19
241.603	-13.14
241.821	-35.67
242.038	5.29
242.255	56.49
242.472	21.67
242.689	87.21
242.907	46.25
243.124	-9.05
243.341	23.72
243.558	-27.48
243.775	-19.29
243.992	58.54
244.209	107.69
244.426	27.82
244.643	42.15
244.86	-72.53
245.078	-13.14
245.295	44.2
245.512	87.21
245.729	62.63
245.946	40.11
246.163	-0.85
246.38	46.25
246.597	-7
246.814	-0.85
247.031	70.83
247.248	13.48
247.464	-11.09
247.681	52.39
247.898	-4.95
248.115	-4.95
248.332	1.19
248.549	142.5
248.766	36.01
248.983	29.87
249.2	-39.76
249.417	56.49
249.633	60.59
249.85	-2.9
250.067	38.06
250.284	93.35
250.501	91.31
250.717	-13.14
250.934	3.24
251.151	-41.81
251.368	48.3
251.585	21.67
251.801	-52.05
252.018	44.2
252.235	25.77
252.451	5.29
252.668	-31.57
252.885	48.3
253.102	89.26
253.318	1.19
253.535	13.48
253.752	74.92
253.968	-17.24
254.185	66.73
254.401	17.58
254.618	7.34
254.835	25.77
255.051	93.35
255.268	-31.57
255.484	3.24
255.701	15.53
255.917	-4.95
256.134	-21.33
256.351	19.63
256.567	-0.85
256.784	19.63
257	13.48
257.217	11.43
257.433	13.48
257.65	5.29
257.866	9.39
258.082	66.73
258.299	-9.05
258.515	36.01
258.732	5.29
258.948	40.11
259.165	21.67
259.381	46.25
259.597	68.78
259.814	31.91
260.03	27.82
260.246	93.35
260.463	27.82
260.679	-11.09
260.895	36.01
261.112	56.49
261.328	76.97
261.544	46.25
261.761	21.67
261.977	-13.14
262.193	9.39
262.409	17.58
262.626	-15.19
262.842	48.3
263.058	-0.85
263.274	15.53
263.49	62.63
263.707	109.74
263.923	17.58
264.139	19.63
264.355	5.29
264.571	46.25
264.787	60.59
265.004	-19.29
265.22	3.24
265.436	42.15
265.652	58.54
265.868	48.3
266.084	29.87
266.3	68.78
266.516	60.59
266.732	60.59
266.948	29.87
267.164	-0.85
267.38	-2.9
267.596	38.06
267.812	48.3
268.028	44.2
268.244	-2.9
268.46	60.59
268.676	64.68
268.892	-4.95
269.108	-2.9
269.324	-25.43
269.54	83.11
269.756	83.11
269.972	-25.43
270.188	13.48
270.403	3.24
270.619	72.87
270.835	-43.86
271.051	48.3
271.267	66.73
271.483	46.25
271.698	-0.85
271.914	-11.09
272.13	5.29
272.346	38.06
272.562	15.53
272.777	15.53
272.993	5.29
273.209	52.39
273.425	13.48
273.64	1.19
273.856	36.01
274.072	29.87
274.287	44.2
274.503	79.02
274.719	83.11
274.934	54.44
275.15	27.82
275.366	17.58
275.581	-54.1
275.797	33.96
276.012	46.25
276.228	33.96
276.444	33.96
276.659	1.19
276.875	44.2
277.09	44.2
277.306	21.67
277.521	74.92
277.737	-45.91
277.952	99.5
278.168	58.54
278.383	5.29
278.599	7.34
278.814	101.55
279.03	52.39
279.245	50.35
279.461	-29.52
279.676	-9.05
279.892	25.77
280.107	-11.09
280.322	-15.19
280.538	52.39
280.753	-25.43
280.969	-4.95
281.184	60.59
281.399	13.48
281.615	60.59
281.83	58.54
282.045	21.67
282.26	-37.72
282.476	19.63
282.691	70.83
282.906	48.3
283.122	48.3
283.337	9.39
283.552	44.2
283.767	-27.48
283.983	72.87
284.198	-9.05
284.413	122.02
284.628	113.83
284.843	54.44
285.058	29.87
285.274	62.63
285.489	31.91
285.704	64.68
285.919	-41.81
286.134	46.25
286.349	-25.43
286.564	-19.29
286.779	-23.38
286.995	81.07
287.21	74.92
287.425	-2.9
287.64	-27.48
287.855	72.87
288.07	25.77
288.285	27.82
288.5	36.01
288.715	81.07
288.93	-11.09
289.145	54.44
289.36	-15.19
289.575	11.43
289.79	74.92
290.004	48.3
290.219	42.15
290.434	-41.81
290.649	-17.24
290.864	-23.38
291.079	7.34
291.294	74.92
291.509	-15.19
291.724	38.06
291.938	-29.52
292.153	62.63
292.368	-78.68
292.583	97.45
292.798	95.4
293.012	-31.57
293.227	1.19
293.442	-2.9
293.657	23.72
293.871	7.34
294.086	-0.85
294.301	11.43
294.516	38.06
294.73	42.15
294.945	-4.95
295.16	70.83
295.374	83.11
295.589	-11.09
295.804	13.48
296.018	23.72
296.233	-43.86
296.447	91.31
296.662	-47.96
296.877	11.43
297.091	93.35
297.306	11.43
297.52	60.59
297.735	89.26
297.949	27.82
298.164	50.35
298.378	113.83
298.593	-9.05
298.807	-25.43
299.022	58.54
299.236	-0.85
299.451	-27.48
299.665	25.77
299.88	21.67
300.094	11.43
300.309	21.67
300.523	52.39
300.737	7.34
300.952	64.68
301.166	-47.96
301.381	-4.95
301.595	31.91
301.809	-27.48
302.024	54.44
302.238	31.91
302.452	60.59
302.667	-58.2
302.881	115.88
303.095	36.01
303.309	21.67
303.524	38.06
303.738	-4.95
303.952	15.53
304.166	-2.9
304.381	-31.57
304.595	46.25
304.809	5.29
305.023	50.35
305.237	1.19
305.452	3.24
305.666	60.59
305.88	-19.29
306.094	11.43
306.308	9.39
306.522	-0.85
306.736	-25.43
306.95	46.25
307.164	40.11
307.379	-66.39
307.593	101.55
307.807	-27.48
308.021	107.69
308.235	74.92
308.449	-27.48
308.663	5.29
308.877	64.68
309.091	-2.9
309.305	-4.95
309.519	-11.09
309.733	40.11
309.947	38.06
310.161	103.59
310.374	38.06
310.588	79.02
310.802	66.73
311.016	9.39
311.23	66.73
311.444	29.87
311.658	33.96
311.872	-4.95
312.085	15.53
312.299	25.77
312.513	17.58
312.727	40.11
312.941	11.43
313.154	60.59
313.368	111.78
313.582	9.39
313.796	54.44
314.009	5.29
314.223	3.24
314.437	66.73
314.651	60.59
314.864	62.63
315.078	-31.57
315.292	-19.29
315.505	62.63
315.719	48.3
315.933	89.26
316.146	1.19
316.36	19.63
316.573	58.54
316.787	62.63
317.001	-35.67
317.214	50.35
317.428	3.24
317.641	33.96
317.855	-17.24
318.068	56.49
318.282	64.68
318.495	50.35
318.709	42.15
318.922	-9.05
319.136	36.01
319.349	64.68
319.563	19.63
319.776	48.3
319.99	46.25
320.203	3.24
320.417	15.53
320.63	1.19
320.843	95.4
321.057	-19.29
321.27	-45.91
321.483	76.97
321.697	83.11
321.91	52.39
322.124	36.01
322.337	91.31
322.55	5.29
322.763	33.96
322.977	91.31
323.19	-64.34
323.403	111.78
323.617	5.29
323.83	29.87
324.043	-25.43
324.256	52.39
324.469	19.63
324.683	-11.09
324.896	11.43
325.109	25.77
325.322	-9.05
325.535	19.63
325.748	54.44
325.962	33.96
326.175	15.53
326.388	62.63
326.601	21.67
326.814	21.67
327.027	46.25
327.24	60.59
327.453	85.16
327.666	85.16
327.879	44.2
328.092	33.96
328.305	-4.95
328.518	-11.09
328.731	44.2
328.944	21.67
329.157	5.29
329.37	-2.9
329.583	27.82
329.796	122.02
330.009	48.3
330.222	72.87
330.435	36.01
330.648	54.44
330.861	66.73
331.073	91.31
331.286	38.06
331.499	31.91
331.712	1.19
331.925	33.96
332.138	13.48
332.35	56.49
332.563	87.21
332.776	81.07
332.989	60.59
333.202	79.02
333.414	54.44
333.627	1.19
333.84	68.78
334.053	42.15
334.265	27.82
334.478	13.48
334.691	42.15
334.903	-0.85
335.116	19.63
335.329	81.07
335.541	23.72
335.754	56.49
335.966	-13.14
336.179	-21.33
336.392	-9.05
336.604	25.77
336.817	29.87
337.029	33.96
337.242	-9.05
337.454	17.58
337.667	11.43
337.88	68.78
338.092	17.58
338.305	52.39
338.517	-29.52
338.729	50.35
338.942	-0.85
339.154	7.34
339.367	-15.19
339.579	-11.09
339.792	5.29
340.004	3.24
340.217	19.63
340.429	60.59
340.641	-33.62
340.854	68.78
341.066	15.53
341.278	46.25
341.491	46.25
341.703	56.49
341.915	1.19
342.128	23.72
342.34	3.24
342.552	1.19
342.764	56.49
342.977	9.39
343.189	117.93
343.401	54.44
343.613	19.63
343.826	-17.24
344.038	13.48
344.25	89.26
344.462	17.58
344.674	13.48
344.886	3.24
345.099	33.96
345.311	29.87
345.523	29.87
345.735	44.2
345.947	48.3
346.159	85.16
346.371	95.4
346.583	19.63
346.795	119.98
347.007	-0.85
347.219	19.63
347.431	9.39
347.643	83.11
347.855	11.43
348.067	95.4
348.279	44.2
348.491	25.77
348.703	40.11
348.915	9.39
349.127	46.25
349.339	21.67
349.551	-4.95
349.763	17.58
349.975	66.73
350.187	89.26
350.399	36.01
350.61	68.78
350.822	1.19
351.034	40.11
351.246	64.68
351.458	40.11
351.669	54.44
351.881	54.44
352.093	13.48
352.305	60.59
352.517	52.39
352.728	33.96
352.94	36.01
353.152	72.87
353.363	81.07
353.575	-11.09
353.787	-13.14
353.999	87.21
354.21	72.87
354.422	23.72
354.633	19.63
354.845	9.39
355.057	52.39
355.268	91.31
355.48	85.16
355.692	-43.86
355.903	52.39
356.115	38.06
356.326	52.39
356.538	54.44
356.749	74.92
356.961	-4.95
357.172	31.91
357.384	19.63
357.595	76.97
357.807	46.25
358.018	64.68
358.23	68.78
358.441	103.59
358.653	5.29
358.864	1.19
359.075	38.06
359.287	29.87
359.498	21.67
359.709	70.83
359.921	-4.95
360.132	-11.09
360.344	-17.24
360.555	1.19
360.766	1.19
360.977	-31.57
361.189	36.01
361.4	36.01
361.611	17.58
361.823	23.72
362.034	79.02
362.245	-15.19
362.456	33.96
362.667	17.58
362.879	126.12
363.09	25.77
363.301	97.45
363.512	74.92
363.723	70.83
363.935	5.29
364.146	66.73
364.357	46.25
364.568	31.91
364.779	19.63
364.99	70.83
365.201	29.87
365.412	42.15
365.623	-29.52
365.834	64.68
366.045	33.96
366.256	81.07
366.467	44.2
366.678	31.91
366.889	19.63
367.1	79.02
367.311	105.64
367.522	-23.38
367.733	64.68
367.944	81.07
368.155	40.11
368.366	-43.86
368.577	85.16
368.788	74.92
368.999	-13.14
369.209	40.11
369.42	74.92
369.631	7.34
369.842	19.63
370.053	17.58
370.264	74.92
370.474	-2.9
370.685	38.06
370.896	68.78
371.107	36.01
371.317	44.2
371.528	-33.62
371.739	62.63
371.95	15.53
372.16	29.87
372.371	-4.95
372.582	64.68
372.792	11.43
373.003	50.35
373.214	107.69
373.424	122.02
373.635	17.58
373.846	81.07
374.056	58.54
374.267	42.15
374.477	44.2
374.688	62.63
374.898	3.24
375.109	-4.95
375.319	87.21
375.53	46.25
375.74	23.72
375.951	54.44
376.161	11.43
376.372	58.54
376.582	46.25
376.793	17.58
377.003	-13.14
377.214	50.35
377.424	76.97
377.635	107.69
377.845	29.87
378.055	-0.85
378.266	38.06
378.476	87.21
378.686	-4.95
378.897	91.31
379.107	48.3
379.317	93.35
379.528	1.19
379.738	87.21
379.948	91.31
380.158	56.49
380.369	50.35
380.579	54.44
380.789	122.02
380.999	79.02
381.21	23.72
381.42	58.54
381.63	25.77
381.84	40.11
382.05	29.87
382.261	50.35
382.471	19.63
382.681	15.53
382.891	111.78
383.101	31.91
383.311	9.39
383.521	-19.29
383.731	15.53
383.941	103.59
384.151	56.49
384.361	44.2
384.571	-2.9
384.781	21.67
384.991	40.11
385.201	50.35
385.411	19.63
385.621	3.24
385.831	40.11
386.041	50.35
386.251	103.59
386.461	38.06
386.671	40.11
386.881	124.07
387.091	56.49
387.301	31.91
387.511	46.25
387.72	-17.24
387.93	79.02
388.14	42.15
388.35	62.63
388.56	48.3
388.769	52.39
388.979	70.83
389.189	99.5
389.399	-0.85
389.609	111.78
389.818	19.63
390.028	-19.29
390.238	122.02
390.447	79.02
390.657	46.25
390.867	62.63
391.076	33.96
391.286	64.68
391.496	81.07
391.705	76.97
391.915	66.73
392.125	44.2
392.334	40.11
392.544	130.22
392.753	95.4
392.963	48.3
393.172	27.82
393.382	21.67
393.591	48.3
393.801	60.59
394.01	64.68
394.22	101.55
394.429	95.4
394.639	79.02
394.848	64.68
395.058	115.88
395.267	46.25
395.477	46.25
395.686	126.12
395.895	103.59
396.105	113.83
396.314	113.83
396.524	44.2
396.733	64.68
396.942	122.02
397.152	95.4
397.361	93.35
397.57	13.48
397.78	29.87
397.989	74.92
398.198	130.22
398.407	79.02
398.617	83.11
398.826	74.92
399.035	81.07
399.244	68.78
399.453	103.59
399.663	160.94
399.872	79.02
400.081	72.87
400.29	109.74
400.499	64.68
400.708	119.98
400.917	99.5
401.127	107.69
401.336	64.68
401.545	119.98
401.754	72.87
401.963	76.97
402.172	148.65
402.381	95.4
402.59	1.19
402.799	76.97
403.008	107.69
403.217	97.45
403.426	148.65
403.635	87.21
403.844	89.26
404.053	134.31
404.262	189.61
404.471	122.02
404.68	119.98
404.888	66.73
405.097	165.03
405.306	181.42
405.515	136.36
405.724	130.22
405.933	154.79
406.142	165.03
406.35	195.75
406.559	117.93
406.768	156.84
406.977	234.66
407.185	193.7
407.394	230.57
407.603	167.08
407.812	244.9
408.02	195.75
408.229	197.8
408.438	224.42
408.646	210.09
408.855	246.95
409.064	279.72
409.272	193.7
409.481	261.29
409.69	228.52
409.898	242.85
410.107	277.67
410.315	265.38
410.524	257.19
410.733	369.83
410.941	273.57
411.15	416.93
411.358	304.29
411.567	373.92
411.775	308.39
411.984	392.36
412.192	347.3
412.401	398.5
412.609	507.04
412.818	445.6
413.026	453.8
413.234	509.09
413.443	519.33
413.651	511.14
413.86	566.43
414.068	527.52
414.276	564.39
414.485	541.86
414.693	625.83
414.901	668.83
415.11	646.3
415.318	672.93
415.526	588.96
415.734	738.46
415.943	734.37
416.151	754.85
416.359	816.29
416.567	834.72
416.776	924.83
416.984	963.74
417.192	941.21
417.4	902.3
417.608	924.83
417.817	926.88
418.025	943.26
418.233	1002.65
418.441	1074.33
418.649	1103
418.857	1191.06
419.065	1236.12
419.273	1166.49
419.481	1272.98
419.689	1283.22
419.897	1402.01
420.105	1342.61
420.313	1449.11
420.521	1442.96
420.729	1488.02
420.937	1590.42
421.145	1686.67
421.353	1666.19
421.561	1729.68
421.769	1877.13
421.977	1891.47
422.185	1846.41
422.393	1993.87
422.601	2088.07
422.809	2092.17
423.017	2163.85
423.224	2348.17
423.432	2323.59
423.64	2335.88
423.848	2600.07
424.056	2454.66
424.263	2694.27
424.471	2647.17
424.679	2694.27
424.887	2899.07
425.094	2937.98
425.302	2944.13
425.51	3046.52
425.718	3210.36
425.925	3239.03
426.133	3421.3
426.341	3595.38
426.548	3714.16
426.756	3728.5
426.964	3808.37
427.171	3974.25
427.379	3968.11
427.586	4068.46
427.794	4244.59
428.001	4394.09
428.209	4652.13
428.417	4473.96
428.624	4963.42
428.832	4908.13
429.039	4779.11
429.247	4803.68
429.454	5268.57
429.662	5608.53
429.869	5416.02
430.076	5774.42
430.284	5528.66
430.491	5719.12
430.699	6184.01
430.906	6177.87
431.114	6052.94
431.321	6521.93
431.528	6702.15
431.736	7001.15
431.943	7154.75
432.15	7042.11
432.358	7216.19
432.565	7603.25
432.772	7461.94
432.979	8072.24
433.187	8105.01
433.394	8055.86
433.601	8594.47
433.808	8721.45
434.016	8426.54
434.223	9018.4
434.43	9487.39
434.637	9380.89
434.844	10034.19
435.052	10222.61
435.259	10146.83
435.466	10114.06
435.673	10146.83
435.88	10773.51
436.087	11187.2
436.294	11322.37
436.501	10966.02
436.708	11322.37
436.915	11422.72
437.122	12202.99
437.329	12266.48
437.537	12549.1
437.743	12858.34
437.95	12674.03
438.157	13374.43
438.364	14130.13
438.571	13761.5
438.778	13855.7
438.985	15139.78
439.192	14451.66
439.399	14949.32
439.606	14339.02
439.813	15371.2
440.02	16518.06
440.227	16047.03
440.433	16040.89
440.64	16401.33
440.847	16372.66
441.054	16825.26
441.261	18140.05
441.467	17619.87
441.674	18029.46
441.881	18695.05
442.088	18594.7
442.294	18516.88
442.501	18832.27
442.708	19211.14
442.914	20003.71
443.121	21173.1
443.328	20468.59
443.534	22111.07
443.741	21236.58
443.948	20808.56
444.154	22459.22
444.361	22418.26
444.568	22297.43
444.774	22424.4
444.981	22561.62
445.187	23298.89
445.394	24931.12
445.6	24066.88
445.807	26538.77
446.013	25334.57
446.22	25709.35
446.426	26639.12
446.633	26907.41
446.839	27679.49
447.046	26620.69
447.252	28306.17
447.459	28302.07
447.665	28123.9
447.871	29299.44
448.078	30444.25
448.284	29223.66
448.491	30083.81
448.697	31212.24
448.903	31433.42
449.11	31408.84
449.316	31425.23
449.522	32113.34
449.728	32455.36
449.935	32654.01
450.141	32674.49
450.347	33637.03
450.553	32512.7
450.76	32826.04
450.966	34114.21
451.172	33899.17
451.378	34476.7
451.584	34056.87
451.791	34820.76
451.997	34572.96
452.203	35095.19
452.409	35005.08
452.615	34990.74
452.821	33766.06
453.027	33565.35
453.233	35007.12
453.44	33903.27
453.646	34060.96
453.852	34185.89
454.058	35007.12
454.264	33561.26
454.47	34450.08
454.676	33651.37
454.882	34642.59
455.088	31730.37
455.294	32025.28
455.5	32791.22
455.705	33036.98
455.911	31883.97
456.117	30958.29
456.323	30491.35
456.529	29053.68
456.735	30302.94
456.941	29620.97
457.147	29186.8
457.352	28062.46
457.558	28119.81
457.764	27876.1
457.97	27439.88
458.176	26977.04
458.381	26888.98
458.587	25652
458.793	25578.28
458.999	24183.61
459.204	25908
459.41	25273.13
459.616	23403.33
459.821	23796.54
460.027	23608.13
460.233	22977.36
460.438	21949.28
460.644	22225.75
460.85	21302.12
461.055	21013.35
461.261	20501.36
461.466	19209.09
461.672	18412.43
461.878	19819.39
462.083	18650
462.289	18428.82
462.494	18150.29
462.7	17355.68
462.905	16866.22
463.111	17355.68
463.316	17351.59
463.522	17073.06
463.727	16948.14
463.932	17060.77
464.138	16929.7
464.343	17238.95
464.549	16595.89
464.754	16919.46
464.959	16886.7
465.165	16487.34
465.37	15989.69
465.575	15346.62
465.781	16122.8
465.986	16290.74
466.191	15858.62
466.397	15543.23
466.602	14635.98
466.807	15152.07
467.012	15260.61
467.218	15152.07
467.423	14812.1
467.628	15223.75
467.833	15524.8
