Data from USB4F104151__29__11-44-49-993.txt Node

Date: Fri Mar 14 11:44:49 EDT 2025
User: louis
Spectrometer: USB4F10415
Trigger mode: 4
Integration Time (sec): 2.000000E-2
Scans to average: 1
Electric dark correction enabled: true
Nonlinearity correction enabled: false
Boxcar width: 0
XAxis mode: Wavelengths
Number of Pixels in Spectrum: 3648
>>>>>Begin Spectral Data<<<<<
178.204	-113.49
178.424	-113.49
178.644	-113.49
178.864	-66.39
179.084	-97.11
179.304	9.39
179.524	3.24
179.744	40.11
179.964	46.25
180.184	-21.33
180.404	25.77
180.624	56.49
180.844	11.43
181.064	-88.92
181.283	-13.14
181.503	-52.05
181.723	-17.24
181.943	-29.52
182.163	-41.81
182.383	25.77
182.602	-29.52
182.822	17.58
183.042	27.82
183.262	-52.05
183.482	-37.72
183.701	21.67
183.921	21.67
184.141	-2.9
184.361	17.58
184.58	-11.09
184.8	-9.05
185.02	-43.86
185.239	-2.9
185.459	40.11
185.679	7.34
185.898	3.24
186.118	93.35
186.338	-27.48
186.557	-68.44
186.777	25.77
186.997	23.72
187.216	-0.85
187.436	48.3
187.655	7.34
187.875	33.96
188.095	-15.19
188.314	99.5
188.534	-7
188.753	-82.77
188.973	40.11
189.192	42.15
189.412	-7
189.631	-50
189.851	-31.57
190.07	11.43
190.29	-64.34
190.509	-11.09
190.729	40.11
190.948	29.87
191.168	113.83
191.387	-31.57
191.607	-9.05
191.826	-60.24
192.045	23.72
192.265	23.72
192.484	-39.76
192.704	27.82
192.923	-60.24
193.142	36.01
193.362	33.96
193.581	-25.43
193.8	-35.67
194.02	-9.05
194.239	11.43
194.458	60.59
194.678	9.39
194.897	-4.95
195.116	38.06
195.335	-9.05
195.555	-15.19
195.774	-27.48
195.993	-52.05
196.212	-29.52
196.432	-54.1
196.651	-35.67
196.87	-9.05
197.089	7.34
197.308	19.63
197.528	11.43
197.747	-31.57
197.966	38.06
198.185	-0.85
198.404	-19.29
198.623	-4.95
198.842	29.87
199.062	9.39
199.281	-7
199.5	-0.85
199.719	-41.81
199.938	81.07
200.157	15.53
200.376	3.24
200.595	36.01
200.814	44.2
201.033	-45.91
201.252	44.2
201.471	-43.86
201.69	-11.09
201.909	42.15
202.128	-31.57
202.347	-41.81
202.566	-11.09
202.785	72.87
203.004	-25.43
203.223	-2.9
203.442	-50
203.661	-62.29
203.879	-9.05
204.098	72.87
204.317	-95.06
204.536	23.72
204.755	-11.09
204.974	11.43
205.193	9.39
205.411	-2.9
205.63	-43.86
205.849	1.19
206.068	52.39
206.287	-50
206.505	-25.43
206.724	29.87
206.943	-105.3
207.162	-15.19
207.381	-25.43
207.599	-4.95
207.818	38.06
208.037	-4.95
208.255	3.24
208.474	-43.86
208.693	-19.29
208.911	-0.85
209.13	21.67
209.349	17.58
209.567	-29.52
209.786	42.15
210.005	29.87
210.223	-11.09
210.442	-9.05
210.661	33.96
210.879	-103.25
211.098	-47.96
211.316	64.68
211.535	40.11
211.753	21.67
211.972	1.19
212.191	-25.43
212.409	13.48
212.628	23.72
212.846	13.48
213.065	48.3
213.283	13.48
213.502	-25.43
213.72	-19.29
213.938	-17.24
214.157	-9.05
214.375	1.19
214.594	-11.09
214.812	-0.85
215.031	13.48
215.249	13.48
215.467	40.11
215.686	21.67
215.904	15.53
216.122	-17.24
216.341	95.4
216.559	25.77
216.778	-52.05
216.996	68.78
217.214	17.58
217.432	31.91
217.651	-25.43
217.869	-7
218.087	-7
218.306	-31.57
218.524	25.77
218.742	-25.43
218.96	19.63
219.179	-72.53
219.397	11.43
219.615	44.2
219.833	27.82
220.051	-52.05
220.27	1.19
220.488	5.29
220.706	-41.81
220.924	-2.9
221.142	-2.9
221.36	-58.2
221.578	19.63
221.796	-35.67
222.015	-15.19
222.233	-47.96
222.451	-27.48
222.669	-31.57
222.887	25.77
223.105	-37.72
223.323	40.11
223.541	-58.2
223.759	40.11
223.977	-25.43
224.195	101.55
224.413	66.73
224.631	58.54
224.849	68.78
225.067	-2.9
225.285	19.63
225.503	-15.19
225.721	-0.85
225.939	17.58
226.157	3.24
226.375	46.25
226.592	-41.81
226.81	101.55
227.028	38.06
227.246	33.96
227.464	-58.2
227.682	70.83
227.9	-11.09
228.117	54.44
228.335	-2.9
228.553	-17.24
228.771	23.72
228.989	7.34
229.206	27.82
229.424	-27.48
229.642	-0.85
229.86	46.25
230.077	29.87
230.295	-19.29
230.513	-21.33
230.731	-25.43
230.948	54.44
231.166	29.87
231.384	-50
231.601	-52.05
231.819	9.39
232.037	-9.05
232.254	50.35
232.472	-27.48
232.689	33.96
232.907	54.44
233.125	-11.09
233.342	17.58
233.56	-39.76
233.777	-37.72
233.995	-11.09
234.213	-31.57
234.43	-23.38
234.648	11.43
234.865	23.72
235.083	-0.85
235.3	31.91
235.518	40.11
235.735	-23.38
235.953	3.24
236.17	-9.05
236.388	-43.86
236.605	58.54
236.822	17.58
237.04	58.54
237.257	1.19
237.475	-68.44
237.692	21.67
237.909	23.72
238.127	44.2
238.344	46.25
238.562	54.44
238.779	-0.85
238.996	-37.72
239.214	40.11
239.431	-2.9
239.648	11.43
239.865	40.11
240.083	68.78
240.3	-39.76
240.517	-35.67
240.735	7.34
240.952	-0.85
241.169	72.87
241.386	42.15
241.603	33.96
241.821	-58.2
242.038	40.11
242.255	42.15
242.472	5.29
242.689	-54.1
242.907	40.11
243.124	17.58
243.341	62.63
243.558	-29.52
243.775	-35.67
243.992	-54.1
244.209	-56.15
244.426	52.39
244.643	66.73
244.86	-0.85
245.078	21.67
245.295	1.19
245.512	5.29
245.729	7.34
245.946	27.82
246.163	89.26
246.38	42.15
246.597	-58.2
246.814	15.53
247.031	-47.96
247.248	-52.05
247.464	-74.58
247.681	25.77
247.898	-27.48
248.115	48.3
248.332	-35.67
248.549	-9.05
248.766	17.58
248.983	68.78
249.2	72.87
249.417	-9.05
249.633	-23.38
249.85	-64.34
250.067	-35.67
250.284	-29.52
250.501	44.2
250.717	119.98
250.934	-70.48
251.151	29.87
251.368	-7
251.585	44.2
251.801	5.29
252.018	-39.76
252.235	56.49
252.451	27.82
252.668	-33.62
252.885	79.02
253.102	27.82
253.318	3.24
253.535	-17.24
253.752	3.24
253.968	-25.43
254.185	-52.05
254.401	89.26
254.618	-25.43
254.835	-39.76
255.051	42.15
255.268	64.68
255.484	1.19
255.701	-11.09
255.917	38.06
256.134	-15.19
256.351	5.29
256.567	42.15
256.784	17.58
257	15.53
257.217	15.53
257.433	-15.19
257.65	17.58
257.866	-19.29
258.082	-60.24
258.299	-37.72
258.515	44.2
258.732	27.82
258.948	-17.24
259.165	-13.14
259.381	7.34
259.597	-23.38
259.814	-60.24
260.03	7.34
260.246	11.43
260.463	-15.19
260.679	11.43
260.895	-23.38
261.112	-31.57
261.328	11.43
261.544	85.16
261.761	-11.09
261.977	62.63
262.193	15.53
262.409	29.87
262.626	-35.67
262.842	58.54
263.058	-78.68
263.274	-17.24
263.49	-39.76
263.707	21.67
263.923	-23.38
264.139	-15.19
264.355	48.3
264.571	36.01
264.787	-78.68
265.004	95.4
265.22	-47.96
265.436	15.53
265.652	-43.86
265.868	50.35
266.084	-62.29
266.3	46.25
266.516	3.24
266.732	76.97
266.948	5.29
267.164	-27.48
267.38	-9.05
267.596	66.73
267.812	11.43
268.028	-45.91
268.244	-13.14
268.46	-39.76
268.676	5.29
268.892	-27.48
269.108	5.29
269.324	7.34
269.54	17.58
269.756	38.06
269.972	23.72
270.188	140.46
270.403	46.25
270.619	17.58
270.835	-0.85
271.051	50.35
271.267	23.72
271.483	-25.43
271.698	40.11
271.914	76.97
272.13	3.24
272.346	27.82
272.562	72.87
272.777	-7
272.993	52.39
273.209	19.63
273.425	62.63
273.64	-29.52
273.856	46.25
274.072	-50
274.287	-45.91
274.503	-11.09
274.719	54.44
274.934	46.25
275.15	-29.52
275.366	17.58
275.581	-84.82
275.797	48.3
276.012	-50
276.228	-7
276.444	-0.85
276.659	42.15
276.875	-4.95
277.09	17.58
277.306	3.24
277.521	19.63
277.737	17.58
277.952	-45.91
278.168	-23.38
278.383	-31.57
278.599	-47.96
278.814	15.53
279.03	-7
279.245	58.54
279.461	23.72
279.676	50.35
279.892	1.19
280.107	-13.14
280.322	-7
280.538	5.29
280.753	-50
280.969	-27.48
281.184	27.82
281.399	11.43
281.615	29.87
281.83	-35.67
282.045	-43.86
282.26	7.34
282.476	81.07
282.691	-15.19
282.906	74.92
283.122	40.11
283.337	-25.43
283.552	-0.85
283.767	38.06
283.983	7.34
284.198	9.39
284.413	1.19
284.628	-11.09
284.843	17.58
285.058	-2.9
285.274	-21.33
285.489	-4.95
285.704	44.2
285.919	-11.09
286.134	74.92
286.349	25.77
286.564	-11.09
286.779	56.49
286.995	5.29
287.21	-62.29
287.425	3.24
287.64	-41.81
287.855	31.91
288.07	-37.72
288.285	68.78
288.5	13.48
288.715	-23.38
288.93	7.34
289.145	-17.24
289.36	-23.38
289.575	-9.05
289.79	-52.05
290.004	-2.9
290.219	36.01
290.434	23.72
290.649	74.92
290.864	7.34
291.079	60.59
291.294	-2.9
291.509	1.19
291.724	-17.24
291.938	44.2
292.153	36.01
292.368	21.67
292.583	21.67
292.798	3.24
293.012	11.43
293.227	-31.57
293.442	-74.58
293.657	140.46
293.871	-4.95
294.086	19.63
294.301	44.2
294.516	58.54
294.73	-0.85
294.945	54.44
295.16	36.01
295.374	-9.05
295.589	46.25
295.804	-7
296.018	17.58
296.233	50.35
296.447	44.2
296.662	-35.67
296.877	68.78
297.091	29.87
297.306	-37.72
297.52	-37.72
297.735	52.39
297.949	76.97
298.164	36.01
298.378	-13.14
298.593	-39.76
298.807	17.58
299.022	3.24
299.236	-2.9
299.451	-78.68
299.665	44.2
299.88	42.15
300.094	38.06
300.309	-0.85
300.523	21.67
300.737	-9.05
300.952	-23.38
301.166	15.53
301.381	-21.33
301.595	40.11
301.809	25.77
302.024	25.77
302.238	-64.34
302.452	38.06
302.667	1.19
302.881	46.25
303.095	54.44
303.309	23.72
303.524	-2.9
303.738	-11.09
303.952	9.39
304.166	-21.33
304.381	-52.05
304.595	44.2
304.809	-7
305.023	-13.14
305.237	42.15
305.452	-2.9
305.666	83.11
305.88	11.43
306.094	60.59
306.308	29.87
306.522	-45.91
306.736	-70.48
306.95	62.63
307.164	-29.52
307.379	-7
307.593	11.43
307.807	79.02
308.021	13.48
308.235	29.87
308.449	31.91
308.663	46.25
308.877	76.97
309.091	-13.14
309.305	-2.9
309.519	-45.91
309.733	85.16
309.947	-7
310.161	-9.05
310.374	-4.95
310.588	62.63
310.802	19.63
311.016	31.91
311.23	58.54
311.444	42.15
311.658	19.63
311.872	58.54
312.085	40.11
312.299	9.39
312.513	33.96
312.727	-0.85
312.941	3.24
313.154	31.91
313.368	3.24
313.582	-19.29
313.796	-39.76
314.009	-60.24
314.223	54.44
314.437	48.3
314.651	-15.19
314.864	25.77
315.078	40.11
315.292	-23.38
315.505	-31.57
315.719	29.87
315.933	23.72
316.146	5.29
316.36	27.82
316.573	60.59
316.787	72.87
317.001	7.34
317.214	-33.62
317.428	21.67
317.641	11.43
317.855	17.58
318.068	17.58
318.282	1.19
318.495	42.15
318.709	31.91
318.922	79.02
319.136	11.43
319.349	46.25
319.563	-25.43
319.776	-31.57
319.99	-13.14
320.203	-11.09
320.417	25.77
320.63	-58.2
320.843	115.88
321.057	-19.29
321.27	25.77
321.483	33.96
321.697	-17.24
321.91	52.39
322.124	79.02
322.337	52.39
322.55	33.96
322.763	17.58
322.977	31.91
323.19	-43.86
323.403	-11.09
323.617	-2.9
323.83	46.25
324.043	95.4
324.256	52.39
324.469	25.77
324.683	54.44
324.896	-11.09
325.109	-7
325.322	-27.48
325.535	74.92
325.748	17.58
325.962	-60.24
326.175	48.3
326.388	7.34
326.601	17.58
326.814	-21.33
327.027	72.87
327.24	-43.86
327.453	-50
327.666	11.43
327.879	62.63
328.092	46.25
328.305	-21.33
328.518	9.39
328.731	-35.67
328.944	-15.19
329.157	19.63
329.37	62.63
329.583	33.96
329.796	54.44
330.009	-43.86
330.222	1.19
330.435	-11.09
330.648	54.44
330.861	-11.09
331.073	54.44
331.286	21.67
331.499	48.3
331.712	87.21
331.925	38.06
332.138	-7
332.35	64.68
332.563	68.78
332.776	21.67
332.989	-31.57
333.202	-21.33
333.414	-15.19
333.627	21.67
333.84	1.19
334.053	-11.09
334.265	-17.24
334.478	-2.9
334.691	13.48
334.903	44.2
335.116	-41.81
335.329	-66.39
335.541	36.01
335.754	-7
335.966	-15.19
336.179	9.39
336.392	56.49
336.604	19.63
336.817	62.63
337.029	60.59
337.242	-19.29
337.454	44.2
337.667	-21.33
337.88	76.97
338.092	-2.9
338.305	29.87
338.517	-45.91
338.729	5.29
338.942	101.55
339.154	-27.48
339.367	-7
339.579	-25.43
339.792	-33.62
340.004	50.35
340.217	81.07
340.429	-50
340.641	15.53
340.854	25.77
341.066	-7
341.278	-0.85
341.491	48.3
341.703	33.96
341.915	-4.95
342.128	33.96
342.34	40.11
342.552	7.34
342.764	-25.43
342.977	13.48
343.189	-7
343.401	9.39
343.613	-39.76
343.826	50.35
344.038	23.72
344.25	-68.44
344.462	27.82
344.674	1.19
344.886	3.24
345.099	9.39
345.311	42.15
345.523	1.19
345.735	-2.9
345.947	42.15
346.159	-21.33
346.371	1.19
346.583	-2.9
346.795	31.91
347.007	-39.76
347.219	40.11
347.431	-37.72
347.643	21.67
347.855	19.63
348.067	-43.86
348.279	-9.05
348.491	46.25
348.703	25.77
348.915	-2.9
349.127	-50
349.339	36.01
349.551	15.53
349.763	83.11
349.975	-33.62
350.187	13.48
350.399	1.19
350.61	25.77
350.822	19.63
351.034	56.49
351.246	72.87
351.458	-13.14
351.669	5.29
351.881	23.72
352.093	31.91
352.305	42.15
352.517	-25.43
352.728	42.15
352.94	25.77
353.152	36.01
353.363	-74.58
353.575	13.48
353.787	83.11
353.999	42.15
354.21	117.93
354.422	-2.9
354.633	29.87
354.845	40.11
355.057	-15.19
355.268	-17.24
355.48	-0.85
355.692	-41.81
355.903	36.01
356.115	27.82
356.326	-19.29
356.538	36.01
356.749	60.59
356.961	33.96
357.172	48.3
357.384	-52.05
357.595	89.26
357.807	21.67
358.018	1.19
358.23	19.63
358.441	25.77
358.653	-35.67
358.864	23.72
359.075	-25.43
359.287	79.02
359.498	1.19
359.709	21.67
359.921	23.72
360.132	54.44
360.344	23.72
360.555	-15.19
360.766	-33.62
360.977	-29.52
361.189	40.11
361.4	70.83
361.611	3.24
361.823	54.44
362.034	-31.57
362.245	-31.57
362.456	85.16
362.667	72.87
362.879	-7
363.09	-35.67
363.301	9.39
363.512	9.39
363.723	36.01
363.935	19.63
364.146	-9.05
364.357	-11.09
364.568	31.91
364.779	-23.38
364.99	9.39
365.201	19.63
365.412	13.48
365.623	-27.48
365.834	54.44
366.045	17.58
366.256	-7
366.467	15.53
366.678	97.45
366.889	-23.38
367.1	42.15
367.311	76.97
367.522	56.49
367.733	115.88
367.944	29.87
368.155	-7
368.366	3.24
368.577	42.15
368.788	-33.62
368.999	11.43
369.209	3.24
369.42	5.29
369.631	83.11
369.842	56.49
370.053	-35.67
370.264	9.39
370.474	31.91
370.685	44.2
370.896	31.91
371.107	33.96
371.317	11.43
371.528	13.48
371.739	58.54
371.95	117.93
372.16	40.11
372.371	33.96
372.582	27.82
372.792	15.53
373.003	11.43
373.214	105.64
373.424	25.77
373.635	48.3
373.846	74.92
374.056	50.35
374.267	81.07
374.477	1.19
374.688	-23.38
374.898	40.11
375.109	38.06
375.319	52.39
375.53	119.98
375.74	33.96
375.951	38.06
376.161	40.11
376.372	87.21
376.582	13.48
376.793	83.11
377.003	-23.38
377.214	79.02
377.424	-13.14
377.635	31.91
377.845	72.87
378.055	-15.19
378.266	9.39
378.476	15.53
378.686	-39.76
378.897	17.58
379.107	-31.57
379.317	74.92
379.528	23.72
379.738	-13.14
379.948	3.24
380.158	72.87
380.369	-13.14
380.579	62.63
380.789	3.24
380.999	13.48
381.21	91.31
381.42	36.01
381.63	33.96
381.84	74.92
382.05	48.3
382.261	9.39
382.471	74.92
382.681	42.15
382.891	113.83
383.101	31.91
383.311	25.77
383.521	62.63
383.731	70.83
383.941	52.39
384.151	25.77
384.361	70.83
384.571	-27.48
384.781	93.35
384.991	79.02
385.201	140.46
385.411	68.78
385.621	62.63
385.831	42.15
386.041	-19.29
386.251	87.21
386.461	31.91
386.671	-11.09
386.881	-7
387.091	-23.38
387.301	99.5
387.511	17.58
387.72	68.78
387.93	25.77
388.14	19.63
388.35	33.96
388.56	44.2
388.769	-19.29
388.979	33.96
389.189	31.91
389.399	29.87
389.609	56.49
389.818	89.26
390.028	7.34
390.238	46.25
390.447	29.87
390.657	29.87
390.867	50.35
391.076	31.91
391.286	-35.67
391.496	23.72
391.705	44.2
391.915	85.16
392.125	-41.81
392.334	36.01
392.544	48.3
392.753	66.73
392.963	-33.62
393.172	15.53
393.382	29.87
393.591	171.18
393.801	48.3
394.01	105.64
394.22	54.44
394.429	58.54
394.639	29.87
394.848	56.49
395.058	111.78
395.267	33.96
395.477	52.39
395.686	33.96
395.895	70.83
396.105	97.45
396.314	60.59
396.524	79.02
396.733	74.92
396.942	89.26
397.152	76.97
397.361	83.11
397.57	111.78
397.78	158.89
397.989	122.02
398.198	193.7
398.407	48.3
398.617	58.54
398.826	74.92
399.035	89.26
399.244	44.2
399.453	128.17
399.663	83.11
399.872	54.44
400.081	42.15
400.29	111.78
400.499	58.54
400.708	144.55
400.917	58.54
401.127	101.55
401.336	91.31
401.545	122.02
401.754	44.2
401.963	50.35
402.172	70.83
402.381	142.5
402.59	93.35
402.799	95.4
403.008	138.41
403.217	54.44
403.426	107.69
403.635	87.21
403.844	113.83
404.053	140.46
404.262	89.26
404.471	173.22
404.68	79.02
404.888	126.12
405.097	99.5
405.306	158.89
405.515	195.75
405.724	177.32
405.933	214.18
406.142	165.03
406.35	197.8
406.559	177.32
406.768	142.5
406.977	218.28
407.185	253.09
407.394	208.04
407.603	171.18
407.812	187.56
408.02	302.25
408.229	218.28
408.438	236.71
408.646	275.62
408.855	324.77
409.064	275.62
409.272	181.42
409.481	261.29
409.69	179.37
409.898	281.77
410.107	337.06
410.315	347.3
410.524	281.77
410.733	365.73
410.941	343.21
411.15	431.27
411.358	394.4
411.567	437.41
411.775	369.83
411.984	435.36
412.192	517.28
412.401	511.14
412.609	447.65
412.818	523.43
413.026	504.99
413.234	548
413.443	539.81
413.651	521.38
413.86	623.78
414.068	672.93
414.276	597.15
414.485	613.54
414.693	750.75
414.901	785.57
415.11	754.85
415.318	750.75
415.526	883.87
415.734	838.81
415.943	890.01
416.151	914.59
416.359	847.01
416.567	967.84
416.776	984.22
416.984	1123.48
417.192	1068.19
417.4	1035.42
417.608	1090.71
417.817	1105.05
418.025	1184.92
418.233	1283.22
418.441	1238.17
418.649	1256.6
418.857	1361.05
419.065	1383.57
419.273	1359
419.481	1453.2
419.689	1635.47
419.897	1612.95
420.105	1725.58
420.313	1676.43
420.521	1764.5
420.729	1739.92
420.937	1787.02
421.145	2020.49
421.353	2038.92
421.561	2073.74
421.769	2092.17
421.977	2294.92
422.185	2210.95
422.393	2366.6
422.601	2542.72
422.809	2464.9
423.017	2679.94
423.224	2616.45
423.432	2798.72
423.64	2811.01
423.848	3179.64
424.056	2862.21
424.263	3091.58
424.471	3179.64
424.679	3257.46
424.887	3470.45
425.094	3452.02
425.302	3562.61
425.51	3802.22
425.718	3863.66
425.925	3646.58
426.133	3953.77
426.341	4166.76
426.548	4242.54
426.756	4334.7
426.964	4453.48
427.171	4650.08
427.379	4762.72
427.586	4916.32
427.794	5131.36
428.001	5268.57
428.209	5438.55
428.417	5442.65
428.624	5897.3
428.832	5635.16
429.039	5715.03
429.247	5862.48
429.454	6351.95
429.662	6747.2
429.869	6265.93
430.076	6673.48
430.284	6474.82
430.491	6806.59
430.699	7232.57
430.906	7236.67
431.114	7330.87
431.321	7537.72
431.528	7681.08
431.736	8377.39
431.943	8434.73
432.15	8322.09
432.358	8440.87
432.565	9010.21
432.772	8950.82
432.979	9368.6
433.187	9495.58
433.394	9667.61
433.601	10220.56
433.808	10275.85
434.016	10251.28
434.223	10558.47
434.43	11527.16
434.637	10961.92
434.844	11779.06
435.052	11836.41
435.259	11930.61
435.466	12258.29
435.673	11817.97
435.88	12731.37
436.087	13358.05
436.294	13235.17
436.501	13218.78
436.708	13196.26
436.915	13802.46
437.122	14511.05
437.329	14459.85
437.537	14724.04
437.743	15059.91
437.95	15082.44
438.157	15807.42
438.364	16389.04
438.571	15973.3
438.778	15987.64
438.985	17806.23
439.192	16833.45
439.399	17591.2
439.606	17122.21
439.813	18135.96
440.02	19467.14
440.227	18830.22
440.433	18774.92
440.64	19233.67
440.847	19487.62
441.054	19755.9
441.261	21068.65
441.467	20865.9
441.674	21443.43
441.881	21730.14
442.088	21971.8
442.294	21699.42
442.501	22389.59
442.708	23040.84
442.914	23698.24
443.121	24746.8
443.328	24191.8
443.534	25441.06
443.741	25025.32
443.948	24599.35
444.154	26549.01
444.361	26506.01
444.568	26338.07
444.774	26465.05
444.981	26727.19
445.187	27689.73
445.394	28551.93
445.6	28318.46
445.807	31185.61
446.013	30038.75
446.22	30307.04
446.426	31470.28
446.633	31765.19
446.839	32645.82
447.046	31460.04
447.252	33129.14
447.459	33063.6
447.665	33004.21
447.871	34620.06
448.078	36067.97
448.284	34538.14
448.491	35498.64
448.697	36715.13
448.903	37112.44
449.11	37440.11
449.316	36539.01
449.522	37427.82
449.728	37919.34
449.935	38742.62
450.141	38740.57
450.347	39328.34
450.553	38369.89
450.76	38605.41
450.966	39901.77
451.172	39385.68
451.378	40116.81
451.584	39793.23
451.791	40370.75
451.997	40548.93
452.203	40979
452.409	41120.31
452.615	40831.55
452.821	39531.09
453.027	38984.28
453.233	41230.9
453.44	39578.19
453.646	40184.39
453.852	40215.11
454.058	40954.43
454.264	39658.06
454.47	40510.02
454.676	39547.47
454.882	40766.01
455.088	37235.31
455.294	37433.97
455.5	38312.55
455.705	38574.69
455.911	36838.01
456.117	36205.19
456.323	35891.85
456.529	34036.39
456.735	35361.42
456.941	34744.98
457.147	34087.59
457.352	33098.42
457.558	32707.26
457.764	32707.26
457.97	32400.06
458.176	31673.03
458.381	31589.06
458.587	29747.94
458.793	29899.49
458.999	28162.81
459.204	30192.35
459.41	29590.25
459.616	27282.19
459.821	27503.37
460.027	27529.99
460.233	26977.04
460.438	25631.52
460.644	25678.63
460.85	24849.2
461.055	24322.87
461.261	24275.77
461.466	22330.2
461.672	22016.86
461.878	23489.35
462.083	21965.66
462.289	21644.13
462.494	21179.24
462.7	20265.85
462.905	19764.09
463.111	20403.06
463.316	20595.57
463.522	19938.17
463.727	19913.59
463.932	19921.79
464.138	19782.52
464.343	19577.73
464.549	19342.21
464.754	19846.01
464.959	19649.41
465.165	19504
465.37	18537.36
465.575	18281.36
465.781	18901.9
465.986	19213.19
466.191	18699.15
466.397	17914.78
466.602	17261.48
466.807	17810.33
467.012	17765.28
467.218	17818.52
467.423	17503.14
