Data from USB4F104151__31__11-44-52-812.txt Node

Date: Fri Mar 14 11:44:52 EDT 2025
User: louis
Spectrometer: USB4F10415
Trigger mode: 4
Integration Time (sec): 2.000000E-2
Scans to average: 1
Electric dark correction enabled: true
Nonlinearity correction enabled: false
Boxcar width: 0
XAxis mode: Wavelengths
Number of Pixels in Spectrum: 3648
>>>>>Begin Spectral Data<<<<<
178.204	-67.41
178.424	-67.41
178.644	-67.41
178.864	-102.23
179.084	-73.56
179.304	-34.64
179.524	-18.26
179.744	12.46
179.964	53.42
180.184	47.27
180.404	-24.4
180.624	14.51
180.844	10.41
181.064	-16.21
181.283	-30.55
181.503	-20.31
181.723	6.31
181.943	-16.21
182.163	32.94
182.383	20.65
182.602	12.46
182.822	30.89
183.042	90.28
183.262	41.13
183.482	73.9
183.701	2.22
183.921	0.17
184.141	57.51
184.361	41.13
184.58	49.32
184.8	39.08
185.02	-5.97
185.239	49.32
185.459	41.13
185.679	0.17
185.898	-18.26
186.118	8.36
186.338	-22.36
186.557	-16.21
186.777	-10.07
186.997	22.7
187.216	-3.93
187.436	112.81
187.655	49.32
187.875	88.23
188.095	75.95
188.314	-22.36
188.534	88.23
188.753	0.17
188.973	121
189.192	4.27
189.412	-28.5
189.631	24.75
189.851	-1.88
190.07	98.47
190.29	-63.32
190.509	73.9
190.729	-14.17
190.948	20.65
191.168	67.75
191.387	-38.74
191.607	-61.27
191.826	-8.02
192.045	-26.45
192.265	61.61
192.484	-51.03
192.704	22.7
192.923	-48.98
193.142	73.9
193.362	14.51
193.581	16.55
193.8	-1.88
194.02	37.03
194.239	-57.17
194.458	57.51
194.678	10.41
194.897	-1.88
195.116	-28.5
195.335	86.19
195.555	2.22
195.774	-12.12
195.993	24.75
196.212	28.84
196.432	0.17
196.651	12.46
196.87	-16.21
197.089	-14.17
197.308	80.04
197.528	20.65
197.747	59.56
197.966	90.28
198.185	82.09
198.404	55.47
198.623	82.09
198.842	14.51
199.062	20.65
199.281	82.09
199.5	-20.31
199.719	2.22
199.938	45.23
200.157	16.55
200.376	88.23
200.595	24.75
200.814	49.32
201.033	37.03
201.252	43.18
201.471	53.42
201.69	8.36
201.909	61.61
202.128	53.42
202.347	-22.36
202.566	2.22
202.785	-32.6
203.004	-10.07
203.223	43.18
203.442	41.13
203.661	80.04
203.879	-20.31
204.098	8.36
204.317	-42.84
204.536	51.37
204.755	-8.02
204.974	24.75
205.193	69.8
205.411	32.94
205.63	-8.02
205.849	34.99
206.068	26.79
206.287	20.65
206.505	-18.26
206.724	26.79
206.943	-51.03
207.162	-28.5
207.381	4.27
207.599	75.95
207.818	37.03
208.037	4.27
208.255	10.41
208.474	24.75
208.693	-12.12
208.911	65.71
209.13	4.27
209.349	26.79
209.567	-8.02
209.786	41.13
210.005	34.99
210.223	71.85
210.442	-22.36
210.661	-8.02
210.879	49.32
211.098	65.71
211.316	-42.84
211.535	16.55
211.753	22.7
211.972	41.13
212.191	-30.55
212.409	6.31
212.628	55.47
212.846	-8.02
213.065	34.99
213.283	30.89
213.502	4.27
213.72	14.51
213.938	75.95
214.157	-59.22
214.375	71.85
214.594	49.32
214.812	75.95
215.031	30.89
215.249	-30.55
215.467	61.61
215.686	30.89
215.904	10.41
216.122	-34.64
216.341	37.03
216.559	-38.74
216.778	45.23
216.996	69.8
217.214	-57.17
217.432	55.47
217.651	-5.97
217.869	43.18
218.087	-30.55
218.306	37.03
218.524	139.43
218.742	-36.69
218.96	73.9
219.179	34.99
219.397	0.17
219.615	51.37
219.833	71.85
220.051	8.36
220.27	14.51
220.488	80.04
220.706	10.41
220.924	-34.64
221.142	-10.07
221.36	37.03
221.578	41.13
221.796	14.51
222.015	12.46
222.233	94.38
222.451	37.03
222.669	37.03
222.887	12.46
223.105	80.04
223.323	2.22
223.541	69.8
223.759	8.36
223.977	6.31
224.195	88.23
224.413	12.46
224.631	110.76
224.849	65.71
225.067	67.75
225.285	-24.4
225.503	43.18
225.721	-34.64
225.939	-18.26
226.157	28.84
226.375	110.76
226.592	-79.7
226.81	10.41
227.028	57.51
227.246	-1.88
227.464	-5.97
227.682	34.99
227.9	16.55
228.117	-3.93
228.335	28.84
228.553	-12.12
228.771	61.61
228.989	41.13
229.206	65.71
229.424	49.32
229.642	22.7
229.86	67.75
230.077	65.71
230.295	73.9
230.513	-10.07
230.731	57.51
230.948	137.38
231.166	-3.93
231.384	-44.88
231.601	14.51
231.819	16.55
232.037	-38.74
232.254	-10.07
232.472	12.46
232.689	61.61
232.907	65.71
233.125	-34.64
233.342	16.55
233.56	-24.4
233.777	37.03
233.995	4.27
234.213	80.04
234.43	77.99
234.648	20.65
234.865	-5.97
235.083	32.94
235.3	67.75
235.518	57.51
235.735	28.84
235.953	84.14
236.17	0.17
236.388	30.89
236.605	24.75
236.822	-1.88
237.04	26.79
237.257	24.75
237.475	55.47
237.692	37.03
237.909	2.22
238.127	47.27
238.344	-46.93
238.562	34.99
238.779	10.41
238.996	-22.36
239.214	-10.07
239.431	51.37
239.648	-14.17
239.865	12.46
240.083	2.22
240.3	69.8
240.517	28.84
240.735	-20.31
240.952	55.47
241.169	100.52
241.386	55.47
241.603	-16.21
241.821	8.36
242.038	80.04
242.255	77.99
242.472	37.03
242.689	-16.21
242.907	53.42
243.124	-8.02
243.341	4.27
243.558	59.56
243.775	-24.4
243.992	20.65
244.209	-8.02
244.426	22.7
244.643	121
244.86	41.13
245.078	-26.45
245.295	53.42
245.512	20.65
245.729	0.17
245.946	-1.88
246.163	-14.17
246.38	59.56
246.597	10.41
246.814	-1.88
247.031	-75.6
247.248	22.7
247.464	-32.6
247.681	2.22
247.898	43.18
248.115	129.19
248.332	-3.93
248.549	43.18
248.766	69.8
248.983	63.66
249.2	32.94
249.417	55.47
249.633	-1.88
249.85	84.14
250.067	53.42
250.284	118.95
250.501	4.27
250.717	53.42
250.934	-34.64
251.151	4.27
251.368	59.56
251.585	69.8
251.801	61.61
252.018	0.17
252.235	47.27
252.451	8.36
252.668	-16.21
252.885	-18.26
253.102	-8.02
253.318	43.18
253.535	6.31
253.752	10.41
253.968	22.7
254.185	41.13
254.401	51.37
254.618	12.46
254.835	-36.69
255.051	102.57
255.268	-8.02
255.484	39.08
255.701	43.18
255.917	61.61
256.134	77.99
256.351	98.47
256.567	49.32
256.784	26.79
257	-18.26
257.217	43.18
257.433	-5.97
257.65	96.43
257.866	14.51
258.082	24.75
258.299	-12.12
258.515	12.46
258.732	-10.07
258.948	-14.17
259.165	0.17
259.381	55.47
259.597	65.71
259.814	20.65
260.03	2.22
260.246	-5.97
260.463	75.95
260.679	69.8
260.895	-34.64
261.112	28.84
261.328	18.6
261.544	24.75
261.761	65.71
261.977	4.27
262.193	22.7
262.409	88.23
262.626	71.85
262.842	88.23
263.058	-10.07
263.274	22.7
263.49	16.55
263.707	51.37
263.923	32.94
264.139	-30.55
264.355	28.84
264.571	75.95
264.787	2.22
265.004	24.75
265.22	6.31
265.436	-22.36
265.652	-16.21
265.868	61.61
266.084	6.31
266.3	-53.08
266.516	55.47
266.732	-14.17
266.948	20.65
267.164	6.31
267.38	77.99
267.596	28.84
267.812	51.37
268.028	26.79
268.244	-14.17
268.46	53.42
268.676	41.13
268.892	84.14
269.108	18.6
269.324	10.41
269.54	-16.21
269.756	32.94
269.972	-32.6
270.188	20.65
270.403	30.89
270.619	63.66
270.835	118.95
271.051	98.47
271.267	14.51
271.483	24.75
271.698	-18.26
271.914	-12.12
272.13	-16.21
272.346	-67.41
272.562	37.03
272.777	133.29
272.993	20.65
273.209	59.56
273.425	-8.02
273.64	41.13
273.856	73.9
274.072	-42.84
274.287	-24.4
274.503	57.51
274.719	-8.02
274.934	26.79
275.15	-16.21
275.366	4.27
275.581	49.32
275.797	53.42
276.012	53.42
276.228	77.99
276.444	55.47
276.659	88.23
276.875	-10.07
277.09	86.19
277.306	49.32
277.521	12.46
277.737	39.08
277.952	75.95
278.168	22.7
278.383	114.86
278.599	6.31
278.814	47.27
279.03	12.46
279.245	55.47
279.461	20.65
279.676	-1.88
279.892	-1.88
280.107	84.14
280.322	18.6
280.538	69.8
280.753	-20.31
280.969	41.13
281.184	4.27
281.399	6.31
281.615	26.79
281.83	16.55
282.045	14.51
282.26	24.75
282.476	16.55
282.691	-3.93
282.906	2.22
283.122	84.14
283.337	26.79
283.552	26.79
283.767	4.27
283.983	69.8
284.198	12.46
284.413	-14.17
284.628	-59.22
284.843	94.38
285.058	53.42
285.274	28.84
285.489	-48.98
285.704	14.51
285.919	30.89
286.134	63.66
286.349	8.36
286.564	22.7
286.779	10.41
286.995	16.55
287.21	24.75
287.425	14.51
287.64	0.17
287.855	-24.4
288.07	-38.74
288.285	-10.07
288.5	49.32
288.715	43.18
288.93	-12.12
289.145	61.61
289.36	-5.97
289.575	61.61
289.79	41.13
290.004	-57.17
290.219	86.19
290.434	67.75
290.649	-48.98
290.864	-30.55
291.079	69.8
291.294	59.56
291.509	22.7
291.724	77.99
291.938	41.13
292.153	45.23
292.368	-16.21
292.583	-18.26
292.798	-1.88
293.012	59.56
293.227	84.14
293.442	22.7
293.657	22.7
293.871	61.61
294.086	-30.55
294.301	18.6
294.516	55.47
294.73	77.99
294.945	-30.55
295.16	-8.02
295.374	100.52
295.589	61.61
295.804	-12.12
296.018	108.71
296.233	47.27
296.447	67.75
296.662	6.31
296.877	53.42
297.091	28.84
297.306	8.36
297.52	18.6
297.735	18.6
297.949	-46.93
298.164	39.08
298.378	22.7
298.593	-28.5
298.807	-5.97
299.022	73.9
299.236	22.7
299.451	53.42
299.665	47.27
299.88	98.47
300.094	16.55
300.309	-53.08
300.523	73.9
300.737	51.37
300.952	77.99
301.166	96.43
301.381	8.36
301.595	-16.21
301.809	-44.88
302.024	59.56
302.238	-20.31
302.452	86.19
302.667	-8.02
302.881	14.51
303.095	49.32
303.309	10.41
303.524	2.22
303.738	20.65
303.952	30.89
304.166	65.71
304.381	14.51
304.595	77.99
304.809	-16.21
305.023	18.6
305.237	24.75
305.452	-18.26
305.666	28.84
305.88	67.75
306.094	8.36
306.308	-3.93
306.522	4.27
306.736	45.23
306.95	32.94
307.164	-8.02
307.379	12.46
307.593	63.66
307.807	32.94
308.021	90.28
308.235	75.95
308.449	-34.64
308.663	34.99
308.877	59.56
309.091	67.75
309.305	34.99
309.519	55.47
309.733	67.75
309.947	14.51
310.161	4.27
310.374	10.41
310.588	37.03
310.802	22.7
311.016	55.47
311.23	16.55
311.444	-30.55
311.658	-3.93
311.872	90.28
312.085	32.94
312.299	41.13
312.513	57.51
312.727	14.51
312.941	-10.07
313.154	65.71
313.368	4.27
313.582	43.18
313.796	-12.12
314.009	47.27
314.223	65.71
314.437	61.61
314.651	90.28
314.864	51.37
315.078	-40.79
315.292	-12.12
315.505	6.31
315.719	6.31
315.933	6.31
316.146	49.32
316.36	-44.88
316.573	63.66
316.787	47.27
317.001	65.71
317.214	-42.84
317.428	143.53
317.641	51.37
317.855	-14.17
318.068	114.86
318.282	32.94
318.495	59.56
318.709	0.17
318.922	86.19
319.136	63.66
319.349	10.41
319.563	28.84
319.776	12.46
319.99	10.41
320.203	12.46
320.417	28.84
320.63	112.81
320.843	84.14
321.057	28.84
321.27	28.84
321.483	61.61
321.697	28.84
321.91	45.23
322.124	2.22
322.337	32.94
322.55	53.42
322.763	-61.27
322.977	39.08
323.19	-63.32
323.403	30.89
323.617	106.67
323.83	32.94
324.043	90.28
324.256	6.31
324.469	2.22
324.683	26.79
324.896	8.36
325.109	53.42
325.322	37.03
325.535	63.66
325.748	-1.88
325.962	24.75
326.175	94.38
326.388	16.55
326.601	49.32
326.814	41.13
327.027	30.89
327.24	94.38
327.453	6.31
327.666	94.38
327.879	106.67
328.092	20.65
328.305	71.85
328.518	2.22
328.731	47.27
328.944	37.03
329.157	59.56
329.37	116.9
329.583	47.27
329.796	86.19
330.009	41.13
330.222	53.42
330.435	-16.21
330.648	59.56
330.861	125.1
331.073	10.41
331.286	37.03
331.499	12.46
331.712	14.51
331.925	39.08
332.138	-14.17
332.35	65.71
332.563	20.65
332.776	84.14
332.989	-26.45
333.202	37.03
333.414	8.36
333.627	61.61
333.84	-18.26
334.053	43.18
334.265	45.23
334.478	47.27
334.691	41.13
334.903	18.6
335.116	-34.64
335.329	47.27
335.541	16.55
335.754	34.99
335.966	-40.79
336.179	20.65
336.392	57.51
336.604	32.94
336.817	73.9
337.029	18.6
337.242	-42.84
337.454	49.32
337.667	67.75
337.88	82.09
338.092	30.89
338.305	65.71
338.517	59.56
338.729	-3.93
338.942	-12.12
339.154	26.79
339.367	-18.26
339.579	-18.26
339.792	28.84
340.004	92.33
340.217	-1.88
340.429	-5.97
340.641	67.75
340.854	73.9
341.066	94.38
341.278	90.28
341.491	22.7
341.703	75.95
341.915	14.51
342.128	129.19
342.34	16.55
342.552	30.89
342.764	59.56
342.977	43.18
343.189	-30.55
343.401	-44.88
343.613	-48.98
343.826	-14.17
344.038	59.56
344.25	20.65
344.462	28.84
344.674	45.23
344.886	-38.74
345.099	32.94
345.311	-36.69
345.523	63.66
345.735	39.08
345.947	112.81
346.159	102.57
346.371	-1.88
346.583	18.6
346.795	39.08
347.007	34.99
347.219	43.18
347.431	41.13
347.643	75.95
347.855	32.94
348.067	16.55
348.279	-32.6
348.491	94.38
348.703	30.89
348.915	45.23
349.127	24.75
349.339	106.67
349.551	0.17
349.763	14.51
349.975	55.47
350.187	55.47
350.399	-22.36
350.61	92.33
350.822	-24.4
351.034	28.84
351.246	16.55
351.458	69.8
351.669	34.99
351.881	73.9
352.093	4.27
352.305	114.86
352.517	-3.93
352.728	12.46
352.94	8.36
353.152	14.51
353.363	77.99
353.575	34.99
353.787	34.99
353.999	49.32
354.21	73.9
354.422	55.47
354.633	53.42
354.845	39.08
355.057	75.95
355.268	61.61
355.48	106.67
355.692	-46.93
355.903	139.43
356.115	39.08
356.326	-12.12
356.538	34.99
356.749	6.31
356.961	94.38
357.172	16.55
357.384	-20.31
357.595	75.95
357.807	34.99
358.018	34.99
358.23	88.23
358.441	90.28
358.653	98.47
358.864	43.18
359.075	43.18
359.287	22.7
359.498	108.71
359.709	20.65
359.921	28.84
360.132	32.94
360.344	82.09
360.555	26.79
360.766	22.7
360.977	12.46
361.189	141.48
361.4	22.7
361.611	65.71
361.823	96.43
362.034	114.86
362.245	6.31
362.456	32.94
362.667	22.7
362.879	55.47
363.09	71.85
363.301	55.47
363.512	-38.74
363.723	-16.21
363.935	-3.93
364.146	49.32
364.357	34.99
364.568	34.99
364.779	-12.12
364.99	92.33
365.201	45.23
365.412	45.23
365.623	49.32
365.834	28.84
366.045	39.08
366.256	32.94
366.467	-1.88
366.678	61.61
366.889	49.32
367.1	-57.17
367.311	41.13
367.522	8.36
367.733	63.66
367.944	73.9
368.155	49.32
368.366	114.86
368.577	88.23
368.788	127.14
368.999	41.13
369.209	26.79
369.42	37.03
369.631	59.56
369.842	98.47
370.053	61.61
370.264	84.14
370.474	63.66
370.685	57.51
370.896	24.75
371.107	6.31
371.317	77.99
371.528	57.51
371.739	34.99
371.95	55.47
372.16	49.32
372.371	65.71
372.582	4.27
372.792	20.65
373.003	51.37
373.214	59.56
373.424	10.41
373.635	118.95
373.846	77.99
374.056	65.71
374.267	-22.36
374.477	53.42
374.688	18.6
374.898	0.17
375.109	94.38
375.319	69.8
375.53	65.71
375.74	67.75
375.951	71.85
376.161	67.75
376.372	100.52
376.582	-10.07
376.793	73.9
377.003	-12.12
377.214	57.51
377.424	41.13
377.635	82.09
377.845	2.22
378.055	80.04
378.266	-1.88
378.476	84.14
378.686	69.8
378.897	63.66
379.107	47.27
379.317	26.79
379.528	57.51
379.738	84.14
379.948	4.27
380.158	55.47
380.369	30.89
380.579	69.8
380.789	77.99
380.999	53.42
381.21	55.47
381.42	45.23
381.63	112.81
381.84	137.38
382.05	51.37
382.261	63.66
382.471	88.23
382.681	43.18
382.891	69.8
383.101	41.13
383.311	18.6
383.521	69.8
383.731	24.75
383.941	71.85
384.151	61.61
384.361	112.81
384.571	98.47
384.781	55.47
384.991	71.85
385.201	86.19
385.411	30.89
385.621	82.09
385.831	84.14
386.041	34.99
386.251	-18.26
386.461	63.66
386.671	-3.93
386.881	65.71
387.091	16.55
387.301	61.61
387.511	110.76
387.72	63.66
387.93	67.75
388.14	4.27
388.35	39.08
388.56	34.99
388.769	71.85
388.979	26.79
389.189	63.66
389.399	71.85
389.609	32.94
389.818	67.75
390.028	104.62
390.238	-24.4
390.447	151.72
390.657	82.09
390.867	24.75
391.076	82.09
391.286	53.42
391.496	47.27
391.705	10.41
391.915	73.9
392.125	57.51
392.334	55.47
392.544	84.14
392.753	14.51
392.963	34.99
393.172	77.99
393.382	28.84
393.591	80.04
393.801	65.71
394.01	92.33
394.22	118.95
394.429	164.01
394.639	2.22
394.848	86.19
395.058	75.95
395.267	100.52
395.477	137.38
395.686	114.86
395.895	96.43
396.105	102.57
396.314	51.37
396.524	92.33
396.733	30.89
396.942	168.1
397.152	110.76
397.361	90.28
397.57	104.62
397.78	71.85
397.989	59.56
398.198	166.06
398.407	104.62
398.617	106.67
398.826	90.28
399.035	141.48
399.244	127.14
399.453	90.28
399.663	141.48
399.872	63.66
400.081	166.06
400.29	172.2
400.499	22.7
400.708	155.82
400.917	118.95
401.127	102.57
401.336	161.96
401.545	202.92
401.754	145.58
401.963	137.38
402.172	112.81
402.381	112.81
402.59	170.15
402.799	125.1
403.008	108.71
403.217	133.29
403.426	75.95
403.635	133.29
403.844	125.1
404.053	137.38
404.262	145.58
404.471	133.29
404.68	106.67
404.888	153.77
405.097	196.78
405.306	194.73
405.515	141.48
405.724	217.26
405.933	239.78
406.142	110.76
406.35	194.73
406.559	176.3
406.768	204.97
406.977	229.54
407.185	305.32
407.394	233.64
407.603	182.44
407.812	196.78
408.02	276.65
408.229	174.25
408.438	178.34
408.646	239.78
408.855	229.54
409.064	258.21
409.272	215.21
409.481	290.98
409.69	321.7
409.898	270.5
410.107	311.46
410.315	399.52
410.524	288.93
410.733	266.41
410.941	395.43
411.15	395.43
411.358	346.28
411.567	415.91
411.775	356.52
411.984	434.34
412.192	426.15
412.401	477.35
412.609	549.03
412.818	460.96
413.026	485.54
413.234	551.07
413.443	596.13
413.651	528.55
413.86	489.64
414.068	555.17
414.276	602.27
414.485	614.56
414.693	618.66
414.901	651.42
415.11	653.47
415.318	688.29
415.526	800.93
415.734	823.45
415.943	813.21
416.151	788.64
416.359	845.98
416.567	884.89
416.776	936.09
416.984	927.9
417.192	936.09
417.4	1056.92
417.608	962.72
417.817	956.57
418.025	1026.2
418.233	1222.81
418.441	1161.37
418.649	1357.97
418.857	1259.67
419.065	1233.05
419.273	1370.26
419.481	1353.88
419.689	1464.47
419.897	1583.25
420.105	1546.39
420.313	1654.93
420.521	1681.55
420.729	1691.79
420.937	1759.38
421.145	1808.53
421.353	1833.1
421.561	1955.98
421.769	2037.9
421.977	2123.91
422.185	1939.6
422.393	2216.07
422.601	2275.46
422.809	2281.61
423.017	2447.49
423.224	2494.6
423.432	2553.99
423.64	2556.04
423.848	2771.07
424.056	2715.78
424.263	2943.1
424.471	2930.81
424.679	2877.57
424.887	3154.04
425.094	3203.19
425.302	3225.72
425.51	3297.4
425.718	3588.21
425.925	3512.44
426.133	3594.36
426.341	3678.32
426.548	4077.68
426.756	4046.96
426.964	4051.05
427.171	4255.85
427.379	4276.33
427.586	4587.62
427.794	4591.72
428.001	4812.9
428.209	5079.13
428.417	4974.69
428.624	5251.16
428.832	5374.04
429.039	5333.08
429.247	5371.99
429.454	5771.35
429.662	6176.84
429.869	5879.89
430.076	6361.16
430.284	6135.89
430.491	6326.35
430.699	6529.1
430.906	6670.4
431.114	6647.88
431.321	6987.84
431.528	7172.16
431.736	7548.98
431.943	7829.56
432.15	7639.09
432.358	7741.49
432.565	8257.58
432.772	8167.47
432.979	8452.14
433.187	8790.05
433.394	8734.76
433.601	9560.09
433.808	9480.22
434.016	9433.11
434.223	9867.28
434.43	10477.58
434.637	10182.67
434.844	10792.97
435.052	10989.57
435.259	10844.17
435.466	11198.46
435.673	11018.24
435.88	11509.76
436.087	12142.58
436.294	12134.39
436.501	11808.76
436.708	12265.46
436.915	12472.3
437.122	13307.87
437.329	13318.11
437.537	13748.18
437.743	13809.62
437.95	13623.26
438.157	14444.49
438.364	14933.96
438.571	14886.86
438.778	14940.1
438.985	16392.11
439.192	15847.35
439.399	16179.12
439.606	15652.8
439.813	16803.75
440.02	17702.81
440.227	17289.12
440.433	17133.48
440.64	17794.97
440.847	17805.21
441.054	18118.55
441.261	19388.29
441.467	18925.45
441.674	19595.14
441.881	20260.73
442.088	19844.99
442.294	19726.21
442.501	20569.97
442.708	21022.57
442.914	21651.3
443.121	22650.71
443.328	21806.94
443.534	23725.89
443.741	23064.39
443.948	22749.01
444.154	24356.66
444.361	24176.44
444.568	24139.58
444.774	24108.86
444.981	24233.78
445.187	25251.63
445.394	26275.61
445.6	25906.98
445.807	28632.82
446.013	27242.25
446.22	27651.84
446.426	28690.16
446.633	29292.27
446.839	30033.63
447.046	29044.46
447.252	30445.27
447.459	30557.91
447.665	30580.44
447.871	31717.06
448.078	32822.97
448.284	31346.38
448.491	31995.59
448.697	33572.52
448.903	34092.71
449.11	34141.86
449.316	33767.08
449.522	34254.5
449.728	34975.38
449.935	35243.66
450.141	35344.02
450.347	36236.93
450.553	35008.15
450.76	35315.34
450.966	36865.66
451.172	36667
451.378	36935.29
451.584	36411.01
451.791	36912.76
451.997	36955.77
452.203	37619.31
452.409	37742.19
452.615	37846.63
452.821	35911.3
453.027	35769.99
453.233	37602.92
453.44	36048.52
453.646	36673.15
453.852	36519.55
454.058	37039.73
454.264	36089.48
454.47	36720.25
454.676	36433.53
454.882	37213.81
455.088	33937.06
455.294	34567.84
455.5	34967.19
455.705	35673.74
455.911	34086.56
456.117	33289.9
456.323	32908.98
456.529	31381.2
456.735	32450.24
456.941	31573.7
457.147	31323.85
457.352	29902.56
457.558	29904.61
457.764	30154.46
457.97	29495.02
458.176	28782.32
458.381	28544.76
458.587	27205.39
458.793	27434.76
458.999	25970.46
459.204	27784.96
459.41	27012.88
459.616	25227.05
459.821	25038.64
460.027	25354.02
460.233	24571.7
460.438	23172.94
460.644	23648.07
460.85	22417.24
461.055	22329.17
461.261	22255.45
461.466	20598.64
461.672	20051.83
461.878	21241.7
462.083	19810.17
462.289	19767.17
462.494	19289.99
462.7	18556.82
462.905	17901.47
463.111	18476.94
463.316	18718.61
463.522	18372.5
463.727	18575.25
463.932	18057.11
464.138	18102.17
464.343	18233.24
464.549	17641.37
464.754	18358.16
464.959	18091.93
465.165	17899.42
465.37	17088.42
465.575	16863.15
465.781	17278.88
465.986	17487.78
466.191	16715.69
466.397	16631.72
466.602	15607.74
466.807	16330.67
467.012	16445.36
467.218	16246.71
467.423	16099.25
