Data from USB4F104151__95__11-45-47-085.txt Node

Date: Fri Mar 14 11:45:47 EDT 2025
User: louis
Spectrometer: USB4F10415
Trigger mode: 4
Integration Time (sec): 2.000000E-2
Scans to average: 1
Electric dark correction enabled: true
Nonlinearity correction enabled: false
Boxcar width: 0
XAxis mode: Wavelengths
Number of Pixels in Spectrum: 3648
>>>>>Begin Spectral Data<<<<<
178.204	-38.57
178.424	-38.57
178.644	-38.57
178.864	-128.68
179.084	-59.05
179.304	29.01
179.524	-22.19
179.744	-7.85
179.964	10.58
180.184	-3.75
180.404	12.63
180.624	2.39
180.844	-36.52
181.064	-24.23
181.283	22.87
181.503	-24.23
181.723	41.3
181.943	-28.33
182.163	94.55
182.383	-24.23
182.602	-18.09
182.822	112.98
183.042	84.31
183.262	47.44
183.482	57.68
183.701	-69.29
183.921	16.73
184.141	-28.33
184.361	49.49
184.58	72.02
184.8	-30.38
185.02	39.25
185.239	41.3
185.459	84.31
185.679	-40.62
185.898	2.39
186.118	14.68
186.338	0.34
186.557	-11.95
186.777	-44.71
186.997	-26.28
187.216	37.2
187.436	16.73
187.655	102.74
187.875	39.25
188.095	24.92
188.314	39.25
188.534	69.97
188.753	57.68
188.973	16.73
189.192	63.83
189.412	-5.8
189.631	-42.67
189.851	4.44
190.07	12.63
190.29	37.2
190.509	24.92
190.729	65.88
190.948	41.3
191.168	147.8
191.387	69.97
191.607	-24.23
191.826	-11.95
192.045	63.83
192.265	53.59
192.484	-11.95
192.704	4.44
192.923	-24.23
193.142	47.44
193.362	37.2
193.581	8.53
193.8	90.45
194.02	35.16
194.239	-3.75
194.458	20.82
194.678	-20.14
194.897	69.97
195.116	76.12
195.335	20.82
195.555	78.16
195.774	-5.8
195.993	86.36
196.212	47.44
196.432	45.4
196.651	6.49
196.87	37.2
197.089	39.25
197.308	67.92
197.528	35.16
197.747	-22.19
197.966	16.73
198.185	6.49
198.404	37.2
198.623	37.2
198.842	80.21
199.062	78.16
199.281	57.68
199.5	78.16
199.719	-16.04
199.938	104.79
200.157	51.54
200.376	-26.28
200.595	0.34
200.814	29.01
201.033	31.06
201.252	14.68
201.471	-52.91
201.69	61.78
201.909	39.25
202.128	69.97
202.347	4.44
202.566	33.11
202.785	-32.43
203.004	31.06
203.223	80.21
203.442	0.34
203.661	41.3
203.879	10.58
204.098	10.58
204.317	53.59
204.536	41.3
204.755	59.73
204.974	45.4
205.193	69.97
205.411	41.3
205.63	78.16
205.849	24.92
206.068	12.63
206.287	-16.04
206.505	26.96
206.724	-1.71
206.943	-22.19
207.162	26.96
207.381	37.2
207.599	22.87
207.818	39.25
208.037	33.11
208.255	20.82
208.474	-18.09
208.693	6.49
208.911	100.69
209.13	102.74
209.349	2.39
209.567	115.03
209.786	51.54
210.005	14.68
210.223	98.64
210.442	-5.8
210.661	12.63
210.879	31.06
211.098	74.07
211.316	100.69
211.535	65.88
211.753	18.77
211.972	57.68
212.191	35.16
212.409	29.01
212.628	63.83
212.846	100.69
213.065	24.92
213.283	43.35
213.502	63.83
213.72	37.2
213.938	74.07
214.157	37.2
214.375	37.2
214.594	98.64
214.812	16.73
215.031	-5.8
215.249	-48.81
215.467	59.73
215.686	-5.8
215.904	74.07
216.122	4.44
216.341	37.2
216.559	-38.57
216.778	33.11
216.996	2.39
217.214	26.96
217.432	10.58
217.651	41.3
217.869	-1.71
218.087	18.77
218.306	-26.28
218.524	2.39
218.742	-13.99
218.96	33.11
219.179	-75.43
219.397	6.49
219.615	12.63
219.833	20.82
220.051	24.92
220.27	80.21
220.488	45.4
220.706	59.73
220.924	45.4
221.142	-13.99
221.36	90.45
221.578	8.53
221.796	-3.75
222.015	59.73
222.233	-16.04
222.451	22.87
222.669	-44.71
222.887	29.01
223.105	-65.19
223.323	69.97
223.541	74.07
223.759	-36.52
223.977	16.73
224.195	61.78
224.413	-1.71
224.631	10.58
224.849	51.54
225.067	63.83
225.285	-26.28
225.503	20.82
225.721	55.64
225.939	72.02
226.157	74.07
226.375	76.12
226.592	55.64
226.81	59.73
227.028	-38.57
227.246	-100.01
227.464	47.44
227.682	84.31
227.9	69.97
228.117	18.77
228.335	45.4
228.553	59.73
228.771	53.59
228.989	16.73
229.206	6.49
229.424	2.39
229.642	41.3
229.86	10.58
230.077	-3.75
230.295	12.63
230.513	76.12
230.731	8.53
230.948	45.4
231.166	78.16
231.384	35.16
231.601	4.44
231.819	2.39
232.037	51.54
232.254	-18.09
232.472	-3.75
232.689	10.58
232.907	67.92
233.125	8.53
233.342	22.87
233.56	-1.71
233.777	39.25
233.995	39.25
234.213	18.77
234.43	61.78
234.648	31.06
234.865	-16.04
235.083	92.5
235.3	-5.8
235.518	45.4
235.735	4.44
235.953	61.78
236.17	4.44
236.388	41.3
236.605	41.3
236.822	96.6
237.04	43.35
237.257	125.27
237.475	49.49
237.692	43.35
237.909	-7.85
238.127	82.26
238.344	-38.57
238.562	100.69
238.779	8.53
238.996	-1.71
239.214	8.53
239.431	35.16
239.648	51.54
239.865	45.4
240.083	53.59
240.3	12.63
240.517	-65.19
240.735	78.16
240.952	55.64
241.169	35.16
241.386	26.96
241.603	16.73
241.821	26.96
242.038	35.16
242.255	22.87
242.472	14.68
242.689	45.4
242.907	37.2
243.124	76.12
243.341	-16.04
243.558	61.78
243.775	0.34
243.992	14.68
244.209	78.16
244.426	104.79
244.643	26.96
244.86	55.64
245.078	127.32
245.295	47.44
245.512	127.32
245.729	55.64
245.946	31.06
246.163	22.87
246.38	22.87
246.597	41.3
246.814	12.63
247.031	37.2
247.248	-16.04
247.464	35.16
247.681	26.96
247.898	10.58
248.115	74.07
248.332	-20.14
248.549	33.11
248.766	61.78
248.983	67.92
249.2	55.64
249.417	31.06
249.633	24.92
249.85	117.08
250.067	-5.8
250.284	16.73
250.501	-46.76
250.717	100.69
250.934	29.01
251.151	2.39
251.368	20.82
251.585	123.22
251.801	31.06
252.018	26.96
252.235	72.02
252.451	51.54
252.668	-9.9
252.885	125.27
253.102	67.92
253.318	29.01
253.535	49.49
253.752	18.77
253.968	39.25
254.185	-11.95
254.401	119.12
254.618	33.11
254.835	-7.85
255.051	53.59
255.268	24.92
255.484	53.59
255.701	31.06
255.917	14.68
256.134	-24.23
256.351	86.36
256.567	4.44
256.784	-11.95
257	26.96
257.217	24.92
257.433	26.96
257.65	4.44
257.866	51.54
258.082	-9.9
258.299	-1.71
258.515	65.88
258.732	-63.15
258.948	-48.81
259.165	53.59
259.381	22.87
259.597	22.87
259.814	20.82
260.03	-48.81
260.246	29.01
260.463	67.92
260.679	100.69
260.895	55.64
261.112	37.2
261.328	-20.14
261.544	-20.14
261.761	35.16
261.977	24.92
262.193	-32.43
262.409	47.44
262.626	4.44
262.842	-7.85
263.058	12.63
263.274	33.11
263.49	0.34
263.707	37.2
263.923	35.16
264.139	-22.19
264.355	57.68
264.571	65.88
264.787	72.02
265.004	-9.9
265.22	12.63
265.436	63.83
265.652	8.53
265.868	-7.85
266.084	-28.33
266.3	59.73
266.516	10.58
266.732	18.77
266.948	2.39
267.164	6.49
267.38	43.35
267.596	57.68
267.812	61.78
268.028	86.36
268.244	24.92
268.46	78.16
268.676	82.26
268.892	37.2
269.108	63.83
269.324	59.73
269.54	-20.14
269.756	94.55
269.972	4.44
270.188	-7.85
270.403	26.96
270.619	67.92
270.835	-1.71
271.051	0.34
271.267	-22.19
271.483	0.34
271.698	43.35
271.914	24.92
272.13	55.64
272.346	-3.75
272.562	88.4
272.777	49.49
272.993	29.01
273.209	43.35
273.425	45.4
273.64	33.11
273.856	65.88
274.072	26.96
274.287	8.53
274.503	80.21
274.719	-40.62
274.934	10.58
275.15	-20.14
275.366	110.93
275.581	49.49
275.797	69.97
276.012	-34.47
276.228	22.87
276.444	-36.52
276.659	49.49
276.875	-5.8
277.09	24.92
277.306	84.31
277.521	59.73
277.737	57.68
277.952	53.59
278.168	35.16
278.383	127.32
278.599	18.77
278.814	37.2
279.03	-11.95
279.245	59.73
279.461	80.21
279.676	49.49
279.892	37.2
280.107	72.02
280.322	-20.14
280.538	12.63
280.753	20.82
280.969	43.35
281.184	57.68
281.399	65.88
281.615	82.26
281.83	31.06
282.045	131.41
282.26	59.73
282.476	4.44
282.691	63.83
282.906	112.98
283.122	35.16
283.337	16.73
283.552	4.44
283.767	57.68
283.983	12.63
284.198	37.2
284.413	12.63
284.628	8.53
284.843	16.73
285.058	-5.8
285.274	76.12
285.489	18.77
285.704	59.73
285.919	2.39
286.134	63.83
286.349	-34.47
286.564	67.92
286.779	41.3
286.995	33.11
287.21	98.64
287.425	-28.33
287.64	88.4
287.855	33.11
288.07	12.63
288.285	16.73
288.5	2.39
288.715	33.11
288.93	45.4
289.145	26.96
289.36	41.3
289.575	8.53
289.79	33.11
290.004	-3.75
290.219	84.31
290.434	-36.52
290.649	47.44
290.864	-3.75
291.079	6.49
291.294	26.96
291.509	92.5
291.724	-7.85
291.938	39.25
292.153	82.26
292.368	8.53
292.583	86.36
292.798	67.92
293.012	74.07
293.227	-13.99
293.442	51.54
293.657	29.01
293.871	110.93
294.086	74.07
294.301	14.68
294.516	49.49
294.73	55.64
294.945	45.4
295.16	108.88
295.374	59.73
295.589	24.92
295.804	78.16
296.018	45.4
296.233	12.63
296.447	49.49
296.662	-1.71
296.877	76.12
297.091	26.96
297.306	94.55
297.52	-5.8
297.735	10.58
297.949	84.31
298.164	37.2
298.378	29.01
298.593	74.07
298.807	8.53
299.022	45.4
299.236	63.83
299.451	-52.91
299.665	24.92
299.88	2.39
300.094	102.74
300.309	65.88
300.523	110.93
300.737	49.49
300.952	43.35
301.166	84.31
301.381	24.92
301.595	51.54
301.809	4.44
302.024	72.02
302.238	37.2
302.452	20.82
302.667	-61.1
302.881	22.87
303.095	24.92
303.309	47.44
303.524	16.73
303.738	139.6
303.952	76.12
304.166	45.4
304.381	-11.95
304.595	141.65
304.809	-1.71
305.023	43.35
305.237	74.07
305.452	18.77
305.666	106.84
305.88	55.64
306.094	78.16
306.308	45.4
306.522	22.87
306.736	80.21
306.95	24.92
307.164	6.49
307.379	39.25
307.593	96.6
307.807	49.49
308.021	-7.85
308.235	88.4
308.449	49.49
308.663	0.34
308.877	69.97
309.091	41.3
309.305	31.06
309.519	26.96
309.733	22.87
309.947	26.96
310.161	37.2
310.374	29.01
310.588	76.12
310.802	92.5
311.016	65.88
311.23	4.44
311.444	6.49
311.658	61.78
311.872	18.77
312.085	104.79
312.299	49.49
312.513	-9.9
312.727	106.84
312.941	-3.75
313.154	12.63
313.368	110.93
313.582	33.11
313.796	96.6
314.009	14.68
314.223	22.87
314.437	-7.85
314.651	108.88
314.864	49.49
315.078	10.58
315.292	-22.19
315.505	-22.19
315.719	6.49
315.933	43.35
316.146	51.54
316.36	-11.95
316.573	80.21
316.787	-3.75
317.001	33.11
317.214	2.39
317.428	12.63
317.641	65.88
317.855	26.96
318.068	96.6
318.282	55.64
318.495	94.55
318.709	67.92
318.922	92.5
319.136	29.01
319.349	41.3
319.563	-44.71
319.776	12.63
319.99	-26.28
320.203	37.2
320.417	49.49
320.63	100.69
320.843	123.22
321.057	45.4
321.27	84.31
321.483	35.16
321.697	33.11
321.91	53.59
322.124	-22.19
322.337	22.87
322.55	72.02
322.763	-38.57
322.977	41.3
323.19	51.54
323.403	57.68
323.617	-28.33
323.83	18.77
324.043	14.68
324.256	127.32
324.469	4.44
324.683	33.11
324.896	45.4
325.109	55.64
325.322	6.49
325.535	6.49
325.748	72.02
325.962	-20.14
326.175	18.77
326.388	131.41
326.601	51.54
326.814	53.59
327.027	16.73
327.24	74.07
327.453	49.49
327.666	174.42
327.879	115.03
328.092	90.45
328.305	-83.63
328.518	45.4
328.731	14.68
328.944	57.68
329.157	112.98
329.37	112.98
329.583	74.07
329.796	88.4
330.009	-20.14
330.222	45.4
330.435	74.07
330.648	-3.75
330.861	41.3
331.073	-1.71
331.286	90.45
331.499	8.53
331.712	4.44
331.925	53.59
332.138	55.64
332.35	90.45
332.563	47.44
332.776	145.75
332.989	-16.04
333.202	6.49
333.414	31.06
333.627	31.06
333.84	69.97
334.053	74.07
334.265	61.78
334.478	-5.8
334.691	6.49
334.903	-36.52
335.116	18.77
335.329	55.64
335.541	35.16
335.754	49.49
335.966	16.73
336.179	35.16
336.392	14.68
336.604	78.16
336.817	96.6
337.029	49.49
337.242	12.63
337.454	35.16
337.667	41.3
337.88	18.77
338.092	-26.28
338.305	180.56
338.517	55.64
338.729	69.97
338.942	4.44
339.154	74.07
339.367	12.63
339.579	31.06
339.792	61.78
340.004	24.92
340.217	63.83
340.429	24.92
340.641	59.73
340.854	18.77
341.066	39.25
341.278	96.6
341.491	127.32
341.703	-3.75
341.915	47.44
342.128	90.45
342.34	74.07
342.552	37.2
342.764	41.3
342.977	22.87
343.189	47.44
343.401	37.2
343.613	26.96
343.826	-1.71
344.038	26.96
344.25	53.59
344.462	2.39
344.674	39.25
344.886	47.44
345.099	4.44
345.311	74.07
345.523	94.55
345.735	29.01
345.947	51.54
346.159	63.83
346.371	61.78
346.583	14.68
346.795	63.83
347.007	43.35
347.219	96.6
347.431	41.3
347.643	76.12
347.855	37.2
348.067	100.69
348.279	4.44
348.491	82.26
348.703	72.02
348.915	16.73
349.127	29.01
349.339	80.21
349.551	-54.95
349.763	61.78
349.975	-9.9
350.187	78.16
350.399	90.45
350.61	-7.85
350.822	78.16
351.034	29.01
351.246	31.06
351.458	2.39
351.669	72.02
351.881	16.73
352.093	63.83
352.305	102.74
352.517	39.25
352.728	67.92
352.94	20.82
353.152	29.01
353.363	-48.81
353.575	80.21
353.787	63.83
353.999	43.35
354.21	35.16
354.422	39.25
354.633	61.78
354.845	82.26
355.057	-24.23
355.268	63.83
355.48	82.26
355.692	-9.9
355.903	88.4
356.115	0.34
356.326	16.73
356.538	33.11
356.749	90.45
356.961	86.36
357.172	29.01
357.384	53.59
357.595	96.6
357.807	96.6
358.018	35.16
358.23	-9.9
358.441	121.17
358.653	45.4
358.864	4.44
359.075	0.34
359.287	35.16
359.498	53.59
359.709	82.26
359.921	82.26
360.132	4.44
360.344	43.35
360.555	57.68
360.766	53.59
360.977	-30.38
361.189	53.59
361.4	65.88
361.611	18.77
361.823	57.68
362.034	-5.8
362.245	-22.19
362.456	35.16
362.667	35.16
362.879	100.69
363.09	41.3
363.301	41.3
363.512	-38.57
363.723	67.92
363.935	-1.71
364.146	41.3
364.357	88.4
364.568	57.68
364.779	-7.85
364.99	20.82
365.201	35.16
365.412	80.21
365.623	0.34
365.834	22.87
366.045	47.44
366.256	76.12
366.467	63.83
366.678	41.3
366.889	31.06
367.1	72.02
367.311	59.73
367.522	-5.8
367.733	63.83
367.944	24.92
368.155	63.83
368.366	37.2
368.577	24.92
368.788	49.49
368.999	-44.71
369.209	39.25
369.42	37.2
369.631	74.07
369.842	-36.52
370.053	55.64
370.264	12.63
370.474	123.22
370.685	55.64
370.896	24.92
371.107	57.68
371.317	39.25
371.528	69.97
371.739	47.44
371.95	57.68
372.16	22.87
372.371	-36.52
372.582	-40.62
372.792	119.12
373.003	35.16
373.214	92.5
373.424	88.4
373.635	2.39
373.846	51.54
374.056	20.82
374.267	100.69
374.477	29.01
374.688	14.68
374.898	153.94
375.109	102.74
375.319	80.21
375.53	72.02
375.74	14.68
375.951	51.54
376.161	47.44
376.372	72.02
376.582	35.16
376.793	123.22
377.003	-18.09
377.214	76.12
377.424	78.16
377.635	55.64
377.845	35.16
378.055	26.96
378.266	-13.99
378.476	96.6
378.686	18.77
378.897	110.93
379.107	55.64
379.317	84.31
379.528	72.02
379.738	117.08
379.948	24.92
380.158	80.21
380.369	78.16
380.579	90.45
380.789	84.31
380.999	92.5
381.21	100.69
381.42	76.12
381.63	67.92
381.84	106.84
382.05	0.34
382.261	39.25
382.471	16.73
382.681	53.59
382.891	24.92
383.101	129.36
383.311	100.69
383.521	88.4
383.731	51.54
383.941	45.4
384.151	80.21
384.361	-20.14
384.571	94.55
384.781	41.3
384.991	45.4
385.201	106.84
385.411	80.21
385.621	24.92
385.831	88.4
386.041	57.68
386.251	39.25
386.461	90.45
386.671	63.83
386.881	137.56
387.091	41.3
387.301	102.74
387.511	82.26
387.72	67.92
387.93	63.83
388.14	74.07
388.35	20.82
388.56	51.54
388.769	100.69
388.979	53.59
389.189	16.73
389.399	-3.75
389.609	78.16
389.818	69.97
390.028	24.92
390.238	82.26
390.447	76.12
390.657	88.4
390.867	53.59
391.076	76.12
391.286	135.51
391.496	119.12
391.705	61.78
391.915	133.46
392.125	51.54
392.334	61.78
392.544	41.3
392.753	104.79
392.963	-7.85
393.172	12.63
393.382	53.59
393.591	135.51
393.801	76.12
394.01	78.16
394.22	115.03
394.429	78.16
394.639	35.16
394.848	35.16
395.058	61.78
395.267	78.16
395.477	49.49
395.686	119.12
395.895	143.7
396.105	117.08
396.314	84.31
396.524	186.71
396.733	90.45
396.942	14.68
397.152	12.63
397.361	123.22
397.57	65.88
397.78	78.16
397.989	84.31
398.198	145.75
398.407	94.55
398.617	82.26
398.826	119.12
399.035	153.94
399.244	98.64
399.453	135.51
399.663	94.55
399.872	178.51
400.081	201.04
400.29	131.41
400.499	43.35
400.708	119.12
400.917	96.6
401.127	115.03
401.336	106.84
401.545	121.17
401.754	84.31
401.963	102.74
402.172	139.6
402.381	29.01
402.59	127.32
402.799	92.5
403.008	49.49
403.217	94.55
403.426	86.36
403.635	67.92
403.844	98.64
404.053	127.32
404.262	174.42
404.471	203.09
404.68	110.93
404.888	76.12
405.097	51.54
405.306	143.7
405.515	143.7
405.724	149.84
405.933	149.84
406.142	164.18
406.35	203.09
406.559	219.47
406.768	242
406.977	235.86
407.185	246.1
407.394	155.99
407.603	178.51
407.812	184.66
408.02	194.9
408.229	164.18
408.438	153.94
408.646	194.9
408.855	258.39
409.064	209.23
409.272	225.62
409.481	272.72
409.69	235.86
409.898	248.15
410.107	295.25
410.315	252.24
410.524	246.1
410.733	301.39
410.941	250.19
411.15	317.78
411.358	344.4
411.567	325.97
411.775	364.88
411.984	305.49
412.192	385.36
412.401	430.41
412.609	500.05
412.818	452.94
413.026	399.7
413.234	434.51
413.443	512.33
413.651	424.27
413.86	444.75
414.068	530.77
414.276	536.91
414.485	502.09
414.693	524.62
414.901	618.83
415.11	604.49
415.318	565.58
415.526	717.13
415.734	655.69
415.943	747.85
416.151	713.03
416.359	713.03
416.567	790.86
416.776	780.62
416.984	823.62
417.192	899.4
417.4	893.26
417.608	840.01
417.817	837.96
418.025	1028.42
418.233	1018.18
418.441	1024.33
418.649	946.5
418.857	1065.29
419.065	1122.63
419.273	1057.09
419.481	1192.26
419.689	1265.99
419.897	1288.51
420.105	1395.01
420.313	1384.77
420.521	1456.45
420.729	1376.58
420.937	1409.34
421.145	1554.75
421.353	1630.52
421.561	1632.57
421.769	1669.44
421.977	1718.59
422.185	1810.75
422.393	1849.66
422.601	1919.29
422.809	1943.86
423.017	2085.17
423.224	2015.54
423.432	2119.99
423.64	2203.96
423.848	2343.22
424.056	2302.26
424.263	2462
424.471	2535.73
424.679	2486.58
424.887	2668.84
425.094	2799.91
425.302	2763.05
425.51	2791.72
425.718	2851.11
425.925	2963.75
426.133	3109.16
426.341	3168.55
426.548	3309.86
426.756	3393.83
426.964	3510.56
427.171	3481.89
427.379	3709.21
427.586	3672.35
427.794	3825.95
428.001	4124.95
428.209	4292.88
428.417	4149.53
428.624	4286.74
428.832	4505.87
429.039	4440.34
429.247	4450.58
429.454	4796.68
429.662	5146.89
429.869	4901.13
430.076	5261.57
430.284	5187.85
430.491	5370.12
430.699	5581.06
430.906	5603.58
431.114	5447.94
431.321	5759.23
431.528	6056.18
431.736	6443.25
431.943	6605.04
432.15	6316.28
432.358	6609.14
432.565	6863.08
432.772	6777.07
432.979	7170.28
433.187	7370.98
433.394	7387.36
433.601	7708.9
433.808	7758.05
434.016	7790.81
434.223	8157.4
434.43	8710.35
434.637	8368.34
434.844	8974.54
435.052	9205.96
435.259	9160.91
435.466	9199.82
435.673	9224.39
435.88	9844.93
436.087	10254.52
436.294	10326.2
436.501	9980.09
436.708	10184.89
436.915	10877.1
437.122	11053.23
437.329	10952.88
437.537	11272.36
437.743	11602.08
437.95	11389.1
438.157	11878.56
438.364	12378.26
438.571	12433.56
438.778	12220.57
438.985	13656.2
439.192	12814.48
439.399	13293.71
439.606	13287.56
439.813	13953.15
440.02	14770.29
440.227	14512.25
440.433	14729.33
440.64	14794.87
440.847	14667.89
441.054	15112.3
441.261	16216.16
441.467	15784.04
441.674	16255.07
441.881	16918.61
442.088	16830.55
442.294	16681.05
442.501	17033.3
442.708	17412.17
442.914	18124.86
443.121	19054.64
443.328	18356.29
443.534	19714.09
443.741	19007.54
443.948	18628.67
444.154	20375.58
444.361	20244.51
444.568	20607
444.774	20058.15
444.981	20396.06
445.187	21139.47
445.394	22110.21
445.6	21862.41
445.807	23744.49
446.013	22788.09
446.22	23220.21
446.426	24322.02
446.633	24317.92
446.839	24956.89
447.046	23918.57
447.252	25595.85
447.459	25509.84
447.665	25561.04
447.871	26427.33
448.078	27457.46
448.284	26185.67
448.491	27058.1
448.697	27971.5
448.903	28503.97
449.11	28729.25
449.316	28194.73
449.522	28782.49
449.728	29726.61
449.935	29769.62
450.141	29650.83
450.347	30510.98
450.553	29509.52
450.76	29470.61
450.966	30766.98
451.172	30375.81
451.378	31068.03
451.584	30515.08
451.791	31156.09
451.997	31147.9
452.203	32012.14
452.409	31692.66
452.615	31807.34
452.821	30394.25
453.027	30543.75
453.233	32001.9
453.44	30529.41
453.646	31074.17
453.852	31389.56
454.058	31756.14
454.264	30506.88
454.47	30922.62
454.676	30596.99
454.882	31471.48
455.088	28540.83
455.294	29357.97
455.5	29765.52
455.705	30136.2
455.911	28630.94
456.117	28137.38
456.323	27725.74
456.529	26347.46
456.735	27555.76
456.941	26945.47
457.147	26204.1
457.352	25782.22
457.558	25384.91
457.764	25290.71
457.97	24696.8
458.176	24328.16
458.381	23963.62
458.587	23126
458.793	23345.14
458.999	22083.59
459.204	23480.3
459.41	23097.33
459.616	21205.01
459.821	21418
460.027	21430.29
460.233	20469.79
460.438	19796.01
460.644	20023.33
460.85	19038.26
461.055	18960.44
461.261	18681.91
461.466	17199.18
461.672	17000.53
461.878	18094.15
462.083	17023.06
462.289	16599.13
462.494	16549.98
462.7	15503.46
462.905	15186.03
463.111	16044.13
463.316	15851.62
463.522	15480.94
463.727	15392.87
463.932	15401.07
464.138	15462.51
464.343	15298.67
464.549	15020.14
464.754	15384.68
464.959	15310.96
465.165	15028.34
465.37	14428.28
465.575	14076.03
465.781	14964.85
465.986	14917.75
466.191	14340.22
466.397	14127.23
466.602	13357.19
466.807	13691.01
467.012	13738.12
467.218	13944.96
467.423	13750.4
467.628	13635.72
467.833	13854.85
468.038	13451.4
468.244	13201.55
468.449	13856.9
468.654	13093.01
