Data from USB4F104151__57__11-45-15-589.txt Node

Date: Fri Mar 14 11:45:15 EDT 2025
User: louis
Spectrometer: USB4F10415
Trigger mode: 4
Integration Time (sec): 2.000000E-2
Scans to average: 1
Electric dark correction enabled: true
Nonlinearity correction enabled: false
Boxcar width: 0
XAxis mode: Wavelengths
Number of Pixels in Spectrum: 3648
>>>>>Begin Spectral Data<<<<<
178.204	-109.05
178.424	-109.05
178.644	-109.05
178.864	-72.19
179.084	-68.09
179.304	3.58
179.524	-41.47
179.744	-10.75
179.964	69.12
180.184	-64
180.404	-31.23
180.624	-37.38
180.844	26.11
181.064	46.59
181.283	36.35
181.503	-10.75
181.723	13.82
181.943	-10.75
182.163	38.4
182.383	40.45
182.602	36.35
182.822	40.45
183.042	-14.85
183.262	-2.56
183.482	32.26
183.701	34.3
183.921	13.82
184.141	-2.56
184.361	67.07
184.58	17.92
184.8	-59.9
185.02	65.02
185.239	7.68
185.459	-37.38
185.679	13.82
185.898	-43.52
186.118	65.02
186.338	81.41
186.557	83.45
186.777	50.69
186.997	44.54
187.216	-29.18
187.436	34.3
187.655	19.97
187.875	42.5
188.095	-0.51
188.314	28.16
188.534	13.82
188.753	-16.9
188.973	-29.18
189.192	22.02
189.412	44.54
189.631	17.92
189.851	65.02
190.07	15.87
190.29	5.63
190.509	17.92
190.729	42.5
190.948	42.5
191.168	105.98
191.387	73.21
191.607	-47.62
191.826	26.11
192.045	52.74
192.265	7.68
192.484	67.07
192.704	48.64
192.923	-39.42
193.142	77.31
193.362	132.61
193.581	60.93
193.8	-33.28
194.02	54.78
194.239	-12.8
194.458	5.63
194.678	40.45
194.897	36.35
195.116	26.11
195.335	-6.66
195.555	91.65
195.774	38.4
195.993	30.21
196.212	60.93
196.432	77.31
196.651	126.46
196.87	-25.09
197.089	95.74
197.308	-33.28
197.528	-0.51
197.747	-72.19
197.966	28.16
198.185	46.59
198.404	91.65
198.623	-10.75
198.842	79.36
199.062	-10.75
199.281	103.93
199.5	42.5
199.719	24.06
199.938	54.78
200.157	52.74
200.376	-6.66
200.595	38.4
200.814	40.45
201.033	105.98
201.252	50.69
201.471	46.59
201.69	34.3
201.909	54.78
202.128	-0.51
202.347	60.93
202.566	52.74
202.785	11.78
203.004	-14.85
203.223	50.69
203.442	5.63
203.661	85.5
203.879	-14.85
204.098	93.69
204.317	11.78
204.536	69.12
204.755	46.59
204.974	138.75
205.193	32.26
205.411	65.02
205.63	28.16
205.849	62.98
206.068	-2.56
206.287	13.82
206.505	56.83
206.724	91.65
206.943	36.35
207.162	30.21
207.381	48.64
207.599	60.93
207.818	-16.9
208.037	54.78
208.255	58.88
208.474	15.87
208.693	-37.38
208.911	5.63
209.13	91.65
209.349	24.06
209.567	54.78
209.786	-2.56
210.005	-29.18
210.223	-2.56
210.442	-25.09
210.661	-12.8
210.879	87.55
211.098	71.17
211.316	15.87
211.535	62.98
211.753	28.16
211.972	77.31
212.191	38.4
212.409	87.55
212.628	54.78
212.846	73.21
213.065	-70.14
213.283	91.65
213.502	28.16
213.72	93.69
213.938	15.87
214.157	5.63
214.375	7.68
214.594	26.11
214.812	73.21
215.031	-16.9
215.249	26.11
215.467	28.16
215.686	95.74
215.904	101.89
216.122	17.92
216.341	138.75
216.559	-41.47
216.778	67.07
216.996	42.5
217.214	30.21
217.432	42.5
217.651	54.78
217.869	75.26
218.087	1.54
218.306	44.54
218.524	3.58
218.742	32.26
218.96	-43.52
219.179	11.78
219.397	38.4
219.615	54.78
219.833	26.11
220.051	40.45
220.27	7.68
220.488	52.74
220.706	44.54
220.924	-39.42
221.142	54.78
221.36	32.26
221.578	54.78
221.796	-16.9
222.015	-33.28
222.233	3.58
222.451	40.45
222.669	13.82
222.887	5.63
223.105	-41.47
223.323	60.93
223.541	-10.75
223.759	19.97
223.977	28.16
224.195	87.55
224.413	-10.75
224.631	26.11
224.849	-2.56
225.067	95.74
225.285	77.31
225.503	60.93
225.721	56.83
225.939	58.88
226.157	50.69
226.375	56.83
226.592	36.35
226.81	46.59
227.028	105.98
227.246	-8.7
227.464	-0.51
227.682	15.87
227.9	83.45
228.117	22.02
228.335	60.93
228.553	114.17
228.771	87.55
228.989	11.78
229.206	60.93
229.424	17.92
229.642	50.69
229.86	17.92
230.077	38.4
230.295	1.54
230.513	24.06
230.731	91.65
230.948	81.41
231.166	22.02
231.384	42.5
231.601	32.26
231.819	99.84
232.037	28.16
232.254	58.88
232.472	7.68
232.689	15.87
232.907	83.45
233.125	1.54
233.342	11.78
233.56	-43.52
233.777	-14.85
233.995	34.3
234.213	142.85
234.43	36.35
234.648	-2.56
234.865	17.92
235.083	22.02
235.3	-2.56
235.518	38.4
235.735	52.74
235.953	-14.85
236.17	-8.7
236.388	30.21
236.605	36.35
236.822	17.92
237.04	48.64
237.257	50.69
237.475	60.93
237.692	97.79
237.909	-8.7
238.127	38.4
238.344	17.92
238.562	69.12
238.779	5.63
238.996	36.35
239.214	-16.9
239.431	60.93
239.648	-37.38
239.865	42.5
240.083	38.4
240.3	-39.42
240.517	7.68
240.735	112.13
240.952	32.26
241.169	24.06
241.386	5.63
241.603	30.21
241.821	28.16
242.038	69.12
242.255	73.21
242.472	22.02
242.689	60.93
242.907	44.54
243.124	17.92
243.341	44.54
243.558	36.35
243.775	1.54
243.992	5.63
244.209	7.68
244.426	56.83
244.643	67.07
244.86	19.97
245.078	79.36
245.295	85.5
245.512	30.21
245.729	38.4
245.946	28.16
246.163	52.74
246.38	93.69
246.597	15.87
246.814	-39.42
247.031	91.65
247.248	42.5
247.464	24.06
247.681	28.16
247.898	-6.66
248.115	13.82
248.332	-6.66
248.549	38.4
248.766	52.74
248.983	5.63
249.2	48.64
249.417	40.45
249.633	77.31
249.85	1.54
250.067	-43.52
250.284	83.45
250.501	52.74
250.717	-6.66
250.934	54.78
251.151	103.93
251.368	28.16
251.585	48.64
251.801	36.35
252.018	13.82
252.235	56.83
252.451	3.58
252.668	99.84
252.885	38.4
253.102	11.78
253.318	60.93
253.535	-20.99
253.752	7.68
253.968	24.06
254.185	13.82
254.401	71.17
254.618	62.98
254.835	-18.94
255.051	60.93
255.268	22.02
255.484	58.88
255.701	7.68
255.917	93.69
256.134	40.45
256.351	-8.7
256.567	17.92
256.784	44.54
257	-33.28
257.217	3.58
257.433	87.55
257.65	24.06
257.866	26.11
258.082	15.87
258.299	32.26
258.515	11.78
258.732	11.78
258.948	9.73
259.165	56.83
259.381	62.98
259.597	48.64
259.814	71.17
260.03	62.98
260.246	58.88
260.463	52.74
260.679	58.88
260.895	11.78
261.112	58.88
261.328	24.06
261.544	5.63
261.761	103.93
261.977	15.87
262.193	36.35
262.409	81.41
262.626	48.64
262.842	32.26
263.058	89.6
263.274	69.12
263.49	-0.51
263.707	-31.23
263.923	136.7
264.139	-6.66
264.355	-4.61
264.571	124.41
264.787	-10.75
265.004	97.79
265.22	83.45
265.436	19.97
265.652	91.65
265.868	15.87
266.084	30.21
266.3	69.12
266.516	-6.66
266.732	124.41
266.948	91.65
267.164	22.02
267.38	-6.66
267.596	56.83
267.812	97.79
268.028	42.5
268.244	71.17
268.46	24.06
268.676	-10.75
268.892	75.26
269.108	62.98
269.324	48.64
269.54	-37.38
269.756	19.97
269.972	5.63
270.188	54.78
270.403	24.06
270.619	9.73
270.835	19.97
271.051	62.98
271.267	1.54
271.483	26.11
271.698	50.69
271.914	56.83
272.13	32.26
272.346	5.63
272.562	-47.62
272.777	22.02
272.993	56.83
273.209	40.45
273.425	79.36
273.64	1.54
273.856	36.35
274.072	24.06
274.287	9.73
274.503	79.36
274.719	38.4
274.934	52.74
275.15	-33.28
275.366	101.89
275.581	-23.04
275.797	69.12
276.012	22.02
276.228	56.83
276.444	58.88
276.659	134.65
276.875	24.06
277.09	69.12
277.306	40.45
277.521	67.07
277.737	89.6
277.952	50.69
278.168	120.32
278.383	50.69
278.599	22.02
278.814	46.59
279.03	-4.61
279.245	99.84
279.461	87.55
279.676	9.73
279.892	3.58
280.107	56.83
280.322	99.84
280.538	5.63
280.753	19.97
280.969	48.64
281.184	13.82
281.399	42.5
281.615	73.21
281.83	17.92
282.045	65.02
282.26	22.02
282.476	-8.7
282.691	34.3
282.906	24.06
283.122	-27.14
283.337	26.11
283.552	56.83
283.767	9.73
283.983	73.21
284.198	75.26
284.413	-16.9
284.628	60.93
284.843	22.02
285.058	83.45
285.274	24.06
285.489	99.84
285.704	93.69
285.919	36.35
286.134	46.59
286.349	75.26
286.564	60.93
286.779	91.65
286.995	42.5
287.21	-41.47
287.425	34.3
287.64	-23.04
287.855	50.69
288.07	13.82
288.285	11.78
288.5	40.45
288.715	114.17
288.93	1.54
289.145	24.06
289.36	26.11
289.575	13.82
289.79	46.59
290.004	3.58
290.219	15.87
290.434	-10.75
290.649	-27.14
290.864	19.97
291.079	17.92
291.294	71.17
291.509	9.73
291.724	40.45
291.938	22.02
292.153	36.35
292.368	83.45
292.583	30.21
292.798	38.4
293.012	79.36
293.227	-2.56
293.442	38.4
293.657	34.3
293.871	87.55
294.086	40.45
294.301	103.93
294.516	56.83
294.73	50.69
294.945	5.63
295.16	40.45
295.374	71.17
295.589	105.98
295.804	-37.38
296.018	15.87
296.233	79.36
296.447	38.4
296.662	56.83
296.877	7.68
297.091	58.88
297.306	56.83
297.52	22.02
297.735	32.26
297.949	30.21
298.164	58.88
298.378	75.26
298.593	81.41
298.807	26.11
299.022	101.89
299.236	95.74
299.451	24.06
299.665	-10.75
299.88	103.93
300.094	62.98
300.309	73.21
300.523	30.21
300.737	73.21
300.952	42.5
301.166	50.69
301.381	17.92
301.595	75.26
301.809	26.11
302.024	81.41
302.238	24.06
302.452	28.16
302.667	19.97
302.881	58.88
303.095	-29.18
303.309	69.12
303.524	-27.14
303.738	114.17
303.952	46.59
304.166	65.02
304.381	-43.52
304.595	99.84
304.809	65.02
305.023	38.4
305.237	7.68
305.452	13.82
305.666	36.35
305.88	77.31
306.094	58.88
306.308	69.12
306.522	79.36
306.736	17.92
306.95	83.45
307.164	48.64
307.379	22.02
307.593	40.45
307.807	69.12
308.021	42.5
308.235	58.88
308.449	7.68
308.663	19.97
308.877	28.16
309.091	-0.51
309.305	17.92
309.519	97.79
309.733	-2.56
309.947	1.54
310.161	46.59
310.374	-55.81
310.588	54.78
310.802	15.87
311.016	69.12
311.23	71.17
311.444	42.5
311.658	52.74
311.872	50.69
312.085	48.64
312.299	87.55
312.513	69.12
312.727	38.4
312.941	42.5
313.154	-0.51
313.368	99.84
313.582	95.74
313.796	50.69
314.009	89.6
314.223	24.06
314.437	22.02
314.651	17.92
314.864	103.93
315.078	69.12
315.292	19.97
315.505	36.35
315.719	83.45
315.933	112.13
316.146	40.45
316.36	-8.7
316.573	122.37
316.787	65.02
317.001	87.55
317.214	-6.66
317.428	46.59
317.641	-18.94
317.855	60.93
318.068	19.97
318.282	-6.66
318.495	1.54
318.709	103.93
318.922	19.97
319.136	48.64
319.349	62.98
319.563	34.3
319.776	1.54
319.99	46.59
320.203	-31.23
320.417	77.31
320.63	85.5
320.843	108.03
321.057	17.92
321.27	7.68
321.483	13.82
321.697	22.02
321.91	1.54
322.124	91.65
322.337	-31.23
322.55	73.21
322.763	69.12
322.977	34.3
323.19	34.3
323.403	62.98
323.617	46.59
323.83	32.26
324.043	44.54
324.256	32.26
324.469	-64
324.683	85.5
324.896	17.92
325.109	99.84
325.322	32.26
325.535	81.41
325.748	52.74
325.962	9.73
326.175	11.78
326.388	118.27
326.601	65.02
326.814	-10.75
327.027	30.21
327.24	58.88
327.453	69.12
327.666	56.83
327.879	22.02
328.092	36.35
328.305	17.92
328.518	38.4
328.731	81.41
328.944	50.69
329.157	75.26
329.37	73.21
329.583	91.65
329.796	77.31
330.009	-41.47
330.222	54.78
330.435	-0.51
330.648	65.02
330.861	1.54
331.073	67.07
331.286	101.89
331.499	69.12
331.712	-20.99
331.925	48.64
332.138	3.58
332.35	87.55
332.563	1.54
332.776	83.45
332.989	-33.28
333.202	99.84
333.414	73.21
333.627	126.46
333.84	42.5
334.053	-14.85
334.265	17.92
334.478	28.16
334.691	-59.9
334.903	75.26
335.116	108.03
335.329	85.5
335.541	52.74
335.754	179.71
335.966	38.4
336.179	34.3
336.392	38.4
336.604	85.5
336.817	54.78
337.029	89.6
337.242	54.78
337.454	103.93
337.667	89.6
337.88	71.17
338.092	65.02
338.305	32.26
338.517	48.64
338.729	62.98
338.942	9.73
339.154	67.07
339.367	24.06
339.579	46.59
339.792	44.54
340.004	26.11
340.217	-0.51
340.429	30.21
340.641	7.68
340.854	48.64
341.066	58.88
341.278	67.07
341.491	69.12
341.703	91.65
341.915	-14.85
342.128	28.16
342.34	75.26
342.552	9.73
342.764	50.69
342.977	34.3
343.189	36.35
343.401	46.59
343.613	9.73
343.826	28.16
344.038	30.21
344.25	30.21
344.462	77.31
344.674	110.08
344.886	77.31
345.099	36.35
345.311	26.11
345.523	56.83
345.735	73.21
345.947	79.36
346.159	-10.75
346.371	42.5
346.583	67.07
346.795	128.51
347.007	85.5
347.219	67.07
347.431	124.41
347.643	26.11
347.855	112.13
348.067	42.5
348.279	36.35
348.491	5.63
348.703	44.54
348.915	60.93
349.127	9.73
349.339	15.87
349.551	85.5
349.763	99.84
349.975	77.31
350.187	83.45
350.399	38.4
350.61	87.55
350.822	-2.56
351.034	34.3
351.246	-14.85
351.458	28.16
351.669	13.82
351.881	122.37
352.093	77.31
352.305	22.02
352.517	54.78
352.728	79.36
352.94	87.55
353.152	26.11
353.363	7.68
353.575	67.07
353.787	30.21
353.999	67.07
354.21	81.41
354.422	83.45
354.633	-25.09
354.845	-0.51
355.057	65.02
355.268	73.21
355.48	60.93
355.692	34.3
355.903	42.5
356.115	1.54
356.326	5.63
356.538	34.3
356.749	67.07
356.961	32.26
357.172	30.21
357.384	58.88
357.595	67.07
357.807	103.93
358.018	56.83
358.23	81.41
358.441	42.5
358.653	44.54
358.864	7.68
359.075	36.35
359.287	103.93
359.498	36.35
359.709	85.5
359.921	69.12
360.132	79.36
360.344	83.45
360.555	130.56
360.766	50.69
360.977	34.3
361.189	-2.56
361.4	50.69
361.611	116.22
361.823	26.11
362.034	97.79
362.245	65.02
362.456	42.5
362.667	93.69
362.879	-0.51
363.09	62.98
363.301	130.56
363.512	81.41
363.723	54.78
363.935	52.74
364.146	7.68
364.357	50.69
364.568	71.17
364.779	17.92
364.99	28.16
365.201	9.73
365.412	116.22
365.623	17.92
365.834	15.87
366.045	26.11
366.256	52.74
366.467	46.59
366.678	112.13
366.889	-18.94
367.1	93.69
367.311	24.06
367.522	54.78
367.733	32.26
367.944	62.98
368.155	69.12
368.366	-8.7
368.577	65.02
368.788	24.06
368.999	30.21
369.209	103.93
369.42	79.36
369.631	24.06
369.842	65.02
370.053	50.69
370.264	1.54
370.474	-49.66
370.685	85.5
370.896	79.36
371.107	97.79
371.317	-8.7
371.528	11.78
371.739	44.54
371.95	105.98
372.16	48.64
372.371	54.78
372.582	5.63
372.792	85.5
373.003	101.89
373.214	85.5
373.424	40.45
373.635	81.41
373.846	26.11
374.056	54.78
374.267	-31.23
374.477	32.26
374.688	71.17
374.898	7.68
375.109	22.02
375.319	-4.61
375.53	62.98
375.74	71.17
375.951	81.41
376.161	17.92
376.372	103.93
376.582	-14.85
376.793	71.17
377.003	85.5
377.214	103.93
377.424	103.93
377.635	128.51
377.845	15.87
378.055	120.32
378.266	136.7
378.476	-6.66
378.686	122.37
378.897	85.5
379.107	50.69
379.317	77.31
379.528	99.84
379.738	22.02
379.948	36.35
380.158	103.93
380.369	79.36
380.579	126.46
380.789	46.59
380.999	103.93
381.21	19.97
381.42	105.98
381.63	54.78
381.84	48.64
382.05	62.98
382.261	89.6
382.471	116.22
382.681	89.6
382.891	97.79
383.101	105.98
383.311	65.02
383.521	81.41
383.731	112.13
383.941	112.13
384.151	24.06
384.361	118.27
384.571	83.45
384.781	99.84
384.991	67.07
385.201	95.74
385.411	103.93
385.621	65.02
385.831	1.54
386.041	95.74
386.251	110.08
386.461	103.93
386.671	132.61
386.881	60.93
387.091	87.55
387.301	26.11
387.511	69.12
387.72	34.3
387.93	40.45
388.14	83.45
388.35	-23.04
388.56	7.68
388.769	52.74
388.979	110.08
389.189	54.78
389.399	34.3
389.609	69.12
389.818	52.74
390.028	87.55
390.238	87.55
390.447	71.17
390.657	77.31
390.867	56.83
391.076	69.12
391.286	71.17
391.496	101.89
391.705	124.41
391.915	87.55
392.125	142.85
392.334	50.69
392.544	122.37
392.753	65.02
392.963	91.65
393.172	42.5
393.382	81.41
393.591	103.93
393.801	30.21
394.01	108.03
394.22	91.65
394.429	79.36
394.639	54.78
394.848	136.7
395.058	91.65
395.267	85.5
395.477	120.32
395.686	189.95
395.895	153.09
396.105	132.61
396.314	91.65
396.524	83.45
396.733	62.98
396.942	132.61
397.152	62.98
397.361	126.46
397.57	91.65
397.78	87.55
397.989	130.56
398.198	95.74
398.407	155.13
398.617	67.07
398.826	132.61
399.035	130.56
399.244	77.31
399.453	-12.8
399.663	101.89
399.872	132.61
400.081	161.28
400.29	165.37
400.499	108.03
400.708	157.18
400.917	167.42
401.127	108.03
401.336	77.31
401.545	116.22
401.754	175.61
401.963	167.42
402.172	81.41
402.381	128.51
402.59	99.84
402.799	151.04
403.008	157.18
403.217	183.81
403.426	161.28
403.635	126.46
403.844	67.07
404.053	226.81
404.262	159.23
404.471	165.37
404.68	110.08
404.888	165.37
405.097	192
405.306	239.1
405.515	253.44
405.724	151.04
405.933	255.48
406.142	331.26
406.35	218.62
406.559	198.14
406.768	228.86
406.977	206.33
407.185	245.24
407.394	214.52
407.603	304.64
407.812	267.77
408.02	300.54
408.229	366.07
408.438	353.79
408.646	318.97
408.855	226.81
409.064	425.47
409.272	316.92
409.481	378.36
409.69	402.94
409.898	364.03
410.107	345.59
410.315	382.46
410.524	368.12
410.733	407.03
410.941	359.93
411.15	499.19
411.358	447.99
411.567	427.51
411.775	437.75
411.984	556.54
412.192	523.77
412.401	560.63
412.609	568.82
412.818	554.49
413.026	591.35
413.234	636.41
413.443	560.63
413.651	587.26
413.86	708.09
414.068	706.04
414.276	712.18
414.485	759.28
414.693	744.95
414.901	873.97
415.11	830.96
415.318	910.83
415.526	906.74
415.734	867.83
415.943	953.84
416.151	1117.68
416.359	939.51
416.567	1002.99
416.776	1021.42
416.984	1218.03
417.192	1310.19
417.4	1291.76
417.608	1193.45
417.817	1240.56
418.025	1312.24
418.233	1332.72
418.441	1420.78
418.649	1564.14
418.857	1539.56
419.065	1545.7
419.273	1560.04
419.481	1617.38
419.689	1799.65
419.897	1764.84
420.105	1857
420.313	1861.09
420.521	2049.5
420.729	1992.16
420.937	2094.56
421.145	2172.38
421.353	2291.17
421.561	2358.75
421.769	2332.12
421.977	2534.87
422.185	2475.48
422.393	2692.57
422.601	2848.21
422.809	2823.64
423.017	2823.64
423.224	2895.32
423.432	3091.92
423.64	3018.19
423.848	3411.4
424.056	3171.79
424.263	3534.28
424.471	3509.71
424.679	3505.61
424.887	3696.07
425.094	3900.87
425.302	3913.16
425.51	4023.75
425.718	4138.43
425.925	4261.31
426.133	4359.61
426.341	4631.99
426.548	4799.93
426.756	4828.6
426.964	4918.71
427.171	5193.14
427.379	5313.97
427.586	5283.25
427.794	5551.53
428.001	5737.9
428.209	6061.48
428.417	5940.65
428.624	6198.69
428.832	6514.08
429.039	6247.84
429.247	6253.98
429.454	7015.83
429.662	7505.29
429.869	6761.88
430.076	7525.77
430.284	7325.07
430.491	7597.45
430.699	7984.52
430.906	7873.93
431.114	8056.2
431.321	8377.73
431.528	8457.6
431.736	9004.41
431.943	9428.34
432.15	9250.16
432.358	9180.53
432.565	9858.41
432.772	9694.57
432.979	10360.16
433.187	10390.88
433.394	10509.66
433.601	11079
433.808	11158.87
434.016	11216.21
434.223	11449.68
434.43	12318.02
434.637	12234.05
434.844	12891.45
435.052	13196.6
435.259	13022.52
435.466	13028.67
435.673	13045.05
435.88	14011.69
436.087	14398.76
436.294	14603.55
436.501	14155.05
436.708	14667.04
436.915	14796.06
437.122	15707.41
437.329	15623.44
437.537	16424.2
437.743	16366.85
437.95	16319.75
438.157	17358.07
438.364	17831.15
438.571	17818.86
438.778	17788.14
438.985	19526.87
439.192	18691.3
439.399	19322.07
439.606	19045.6
439.813	20079.82
440.02	21408.95
440.227	21025.98
440.433	20579.53
440.64	21232.83
440.847	21390.52
441.054	21777.59
441.261	22805.67
441.467	22877.35
441.674	23231.65
441.881	24290.45
442.088	24192.14
442.294	23938.19
442.501	24628.36
442.708	25187.46
442.914	25955.44
443.121	27092.07
443.328	26406
443.534	28443.73
443.741	27190.37
443.948	27090.02
444.154	29142.08
444.361	28759.11
444.568	28918.85
444.774	29015.11
444.981	29320.26
445.187	30274.61
445.394	31366.18
445.6	31202.34
445.807	34206.71
446.013	32887.82
446.22	33414.15
446.426	34759.66
446.633	34630.64
446.839	35650.53
447.046	34530.29
447.252	36740.05
447.459	36445.14
447.665	36692.94
447.871	38353.85
448.078	39768.99
448.284	37940.16
448.491	38753.2
448.697	40065.95
448.903	40735.63
449.11	40792.98
449.316	40434.58
449.522	40932.24
449.728	42357.63
449.935	42480.5
450.141	42306.43
450.347	43301.74
450.553	42161.02
450.76	42527.61
450.966	43866.98
451.172	43432.81
451.378	44313.44
451.584	43486.06
451.791	44800.85
451.997	44436.31
452.203	45415.24
452.409	45683.53
452.615	45239.12
452.821	43428.71
453.027	42931.06
453.233	45099.86
453.44	43594.6
453.646	43629.41
453.852	44110.69
454.058	44737.37
454.264	43436.91
454.47	44079.97
454.676	43148.14
454.882	44680.02
455.088	40741.78
455.294	41474.95
455.5	41767.81
455.705	42369.91
455.911	40995.73
456.117	40158.11
456.323	39197.61
456.529	37381.06
456.735	39189.42
456.941	38271.93
457.147	37374.92
457.352	36363.22
457.558	36047.83
457.764	36008.92
457.97	35732.45
458.176	34827.24
458.381	34255.86
458.587	32783.37
458.793	32932.87
458.999	31067.17
459.204	33475.59
459.41	32570.38
459.616	30401.58
459.821	30424.11
460.027	30434.35
460.233	30082.1
460.438	28290.13
460.644	28726.35
460.85	27272.29
461.055	26891.37
461.261	26821.73
461.466	25162.88
461.672	24188.05
461.878	25826.42
462.083	24224.91
462.289	23633.05
462.494	23653.53
462.7	22529.19
462.905	21941.43
463.111	22518.95
463.316	22607.02
463.522	22041.78
463.727	22219.95
463.932	22162.61
464.138	21757.11
464.343	21963.95
464.549	20894.91
464.754	22127.79
464.959	21773.49
465.165	21628.09
465.37	20753.6
465.575	20214.99
465.781	21058.75
465.986	21091.52
466.191	20264.14
466.397	19899.6
466.602	19064.03
466.807	19795.15
467.012	19850.45
467.218	19829.97
467.423	19305.69
467.628	19471.57
467.833	20243.66
