Data from USB4F104151__19__11-44-37-133.txt Node

Date: Fri Mar 14 11:44:37 EDT 2025
User: louis
Spectrometer: USB4F10415
Trigger mode: 4
Integration Time (sec): 2.000000E-2
Scans to average: 1
Electric dark correction enabled: true
Nonlinearity correction enabled: false
Boxcar width: 0
XAxis mode: Wavelengths
Number of Pixels in Spectrum: 3648
>>>>>Begin Spectral Data<<<<<
178.204	-53.08
178.424	-53.08
178.644	-53.08
178.864	14.51
179.084	-67.41
179.304	-10.07
179.524	-51.03
179.744	30.89
179.964	-5.97
180.184	16.55
180.404	18.6
180.624	-30.55
180.844	8.36
181.064	-40.79
181.283	30.89
181.503	-26.45
181.723	59.56
181.943	39.08
182.163	92.33
182.383	-3.93
182.602	88.23
182.822	43.18
183.042	12.46
183.262	-36.69
183.482	34.99
183.701	-44.88
183.921	41.13
184.141	8.36
184.361	34.99
184.58	84.14
184.8	34.99
185.02	-34.64
185.239	49.32
185.459	-36.69
185.679	-8.02
185.898	-36.69
186.118	37.03
186.338	12.46
186.557	90.28
186.777	86.19
186.997	-12.12
187.216	26.79
187.436	98.47
187.655	6.31
187.875	6.31
188.095	22.7
188.314	73.9
188.534	24.75
188.753	-55.12
188.973	82.09
189.192	84.14
189.412	10.41
189.631	47.27
189.851	53.42
190.07	69.8
190.29	-26.45
190.509	59.56
190.729	-26.45
190.948	88.23
191.168	75.95
191.387	49.32
191.607	4.27
191.826	16.55
192.045	-30.55
192.265	6.31
192.484	12.46
192.704	20.65
192.923	-24.4
193.142	114.86
193.362	30.89
193.581	108.71
193.8	-1.88
194.02	51.37
194.239	28.84
194.458	-20.31
194.678	-14.17
194.897	43.18
195.116	24.75
195.335	57.51
195.555	24.75
195.774	2.22
195.993	47.27
196.212	-24.4
196.432	49.32
196.651	39.08
196.87	-28.5
197.089	30.89
197.308	-26.45
197.528	26.79
197.747	-40.79
197.966	2.22
198.185	34.99
198.404	4.27
198.623	-8.02
198.842	-10.07
199.062	16.55
199.281	110.76
199.5	51.37
199.719	39.08
199.938	30.89
200.157	6.31
200.376	26.79
200.595	34.99
200.814	18.6
201.033	43.18
201.252	61.61
201.471	26.79
201.69	92.33
201.909	30.89
202.128	2.22
202.347	73.9
202.566	34.99
202.785	32.94
203.004	-14.17
203.223	94.38
203.442	63.66
203.661	0.17
203.879	10.41
204.098	41.13
204.317	-44.88
204.536	51.37
204.755	-26.45
204.974	80.04
205.193	2.22
205.411	22.7
205.63	30.89
205.849	47.27
206.068	92.33
206.287	4.27
206.505	45.23
206.724	-61.27
206.943	39.08
207.162	10.41
207.381	47.27
207.599	18.6
207.818	4.27
208.037	6.31
208.255	18.6
208.474	43.18
208.693	43.18
208.911	16.55
209.13	-3.93
209.349	53.42
209.567	67.75
209.786	57.51
210.005	51.37
210.223	75.95
210.442	-40.79
210.661	67.75
210.879	0.17
211.098	47.27
211.316	28.84
211.535	12.46
211.753	24.75
211.972	51.37
212.191	45.23
212.409	57.51
212.628	26.79
212.846	-26.45
213.065	82.09
213.283	10.41
213.502	-10.07
213.72	53.42
213.938	-24.4
214.157	41.13
214.375	45.23
214.594	43.18
214.812	65.71
215.031	43.18
215.249	-44.88
215.467	65.71
215.686	-1.88
215.904	10.41
216.122	6.31
216.341	20.65
216.559	22.7
216.778	-3.93
216.996	47.27
217.214	6.31
217.432	-42.84
217.651	20.65
217.869	-44.88
218.087	18.6
218.306	-51.03
218.524	18.6
218.742	-14.17
218.96	-71.51
219.179	-14.17
219.397	59.56
219.615	49.32
219.833	39.08
220.051	30.89
220.27	73.9
220.488	-8.02
220.706	98.47
220.924	26.79
221.142	65.71
221.36	-8.02
221.578	59.56
221.796	-30.55
222.015	37.03
222.233	32.94
222.451	61.61
222.669	41.13
222.887	45.23
223.105	53.42
223.323	-5.97
223.541	-1.88
223.759	14.51
223.977	22.7
224.195	67.75
224.413	63.66
224.631	-10.07
224.849	47.27
225.067	125.1
225.285	-57.17
225.503	45.23
225.721	12.46
225.939	-30.55
226.157	-14.17
226.375	41.13
226.592	-22.36
226.81	22.7
227.028	43.18
227.246	49.32
227.464	10.41
227.682	-18.26
227.9	-22.36
228.117	-1.88
228.335	39.08
228.553	10.41
228.771	69.8
228.989	67.75
229.206	-46.93
229.424	45.23
229.642	10.41
229.86	-1.88
230.077	61.61
230.295	32.94
230.513	18.6
230.731	-18.26
230.948	30.89
231.166	55.47
231.384	-32.6
231.601	32.94
231.819	118.95
232.037	10.41
232.254	-16.21
232.472	61.61
232.689	49.32
232.907	63.66
233.125	8.36
233.342	114.86
233.56	28.84
233.777	-22.36
233.995	18.6
234.213	49.32
234.43	90.28
234.648	30.89
234.865	28.84
235.083	55.47
235.3	12.46
235.518	123.05
235.735	55.47
235.953	45.23
236.17	55.47
236.388	-20.31
236.605	41.13
236.822	71.85
237.04	69.8
237.257	59.56
237.475	41.13
237.692	30.89
237.909	16.55
238.127	61.61
238.344	22.7
238.562	106.67
238.779	-16.21
238.996	26.79
239.214	53.42
239.431	24.75
239.648	0.17
239.865	104.62
240.083	10.41
240.3	77.99
240.517	-32.6
240.735	69.8
240.952	71.85
241.169	6.31
241.386	24.75
241.603	57.51
241.821	-10.07
242.038	55.47
242.255	14.51
242.472	14.51
242.689	108.71
242.907	39.08
243.124	84.14
243.341	2.22
243.558	12.46
243.775	61.61
243.992	-3.93
244.209	26.79
244.426	67.75
244.643	65.71
244.86	45.23
245.078	73.9
245.295	59.56
245.512	39.08
245.729	4.27
245.946	41.13
246.163	-28.5
246.38	6.31
246.597	98.47
246.814	2.22
247.031	43.18
247.248	39.08
247.464	71.85
247.681	10.41
247.898	90.28
248.115	32.94
248.332	30.89
248.549	32.94
248.766	92.33
248.983	43.18
249.2	-48.98
249.417	125.1
249.633	-26.45
249.85	98.47
250.067	34.99
250.284	28.84
250.501	-26.45
250.717	20.65
250.934	2.22
251.151	51.37
251.368	69.8
251.585	16.55
251.801	-30.55
252.018	-48.98
252.235	67.75
252.451	71.85
252.668	16.55
252.885	-5.97
253.102	22.7
253.318	22.7
253.535	67.75
253.752	10.41
253.968	18.6
254.185	24.75
254.401	-3.93
254.618	55.47
254.835	12.46
255.051	39.08
255.268	-24.4
255.484	41.13
255.701	-1.88
255.917	14.51
256.134	-1.88
256.351	18.6
256.567	12.46
256.784	65.71
257	45.23
257.217	94.38
257.433	100.52
257.65	39.08
257.866	8.36
258.082	37.03
258.299	-71.51
258.515	-3.93
258.732	32.94
258.948	4.27
259.165	37.03
259.381	6.31
259.597	41.13
259.814	75.95
260.03	61.61
260.246	14.51
260.463	-20.31
260.679	2.22
260.895	39.08
261.112	61.61
261.328	-26.45
261.544	22.7
261.761	65.71
261.977	55.47
262.193	59.56
262.409	96.43
262.626	110.76
262.842	53.42
263.058	2.22
263.274	2.22
263.49	14.51
263.707	80.04
263.923	86.19
264.139	6.31
264.355	47.27
264.571	-12.12
264.787	-10.07
265.004	-14.17
265.22	-55.12
265.436	14.51
265.652	57.51
265.868	94.38
266.084	-12.12
266.3	10.41
266.516	-38.74
266.732	18.6
266.948	57.51
267.164	20.65
267.38	84.14
267.596	6.31
267.812	45.23
268.028	121
268.244	73.9
268.46	37.03
268.676	12.46
268.892	61.61
269.108	-59.22
269.324	18.6
269.54	28.84
269.756	59.56
269.972	26.79
270.188	63.66
270.403	-18.26
270.619	-14.17
270.835	6.31
271.051	-5.97
271.267	-12.12
271.483	18.6
271.698	28.84
271.914	43.18
272.13	26.79
272.346	32.94
272.562	61.61
272.777	55.47
272.993	102.57
273.209	-18.26
273.425	-55.12
273.64	-8.02
273.856	59.56
274.072	8.36
274.287	57.51
274.503	-26.45
274.719	43.18
274.934	47.27
275.15	69.8
275.366	121
275.581	-1.88
275.797	63.66
276.012	30.89
276.228	0.17
276.444	71.85
276.659	55.47
276.875	8.36
277.09	67.75
277.306	61.61
277.521	32.94
277.737	22.7
277.952	90.28
278.168	0.17
278.383	43.18
278.599	30.89
278.814	108.71
279.03	-1.88
279.245	43.18
279.461	65.71
279.676	10.41
279.892	6.31
280.107	30.89
280.322	-28.5
280.538	121
280.753	-3.93
280.969	26.79
281.184	57.51
281.399	57.51
281.615	12.46
281.83	51.37
282.045	-10.07
282.26	26.79
282.476	84.14
282.691	4.27
282.906	96.43
283.122	41.13
283.337	8.36
283.552	8.36
283.767	14.51
283.983	63.66
284.198	-32.6
284.413	34.99
284.628	49.32
284.843	30.89
285.058	12.46
285.274	82.09
285.489	-34.64
285.704	73.9
285.919	41.13
286.134	88.23
286.349	71.85
286.564	37.03
286.779	34.99
286.995	4.27
287.21	-18.26
287.425	65.71
287.64	-32.6
287.855	-5.97
288.07	53.42
288.285	20.65
288.5	106.67
288.715	73.9
288.93	14.51
289.145	4.27
289.36	28.84
289.575	43.18
289.79	43.18
290.004	26.79
290.219	14.51
290.434	43.18
290.649	43.18
290.864	45.23
291.079	41.13
291.294	8.36
291.509	59.56
291.724	39.08
291.938	14.51
292.153	104.62
292.368	18.6
292.583	6.31
292.798	53.42
293.012	-55.12
293.227	96.43
293.442	49.32
293.657	98.47
293.871	75.95
294.086	63.66
294.301	141.48
294.516	125.1
294.73	18.6
294.945	-20.31
295.16	137.38
295.374	104.62
295.589	47.27
295.804	8.36
296.018	43.18
296.233	0.17
296.447	71.85
296.662	55.47
296.877	129.19
297.091	100.52
297.306	57.51
297.52	37.03
297.735	84.14
297.949	18.6
298.164	57.51
298.378	-28.5
298.593	-5.97
298.807	39.08
299.022	65.71
299.236	14.51
299.451	75.95
299.665	-46.93
299.88	61.61
300.094	63.66
300.309	82.09
300.523	-20.31
300.737	100.52
300.952	102.57
301.166	0.17
301.381	22.7
301.595	20.65
301.809	65.71
302.024	71.85
302.238	6.31
302.452	22.7
302.667	-10.07
302.881	75.95
303.095	96.43
303.309	-1.88
303.524	26.79
303.738	53.42
303.952	121
304.166	61.61
304.381	-59.22
304.595	32.94
304.809	30.89
305.023	86.19
305.237	53.42
305.452	-30.55
305.666	88.23
305.88	34.99
306.094	14.51
306.308	43.18
306.522	67.75
306.736	49.32
306.95	18.6
307.164	34.99
307.379	22.7
307.593	37.03
307.807	28.84
308.021	69.8
308.235	-53.08
308.449	0.17
308.663	49.32
308.877	61.61
309.091	10.41
309.305	125.1
309.519	-30.55
309.733	24.75
309.947	32.94
310.161	59.56
310.374	-14.17
310.588	59.56
310.802	51.37
311.016	-1.88
311.23	49.32
311.444	-1.88
311.658	94.38
311.872	18.6
312.085	26.79
312.299	100.52
312.513	51.37
312.727	41.13
312.941	-1.88
313.154	32.94
313.368	0.17
313.582	118.95
313.796	67.75
314.009	151.72
314.223	4.27
314.437	104.62
314.651	-5.97
314.864	73.9
315.078	16.55
315.292	-16.21
315.505	80.04
315.719	26.79
315.933	24.75
316.146	14.51
316.36	-20.31
316.573	37.03
316.787	37.03
317.001	65.71
317.214	-18.26
317.428	12.46
317.641	26.79
317.855	82.09
318.068	6.31
318.282	92.33
318.495	26.79
318.709	80.04
318.922	6.31
319.136	67.75
319.349	98.47
319.563	104.62
319.776	30.89
319.99	22.7
320.203	14.51
320.417	77.99
320.63	73.9
320.843	14.51
321.057	-1.88
321.27	14.51
321.483	65.71
321.697	55.47
321.91	53.42
322.124	71.85
322.337	30.89
322.55	0.17
322.763	49.32
322.977	57.51
323.19	-36.69
323.403	69.8
323.617	20.65
323.83	71.85
324.043	88.23
324.256	37.03
324.469	61.61
324.683	37.03
324.896	28.84
325.109	45.23
325.322	0.17
325.535	92.33
325.748	26.79
325.962	4.27
326.175	-32.6
326.388	45.23
326.601	45.23
326.814	22.7
327.027	4.27
327.24	39.08
327.453	61.61
327.666	67.75
327.879	45.23
328.092	-3.93
328.305	51.37
328.518	88.23
328.731	-32.6
328.944	59.56
329.157	-36.69
329.37	37.03
329.583	55.47
329.796	45.23
330.009	45.23
330.222	61.61
330.435	90.28
330.648	92.33
330.861	34.99
331.073	88.23
331.286	59.56
331.499	71.85
331.712	37.03
331.925	-20.31
332.138	45.23
332.35	43.18
332.563	14.51
332.776	73.9
332.989	41.13
333.202	82.09
333.414	22.7
333.627	82.09
333.84	16.55
334.053	51.37
334.265	57.51
334.478	67.75
334.691	51.37
334.903	37.03
335.116	26.79
335.329	49.32
335.541	75.95
335.754	176.3
335.966	30.89
336.179	55.47
336.392	94.38
336.604	47.27
336.817	39.08
337.029	12.46
337.242	41.13
337.454	88.23
337.667	39.08
337.88	59.56
338.092	24.75
338.305	51.37
338.517	49.32
338.729	94.38
338.942	59.56
339.154	-10.07
339.367	18.6
339.579	34.99
339.792	57.51
340.004	30.89
340.217	71.85
340.429	12.46
340.641	-16.21
340.854	94.38
341.066	-46.93
341.278	-22.36
341.491	77.99
341.703	26.79
341.915	114.86
342.128	73.9
342.34	-28.5
342.552	32.94
342.764	63.66
342.977	55.47
343.189	53.42
343.401	75.95
343.613	-69.46
343.826	4.27
344.038	90.28
344.25	-32.6
344.462	-32.6
344.674	-38.74
344.886	30.89
345.099	67.75
345.311	22.7
345.523	2.22
345.735	61.61
345.947	102.57
346.159	24.75
346.371	53.42
346.583	51.37
346.795	86.19
347.007	49.32
347.219	30.89
347.431	26.79
347.643	80.04
347.855	86.19
348.067	24.75
348.279	16.55
348.491	39.08
348.703	41.13
348.915	-30.55
349.127	32.94
349.339	51.37
349.551	43.18
349.763	41.13
349.975	-63.32
350.187	73.9
350.399	37.03
350.61	71.85
350.822	61.61
351.034	-18.26
351.246	82.09
351.458	37.03
351.669	53.42
351.881	51.37
352.093	86.19
352.305	6.31
352.517	10.41
352.728	-3.93
352.94	30.89
353.152	39.08
353.363	-22.36
353.575	37.03
353.787	14.51
353.999	69.8
354.21	104.62
354.422	57.51
354.633	12.46
354.845	26.79
355.057	71.85
355.268	100.52
355.48	57.51
355.692	-34.64
355.903	94.38
356.115	12.46
356.326	71.85
356.538	41.13
356.749	100.52
356.961	84.14
357.172	75.95
357.384	24.75
357.595	55.47
357.807	51.37
358.018	-1.88
358.23	12.46
358.441	73.9
358.653	47.27
358.864	2.22
359.075	10.41
359.287	116.9
359.498	71.85
359.709	102.57
359.921	86.19
360.132	8.36
360.344	63.66
360.555	8.36
360.766	37.03
360.977	-26.45
361.189	34.99
361.4	-38.74
361.611	110.76
361.823	84.14
362.034	-38.74
362.245	55.47
362.456	45.23
362.667	63.66
362.879	30.89
363.09	63.66
363.301	39.08
363.512	49.32
363.723	-18.26
363.935	10.41
364.146	127.14
364.357	88.23
364.568	96.43
364.779	-24.4
364.99	55.47
365.201	59.56
365.412	71.85
365.623	-1.88
365.834	49.32
366.045	39.08
366.256	69.8
366.467	41.13
366.678	47.27
366.889	4.27
367.1	-22.36
367.311	121
367.522	18.6
367.733	88.23
367.944	14.51
368.155	10.41
368.366	88.23
368.577	32.94
368.788	28.84
368.999	47.27
369.209	69.8
369.42	73.9
369.631	77.99
369.842	30.89
370.053	24.75
370.264	77.99
370.474	-28.5
370.685	69.8
370.896	75.95
371.107	26.79
371.317	71.85
371.528	-8.02
371.739	92.33
371.95	32.94
372.16	71.85
372.371	12.46
372.582	49.32
372.792	63.66
373.003	0.17
373.214	53.42
373.424	34.99
373.635	82.09
373.846	63.66
374.056	75.95
374.267	-55.12
374.477	90.28
374.688	125.1
374.898	61.61
375.109	80.04
375.319	37.03
375.53	47.27
375.74	63.66
375.951	-16.21
376.161	77.99
376.372	59.56
376.582	88.23
376.793	80.04
377.003	22.7
377.214	59.56
377.424	39.08
377.635	90.28
377.845	88.23
378.055	51.37
378.266	39.08
378.476	37.03
378.686	-1.88
378.897	30.89
379.107	28.84
379.317	4.27
379.528	34.99
379.738	65.71
379.948	49.32
380.158	51.37
380.369	131.24
380.579	112.81
380.789	37.03
380.999	-10.07
381.21	118.95
381.42	61.61
381.63	65.71
381.84	41.13
382.05	8.36
382.261	90.28
382.471	69.8
382.681	45.23
382.891	86.19
383.101	67.75
383.311	-12.12
383.521	67.75
383.731	75.95
383.941	45.23
384.151	65.71
384.361	-18.26
384.571	82.09
384.781	51.37
384.991	121
385.201	92.33
385.411	90.28
385.621	61.61
385.831	39.08
386.041	53.42
386.251	22.7
386.461	112.81
386.671	71.85
386.881	110.76
387.091	125.1
387.301	100.52
387.511	45.23
387.72	6.31
387.93	-8.02
388.14	16.55
388.35	51.37
388.56	157.86
388.769	32.94
388.979	88.23
389.189	110.76
389.399	65.71
389.609	161.96
389.818	80.04
390.028	75.95
390.238	127.14
390.447	61.61
390.657	77.99
390.867	8.36
391.076	63.66
391.286	96.43
391.496	116.9
391.705	141.48
391.915	63.66
392.125	32.94
392.334	53.42
392.544	110.76
392.753	51.37
392.963	88.23
393.172	71.85
393.382	57.51
393.591	88.23
393.801	71.85
394.01	73.9
394.22	71.85
394.429	108.71
394.639	116.9
394.848	49.32
395.058	86.19
395.267	49.32
395.477	53.42
395.686	55.47
395.895	137.38
396.105	114.86
396.314	84.14
396.524	84.14
396.733	90.28
396.942	75.95
397.152	26.79
397.361	145.58
397.57	61.61
397.78	96.43
397.989	80.04
398.198	145.58
398.407	143.53
398.617	61.61
398.826	121
399.035	157.86
399.244	75.95
399.453	112.81
399.663	123.05
399.872	139.43
400.081	75.95
400.29	151.72
400.499	80.04
400.708	30.89
400.917	102.57
401.127	172.2
401.336	149.67
401.545	137.38
401.754	71.85
401.963	139.43
402.172	80.04
402.381	116.9
402.59	125.1
402.799	94.38
403.008	108.71
403.217	147.62
403.426	159.91
403.635	104.62
403.844	137.38
404.053	174.25
404.262	145.58
404.471	104.62
404.68	133.29
404.888	123.05
405.097	153.77
405.306	178.34
405.515	127.14
405.724	174.25
405.933	149.67
406.142	190.63
406.35	223.4
406.559	211.11
406.768	141.48
406.977	270.5
407.185	200.87
407.394	192.68
407.603	143.53
407.812	170.15
408.02	252.07
408.229	280.74
408.438	196.78
408.646	223.4
408.855	153.77
409.064	278.69
409.272	250.02
409.481	235.69
409.69	190.63
409.898	336.04
410.107	286.89
410.315	278.69
410.524	299.17
410.733	305.32
410.941	321.7
411.15	348.33
411.358	344.23
411.567	436.39
411.775	401.57
411.984	352.42
412.192	501.92
412.401	503.97
412.609	483.49
412.818	413.86
413.026	452.77
413.234	520.35
413.443	481.44
413.651	510.11
413.86	456.87
414.068	495.78
414.276	645.28
414.485	544.93
414.693	659.62
414.901	602.27
415.11	690.34
415.318	719.01
415.526	655.52
415.734	776.35
415.943	733.34
416.151	782.49
416.359	778.4
416.567	807.07
416.776	811.17
416.984	882.85
417.192	952.48
417.4	895.13
417.608	970.91
417.817	1040.54
418.025	1106.07
418.233	1251.48
418.441	970.91
418.649	1171.61
418.857	1171.61
419.065	1239.19
419.273	1163.42
419.481	1245.34
419.689	1341.59
419.897	1403.03
420.105	1386.65
420.313	1511.57
420.521	1497.24
420.729	1554.58
420.937	1577.11
421.145	1710.22
421.353	1831.05
421.561	1740.94
421.769	1759.38
421.977	2009.23
422.185	1831.05
422.393	2056.33
422.601	2158.73
422.809	2240.65
423.017	2248.84
423.224	2297.99
423.432	2300.04
423.64	2361.48
423.848	2607.23
424.056	2541.7
424.263	2766.98
424.471	2689.15
424.679	2758.78
424.887	2975.87
425.094	3037.31
425.302	2967.68
425.51	3143.8
425.718	3131.51
425.925	3295.35
426.133	3424.37
426.341	3635.32
426.548	3629.17
426.756	3766.39
426.964	3727.47
427.171	4067.44
427.379	4112.49
427.586	4167.79
427.794	4249.71
428.001	4436.07
428.209	4644.96
428.417	4610.15
428.624	4892.77
428.832	4911.2
429.039	4886.62
429.247	4878.43
429.454	5353.56
429.662	5744.72
429.869	5339.23
430.076	5673.04
430.284	5505.11
430.491	5654.61
430.699	6078.54
430.906	6160.46
431.114	6215.76
431.321	6467.66
431.528	6561.86
431.736	6985.79
431.943	7252.03
432.15	7059.52
432.358	7196.73
432.565	7520.31
432.772	7594.04
432.979	7774.26
433.187	8056.88
433.394	8286.25
433.601	8595.5
433.808	8742.95
434.016	8378.41
434.223	9025.57
434.43	9617.43
434.637	9402.4
434.844	9818.13
435.052	10201.1
435.259	9969.68
435.466	10207.25
435.673	9930.77
435.88	10561.55
436.087	11409.4
436.294	11274.24
436.501	11073.54
436.708	11483.13
436.915	11653.11
437.122	12247.02
437.329	12150.77
437.537	12345.33
437.743	12847.08
437.95	12625.9
438.157	13154.27
438.364	13909.97
438.571	13613.02
438.778	13750.23
438.985	15114.18
439.192	14604.24
439.399	14763.98
439.606	14651.34
439.813	15427.52
440.02	16349.11
440.227	16175.03
440.433	15951.8
440.64	16428.98
440.847	16275.38
441.054	16633.77
441.261	17858.46
441.467	17762.2
441.674	17997.72
441.881	18839.44
442.088	18708.37
442.294	18386.83
442.501	18937.74
442.708	19433.35
442.914	20391.8
443.121	20846.44
443.328	20154.23
443.534	21763.93
443.741	21364.58
443.948	20840.3
444.154	22437.72
444.361	22224.73
444.568	22464.34
444.774	22261.59
444.981	22964.04
445.187	23256.9
445.394	24422.2
445.6	24067.9
445.807	26421.02
446.013	25225
446.22	25773.86
446.426	26836.75
446.633	27121.42
446.839	27733.76
447.046	26810.13
447.252	28307.19
447.459	28444.41
447.665	28135.17
447.871	29320.94
448.078	30756.57
448.284	29181.68
448.491	29867.75
448.697	31203.02
448.903	31579.85
449.11	31866.56
449.316	31651.53
449.522	32116.42
449.728	32661.18
449.935	32880.31
450.141	32556.73
450.347	33531.56
450.553	32558.78
450.76	33060.53
450.966	33957.54
451.172	33930.92
451.378	34692.76
451.584	33951.4
451.791	34719.38
451.997	34594.46
452.203	35143.31
452.409	34977.43
452.615	35253.9
452.821	34068.13
453.027	33205.94
453.233	35141.27
453.44	33971.88
453.646	34025.12
453.852	34516.64
454.058	34834.07
454.264	33650.35
454.47	34463.39
454.676	33373.87
454.882	35014.29
455.088	31917.76
455.294	32259.77
455.5	32372.41
455.705	32779.96
455.911	31645.38
456.117	30981.84
456.323	30588.63
456.529	29370.09
456.735	30516.95
456.941	29572.84
457.147	29079.28
457.352	28372.73
457.558	28049.15
457.764	27858.69
457.97	27455.24
458.176	27090.7
458.381	26767.12
458.587	25540.39
458.793	25388.84
458.999	24307.51
459.204	25726.75
459.41	25546.53
459.616	23508.8
459.821	23543.62
460.027	23326.53
460.233	22929.23
460.438	22144.86
460.644	22130.52
460.85	21292.9
461.055	20463.47
461.261	20692.85
461.466	19443.59
461.672	18337.68
461.878	19982.2
462.083	18526.1
462.289	18286.48
462.494	18028.44
462.7	17356.71
462.905	16996.26
463.111	17598.37
463.316	17520.54
463.522	16906.15
463.727	17205.16
463.932	16990.12
464.138	16918.44
464.343	17098.66
464.549	16478.13
464.754	17012.65
464.959	16988.07
465.165	16576.43
465.37	15941.56
465.575	15544.25
465.781	16297.91
465.986	16381.87
466.191	15943.61
466.397	15622.08
466.602	14806.98
466.807	15353.79
467.012	15353.79
467.218	14925.77
467.423	14776.27
467.628	15017.93
467.833	15818.68
