Data from USB4F104151__17__11-44-36-254.txt Node

Date: Fri Mar 14 11:44:36 EDT 2025
User: louis
Spectrometer: USB4F10415
Trigger mode: 4
Integration Time (sec): 2.000000E-2
Scans to average: 1
Electric dark correction enabled: true
Nonlinearity correction enabled: false
Boxcar width: 0
XAxis mode: Wavelengths
Number of Pixels in Spectrum: 3648
>>>>>Begin Spectral Data<<<<<
178.204	-17.75
178.424	-17.75
178.644	-17.75
178.864	-50.52
179.084	-50.52
179.304	-21.85
179.524	4.78
179.744	6.83
179.964	45.74
180.184	-44.37
180.404	39.59
180.624	-17.75
180.844	58.03
181.064	-30.04
181.283	-5.46
181.503	-1.37
181.723	-34.13
181.943	12.97
182.163	27.31
182.383	0.68
182.602	-17.75
182.822	17.07
183.042	41.64
183.262	6.83
183.482	27.31
183.701	55.98
183.921	53.93
184.141	-5.46
184.361	-21.85
184.58	0.68
184.8	-9.56
185.02	-27.99
185.239	-23.89
185.459	15.02
185.679	101.03
185.898	-7.51
186.118	21.16
186.338	47.79
186.557	21.16
186.777	53.93
186.997	19.11
187.216	76.46
187.436	23.21
187.655	29.35
187.875	-9.56
188.095	25.26
188.314	10.92
188.534	2.73
188.753	12.97
188.973	15.02
189.192	78.51
189.412	23.21
189.631	70.31
189.851	4.78
190.07	2.73
190.29	2.73
190.509	41.64
190.729	-7.51
190.948	23.21
191.168	94.89
191.387	15.02
191.607	31.4
191.826	-11.61
192.045	53.93
192.265	62.12
192.484	131.75
192.704	29.35
192.923	49.83
193.142	47.79
193.362	27.31
193.581	-15.7
193.8	92.84
194.02	74.41
194.239	35.5
194.458	64.17
194.678	-83.28
194.897	58.03
195.116	29.35
195.335	19.11
195.555	-25.94
195.774	49.83
195.993	37.55
196.212	6.83
196.432	17.07
196.651	2.73
196.87	12.97
197.089	105.13
197.308	109.22
197.528	15.02
197.747	43.69
197.966	43.69
198.185	4.78
198.404	27.31
198.623	-21.85
198.842	68.27
199.062	-23.89
199.281	21.16
199.5	17.07
199.719	76.46
199.938	49.83
200.157	90.79
200.376	88.75
200.595	49.83
200.814	33.45
201.033	76.46
201.252	84.65
201.471	25.26
201.69	70.31
201.909	-44.37
202.128	6.83
202.347	62.12
202.566	17.07
202.785	29.35
203.004	-21.85
203.223	55.98
203.442	4.78
203.661	31.4
203.879	-1.37
204.098	19.11
204.317	-30.04
204.536	4.78
204.755	35.5
204.974	15.02
205.193	-68.95
205.411	51.88
205.63	86.7
205.849	80.55
206.068	68.27
206.287	58.03
206.505	-13.65
206.724	12.97
206.943	21.16
207.162	6.83
207.381	15.02
207.599	76.46
207.818	41.64
208.037	92.84
208.255	53.93
208.474	49.83
208.693	53.93
208.911	33.45
209.13	17.07
209.349	94.89
209.567	-27.99
209.786	41.64
210.005	21.16
210.223	21.16
210.442	39.59
210.661	10.92
210.879	72.36
211.098	-30.04
211.316	27.31
211.535	43.69
211.753	27.31
211.972	55.98
212.191	25.26
212.409	23.21
212.628	115.37
212.846	10.92
213.065	6.83
213.283	64.17
213.502	43.69
213.72	23.21
213.938	43.69
214.157	-15.7
214.375	64.17
214.594	86.7
214.812	113.32
215.031	29.35
215.249	58.03
215.467	84.65
215.686	37.55
215.904	-23.89
216.122	74.41
216.341	53.93
216.559	25.26
216.778	47.79
216.996	21.16
217.214	29.35
217.432	0.68
217.651	21.16
217.869	43.69
218.087	68.27
218.306	8.87
218.524	0.68
218.742	27.31
218.96	41.64
219.179	49.83
219.397	21.16
219.615	47.79
219.833	43.69
220.051	47.79
220.27	31.4
220.488	21.16
220.706	35.5
220.924	-50.52
221.142	101.03
221.36	51.88
221.578	88.75
221.796	27.31
222.015	23.21
222.233	78.51
222.451	72.36
222.669	23.21
222.887	121.51
223.105	-17.75
223.323	29.35
223.541	6.83
223.759	84.65
223.977	88.75
224.195	101.03
224.413	25.26
224.631	39.59
224.849	47.79
225.067	10.92
225.285	-7.51
225.503	17.07
225.721	12.97
225.939	86.7
226.157	31.4
226.375	113.32
226.592	-25.94
226.81	39.59
227.028	23.21
227.246	105.13
227.464	-15.7
227.682	43.69
227.9	82.6
228.117	-34.13
228.335	-5.46
228.553	6.83
228.771	88.75
228.989	-25.94
229.206	70.31
229.424	92.84
229.642	-11.61
229.86	58.03
230.077	137.9
230.295	64.17
230.513	-34.13
230.731	17.07
230.948	-5.46
231.166	68.27
231.384	35.5
231.601	-5.46
231.819	51.88
232.037	-38.23
232.254	23.21
232.472	2.73
232.689	31.4
232.907	15.02
233.125	39.59
233.342	17.07
233.56	47.79
233.777	27.31
233.995	-30.04
234.213	103.08
234.43	19.11
234.648	72.36
234.865	123.56
235.083	88.75
235.3	27.31
235.518	82.6
235.735	109.22
235.953	45.74
236.17	-27.99
236.388	23.21
236.605	19.11
236.822	72.36
237.04	39.59
237.257	0.68
237.475	31.4
237.692	109.22
237.909	70.31
238.127	10.92
238.344	47.79
238.562	33.45
238.779	-9.56
238.996	-9.56
239.214	-11.61
239.431	92.84
239.648	27.31
239.865	74.41
240.083	64.17
240.3	53.93
240.517	33.45
240.735	88.75
240.952	72.36
241.169	39.59
241.386	45.74
241.603	15.02
241.821	-17.75
242.038	92.84
242.255	-13.65
242.472	-32.08
242.689	31.4
242.907	125.61
243.124	-3.41
243.341	92.84
243.558	-7.51
243.775	-21.85
243.992	12.97
244.209	53.93
244.426	51.88
244.643	39.59
244.86	23.21
245.078	-5.46
245.295	88.75
245.512	17.07
245.729	23.21
245.946	6.83
246.163	8.87
246.38	45.74
246.597	90.79
246.814	-118.1
247.031	-17.75
247.248	76.46
247.464	80.55
247.681	96.94
247.898	-27.99
248.115	74.41
248.332	62.12
248.549	88.75
248.766	4.78
248.983	98.99
249.2	21.16
249.417	35.5
249.633	37.55
249.85	0.68
250.067	55.98
250.284	-15.7
250.501	53.93
250.717	37.55
250.934	60.07
251.151	-40.28
251.368	92.84
251.585	74.41
251.801	74.41
252.018	43.69
252.235	45.74
252.451	8.87
252.668	82.6
252.885	29.35
253.102	49.83
253.318	-27.99
253.535	68.27
253.752	45.74
253.968	39.59
254.185	-34.13
254.401	-3.41
254.618	8.87
254.835	55.98
255.051	80.55
255.268	23.21
255.484	31.4
255.701	62.12
255.917	60.07
256.134	47.79
256.351	53.93
256.567	-48.47
256.784	111.27
257	-15.7
257.217	84.65
257.433	84.65
257.65	66.22
257.866	68.27
258.082	53.93
258.299	37.55
258.515	21.16
258.732	4.78
258.948	47.79
259.165	6.83
259.381	17.07
259.597	80.55
259.814	23.21
260.03	76.46
260.246	10.92
260.463	51.88
260.679	35.5
260.895	-34.13
261.112	68.27
261.328	31.4
261.544	31.4
261.761	86.7
261.977	6.83
262.193	19.11
262.409	31.4
262.626	62.12
262.842	-3.41
263.058	-38.23
263.274	15.02
263.49	33.45
263.707	55.98
263.923	-5.46
264.139	-7.51
264.355	4.78
264.571	84.65
264.787	21.16
265.004	60.07
265.22	72.36
265.436	78.51
265.652	66.22
265.868	-27.99
266.084	-1.37
266.3	21.16
266.516	8.87
266.732	-13.65
266.948	12.97
267.164	49.83
267.38	6.83
267.596	-3.41
267.812	-1.37
268.028	-27.99
268.244	10.92
268.46	90.79
268.676	43.69
268.892	29.35
269.108	39.59
269.324	35.5
269.54	45.74
269.756	90.79
269.972	21.16
270.188	60.07
270.403	10.92
270.619	25.26
270.835	60.07
271.051	17.07
271.267	-1.37
271.483	2.73
271.698	86.7
271.914	68.27
272.13	17.07
272.346	10.92
272.562	80.55
272.777	35.5
272.993	-50.52
273.209	86.7
273.425	10.92
273.64	27.31
273.856	25.26
274.072	90.79
274.287	-5.46
274.503	12.97
274.719	62.12
274.934	-9.56
275.15	58.03
275.366	-25.94
275.581	35.5
275.797	55.98
276.012	12.97
276.228	53.93
276.444	78.51
276.659	47.79
276.875	21.16
277.09	66.22
277.306	80.55
277.521	55.98
277.737	2.73
277.952	62.12
278.168	90.79
278.383	29.35
278.599	29.35
278.814	2.73
279.03	109.22
279.245	-36.18
279.461	-21.85
279.676	58.03
279.892	-5.46
280.107	94.89
280.322	39.59
280.538	-1.37
280.753	0.68
280.969	-9.56
281.184	6.83
281.399	121.51
281.615	23.21
281.83	68.27
282.045	-21.85
282.26	39.59
282.476	72.36
282.691	51.88
282.906	45.74
283.122	82.6
283.337	103.08
283.552	17.07
283.767	12.97
283.983	53.93
284.198	43.69
284.413	51.88
284.628	45.74
284.843	35.5
285.058	51.88
285.274	27.31
285.489	2.73
285.704	76.46
285.919	21.16
286.134	0.68
286.349	-5.46
286.564	70.31
286.779	76.46
286.995	19.11
287.21	60.07
287.425	68.27
287.64	43.69
287.855	-87.38
288.07	-11.61
288.285	90.79
288.5	29.35
288.715	68.27
288.93	17.07
289.145	60.07
289.36	17.07
289.575	94.89
289.79	10.92
290.004	82.6
290.219	0.68
290.434	60.07
290.649	29.35
290.864	60.07
291.079	-38.23
291.294	45.74
291.509	45.74
291.724	17.07
291.938	-25.94
292.153	121.51
292.368	-3.41
292.583	15.02
292.798	6.83
293.012	-19.8
293.227	92.84
293.442	0.68
293.657	33.45
293.871	23.21
294.086	-1.37
294.301	39.59
294.516	33.45
294.73	6.83
294.945	4.78
295.16	-15.7
295.374	0.68
295.589	51.88
295.804	31.4
296.018	80.55
296.233	33.45
296.447	4.78
296.662	-30.04
296.877	25.26
297.091	101.03
297.306	90.79
297.52	27.31
297.735	-3.41
297.949	101.03
298.164	-5.46
298.378	84.65
298.593	-32.08
298.807	51.88
299.022	21.16
299.236	51.88
299.451	107.18
299.665	39.59
299.88	107.18
300.094	27.31
300.309	58.03
300.523	55.98
300.737	23.21
300.952	4.78
301.166	43.69
301.381	15.02
301.595	82.6
301.809	47.79
302.024	27.31
302.238	72.36
302.452	43.69
302.667	60.07
302.881	12.97
303.095	146.09
303.309	39.59
303.524	92.84
303.738	58.03
303.952	29.35
304.166	103.08
304.381	8.87
304.595	92.84
304.809	17.07
305.023	47.79
305.237	49.83
305.452	6.83
305.666	21.16
305.88	68.27
306.094	53.93
306.308	43.69
306.522	45.74
306.736	60.07
306.95	58.03
307.164	45.74
307.379	-15.7
307.593	51.88
307.807	94.89
308.021	109.22
308.235	41.64
308.449	-5.46
308.663	31.4
308.877	51.88
309.091	29.35
309.305	-27.99
309.519	21.16
309.733	-5.46
309.947	-66.9
310.161	39.59
310.374	10.92
310.588	119.46
310.802	6.83
311.016	12.97
311.23	6.83
311.444	74.41
311.658	49.83
311.872	25.26
312.085	43.69
312.299	17.07
312.513	117.42
312.727	96.94
312.941	15.02
313.154	-9.56
313.368	133.8
313.582	109.22
313.796	-3.41
314.009	6.83
314.223	58.03
314.437	27.31
314.651	76.46
314.864	10.92
315.078	23.21
315.292	-5.46
315.505	53.93
315.719	31.4
315.933	-9.56
316.146	60.07
316.36	15.02
316.573	45.74
316.787	55.98
317.001	84.65
317.214	-11.61
317.428	33.45
317.641	-32.08
317.855	-32.08
318.068	45.74
318.282	80.55
318.495	8.87
318.709	60.07
318.922	31.4
319.136	37.55
319.349	58.03
319.563	0.68
319.776	86.7
319.99	-13.65
320.203	27.31
320.417	-50.52
320.63	33.45
320.843	148.14
321.057	33.45
321.27	-3.41
321.483	51.88
321.697	113.32
321.91	53.93
322.124	90.79
322.337	15.02
322.55	33.45
322.763	127.66
322.977	31.4
323.19	45.74
323.403	84.65
323.617	23.21
323.83	51.88
324.043	12.97
324.256	-1.37
324.469	76.46
324.683	82.6
324.896	58.03
325.109	-15.7
325.322	74.41
325.535	98.99
325.748	70.31
325.962	74.41
326.175	55.98
326.388	12.97
326.601	33.45
326.814	127.66
327.027	80.55
327.24	45.74
327.453	27.31
327.666	-23.89
327.879	31.4
328.092	64.17
328.305	-32.08
328.518	62.12
328.731	37.55
328.944	19.11
329.157	19.11
329.37	60.07
329.583	35.5
329.796	137.9
330.009	-17.75
330.222	86.7
330.435	74.41
330.648	33.45
330.861	2.73
331.073	-1.37
331.286	47.79
331.499	82.6
331.712	-42.32
331.925	47.79
332.138	39.59
332.35	47.79
332.563	68.27
332.776	29.35
332.989	-1.37
333.202	31.4
333.414	12.97
333.627	0.68
333.84	49.83
334.053	-13.65
334.265	76.46
334.478	33.45
334.691	15.02
334.903	4.78
335.116	53.93
335.329	6.83
335.541	-7.51
335.754	17.07
335.966	31.4
336.179	68.27
336.392	-36.18
336.604	21.16
336.817	23.21
337.029	31.4
337.242	47.79
337.454	64.17
337.667	27.31
337.88	8.87
338.092	66.22
338.305	-17.75
338.517	76.46
338.729	-19.8
338.942	43.69
339.154	-27.99
339.367	-15.7
339.579	27.31
339.792	51.88
340.004	66.22
340.217	58.03
340.429	58.03
340.641	107.18
340.854	49.83
341.066	10.92
341.278	23.21
341.491	27.31
341.703	78.51
341.915	31.4
342.128	92.84
342.34	21.16
342.552	-9.56
342.764	37.55
342.977	23.21
343.189	66.22
343.401	45.74
343.613	27.31
343.826	43.69
344.038	43.69
344.25	66.22
344.462	90.79
344.674	-30.04
344.886	29.35
345.099	129.7
345.311	27.31
345.523	105.13
345.735	-9.56
345.947	119.46
346.159	72.36
346.371	19.11
346.583	19.11
346.795	72.36
347.007	55.98
347.219	98.99
347.431	21.16
347.643	94.89
347.855	-34.13
348.067	109.22
348.279	51.88
348.491	60.07
348.703	8.87
348.915	72.36
349.127	10.92
349.339	55.98
349.551	6.83
349.763	96.94
349.975	109.22
350.187	23.21
350.399	125.61
350.61	-9.56
350.822	37.55
351.034	60.07
351.246	-15.7
351.458	68.27
351.669	23.21
351.881	117.42
352.093	49.83
352.305	12.97
352.517	27.31
352.728	119.46
352.94	23.21
353.152	6.83
353.363	37.55
353.575	31.4
353.787	98.99
353.999	66.22
354.21	-7.51
354.422	60.07
354.633	-7.51
354.845	33.45
355.057	-9.56
355.268	92.84
355.48	45.74
355.692	47.79
355.903	49.83
356.115	4.78
356.326	19.11
356.538	39.59
356.749	21.16
356.961	82.6
357.172	-13.65
357.384	27.31
357.595	82.6
357.807	41.64
358.018	21.16
358.23	60.07
358.441	96.94
358.653	94.89
358.864	29.35
359.075	-3.41
359.287	66.22
359.498	58.03
359.709	10.92
359.921	49.83
360.132	60.07
360.344	49.83
360.555	51.88
360.766	84.65
360.977	41.64
361.189	53.93
361.4	-32.08
361.611	35.5
361.823	55.98
362.034	78.51
362.245	31.4
362.456	41.64
362.667	113.32
362.879	94.89
363.09	60.07
363.301	72.36
363.512	70.31
363.723	2.73
363.935	33.45
364.146	72.36
364.357	-1.37
364.568	29.35
364.779	-3.41
364.99	55.98
365.201	39.59
365.412	-23.89
365.623	-27.99
365.834	62.12
366.045	72.36
366.256	66.22
366.467	68.27
366.678	111.27
366.889	39.59
367.1	62.12
367.311	109.22
367.522	35.5
367.733	47.79
367.944	80.55
368.155	47.79
368.366	70.31
368.577	15.02
368.788	121.51
368.999	-34.13
369.209	84.65
369.42	47.79
369.631	78.51
369.842	45.74
370.053	41.64
370.264	84.65
370.474	68.27
370.685	33.45
370.896	60.07
371.107	82.6
371.317	98.99
371.528	74.41
371.739	43.69
371.95	10.92
372.16	55.98
372.371	35.5
372.582	47.79
372.792	6.83
373.003	96.94
373.214	80.55
373.424	29.35
373.635	12.97
373.846	78.51
374.056	45.74
374.267	4.78
374.477	103.08
374.688	117.42
374.898	41.64
375.109	139.94
375.319	86.7
375.53	58.03
375.74	111.27
375.951	43.69
376.161	31.4
376.372	51.88
376.582	51.88
376.793	-3.41
377.003	27.31
377.214	88.75
377.424	10.92
377.635	53.93
377.845	80.55
378.055	62.12
378.266	-17.75
378.476	96.94
378.686	2.73
378.897	39.59
379.107	51.88
379.317	49.83
379.528	47.79
379.738	90.79
379.948	88.75
380.158	88.75
380.369	70.31
380.579	60.07
380.789	2.73
380.999	33.45
381.21	31.4
381.42	82.6
381.63	55.98
381.84	43.69
382.05	-25.94
382.261	66.22
382.471	66.22
382.681	84.65
382.891	109.22
383.101	39.59
383.311	6.83
383.521	80.55
383.731	47.79
383.941	141.99
384.151	-9.56
384.361	90.79
384.571	96.94
384.781	66.22
384.991	96.94
385.201	47.79
385.411	78.51
385.621	10.92
385.831	64.17
386.041	123.56
386.251	76.46
386.461	70.31
386.671	105.13
386.881	90.79
387.091	119.46
387.301	109.22
387.511	6.83
387.72	53.93
387.93	49.83
388.14	60.07
388.35	39.59
388.56	133.8
388.769	35.5
388.979	27.31
389.189	80.55
389.399	29.35
389.609	109.22
389.818	119.46
390.028	123.56
390.238	96.94
390.447	-19.8
390.657	94.89
390.867	43.69
391.076	29.35
391.286	115.37
391.496	41.64
391.705	37.55
391.915	127.66
392.125	53.93
392.334	64.17
392.544	70.31
392.753	92.84
392.963	72.36
393.172	137.9
393.382	72.36
393.591	82.6
393.801	15.02
394.01	55.98
394.22	109.22
394.429	64.17
394.639	43.69
394.848	103.08
395.058	82.6
395.267	96.94
395.477	29.35
395.686	113.32
395.895	111.27
396.105	60.07
396.314	82.6
396.524	92.84
396.733	107.18
396.942	123.56
397.152	29.35
397.361	86.7
397.57	47.79
397.78	84.65
397.989	70.31
398.198	168.62
398.407	123.56
398.617	84.65
398.826	203.43
399.035	125.61
399.244	103.08
399.453	109.22
399.663	70.31
399.872	109.22
400.081	72.36
400.29	146.09
400.499	58.03
400.708	137.9
400.917	164.52
401.127	133.8
401.336	121.51
401.545	84.65
401.754	174.76
401.963	127.66
402.172	101.03
402.381	17.07
402.59	58.03
402.799	221.86
403.008	170.66
403.217	137.9
403.426	154.28
403.635	146.09
403.844	172.71
404.053	68.27
404.262	80.55
404.471	70.31
404.68	199.34
404.888	170.66
405.097	107.18
405.306	141.99
405.515	84.65
405.724	121.51
405.933	162.47
406.142	195.24
406.35	94.89
406.559	172.71
406.768	189.1
406.977	154.28
407.185	207.53
407.394	185
407.603	248.49
407.812	223.91
408.02	268.97
408.229	287.4
408.438	254.63
408.646	225.96
408.855	244.39
409.064	248.49
409.272	285.35
409.481	336.55
409.69	309.93
409.898	268.97
410.107	367.27
410.315	273.06
410.524	365.22
410.733	371.37
410.941	295.59
411.15	371.37
411.358	326.31
411.567	395.94
411.775	338.6
411.984	402.08
412.192	363.17
412.401	400.04
412.609	506.53
412.818	432.8
413.026	477.86
413.234	539.3
413.443	488.1
413.651	553.63
413.86	477.86
414.068	539.3
414.276	527.01
414.485	492.2
414.693	678.56
414.901	758.43
415.11	692.9
415.318	682.66
415.526	690.85
415.734	717.47
415.943	723.62
416.151	823.97
416.359	826.01
416.567	858.78
416.776	922.27
416.984	1018.52
417.192	897.69
417.4	952.99
417.608	963.23
417.817	1039
418.025	1182.36
418.233	1059.48
418.441	1071.77
418.649	1157.79
418.857	1278.62
419.065	1204.89
419.273	1153.69
419.481	1305.24
419.689	1395.35
419.897	1401.49
420.105	1378.97
420.313	1540.76
420.521	1503.89
420.729	1571.47
420.937	1618.58
421.145	1753.74
421.353	1850
421.561	1796.75
421.769	1839.76
421.977	1995.4
422.185	2030.22
422.393	2030.22
422.601	2177.67
422.809	2128.52
423.017	2149
423.224	2325.13
423.432	2224.78
423.64	2349.7
423.848	2511.49
424.056	2310.79
424.263	2683.52
424.471	2701.95
424.679	2808.45
424.887	2941.57
425.094	2888.32
425.302	2980.48
425.51	3115.64
425.718	3179.13
425.925	3218.04
426.133	3445.37
426.341	3570.29
426.548	3842.67
426.756	3719.79
426.964	3811.95
427.171	3852.91
427.379	4092.52
427.586	4059.76
427.794	4461.16
428.001	4418.15
428.209	4594.28
428.417	4545.13
428.624	5028.45
428.832	4866.66
429.039	4739.68
429.247	4917.86
429.454	5274.2
429.662	5653.08
429.869	5472.86
430.076	5612.12
430.284	5519.96
430.491	5618.26
430.699	6130.25
430.906	6140.49
431.114	6232.65
431.321	6429.26
431.528	6613.57
431.736	6974.02
431.943	7232.06
432.15	7017.02
432.358	7137.85
432.565	7606.84
432.772	7651.89
432.979	7838.26
433.187	7928.37
433.394	8086.06
433.601	8567.34
433.808	8794.66
434.016	8720.93
434.223	8884.77
434.43	9452.06
434.637	9277.98
434.844	9974.29
435.052	10226.19
435.259	9994.77
435.466	10240.53
435.673	10152.46
435.88	10785.29
436.087	11168.26
436.294	11211.26
436.501	10854.92
436.708	11248.13
436.915	11518.46
437.122	12292.59
437.329	12018.16
437.537	12476.91
437.743	12513.77
437.95	12646.89
438.157	13165.03
438.364	13734.36
438.571	13763.03
438.778	13826.52
438.985	15272.39
439.192	14324.18
439.399	14913.99
439.606	14604.75
439.813	15241.67
440.02	16226.74
440.227	15770.04
440.433	15843.77
440.64	16402.86
440.847	16378.29
441.054	16703.92
441.261	18084.25
441.467	17717.66
441.674	17987.99
441.881	18610.57
442.088	18506.13
442.294	18379.15
442.501	18837.9
442.708	19243.4
442.914	19904.89
443.121	20918.64
443.328	20488.56
443.534	21434.72
443.741	20906.35
443.948	21002.6
444.154	22708.56
444.361	22055.26
444.568	22683.98
444.774	22411.6
444.981	22573.39
445.187	23509.32
445.394	24107.32
445.6	24068.41
445.807	26370.33
446.013	25035.05
446.22	25637.16
446.426	26183.96
446.633	27173.13
446.839	27924.74
447.046	26628.37
447.252	28092.67
447.459	28197.12
447.665	27939.07
447.871	29071.6
448.078	30886.1
448.284	29098.22
448.491	29903.07
448.697	30937.3
448.903	31539.4
449.11	31396.04
449.316	31424.72
449.522	31639.75
449.728	32438.46
449.935	32919.73
450.141	32702.65
450.347	33431.72
450.553	32510.14
450.76	32868.53
450.966	34078.88
451.172	33505.45
451.378	34273.44
451.584	33497.26
451.791	34379.93
451.997	34332.83
452.203	35072.15
452.409	35051.67
452.615	34867.35
452.821	33431.72
453.027	33421.48
453.233	34988.18
453.44	33376.43
453.646	33956
453.852	34474.14
454.058	35143.83
454.264	33403.05
454.47	34136.23
454.676	33542.31
454.882	34535.58
455.088	31525.07
455.294	32233.66
455.5	32680.12
455.705	33046.71
455.911	31817.93
456.117	30793.94
456.323	30513.37
456.529	28686.58
456.735	30265.56
456.941	29573.35
457.147	29028.59
457.352	28307.71
457.558	27654.4
457.764	27715.84
457.97	27699.46
458.176	26773.78
458.381	27072.78
458.587	25157.93
458.793	25594.15
458.999	24138.04
459.204	25635.11
459.41	24873.26
459.616	23492.93
459.821	23548.23
460.027	23003.47
460.233	22933.84
460.438	22038.87
460.644	22057.31
460.85	20994.41
461.055	20822.38
461.261	20687.22
461.466	19188.1
461.672	18530.7
461.878	19779.96
462.083	18702.73
462.289	18129.3
462.494	17936.79
462.7	17189.28
462.905	16802.22
463.111	17303.97
463.316	17361.31
463.522	17174.95
463.727	17013.16
463.932	17125.8
464.138	17062.31
464.343	17027.49
464.549	16644.52
464.754	16966.06
464.959	16808.36
465.165	16322.99
465.37	16230.83
465.575	15444.42
465.781	16003.51
465.986	16275.89
466.191	15634.88
466.397	15391.17
466.602	14651.85
466.807	15260.1
467.012	15157.7
467.218	15155.65
467.423	14893.51
467.628	14932.42
467.833	15536.57
468.038	15040.97
