Data from USB4F104151__60__11-45-18-429.txt Node

Date: Fri Mar 14 11:45:18 EDT 2025
User: louis
Spectrometer: USB4F10415
Trigger mode: 4
Integration Time (sec): 2.000000E-2
Scans to average: 1
Electric dark correction enabled: true
Nonlinearity correction enabled: false
Boxcar width: 0
XAxis mode: Wavelengths
Number of Pixels in Spectrum: 3648
>>>>>Begin Spectral Data<<<<<
178.204	-81.24
178.424	-81.24
178.644	-81.24
178.864	-116.05
179.084	-62.8
179.304	23.21
179.524	0.68
179.744	6.83
179.964	8.87
180.184	2.73
180.404	27.31
180.624	-15.7
180.844	23.21
181.064	-7.51
181.283	-1.37
181.503	-56.66
181.723	-11.61
181.943	-60.76
182.163	86.7
182.383	31.4
182.602	39.59
182.822	2.73
183.042	96.94
183.262	88.75
183.482	-44.37
183.701	-19.8
183.921	35.5
184.141	-23.89
184.361	53.93
184.58	6.83
184.8	29.35
185.02	43.69
185.239	88.75
185.459	72.36
185.679	33.45
185.898	-25.94
186.118	55.98
186.338	72.36
186.557	19.11
186.777	27.31
186.997	12.97
187.216	29.35
187.436	45.74
187.655	29.35
187.875	49.83
188.095	-5.46
188.314	74.41
188.534	39.59
188.753	58.03
188.973	39.59
189.192	62.12
189.412	-11.61
189.631	39.59
189.851	-27.99
190.07	35.5
190.29	70.31
190.509	55.98
190.729	33.45
190.948	47.79
191.168	78.51
191.387	6.83
191.607	51.88
191.826	88.75
192.045	47.79
192.265	19.11
192.484	27.31
192.704	8.87
192.923	-21.85
193.142	43.69
193.362	15.02
193.581	47.79
193.8	21.16
194.02	103.08
194.239	12.97
194.458	68.27
194.678	76.46
194.897	76.46
195.116	19.11
195.335	115.37
195.555	37.55
195.774	39.59
195.993	53.93
196.212	76.46
196.432	15.02
196.651	68.27
196.87	31.4
197.089	60.07
197.308	12.97
197.528	51.88
197.747	-21.85
197.966	76.46
198.185	51.88
198.404	19.11
198.623	45.74
198.842	39.59
199.062	76.46
199.281	2.73
199.5	78.51
199.719	31.4
199.938	49.83
200.157	45.74
200.376	55.98
200.595	10.92
200.814	80.55
201.033	33.45
201.252	29.35
201.471	47.79
201.69	86.7
201.909	84.65
202.128	92.84
202.347	55.98
202.566	-19.8
202.785	-15.7
203.004	29.35
203.223	80.55
203.442	37.55
203.661	66.22
203.879	74.41
204.098	8.87
204.317	60.07
204.536	-23.89
204.755	4.78
204.974	-1.37
205.193	78.51
205.411	80.55
205.63	-23.89
205.849	35.5
206.068	47.79
206.287	72.36
206.505	6.83
206.724	31.4
206.943	-11.61
207.162	66.22
207.381	-17.75
207.599	47.79
207.818	-5.46
208.037	68.27
208.255	29.35
208.474	33.45
208.693	12.97
208.911	29.35
209.13	31.4
209.349	60.07
209.567	29.35
209.786	74.41
210.005	64.17
210.223	92.84
210.442	53.93
210.661	6.83
210.879	12.97
211.098	103.08
211.316	55.98
211.535	107.18
211.753	-19.8
211.972	17.07
212.191	12.97
212.409	76.46
212.628	17.07
212.846	12.97
213.065	74.41
213.283	33.45
213.502	47.79
213.72	33.45
213.938	-25.94
214.157	27.31
214.375	55.98
214.594	-5.46
214.812	72.36
215.031	17.07
215.249	80.55
215.467	8.87
215.686	64.17
215.904	60.07
216.122	2.73
216.341	101.03
216.559	55.98
216.778	35.5
216.996	37.55
217.214	74.41
217.432	66.22
217.651	96.94
217.869	-27.99
218.087	64.17
218.306	-15.7
218.524	70.31
218.742	-13.65
218.96	-7.51
219.179	-95.57
219.397	43.69
219.615	51.88
219.833	53.93
220.051	19.11
220.27	64.17
220.488	8.87
220.706	47.79
220.924	41.64
221.142	92.84
221.36	2.73
221.578	82.6
221.796	33.45
222.015	12.97
222.233	33.45
222.451	4.78
222.669	15.02
222.887	23.21
223.105	2.73
223.323	47.79
223.541	-5.46
223.759	37.55
223.977	103.08
224.195	74.41
224.413	123.56
224.631	51.88
224.849	47.79
225.067	27.31
225.285	68.27
225.503	0.68
225.721	-15.7
225.939	10.92
226.157	72.36
226.375	117.42
226.592	43.69
226.81	17.07
227.028	45.74
227.246	66.22
227.464	23.21
227.682	58.03
227.9	-5.46
228.117	29.35
228.335	17.07
228.553	51.88
228.771	-30.04
228.989	43.69
229.206	58.03
229.424	6.83
229.642	10.92
229.86	35.5
230.077	31.4
230.295	33.45
230.513	117.42
230.731	35.5
230.948	37.55
231.166	29.35
231.384	25.26
231.601	45.74
231.819	98.99
232.037	-30.04
232.254	-46.42
232.472	41.64
232.689	62.12
232.907	-19.8
233.125	78.51
233.342	33.45
233.56	72.36
233.777	101.03
233.995	31.4
234.213	23.21
234.43	37.55
234.648	23.21
234.865	68.27
235.083	15.02
235.3	-30.04
235.518	107.18
235.735	53.93
235.953	53.93
236.17	70.31
236.388	0.68
236.605	35.5
236.822	-7.51
237.04	78.51
237.257	64.17
237.475	-3.41
237.692	78.51
237.909	53.93
238.127	84.65
238.344	129.7
238.562	80.55
238.779	35.5
238.996	17.07
239.214	53.93
239.431	39.59
239.648	62.12
239.865	86.7
240.083	39.59
240.3	21.16
240.517	86.7
240.735	41.64
240.952	92.84
241.169	51.88
241.386	-11.61
241.603	17.07
241.821	-19.8
242.038	12.97
242.255	41.64
242.472	17.07
242.689	45.74
242.907	64.17
243.124	15.02
243.341	55.98
243.558	35.5
243.775	92.84
243.992	10.92
244.209	47.79
244.426	47.79
244.643	23.21
244.86	-1.37
245.078	12.97
245.295	-60.76
245.512	45.74
245.729	0.68
245.946	27.31
246.163	47.79
246.38	58.03
246.597	66.22
246.814	101.03
247.031	55.98
247.248	58.03
247.464	27.31
247.681	76.46
247.898	0.68
248.115	80.55
248.332	70.31
248.549	10.92
248.766	43.69
248.983	31.4
249.2	47.79
249.417	6.83
249.633	19.11
249.85	49.83
250.067	43.69
250.284	55.98
250.501	101.03
250.717	25.26
250.934	27.31
251.151	27.31
251.368	47.79
251.585	62.12
251.801	23.21
252.018	4.78
252.235	17.07
252.451	-32.08
252.668	-7.51
252.885	76.46
253.102	41.64
253.318	-9.56
253.535	15.02
253.752	82.6
253.968	12.97
254.185	-60.76
254.401	29.35
254.618	78.51
254.835	8.87
255.051	39.59
255.268	35.5
255.484	88.75
255.701	-1.37
255.917	47.79
256.134	10.92
256.351	17.07
256.567	23.21
256.784	-23.89
257	70.31
257.217	31.4
257.433	84.65
257.65	60.07
257.866	76.46
258.082	60.07
258.299	31.4
258.515	39.59
258.732	-46.42
258.948	37.55
259.165	2.73
259.381	-13.65
259.597	45.74
259.814	53.93
260.03	-1.37
260.246	37.55
260.463	23.21
260.679	27.31
260.895	-23.89
261.112	45.74
261.328	45.74
261.544	72.36
261.761	88.75
261.977	23.21
262.193	51.88
262.409	72.36
262.626	55.98
262.842	74.41
263.058	4.78
263.274	27.31
263.49	68.27
263.707	53.93
263.923	33.45
264.139	25.26
264.355	33.45
264.571	92.84
264.787	60.07
265.004	35.5
265.22	53.93
265.436	-1.37
265.652	31.4
265.868	33.45
266.084	-9.56
266.3	-5.46
266.516	-30.04
266.732	8.87
266.948	29.35
267.164	-7.51
267.38	74.41
267.596	-48.47
267.812	129.7
268.028	133.8
268.244	-32.08
268.46	4.78
268.676	27.31
268.892	37.55
269.108	4.78
269.324	103.08
269.54	66.22
269.756	103.08
269.972	76.46
270.188	53.93
270.403	43.69
270.619	31.4
270.835	-34.13
271.051	115.37
271.267	21.16
271.483	103.08
271.698	21.16
271.914	17.07
272.13	6.83
272.346	-1.37
272.562	86.7
272.777	72.36
272.993	-25.94
273.209	53.93
273.425	-17.75
273.64	66.22
273.856	23.21
274.072	60.07
274.287	76.46
274.503	88.75
274.719	39.59
274.934	10.92
275.15	6.83
275.366	-1.37
275.581	60.07
275.797	41.64
276.012	51.88
276.228	-9.56
276.444	0.68
276.659	60.07
276.875	51.88
277.09	25.26
277.306	21.16
277.521	8.87
277.737	31.4
277.952	137.9
278.168	47.79
278.383	47.79
278.599	-19.8
278.814	25.26
279.03	29.35
279.245	35.5
279.461	74.41
279.676	68.27
279.892	-15.7
280.107	19.11
280.322	0.68
280.538	27.31
280.753	27.31
280.969	41.64
281.184	72.36
281.399	94.89
281.615	33.45
281.83	80.55
282.045	45.74
282.26	80.55
282.476	78.51
282.691	64.17
282.906	55.98
283.122	80.55
283.337	15.02
283.552	0.68
283.767	47.79
283.983	43.69
284.198	-23.89
284.413	27.31
284.628	66.22
284.843	41.64
285.058	80.55
285.274	35.5
285.489	-19.8
285.704	62.12
285.919	-15.7
286.134	64.17
286.349	60.07
286.564	55.98
286.779	39.59
286.995	70.31
287.21	0.68
287.425	-11.61
287.64	84.65
287.855	-1.37
288.07	-5.46
288.285	47.79
288.5	111.27
288.715	21.16
288.93	90.79
289.145	60.07
289.36	103.08
289.575	15.02
289.79	111.27
290.004	25.26
290.219	12.97
290.434	51.88
290.649	37.55
290.864	4.78
291.079	47.79
291.294	35.5
291.509	115.37
291.724	58.03
291.938	-9.56
292.153	29.35
292.368	15.02
292.583	53.93
292.798	41.64
293.012	17.07
293.227	29.35
293.442	37.55
293.657	76.46
293.871	53.93
294.086	-9.56
294.301	15.02
294.516	103.08
294.73	43.69
294.945	31.4
295.16	37.55
295.374	94.89
295.589	107.18
295.804	10.92
296.018	37.55
296.233	0.68
296.447	21.16
296.662	70.31
296.877	90.79
297.091	88.75
297.306	12.97
297.52	72.36
297.735	51.88
297.949	45.74
298.164	70.31
298.378	-9.56
298.593	-34.13
298.807	105.13
299.022	64.17
299.236	19.11
299.451	-11.61
299.665	-17.75
299.88	33.45
300.094	23.21
300.309	8.87
300.523	47.79
300.737	29.35
300.952	37.55
301.166	96.94
301.381	43.69
301.595	51.88
301.809	74.41
302.024	86.7
302.238	-17.75
302.452	37.55
302.667	-21.85
302.881	41.64
303.095	74.41
303.309	29.35
303.524	31.4
303.738	74.41
303.952	41.64
304.166	74.41
304.381	55.98
304.595	62.12
304.809	51.88
305.023	21.16
305.237	23.21
305.452	39.59
305.666	15.02
305.88	31.4
306.094	53.93
306.308	8.87
306.522	68.27
306.736	78.51
306.95	39.59
307.164	33.45
307.379	-13.65
307.593	101.03
307.807	111.27
308.021	23.21
308.235	113.32
308.449	-19.8
308.663	21.16
308.877	107.18
309.091	-13.65
309.305	103.08
309.519	17.07
309.733	68.27
309.947	15.02
310.161	6.83
310.374	88.75
310.588	39.59
310.802	64.17
311.016	47.79
311.23	98.99
311.444	-17.75
311.658	53.93
311.872	-7.51
312.085	47.79
312.299	35.5
312.513	88.75
312.727	58.03
312.941	-38.23
313.154	117.42
313.368	43.69
313.582	82.6
313.796	21.16
314.009	74.41
314.223	111.27
314.437	39.59
314.651	96.94
314.864	21.16
315.078	80.55
315.292	37.55
315.505	45.74
315.719	17.07
315.933	72.36
316.146	-3.41
316.36	45.74
316.573	29.35
316.787	-1.37
317.001	8.87
317.214	60.07
317.428	84.65
317.641	15.02
317.855	55.98
318.068	53.93
318.282	62.12
318.495	90.79
318.709	55.98
318.922	35.5
319.136	58.03
319.349	58.03
319.563	-1.37
319.776	47.79
319.99	121.51
320.203	72.36
320.417	80.55
320.63	84.65
320.843	84.65
321.057	105.13
321.27	31.4
321.483	62.12
321.697	88.75
321.91	70.31
322.124	41.64
322.337	119.46
322.55	25.26
322.763	2.73
322.977	-1.37
323.19	4.78
323.403	60.07
323.617	37.55
323.83	58.03
324.043	43.69
324.256	10.92
324.469	21.16
324.683	68.27
324.896	21.16
325.109	92.84
325.322	-21.85
325.535	80.55
325.748	88.75
325.962	25.26
326.175	-44.37
326.388	76.46
326.601	137.9
326.814	72.36
327.027	6.83
327.24	109.22
327.453	37.55
327.666	62.12
327.879	29.35
328.092	62.12
328.305	37.55
328.518	76.46
328.731	31.4
328.944	98.99
329.157	49.83
329.37	64.17
329.583	60.07
329.796	92.84
330.009	41.64
330.222	43.69
330.435	72.36
330.648	55.98
330.861	29.35
331.073	66.22
331.286	96.94
331.499	66.22
331.712	58.03
331.925	82.6
332.138	55.98
332.35	-9.56
332.563	-34.13
332.776	6.83
332.989	58.03
333.202	33.45
333.414	21.16
333.627	49.83
333.84	49.83
334.053	33.45
334.265	-58.71
334.478	68.27
334.691	47.79
334.903	19.11
335.116	72.36
335.329	70.31
335.541	76.46
335.754	60.07
335.966	107.18
336.179	29.35
336.392	55.98
336.604	29.35
336.817	76.46
337.029	74.41
337.242	72.36
337.454	12.97
337.667	47.79
337.88	58.03
338.092	92.84
338.305	37.55
338.517	62.12
338.729	92.84
338.942	41.64
339.154	-1.37
339.367	47.79
339.579	74.41
339.792	12.97
340.004	101.03
340.217	103.08
340.429	23.21
340.641	88.75
340.854	55.98
341.066	6.83
341.278	43.69
341.491	109.22
341.703	78.51
341.915	76.46
342.128	88.75
342.34	66.22
342.552	31.4
342.764	62.12
342.977	-1.37
343.189	43.69
343.401	47.79
343.613	4.78
343.826	35.5
344.038	31.4
344.25	43.69
344.462	25.26
344.674	88.75
344.886	90.79
345.099	23.21
345.311	84.65
345.523	29.35
345.735	-21.85
345.947	88.75
346.159	39.59
346.371	2.73
346.583	47.79
346.795	72.36
347.007	62.12
347.219	139.94
347.431	76.46
347.643	47.79
347.855	29.35
348.067	117.42
348.279	-17.75
348.491	86.7
348.703	68.27
348.915	72.36
349.127	29.35
349.339	74.41
349.551	58.03
349.763	70.31
349.975	55.98
350.187	58.03
350.399	64.17
350.61	25.26
350.822	49.83
351.034	60.07
351.246	-9.56
351.458	2.73
351.669	86.7
351.881	49.83
352.093	-9.56
352.305	131.75
352.517	90.79
352.728	17.07
352.94	37.55
353.152	111.27
353.363	92.84
353.575	80.55
353.787	94.89
353.999	64.17
354.21	53.93
354.422	55.98
354.633	-1.37
354.845	29.35
355.057	60.07
355.268	66.22
355.48	-21.85
355.692	113.32
355.903	23.21
356.115	51.88
356.326	41.64
356.538	70.31
356.749	113.32
356.961	45.74
357.172	121.51
357.384	84.65
357.595	125.61
357.807	-7.51
358.018	72.36
358.23	-7.51
358.441	101.03
358.653	6.83
358.864	51.88
359.075	-7.51
359.287	94.89
359.498	78.51
359.709	72.36
359.921	80.55
360.132	103.08
360.344	-21.85
360.555	-1.37
360.766	84.65
360.977	94.89
361.189	49.83
361.4	47.79
361.611	51.88
361.823	49.83
362.034	84.65
362.245	-13.65
362.456	27.31
362.667	70.31
362.879	53.93
363.09	31.4
363.301	51.88
363.512	60.07
363.723	90.79
363.935	19.11
364.146	41.64
364.357	37.55
364.568	121.51
364.779	58.03
364.99	23.21
365.201	82.6
365.412	72.36
365.623	64.17
365.834	49.83
366.045	64.17
366.256	84.65
366.467	115.37
366.678	47.79
366.889	121.51
367.1	6.83
367.311	39.59
367.522	27.31
367.733	103.08
367.944	49.83
368.155	58.03
368.366	78.51
368.577	103.08
368.788	80.55
368.999	58.03
369.209	86.7
369.42	172.71
369.631	53.93
369.842	60.07
370.053	131.75
370.264	62.12
370.474	37.55
370.685	62.12
370.896	107.18
371.107	137.9
371.317	70.31
371.528	43.69
371.739	58.03
371.95	15.02
372.16	127.66
372.371	-9.56
372.582	60.07
372.792	12.97
373.003	47.79
373.214	49.83
373.424	90.79
373.635	78.51
373.846	31.4
374.056	6.83
374.267	21.16
374.477	37.55
374.688	139.94
374.898	53.93
375.109	84.65
375.319	-5.46
375.53	35.5
375.74	96.94
375.951	86.7
376.161	47.79
376.372	33.45
376.582	68.27
376.793	96.94
377.003	-1.37
377.214	80.55
377.424	94.89
377.635	12.97
377.845	80.55
378.055	60.07
378.266	12.97
378.476	121.51
378.686	15.02
378.897	23.21
379.107	68.27
379.317	49.83
379.528	39.59
379.738	76.46
379.948	53.93
380.158	141.99
380.369	39.59
380.579	86.7
380.789	72.36
380.999	103.08
381.21	35.5
381.42	119.46
381.63	-42.32
381.84	137.9
382.05	19.11
382.261	74.41
382.471	43.69
382.681	37.55
382.891	58.03
383.101	76.46
383.311	53.93
383.521	51.88
383.731	88.75
383.941	43.69
384.151	86.7
384.361	78.51
384.571	53.93
384.781	37.55
384.991	162.47
385.201	31.4
385.411	103.08
385.621	88.75
385.831	6.83
386.041	43.69
386.251	139.94
386.461	98.99
386.671	47.79
386.881	82.6
387.091	82.6
387.301	90.79
387.511	10.92
387.72	58.03
387.93	66.22
388.14	107.18
388.35	62.12
388.56	92.84
388.769	139.94
388.979	72.36
389.189	76.46
389.399	103.08
389.609	96.94
389.818	82.6
390.028	68.27
390.238	41.64
390.447	29.35
390.657	96.94
390.867	4.78
391.076	125.61
391.286	105.13
391.496	107.18
391.705	80.55
391.915	86.7
392.125	111.27
392.334	51.88
392.544	74.41
392.753	139.94
392.963	103.08
393.172	25.26
393.382	119.46
393.591	113.32
393.801	70.31
394.01	219.82
394.22	62.12
394.429	19.11
394.639	160.42
394.848	115.37
395.058	168.62
395.267	166.57
395.477	135.85
395.686	88.75
395.895	137.9
396.105	150.18
396.314	111.27
396.524	72.36
396.733	76.46
396.942	96.94
397.152	107.18
397.361	141.99
397.57	170.66
397.78	41.64
397.989	113.32
398.198	156.33
398.407	68.27
398.617	115.37
398.826	66.22
399.035	129.7
399.244	154.28
399.453	121.51
399.663	72.36
399.872	115.37
400.081	137.9
400.29	162.47
400.499	125.61
400.708	123.56
400.917	31.4
401.127	41.64
401.336	25.26
401.545	129.7
401.754	148.14
401.963	172.71
402.172	158.38
402.381	264.87
402.59	172.71
402.799	139.94
403.008	101.03
403.217	139.94
403.426	205.48
403.635	90.79
403.844	109.22
404.053	152.23
404.262	141.99
404.471	205.48
404.68	164.52
404.888	211.62
405.097	172.71
405.306	187.05
405.515	150.18
405.724	193.19
405.933	275.11
406.142	207.53
406.35	234.15
406.559	135.85
406.768	201.38
406.977	238.25
407.185	215.72
407.394	168.62
407.603	195.24
407.812	236.2
408.02	293.54
408.229	256.68
408.438	332.45
408.646	199.34
408.855	283.3
409.064	217.77
409.272	348.84
409.481	309.93
409.69	316.07
409.898	352.93
410.107	338.6
410.315	328.36
410.524	359.08
410.733	338.6
410.941	352.93
411.15	350.89
411.358	297.64
411.567	484
411.775	400.04
411.984	383.65
412.192	475.81
412.401	522.91
412.609	547.49
412.818	512.67
413.026	541.35
413.234	567.97
413.443	633.5
413.651	619.17
413.86	629.41
414.068	711.33
414.276	727.71
414.485	647.84
414.693	676.51
414.901	768.67
415.11	740
415.318	783.01
415.526	797.34
415.734	850.59
415.943	840.35
416.151	926.36
416.359	889.5
416.567	1014.43
416.776	942.75
416.984	1043.1
417.192	1094.3
417.4	942.75
417.608	955.04
417.817	1129.11
418.025	1170.07
418.233	1299.09
418.441	1235.61
418.649	1295
418.857	1229.46
419.065	1389.21
419.273	1350.29
419.481	1485.46
419.689	1577.62
419.897	1600.15
420.105	1589.91
420.313	1548.95
420.521	1710.74
420.729	1729.17
420.937	1759.89
421.145	1837.71
421.353	2007.69
421.561	2032.27
421.769	2001.55
421.977	2105.99
422.185	2153.1
422.393	2314.89
422.601	2392.71
422.809	2431.62
423.017	2407.05
423.224	2427.53
423.432	2724.48
423.64	2656.9
423.848	2941.57
424.056	2781.82
424.263	2955.9
424.471	3082.88
424.679	3052.16
424.887	3197.56
425.094	3398.26
425.302	3334.78
425.51	3512.95
425.718	3533.43
425.925	3551.86
426.133	3797.62
426.341	4067.95
426.548	4151.92
426.756	4182.63
426.964	4295.27
427.171	4483.69
427.379	4483.69
427.586	4608.61
427.794	4921.95
428.001	4999.77
428.209	5229.15
428.417	5235.29
428.624	5538.39
428.832	5554.77
429.039	5366.36
429.247	5687.89
429.454	6060.62
429.662	6408.78
429.869	5911.12
430.076	6445.64
430.284	6181.45
430.491	6466.12
430.699	6720.07
430.906	6720.07
431.114	6879.81
431.321	7066.17
431.528	7492.15
431.736	7760.44
431.943	8301.1
432.15	8045.1
432.358	8028.72
432.565	8565.29
432.772	8489.51
432.979	8722.98
433.187	8958.5
433.394	9148.96
433.601	9814.55
433.808	9759.25
434.016	9839.12
434.223	10113.55
434.43	10723.85
434.637	10347.02
434.844	11045.38
435.052	11211.26
435.259	11057.67
435.466	11434.49
435.673	11180.54
435.88	11909.62
436.087	12673.51
436.294	12622.31
436.501	12317.17
436.708	12587.5
436.915	13126.11
437.122	13562.33
437.329	13670.87
437.537	13965.78
437.743	14275.02
437.95	13922.77
438.157	14846.41
438.364	15270.34
438.571	15153.6
438.778	15352.26
438.985	16886.18
439.192	16366
439.399	16648.62
439.606	16341.43
439.813	17340.83
440.02	18440.59
440.227	18194.84
440.433	17850.78
440.64	18370.96
440.847	18250.13
441.054	18839.95
441.261	19890.56
441.467	19667.33
441.674	20105.59
441.881	20988.27
442.088	20857.2
442.294	20965.74
442.501	21162.34
442.708	21442.92
442.914	22356.31
443.121	23400.77
443.328	22589.78
443.534	24619.31
443.741	23707.97
443.948	23454.02
444.154	25014.57
444.361	24912.17
444.568	25217.32
444.774	25168.17
444.981	25332.01
445.187	25927.97
445.394	27009.29
445.6	27048.21
445.807	29366.51
446.013	28512.5
446.22	28569.85
446.426	29884.64
446.633	30046.43
446.839	31174.86
447.046	30087.39
447.252	31570.12
447.459	31457.48
447.665	31258.83
447.871	33054.9
448.078	34244.77
448.284	32694.46
448.491	33710.25
448.697	35242.13
448.903	35422.35
449.11	35436.69
449.316	34824.34
449.522	35461.26
449.728	36329.6
449.935	36558.97
450.141	36847.74
450.347	37785.71
450.553	36112.52
450.76	37271.67
450.966	38209.64
451.172	37464.17
451.378	38221.92
451.584	37965.93
451.791	38608.99
451.997	38901.85
452.203	39057.49
452.409	39008.34
452.615	39014.49
452.821	37578.86
453.027	37455.98
453.233	39180.37
453.44	37834.86
453.646	38287.46
453.852	38410.34
454.058	38838.36
454.264	37791.85
454.47	38664.28
454.676	37785.71
454.882	38826.07
455.088	35545.23
455.294	35922.05
455.5	36716.67
455.705	36954.23
455.911	35586.19
456.117	34605.21
456.323	34259.1
456.529	32235.71
456.735	34093.22
456.941	33292.46
457.147	32291.01
457.352	31709.38
457.558	31011.03
457.764	31514.83
457.97	30830.8
458.176	30077.15
458.381	30060.77
458.587	28692.72
458.793	28541.18
458.999	27101.45
459.204	28965.1
459.41	28201.21
459.616	26503.45
459.821	26394.9
460.027	26413.34
460.233	25698.59
460.438	24604.98
460.644	24842.54
460.85	23871.81
461.055	23105.87
461.261	23277.9
461.466	21395.81
461.672	20869.48
461.878	22569.3
462.083	20871.53
462.289	20668.78
462.494	20095.35
462.7	19558.78
462.905	19069.32
463.111	19462.53
463.316	19794.3
463.522	18956.68
463.727	19274.12
463.932	19016.07
464.138	18885
464.343	19224.97
464.549	18307.48
464.754	19077.51
464.959	18878.86
465.165	18485.65
465.37	18129.3
465.575	17527.2
465.781	18334.1
465.986	18467.22
466.191	17437.09
466.397	17410.47
466.602	16286.13
466.807	17109.41
467.012	17213.86
467.218	16828.84
467.423	16808.36
467.628	17029.54
