Data from USB4F104151__55__11-45-14-929.txt Node

Date: Fri Mar 14 11:45:14 EDT 2025
User: louis
Spectrometer: USB4F10415
Trigger mode: 4
Integration Time (sec): 2.000000E-2
Scans to average: 1
Electric dark correction enabled: true
Nonlinearity correction enabled: false
Boxcar width: 0
XAxis mode: Wavelengths
Number of Pixels in Spectrum: 3648
>>>>>Begin Spectral Data<<<<<
178.204	-78.33
178.424	-78.33
178.644	-78.33
178.864	-20.99
179.084	5.63
179.304	-2.56
179.524	-31.23
179.744	60.93
179.964	-8.7
180.184	-41.47
180.404	-74.24
180.624	1.54
180.844	3.58
181.064	30.21
181.283	-14.85
181.503	50.69
181.723	26.11
181.943	-33.28
182.163	-4.61
182.383	81.41
182.602	46.59
182.822	34.3
183.042	65.02
183.262	38.4
183.482	50.69
183.701	1.54
183.921	58.88
184.141	-14.85
184.361	101.89
184.58	52.74
184.8	1.54
185.02	-2.56
185.239	46.59
185.459	40.45
185.679	58.88
185.898	44.54
186.118	62.98
186.338	-16.9
186.557	60.93
186.777	75.26
186.997	77.31
187.216	32.26
187.436	54.78
187.655	11.78
187.875	95.74
188.095	32.26
188.314	69.12
188.534	101.89
188.753	-51.71
188.973	28.16
189.192	122.37
189.412	26.11
189.631	5.63
189.851	-6.66
190.07	67.07
190.29	-51.71
190.509	-6.66
190.729	-31.23
190.948	79.36
191.168	19.97
191.387	54.78
191.607	38.4
191.826	38.4
192.045	-12.8
192.265	48.64
192.484	-16.9
192.704	77.31
192.923	-47.62
193.142	17.92
193.362	62.98
193.581	22.02
193.8	-18.94
194.02	40.45
194.239	112.13
194.458	44.54
194.678	-10.75
194.897	5.63
195.116	87.55
195.335	62.98
195.555	46.59
195.774	-2.56
195.993	46.59
196.212	38.4
196.432	71.17
196.651	28.16
196.87	30.21
197.089	85.5
197.308	81.41
197.528	-35.33
197.747	36.35
197.966	77.31
198.185	-18.94
198.404	7.68
198.623	-16.9
198.842	110.08
199.062	17.92
199.281	22.02
199.5	13.82
199.719	75.26
199.938	38.4
200.157	-4.61
200.376	28.16
200.595	36.35
200.814	-43.52
201.033	69.12
201.252	60.93
201.471	7.68
201.69	38.4
201.909	44.54
202.128	54.78
202.347	52.74
202.566	3.58
202.785	32.26
203.004	38.4
203.223	91.65
203.442	95.74
203.661	38.4
203.879	42.5
204.098	75.26
204.317	-20.99
204.536	-4.61
204.755	48.64
204.974	52.74
205.193	11.78
205.411	89.6
205.63	52.74
205.849	46.59
206.068	28.16
206.287	5.63
206.505	28.16
206.724	-37.38
206.943	11.78
207.162	26.11
207.381	26.11
207.599	-8.7
207.818	42.5
208.037	-4.61
208.255	58.88
208.474	52.74
208.693	65.02
208.911	30.21
209.13	-78.33
209.349	32.26
209.567	71.17
209.786	15.87
210.005	3.58
210.223	30.21
210.442	26.11
210.661	26.11
210.879	38.4
211.098	38.4
211.316	69.12
211.535	30.21
211.753	-37.38
211.972	3.58
212.191	26.11
212.409	26.11
212.628	11.78
212.846	13.82
213.065	93.69
213.283	79.36
213.502	52.74
213.72	83.45
213.938	65.02
214.157	65.02
214.375	24.06
214.594	48.64
214.812	75.26
215.031	1.54
215.249	-10.75
215.467	130.56
215.686	38.4
215.904	81.41
216.122	-16.9
216.341	97.79
216.559	-2.56
216.778	89.6
216.996	30.21
217.214	-18.94
217.432	38.4
217.651	42.5
217.869	71.17
218.087	13.82
218.306	71.17
218.524	32.26
218.742	24.06
218.96	52.74
219.179	13.82
219.397	19.97
219.615	62.98
219.833	60.93
220.051	42.5
220.27	112.13
220.488	69.12
220.706	26.11
220.924	-10.75
221.142	-0.51
221.36	30.21
221.578	46.59
221.796	24.06
222.015	62.98
222.233	-18.94
222.451	38.4
222.669	-4.61
222.887	40.45
223.105	91.65
223.323	112.13
223.541	7.68
223.759	32.26
223.977	1.54
224.195	60.93
224.413	38.4
224.631	5.63
224.849	50.69
225.067	69.12
225.285	34.3
225.503	-18.94
225.721	-10.75
225.939	79.36
226.157	-64
226.375	77.31
226.592	28.16
226.81	77.31
227.028	101.89
227.246	91.65
227.464	42.5
227.682	58.88
227.9	34.3
228.117	73.21
228.335	28.16
228.553	62.98
228.771	105.98
228.989	32.26
229.206	44.54
229.424	62.98
229.642	-0.51
229.86	-45.57
230.077	81.41
230.295	38.4
230.513	93.69
230.731	30.21
230.948	69.12
231.166	48.64
231.384	11.78
231.601	101.89
231.819	103.93
232.037	-47.62
232.254	9.73
232.472	58.88
232.689	-10.75
232.907	60.93
233.125	-10.75
233.342	7.68
233.56	22.02
233.777	7.68
233.995	19.97
234.213	83.45
234.43	116.22
234.648	-51.71
234.865	-0.51
235.083	26.11
235.3	36.35
235.518	77.31
235.735	44.54
235.953	124.41
236.17	5.63
236.388	-8.7
236.605	28.16
236.822	81.41
237.04	62.98
237.257	54.78
237.475	9.73
237.692	36.35
237.909	-14.85
238.127	17.92
238.344	-8.7
238.562	58.88
238.779	42.5
238.996	1.54
239.214	44.54
239.431	9.73
239.648	62.98
239.865	44.54
240.083	48.64
240.3	26.11
240.517	3.58
240.735	32.26
240.952	54.78
241.169	36.35
241.386	42.5
241.603	44.54
241.821	26.11
242.038	75.26
242.255	7.68
242.472	-72.19
242.689	5.63
242.907	79.36
243.124	15.87
243.341	75.26
243.558	65.02
243.775	-8.7
243.992	-10.75
244.209	-6.66
244.426	42.5
244.643	28.16
244.86	62.98
245.078	15.87
245.295	9.73
245.512	26.11
245.729	91.65
245.946	40.45
246.163	19.97
246.38	15.87
246.597	65.02
246.814	11.78
247.031	-14.85
247.248	48.64
247.464	52.74
247.681	89.6
247.898	-2.56
248.115	116.22
248.332	-29.18
248.549	122.37
248.766	62.98
248.983	65.02
249.2	58.88
249.417	13.82
249.633	54.78
249.85	1.54
250.067	95.74
250.284	17.92
250.501	42.5
250.717	110.08
250.934	58.88
251.151	1.54
251.368	95.74
251.585	24.06
251.801	73.21
252.018	-23.04
252.235	7.68
252.451	48.64
252.668	-57.86
252.885	103.93
253.102	3.58
253.318	13.82
253.535	62.98
253.752	15.87
253.968	-27.14
254.185	48.64
254.401	17.92
254.618	48.64
254.835	9.73
255.051	101.89
255.268	32.26
255.484	48.64
255.701	11.78
255.917	67.07
256.134	5.63
256.351	140.8
256.567	9.73
256.784	101.89
257	-8.7
257.217	40.45
257.433	69.12
257.65	5.63
257.866	26.11
258.082	73.21
258.299	38.4
258.515	40.45
258.732	48.64
258.948	81.41
259.165	40.45
259.381	54.78
259.597	-100.86
259.814	60.93
260.03	13.82
260.246	28.16
260.463	38.4
260.679	46.59
260.895	28.16
261.112	7.68
261.328	42.5
261.544	85.5
261.761	91.65
261.977	67.07
262.193	9.73
262.409	85.5
262.626	7.68
262.842	26.11
263.058	-59.9
263.274	17.92
263.49	-0.51
263.707	50.69
263.923	77.31
264.139	-12.8
264.355	40.45
264.571	54.78
264.787	71.17
265.004	-4.61
265.22	-31.23
265.436	116.22
265.652	38.4
265.868	-0.51
266.084	36.35
266.3	34.3
266.516	5.63
266.732	95.74
266.948	30.21
267.164	85.5
267.38	95.74
267.596	42.5
267.812	108.03
268.028	60.93
268.244	50.69
268.46	69.12
268.676	46.59
268.892	44.54
269.108	52.74
269.324	75.26
269.54	30.21
269.756	62.98
269.972	-33.28
270.188	56.83
270.403	-82.43
270.619	75.26
270.835	73.21
271.051	1.54
271.267	-25.09
271.483	-23.04
271.698	75.26
271.914	-53.76
272.13	60.93
272.346	52.74
272.562	-35.33
272.777	-6.66
272.993	-6.66
273.209	22.02
273.425	93.69
273.64	87.55
273.856	28.16
274.072	30.21
274.287	-18.94
274.503	69.12
274.719	40.45
274.934	1.54
275.15	15.87
275.366	42.5
275.581	38.4
275.797	3.58
276.012	26.11
276.228	52.74
276.444	24.06
276.659	-10.75
276.875	44.54
277.09	44.54
277.306	28.16
277.521	24.06
277.737	-33.28
277.952	5.63
278.168	-0.51
278.383	-53.76
278.599	58.88
278.814	48.64
279.03	108.03
279.245	71.17
279.461	54.78
279.676	75.26
279.892	42.5
280.107	26.11
280.322	9.73
280.538	81.41
280.753	-10.75
280.969	46.59
281.184	103.93
281.399	122.37
281.615	17.92
281.83	67.07
282.045	11.78
282.26	36.35
282.476	5.63
282.691	40.45
282.906	26.11
283.122	30.21
283.337	54.78
283.552	126.46
283.767	-12.8
283.983	87.55
284.198	71.17
284.413	79.36
284.628	1.54
284.843	36.35
285.058	79.36
285.274	30.21
285.489	24.06
285.704	46.59
285.919	48.64
286.134	56.83
286.349	1.54
286.564	34.3
286.779	19.97
286.995	-23.04
287.21	28.16
287.425	122.37
287.64	36.35
287.855	52.74
288.07	-23.04
288.285	22.02
288.5	40.45
288.715	60.93
288.93	81.41
289.145	38.4
289.36	11.78
289.575	-23.04
289.79	19.97
290.004	38.4
290.219	26.11
290.434	22.02
290.649	32.26
290.864	-55.81
291.079	-23.04
291.294	65.02
291.509	62.98
291.724	60.93
291.938	69.12
292.153	40.45
292.368	54.78
292.583	58.88
292.798	69.12
293.012	69.12
293.227	54.78
293.442	34.3
293.657	30.21
293.871	54.78
294.086	79.36
294.301	42.5
294.516	34.3
294.73	54.78
294.945	-27.14
295.16	60.93
295.374	44.54
295.589	1.54
295.804	38.4
296.018	32.26
296.233	112.13
296.447	26.11
296.662	-8.7
296.877	54.78
297.091	83.45
297.306	44.54
297.52	46.59
297.735	75.26
297.949	13.82
298.164	19.97
298.378	17.92
298.593	87.55
298.807	89.6
299.022	44.54
299.236	7.68
299.451	56.83
299.665	32.26
299.88	81.41
300.094	58.88
300.309	5.63
300.523	60.93
300.737	46.59
300.952	-49.66
301.166	85.5
301.381	13.82
301.595	32.26
301.809	-2.56
302.024	56.83
302.238	26.11
302.452	26.11
302.667	32.26
302.881	79.36
303.095	38.4
303.309	73.21
303.524	-27.14
303.738	28.16
303.952	-31.23
304.166	89.6
304.381	-27.14
304.595	126.46
304.809	-2.56
305.023	83.45
305.237	-16.9
305.452	81.41
305.666	36.35
305.88	105.98
306.094	48.64
306.308	15.87
306.522	118.27
306.736	3.58
306.95	32.26
307.164	13.82
307.379	101.89
307.593	85.5
307.807	48.64
308.021	71.17
308.235	28.16
308.449	38.4
308.663	44.54
308.877	103.93
309.091	54.78
309.305	95.74
309.519	36.35
309.733	118.27
309.947	-61.95
310.161	9.73
310.374	85.5
310.588	-4.61
310.802	-18.94
311.016	-31.23
311.23	-0.51
311.444	15.87
311.658	62.98
311.872	-12.8
312.085	65.02
312.299	103.93
312.513	36.35
312.727	140.8
312.941	-2.56
313.154	85.5
313.368	40.45
313.582	69.12
313.796	7.68
314.009	13.82
314.223	89.6
314.437	54.78
314.651	9.73
314.864	9.73
315.078	42.5
315.292	58.88
315.505	50.69
315.719	77.31
315.933	48.64
316.146	28.16
316.36	24.06
316.573	34.3
316.787	67.07
317.001	54.78
317.214	-2.56
317.428	75.26
317.641	69.12
317.855	32.26
318.068	73.21
318.282	-6.66
318.495	120.32
318.709	91.65
318.922	42.5
319.136	128.51
319.349	48.64
319.563	81.41
319.776	40.45
319.99	110.08
320.203	120.32
320.417	77.31
320.63	-10.75
320.843	99.84
321.057	42.5
321.27	44.54
321.483	87.55
321.697	11.78
321.91	75.26
322.124	73.21
322.337	1.54
322.55	34.3
322.763	38.4
322.977	30.21
323.19	75.26
323.403	42.5
323.617	114.17
323.83	67.07
324.043	93.69
324.256	73.21
324.469	-18.94
324.683	97.79
324.896	11.78
325.109	65.02
325.322	17.92
325.535	124.41
325.748	36.35
325.962	36.35
326.175	73.21
326.388	83.45
326.601	146.94
326.814	108.03
327.027	32.26
327.24	75.26
327.453	17.92
327.666	56.83
327.879	75.26
328.092	85.5
328.305	-8.7
328.518	77.31
328.731	44.54
328.944	48.64
329.157	34.3
329.37	44.54
329.583	77.31
329.796	132.61
330.009	42.5
330.222	62.98
330.435	30.21
330.648	87.55
330.861	52.74
331.073	62.98
331.286	83.45
331.499	77.31
331.712	-27.14
331.925	114.17
332.138	124.41
332.35	79.36
332.563	30.21
332.776	9.73
332.989	46.59
333.202	99.84
333.414	5.63
333.627	114.17
333.84	-14.85
334.053	112.13
334.265	75.26
334.478	62.98
334.691	52.74
334.903	17.92
335.116	3.58
335.329	42.5
335.541	69.12
335.754	108.03
335.966	97.79
336.179	-2.56
336.392	26.11
336.604	54.78
336.817	93.69
337.029	60.93
337.242	24.06
337.454	103.93
337.667	52.74
337.88	108.03
338.092	19.97
338.305	1.54
338.517	26.11
338.729	42.5
338.942	118.27
339.154	52.74
339.367	60.93
339.579	136.7
339.792	-8.7
340.004	105.98
340.217	60.93
340.429	1.54
340.641	34.3
340.854	89.6
341.066	91.65
341.278	75.26
341.491	89.6
341.703	60.93
341.915	5.63
342.128	71.17
342.34	50.69
342.552	3.58
342.764	38.4
342.977	97.79
343.189	77.31
343.401	73.21
343.613	46.59
343.826	56.83
344.038	110.08
344.25	19.97
344.462	81.41
344.674	24.06
344.886	83.45
345.099	32.26
345.311	-20.99
345.523	118.27
345.735	73.21
345.947	46.59
346.159	142.85
346.371	17.92
346.583	87.55
346.795	91.65
347.007	-35.33
347.219	48.64
347.431	83.45
347.643	118.27
347.855	30.21
348.067	36.35
348.279	75.26
348.491	26.11
348.703	3.58
348.915	44.54
349.127	110.08
349.339	32.26
349.551	56.83
349.763	122.37
349.975	-4.61
350.187	54.78
350.399	9.73
350.61	91.65
350.822	-8.7
351.034	128.51
351.246	101.89
351.458	34.3
351.669	105.98
351.881	71.17
352.093	50.69
352.305	75.26
352.517	38.4
352.728	116.22
352.94	60.93
353.152	105.98
353.363	34.3
353.575	77.31
353.787	79.36
353.999	87.55
354.21	56.83
354.422	36.35
354.633	13.82
354.845	56.83
355.057	56.83
355.268	34.3
355.48	52.74
355.692	9.73
355.903	85.5
356.115	79.36
356.326	83.45
356.538	69.12
356.749	48.64
356.961	124.41
357.172	85.5
357.384	1.54
357.595	34.3
357.807	62.98
358.018	40.45
358.23	105.98
358.441	97.79
358.653	17.92
358.864	67.07
359.075	28.16
359.287	46.59
359.498	15.87
359.709	36.35
359.921	110.08
360.132	110.08
360.344	103.93
360.555	44.54
360.766	79.36
360.977	13.82
361.189	32.26
361.4	34.3
361.611	67.07
361.823	87.55
362.034	62.98
362.245	1.54
362.456	9.73
362.667	81.41
362.879	83.45
363.09	58.88
363.301	48.64
363.512	73.21
363.723	-12.8
363.935	40.45
364.146	42.5
364.357	56.83
364.568	24.06
364.779	-6.66
364.99	114.17
365.201	69.12
365.412	19.97
365.623	120.32
365.834	93.69
366.045	173.57
366.256	62.98
366.467	38.4
366.678	87.55
366.889	89.6
367.1	19.97
367.311	77.31
367.522	46.59
367.733	60.93
367.944	101.89
368.155	114.17
368.366	114.17
368.577	99.84
368.788	116.22
368.999	62.98
369.209	24.06
369.42	157.18
369.631	124.41
369.842	26.11
370.053	48.64
370.264	75.26
370.474	42.5
370.685	26.11
370.896	85.5
371.107	46.59
371.317	36.35
371.528	42.5
371.739	79.36
371.95	40.45
372.16	87.55
372.371	26.11
372.582	62.98
372.792	62.98
373.003	65.02
373.214	124.41
373.424	60.93
373.635	62.98
373.846	157.18
374.056	38.4
374.267	79.36
374.477	69.12
374.688	46.59
374.898	60.93
375.109	32.26
375.319	99.84
375.53	77.31
375.74	83.45
375.951	93.69
376.161	19.97
376.372	48.64
376.582	50.69
376.793	38.4
377.003	71.17
377.214	36.35
377.424	101.89
377.635	44.54
377.845	46.59
378.055	15.87
378.266	19.97
378.476	120.32
378.686	81.41
378.897	62.98
379.107	93.69
379.317	130.56
379.528	108.03
379.738	157.18
379.948	54.78
380.158	132.61
380.369	134.65
380.579	54.78
380.789	89.6
380.999	44.54
381.21	130.56
381.42	130.56
381.63	103.93
381.84	30.21
382.05	69.12
382.261	89.6
382.471	60.93
382.681	9.73
382.891	24.06
383.101	62.98
383.311	67.07
383.521	48.64
383.731	87.55
383.941	114.17
384.151	62.98
384.361	95.74
384.571	42.5
384.781	54.78
384.991	142.85
385.201	130.56
385.411	58.88
385.621	73.21
385.831	54.78
386.041	42.5
386.251	46.59
386.461	81.41
386.671	93.69
386.881	56.83
387.091	26.11
387.301	97.79
387.511	60.93
387.72	122.37
387.93	36.35
388.14	3.58
388.35	69.12
388.56	103.93
388.769	93.69
388.979	132.61
389.189	132.61
389.399	126.46
389.609	77.31
389.818	112.13
390.028	110.08
390.238	161.28
390.447	46.59
390.657	54.78
390.867	81.41
391.076	116.22
391.286	101.89
391.496	42.5
391.705	91.65
391.915	93.69
392.125	95.74
392.334	75.26
392.544	36.35
392.753	71.17
392.963	69.12
393.172	126.46
393.382	24.06
393.591	93.69
393.801	103.93
394.01	138.75
394.22	54.78
394.429	97.79
394.639	71.17
394.848	65.02
395.058	58.88
395.267	148.99
395.477	132.61
395.686	132.61
395.895	165.37
396.105	157.18
396.314	169.47
396.524	161.28
396.733	95.74
396.942	157.18
397.152	120.32
397.361	120.32
397.57	194.05
397.78	60.93
397.989	97.79
398.198	177.66
398.407	93.69
398.617	126.46
398.826	126.46
399.035	126.46
399.244	122.37
399.453	56.83
399.663	210.43
399.872	136.7
400.081	136.7
400.29	112.13
400.499	110.08
400.708	161.28
400.917	128.51
401.127	103.93
401.336	177.66
401.545	81.41
401.754	161.28
401.963	206.33
402.172	73.21
402.381	185.85
402.59	192
402.799	101.89
403.008	194.05
403.217	232.96
403.426	124.41
403.635	212.48
403.844	171.52
404.053	140.8
404.262	118.27
404.471	171.52
404.68	163.33
404.888	202.24
405.097	175.61
405.306	161.28
405.515	173.57
405.724	224.76
405.933	216.57
406.142	235
406.35	214.52
406.559	267.77
406.768	210.43
406.977	298.49
407.185	302.59
407.394	269.82
407.603	251.39
407.812	341.5
408.02	275.96
408.229	249.34
408.438	265.72
408.646	271.87
408.855	282.11
409.064	312.83
409.272	245.24
409.481	398.84
409.69	329.21
409.898	302.59
410.107	347.64
410.315	456.19
410.524	425.47
410.733	390.65
410.941	484.86
411.15	402.94
411.358	439.8
411.567	493.05
411.775	482.81
411.984	478.71
412.192	521.72
412.401	517.62
412.609	534.01
412.818	597.49
413.026	691.7
413.234	601.59
413.443	617.97
413.651	693.75
413.86	738.8
414.068	732.66
414.276	747
414.485	742.9
414.693	783.86
414.901	806.39
415.11	908.79
415.318	863.73
415.526	851.44
415.734	959.99
415.943	914.93
416.151	976.37
416.359	1062.38
416.567	1062.38
416.776	1043.95
416.984	1275.37
417.192	1168.88
417.4	1170.93
417.608	1170.93
417.817	1275.37
418.025	1240.56
418.233	1398.25
418.441	1336.81
418.649	1510.89
418.857	1545.7
419.065	1629.67
419.273	1564.14
419.481	1607.14
419.689	1744.36
419.897	1904.1
420.105	1818.08
420.313	1926.63
420.521	1967.59
420.729	2000.35
420.937	2043.36
421.145	2141.66
421.353	2209.25
421.561	2389.47
421.769	2352.6
421.977	2541.02
422.185	2452.95
422.393	2684.38
422.601	2864.6
422.809	2805.21
423.017	2776.53
423.224	2903.51
423.432	3073.49
423.64	3124.69
423.848	3333.58
424.056	3227.09
424.263	3573.19
424.471	3507.66
424.679	3601.87
424.887	3796.42
425.094	3909.06
425.302	3872.2
425.51	3982.79
425.718	4044.23
425.925	4126.15
426.133	4416.96
426.341	4550.07
426.548	4955.57
426.756	4791.73
426.964	4818.36
427.171	5123.51
427.379	5373.36
427.586	5502.38
427.794	5500.33
428.001	5688.75
428.209	6000.04
428.417	5987.75
428.624	6329.76
428.832	6479.26
429.039	6284.7
429.247	6421.92
429.454	6952.34
429.662	7513.49
429.869	6972.82
430.076	7359.89
430.284	7083.41
430.491	7513.49
430.699	8031.62
430.906	7867.78
431.114	8084.87
431.321	8326.53
431.528	8459.65
431.736	9100.66
431.943	9465.2
432.15	9311.6
432.358	9164.15
432.565	9813.35
432.772	9772.39
432.979	10110.31
433.187	10532.19
433.394	10425.7
433.601	11126.1
433.808	11345.23
434.016	11240.79
434.223	11742.54
434.43	12539.2
434.637	12176.71
434.844	12848.44
435.052	13210.93
435.259	13094.2
435.466	13129.02
435.673	13104.44
435.88	13788.46
436.087	14748.96
436.294	14499.11
436.501	14335.27
436.708	14591.27
436.915	15234.33
437.122	16121.1
437.329	15930.64
437.537	15904.01
437.743	16618.75
437.95	16411.91
438.157	17407.22
438.364	17685.75
438.571	17829.1
438.778	17951.98
438.985	19680.47
439.192	18726.11
439.399	19539.16
439.606	19016.93
439.813	19885.26
440.02	21159.1
440.227	20800.71
440.433	20716.74
440.64	21308.6
440.847	21089.47
441.054	21703.86
441.261	23051.42
441.467	22883.49
441.674	23542.94
441.881	24169.62
442.088	24347.79
442.294	24155.28
442.501	24702.09
442.708	25304.19
442.914	25986.16
443.121	26930.28
443.328	26512.49
443.534	28038.23
443.741	27546.72
443.948	27028.58
444.154	29408.32
444.361	28990.53
444.568	29150.28
444.774	29504.57
444.981	29772.86
445.187	30053.43
445.394	31300.64
445.6	31448.1
445.807	34231.29
446.013	32611.34
446.22	33045.51
446.426	34997.23
446.633	34800.62
446.839	36254.68
447.046	34860.01
447.252	36379.6
447.459	36731.86
447.665	36187.1
447.871	37934.01
448.078	39504.81
448.284	37577.67
448.491	38833.07
448.697	40072.09
448.903	40774.55
449.11	41147.28
449.316	40473.49
449.522	41091.98
449.728	42097.53
449.935	42275.71
450.141	42523.51
450.347	43383.66
450.553	42290.04
450.76	42376.06
450.966	44006.24
451.172	43340.65
451.378	44841.81
451.584	43887.46
451.791	44407.64
451.997	44620.63
452.203	45321.04
452.409	45058.9
452.615	45230.93
452.821	43639.65
453.027	43133.81
453.233	45052.75
453.44	43514.73
453.646	43752.29
453.852	44321.63
454.058	45036.37
454.264	43400.04
454.47	44628.82
454.676	43266.92
454.882	44766.04
455.088	41061.26
455.294	41573.25
455.5	42392.44
455.705	42519.42
455.911	41085.84
456.117	40035.23
456.323	39795.62
456.529	38073.28
456.735	39398.31
456.941	38280.12
457.147	37491.65
457.352	36496.34
457.558	36432.85
457.764	36013.02
457.97	35804.13
458.176	34636.78
458.381	34544.62
458.587	32654.35
458.793	33350.66
458.999	31374.37
459.204	33924.09
459.41	32529.42
459.616	30551.09
459.821	30637.1
460.027	30495.79
460.233	29873.21
460.438	28640.33
460.644	28978.25
460.85	27530.33
461.055	26987.62
461.261	26647.66
461.466	24460.43
461.672	23999.63
461.878	25957.49
462.083	24378.51
462.289	23598.23
462.494	23237.79
462.7	22305.96
462.905	22019.25
463.111	22516.9
463.316	22701.22
463.522	22310.06
463.727	22181.04
463.932	21679.29
464.138	22217.9
464.343	21855.41
464.549	21144.77
464.754	22330.54
464.959	21804.21
465.165	21486.78
465.37	20634.82
465.575	19946.7
465.781	20907.2
465.986	21253.31
466.191	20481.22
466.397	20049.1
466.602	19367.13
466.807	19813.59
467.012	20159.69
467.218	19461.34
467.423	19733.71
467.628	19379.42
