Data from USB4F104151__85__11-45-39-966.txt Node

Date: Fri Mar 14 11:45:39 EDT 2025
User: louis
Spectrometer: USB4F10415
Trigger mode: 4
Integration Time (sec): 2.000000E-2
Scans to average: 1
Electric dark correction enabled: true
Nonlinearity correction enabled: false
Boxcar width: 0
XAxis mode: Wavelengths
Number of Pixels in Spectrum: 3648
>>>>>Begin Spectral Data<<<<<
178.204	-88.06
178.424	-88.06
178.644	-88.06
178.864	-43.01
179.084	-96.25
179.304	-34.82
179.524	26.62
179.744	55.3
179.964	-8.19
180.184	16.38
180.404	-24.58
180.624	14.34
180.844	-20.48
181.064	-100.35
181.283	26.62
181.503	-10.24
181.723	59.39
181.943	8.19
182.163	88.06
182.383	-10.24
182.602	12.29
182.822	36.86
183.042	16.38
183.262	4.1
183.482	8.19
183.701	36.86
183.921	-79.87
184.141	-14.34
184.361	-57.34
184.58	-47.1
184.8	34.82
185.02	10.24
185.239	110.59
185.459	-18.43
185.679	57.34
185.898	0
186.118	34.82
186.338	-28.67
186.557	53.25
186.777	14.34
186.997	92.16
187.216	-36.86
187.436	124.93
187.655	-6.14
187.875	18.43
188.095	-55.3
188.314	67.58
188.534	102.4
188.753	4.1
188.973	2.05
189.192	59.39
189.412	38.91
189.631	12.29
189.851	-38.91
190.07	49.15
190.29	-69.63
190.509	-4.1
190.729	-6.14
190.948	34.82
191.168	120.83
191.387	0
191.607	-43.01
191.826	94.21
192.045	20.48
192.265	-10.24
192.484	28.67
192.704	61.44
192.923	-32.77
193.142	49.15
193.362	96.25
193.581	2.05
193.8	24.58
194.02	71.68
194.239	67.58
194.458	55.3
194.678	-20.48
194.897	8.19
195.116	-28.67
195.335	-77.82
195.555	20.48
195.774	51.2
195.993	-8.19
196.212	26.62
196.432	30.72
196.651	16.38
196.87	-55.3
197.089	16.38
197.308	-10.24
197.528	-2.05
197.747	-26.62
197.966	26.62
198.185	-28.67
198.404	-26.62
198.623	59.39
198.842	-10.24
199.062	12.29
199.281	10.24
199.5	22.53
199.719	-57.34
199.938	98.3
200.157	-22.53
200.376	32.77
200.595	-2.05
200.814	6.14
201.033	8.19
201.252	38.91
201.471	30.72
201.69	30.72
201.909	73.73
202.128	47.1
202.347	104.45
202.566	-38.91
202.785	4.1
203.004	65.53
203.223	79.87
203.442	71.68
203.661	49.15
203.879	-36.86
204.098	34.82
204.317	22.53
204.536	-8.19
204.755	-6.14
204.974	36.86
205.193	-40.96
205.411	24.58
205.63	141.31
205.849	-102.4
206.068	-22.53
206.287	-2.05
206.505	55.3
206.724	61.44
206.943	-2.05
207.162	71.68
207.381	0
207.599	12.29
207.818	18.43
208.037	69.63
208.255	32.77
208.474	108.54
208.693	36.86
208.911	61.44
209.13	-10.24
209.349	-22.53
209.567	14.34
209.786	38.91
210.005	6.14
210.223	53.25
210.442	18.43
210.661	-16.38
210.879	-12.29
211.098	75.77
211.316	28.67
211.535	75.77
211.753	-22.53
211.972	40.96
212.191	-26.62
212.409	0
212.628	24.58
212.846	6.14
213.065	40.96
213.283	51.2
213.502	-45.06
213.72	-4.1
213.938	0
214.157	8.19
214.375	28.67
214.594	-47.1
214.812	-47.1
215.031	75.77
215.249	55.3
215.467	34.82
215.686	22.53
215.904	-36.86
216.122	-59.39
216.341	53.25
216.559	69.63
216.778	-26.62
216.996	-6.14
217.214	-36.86
217.432	24.58
217.651	-22.53
217.869	-18.43
218.087	-10.24
218.306	14.34
218.524	86.01
218.742	-10.24
218.96	51.2
219.179	32.77
219.397	20.48
219.615	92.16
219.833	30.72
220.051	36.86
220.27	40.96
220.488	57.34
220.706	6.14
220.924	20.48
221.142	-43.01
221.36	16.38
221.578	75.77
221.796	-10.24
222.015	-32.77
222.233	-2.05
222.451	86.01
222.669	-43.01
222.887	20.48
223.105	-43.01
223.323	49.15
223.541	32.77
223.759	94.21
223.977	4.1
224.195	4.1
224.413	22.53
224.631	-30.72
224.849	-2.05
225.067	67.58
225.285	38.91
225.503	12.29
225.721	-79.87
225.939	26.62
226.157	12.29
226.375	51.2
226.592	-14.34
226.81	43.01
227.028	-40.96
227.246	47.1
227.464	-22.53
227.682	22.53
227.9	22.53
228.117	-14.34
228.335	45.06
228.553	24.58
228.771	30.72
228.989	10.24
229.206	4.1
229.424	20.48
229.642	-10.24
229.86	-12.29
230.077	118.78
230.295	-4.1
230.513	65.53
230.731	53.25
230.948	96.25
231.166	-20.48
231.384	-20.48
231.601	4.1
231.819	18.43
232.037	57.34
232.254	38.91
232.472	10.24
232.689	14.34
232.907	-8.19
233.125	34.82
233.342	2.05
233.56	38.91
233.777	-24.58
233.995	12.29
234.213	43.01
234.43	0
234.648	40.96
234.865	10.24
235.083	49.15
235.3	-24.58
235.518	77.82
235.735	79.87
235.953	30.72
236.17	45.06
236.388	81.92
236.605	-10.24
236.822	10.24
237.04	8.19
237.257	-14.34
237.475	-28.67
237.692	0
237.909	20.48
238.127	22.53
238.344	30.72
238.562	38.91
238.779	14.34
238.996	-8.19
239.214	90.11
239.431	-24.58
239.648	-18.43
239.865	30.72
240.083	-18.43
240.3	-51.2
240.517	-34.82
240.735	-24.58
240.952	8.19
241.169	-16.38
241.386	96.25
241.603	0
241.821	-18.43
242.038	47.1
242.255	-71.68
242.472	10.24
242.689	-10.24
242.907	45.06
243.124	26.62
243.341	81.92
243.558	-26.62
243.775	30.72
243.992	4.1
244.209	16.38
244.426	4.1
244.643	14.34
244.86	-2.05
245.078	22.53
245.295	61.44
245.512	65.53
245.729	-4.1
245.946	75.77
246.163	-8.19
246.38	4.1
246.597	18.43
246.814	-43.01
247.031	22.53
247.248	-2.05
247.464	4.1
247.681	57.34
247.898	10.24
248.115	38.91
248.332	8.19
248.549	-14.34
248.766	59.39
248.983	32.77
249.2	-14.34
249.417	-20.48
249.633	-14.34
249.85	18.43
250.067	-18.43
250.284	47.1
250.501	18.43
250.717	-38.91
250.934	-36.86
251.151	-22.53
251.368	12.29
251.585	63.49
251.801	69.63
252.018	-49.15
252.235	-10.24
252.451	-30.72
252.668	-8.19
252.885	102.4
253.102	2.05
253.318	-20.48
253.535	18.43
253.752	-30.72
253.968	38.91
254.185	-59.39
254.401	36.86
254.618	30.72
254.835	-61.44
255.051	8.19
255.268	-16.38
255.484	71.68
255.701	63.49
255.917	104.45
256.134	2.05
256.351	-36.86
256.567	38.91
256.784	-47.1
257	-20.48
257.217	63.49
257.433	18.43
257.65	-59.39
257.866	102.4
258.082	-14.34
258.299	-12.29
258.515	-38.91
258.732	18.43
258.948	4.1
259.165	47.1
259.381	16.38
259.597	10.24
259.814	-30.72
260.03	-20.48
260.246	-6.14
260.463	-8.19
260.679	61.44
260.895	104.45
261.112	32.77
261.328	-24.58
261.544	-40.96
261.761	79.87
261.977	4.1
262.193	34.82
262.409	-16.38
262.626	38.91
262.842	45.06
263.058	-4.1
263.274	-16.38
263.49	67.58
263.707	16.38
263.923	0
264.139	28.67
264.355	83.97
264.571	14.34
264.787	-14.34
265.004	38.91
265.22	38.91
265.436	0
265.652	16.38
265.868	51.2
266.084	61.44
266.3	59.39
266.516	40.96
266.732	120.83
266.948	-20.48
267.164	57.34
267.38	34.82
267.596	2.05
267.812	43.01
268.028	6.14
268.244	-18.43
268.46	6.14
268.676	-4.1
268.892	67.58
269.108	47.1
269.324	24.58
269.54	-6.14
269.756	-38.91
269.972	-16.38
270.188	26.62
270.403	-16.38
270.619	32.77
270.835	55.3
271.051	51.2
271.267	-40.96
271.483	-32.77
271.698	28.67
271.914	-10.24
272.13	6.14
272.346	-36.86
272.562	28.67
272.777	55.3
272.993	10.24
273.209	-22.53
273.425	59.39
273.64	-10.24
273.856	79.87
274.072	63.49
274.287	-20.48
274.503	-10.24
274.719	-59.39
274.934	-65.54
275.15	43.01
275.366	-30.72
275.581	26.62
275.797	12.29
276.012	-2.05
276.228	112.64
276.444	32.77
276.659	-22.53
276.875	-75.77
277.09	63.49
277.306	12.29
277.521	10.24
277.737	-32.77
277.952	126.97
278.168	71.68
278.383	2.05
278.599	-34.82
278.814	63.49
279.03	6.14
279.245	-36.86
279.461	47.1
279.676	-12.29
279.892	-8.19
280.107	-14.34
280.322	-32.77
280.538	38.91
280.753	-30.72
280.969	12.29
281.184	18.43
281.399	-18.43
281.615	-10.24
281.83	-10.24
282.045	-28.67
282.26	-67.58
282.476	6.14
282.691	10.24
282.906	-2.05
283.122	22.53
283.337	24.58
283.552	100.35
283.767	-61.44
283.983	28.67
284.198	12.29
284.413	14.34
284.628	-10.24
284.843	0
285.058	51.2
285.274	-10.24
285.489	0
285.704	34.82
285.919	-22.53
286.134	-28.67
286.349	-16.38
286.564	49.15
286.779	20.48
286.995	-22.53
287.21	-30.72
287.425	20.48
287.64	-4.1
287.855	34.82
288.07	53.25
288.285	36.86
288.5	108.54
288.715	36.86
288.93	47.1
289.145	-2.05
289.36	12.29
289.575	0
289.79	108.54
290.004	43.01
290.219	-83.97
290.434	-14.34
290.649	22.53
290.864	-8.19
291.079	10.24
291.294	6.14
291.509	67.58
291.724	-75.77
291.938	8.19
292.153	8.19
292.368	-28.67
292.583	-10.24
292.798	45.06
293.012	-10.24
293.227	34.82
293.442	0
293.657	26.62
293.871	32.77
294.086	71.68
294.301	28.67
294.516	22.53
294.73	-4.1
294.945	-40.96
295.16	43.01
295.374	34.82
295.589	12.29
295.804	-16.38
296.018	0
296.233	38.91
296.447	38.91
296.662	49.15
296.877	26.62
297.091	110.59
297.306	-18.43
297.52	-30.72
297.735	36.86
297.949	-8.19
298.164	55.3
298.378	47.1
298.593	40.96
298.807	30.72
299.022	16.38
299.236	63.49
299.451	-10.24
299.665	32.77
299.88	86.01
300.094	0
300.309	55.3
300.523	86.01
300.737	14.34
300.952	6.14
301.166	-12.29
301.381	-63.49
301.595	-65.54
301.809	-2.05
302.024	-20.48
302.238	-16.38
302.452	51.2
302.667	22.53
302.881	79.87
303.095	10.24
303.309	28.67
303.524	43.01
303.738	-14.34
303.952	-14.34
304.166	-10.24
304.381	-2.05
304.595	28.67
304.809	-45.06
305.023	16.38
305.237	-28.67
305.452	26.62
305.666	34.82
305.88	-32.77
306.094	16.38
306.308	28.67
306.522	30.72
306.736	34.82
306.95	22.53
307.164	-63.49
307.379	-14.34
307.593	-22.53
307.807	40.96
308.021	55.3
308.235	38.91
308.449	-4.1
308.663	-36.86
308.877	16.38
309.091	51.2
309.305	108.54
309.519	28.67
309.733	12.29
309.947	-61.44
310.161	18.43
310.374	-49.15
310.588	57.34
310.802	-26.62
311.016	63.49
311.23	8.19
311.444	-36.86
311.658	67.58
311.872	24.58
312.085	34.82
312.299	30.72
312.513	-18.43
312.727	67.58
312.941	24.58
313.154	57.34
313.368	34.82
313.582	34.82
313.796	38.91
314.009	-30.72
314.223	61.44
314.437	-34.82
314.651	16.38
314.864	20.48
315.078	-4.1
315.292	-6.14
315.505	55.3
315.719	4.1
315.933	57.34
316.146	28.67
316.36	38.91
316.573	67.58
316.787	45.06
317.001	75.77
317.214	-4.1
317.428	20.48
317.641	30.72
317.855	-16.38
318.068	40.96
318.282	55.3
318.495	43.01
318.709	-32.77
318.922	59.39
319.136	4.1
319.349	55.3
319.563	6.14
319.776	12.29
319.99	-34.82
320.203	53.25
320.417	-47.1
320.63	63.49
320.843	18.43
321.057	24.58
321.27	43.01
321.483	4.1
321.697	100.35
321.91	-6.14
322.124	43.01
322.337	-71.68
322.55	8.19
322.763	30.72
322.977	51.2
323.19	47.1
323.403	-10.24
323.617	-14.34
323.83	67.58
324.043	-14.34
324.256	34.82
324.469	-49.15
324.683	69.63
324.896	-12.29
325.109	-20.48
325.322	10.24
325.535	-22.53
325.748	-20.48
325.962	-2.05
326.175	-26.62
326.388	6.14
326.601	43.01
326.814	8.19
327.027	-4.1
327.24	71.68
327.453	-2.05
327.666	59.39
327.879	55.3
328.092	57.34
328.305	55.3
328.518	22.53
328.731	47.1
328.944	28.67
329.157	10.24
329.37	8.19
329.583	88.06
329.796	6.14
330.009	45.06
330.222	22.53
330.435	67.58
330.648	32.77
330.861	61.44
331.073	55.3
331.286	63.49
331.499	65.53
331.712	88.06
331.925	55.3
332.138	16.38
332.35	22.53
332.563	0
332.776	20.48
332.989	14.34
333.202	49.15
333.414	26.62
333.627	28.67
333.84	-4.1
334.053	61.44
334.265	45.06
334.478	22.53
334.691	69.63
334.903	32.77
335.116	-53.25
335.329	10.24
335.541	63.49
335.754	18.43
335.966	-14.34
336.179	75.77
336.392	-51.2
336.604	-16.38
336.817	20.48
337.029	51.2
337.242	75.77
337.454	22.53
337.667	18.43
337.88	28.67
338.092	20.48
338.305	34.82
338.517	-8.19
338.729	34.82
338.942	32.77
339.154	-86.01
339.367	49.15
339.579	-32.77
339.792	-10.24
340.004	-73.73
340.217	61.44
340.429	-10.24
340.641	26.62
340.854	8.19
341.066	36.86
341.278	79.87
341.491	-4.1
341.703	-14.34
341.915	55.3
342.128	83.97
342.34	32.77
342.552	-34.82
342.764	16.38
342.977	-2.05
343.189	59.39
343.401	16.38
343.613	71.68
343.826	-45.06
344.038	28.67
344.25	18.43
344.462	14.34
344.674	26.62
344.886	-71.68
345.099	45.06
345.311	71.68
345.523	34.82
345.735	45.06
345.947	51.2
346.159	10.24
346.371	4.1
346.583	83.97
346.795	32.77
347.007	14.34
347.219	65.53
347.431	6.14
347.643	14.34
347.855	10.24
348.067	79.87
348.279	-38.91
348.491	40.96
348.703	18.43
348.915	-12.29
349.127	61.44
349.339	69.63
349.551	-8.19
349.763	16.38
349.975	36.86
350.187	14.34
350.399	-18.43
350.61	-6.14
350.822	-6.14
351.034	53.25
351.246	59.39
351.458	38.91
351.669	16.38
351.881	12.29
352.093	34.82
352.305	12.29
352.517	20.48
352.728	40.96
352.94	55.3
353.152	8.19
353.363	-8.19
353.575	18.43
353.787	2.05
353.999	57.34
354.21	10.24
354.422	22.53
354.633	-43.01
354.845	114.69
355.057	10.24
355.268	43.01
355.48	-6.14
355.692	26.62
355.903	24.58
356.115	-6.14
356.326	18.43
356.538	20.48
356.749	43.01
356.961	14.34
357.172	-51.2
357.384	26.62
357.595	36.86
357.807	43.01
358.018	-61.44
358.23	22.53
358.441	69.63
358.653	-59.39
358.864	6.14
359.075	20.48
359.287	90.11
359.498	34.82
359.709	47.1
359.921	59.39
360.132	75.77
360.344	12.29
360.555	2.05
360.766	-24.58
360.977	63.49
361.189	110.59
361.4	-2.05
361.611	16.38
361.823	57.34
362.034	34.82
362.245	32.77
362.456	38.91
362.667	24.58
362.879	34.82
363.09	75.77
363.301	36.86
363.512	14.34
363.723	14.34
363.935	77.82
364.146	18.43
364.357	-6.14
364.568	40.96
364.779	26.62
364.99	79.87
365.201	18.43
365.412	83.97
365.623	36.86
365.834	-4.1
366.045	0
366.256	45.06
366.467	-18.43
366.678	96.25
366.889	20.48
367.1	57.34
367.311	63.49
367.522	28.67
367.733	67.58
367.944	18.43
368.155	-24.58
368.366	22.53
368.577	2.05
368.788	0
368.999	-20.48
369.209	32.77
369.42	55.3
369.631	57.34
369.842	59.39
370.053	-4.1
370.264	-18.43
370.474	-18.43
370.685	-4.1
370.896	69.63
371.107	104.45
371.317	104.45
371.528	26.62
371.739	110.59
371.95	32.77
372.16	79.87
372.371	28.67
372.582	-47.1
372.792	-24.58
373.003	-47.1
373.214	53.25
373.424	-43.01
373.635	71.68
373.846	-55.3
374.056	28.67
374.267	40.96
374.477	36.86
374.688	20.48
374.898	-20.48
375.109	16.38
375.319	0
375.53	102.4
375.74	-4.1
375.951	53.25
376.161	55.3
376.372	-16.38
376.582	-12.29
376.793	40.96
377.003	-16.38
377.214	22.53
377.424	73.73
377.635	49.15
377.845	-102.4
378.055	4.1
378.266	-16.38
378.476	16.38
378.686	32.77
378.897	45.06
379.107	24.58
379.317	8.19
379.528	-45.06
379.738	-8.19
379.948	40.96
380.158	34.82
380.369	34.82
380.579	22.53
380.789	2.05
380.999	20.48
381.21	67.58
381.42	61.44
381.63	10.24
381.84	75.77
382.05	45.06
382.261	65.53
382.471	18.43
382.681	24.58
382.891	49.15
383.101	83.97
383.311	36.86
383.521	6.14
383.731	14.34
383.941	-24.58
384.151	2.05
384.361	18.43
384.571	43.01
384.781	77.82
384.991	51.2
385.201	24.58
385.411	61.44
385.621	16.38
385.831	0
386.041	16.38
386.251	-40.96
386.461	-18.43
386.671	32.77
386.881	26.62
387.091	38.91
387.301	0
387.511	10.24
387.72	6.14
387.93	20.48
388.14	-45.06
388.35	57.34
388.56	104.45
388.769	63.49
388.979	-36.86
389.189	53.25
389.399	73.73
389.609	67.58
389.818	79.87
390.028	-57.34
390.238	16.38
390.447	-34.82
390.657	2.05
390.867	20.48
391.076	-43.01
391.286	38.91
391.496	51.2
391.705	24.58
391.915	126.97
392.125	26.62
392.334	53.25
392.544	94.21
392.753	2.05
392.963	22.53
393.172	49.15
393.382	2.05
393.591	61.44
393.801	-20.48
394.01	65.53
394.22	34.82
394.429	49.15
394.639	26.62
394.848	45.06
395.058	14.34
395.267	-24.58
395.477	67.58
395.686	143.36
395.895	51.2
396.105	137.21
396.314	-14.34
396.524	16.38
396.733	49.15
396.942	47.1
397.152	-10.24
397.361	-12.29
397.57	57.34
397.78	34.82
397.989	47.1
398.198	98.3
398.407	20.48
398.617	83.97
398.826	-26.62
399.035	38.91
399.244	77.82
399.453	77.82
399.663	28.67
399.872	26.62
400.081	-43.01
400.29	135.17
400.499	53.25
400.708	106.49
400.917	98.3
401.127	28.67
401.336	61.44
401.545	75.77
401.754	94.21
401.963	110.59
402.172	83.97
402.381	53.25
402.59	6.14
402.799	108.54
403.008	24.58
403.217	8.19
403.426	102.4
403.635	28.67
403.844	57.34
404.053	77.82
404.262	55.3
404.471	141.31
404.68	98.3
404.888	-22.53
405.097	77.82
405.306	83.97
405.515	79.87
405.724	88.06
405.933	75.77
406.142	45.06
406.35	47.1
406.559	172.03
406.768	77.82
406.977	98.3
407.185	204.8
407.394	26.62
407.603	100.35
407.812	83.97
408.02	198.65
408.229	47.1
408.438	188.41
408.646	32.77
408.855	102.4
409.064	65.53
409.272	141.31
409.481	184.32
409.69	143.36
409.898	165.89
410.107	81.92
410.315	241.66
410.524	75.77
410.733	129.02
410.941	174.08
411.15	212.99
411.358	239.61
411.567	286.72
411.775	176.13
411.984	196.61
412.192	169.98
412.401	190.46
412.609	196.61
412.818	284.67
413.026	260.09
413.234	243.71
413.443	260.09
413.651	258.04
413.86	233.47
414.068	346.11
414.276	288.76
414.485	354.3
414.693	344.06
414.901	393.21
415.11	335.87
415.318	321.53
415.526	354.3
415.734	378.87
415.943	344.06
416.151	348.15
416.359	430.07
416.567	374.78
416.776	497.66
416.984	448.51
417.192	448.51
417.4	481.27
417.608	489.46
417.817	481.27
418.025	557.05
418.233	544.76
418.441	514.04
418.649	552.95
418.857	559.1
419.065	665.59
419.273	555
419.481	647.16
419.689	686.07
419.897	669.69
420.105	710.65
420.313	722.93
420.521	833.52
420.729	782.32
420.937	790.52
421.145	858.1
421.353	864.24
421.561	888.82
421.769	901.11
421.977	974.83
422.185	880.63
422.393	1011.7
422.601	1144.81
422.809	1019.89
423.017	1087.47
423.224	1130.48
423.432	1165.29
423.64	1157.1
423.848	1269.74
424.056	1232.88
424.263	1341.42
424.471	1226.73
424.679	1376.23
424.887	1413.1
425.094	1406.95
425.302	1404.91
425.51	1425.39
425.718	1591.27
425.925	1560.55
426.133	1679.33
426.341	1722.34
426.548	1773.54
426.756	1755.11
426.964	1794.02
427.171	1902.56
427.379	2117.6
427.586	1976.29
427.794	2009.06
428.001	2185.18
428.209	2254.81
428.417	2095.07
428.624	2492.38
428.832	2289.63
429.039	2279.39
429.247	2426.84
429.454	2648.02
429.662	2783.19
429.869	2600.92
430.076	2731.99
430.284	2701.27
430.491	2807.77
430.699	3022.8
430.906	2830.29
431.114	2965.46
431.321	3014.61
431.528	3160.02
431.736	3403.72
431.943	3663.82
432.15	3549.13
432.358	3456.97
432.565	3651.53
432.772	3667.91
432.979	3841.99
433.187	3921.86
433.394	3983.3
433.601	4241.34
433.808	4231.1
434.016	4190.14
434.223	4337.6
434.43	4695.99
434.637	4548.54
434.844	4868.02
435.052	4951.99
435.259	4808.63
435.466	5031.86
435.673	4896.69
435.88	5240.75
436.087	5498.8
436.294	5476.27
436.501	5216.18
436.708	5603.24
436.915	5670.83
437.122	6012.84
437.329	5928.87
437.537	6180.77
437.743	6231.97
437.95	6115.23
438.157	6506.4
438.364	6604.7
438.571	6684.57
438.778	6631.32
438.985	7235.47
439.192	7032.72
439.399	7237.52
439.606	7133.08
439.813	7624.59
440.02	7999.37
440.227	7905.16
440.433	7813
440.64	7974.79
440.847	7980.93
441.054	8140.68
441.261	8814.46
441.467	8617.85
441.674	8580.99
441.881	9035.64
442.088	8982.39
442.294	8968.06
442.501	9129.84
442.708	9222
442.914	9844.59
443.121	10071.91
443.328	9856.87
443.534	10393.44
443.741	10137.45
443.948	10147.69
444.154	10919.77
444.361	10753.88
444.568	10850.14
444.774	10946.39
444.981	10876.76
445.187	11132.76
445.394	11888.46
445.6	11611.98
445.807	12887.87
446.013	12525.38
446.22	12527.42
446.426	13023.03
446.633	13088.57
446.839	13520.69
447.046	13107
447.252	13694.77
447.459	13817.65
447.665	13778.73
447.871	14108.46
448.078	14804.77
448.284	14049.07
448.491	14434.08
448.697	15228.7
448.903	15587.09
449.11	15548.18
449.316	15365.91
449.522	15621.91
449.728	15998.73
449.935	16156.43
450.141	16015.12
450.347	16400.13
450.553	15965.96
450.76	16301.83
450.966	16396.04
451.172	16449.28
451.378	16756.48
451.584	16545.54
451.791	17186.55
451.997	16865.02
452.203	17133.31
452.409	17096.44
452.615	16920.32
452.821	16275.21
453.027	16240.39
453.233	17051.39
453.44	16707.33
453.646	16721.66
453.852	16707.33
454.058	16930.56
454.264	16477.96
454.47	16752.38
454.676	16473.86
454.882	17184.51
455.088	15539.99
455.294	15841.04
455.5	15935.24
455.705	16260.87
455.911	15734.54
456.117	15343.38
456.323	14966.56
456.529	14458.66
456.735	14776.09
456.941	14511.91
457.147	14169.9
457.352	13776.69
457.558	13772.59
457.764	13643.57
457.97	13618.99
458.176	13018.94
458.381	12877.63
458.587	12535.62
458.793	12420.93
458.999	11999.05
459.204	12703.55
459.41	12418.88
459.616	11538.26
459.821	11702.09
460.027	11581.26
460.233	11218.77
460.438	10665.82
460.644	10833.75
460.85	10323.81
461.055	10076.01
461.261	10065.77
461.466	9357.17
461.672	9052.02
461.878	9860.97
462.083	9224.05
462.289	8986.49
462.494	8976.25
462.7	8439.68
462.905	8390.53
463.111	8546.17
463.316	8542.08
463.522	8365.95
463.727	8361.86
463.932	8521.6
464.138	8202.11
464.343	8181.64
464.549	7935.88
464.754	8406.91
464.959	8251.27
465.165	8216.45
465.37	7860.1
465.575	7647.12
465.781	7837.58
465.986	7792.52
466.191	7860.1
466.397	7628.68
466.602	7073.68
466.807	7456.65
467.012	7456.65
467.218	7479.18
467.423	7432.08
467.628	7393.17
467.833	7657.36
468.038	7440.27
468.244	7274.38
468.449	7456.65
468.654	7131.03
468.859	7190.42
469.064	7071.64
469.269	6942.61
469.474	6842.26
