Data from USB4F104151__71__11-45-27-608.txt Node

Date: Fri Mar 14 11:45:27 EDT 2025
User: louis
Spectrometer: USB4F10415
Trigger mode: 4
Integration Time (sec): 2.000000E-2
Scans to average: 1
Electric dark correction enabled: true
Nonlinearity correction enabled: false
Boxcar width: 0
XAxis mode: Wavelengths
Number of Pixels in Spectrum: 3648
>>>>>Begin Spectral Data<<<<<
178.204	-3.58
178.424	-3.58
178.644	-3.58
178.864	-36.35
179.084	-97.79
179.304	23.04
179.524	18.94
179.744	-1.54
179.964	6.66
180.184	2.56
180.404	4.61
180.624	-42.5
180.844	55.81
181.064	29.18
181.283	-32.26
181.503	-99.84
181.723	35.33
181.943	-34.3
182.163	-15.87
182.383	33.28
182.602	90.62
182.822	10.75
183.042	-13.82
183.262	51.71
183.482	12.8
183.701	-5.63
183.921	80.38
184.141	51.71
184.361	33.28
184.58	31.23
184.8	16.9
185.02	53.76
185.239	66.05
185.459	27.14
185.679	82.43
185.898	-1.54
186.118	37.38
186.338	20.99
186.557	10.75
186.777	-7.68
186.997	55.81
187.216	2.56
187.436	16.9
187.655	-15.87
187.875	25.09
188.095	-5.63
188.314	12.8
188.534	41.47
188.753	27.14
188.973	-30.21
189.192	8.7
189.412	-24.06
189.631	39.42
189.851	82.43
190.07	127.49
190.29	14.85
190.509	23.04
190.729	-9.73
190.948	74.24
191.168	12.8
191.387	86.53
191.607	-9.73
191.826	59.9
192.045	2.56
192.265	-5.63
192.484	25.09
192.704	-32.26
192.923	0.51
193.142	72.19
193.362	23.04
193.581	57.86
193.8	16.9
194.02	0.51
194.239	51.71
194.458	70.14
194.678	90.62
194.897	45.57
195.116	70.14
195.335	-7.68
195.555	78.33
195.774	64
195.993	39.42
196.212	-24.06
196.432	23.04
196.651	35.33
196.87	16.9
197.089	59.9
197.308	35.33
197.528	4.61
197.747	37.38
197.966	12.8
198.185	104.96
198.404	-38.4
198.623	33.28
198.842	80.38
199.062	31.23
199.281	162.3
199.5	31.23
199.719	61.95
199.938	55.81
200.157	51.71
200.376	119.29
200.595	-32.26
200.814	10.75
201.033	55.81
201.252	61.95
201.471	78.33
201.69	8.7
201.909	27.14
202.128	59.9
202.347	64
202.566	-77.31
202.785	-24.06
203.004	23.04
203.223	18.94
203.442	59.9
203.661	-42.5
203.879	70.14
204.098	70.14
204.317	-36.35
204.536	98.81
204.755	-28.16
204.974	92.67
205.193	88.57
205.411	131.58
205.63	43.52
205.849	20.99
206.068	76.29
206.287	12.8
206.505	47.62
206.724	39.42
206.943	57.86
207.162	29.18
207.381	2.56
207.599	-13.82
207.818	4.61
208.037	98.81
208.255	-1.54
208.474	8.7
208.693	37.38
208.911	37.38
209.13	27.14
209.349	-15.87
209.567	49.66
209.786	92.67
210.005	66.05
210.223	37.38
210.442	0.51
210.661	23.04
210.879	8.7
211.098	2.56
211.316	41.47
211.535	20.99
211.753	51.71
211.972	90.62
212.191	27.14
212.409	74.24
212.628	12.8
212.846	-11.78
213.065	37.38
213.283	-24.06
213.502	47.62
213.72	33.28
213.938	4.61
214.157	12.8
214.375	39.42
214.594	-1.54
214.812	64
215.031	84.48
215.249	39.42
215.467	43.52
215.686	-5.63
215.904	82.43
216.122	25.09
216.341	78.33
216.559	72.19
216.778	39.42
216.996	88.57
217.214	27.14
217.432	35.33
217.651	-34.3
217.869	45.57
218.087	-17.92
218.306	27.14
218.524	25.09
218.742	35.33
218.96	35.33
219.179	-3.58
219.397	39.42
219.615	100.86
219.833	39.42
220.051	29.18
220.27	107.01
220.488	-15.87
220.706	2.56
220.924	92.67
221.142	51.71
221.36	51.71
221.578	59.9
221.796	-83.45
222.015	35.33
222.233	23.04
222.451	31.23
222.669	76.29
222.887	-7.68
223.105	-5.63
223.323	20.99
223.541	80.38
223.759	51.71
223.977	-1.54
224.195	53.76
224.413	2.56
224.631	35.33
224.849	-13.82
225.067	61.95
225.285	-17.92
225.503	49.66
225.721	-15.87
225.939	33.28
226.157	8.7
226.375	84.48
226.592	-54.78
226.81	84.48
227.028	35.33
227.246	35.33
227.464	25.09
227.682	12.8
227.9	12.8
228.117	51.71
228.335	53.76
228.553	29.18
228.771	-7.68
228.989	57.86
229.206	35.33
229.424	74.24
229.642	-34.3
229.86	51.71
230.077	43.52
230.295	10.75
230.513	70.14
230.731	51.71
230.948	37.38
231.166	18.94
231.384	43.52
231.601	-28.16
231.819	18.94
232.037	16.9
232.254	-42.5
232.472	23.04
232.689	35.33
232.907	43.52
233.125	61.95
233.342	53.76
233.56	53.76
233.777	43.52
233.995	59.9
234.213	109.05
234.43	12.8
234.648	98.81
234.865	35.33
235.083	12.8
235.3	53.76
235.518	49.66
235.735	-5.63
235.953	-3.58
236.17	18.94
236.388	70.14
236.605	31.23
236.822	37.38
237.04	25.09
237.257	33.28
237.475	-77.31
237.692	59.9
237.909	66.05
238.127	25.09
238.344	-3.58
238.562	-40.45
238.779	14.85
238.996	41.47
239.214	4.61
239.431	49.66
239.648	-36.35
239.865	31.23
240.083	14.85
240.3	39.42
240.517	-11.78
240.735	2.56
240.952	61.95
241.169	84.48
241.386	51.71
241.603	-26.11
241.821	-26.11
242.038	35.33
242.255	-11.78
242.472	20.99
242.689	-19.97
242.907	-36.35
243.124	29.18
243.341	-24.06
243.558	20.99
243.775	6.66
243.992	18.94
244.209	66.05
244.426	92.67
244.643	41.47
244.86	35.33
245.078	37.38
245.295	16.9
245.512	-3.58
245.729	68.09
245.946	70.14
246.163	41.47
246.38	-3.58
246.597	2.56
246.814	51.71
247.031	6.66
247.248	49.66
247.464	43.52
247.681	37.38
247.898	45.57
248.115	8.7
248.332	-17.92
248.549	18.94
248.766	111.1
248.983	92.67
249.2	31.23
249.417	14.85
249.633	35.33
249.85	82.43
250.067	18.94
250.284	72.19
250.501	76.29
250.717	125.44
250.934	-54.78
251.151	2.56
251.368	-5.63
251.585	43.52
251.801	29.18
252.018	68.09
252.235	45.57
252.451	8.7
252.668	39.42
252.885	80.38
253.102	107.01
253.318	64
253.535	104.96
253.752	0.51
253.968	12.8
254.185	45.57
254.401	47.62
254.618	76.29
254.835	20.99
255.051	96.77
255.268	64
255.484	55.81
255.701	125.44
255.917	78.33
256.134	6.66
256.351	0.51
256.567	27.14
256.784	55.81
257	41.47
257.217	70.14
257.433	117.25
257.65	31.23
257.866	49.66
258.082	14.85
258.299	33.28
258.515	-24.06
258.732	-34.3
258.948	8.7
259.165	18.94
259.381	-11.78
259.597	45.57
259.814	-3.58
260.03	-15.87
260.246	74.24
260.463	92.67
260.679	35.33
260.895	33.28
261.112	72.19
261.328	-3.58
261.544	150.01
261.761	27.14
261.977	23.04
262.193	27.14
262.409	53.76
262.626	27.14
262.842	80.38
263.058	-5.63
263.274	-11.78
263.49	70.14
263.707	33.28
263.923	16.9
264.139	70.14
264.355	23.04
264.571	61.95
264.787	25.09
265.004	76.29
265.22	-30.21
265.436	18.94
265.652	88.57
265.868	18.94
266.084	76.29
266.3	92.67
266.516	74.24
266.732	64
266.948	53.76
267.164	25.09
267.38	45.57
267.596	20.99
267.812	55.81
268.028	72.19
268.244	16.9
268.46	86.53
268.676	39.42
268.892	27.14
269.108	29.18
269.324	31.23
269.54	76.29
269.756	51.71
269.972	8.7
270.188	57.86
270.403	49.66
270.619	68.09
270.835	92.67
271.051	80.38
271.267	18.94
271.483	47.62
271.698	84.48
271.914	113.15
272.13	33.28
272.346	2.56
272.562	68.09
272.777	-11.78
272.993	59.9
273.209	2.56
273.425	72.19
273.64	-13.82
273.856	43.52
274.072	70.14
274.287	2.56
274.503	-38.4
274.719	74.24
274.934	-5.63
275.15	31.23
275.366	29.18
275.581	10.75
275.797	0.51
276.012	16.9
276.228	2.56
276.444	68.09
276.659	80.38
276.875	-3.58
277.09	59.9
277.306	135.68
277.521	31.23
277.737	88.57
277.952	51.71
278.168	8.7
278.383	-22.02
278.599	37.38
278.814	31.23
279.03	-15.87
279.245	135.68
279.461	45.57
279.676	53.76
279.892	43.52
280.107	-17.92
280.322	-30.21
280.538	33.28
280.753	-3.58
280.969	39.42
281.184	96.77
281.399	92.67
281.615	51.71
281.83	23.04
282.045	2.56
282.26	55.81
282.476	31.23
282.691	16.9
282.906	55.81
283.122	-5.63
283.337	-17.92
283.552	104.96
283.767	41.47
283.983	51.71
284.198	-28.16
284.413	45.57
284.628	27.14
284.843	16.9
285.058	43.52
285.274	-42.5
285.489	-13.82
285.704	-3.58
285.919	35.33
286.134	43.52
286.349	51.71
286.564	45.57
286.779	18.94
286.995	47.62
287.21	29.18
287.425	96.77
287.64	-5.63
287.855	0.51
288.07	6.66
288.285	70.14
288.5	84.48
288.715	68.09
288.93	23.04
289.145	-3.58
289.36	57.86
289.575	35.33
289.79	72.19
290.004	68.09
290.219	39.42
290.434	-56.83
290.649	107.01
290.864	6.66
291.079	41.47
291.294	90.62
291.509	57.86
291.724	61.95
291.938	74.24
292.153	45.57
292.368	41.47
292.583	57.86
292.798	29.18
293.012	37.38
293.227	-30.21
293.442	131.58
293.657	41.47
293.871	55.81
294.086	64
294.301	129.53
294.516	43.52
294.73	8.7
294.945	14.85
295.16	20.99
295.374	72.19
295.589	55.81
295.804	37.38
296.018	55.81
296.233	66.05
296.447	66.05
296.662	59.9
296.877	123.39
297.091	102.91
297.306	72.19
297.52	2.56
297.735	76.29
297.949	14.85
298.164	-11.78
298.378	51.71
298.593	92.67
298.807	18.94
299.022	127.49
299.236	53.76
299.451	51.71
299.665	80.38
299.88	-26.11
300.094	76.29
300.309	109.05
300.523	31.23
300.737	57.86
300.952	23.04
301.166	45.57
301.381	4.61
301.595	49.66
301.809	55.81
302.024	49.66
302.238	0.51
302.452	45.57
302.667	49.66
302.881	43.52
303.095	78.33
303.309	61.95
303.524	12.8
303.738	-17.92
303.952	2.56
304.166	111.1
304.381	-1.54
304.595	137.73
304.809	45.57
305.023	51.71
305.237	27.14
305.452	-1.54
305.666	59.9
305.88	31.23
306.094	16.9
306.308	78.33
306.522	100.86
306.736	59.9
306.95	49.66
307.164	-1.54
307.379	29.18
307.593	8.7
307.807	86.53
308.021	-62.98
308.235	-5.63
308.449	43.52
308.663	61.95
308.877	119.29
309.091	-13.82
309.305	41.47
309.519	47.62
309.733	90.62
309.947	39.42
310.161	55.81
310.374	72.19
310.588	33.28
310.802	-11.78
311.016	16.9
311.23	23.04
311.444	6.66
311.658	35.33
311.872	0.51
312.085	37.38
312.299	14.85
312.513	98.81
312.727	47.62
312.941	35.33
313.154	68.09
313.368	43.52
313.582	29.18
313.796	8.7
314.009	31.23
314.223	25.09
314.437	18.94
314.651	84.48
314.864	0.51
315.078	61.95
315.292	-54.78
315.505	78.33
315.719	-3.58
315.933	14.85
316.146	18.94
316.36	59.9
316.573	78.33
316.787	68.09
317.001	57.86
317.214	-5.63
317.428	6.66
317.641	27.14
317.855	27.14
318.068	92.67
318.282	88.57
318.495	80.38
318.709	78.33
318.922	8.7
319.136	119.29
319.349	39.42
319.563	-1.54
319.776	31.23
319.99	115.2
320.203	6.66
320.417	16.9
320.63	25.09
320.843	100.86
321.057	78.33
321.27	53.76
321.483	33.28
321.697	12.8
321.91	8.7
322.124	70.14
322.337	107.01
322.55	102.91
322.763	61.95
322.977	45.57
323.19	25.09
323.403	31.23
323.617	12.8
323.83	131.58
324.043	2.56
324.256	12.8
324.469	10.75
324.683	55.81
324.896	70.14
325.109	10.75
325.322	47.62
325.535	117.25
325.748	109.05
325.962	57.86
326.175	-15.87
326.388	43.52
326.601	84.48
326.814	-3.58
327.027	57.86
327.24	57.86
327.453	-11.78
327.666	-13.82
327.879	55.81
328.092	20.99
328.305	-19.97
328.518	39.42
328.731	25.09
328.944	76.29
329.157	-28.16
329.37	64
329.583	119.29
329.796	41.47
330.009	-19.97
330.222	41.47
330.435	61.95
330.648	-3.58
330.861	-15.87
331.073	12.8
331.286	14.85
331.499	43.52
331.712	61.95
331.925	10.75
332.138	2.56
332.35	33.28
332.563	64
332.776	45.57
332.989	27.14
333.202	33.28
333.414	-9.73
333.627	94.72
333.84	35.33
334.053	107.01
334.265	55.81
334.478	31.23
334.691	31.23
334.903	6.66
335.116	8.7
335.329	78.33
335.541	29.18
335.754	64
335.966	23.04
336.179	49.66
336.392	8.7
336.604	86.53
336.817	-40.45
337.029	43.52
337.242	0.51
337.454	10.75
337.667	10.75
337.88	100.86
338.092	78.33
338.305	12.8
338.517	53.76
338.729	104.96
338.942	10.75
339.154	82.43
339.367	6.66
339.579	12.8
339.792	-13.82
340.004	33.28
340.217	64
340.429	137.73
340.641	31.23
340.854	-15.87
341.066	0.51
341.278	57.86
341.491	92.67
341.703	49.66
341.915	61.95
342.128	115.2
342.34	70.14
342.552	-13.82
342.764	35.33
342.977	16.9
343.189	78.33
343.401	96.77
343.613	72.19
343.826	61.95
344.038	10.75
344.25	-5.63
344.462	84.48
344.674	12.8
344.886	78.33
345.099	70.14
345.311	8.7
345.523	86.53
345.735	-13.82
345.947	92.67
346.159	35.33
346.371	45.57
346.583	141.82
346.795	51.71
347.007	47.62
347.219	20.99
347.431	12.8
347.643	70.14
347.855	80.38
348.067	0.51
348.279	66.05
348.491	-9.73
348.703	100.86
348.915	2.56
349.127	10.75
349.339	74.24
349.551	8.7
349.763	68.09
349.975	82.43
350.187	8.7
350.399	66.05
350.61	43.52
350.822	-44.54
351.034	51.71
351.246	16.9
351.458	61.95
351.669	86.53
351.881	37.38
352.093	78.33
352.305	72.19
352.517	35.33
352.728	45.57
352.94	64
353.152	90.62
353.363	133.63
353.575	-38.4
353.787	55.81
353.999	88.57
354.21	78.33
354.422	31.23
354.633	78.33
354.845	4.61
355.057	59.9
355.268	86.53
355.48	47.62
355.692	117.25
355.903	47.62
356.115	94.72
356.326	59.9
356.538	51.71
356.749	88.57
356.961	102.91
357.172	-7.68
357.384	55.81
357.595	39.42
357.807	43.52
358.018	53.76
358.23	12.8
358.441	88.57
358.653	68.09
358.864	2.56
359.075	27.14
359.287	98.81
359.498	-5.63
359.709	109.05
359.921	53.76
360.132	78.33
360.344	59.9
360.555	66.05
360.766	66.05
360.977	90.62
361.189	78.33
361.4	76.29
361.611	25.09
361.823	61.95
362.034	16.9
362.245	6.66
362.456	18.94
362.667	82.43
362.879	57.86
363.09	-22.02
363.301	33.28
363.512	61.95
363.723	68.09
363.935	66.05
364.146	113.15
364.357	-46.59
364.568	2.56
364.779	20.99
364.99	39.42
365.201	55.81
365.412	117.25
365.623	-36.35
365.834	55.81
366.045	47.62
366.256	92.67
366.467	23.04
366.678	68.09
366.889	-26.11
367.1	57.86
367.311	64
367.522	45.57
367.733	35.33
367.944	80.38
368.155	29.18
368.366	68.09
368.577	57.86
368.788	64
368.999	2.56
369.209	47.62
369.42	68.09
369.631	117.25
369.842	113.15
370.053	6.66
370.264	35.33
370.474	8.7
370.685	92.67
370.896	59.9
371.107	47.62
371.317	111.1
371.528	16.9
371.739	16.9
371.95	31.23
372.16	131.58
372.371	76.29
372.582	25.09
372.792	51.71
373.003	39.42
373.214	49.66
373.424	53.76
373.635	-34.3
373.846	-26.11
374.056	39.42
374.267	37.38
374.477	6.66
374.688	102.91
374.898	57.86
375.109	39.42
375.319	29.18
375.53	84.48
375.74	68.09
375.951	70.14
376.161	66.05
376.372	113.15
376.582	33.28
376.793	123.39
377.003	29.18
377.214	84.48
377.424	20.99
377.635	39.42
377.845	-15.87
378.055	98.81
378.266	43.52
378.476	68.09
378.686	6.66
378.897	20.99
379.107	4.61
379.317	98.81
379.528	45.57
379.738	70.14
379.948	51.71
380.158	51.71
380.369	33.28
380.579	41.47
380.789	-11.78
380.999	37.38
381.21	86.53
381.42	86.53
381.63	76.29
381.84	104.96
382.05	14.85
382.261	72.19
382.471	113.15
382.681	25.09
382.891	150.01
383.101	100.86
383.311	6.66
383.521	18.94
383.731	6.66
383.941	94.72
384.151	51.71
384.361	23.04
384.571	66.05
384.781	102.91
384.991	41.47
385.201	76.29
385.411	29.18
385.621	0.51
385.831	35.33
386.041	88.57
386.251	29.18
386.461	98.81
386.671	102.91
386.881	39.42
387.091	90.62
387.301	35.33
387.511	121.34
387.72	147.97
387.93	131.58
388.14	59.9
388.35	41.47
388.56	111.1
388.769	51.71
388.979	33.28
389.189	98.81
389.399	12.8
389.609	66.05
389.818	102.91
390.028	88.57
390.238	137.73
390.447	66.05
390.657	90.62
390.867	61.95
391.076	61.95
391.286	66.05
391.496	59.9
391.705	10.75
391.915	31.23
392.125	61.95
392.334	4.61
392.544	88.57
392.753	31.23
392.963	96.77
393.172	113.15
393.382	-5.63
393.591	90.62
393.801	51.71
394.01	125.44
394.22	84.48
394.429	78.33
394.639	27.14
394.848	94.72
395.058	98.81
395.267	74.24
395.477	121.34
395.686	92.67
395.895	137.73
396.105	127.49
396.314	158.21
396.524	66.05
396.733	78.33
396.942	72.19
397.152	145.92
397.361	-9.73
397.57	53.76
397.78	49.66
397.989	107.01
398.198	176.64
398.407	76.29
398.617	14.85
398.826	131.58
399.035	86.53
399.244	25.09
399.453	107.01
399.663	72.19
399.872	170.49
400.081	152.06
400.29	84.48
400.499	109.05
400.708	80.38
400.917	160.25
401.127	113.15
401.336	111.1
401.545	152.06
401.754	162.3
401.963	72.19
402.172	70.14
402.381	68.09
402.59	135.68
402.799	227.84
403.008	205.31
403.217	160.25
403.426	158.21
403.635	135.68
403.844	135.68
404.053	88.57
404.262	59.9
404.471	164.35
404.68	129.53
404.888	121.34
405.097	188.93
405.306	70.14
405.515	115.2
405.724	88.57
405.933	123.39
406.142	203.26
406.35	203.26
406.559	213.5
406.768	127.49
406.977	172.54
407.185	178.69
407.394	135.68
407.603	188.93
407.812	215.55
408.02	205.31
408.229	281.08
408.438	180.73
408.646	221.69
408.855	256.51
409.064	223.74
409.272	295.42
409.481	240.12
409.69	262.65
409.898	291.32
410.107	244.22
410.315	350.71
410.524	320
410.733	424.44
410.941	233.98
411.15	332.28
411.358	317.95
411.567	369.15
411.775	371.19
411.984	330.23
412.192	395.77
412.401	397.82
412.609	494.07
412.818	438.78
413.026	434.68
413.234	451.07
413.443	500.22
413.651	487.93
413.86	508.41
414.068	631.29
414.276	545.27
414.485	547.32
414.693	535.03
414.901	629.24
415.11	664.05
415.318	676.34
415.526	635.38
415.734	821.75
415.943	784.88
416.151	745.97
416.359	762.36
416.567	848.37
416.776	872.95
416.984	840.18
417.192	956.91
417.4	944.63
417.608	874.99
417.817	920.05
418.025	975.35
418.233	1108.46
418.441	1032.69
418.649	1196.53
418.857	1212.91
419.065	1264.11
419.273	1212.91
419.481	1333.74
419.689	1405.42
419.897	1319.4
420.105	1427.95
420.313	1393.13
420.521	1436.14
420.729	1464.81
420.937	1534.44
421.145	1677.8
421.353	1784.29
421.561	1874.4
421.769	1831.4
421.977	1815.01
422.185	1868.26
422.393	1966.56
422.601	2083.3
422.809	2298.33
423.017	2253.28
423.224	2288.09
423.432	2384.35
423.64	2310.62
423.848	2638.3
424.056	2517.47
424.263	2681.3
424.471	2652.63
424.679	2673.11
424.887	2873.81
425.094	2841.04
425.302	2929.11
425.51	3039.7
425.718	3086.8
425.925	3176.91
426.133	3389.9
426.341	3482.06
426.548	3805.64
426.756	3693
426.964	3619.27
427.171	3963.33
427.379	3987.91
427.586	4063.68
427.794	4200.9
428.001	4372.93
428.209	4575.67
428.417	4542.91
428.624	4946.36
428.832	4790.71
429.039	4811.19
429.247	4805.05
429.454	5310.89
429.662	5495.21
429.869	5241.26
430.076	5720.49
430.284	5386.67
430.491	5671.34
430.699	6244.77
430.906	6101.41
431.114	6066.6
431.321	6345.12
431.528	6541.72
431.736	6832.54
431.943	7106.96
432.15	7068.05
432.358	7080.34
432.565	7498.13
432.772	7379.34
432.979	7729.55
433.187	8057.22
433.394	7938.44
433.601	8505.73
433.808	8735.1
434.016	8671.61
434.223	8900.98
434.43	9412.98
434.637	9130.36
434.844	9666.92
435.052	10023.27
435.259	9791.85
435.466	10035.56
435.673	10047.85
435.88	10637.66
436.087	11153.75
436.294	11120.98
436.501	10686.81
436.708	11096.41
436.915	11467.09
437.122	11954.51
437.329	12087.62
437.537	12476.74
437.743	12427.59
437.95	12536.13
438.157	13111.61
438.364	13560.11
438.571	13353.27
438.778	13490.48
438.985	14924.06
439.192	13975.85
439.399	14844.19
439.606	14430.5
439.813	15036.7
440.02	16281.86
440.227	15710.48
440.433	15589.65
440.64	16392.45
440.847	16326.92
441.054	16914.69
441.261	17735.92
441.467	17338.62
441.674	17768.69
441.881	18086.12
442.088	18591.97
442.294	18065.64
442.501	18548.96
442.708	19196.12
442.914	19787.99
443.121	20492.49
443.328	20060.37
443.534	21688.5
443.741	20854.98
443.948	20740.29
444.154	22139.05
444.361	22055.09
444.568	22421.67
444.774	22210.73
444.981	22542.5
445.187	23021.73
445.394	24242.32
445.6	23670.93
445.807	26013.81
446.013	25084.03
446.22	25593.98
446.426	26128.5
446.633	26507.37
446.839	27443.29
447.046	26189.94
447.252	27748.44
447.459	27707.48
447.665	27832.41
447.871	29001.8
448.078	30242.87
448.284	28579.92
448.491	29546.56
448.697	30705.71
448.903	31615.01
449.11	31025.19
449.316	31123.49
449.522	31371.3
449.728	32206.87
449.935	32399.38
450.141	32256.02
450.347	33183.75
450.553	31778.84
450.76	32358.42
450.966	33476.61
451.172	33009.67
451.378	33689.6
451.584	33716.22
451.791	34088.95
451.997	34023.42
452.203	34478.07
452.409	34330.61
452.615	34559.98
452.821	33404.93
453.027	32888.84
453.233	34662.38
453.44	33263.62
453.646	33699.84
453.852	33529.86
454.058	34525.17
454.264	33306.63
454.47	34123.77
454.676	33003.53
454.882	34183.16
455.088	31254.56
455.294	31969.3
455.5	32256.02
455.705	32811.02
455.911	31490.08
456.117	30949.42
456.323	30197.81
456.529	28518.48
456.735	29970.49
456.941	29245.51
457.147	28528.72
457.352	28098.64
457.558	27541.6
457.764	27471.96
457.97	26867.81
458.176	26622.06
458.381	26433.64
458.587	25311.36
458.793	25315.45
458.999	23871.64
459.204	25477.24
459.41	24658.06
459.616	23117.98
459.821	23371.93
460.027	23353.5
460.233	22618.28
460.438	21639.35
460.644	21825.71
460.85	20811.97
461.055	20670.66
461.261	20398.28
461.466	19185.88
461.672	18534.63
461.878	19826.9
462.083	18493.67
462.289	17944.81
462.494	17772.78
462.7	16863.49
462.905	16857.34
463.111	17117.43
463.316	17088.76
463.522	16804.1
463.727	16808.19
463.932	16797.95
464.138	16824.58
464.343	17025.28
464.549	16095.5
464.754	16673.03
464.959	16546.05
465.165	16425.22
465.37	15765.78
465.575	15157.53
465.781	16029.96
465.986	16128.27
466.191	15454.48
466.397	15268.12
466.602	14557.47
466.807	15085.85
467.012	15196.44
467.218	15173.91
467.423	14668.06
467.628	14862.62
467.833	15393.05
468.038	14866.72
468.244	14487.84
468.449	14944.54
468.654	14414.12
468.859	14481.7
