Data from USB4F104151__98__11-45-48-052.txt Node

Date: Fri Mar 14 11:45:48 EDT 2025
User: louis
Spectrometer: USB4F10415
Trigger mode: 4
Integration Time (sec): 2.000000E-2
Scans to average: 1
Electric dark correction enabled: true
Nonlinearity correction enabled: false
Boxcar width: 0
XAxis mode: Wavelengths
Number of Pixels in Spectrum: 3648
>>>>>Begin Spectral Data<<<<<
178.204	-83.97
178.424	-83.97
178.644	-83.97
178.864	-88.06
179.084	-10.24
179.304	-18.43
179.524	36.86
179.744	-32.77
179.964	16.38
180.184	-45.06
180.404	-12.29
180.624	8.19
180.844	14.34
181.064	12.29
181.283	34.82
181.503	8.19
181.723	-22.53
181.943	-26.62
182.163	102.4
182.383	6.14
182.602	81.92
182.822	57.34
183.042	14.34
183.262	16.38
183.482	12.29
183.701	18.43
183.921	34.82
184.141	40.96
184.361	-16.38
184.58	34.82
184.8	2.05
185.02	28.67
185.239	45.06
185.459	-2.05
185.679	49.15
185.898	24.58
186.118	88.06
186.338	-32.77
186.557	20.48
186.777	-4.1
186.997	-30.72
187.216	-6.14
187.436	100.35
187.655	28.67
187.875	57.34
188.095	73.73
188.314	118.78
188.534	14.34
188.753	-22.53
188.973	2.05
189.192	18.43
189.412	6.14
189.631	4.1
189.851	2.05
190.07	53.25
190.29	10.24
190.509	14.34
190.729	2.05
190.948	96.25
191.168	18.43
191.387	8.19
191.607	-40.96
191.826	26.62
192.045	32.77
192.265	28.67
192.484	47.1
192.704	-49.15
192.923	24.58
193.142	69.63
193.362	22.53
193.581	-22.53
193.8	20.48
194.02	88.06
194.239	24.58
194.458	-14.34
194.678	36.86
194.897	-0
195.116	-20.48
195.335	-61.44
195.555	40.96
195.774	-0
195.993	4.1
196.212	104.45
196.432	63.49
196.651	79.87
196.87	45.06
197.089	88.06
197.308	-81.92
197.528	79.87
197.747	47.1
197.966	-63.49
198.185	131.07
198.404	34.82
198.623	4.1
198.842	86.01
199.062	2.05
199.281	94.21
199.5	-10.24
199.719	116.73
199.938	51.2
200.157	73.73
200.376	49.15
200.595	61.44
200.814	40.96
201.033	38.91
201.252	75.77
201.471	104.45
201.69	40.96
201.909	104.45
202.128	22.53
202.347	63.49
202.566	-18.43
202.785	-4.1
203.004	8.19
203.223	30.72
203.442	81.92
203.661	40.96
203.879	-26.62
204.098	59.39
204.317	-8.19
204.536	-40.96
204.755	-90.11
204.974	-6.14
205.193	-34.82
205.411	71.68
205.63	28.67
205.849	51.2
206.068	14.34
206.287	6.14
206.505	6.14
206.724	96.25
206.943	34.82
207.162	-2.05
207.381	28.67
207.599	22.53
207.818	34.82
208.037	43.01
208.255	47.1
208.474	-0
208.693	-45.06
208.911	100.35
209.13	45.06
209.349	28.67
209.567	49.15
209.786	8.19
210.005	-16.38
210.223	75.77
210.442	-8.19
210.661	61.44
210.879	40.96
211.098	-8.19
211.316	18.43
211.535	-22.53
211.753	30.72
211.972	98.3
212.191	6.14
212.409	-4.1
212.628	-8.19
212.846	40.96
213.065	4.1
213.283	-14.34
213.502	-4.1
213.72	22.53
213.938	-10.24
214.157	96.25
214.375	36.86
214.594	4.1
214.812	26.62
215.031	69.63
215.249	-49.15
215.467	102.4
215.686	6.14
215.904	71.68
216.122	59.39
216.341	-12.29
216.559	71.68
216.778	96.25
216.996	40.96
217.214	10.24
217.432	63.49
217.651	-47.1
217.869	55.3
218.087	8.19
218.306	-20.48
218.524	71.68
218.742	49.15
218.96	10.24
219.179	-6.14
219.397	-59.39
219.615	96.25
219.833	71.68
220.051	-96.25
220.27	43.01
220.488	49.15
220.706	32.77
220.924	-28.67
221.142	83.97
221.36	34.82
221.578	-0
221.796	28.67
222.015	8.19
222.233	-67.58
222.451	126.97
222.669	-75.77
222.887	24.58
223.105	16.38
223.323	36.86
223.541	43.01
223.759	-28.67
223.977	-4.1
224.195	53.25
224.413	36.86
224.631	10.24
224.849	26.62
225.067	73.73
225.285	26.62
225.503	26.62
225.721	47.1
225.939	20.48
226.157	12.29
226.375	53.25
226.592	12.29
226.81	2.05
227.028	16.38
227.246	34.82
227.464	92.16
227.682	45.06
227.9	2.05
228.117	-2.05
228.335	8.19
228.553	4.1
228.771	86.01
228.989	59.39
229.206	36.86
229.424	34.82
229.642	61.44
229.86	12.29
230.077	100.35
230.295	16.38
230.513	22.53
230.731	20.48
230.948	12.29
231.166	-88.06
231.384	14.34
231.601	12.29
231.819	14.34
232.037	20.48
232.254	6.14
232.472	49.15
232.689	18.43
232.907	49.15
233.125	10.24
233.342	36.86
233.56	36.86
233.777	57.34
233.995	-4.1
234.213	34.82
234.43	81.92
234.648	32.77
234.865	16.38
235.083	4.1
235.3	49.15
235.518	-40.96
235.735	83.97
235.953	110.59
236.17	51.2
236.388	59.39
236.605	-32.77
236.822	77.82
237.04	45.06
237.257	-22.53
237.475	40.96
237.692	-2.05
237.909	20.48
238.127	45.06
238.344	22.53
238.562	20.48
238.779	59.39
238.996	-57.34
239.214	-57.34
239.431	36.86
239.648	-18.43
239.865	24.58
240.083	36.86
240.3	38.91
240.517	-43.01
240.735	6.14
240.952	53.25
241.169	22.53
241.386	-22.53
241.603	-12.29
241.821	-26.62
242.038	47.1
242.255	43.01
242.472	-22.53
242.689	-12.29
242.907	51.2
243.124	73.73
243.341	-16.38
243.558	49.15
243.775	-18.43
243.992	12.29
244.209	59.39
244.426	65.53
244.643	102.4
244.86	77.82
245.078	40.96
245.295	26.62
245.512	10.24
245.729	-34.82
245.946	24.58
246.163	88.06
246.38	40.96
246.597	-45.06
246.814	32.77
247.031	139.26
247.248	16.38
247.464	47.1
247.681	18.43
247.898	47.1
248.115	8.19
248.332	67.58
248.549	92.16
248.766	73.73
248.983	-12.29
249.2	26.62
249.417	67.58
249.633	73.73
249.85	49.15
250.067	12.29
250.284	30.72
250.501	-45.06
250.717	47.1
250.934	20.48
251.151	-14.34
251.368	49.15
251.585	67.58
251.801	12.29
252.018	-16.38
252.235	20.48
252.451	20.48
252.668	12.29
252.885	53.25
253.102	36.86
253.318	83.97
253.535	-34.82
253.752	63.49
253.968	-0
254.185	-32.77
254.401	55.3
254.618	57.34
254.835	40.96
255.051	36.86
255.268	14.34
255.484	36.86
255.701	38.91
255.917	67.58
256.134	63.49
256.351	43.01
256.567	-45.06
256.784	22.53
257	65.53
257.217	106.49
257.433	24.58
257.65	26.62
257.866	69.63
258.082	16.38
258.299	6.14
258.515	36.86
258.732	-4.1
258.948	28.67
259.165	8.19
259.381	49.15
259.597	12.29
259.814	-18.43
260.03	4.1
260.246	47.1
260.463	24.58
260.679	83.97
260.895	36.86
261.112	-34.82
261.328	20.48
261.544	77.82
261.761	118.78
261.977	28.67
262.193	-18.43
262.409	10.24
262.626	57.34
262.842	-16.38
263.058	36.86
263.274	12.29
263.49	16.38
263.707	59.39
263.923	24.58
264.139	26.62
264.355	6.14
264.571	104.45
264.787	8.19
265.004	36.86
265.22	88.06
265.436	10.24
265.652	10.24
265.868	14.34
266.084	106.49
266.3	61.44
266.516	-12.29
266.732	47.1
266.948	-6.14
267.164	98.3
267.38	90.11
267.596	102.4
267.812	67.58
268.028	63.49
268.244	40.96
268.46	67.58
268.676	8.19
268.892	-30.72
269.108	-0
269.324	34.82
269.54	12.29
269.756	75.77
269.972	-2.05
270.188	143.36
270.403	16.38
270.619	88.06
270.835	-8.19
271.051	51.2
271.267	-92.16
271.483	4.1
271.698	83.97
271.914	55.3
272.13	16.38
272.346	65.53
272.562	-79.87
272.777	4.1
272.993	38.91
273.209	55.3
273.425	73.73
273.64	53.25
273.856	16.38
274.072	6.14
274.287	24.58
274.503	20.48
274.719	14.34
274.934	-38.91
275.15	36.86
275.366	20.48
275.581	4.1
275.797	51.2
276.012	69.63
276.228	51.2
276.444	-28.67
276.659	43.01
276.875	12.29
277.09	45.06
277.306	-0
277.521	-12.29
277.737	-59.39
277.952	-20.48
278.168	14.34
278.383	114.69
278.599	-14.34
278.814	98.3
279.03	-4.1
279.245	-12.29
279.461	61.44
279.676	104.45
279.892	-59.39
280.107	-2.05
280.322	-26.62
280.538	24.58
280.753	14.34
280.969	-2.05
281.184	-12.29
281.399	116.73
281.615	24.58
281.83	59.39
282.045	6.14
282.26	-40.96
282.476	104.45
282.691	10.24
282.906	-2.05
283.122	45.06
283.337	20.48
283.552	83.97
283.767	4.1
283.983	40.96
284.198	16.38
284.413	73.73
284.628	-14.34
284.843	8.19
285.058	-16.38
285.274	26.62
285.489	-65.54
285.704	96.25
285.919	-51.2
286.134	6.14
286.349	-12.29
286.564	59.39
286.779	88.06
286.995	49.15
287.21	-24.58
287.425	2.05
287.64	24.58
287.855	59.39
288.07	-14.34
288.285	10.24
288.5	-12.29
288.715	30.72
288.93	-6.14
289.145	-59.39
289.36	79.87
289.575	2.05
289.79	92.16
290.004	-32.77
290.219	73.73
290.434	4.1
290.649	-2.05
290.864	34.82
291.079	-4.1
291.294	133.12
291.509	55.3
291.724	-36.86
291.938	-26.62
292.153	67.58
292.368	67.58
292.583	-30.72
292.798	57.34
293.012	12.29
293.227	55.3
293.442	75.77
293.657	24.58
293.871	49.15
294.086	45.06
294.301	32.77
294.516	22.53
294.73	36.86
294.945	43.01
295.16	88.06
295.374	65.53
295.589	98.3
295.804	10.24
296.018	49.15
296.233	73.73
296.447	106.49
296.662	53.25
296.877	49.15
297.091	63.49
297.306	16.38
297.52	6.14
297.735	45.06
297.949	-2.05
298.164	8.19
298.378	40.96
298.593	-61.44
298.807	22.53
299.022	47.1
299.236	14.34
299.451	133.12
299.665	-32.77
299.88	40.96
300.094	75.77
300.309	-20.48
300.523	77.82
300.737	30.72
300.952	57.34
301.166	88.06
301.381	32.77
301.595	43.01
301.809	4.1
302.024	34.82
302.238	53.25
302.452	28.67
302.667	36.86
302.881	-6.14
303.095	49.15
303.309	96.25
303.524	45.06
303.738	40.96
303.952	53.25
304.166	43.01
304.381	73.73
304.595	16.38
304.809	4.1
305.023	49.15
305.237	57.34
305.452	6.14
305.666	26.62
305.88	-4.1
306.094	67.58
306.308	20.48
306.522	34.82
306.736	53.25
306.95	77.82
307.164	22.53
307.379	10.24
307.593	69.63
307.807	34.82
308.021	8.19
308.235	40.96
308.449	-14.34
308.663	18.43
308.877	104.45
309.091	61.44
309.305	67.58
309.519	-30.72
309.733	124.93
309.947	16.38
310.161	86.01
310.374	10.24
310.588	45.06
310.802	-0
311.016	10.24
311.23	24.58
311.444	30.72
311.658	86.01
311.872	38.91
312.085	-12.29
312.299	45.06
312.513	30.72
312.727	86.01
312.941	22.53
313.154	43.01
313.368	114.69
313.582	131.07
313.796	14.34
314.009	-8.19
314.223	53.25
314.437	2.05
314.651	49.15
314.864	-4.1
315.078	90.11
315.292	18.43
315.505	10.24
315.719	20.48
315.933	26.62
316.146	-0
316.36	59.39
316.573	75.77
316.787	32.77
317.001	75.77
317.214	61.44
317.428	12.29
317.641	10.24
317.855	-6.14
318.068	20.48
318.282	55.3
318.495	45.06
318.709	28.67
318.922	65.53
319.136	120.83
319.349	94.21
319.563	69.63
319.776	122.88
319.99	40.96
320.203	36.86
320.417	69.63
320.63	81.92
320.843	34.82
321.057	18.43
321.27	65.53
321.483	38.91
321.697	114.69
321.91	-26.62
322.124	-2.05
322.337	26.62
322.55	49.15
322.763	22.53
322.977	45.06
323.19	-59.39
323.403	18.43
323.617	-0
323.83	81.92
324.043	36.86
324.256	106.49
324.469	-24.58
324.683	63.49
324.896	34.82
325.109	57.34
325.322	-8.19
325.535	32.77
325.748	92.16
325.962	-6.14
326.175	-38.91
326.388	102.4
326.601	120.83
326.814	12.29
327.027	-6.14
327.24	26.62
327.453	-12.29
327.666	49.15
327.879	61.44
328.092	36.86
328.305	65.53
328.518	77.82
328.731	63.49
328.944	18.43
329.157	77.82
329.37	18.43
329.583	61.44
329.796	55.3
330.009	22.53
330.222	81.92
330.435	34.82
330.648	40.96
330.861	-4.1
331.073	28.67
331.286	14.34
331.499	22.53
331.712	-71.68
331.925	36.86
332.138	34.82
332.35	20.48
332.563	26.62
332.776	36.86
332.989	-2.05
333.202	59.39
333.414	-6.14
333.627	81.92
333.84	-0
334.053	83.97
334.265	32.77
334.478	75.77
334.691	49.15
334.903	22.53
335.116	28.67
335.329	-51.2
335.541	20.48
335.754	26.62
335.966	83.97
336.179	86.01
336.392	67.58
336.604	45.06
336.817	34.82
337.029	-12.29
337.242	18.43
337.454	8.19
337.667	6.14
337.88	122.88
338.092	36.86
338.305	63.49
338.517	22.53
338.729	104.45
338.942	34.82
339.154	28.67
339.367	-10.24
339.579	63.49
339.792	-47.1
340.004	-32.77
340.217	47.1
340.429	-18.43
340.641	40.96
340.854	-0
341.066	40.96
341.278	47.1
341.491	83.97
341.703	36.86
341.915	43.01
342.128	92.16
342.34	114.69
342.552	55.3
342.764	69.63
342.977	86.01
343.189	57.34
343.401	98.3
343.613	16.38
343.826	40.96
344.038	10.24
344.25	6.14
344.462	30.72
344.674	-26.62
344.886	69.63
345.099	88.06
345.311	49.15
345.523	86.01
345.735	14.34
345.947	-22.53
346.159	28.67
346.371	98.3
346.583	32.77
346.795	24.58
347.007	-10.24
347.219	45.06
347.431	-45.06
347.643	159.74
347.855	8.19
348.067	149.5
348.279	16.38
348.491	38.91
348.703	49.15
348.915	22.53
349.127	-10.24
349.339	67.58
349.551	24.58
349.763	38.91
349.975	43.01
350.187	124.93
350.399	4.1
350.61	86.01
350.822	47.1
351.034	45.06
351.246	36.86
351.458	59.39
351.669	40.96
351.881	2.05
352.093	40.96
352.305	-10.24
352.517	86.01
352.728	36.86
352.94	32.77
353.152	-4.1
353.363	26.62
353.575	88.06
353.787	86.01
353.999	2.05
354.21	90.11
354.422	36.86
354.633	53.25
354.845	59.39
355.057	112.64
355.268	49.15
355.48	22.53
355.692	47.1
355.903	28.67
356.115	-20.48
356.326	24.58
356.538	92.16
356.749	32.77
356.961	51.2
357.172	47.1
357.384	32.77
357.595	129.02
357.807	53.25
358.018	71.68
358.23	30.72
358.441	51.2
358.653	32.77
358.864	-4.1
359.075	8.19
359.287	69.63
359.498	-14.34
359.709	18.43
359.921	55.3
360.132	-20.48
360.344	57.34
360.555	51.2
360.766	26.62
360.977	-24.58
361.189	57.34
361.4	28.67
361.611	32.77
361.823	32.77
362.034	71.68
362.245	73.73
362.456	65.53
362.667	-6.14
362.879	96.25
363.09	-0
363.301	65.53
363.512	-16.38
363.723	-8.19
363.935	8.19
364.146	-14.34
364.357	43.01
364.568	67.58
364.779	34.82
364.99	108.54
365.201	-24.58
365.412	34.82
365.623	59.39
365.834	86.01
366.045	10.24
366.256	67.58
366.467	131.07
366.678	38.91
366.889	94.21
367.1	71.68
367.311	65.53
367.522	102.4
367.733	-32.77
367.944	55.3
368.155	75.77
368.366	98.3
368.577	65.53
368.788	36.86
368.999	-20.48
369.209	32.77
369.42	124.93
369.631	106.49
369.842	22.53
370.053	83.97
370.264	79.87
370.474	98.3
370.685	96.25
370.896	98.3
371.107	57.34
371.317	137.21
371.528	81.92
371.739	102.4
371.95	28.67
372.16	-10.24
372.371	63.49
372.582	61.44
372.792	69.63
373.003	86.01
373.214	6.14
373.424	30.72
373.635	-32.77
373.846	135.17
374.056	-51.2
374.267	30.72
374.477	32.77
374.688	28.67
374.898	32.77
375.109	59.39
375.319	40.96
375.53	22.53
375.74	34.82
375.951	75.77
376.161	34.82
376.372	75.77
376.582	45.06
376.793	96.25
377.003	-4.1
377.214	-22.53
377.424	77.82
377.635	67.58
377.845	-49.15
378.055	6.14
378.266	75.77
378.476	96.25
378.686	26.62
378.897	2.05
379.107	22.53
379.317	75.77
379.528	83.97
379.738	40.96
379.948	18.43
380.158	104.45
380.369	116.73
380.579	122.88
380.789	18.43
380.999	98.3
381.21	10.24
381.42	122.88
381.63	-6.14
381.84	28.67
382.05	-2.05
382.261	38.91
382.471	12.29
382.681	-16.38
382.891	-6.14
383.101	18.43
383.311	28.67
383.521	77.82
383.731	69.63
383.941	12.29
384.151	61.44
384.361	43.01
384.571	133.12
384.781	32.77
384.991	63.49
385.201	94.21
385.411	88.06
385.621	63.49
385.831	-57.34
386.041	81.92
386.251	40.96
386.461	114.69
386.671	34.82
386.881	40.96
387.091	30.72
387.301	104.45
387.511	47.1
387.72	79.87
387.93	67.58
388.14	30.72
388.35	43.01
388.56	94.21
388.769	159.74
388.979	73.73
389.189	-10.24
389.399	63.49
389.609	-18.43
389.818	71.68
390.028	81.92
390.238	86.01
390.447	61.44
390.657	30.72
390.867	65.53
391.076	2.05
391.286	53.25
391.496	57.34
391.705	126.97
391.915	108.54
392.125	108.54
392.334	83.97
392.544	65.53
392.753	34.82
392.963	104.45
393.172	90.11
393.382	112.64
393.591	34.82
393.801	10.24
394.01	116.73
394.22	114.69
394.429	30.72
394.639	75.77
394.848	43.01
395.058	-26.62
395.267	26.62
395.477	163.84
395.686	118.78
395.895	57.34
396.105	65.53
396.314	104.45
396.524	77.82
396.733	118.78
396.942	73.73
397.152	110.59
397.361	73.73
397.57	102.4
397.78	24.58
397.989	96.25
398.198	114.69
398.407	73.73
398.617	106.49
398.826	98.3
399.035	102.4
399.244	57.34
399.453	129.02
399.663	96.25
399.872	110.59
400.081	94.21
400.29	133.12
400.499	94.21
400.708	47.1
400.917	36.86
401.127	102.4
401.336	114.69
401.545	131.07
401.754	135.17
401.963	118.78
402.172	135.17
402.381	96.25
402.59	135.17
402.799	104.45
403.008	157.69
403.217	88.06
403.426	100.35
403.635	153.6
403.844	116.73
404.053	157.69
404.262	151.55
404.471	139.26
404.68	147.45
404.888	129.02
405.097	114.69
405.306	190.46
405.515	178.17
405.724	159.74
405.933	153.6
406.142	145.41
406.35	141.31
406.559	124.93
406.768	141.31
406.977	233.47
407.185	204.8
407.394	120.83
407.603	141.31
407.812	165.89
408.02	165.89
408.229	202.75
408.438	227.32
408.646	210.94
408.855	266.24
409.064	208.89
409.272	245.76
409.481	356.35
409.69	174.08
409.898	315.39
410.107	270.33
410.315	215.04
410.524	247.8
410.733	311.29
410.941	262.14
411.15	327.67
411.358	378.87
411.567	393.21
411.775	376.83
411.984	352.25
412.192	356.35
412.401	425.98
412.609	473.08
412.818	393.21
413.026	378.87
413.234	479.22
413.443	411.64
413.651	479.22
413.86	442.36
414.068	550.9
414.276	595.96
414.485	563.19
414.693	600.05
414.901	559.1
415.11	565.24
415.318	616.44
415.526	643.06
415.734	626.68
415.943	690.17
416.151	690.17
416.359	665.59
416.567	737.27
416.776	802.8
416.984	784.37
417.192	874.48
417.4	960.5
417.608	839.67
417.817	958.45
418.025	923.63
418.233	1085.42
418.441	1009.65
418.649	1015.79
418.857	1114.09
419.065	1015.79
419.273	1126.38
419.481	1198.06
419.689	1243.12
419.897	1333.23
420.105	1314.8
420.313	1355.76
420.521	1355.76
420.729	1429.48
420.937	1501.16
421.145	1484.78
421.353	1513.45
421.561	1609.7
421.769	1718.25
421.977	1759.21
422.185	1716.2
422.393	1880.04
422.601	1931.23
422.809	1916.9
423.017	1996.77
423.224	2011.11
423.432	2152.42
423.64	2064.35
423.848	2383.84
424.056	2379.74
424.263	2473.95
424.471	2566.1
424.679	2457.56
424.887	2596.82
425.094	2746.33
425.302	2734.04
425.51	2766.81
425.718	2840.53
425.925	2998.23
426.133	3039.19
426.341	3241.93
426.548	3366.86
426.756	3313.61
426.964	3489.74
427.171	3563.47
427.379	3690.44
427.586	3729.35
427.794	3794.89
428.001	4102.08
428.209	4229.06
428.417	4159.42
428.624	4417.47
428.832	4347.84
429.039	4493.24
429.247	4468.67
429.454	4749.24
429.662	5058.48
429.869	4968.37
430.076	5207.98
430.284	5027.76
430.491	5203.89
430.699	5486.51
430.906	5547.95
431.114	5631.91
431.321	5783.46
431.528	5937.06
431.736	6447.01
431.943	6594.46
432.15	6619.03
432.358	6504.35
432.565	6811.54
432.772	6672.28
432.979	7143.31
433.187	7251.86
433.394	7313.3
433.601	7972.74
433.808	7708.55
434.016	7974.79
434.223	8232.83
434.43	8677.24
434.637	8324.99
434.844	9049.97
435.052	9205.62
435.259	8970.1
435.466	9240.43
435.673	9062.26
435.88	9707.37
436.087	10209.12
436.294	10229.6
436.501	10008.42
436.708	10135.4
436.915	10643.29
437.122	10930.01
437.329	10983.26
437.537	11319.12
437.743	11478.86
437.95	11536.21
438.157	11747.15
438.364	12435.27
438.571	12351.3
438.778	12343.11
438.985	13528.88
439.192	13139.77
439.399	13328.18
439.606	13111.1
439.813	13862.7
440.02	14995.23
440.227	14692.13
440.433	14386.98
440.64	14915.36
440.847	14923.55
441.054	15087.39
441.261	16031.5
441.467	16060.17
441.674	16326.41
441.881	16873.21
442.088	16766.72
442.294	16561.92
442.501	17247.99
442.708	17377.01
442.914	18112.24
443.121	18794.21
443.328	18304.74
443.534	19500.76
443.741	19191.52
443.948	19052.25
444.154	20510.41
444.361	20287.18
444.568	20375.24
444.774	20408.01
444.981	20539.08
445.187	21092.03
445.394	22187.69
445.6	21849.78
445.807	23555.74
446.013	22845.09
446.22	23402.14
446.426	24045.2
446.633	24155.79
446.839	24991.36
447.046	24100.5
447.252	25370.24
447.459	25230.97
447.665	25165.44
447.871	26181.23
448.078	27561.56
448.284	26361.45
448.491	26900.07
448.697	28139.09
448.903	28585.55
449.11	28706.38
449.316	28010.07
449.522	28751.43
449.728	29429.31
449.935	29687.35
450.141	29818.42
450.347	30268.98
450.553	29492.8
450.76	29795.9
450.966	30764.59
451.172	30357.04
451.378	31155.75
451.584	30527.02
451.791	31239.72
451.997	31065.64
452.203	31483.42
452.409	31880.73
452.615	31524.38
452.821	30279.22
453.027	29998.65
453.233	31802.91
453.44	30463.54
453.646	30875.18
453.852	31198.76
454.058	31495.71
454.264	30291.51
454.47	31063.59
454.676	30592.56
454.882	31454.75
455.088	29066.82
455.294	29478.46
455.5	29638.2
455.705	29931.06
455.911	28991.05
456.117	28337.74
456.323	27653.72
456.529	26410.6
456.735	27608.67
456.941	26467.95
457.147	26267.25
457.352	25482.88
457.558	25159.3
457.764	25423.48
457.97	25026.18
458.176	24221.33
458.381	24446.6
458.587	23346.84
458.793	23387.8
458.999	21980.85
459.204	23586.46
459.41	22656.68
459.616	21448.38
459.821	21348.03
460.027	21313.21
460.233	20770.5
460.438	20010.7
460.644	19828.43
460.85	19078.88
461.055	18874.08
461.261	18589.41
461.466	17254.14
461.672	16785.15
461.878	17893.1
462.083	16959.23
462.289	16404.23
462.494	16443.14
462.7	15513.36
462.905	15097.63
463.111	15912.72
463.316	15773.46
463.522	15261.46
463.727	15451.92
463.932	15394.58
464.138	15283.99
464.343	15181.59
464.549	14782.24
464.754	15308.57
464.959	15456.02
465.165	15146.78
465.37	14597.92
465.575	13858.6
465.781	14860.06
465.986	14853.92
466.191	14401.32
466.397	13860.65
466.602	13084.47
466.807	13559.6
467.012	13924.14
467.218	13653.81
467.423	13555.51
467.628	13578.03
467.833	14069.55
468.038	13444.91
