Data from USB4F104151__5__11-44-25-235.txt Node

Date: Fri Mar 14 11:44:25 EDT 2025
User: louis
Spectrometer: USB4F10415
Trigger mode: 4
Integration Time (sec): 2.000000E-2
Scans to average: 1
Electric dark correction enabled: true
Nonlinearity correction enabled: false
Boxcar width: 0
XAxis mode: Wavelengths
Number of Pixels in Spectrum: 3648
>>>>>Begin Spectral Data<<<<<
178.204	-88.06
178.424	-88.06
178.644	-88.06
178.864	-61.44
179.084	-94.21
179.304	-55.3
179.524	114.69
179.744	65.54
179.964	-22.53
180.184	-22.53
180.404	-32.77
180.624	22.53
180.844	-77.82
181.064	38.91
181.283	-2.05
181.503	-16.38
181.723	-12.29
181.943	-34.82
182.163	8.19
182.383	90.11
182.602	-14.34
182.822	81.92
183.042	34.82
183.262	-4.1
183.482	-32.77
183.701	-2.05
183.921	28.67
184.141	10.24
184.361	67.58
184.58	-34.82
184.8	18.43
185.02	-18.43
185.239	67.58
185.459	65.54
185.679	79.87
185.898	-2.05
186.118	75.77
186.338	10.24
186.557	24.58
186.777	28.67
186.997	83.97
187.216	-12.29
187.436	83.97
187.655	81.92
187.875	2.05
188.095	63.49
188.314	32.77
188.534	0
188.753	18.43
188.973	-34.82
189.192	20.48
189.412	24.58
189.631	57.34
189.851	75.77
190.07	88.06
190.29	38.91
190.509	-24.58
190.729	65.54
190.948	83.97
191.168	92.16
191.387	16.38
191.607	-45.06
191.826	-30.72
192.045	12.29
192.265	28.67
192.484	-26.62
192.704	-12.29
192.923	12.29
193.142	75.77
193.362	102.4
193.581	63.49
193.8	34.82
194.02	63.49
194.239	100.35
194.458	12.29
194.678	-36.86
194.897	-10.24
195.116	98.3
195.335	24.58
195.555	0
195.774	28.67
195.993	38.91
196.212	-36.86
196.432	-2.05
196.651	40.96
196.87	-14.34
197.089	81.92
197.308	10.24
197.528	40.96
197.747	-26.62
197.966	47.1
198.185	4.1
198.404	-45.06
198.623	-55.3
198.842	-18.43
199.062	-32.77
199.281	88.06
199.5	18.43
199.719	22.53
199.938	65.54
200.157	47.1
200.376	36.86
200.595	38.91
200.814	69.63
201.033	-6.14
201.252	63.49
201.471	6.14
201.69	45.06
201.909	4.1
202.128	100.35
202.347	63.49
202.566	18.43
202.785	20.48
203.004	12.29
203.223	6.14
203.442	-26.62
203.661	69.63
203.879	61.44
204.098	49.15
204.317	53.25
204.536	77.82
204.755	65.54
204.974	53.25
205.193	45.06
205.411	51.2
205.63	24.58
205.849	96.25
206.068	18.43
206.287	-6.14
206.505	22.53
206.724	-22.53
206.943	28.67
207.162	59.39
207.381	-20.48
207.599	69.63
207.818	43.01
208.037	4.1
208.255	-20.48
208.474	0
208.693	67.58
208.911	-22.53
209.13	43.01
209.349	49.15
209.567	22.53
209.786	26.62
210.005	36.86
210.223	40.96
210.442	-34.82
210.661	32.77
210.879	6.14
211.098	75.77
211.316	30.72
211.535	61.44
211.753	4.1
211.972	-4.1
212.191	24.58
212.409	-4.1
212.628	6.14
212.846	16.38
213.065	30.72
213.283	43.01
213.502	4.1
213.72	67.58
213.938	4.1
214.157	18.43
214.375	90.11
214.594	-8.19
214.812	-18.43
215.031	59.39
215.249	-16.38
215.467	-14.34
215.686	-8.19
215.904	30.72
216.122	30.72
216.341	114.69
216.559	38.91
216.778	-6.14
216.996	53.25
217.214	-14.34
217.432	4.1
217.651	8.19
217.869	38.91
218.087	71.68
218.306	51.2
218.524	10.24
218.742	61.44
218.96	73.73
219.179	-14.34
219.397	6.14
219.615	55.3
219.833	59.39
220.051	6.14
220.27	96.25
220.488	-26.62
220.706	-18.43
220.924	38.91
221.142	59.39
221.36	88.06
221.578	32.77
221.796	75.77
222.015	-40.96
222.233	36.86
222.451	-10.24
222.669	-2.05
222.887	104.45
223.105	6.14
223.323	-45.06
223.541	12.29
223.759	69.63
223.977	-45.06
224.195	-10.24
224.413	-22.53
224.631	10.24
224.849	34.82
225.067	-24.58
225.285	-40.96
225.503	34.82
225.721	-2.05
225.939	67.58
226.157	61.44
226.375	47.1
226.592	77.82
226.81	71.68
227.028	63.49
227.246	34.82
227.464	47.1
227.682	59.39
227.9	51.2
228.117	40.96
228.335	-16.38
228.553	116.73
228.771	36.86
228.989	51.2
229.206	51.2
229.424	-4.1
229.642	-4.1
229.86	-4.1
230.077	43.01
230.295	53.25
230.513	88.06
230.731	77.82
230.948	108.54
231.166	55.3
231.384	28.67
231.601	61.44
231.819	73.73
232.037	32.77
232.254	40.96
232.472	32.77
232.689	-10.24
232.907	26.62
233.125	30.72
233.342	32.77
233.56	14.34
233.777	-20.48
233.995	-55.3
234.213	34.82
234.43	26.62
234.648	6.14
234.865	38.91
235.083	26.62
235.3	16.38
235.518	34.82
235.735	-18.43
235.953	47.1
236.17	22.53
236.388	2.05
236.605	63.49
236.822	106.49
237.04	38.91
237.257	71.68
237.475	26.62
237.692	6.14
237.909	51.2
238.127	47.1
238.344	30.72
238.562	57.34
238.779	8.19
238.996	49.15
239.214	6.14
239.431	75.77
239.648	-28.67
239.865	112.64
240.083	-18.43
240.3	47.1
240.517	59.39
240.735	8.19
240.952	47.1
241.169	79.87
241.386	49.15
241.603	4.1
241.821	-45.06
242.038	73.73
242.255	28.67
242.472	-34.82
242.689	112.64
242.907	-26.62
243.124	-30.72
243.341	81.92
243.558	65.54
243.775	-18.43
243.992	10.24
244.209	-22.53
244.426	2.05
244.643	4.1
244.86	34.82
245.078	34.82
245.295	-8.19
245.512	20.48
245.729	40.96
245.946	69.63
246.163	53.25
246.38	-8.19
246.597	47.1
246.814	38.91
247.031	110.59
247.248	-30.72
247.464	69.63
247.681	51.2
247.898	28.67
248.115	32.77
248.332	59.39
248.549	38.91
248.766	45.06
248.983	71.68
249.2	38.91
249.417	43.01
249.633	59.39
249.85	79.87
250.067	40.96
250.284	69.63
250.501	69.63
250.717	43.01
250.934	14.34
251.151	71.68
251.368	22.53
251.585	86.01
251.801	6.14
252.018	67.58
252.235	10.24
252.451	96.25
252.668	4.1
252.885	88.06
253.102	100.35
253.318	26.62
253.535	47.1
253.752	-34.82
253.968	0
254.185	2.05
254.401	-2.05
254.618	88.06
254.835	26.62
255.051	137.21
255.268	59.39
255.484	43.01
255.701	-22.53
255.917	65.54
256.134	-30.72
256.351	24.58
256.567	4.1
256.784	57.34
257	26.62
257.217	14.34
257.433	77.82
257.65	26.62
257.866	67.58
258.082	2.05
258.299	38.91
258.515	51.2
258.732	36.86
258.948	22.53
259.165	-22.53
259.381	22.53
259.597	-20.48
259.814	28.67
260.03	10.24
260.246	129.02
260.463	38.91
260.679	73.73
260.895	-28.67
261.112	92.16
261.328	16.38
261.544	45.06
261.761	-18.43
261.977	53.25
262.193	12.29
262.409	43.01
262.626	65.54
262.842	55.3
263.058	38.91
263.274	73.73
263.49	18.43
263.707	65.54
263.923	69.63
264.139	-10.24
264.355	40.96
264.571	40.96
264.787	20.48
265.004	40.96
265.22	73.73
265.436	51.2
265.652	22.53
265.868	-16.38
266.084	16.38
266.3	2.05
266.516	-28.67
266.732	47.1
266.948	24.58
267.164	77.82
267.38	-4.1
267.596	118.78
267.812	57.34
268.028	40.96
268.244	-2.05
268.46	26.62
268.676	20.48
268.892	4.1
269.108	10.24
269.324	49.15
269.54	-6.14
269.756	88.06
269.972	8.19
270.188	69.63
270.403	-2.05
270.619	114.69
270.835	14.34
271.051	94.21
271.267	20.48
271.483	49.15
271.698	83.97
271.914	67.58
272.13	34.82
272.346	-12.29
272.562	38.91
272.777	96.25
272.993	30.72
273.209	-6.14
273.425	45.06
273.64	-45.06
273.856	0
274.072	-6.14
274.287	-22.53
274.503	34.82
274.719	57.34
274.934	6.14
275.15	18.43
275.366	16.38
275.581	-79.87
275.797	38.91
276.012	55.3
276.228	75.77
276.444	2.05
276.659	104.45
276.875	4.1
277.09	45.06
277.306	69.63
277.521	71.68
277.737	75.77
277.952	92.16
278.168	16.38
278.383	110.59
278.599	40.96
278.814	26.62
279.03	10.24
279.245	96.25
279.461	16.38
279.676	34.82
279.892	32.77
280.107	14.34
280.322	36.86
280.538	38.91
280.753	90.11
280.969	92.16
281.184	118.78
281.399	34.82
281.615	40.96
281.83	-22.53
282.045	12.29
282.26	2.05
282.476	53.25
282.691	38.91
282.906	38.91
283.122	61.44
283.337	51.2
283.552	79.87
283.767	61.44
283.983	79.87
284.198	98.3
284.413	26.62
284.628	-12.29
284.843	77.82
285.058	92.16
285.274	112.64
285.489	10.24
285.704	67.58
285.919	38.91
286.134	45.06
286.349	24.58
286.564	47.1
286.779	98.3
286.995	-2.05
287.21	-43.01
287.425	61.44
287.64	38.91
287.855	47.1
288.07	47.1
288.285	-47.1
288.5	61.44
288.715	-14.34
288.93	69.63
289.145	34.82
289.36	69.63
289.575	-4.1
289.79	45.06
290.004	8.19
290.219	55.3
290.434	-28.67
290.649	43.01
290.864	30.72
291.079	131.07
291.294	114.69
291.509	26.62
291.724	2.05
291.938	104.45
292.153	-16.38
292.368	-4.1
292.583	71.68
292.798	38.91
293.012	61.44
293.227	45.06
293.442	55.3
293.657	65.54
293.871	55.3
294.086	12.29
294.301	131.07
294.516	30.72
294.73	47.1
294.945	92.16
295.16	45.06
295.374	88.06
295.589	26.62
295.804	4.1
296.018	71.68
296.233	24.58
296.447	30.72
296.662	36.86
296.877	20.48
297.091	104.45
297.306	28.67
297.52	-2.05
297.735	92.16
297.949	-43.01
298.164	79.87
298.378	38.91
298.593	-20.48
298.807	0
299.022	100.35
299.236	22.53
299.451	14.34
299.665	40.96
299.88	2.05
300.094	24.58
300.309	-14.34
300.523	4.1
300.737	94.21
300.952	40.96
301.166	14.34
301.381	79.87
301.595	45.06
301.809	69.63
302.024	-2.05
302.238	49.15
302.452	24.58
302.667	83.97
302.881	116.73
303.095	100.35
303.309	53.25
303.524	-8.19
303.738	-28.67
303.952	40.96
304.166	59.39
304.381	-20.48
304.595	8.19
304.809	-12.29
305.023	38.91
305.237	24.58
305.452	47.1
305.666	26.62
305.88	59.39
306.094	61.44
306.308	104.45
306.522	73.73
306.736	36.86
306.95	16.38
307.164	20.48
307.379	-65.53
307.593	26.62
307.807	63.49
308.021	4.1
308.235	63.49
308.449	14.34
308.663	-14.34
308.877	81.92
309.091	57.34
309.305	0
309.519	59.39
309.733	110.59
309.947	6.14
310.161	112.64
310.374	59.39
310.588	104.45
310.802	61.44
311.016	16.38
311.23	65.54
311.444	34.82
311.658	53.25
311.872	92.16
312.085	81.92
312.299	59.39
312.513	79.87
312.727	32.77
312.941	34.82
313.154	36.86
313.368	16.38
313.582	71.68
313.796	22.53
314.009	8.19
314.223	83.97
314.437	57.34
314.651	-57.34
314.864	61.44
315.078	69.63
315.292	14.34
315.505	49.15
315.719	96.25
315.933	118.78
316.146	94.21
316.36	-12.29
316.573	88.06
316.787	6.14
317.001	120.83
317.214	-24.58
317.428	71.68
317.641	32.77
317.855	49.15
318.068	53.25
318.282	104.45
318.495	75.77
318.709	65.54
318.922	75.77
319.136	153.6
319.349	67.58
319.563	12.29
319.776	18.43
319.99	-18.43
320.203	34.82
320.417	100.35
320.63	8.19
320.843	79.87
321.057	137.21
321.27	28.67
321.483	57.34
321.697	108.54
321.91	79.87
322.124	47.1
322.337	75.77
322.55	-16.38
322.763	59.39
322.977	10.24
323.19	-18.43
323.403	-24.58
323.617	110.59
323.83	65.54
324.043	-6.14
324.256	65.54
324.469	79.87
324.683	131.07
324.896	18.43
325.109	63.49
325.322	79.87
325.535	83.97
325.748	79.87
325.962	96.25
326.175	24.58
326.388	38.91
326.601	-18.43
326.814	26.62
327.027	77.82
327.24	69.63
327.453	28.67
327.666	20.48
327.879	-12.29
328.092	63.49
328.305	30.72
328.518	36.86
328.731	77.82
328.944	40.96
329.157	65.54
329.37	0
329.583	110.59
329.796	102.4
330.009	71.68
330.222	122.88
330.435	96.25
330.648	63.49
330.861	0
331.073	30.72
331.286	36.86
331.499	100.35
331.712	-20.48
331.925	30.72
332.138	38.91
332.35	22.53
332.563	43.01
332.776	88.06
332.989	16.38
333.202	83.97
333.414	49.15
333.627	108.54
333.84	32.77
334.053	98.3
334.265	20.48
334.478	57.34
334.691	57.34
334.903	61.44
335.116	4.1
335.329	51.2
335.541	133.12
335.754	43.01
335.966	86.01
336.179	18.43
336.392	61.44
336.604	71.68
336.817	49.15
337.029	26.62
337.242	30.72
337.454	-20.48
337.667	14.34
337.88	94.21
338.092	38.91
338.305	53.25
338.517	55.3
338.729	63.49
338.942	24.58
339.154	57.34
339.367	43.01
339.579	67.58
339.792	55.3
340.004	-28.67
340.217	30.72
340.429	81.92
340.641	65.54
340.854	-24.58
341.066	-28.67
341.278	90.11
341.491	49.15
341.703	28.67
341.915	-8.19
342.128	36.86
342.34	-4.1
342.552	100.35
342.764	-2.05
342.977	69.63
343.189	53.25
343.401	43.01
343.613	98.3
343.826	65.54
344.038	-28.67
344.25	65.54
344.462	0
344.674	108.54
344.886	69.63
345.099	88.06
345.311	4.1
345.523	55.3
345.735	20.48
345.947	67.58
346.159	86.01
346.371	-6.14
346.583	28.67
346.795	131.07
347.007	-12.29
347.219	77.82
347.431	43.01
347.643	86.01
347.855	0
348.067	59.39
348.279	63.49
348.491	20.48
348.703	26.62
348.915	73.73
349.127	55.3
349.339	102.4
349.551	47.1
349.763	28.67
349.975	4.1
350.187	69.63
350.399	-28.67
350.61	79.87
350.822	69.63
351.034	55.3
351.246	47.1
351.458	47.1
351.669	22.53
351.881	45.06
352.093	45.06
352.305	118.78
352.517	126.97
352.728	18.43
352.94	75.77
353.152	133.12
353.363	45.06
353.575	45.06
353.787	102.4
353.999	43.01
354.21	139.26
354.422	20.48
354.633	102.4
354.845	73.73
355.057	88.06
355.268	71.68
355.48	98.3
355.692	-6.14
355.903	6.14
356.115	-14.34
356.326	-30.72
356.538	40.96
356.749	116.73
356.961	67.58
357.172	-4.1
357.384	49.15
357.595	57.34
357.807	45.06
358.018	73.73
358.23	79.87
358.441	88.06
358.653	73.73
358.864	63.49
359.075	38.91
359.287	47.1
359.498	90.11
359.709	34.82
359.921	26.62
360.132	75.77
360.344	-28.67
360.555	57.34
360.766	55.3
360.977	83.97
361.189	57.34
361.4	96.25
361.611	116.73
361.823	104.45
362.034	61.44
362.245	43.01
362.456	51.2
362.667	110.59
362.879	49.15
363.09	51.2
363.301	34.82
363.512	45.06
363.723	30.72
363.935	-18.43
364.146	22.53
364.357	110.59
364.568	104.45
364.779	79.87
364.99	57.34
365.201	32.77
365.412	59.39
365.623	34.82
365.834	6.14
366.045	71.68
366.256	65.54
366.467	67.58
366.678	116.73
366.889	94.21
367.1	38.91
367.311	30.72
367.522	151.55
367.733	114.69
367.944	98.3
368.155	43.01
368.366	61.44
368.577	96.25
368.788	79.87
368.999	75.77
369.209	-8.19
369.42	71.68
369.631	53.25
369.842	83.97
370.053	57.34
370.264	77.82
370.474	86.01
370.685	83.97
370.896	90.11
371.107	49.15
371.317	18.43
371.528	71.68
371.739	10.24
371.95	108.54
372.16	90.11
372.371	-4.1
372.582	57.34
372.792	26.62
373.003	75.77
373.214	110.59
373.424	53.25
373.635	67.58
373.846	96.25
374.056	49.15
374.267	18.43
374.477	73.73
374.688	49.15
374.898	90.11
375.109	112.64
375.319	-28.67
375.53	88.06
375.74	92.16
375.951	102.4
376.161	79.87
376.372	67.58
376.582	67.58
376.793	55.3
377.003	24.58
377.214	51.2
377.424	26.62
377.635	55.3
377.845	61.44
378.055	81.92
378.266	-2.05
378.476	63.49
378.686	90.11
378.897	126.97
379.107	94.21
379.317	43.01
379.528	36.86
379.738	22.53
379.948	6.14
380.158	53.25
380.369	88.06
380.579	8.19
380.789	77.82
380.999	55.3
381.21	59.39
381.42	96.25
381.63	26.62
381.84	118.78
382.05	71.68
382.261	63.49
382.471	104.45
382.681	75.77
382.891	69.63
383.101	118.78
383.311	36.86
383.521	63.49
383.731	-16.38
383.941	114.69
384.151	40.96
384.361	47.1
384.571	118.78
384.781	83.97
384.991	122.88
385.201	178.17
385.411	40.96
385.621	92.16
385.831	67.58
386.041	49.15
386.251	122.88
386.461	112.64
386.671	116.73
386.881	71.68
387.091	92.16
387.301	92.16
387.511	108.54
387.72	34.82
387.93	149.5
388.14	75.77
388.35	75.77
388.56	96.25
388.769	20.48
388.979	108.54
389.189	45.06
389.399	67.58
389.609	108.54
389.818	122.88
390.028	88.06
390.238	75.77
390.447	53.25
390.657	124.93
390.867	96.25
391.076	69.63
391.286	63.49
391.496	90.11
391.705	94.21
391.915	28.67
392.125	137.21
392.334	96.25
392.544	112.64
392.753	81.92
392.963	73.73
393.172	24.58
393.382	92.16
393.591	194.56
393.801	88.06
394.01	141.31
394.22	96.25
394.429	69.63
394.639	122.88
394.848	114.69
395.058	126.97
395.267	83.97
395.477	120.83
395.686	69.63
395.895	184.32
396.105	169.98
396.314	108.54
396.524	161.79
396.733	104.45
396.942	149.5
397.152	149.5
397.361	172.03
397.57	147.45
397.78	79.87
397.989	129.02
398.198	143.36
398.407	106.49
398.617	69.63
398.826	159.74
399.035	96.25
399.244	88.06
399.453	96.25
399.663	198.65
399.872	149.5
400.081	157.69
400.29	188.41
400.499	118.78
400.708	116.73
400.917	106.49
401.127	184.32
401.336	118.78
401.545	151.55
401.754	151.55
401.963	141.31
402.172	104.45
402.381	79.87
402.59	104.45
402.799	206.84
403.008	149.5
403.217	163.84
403.426	198.65
403.635	106.49
403.844	141.31
404.053	233.47
404.262	167.93
404.471	264.19
404.68	172.03
404.888	217.08
405.097	215.04
405.306	282.62
405.515	186.37
405.724	206.84
405.933	280.57
406.142	264.19
406.35	307.2
406.559	198.65
406.768	266.24
406.977	282.62
407.185	180.22
407.394	274.43
407.603	239.61
407.812	368.63
408.02	303.1
408.229	337.91
408.438	243.71
408.646	370.68
408.855	385.02
409.064	364.54
409.272	348.15
409.481	432.12
409.69	436.22
409.898	432.12
410.107	440.31
410.315	468.98
410.524	415.74
410.733	405.5
410.941	522.23
411.15	479.22
411.358	468.98
411.567	595.96
411.775	516.09
411.984	608.25
412.192	583.67
412.401	649.21
412.609	665.59
412.818	657.4
413.026	649.21
413.234	706.55
413.443	747.51
413.651	876.53
413.86	831.48
414.068	790.52
414.276	864.24
414.485	897.01
414.693	858.1
414.901	931.83
415.11	960.5
415.318	897.01
415.526	1015.79
415.734	1013.74
415.943	1060.85
416.151	1015.79
416.359	1101.81
416.567	1212.4
416.776	1112.05
416.984	1239.02
417.192	1230.83
417.4	1351.66
417.608	1318.89
417.817	1476.59
418.025	1388.52
418.233	1632.23
418.441	1513.45
418.649	1621.99
418.857	1736.68
419.065	1691.62
419.273	1611.75
419.481	1802.21
419.689	1873.89
419.897	2056.16
420.105	1929.19
420.313	2084.83
420.521	2181.09
420.729	2136.03
420.937	2250.72
421.145	2332.64
421.353	2490.33
421.561	2516.95
421.769	2607.06
421.977	2723.8
422.185	2766.81
422.393	2904.02
422.601	2928.6
422.809	3020.75
423.017	3078.1
423.224	3170.26
423.432	3233.74
423.64	3346.38
423.848	3751.88
424.056	3608.52
424.263	3760.07
424.471	3874.76
424.679	3821.51
424.887	4118.47
425.094	4192.19
425.302	4302.78
425.51	4548.54
425.718	4399.04
425.925	4757.43
426.133	4837.3
426.341	5076.91
426.548	5234.61
426.756	5185.46
426.964	5294
427.171	5797.8
427.379	5676.97
427.586	6010.79
427.794	6109.09
428.001	6309.79
428.209	6573.98
428.417	6674.33
428.624	6860.7
428.832	7059.35
429.039	6891.41
429.247	6963.09
429.454	7733.13
429.662	8198.02
429.869	7573.39
430.076	8005.51
430.284	7696.27
430.491	8290.18
430.699	8589.18
430.906	8671.1
431.114	8716.15
431.321	9113.46
431.528	9459.57
431.736	9916.26
431.943	10391.39
432.15	10137.45
432.358	10080.1
432.565	10639.2
432.772	10788.7
432.979	11267.92
433.187	11464.53
433.394	11568.98
433.601	12308.29
433.808	12402.5
434.016	12214.09
434.223	12902.2
434.43	13520.69
434.637	13227.83
434.844	14339.88
435.052	14470.95
435.259	14184.23
435.466	14491.43
435.673	14313.25
435.88	15138.58
436.087	16049.93
436.294	16162.57
436.501	15787.79
436.708	16137.99
436.915	16697.09
437.122	17266.42
437.329	17260.28
437.537	17817.33
437.743	17897.2
437.95	18153.19
438.157	18888.42
438.364	19699.41
438.571	19447.51
438.778	19523.29
438.985	21425.85
439.192	20532.93
439.399	21409.47
439.606	20739.78
439.813	22054.58
440.02	23299.74
440.227	22900.39
440.433	22548.14
440.64	23682.71
440.847	23256.73
441.054	23893.65
441.261	25366.14
441.467	24913.54
441.674	25810.55
441.881	26486.38
442.088	26226.29
442.294	26474.09
442.501	27188.83
442.708	27686.49
442.914	28331.6
443.121	29611.58
443.328	28845.64
443.534	30963.24
443.741	30027.32
443.948	29689.4
444.154	31948.31
444.361	31663.64
444.568	32144.92
444.774	32058.9
444.981	32411.15
445.187	33283.59
445.394	34745.84
445.6	34143.74
445.807	37123.53
446.013	35829.21
446.22	36171.22
446.426	37762.5
446.633	38231.48
446.839	39568.8
447.046	37748.16
447.252	39669.15
447.459	39978.4
447.665	40088.99
447.871	41330.06
448.078	43056.49
448.284	41344.39
448.491	42321.27
448.697	44080.48
448.903	44703.06
449.11	44629.33
449.316	43953.51
449.522	44899.67
449.728	46202.17
449.935	46187.84
450.141	46822.71
450.347	47146.29
450.553	45759.81
450.76	47045.94
450.966	47942.95
451.172	47660.33
451.378	49011.99
451.584	47494.44
451.791	49165.59
451.997	48573.72
452.203	49161.49
452.409	49394.96
452.615	49374.48
452.821	47424.81
453.027	46759.22
453.233	49179.92
453.44	47703.34
453.646	47897.89
453.852	48098.59
454.058	49104.15
454.264	47281.45
454.47	48987.41
454.676	47273.26
454.882	48702.74
455.088	44623.19
455.294	45258.06
455.5	46069.06
455.705	46624.06
455.911	44641.62
456.117	43548.01
456.323	43216.24
456.529	40818.07
456.735	42763.64
456.941	41627.01
457.147	41057.68
457.352	39853.47
457.558	39605.67
457.764	38962.61
457.97	38581.68
458.176	38059.45
458.381	37973.44
458.587	36134.36
458.793	35818.97
458.999	34280.95
459.204	36601.3
459.41	35661.28
459.616	33396.23
459.821	33795.58
460.027	33197.57
460.233	32163.35
460.438	30942.76
460.644	31348.26
460.85	29746.75
461.055	29548.09
461.261	29380.16
461.466	27043.43
461.672	26404.46
461.878	28034.64
462.083	26312.3
462.289	25753.21
462.494	25734.78
462.7	24178.32
462.905	24084.11
463.111	24467.08
463.316	24841.86
463.522	24157.84
463.727	24125.07
463.932	24080.02
464.138	23817.88
464.343	24118.93
464.549	23430.81
464.754	24045.2
464.959	23750.29
465.165	23590.55
465.37	22417.07
465.575	22197.93
465.781	22984.35
465.986	23342.75
466.191	22279.85
466.397	21878.45
466.602	20692.68
466.807	21431.99
467.012	21841.59
467.218	21667.51
467.423	21145.28
