Data from USB4F104151__99__11-45-48-346.txt Node

Date: Fri Mar 14 11:45:48 EDT 2025
User: louis
Spectrometer: USB4F10415
Trigger mode: 4
Integration Time (sec): 2.000000E-2
Scans to average: 1
Electric dark correction enabled: true
Nonlinearity correction enabled: false
Boxcar width: 0
XAxis mode: Wavelengths
Number of Pixels in Spectrum: 3648
>>>>>Begin Spectral Data<<<<<
178.204	-60.76
178.424	-60.76
178.644	-60.76
178.864	-68.95
179.084	-83.28
179.304	37.55
179.524	-40.28
179.744	45.74
179.964	6.83
180.184	66.22
180.404	4.78
180.624	8.87
180.844	37.55
181.064	-87.38
181.283	-21.85
181.503	-54.61
181.723	-3.41
181.943	2.73
182.163	27.31
182.383	45.74
182.602	17.07
182.822	70.31
183.042	-27.99
183.262	33.45
183.482	47.79
183.701	-36.18
183.921	35.5
184.141	37.55
184.361	-1.37
184.58	37.55
184.8	27.31
185.02	-50.52
185.239	49.83
185.459	70.31
185.679	78.51
185.898	-13.65
186.118	4.78
186.338	-5.46
186.557	68.27
186.777	21.16
186.997	29.35
187.216	4.78
187.436	94.89
187.655	-9.56
187.875	15.02
188.095	62.12
188.314	2.73
188.534	31.4
188.753	-3.41
188.973	113.32
189.192	60.07
189.412	41.64
189.631	33.45
189.851	12.97
190.07	31.4
190.29	25.26
190.509	58.03
190.729	-11.61
190.948	-5.46
191.168	68.27
191.387	2.73
191.607	-38.23
191.826	29.35
192.045	6.83
192.265	47.79
192.484	43.69
192.704	49.83
192.923	-3.41
193.142	33.45
193.362	72.36
193.581	43.69
193.8	-85.33
194.02	-23.89
194.239	-77.14
194.458	4.78
194.678	-5.46
194.897	17.07
195.116	-1.37
195.335	29.35
195.555	-23.89
195.774	27.31
195.993	-44.37
196.212	60.07
196.432	8.87
196.651	45.74
196.87	60.07
197.089	47.79
197.308	0.68
197.528	33.45
197.747	-5.46
197.966	39.59
198.185	43.69
198.404	-34.13
198.623	21.16
198.842	64.17
199.062	47.79
199.281	90.79
199.5	29.35
199.719	21.16
199.938	29.35
200.157	37.55
200.376	-21.85
200.595	-9.56
200.814	-38.23
201.033	19.11
201.252	4.78
201.471	-40.28
201.69	60.07
201.909	10.92
202.128	-5.46
202.347	45.74
202.566	37.55
202.785	-25.94
203.004	41.64
203.223	17.07
203.442	-5.46
203.661	-21.85
203.879	2.73
204.098	37.55
204.317	51.88
204.536	-21.85
204.755	6.83
204.974	70.31
205.193	55.98
205.411	60.07
205.63	-44.37
205.849	-48.47
206.068	10.92
206.287	-54.61
206.505	29.35
206.724	0.68
206.943	-48.47
207.162	4.78
207.381	-17.75
207.599	6.83
207.818	94.89
208.037	31.4
208.255	47.79
208.474	64.17
208.693	58.03
208.911	-15.7
209.13	27.31
209.349	47.79
209.567	33.45
209.786	55.98
210.005	76.46
210.223	35.5
210.442	-56.66
210.661	86.7
210.879	45.74
211.098	53.93
211.316	21.16
211.535	66.22
211.753	15.02
211.972	-11.61
212.191	-9.56
212.409	15.02
212.628	8.87
212.846	88.75
213.065	53.93
213.283	31.4
213.502	6.83
213.72	58.03
213.938	-38.23
214.157	-1.37
214.375	-13.65
214.594	90.79
214.812	35.5
215.031	58.03
215.249	55.98
215.467	35.5
215.686	45.74
215.904	-9.56
216.122	60.07
216.341	39.59
216.559	39.59
216.778	82.6
216.996	68.27
217.214	12.97
217.432	8.87
217.651	12.97
217.869	-48.47
218.087	19.11
218.306	-48.47
218.524	68.27
218.742	-1.37
218.96	23.21
219.179	8.87
219.397	8.87
219.615	31.4
219.833	29.35
220.051	39.59
220.27	6.83
220.488	2.73
220.706	-34.13
220.924	60.07
221.142	53.93
221.36	33.45
221.578	27.31
221.796	-7.51
222.015	-7.51
222.233	23.21
222.451	23.21
222.669	-30.04
222.887	51.88
223.105	-7.51
223.323	47.79
223.541	-3.41
223.759	29.35
223.977	25.26
224.195	58.03
224.413	60.07
224.631	53.93
224.849	17.07
225.067	43.69
225.285	21.16
225.503	-5.46
225.721	29.35
225.939	-17.75
226.157	27.31
226.375	82.6
226.592	10.92
226.81	-5.46
227.028	39.59
227.246	72.36
227.464	6.83
227.682	12.97
227.9	12.97
228.117	27.31
228.335	92.84
228.553	25.26
228.771	39.59
228.989	27.31
229.206	60.07
229.424	19.11
229.642	-15.7
229.86	84.65
230.077	-13.65
230.295	6.83
230.513	33.45
230.731	15.02
230.948	66.22
231.166	125.61
231.384	0.68
231.601	33.45
231.819	33.45
232.037	17.07
232.254	-44.37
232.472	19.11
232.689	-46.42
232.907	49.83
233.125	49.83
233.342	45.74
233.56	-5.46
233.777	4.78
233.995	64.17
234.213	47.79
234.43	80.55
234.648	19.11
234.865	15.02
235.083	53.93
235.3	-17.75
235.518	-25.94
235.735	80.55
235.953	94.89
236.17	21.16
236.388	10.92
236.605	-9.56
236.822	41.64
237.04	41.64
237.257	17.07
237.475	-27.99
237.692	55.98
237.909	15.02
238.127	29.35
238.344	19.11
238.562	12.97
238.779	60.07
238.996	2.73
239.214	0.68
239.431	55.98
239.648	-19.8
239.865	74.41
240.083	8.87
240.3	76.46
240.517	76.46
240.735	15.02
240.952	-11.61
241.169	98.99
241.386	-48.47
241.603	70.31
241.821	41.64
242.038	60.07
242.255	58.03
242.472	33.45
242.689	23.21
242.907	0.68
243.124	41.64
243.341	25.26
243.558	4.78
243.775	23.21
243.992	17.07
244.209	55.98
244.426	47.79
244.643	33.45
244.86	-1.37
245.078	31.4
245.295	29.35
245.512	84.65
245.729	-5.46
245.946	0.68
246.163	66.22
246.38	-23.89
246.597	-60.76
246.814	60.07
247.031	0.68
247.248	12.97
247.464	84.65
247.681	43.69
247.898	58.03
248.115	84.65
248.332	39.59
248.549	45.74
248.766	27.31
248.983	-1.37
249.2	80.55
249.417	92.84
249.633	37.55
249.85	43.69
250.067	12.97
250.284	2.73
250.501	-38.23
250.717	62.12
250.934	10.92
251.151	53.93
251.368	33.45
251.585	58.03
251.801	90.79
252.018	-30.04
252.235	53.93
252.451	23.21
252.668	33.45
252.885	0.68
253.102	8.87
253.318	27.31
253.535	27.31
253.752	43.69
253.968	45.74
254.185	-25.94
254.401	43.69
254.618	31.4
254.835	-17.75
255.051	41.64
255.268	-1.37
255.484	-3.41
255.701	-19.8
255.917	4.78
256.134	29.35
256.351	0.68
256.567	47.79
256.784	29.35
257	-11.61
257.217	70.31
257.433	21.16
257.65	78.51
257.866	49.83
258.082	23.21
258.299	-1.37
258.515	37.55
258.732	-85.33
258.948	101.03
259.165	-9.56
259.381	19.11
259.597	8.87
259.814	66.22
260.03	10.92
260.246	31.4
260.463	17.07
260.679	27.31
260.895	-3.41
261.112	33.45
261.328	37.55
261.544	-1.37
261.761	17.07
261.977	58.03
262.193	49.83
262.409	25.26
262.626	64.17
262.842	10.92
263.058	49.83
263.274	10.92
263.49	53.93
263.707	72.36
263.923	33.45
264.139	111.27
264.355	-50.52
264.571	70.31
264.787	64.17
265.004	12.97
265.22	-15.7
265.436	23.21
265.652	35.5
265.868	8.87
266.084	-34.13
266.3	33.45
266.516	-54.61
266.732	-11.61
266.948	84.65
267.164	-5.46
267.38	45.74
267.596	49.83
267.812	-5.46
268.028	8.87
268.244	-30.04
268.46	41.64
268.676	10.92
268.892	17.07
269.108	41.64
269.324	-50.52
269.54	23.21
269.756	68.27
269.972	33.45
270.188	2.73
270.403	55.98
270.619	-15.7
270.835	-19.8
271.051	-32.08
271.267	86.7
271.483	25.26
271.698	70.31
271.914	47.79
272.13	-11.61
272.346	39.59
272.562	66.22
272.777	92.84
272.993	-19.8
273.209	31.4
273.425	21.16
273.64	10.92
273.856	51.88
274.072	-32.08
274.287	6.83
274.503	-3.41
274.719	10.92
274.934	37.55
275.15	-89.43
275.366	-17.75
275.581	-15.7
275.797	41.64
276.012	51.88
276.228	47.79
276.444	107.18
276.659	45.74
276.875	19.11
277.09	12.97
277.306	-13.65
277.521	68.27
277.737	-25.94
277.952	41.64
278.168	-5.46
278.383	10.92
278.599	-15.7
278.814	148.14
279.03	-5.46
279.245	41.64
279.461	35.5
279.676	37.55
279.892	-27.99
280.107	12.97
280.322	41.64
280.538	82.6
280.753	-7.51
280.969	-36.18
281.184	58.03
281.399	21.16
281.615	76.46
281.83	-5.46
282.045	78.51
282.26	41.64
282.476	8.87
282.691	94.89
282.906	-46.42
283.122	49.83
283.337	27.31
283.552	78.51
283.767	72.36
283.983	-46.42
284.198	27.31
284.413	47.79
284.628	-32.08
284.843	78.51
285.058	53.93
285.274	39.59
285.489	4.78
285.704	68.27
285.919	-21.85
286.134	58.03
286.349	19.11
286.564	-3.41
286.779	37.55
286.995	6.83
287.21	-17.75
287.425	10.92
287.64	-1.37
287.855	115.37
288.07	15.02
288.285	82.6
288.5	21.16
288.715	15.02
288.93	64.17
289.145	-19.8
289.36	53.93
289.575	0.68
289.79	15.02
290.004	27.31
290.219	90.79
290.434	68.27
290.649	62.12
290.864	-13.65
291.079	45.74
291.294	41.64
291.509	4.78
291.724	49.83
291.938	53.93
292.153	72.36
292.368	74.41
292.583	4.78
292.798	8.87
293.012	-1.37
293.227	27.31
293.442	-13.65
293.657	0.68
293.871	35.5
294.086	2.73
294.301	60.07
294.516	43.69
294.73	29.35
294.945	-36.18
295.16	-32.08
295.374	84.65
295.589	70.31
295.804	68.27
296.018	17.07
296.233	27.31
296.447	117.42
296.662	33.45
296.877	-21.85
297.091	66.22
297.306	39.59
297.52	2.73
297.735	-3.41
297.949	90.79
298.164	33.45
298.378	33.45
298.593	51.88
298.807	-11.61
299.022	80.55
299.236	103.08
299.451	47.79
299.665	41.64
299.88	-9.56
300.094	-11.61
300.309	10.92
300.523	53.93
300.737	35.5
300.952	117.42
301.166	76.46
301.381	10.92
301.595	84.65
301.809	58.03
302.024	15.02
302.238	135.85
302.452	66.22
302.667	17.07
302.881	2.73
303.095	113.32
303.309	17.07
303.524	41.64
303.738	27.31
303.952	12.97
304.166	62.12
304.381	66.22
304.595	58.03
304.809	-13.65
305.023	-7.51
305.237	49.83
305.452	86.7
305.666	17.07
305.88	82.6
306.094	123.56
306.308	0.68
306.522	68.27
306.736	51.88
306.95	35.5
307.164	25.26
307.379	21.16
307.593	43.69
307.807	41.64
308.021	43.69
308.235	35.5
308.449	4.78
308.663	68.27
308.877	31.4
309.091	78.51
309.305	125.61
309.519	8.87
309.733	90.79
309.947	78.51
310.161	58.03
310.374	39.59
310.588	64.17
310.802	4.78
311.016	-3.41
311.23	68.27
311.444	-13.65
311.658	78.51
311.872	17.07
312.085	78.51
312.299	64.17
312.513	107.18
312.727	6.83
312.941	-19.8
313.154	12.97
313.368	41.64
313.582	23.21
313.796	66.22
314.009	51.88
314.223	76.46
314.437	41.64
314.651	37.55
314.864	41.64
315.078	4.78
315.292	86.7
315.505	17.07
315.719	49.83
315.933	70.31
316.146	15.02
316.36	0.68
316.573	68.27
316.787	-42.32
317.001	4.78
317.214	17.07
317.428	96.94
317.641	23.21
317.855	-34.13
318.068	64.17
318.282	78.51
318.495	17.07
318.709	-32.08
318.922	17.07
319.136	19.11
319.349	53.93
319.563	-7.51
319.776	45.74
319.99	0.68
320.203	-1.37
320.417	92.84
320.63	45.74
320.843	21.16
321.057	84.65
321.27	0.68
321.483	74.41
321.697	53.93
321.91	-50.52
322.124	74.41
322.337	111.27
322.55	-11.61
322.763	37.55
322.977	41.64
323.19	37.55
323.403	37.55
323.617	15.02
323.83	2.73
324.043	-46.42
324.256	19.11
324.469	17.07
324.683	53.93
324.896	33.45
325.109	45.74
325.322	27.31
325.535	113.32
325.748	92.84
325.962	-5.46
326.175	15.02
326.388	-25.94
326.601	43.69
326.814	2.73
327.027	37.55
327.24	78.51
327.453	-30.04
327.666	62.12
327.879	37.55
328.092	45.74
328.305	-32.08
328.518	55.98
328.731	84.65
328.944	29.35
329.157	37.55
329.37	33.45
329.583	86.7
329.796	107.18
330.009	66.22
330.222	78.51
330.435	62.12
330.648	-5.46
330.861	72.36
331.073	80.55
331.286	96.94
331.499	-30.04
331.712	33.45
331.925	-1.37
332.138	-36.18
332.35	29.35
332.563	-15.7
332.776	10.92
332.989	19.11
333.202	41.64
333.414	-32.08
333.627	47.79
333.84	39.59
334.053	55.98
334.265	78.51
334.478	43.69
334.691	37.55
334.903	6.83
335.116	-19.8
335.329	-17.75
335.541	-3.41
335.754	103.08
335.966	76.46
336.179	17.07
336.392	-7.51
336.604	33.45
336.817	58.03
337.029	39.59
337.242	10.92
337.454	27.31
337.667	66.22
337.88	37.55
338.092	68.27
338.305	31.4
338.517	53.93
338.729	33.45
338.942	105.13
339.154	17.07
339.367	12.97
339.579	33.45
339.792	-27.99
340.004	45.74
340.217	8.87
340.429	68.27
340.641	45.74
340.854	8.87
341.066	-5.46
341.278	139.94
341.491	27.31
341.703	35.5
341.915	-71
342.128	78.51
342.34	6.83
342.552	58.03
342.764	21.16
342.977	45.74
343.189	23.21
343.401	15.02
343.613	107.18
343.826	25.26
344.038	47.79
344.25	43.69
344.462	10.92
344.674	39.59
344.886	64.17
345.099	62.12
345.311	78.51
345.523	47.79
345.735	-3.41
345.947	31.4
346.159	37.55
346.371	21.16
346.583	41.64
346.795	154.28
347.007	88.75
347.219	33.45
347.431	-58.71
347.643	17.07
347.855	94.89
348.067	0.68
348.279	74.41
348.491	60.07
348.703	41.64
348.915	68.27
349.127	-36.18
349.339	45.74
349.551	17.07
349.763	60.07
349.975	-3.41
350.187	-64.85
350.399	58.03
350.61	105.13
350.822	70.31
351.034	62.12
351.246	43.69
351.458	12.97
351.669	90.79
351.881	25.26
352.093	86.7
352.305	78.51
352.517	60.07
352.728	96.94
352.94	29.35
353.152	21.16
353.363	70.31
353.575	15.02
353.787	150.18
353.999	12.97
354.21	-17.75
354.422	33.45
354.633	2.73
354.845	21.16
355.057	66.22
355.268	55.98
355.48	76.46
355.692	15.02
355.903	74.41
356.115	-1.37
356.326	-15.7
356.538	90.79
356.749	37.55
356.961	35.5
357.172	15.02
357.384	19.11
357.595	98.99
357.807	72.36
358.018	-7.51
358.23	68.27
358.441	25.26
358.653	68.27
358.864	6.83
359.075	25.26
359.287	10.92
359.498	17.07
359.709	62.12
359.921	55.98
360.132	62.12
360.344	29.35
360.555	-48.47
360.766	90.79
360.977	-5.46
361.189	53.93
361.4	8.87
361.611	-15.7
361.823	72.36
362.034	80.55
362.245	-19.8
362.456	49.83
362.667	74.41
362.879	-42.32
363.09	68.27
363.301	-27.99
363.512	109.22
363.723	49.83
363.935	43.69
364.146	58.03
364.357	96.94
364.568	49.83
364.779	21.16
364.99	17.07
365.201	33.45
365.412	101.03
365.623	47.79
365.834	6.83
366.045	58.03
366.256	23.21
366.467	-27.99
366.678	33.45
366.889	101.03
367.1	78.51
367.311	-23.89
367.522	35.5
367.733	43.69
367.944	53.93
368.155	74.41
368.366	47.79
368.577	-9.56
368.788	94.89
368.999	0.68
369.209	39.59
369.42	12.97
369.631	86.7
369.842	86.7
370.053	12.97
370.264	-50.52
370.474	70.31
370.685	35.5
370.896	58.03
371.107	43.69
371.317	51.88
371.528	-52.56
371.739	29.35
371.95	-30.04
372.16	-17.75
372.371	51.88
372.582	-3.41
372.792	45.74
373.003	88.75
373.214	49.83
373.424	49.83
373.635	41.64
373.846	45.74
374.056	-44.37
374.267	96.94
374.477	94.89
374.688	12.97
374.898	51.88
375.109	96.94
375.319	-5.46
375.53	15.02
375.74	37.55
375.951	19.11
376.161	35.5
376.372	27.31
376.582	29.35
376.793	43.69
377.003	70.31
377.214	10.92
377.424	8.87
377.635	17.07
377.845	47.79
378.055	43.69
378.266	10.92
378.476	31.4
378.686	17.07
378.897	49.83
379.107	-19.8
379.317	10.92
379.528	60.07
379.738	33.45
379.948	-15.7
380.158	19.11
380.369	-21.85
380.579	21.16
380.789	45.74
380.999	88.75
381.21	4.78
381.42	-11.61
381.63	51.88
381.84	27.31
382.05	103.08
382.261	47.79
382.471	60.07
382.681	45.74
382.891	80.55
383.101	10.92
383.311	62.12
383.521	15.02
383.731	103.08
383.941	29.35
384.151	-5.46
384.361	58.03
384.571	148.14
384.781	55.98
384.991	98.99
385.201	60.07
385.411	-3.41
385.621	19.11
385.831	58.03
386.041	109.22
386.251	78.51
386.461	90.79
386.671	12.97
386.881	0.68
387.091	68.27
387.301	43.69
387.511	88.75
387.72	58.03
387.93	103.08
388.14	-25.94
388.35	29.35
388.56	70.31
388.769	39.59
388.979	-17.75
389.189	82.6
389.399	70.31
389.609	51.88
389.818	41.64
390.028	94.89
390.238	84.65
390.447	47.79
390.657	58.03
390.867	10.92
391.076	76.46
391.286	49.83
391.496	-7.51
391.705	21.16
391.915	150.18
392.125	66.22
392.334	33.45
392.544	27.31
392.753	121.51
392.963	60.07
393.172	35.5
393.382	76.46
393.591	45.74
393.801	-13.65
394.01	113.32
394.22	70.31
394.429	80.55
394.639	88.75
394.848	55.98
395.058	70.31
395.267	53.93
395.477	74.41
395.686	80.55
395.895	98.99
396.105	154.28
396.314	96.94
396.524	127.66
396.733	0.68
396.942	160.42
397.152	66.22
397.361	62.12
397.57	21.16
397.78	86.7
397.989	80.55
398.198	58.03
398.407	45.74
398.617	70.31
398.826	144.04
399.035	37.55
399.244	92.84
399.453	37.55
399.663	92.84
399.872	101.03
400.081	41.64
400.29	139.94
400.499	60.07
400.708	164.52
400.917	51.88
401.127	103.08
401.336	66.22
401.545	107.18
401.754	113.32
401.963	109.22
402.172	94.89
402.381	139.94
402.59	174.76
402.799	-30.04
403.008	60.07
403.217	88.75
403.426	109.22
403.635	109.22
403.844	78.51
404.053	129.7
404.262	101.03
404.471	135.85
404.68	111.27
404.888	203.43
405.097	141.99
405.306	164.52
405.515	182.95
405.724	121.51
405.933	185
406.142	166.57
406.35	82.6
406.559	160.42
406.768	78.51
406.977	199.34
407.185	185
407.394	205.48
407.603	148.14
407.812	219.82
408.02	205.48
408.229	156.33
408.438	244.39
408.646	215.72
408.855	154.28
409.064	225.96
409.272	250.53
409.481	201.38
409.69	225.96
409.898	277.16
410.107	287.4
410.315	295.59
410.524	228.01
410.733	289.45
410.941	273.06
411.15	406.18
411.358	348.84
411.567	332.45
411.775	385.7
411.984	344.74
412.192	303.78
412.401	434.85
412.609	445.09
412.818	453.28
413.026	377.51
413.234	434.85
413.443	424.61
413.651	453.28
413.86	510.63
414.068	545.44
414.276	613.03
414.485	508.58
414.693	543.39
414.901	516.77
415.11	572.07
415.318	578.21
415.526	653.98
415.734	658.08
415.943	635.55
416.151	662.18
416.359	778.91
416.567	703.14
416.776	762.53
416.984	793.25
417.192	838.3
417.4	938.65
417.608	938.65
417.817	885.41
418.025	883.36
418.233	1034.91
418.441	967.32
418.649	983.71
418.857	1147.55
419.065	1213.08
419.273	1036.95
419.481	1155.74
419.689	1229.46
419.897	1131.16
420.105	1276.57
420.313	1335.96
420.521	1307.29
420.729	1383.06
420.937	1421.97
421.145	1481.36
421.353	1637.01
421.561	1725.07
421.769	1655.44
421.977	1733.26
422.185	1692.3
422.393	1794.7
422.601	1911.44
422.809	2034.32
423.017	1962.64
423.224	2058.89
423.432	2071.18
423.64	2159.24
423.848	2400.9
424.056	2249.35
424.263	2433.67
424.471	2445.96
424.679	2445.96
424.887	2650.75
425.094	2517.64
425.302	2697.86
425.51	2878.08
425.718	2861.69
425.925	2949.76
426.133	3011.2
426.341	3123.83
426.548	3322.49
426.756	3345.02
426.964	3353.21
427.171	3621.49
427.379	3701.36
427.586	3779.18
427.794	3777.14
428.001	4031.09
428.209	4182.63
428.417	4205.16
428.624	4547.17
428.832	4551.27
429.039	4360.81
429.247	4471.4
429.454	4850.27
429.662	5120.6
429.869	4745.83
430.076	5237.34
430.284	4977.25
430.491	5093.98
430.699	5536.34
430.906	5417.56
431.114	5644.88
431.321	5716.56
431.528	6011.47
431.736	6222.41
431.943	6701.64
432.15	6431.3
432.358	6373.96
432.565	6736.45
432.772	6857.28
432.979	7170.62
433.187	7219.77
433.394	7330.36
433.601	7987.76
433.808	7819.83
434.016	7641.65
434.223	8208.94
434.43	8651.3
434.637	8491.56
434.844	9050.66
435.052	9036.32
435.259	9167.39
435.466	9302.56
435.673	8972.83
435.88	9779.73
436.087	10127.89
436.294	10191.38
436.501	9814.55
436.708	10199.57
436.915	10770.95
437.122	11049.47
437.329	10820.1
437.537	11205.12
437.743	11432.44
437.95	11569.66
438.157	12067.31
438.364	12394.99
438.571	12407.28
438.778	12380.65
438.985	13658.59
439.192	13095.39
439.399	13484.51
439.606	13115.87
439.813	13853.14
440.02	14582.22
440.227	14520.78
440.433	14608.84
440.64	14811.59
440.847	14692.81
441.054	15126.98
441.261	16101.81
441.467	15925.69
441.674	16105.91
441.881	16728.49
442.088	16748.97
442.294	16445.87
442.501	16951.72
442.708	17705.37
442.914	17918.36
443.121	18909.58
443.328	18266.52
443.534	19468.67
443.741	18993.54
443.948	18774.41
444.154	20279.67
444.361	20232.57
444.568	20478.32
444.774	20283.77
444.981	20697.45
445.187	21197.16
445.394	21956.96
445.6	21741.92
445.807	23535.94
446.013	22497.62
446.22	23273.8
446.426	23951.68
446.633	24387.89
446.839	25317.67
447.046	24168.76
447.252	25332.01
447.459	25614.63
447.665	25362.73
447.871	26114.33
448.078	27607.3
448.284	26364.18
448.491	26734.87
448.697	28119.29
448.903	28698.87
449.11	28483.83
449.316	28293.37
449.522	28649.72
449.728	29640.93
449.935	29663.46
450.141	29587.69
450.347	30312.67
450.553	29059.31
450.76	29788.39
450.966	30509.27
451.172	30329.05
451.378	31209.68
451.584	30523.61
451.791	31340.75
451.997	31140.05
452.203	32020.67
452.409	31674.57
452.615	31463.63
452.821	30302.43
453.027	29782.24
453.233	31762.63
453.44	30095.58
453.646	30621.91
453.852	31152.34
454.058	31631.56
454.264	30877.91
454.47	31140.05
454.676	30220.51
454.882	31281.36
455.088	28793.08
455.294	28909.81
455.5	29473
455.705	29645.03
455.911	28444.92
456.117	27971.84
456.323	27595.01
456.529	26118.43
456.735	27472.14
456.941	26773.78
457.147	26353.94
457.352	25571.62
457.558	25452.84
457.764	25155.88
457.97	24748.34
458.176	24459.57
458.381	24584.5
458.587	23136.59
458.793	23044.43
458.999	21793.12
459.204	23505.22
459.41	22874.45
459.616	21166.44
459.821	21361
460.027	21254.5
460.233	20674.93
460.438	19951.99
460.644	19954.04
460.85	19333.51
461.055	18954.63
461.261	18553.23
461.466	17428.9
461.672	16880.04
461.878	18026.9
462.083	16974.25
462.289	16738.73
462.494	16392.62
462.7	15710.65
462.905	15067.59
463.111	15847.86
463.316	15802.81
463.522	15546.81
463.727	15520.19
463.932	15327.68
464.138	15436.22
464.343	15260.1
464.549	14848.46
464.754	15296.96
464.959	15196.61
465.165	15059.4
465.37	14434.77
465.575	14248.4
465.781	14516.69
465.986	14504.4
466.191	14184.91
466.397	13769.18
466.602	13230.56
466.807	13840.86
467.012	13746.65
467.218	13646.3
467.423	13533.66
467.628	13537.76
467.833	14117.33
