Data from USB4F104151__97__11-45-47-745.txt Node

Date: Fri Mar 14 11:45:47 EDT 2025
User: louis
Spectrometer: USB4F10415
Trigger mode: 4
Integration Time (sec): 2.000000E-2
Scans to average: 1
Electric dark correction enabled: true
Nonlinearity correction enabled: false
Boxcar width: 0
XAxis mode: Wavelengths
Number of Pixels in Spectrum: 3648
>>>>>Begin Spectral Data<<<<<
178.204	-44.71
178.424	-44.71
178.644	-44.71
178.864	-54.95
179.084	-104.11
179.304	-28.33
179.524	-38.57
179.744	-48.81
179.964	2.39
180.184	-11.95
180.404	20.82
180.624	57.68
180.844	33.11
181.064	-20.14
181.283	20.82
181.503	-26.28
181.723	39.25
181.943	2.39
182.163	67.92
182.383	-16.04
182.602	-52.91
182.822	-7.85
183.042	53.59
183.262	49.49
183.482	-1.71
183.701	53.59
183.921	-7.85
184.141	0.34
184.361	37.2
184.58	-59.05
184.8	82.26
185.02	65.88
185.239	16.73
185.459	16.73
185.679	22.87
185.898	-26.28
186.118	61.78
186.338	12.63
186.557	61.78
186.777	-34.47
186.997	16.73
187.216	76.12
187.436	29.01
187.655	16.73
187.875	61.78
188.095	-26.28
188.314	137.56
188.534	51.54
188.753	-22.19
188.973	18.77
189.192	90.45
189.412	2.39
189.631	-3.75
189.851	22.87
190.07	55.64
190.29	-77.48
190.509	2.39
190.729	67.92
190.948	57.68
191.168	88.4
191.387	69.97
191.607	-24.23
191.826	63.83
192.045	-9.9
192.265	24.92
192.484	-48.81
192.704	-3.75
192.923	41.3
193.142	72.02
193.362	22.87
193.581	59.73
193.8	33.11
194.02	35.16
194.239	-7.85
194.458	78.16
194.678	26.96
194.897	-38.57
195.116	-9.9
195.335	-16.04
195.555	16.73
195.774	2.39
195.993	55.64
196.212	-3.75
196.432	6.49
196.651	31.06
196.87	37.2
197.089	39.25
197.308	29.01
197.528	10.58
197.747	-48.81
197.966	49.49
198.185	125.27
198.404	-5.8
198.623	8.53
198.842	4.44
199.062	55.64
199.281	45.4
199.5	20.82
199.719	69.97
199.938	82.26
200.157	129.36
200.376	47.44
200.595	-24.23
200.814	6.49
201.033	6.49
201.252	29.01
201.471	29.01
201.69	43.35
201.909	-7.85
202.128	12.63
202.347	80.21
202.566	-18.09
202.785	26.96
203.004	76.12
203.223	51.54
203.442	65.88
203.661	-11.95
203.879	41.3
204.098	49.49
204.317	-13.99
204.536	61.78
204.755	-16.04
204.974	33.11
205.193	45.4
205.411	43.35
205.63	4.44
205.849	24.92
206.068	14.68
206.287	33.11
206.505	6.49
206.724	-48.81
206.943	-44.71
207.162	31.06
207.381	4.44
207.599	29.01
207.818	10.58
208.037	-13.99
208.255	22.87
208.474	-9.9
208.693	-24.23
208.911	-42.67
209.13	-13.99
209.349	-30.38
209.567	43.35
209.786	104.79
210.005	-50.86
210.223	41.3
210.442	37.2
210.661	6.49
210.879	-38.57
211.098	98.64
211.316	-20.14
211.535	0.34
211.753	-7.85
211.972	12.63
212.191	53.59
212.409	49.49
212.628	-34.47
212.846	35.16
213.065	92.5
213.283	57.68
213.502	63.83
213.72	10.58
213.938	67.92
214.157	-61.1
214.375	67.92
214.594	14.68
214.812	41.3
215.031	-7.85
215.249	-28.33
215.467	65.88
215.686	-5.8
215.904	22.87
216.122	43.35
216.341	26.96
216.559	37.2
216.778	67.92
216.996	41.3
217.214	-26.28
217.432	12.63
217.651	12.63
217.869	24.92
218.087	10.58
218.306	90.45
218.524	-24.23
218.742	26.96
218.96	20.82
219.179	33.11
219.397	49.49
219.615	12.63
219.833	12.63
220.051	-7.85
220.27	14.68
220.488	41.3
220.706	-34.47
220.924	-24.23
221.142	18.77
221.36	-16.04
221.578	6.49
221.796	-52.91
222.015	35.16
222.233	-18.09
222.451	39.25
222.669	-13.99
222.887	-1.71
223.105	72.02
223.323	43.35
223.541	55.64
223.759	14.68
223.977	33.11
224.195	72.02
224.413	-5.8
224.631	-30.38
224.849	31.06
225.067	-26.28
225.285	-38.57
225.503	98.64
225.721	8.53
225.939	82.26
226.157	51.54
226.375	65.88
226.592	24.92
226.81	29.01
227.028	47.44
227.246	76.12
227.464	-57
227.682	18.77
227.9	29.01
228.117	59.73
228.335	-57
228.553	-3.75
228.771	8.53
228.989	92.5
229.206	-18.09
229.424	-3.75
229.642	-3.75
229.86	6.49
230.077	88.4
230.295	41.3
230.513	43.35
230.731	57.68
230.948	-3.75
231.166	102.74
231.384	-5.8
231.601	6.49
231.819	121.17
232.037	-16.04
232.254	22.87
232.472	31.06
232.689	22.87
232.907	10.58
233.125	2.39
233.342	41.3
233.56	10.58
233.777	6.49
233.995	-36.52
234.213	45.4
234.43	74.07
234.648	-24.23
234.865	-36.52
235.083	16.73
235.3	-57
235.518	-3.75
235.735	43.35
235.953	35.16
236.17	57.68
236.388	-20.14
236.605	-9.9
236.822	100.69
237.04	16.73
237.257	-7.85
237.475	10.58
237.692	-28.33
237.909	82.26
238.127	22.87
238.344	37.2
238.562	31.06
238.779	-40.62
238.996	4.44
239.214	8.53
239.431	76.12
239.648	4.44
239.865	39.25
240.083	31.06
240.3	37.2
240.517	4.44
240.735	59.73
240.952	57.68
241.169	59.73
241.386	72.02
241.603	31.06
241.821	-26.28
242.038	33.11
242.255	-36.52
242.472	-40.62
242.689	69.97
242.907	88.4
243.124	37.2
243.341	59.73
243.558	-16.04
243.775	65.88
243.992	16.73
244.209	29.01
244.426	90.45
244.643	45.4
244.86	-81.58
245.078	67.92
245.295	47.44
245.512	29.01
245.729	39.25
245.946	4.44
246.163	33.11
246.38	20.82
246.597	24.92
246.814	61.78
247.031	-38.57
247.248	24.92
247.464	33.11
247.681	14.68
247.898	-16.04
248.115	82.26
248.332	14.68
248.549	59.73
248.766	76.12
248.983	47.44
249.2	10.58
249.417	74.07
249.633	33.11
249.85	29.01
250.067	31.06
250.284	63.83
250.501	-30.38
250.717	65.88
250.934	-38.57
251.151	2.39
251.368	6.49
251.585	45.4
251.801	18.77
252.018	-20.14
252.235	8.53
252.451	-11.95
252.668	-18.09
252.885	-18.09
253.102	-24.23
253.318	59.73
253.535	45.4
253.752	49.49
253.968	14.68
254.185	92.5
254.401	-50.86
254.618	61.78
254.835	53.59
255.051	20.82
255.268	-67.24
255.484	43.35
255.701	0.34
255.917	57.68
256.134	14.68
256.351	45.4
256.567	24.92
256.784	-7.85
257	-3.75
257.217	35.16
257.433	16.73
257.65	47.44
257.866	74.07
258.082	29.01
258.299	94.55
258.515	29.01
258.732	-24.23
258.948	26.96
259.165	4.44
259.381	-16.04
259.597	-1.71
259.814	12.63
260.03	22.87
260.246	-3.75
260.463	55.64
260.679	-20.14
260.895	65.88
261.112	33.11
261.328	4.44
261.544	-20.14
261.761	45.4
261.977	-11.95
262.193	-7.85
262.409	-32.43
262.626	57.68
262.842	59.73
263.058	-1.71
263.274	59.73
263.49	16.73
263.707	72.02
263.923	16.73
264.139	20.82
264.355	18.77
264.571	63.83
264.787	41.3
265.004	8.53
265.22	-13.99
265.436	78.16
265.652	-13.99
265.868	61.78
266.084	41.3
266.3	-52.91
266.516	20.82
266.732	-28.33
266.948	4.44
267.164	-26.28
267.38	53.59
267.596	16.73
267.812	53.59
268.028	24.92
268.244	67.92
268.46	82.26
268.676	2.39
268.892	-54.95
269.108	10.58
269.324	16.73
269.54	-3.75
269.756	90.45
269.972	4.44
270.188	45.4
270.403	-57
270.619	90.45
270.835	12.63
271.051	-7.85
271.267	-83.63
271.483	45.4
271.698	-30.38
271.914	39.25
272.13	92.5
272.346	-3.75
272.562	-7.85
272.777	102.74
272.993	-36.52
273.209	31.06
273.425	18.77
273.64	-7.85
273.856	-1.71
274.072	-11.95
274.287	31.06
274.503	-22.19
274.719	45.4
274.934	2.39
275.15	-30.38
275.366	35.16
275.581	41.3
275.797	-16.04
276.012	-38.57
276.228	-5.8
276.444	45.4
276.659	31.06
276.875	22.87
277.09	-48.81
277.306	33.11
277.521	43.35
277.737	65.88
277.952	35.16
278.168	-22.19
278.383	61.78
278.599	20.82
278.814	33.11
279.03	74.07
279.245	35.16
279.461	51.54
279.676	45.4
279.892	41.3
280.107	-59.05
280.322	53.59
280.538	33.11
280.753	12.63
280.969	47.44
281.184	12.63
281.399	-7.85
281.615	-26.28
281.83	115.03
282.045	-40.62
282.26	26.96
282.476	53.59
282.691	-20.14
282.906	-52.91
283.122	-38.57
283.337	-32.43
283.552	69.97
283.767	-32.43
283.983	39.25
284.198	-7.85
284.413	39.25
284.628	47.44
284.843	10.58
285.058	63.83
285.274	33.11
285.489	53.59
285.704	2.39
285.919	-63.15
286.134	31.06
286.349	43.35
286.564	-20.14
286.779	22.87
286.995	24.92
287.21	-22.19
287.425	-5.8
287.64	-65.19
287.855	88.4
288.07	-7.85
288.285	55.64
288.5	43.35
288.715	8.53
288.93	12.63
289.145	47.44
289.36	14.68
289.575	-22.19
289.79	16.73
290.004	29.01
290.219	33.11
290.434	26.96
290.649	-44.71
290.864	14.68
291.079	33.11
291.294	49.49
291.509	-1.71
291.724	55.64
291.938	-22.19
292.153	-22.19
292.368	0.34
292.583	-26.28
292.798	55.64
293.012	72.02
293.227	72.02
293.442	16.73
293.657	39.25
293.871	31.06
294.086	18.77
294.301	76.12
294.516	43.35
294.73	57.68
294.945	51.54
295.16	-34.47
295.374	86.36
295.589	37.2
295.804	-34.47
296.018	-13.99
296.233	45.4
296.447	35.16
296.662	35.16
296.877	59.73
297.091	37.2
297.306	47.44
297.52	26.96
297.735	0.34
297.949	6.49
298.164	72.02
298.378	29.01
298.593	88.4
298.807	94.55
299.022	84.31
299.236	45.4
299.451	2.39
299.665	-1.71
299.88	6.49
300.094	37.2
300.309	-7.85
300.523	72.02
300.737	-42.67
300.952	4.44
301.166	-3.75
301.381	14.68
301.595	84.31
301.809	22.87
302.024	41.3
302.238	6.49
302.452	12.63
302.667	41.3
302.881	20.82
303.095	-50.86
303.309	6.49
303.524	-26.28
303.738	112.98
303.952	-9.9
304.166	43.35
304.381	-38.57
304.595	47.44
304.809	74.07
305.023	90.45
305.237	18.77
305.452	76.12
305.666	-26.28
305.88	29.01
306.094	-73.39
306.308	63.83
306.522	59.73
306.736	14.68
306.95	100.69
307.164	-5.8
307.379	-1.71
307.593	108.88
307.807	35.16
308.021	12.63
308.235	49.49
308.449	12.63
308.663	-28.33
308.877	123.22
309.091	-13.99
309.305	49.49
309.519	-20.14
309.733	61.78
309.947	43.35
310.161	82.26
310.374	2.39
310.588	61.78
310.802	57.68
311.016	-22.19
311.23	74.07
311.444	41.3
311.658	92.5
311.872	82.26
312.085	22.87
312.299	10.58
312.513	127.32
312.727	59.73
312.941	12.63
313.154	4.44
313.368	-18.09
313.582	6.49
313.796	-9.9
314.009	-28.33
314.223	76.12
314.437	86.36
314.651	-1.71
314.864	29.01
315.078	-7.85
315.292	6.49
315.505	84.31
315.719	53.59
315.933	47.44
316.146	12.63
316.36	-36.52
316.573	-18.09
316.787	16.73
317.001	16.73
317.214	12.63
317.428	22.87
317.641	16.73
317.855	-30.38
318.068	-1.71
318.282	53.59
318.495	84.31
318.709	57.68
318.922	-26.28
319.136	14.68
319.349	72.02
319.563	10.58
319.776	10.58
319.99	33.11
320.203	90.45
320.417	43.35
320.63	86.36
320.843	6.49
321.057	41.3
321.27	-13.99
321.483	74.07
321.697	61.78
321.91	-24.23
322.124	8.53
322.337	88.4
322.55	29.01
322.763	4.44
322.977	92.5
323.19	39.25
323.403	57.68
323.617	18.77
323.83	47.44
324.043	-20.14
324.256	51.54
324.469	-20.14
324.683	74.07
324.896	82.26
325.109	29.01
325.322	-16.04
325.535	0.34
325.748	33.11
325.962	18.77
326.175	39.25
326.388	16.73
326.601	-3.75
326.814	-1.71
327.027	39.25
327.24	8.53
327.453	-9.9
327.666	-3.75
327.879	53.59
328.092	16.73
328.305	47.44
328.518	78.16
328.731	2.39
328.944	100.69
329.157	72.02
329.37	31.06
329.583	-16.04
329.796	37.2
330.009	-16.04
330.222	49.49
330.435	63.83
330.648	-26.28
330.861	-3.75
331.073	35.16
331.286	65.88
331.499	74.07
331.712	-16.04
331.925	-20.14
332.138	45.4
332.35	-36.52
332.563	24.92
332.776	88.4
332.989	86.36
333.202	10.58
333.414	41.3
333.627	14.68
333.84	82.26
334.053	49.49
334.265	-16.04
334.478	-36.52
334.691	-1.71
334.903	-38.57
335.116	57.68
335.329	49.49
335.541	57.68
335.754	29.01
335.966	14.68
336.179	-20.14
336.392	55.64
336.604	-24.23
336.817	117.08
337.029	39.25
337.242	39.25
337.454	67.92
337.667	-5.8
337.88	80.21
338.092	26.96
338.305	-1.71
338.517	-9.9
338.729	10.58
338.942	-13.99
339.154	31.06
339.367	39.25
339.579	29.01
339.792	39.25
340.004	45.4
340.217	90.45
340.429	4.44
340.641	65.88
340.854	16.73
341.066	74.07
341.278	63.83
341.491	-24.23
341.703	72.02
341.915	-11.95
342.128	-16.04
342.34	43.35
342.552	78.16
342.764	43.35
342.977	49.49
343.189	6.49
343.401	67.92
343.613	-73.39
343.826	2.39
344.038	-5.8
344.25	-79.53
344.462	119.12
344.674	43.35
344.886	55.64
345.099	90.45
345.311	26.96
345.523	61.78
345.735	41.3
345.947	-24.23
346.159	-7.85
346.371	4.44
346.583	-32.43
346.795	67.92
347.007	-18.09
347.219	29.01
347.431	16.73
347.643	39.25
347.855	-22.19
348.067	57.68
348.279	8.53
348.491	67.92
348.703	10.58
348.915	53.59
349.127	-9.9
349.339	69.97
349.551	8.53
349.763	-18.09
349.975	82.26
350.187	33.11
350.399	-16.04
350.61	-16.04
350.822	-36.52
351.034	18.77
351.246	-24.23
351.458	55.64
351.669	-7.85
351.881	20.82
352.093	49.49
352.305	33.11
352.517	22.87
352.728	102.74
352.94	61.78
353.152	74.07
353.363	26.96
353.575	6.49
353.787	55.64
353.999	61.78
354.21	55.64
354.422	33.11
354.633	6.49
354.845	-34.47
355.057	82.26
355.268	-7.85
355.48	92.5
355.692	-9.9
355.903	8.53
356.115	-24.23
356.326	-40.62
356.538	45.4
356.749	49.49
356.961	55.64
357.172	-3.75
357.384	104.79
357.595	8.53
357.807	31.06
358.018	29.01
358.23	57.68
358.441	29.01
358.653	33.11
358.864	35.16
359.075	29.01
359.287	45.4
359.498	55.64
359.709	-3.75
359.921	51.54
360.132	88.4
360.344	65.88
360.555	37.2
360.766	8.53
360.977	65.88
361.189	49.49
361.4	8.53
361.611	45.4
361.823	61.78
362.034	78.16
362.245	26.96
362.456	37.2
362.667	78.16
362.879	92.5
363.09	53.59
363.301	86.36
363.512	8.53
363.723	-1.71
363.935	8.53
364.146	22.87
364.357	-50.86
364.568	100.69
364.779	-13.99
364.99	41.3
365.201	43.35
365.412	26.96
365.623	41.3
365.834	57.68
366.045	88.4
366.256	135.51
366.467	31.06
366.678	39.25
366.889	55.64
367.1	29.01
367.311	67.92
367.522	110.93
367.733	41.3
367.944	16.73
368.155	24.92
368.366	43.35
368.577	74.07
368.788	37.2
368.999	18.77
369.209	4.44
369.42	72.02
369.631	119.12
369.842	119.12
370.053	16.73
370.264	8.53
370.474	59.73
370.685	112.98
370.896	53.59
371.107	-1.71
371.317	26.96
371.528	76.12
371.739	74.07
371.95	92.5
372.16	55.64
372.371	84.31
372.582	14.68
372.792	24.92
373.003	12.63
373.214	16.73
373.424	12.63
373.635	-48.81
373.846	86.36
374.056	43.35
374.267	26.96
374.477	-1.71
374.688	43.35
374.898	84.31
375.109	37.2
375.319	41.3
375.53	-24.23
375.74	14.68
375.951	-61.1
376.161	74.07
376.372	45.4
376.582	12.63
376.793	20.82
377.003	29.01
377.214	61.78
377.424	88.4
377.635	84.31
377.845	74.07
378.055	102.74
378.266	88.4
378.476	86.36
378.686	33.11
378.897	-50.86
379.107	57.68
379.317	41.3
379.528	31.06
379.738	51.54
379.948	0.34
380.158	35.16
380.369	-7.85
380.579	45.4
380.789	33.11
380.999	100.69
381.21	-16.04
381.42	104.79
381.63	16.73
381.84	12.63
382.05	-9.9
382.261	26.96
382.471	33.11
382.681	-11.95
382.891	84.31
383.101	51.54
383.311	-38.57
383.521	22.87
383.731	108.88
383.941	61.78
384.151	-3.75
384.361	24.92
384.571	35.16
384.781	51.54
384.991	24.92
385.201	55.64
385.411	12.63
385.621	33.11
385.831	55.64
386.041	20.82
386.251	-26.28
386.461	4.44
386.671	31.06
386.881	47.44
387.091	108.88
387.301	104.79
387.511	98.64
387.72	35.16
387.93	-3.75
388.14	-3.75
388.35	61.78
388.56	55.64
388.769	94.55
388.979	55.64
389.189	78.16
389.399	53.59
389.609	102.74
389.818	39.25
390.028	4.44
390.238	57.68
390.447	-13.99
390.657	108.88
390.867	61.78
391.076	82.26
391.286	100.69
391.496	20.82
391.705	98.64
391.915	100.69
392.125	151.89
392.334	100.69
392.544	94.55
392.753	88.4
392.963	49.49
393.172	-7.85
393.382	26.96
393.591	57.68
393.801	2.39
394.01	63.83
394.22	47.44
394.429	33.11
394.639	47.44
394.848	59.73
395.058	47.44
395.267	86.36
395.477	102.74
395.686	125.27
395.895	41.3
396.105	149.84
396.314	18.77
396.524	119.12
396.733	86.36
396.942	98.64
397.152	74.07
397.361	72.02
397.57	123.22
397.78	37.2
397.989	55.64
398.198	176.47
398.407	65.88
398.617	82.26
398.826	47.44
399.035	-1.71
399.244	125.27
399.453	24.92
399.663	117.08
399.872	110.93
400.081	65.88
400.29	123.22
400.499	119.12
400.708	69.97
400.917	82.26
401.127	53.59
401.336	45.4
401.545	137.56
401.754	129.36
401.963	127.32
402.172	72.02
402.381	41.3
402.59	12.63
402.799	139.6
403.008	145.75
403.217	119.12
403.426	92.5
403.635	92.5
403.844	127.32
404.053	72.02
404.262	96.6
404.471	147.8
404.68	82.26
404.888	149.84
405.097	125.27
405.306	127.32
405.515	135.51
405.724	162.13
405.933	139.6
406.142	100.69
406.35	203.09
406.559	190.8
406.768	131.41
406.977	168.27
407.185	98.64
407.394	188.75
407.603	121.17
407.812	194.9
408.02	182.61
408.229	196.95
408.438	153.94
408.646	170.32
408.855	211.28
409.064	219.47
409.272	221.52
409.481	252.24
409.69	205.14
409.898	141.65
410.107	307.54
410.315	256.34
410.524	295.25
410.733	235.86
410.941	383.31
411.15	379.22
411.358	336.21
411.567	385.36
411.775	405.84
411.984	366.93
412.192	297.3
412.401	424.27
412.609	418.13
412.818	434.51
413.026	436.56
413.234	477.52
413.443	418.13
413.651	446.8
413.86	436.56
414.068	469.33
414.276	536.91
414.485	512.33
414.693	516.43
414.901	584.01
415.11	614.73
415.318	594.25
415.526	737.61
415.734	733.51
415.943	715.08
416.151	710.99
416.359	663.88
416.567	786.76
416.776	753.99
416.984	792.91
417.192	786.76
417.4	799.05
417.608	794.95
417.817	911.69
418.025	958.79
418.233	987.46
418.441	901.45
418.649	1030.47
418.857	1124.68
419.065	1018.18
419.273	1173.83
419.481	1218.88
419.689	1190.21
419.897	1292.61
420.105	1341.76
420.313	1294.66
420.521	1354.05
420.729	1362.24
420.937	1409.34
421.145	1593.66
421.353	1597.76
421.561	1630.52
421.769	1605.95
421.977	1800.51
422.185	1845.56
422.393	1833.27
422.601	1952.06
422.809	2027.83
423.017	1943.86
423.224	1945.91
423.432	2165.04
423.64	2160.95
423.848	2312.5
424.056	2308.4
424.263	2365.75
424.471	2416.94
424.679	2507.06
424.887	2566.45
425.094	2754.86
425.302	2705.71
425.51	2830.63
425.718	2873.64
425.925	2963.75
426.133	3021.1
426.341	3225.89
426.548	3311.91
426.756	3418.4
426.964	3344.67
427.171	3627.29
427.379	3625.25
427.586	3731.74
427.794	3739.93
428.001	4090.13
428.209	4321.56
428.417	4063.51
428.624	4454.67
428.832	4378.9
429.039	4311.32
429.247	4319.51
429.454	4960.52
429.662	5189.89
429.869	4796.68
430.076	5165.32
430.284	4991.24
430.491	5187.85
430.699	5445.89
430.906	5572.86
431.114	5683.45
431.321	5755.13
431.528	5869.82
431.736	6338.8
431.943	6619.38
432.15	6486.26
432.358	6435.06
432.565	6725.87
432.772	6781.17
432.979	6996.2
433.187	7246.05
433.394	7407.84
433.601	7876.83
433.808	7749.86
434.016	7938.27
434.223	8255.7
434.43	8653.01
434.637	8605.91
434.844	9044.17
435.052	9169.1
435.259	9210.06
435.466	9257.16
435.673	9095.37
435.88	9496.77
436.087	10246.33
436.294	10188.99
436.501	10086.59
436.708	10195.13
436.915	10547.38
437.122	11096.24
437.329	11118.76
437.537	11337.9
437.743	11720.87
437.95	11194.54
438.157	12073.12
438.364	12490.9
438.571	12374.17
438.778	12435.61
438.985	13682.82
439.192	12769.43
439.399	13453.45
439.606	13234.32
439.813	14076.03
440.02	14827.64
440.227	14692.47
440.433	14397.56
440.64	14966.9
440.847	14876.79
441.054	15046.77
441.261	16177.25
441.467	15833.19
441.674	16169.05
441.881	16660.57
442.088	16937.04
442.294	16779.35
442.501	17242.19
442.708	17422.41
442.914	18153.54
443.121	19089.46
443.328	18083.91
443.534	19920.93
443.741	18929.72
443.948	18640.95
444.154	20334.62
444.361	19945.51
444.568	20328.48
444.774	20174.88
444.981	20699.16
445.187	21094.42
445.394	21745.67
445.6	21792.78
445.807	23861.23
446.013	22618.11
446.22	23255.03
446.426	24113.13
446.633	24236
446.839	25106.39
447.046	24180.71
447.252	25364.43
447.459	25669.58
447.665	25544.66
447.871	26539.97
448.078	27633.58
448.284	26466.24
448.491	27027.38
448.697	27965.35
448.903	28632.99
449.11	28422.05
449.316	28174.25
449.522	28719.01
449.728	29503.38
449.935	29861.77
450.141	29589.39
450.347	30177.16
450.553	29560.72
450.76	29697.94
450.966	30562.18
451.172	30052.23
451.378	31182.71
451.584	30586.75
451.791	31180.67
451.997	31395.7
452.203	31795.06
452.409	31651.7
452.615	31582.07
452.821	29992.84
453.027	30252.94
453.233	31786.86
453.44	30560.13
453.646	30809.98
453.852	31059.84
454.058	31500.15
454.264	30680.96
454.47	30912.38
454.676	30267.27
454.882	31588.21
455.088	28751.77
455.294	29173.66
455.5	29429.65
455.705	29671.31
455.911	28948.38
456.117	27985.83
456.323	27910.06
456.529	26132.42
456.735	27529.14
456.941	26376.13
457.147	26054.6
457.352	25544.66
457.558	25124.82
457.764	25288.66
457.97	25020.38
458.176	24268.77
458.381	24160.23
458.587	23181.3
458.793	22759.42
458.999	21776.39
459.204	23678.96
459.41	22874.1
459.616	21280.78
459.821	21565.45
460.027	21342.22
460.233	20715.55
460.438	20158.5
460.644	20256.8
460.85	19154.99
461.055	18804.79
461.261	18720.82
461.466	17293.39
461.672	16625.75
461.878	18192.45
462.083	16803.92
462.289	16506.97
462.494	16343.13
462.7	15554.66
462.905	15112.3
463.111	15906.91
463.316	15810.66
463.522	15450.22
463.727	15464.55
463.932	15501.42
464.138	15396.97
464.343	15143.02
464.549	14688.37
464.754	15466.6
464.959	15048.82
465.165	15071.34
465.37	14329.98
465.575	14057.6
465.781	14813.3
465.986	14934.13
466.191	14114.94
466.397	13848.71
466.602	13408.39
466.807	14014.59
467.012	13721.73
467.218	13566.09
467.423	13633.67
467.628	13543.56
467.833	14383.23
