Data from USB4F104151__54__11-45-12-550.txt Node

Date: Fri Mar 14 11:45:12 EDT 2025
User: louis
Spectrometer: USB4F10415
Trigger mode: 4
Integration Time (sec): 2.000000E-2
Scans to average: 1
Electric dark correction enabled: true
Nonlinearity correction enabled: false
Boxcar width: 0
XAxis mode: Wavelengths
Number of Pixels in Spectrum: 3648
>>>>>Begin Spectral Data<<<<<
178.204	-105.47
178.424	-105.47
178.644	-105.47
178.864	-46.08
179.084	-119.81
179.304	19.46
179.524	-46.08
179.744	-23.55
179.964	46.08
180.184	1.02
180.404	-11.26
180.624	58.37
180.844	19.46
181.064	-72.7
181.283	29.7
181.503	-33.79
181.723	13.31
181.943	-60.42
182.163	-15.36
182.383	1.02
182.602	37.89
182.822	1.02
183.042	-7.17
183.262	23.55
183.482	52.22
183.701	54.27
183.921	-7.17
184.141	-37.89
184.361	29.7
184.58	-11.26
184.8	48.13
185.02	-25.6
185.239	66.56
185.459	-7.17
185.679	-60.42
185.898	-91.13
186.118	-35.84
186.338	91.13
186.557	5.12
186.777	-19.46
186.997	-41.98
187.216	27.65
187.436	52.22
187.655	66.56
187.875	76.8
188.095	3.07
188.314	-3.07
188.534	11.26
188.753	-15.36
188.973	19.46
189.192	19.46
189.412	74.75
189.631	27.65
189.851	87.04
190.07	-9.22
190.29	52.22
190.509	76.8
190.729	-35.84
190.948	31.74
191.168	37.89
191.387	7.17
191.607	11.26
191.826	-48.13
192.045	-17.41
192.265	78.85
192.484	128
192.704	-25.6
192.923	-21.5
193.142	70.65
193.362	33.79
193.581	-27.65
193.8	44.03
194.02	64.51
194.239	-39.94
194.458	-17.41
194.678	52.22
194.897	1.02
195.116	39.94
195.335	9.22
195.555	74.75
195.774	3.07
195.993	56.32
196.212	-37.89
196.432	11.26
196.651	-3.07
196.87	46.08
197.089	5.12
197.308	-9.22
197.528	29.7
197.747	-50.18
197.966	64.51
198.185	13.31
198.404	29.7
198.623	1.02
198.842	21.5
199.062	48.13
199.281	11.26
199.5	7.17
199.719	48.13
199.938	-17.41
200.157	78.85
200.376	84.99
200.595	39.94
200.814	-58.37
201.033	64.51
201.252	93.18
201.471	-3.07
201.69	13.31
201.909	7.17
202.128	11.26
202.347	27.65
202.566	-27.65
202.785	31.74
203.004	-39.94
203.223	74.75
203.442	5.12
203.661	41.98
203.879	19.46
204.098	-39.94
204.317	13.31
204.536	41.98
204.755	62.46
204.974	117.76
205.193	17.41
205.411	70.65
205.63	44.03
205.849	62.46
206.068	-33.79
206.287	-9.22
206.505	-11.26
206.724	-15.36
206.943	23.55
207.162	-5.12
207.381	3.07
207.599	60.42
207.818	-13.31
208.037	-37.89
208.255	-19.46
208.474	21.5
208.693	-31.74
208.911	-7.17
209.13	50.18
209.349	37.89
209.567	44.03
209.786	15.36
210.005	-37.89
210.223	-21.5
210.442	17.41
210.661	-31.74
210.879	17.41
211.098	-11.26
211.316	19.46
211.535	128
211.753	44.03
211.972	82.94
212.191	-5.12
212.409	-7.17
212.628	50.18
212.846	52.22
213.065	29.7
213.283	66.56
213.502	17.41
213.72	-39.94
213.938	-11.26
214.157	117.76
214.375	72.7
214.594	35.84
214.812	17.41
215.031	46.08
215.249	33.79
215.467	21.5
215.686	44.03
215.904	52.22
216.122	-60.42
216.341	19.46
216.559	-56.32
216.778	-27.65
216.996	-19.46
217.214	62.46
217.432	48.13
217.651	15.36
217.869	19.46
218.087	13.31
218.306	-39.94
218.524	41.98
218.742	5.12
218.96	31.74
219.179	13.31
219.397	-5.12
219.615	37.89
219.833	80.89
220.051	-35.84
220.27	99.33
220.488	15.36
220.706	105.47
220.924	11.26
221.142	87.04
221.36	9.22
221.578	-21.5
221.796	-13.31
222.015	1.02
222.233	37.89
222.451	31.74
222.669	-54.27
222.887	19.46
223.105	50.18
223.323	-35.84
223.541	48.13
223.759	87.04
223.977	-52.22
224.195	17.41
224.413	21.5
224.631	66.56
224.849	25.6
225.067	60.42
225.285	29.7
225.503	23.55
225.721	19.46
225.939	27.65
226.157	21.5
226.375	91.13
226.592	84.99
226.81	-1.02
227.028	156.67
227.246	54.27
227.464	35.84
227.682	1.02
227.9	64.51
228.117	62.46
228.335	17.41
228.553	41.98
228.771	-21.5
228.989	-5.12
229.206	-13.31
229.424	52.22
229.642	-56.32
229.86	21.5
230.077	91.13
230.295	35.84
230.513	68.61
230.731	-15.36
230.948	9.22
231.166	3.07
231.384	-37.89
231.601	89.09
231.819	39.94
232.037	-13.31
232.254	-3.07
232.472	19.46
232.689	103.42
232.907	89.09
233.125	7.17
233.342	7.17
233.56	3.07
233.777	-3.07
233.995	5.12
234.213	72.7
234.43	46.08
234.648	62.46
234.865	3.07
235.083	11.26
235.3	15.36
235.518	23.55
235.735	78.85
235.953	17.41
236.17	27.65
236.388	39.94
236.605	58.37
236.822	17.41
237.04	1.02
237.257	84.99
237.475	-1.02
237.692	-5.12
237.909	44.03
238.127	5.12
238.344	7.17
238.562	31.74
238.779	5.12
238.996	76.8
239.214	29.7
239.431	44.03
239.648	68.61
239.865	5.12
240.083	64.51
240.3	-9.22
240.517	19.46
240.735	37.89
240.952	-19.46
241.169	44.03
241.386	13.31
241.603	33.79
241.821	5.12
242.038	9.22
242.255	44.03
242.472	48.13
242.689	46.08
242.907	15.36
243.124	-15.36
243.341	-15.36
243.558	27.65
243.775	-1.02
243.992	-31.74
244.209	39.94
244.426	48.13
244.643	15.36
244.86	5.12
245.078	11.26
245.295	35.84
245.512	33.79
245.729	-9.22
245.946	31.74
246.163	39.94
246.38	23.55
246.597	39.94
246.814	37.89
247.031	91.13
247.248	-19.46
247.464	39.94
247.681	15.36
247.898	-33.79
248.115	58.37
248.332	11.26
248.549	27.65
248.766	33.79
248.983	50.18
249.2	-11.26
249.417	-35.84
249.633	-1.02
249.85	60.42
250.067	5.12
250.284	39.94
250.501	11.26
250.717	119.81
250.934	-35.84
251.151	13.31
251.368	13.31
251.585	-5.12
251.801	-13.31
252.018	58.37
252.235	37.89
252.451	17.41
252.668	29.7
252.885	-33.79
253.102	23.55
253.318	-9.22
253.535	-3.07
253.752	-13.31
253.968	29.7
254.185	-41.98
254.401	-5.12
254.618	52.22
254.835	48.13
255.051	19.46
255.268	-80.89
255.484	17.41
255.701	25.6
255.917	52.22
256.134	-13.31
256.351	-1.02
256.567	-70.65
256.784	29.7
257	-7.17
257.217	19.46
257.433	78.85
257.65	-46.08
257.866	-27.65
258.082	-78.85
258.299	-21.5
258.515	29.7
258.732	-9.22
258.948	13.31
259.165	3.07
259.381	-7.17
259.597	-35.84
259.814	60.42
260.03	23.55
260.246	80.89
260.463	58.37
260.679	29.7
260.895	-44.03
261.112	35.84
261.328	60.42
261.544	-3.07
261.761	-5.12
261.977	76.8
262.193	60.42
262.409	-21.5
262.626	17.41
262.842	50.18
263.058	25.6
263.274	9.22
263.49	-13.31
263.707	29.7
263.923	21.5
264.139	39.94
264.355	78.85
264.571	33.79
264.787	19.46
265.004	13.31
265.22	39.94
265.436	33.79
265.652	5.12
265.868	17.41
266.084	23.55
266.3	66.56
266.516	-7.17
266.732	-5.12
266.948	103.42
267.164	84.99
267.38	41.98
267.596	54.27
267.812	11.26
268.028	25.6
268.244	17.41
268.46	-1.02
268.676	97.28
268.892	-60.42
269.108	-21.5
269.324	29.7
269.54	5.12
269.756	21.5
269.972	27.65
270.188	103.42
270.403	52.22
270.619	-15.36
270.835	5.12
271.051	54.27
271.267	-56.32
271.483	-41.98
271.698	37.89
271.914	13.31
272.13	-52.22
272.346	80.89
272.562	-5.12
272.777	-31.74
272.993	111.61
273.209	-3.07
273.425	31.74
273.64	-7.17
273.856	-3.07
274.072	-35.84
274.287	-19.46
274.503	56.32
274.719	62.46
274.934	66.56
275.15	134.14
275.366	48.13
275.581	11.26
275.797	91.13
276.012	56.32
276.228	39.94
276.444	21.5
276.659	117.76
276.875	-3.07
277.09	56.32
277.306	-46.08
277.521	-7.17
277.737	54.27
277.952	46.08
278.168	48.13
278.383	33.79
278.599	-37.89
278.814	80.89
279.03	-13.31
279.245	21.5
279.461	-27.65
279.676	-21.5
279.892	-21.5
280.107	39.94
280.322	27.65
280.538	78.85
280.753	9.22
280.969	95.23
281.184	11.26
281.399	23.55
281.615	82.94
281.83	39.94
282.045	-27.65
282.26	58.37
282.476	48.13
282.691	31.74
282.906	-21.5
283.122	-64.51
283.337	-3.07
283.552	121.85
283.767	-62.46
283.983	48.13
284.198	5.12
284.413	58.37
284.628	21.5
284.843	68.61
285.058	-5.12
285.274	54.27
285.489	29.7
285.704	111.61
285.919	-3.07
286.134	19.46
286.349	27.65
286.564	33.79
286.779	54.27
286.995	-46.08
287.21	11.26
287.425	91.13
287.64	5.12
287.855	48.13
288.07	21.5
288.285	5.12
288.5	44.03
288.715	89.09
288.93	25.6
289.145	-17.41
289.36	54.27
289.575	29.7
289.79	39.94
290.004	-3.07
290.219	103.42
290.434	-37.89
290.649	3.07
290.864	23.55
291.079	9.22
291.294	-5.12
291.509	-27.65
291.724	23.55
291.938	-35.84
292.153	33.79
292.368	33.79
292.583	52.22
292.798	-23.55
293.012	21.5
293.227	33.79
293.442	21.5
293.657	48.13
293.871	48.13
294.086	84.99
294.301	74.75
294.516	27.65
294.73	58.37
294.945	-3.07
295.16	78.85
295.374	56.32
295.589	15.36
295.804	33.79
296.018	21.5
296.233	3.07
296.447	80.89
296.662	-5.12
296.877	3.07
297.091	1.02
297.306	58.37
297.52	-17.41
297.735	64.51
297.949	72.7
298.164	56.32
298.378	29.7
298.593	25.6
298.807	-17.41
299.022	35.84
299.236	60.42
299.451	33.79
299.665	-19.46
299.88	-23.55
300.094	93.18
300.309	50.18
300.523	66.56
300.737	1.02
300.952	74.75
301.166	-15.36
301.381	-9.22
301.595	74.75
301.809	-17.41
302.024	-19.46
302.238	13.31
302.452	48.13
302.667	-21.5
302.881	82.94
303.095	7.17
303.309	62.46
303.524	44.03
303.738	82.94
303.952	21.5
304.166	37.89
304.381	-70.65
304.595	15.36
304.809	-37.89
305.023	41.98
305.237	15.36
305.452	33.79
305.666	48.13
305.88	56.32
306.094	52.22
306.308	-19.46
306.522	33.79
306.736	-82.94
306.95	80.89
307.164	-9.22
307.379	37.89
307.593	33.79
307.807	50.18
308.021	78.85
308.235	95.23
308.449	3.07
308.663	-11.26
308.877	11.26
309.091	13.31
309.305	117.76
309.519	19.46
309.733	80.89
309.947	70.65
310.161	93.18
310.374	-3.07
310.588	1.02
310.802	23.55
311.016	50.18
311.23	13.31
311.444	66.56
311.658	54.27
311.872	33.79
312.085	21.5
312.299	91.13
312.513	-31.74
312.727	66.56
312.941	-3.07
313.154	23.55
313.368	13.31
313.582	9.22
313.796	-5.12
314.009	17.41
314.223	60.42
314.437	-39.94
314.651	37.89
314.864	62.46
315.078	107.52
315.292	9.22
315.505	19.46
315.719	82.94
315.933	68.61
316.146	66.56
316.36	-84.99
316.573	23.55
316.787	15.36
317.001	68.61
317.214	-17.41
317.428	60.42
317.641	-3.07
317.855	23.55
318.068	60.42
318.282	72.7
318.495	125.95
318.709	-23.55
318.922	62.46
319.136	-21.5
319.349	3.07
319.563	31.74
319.776	60.42
319.99	87.04
320.203	50.18
320.417	58.37
320.63	-17.41
320.843	56.32
321.057	37.89
321.27	76.8
321.483	119.81
321.697	-27.65
321.91	37.89
322.124	56.32
322.337	19.46
322.55	-44.03
322.763	37.89
322.977	58.37
323.19	62.46
323.403	58.37
323.617	97.28
323.83	91.13
324.043	46.08
324.256	33.79
324.469	17.41
324.683	54.27
324.896	7.17
325.109	-25.6
325.322	-35.84
325.535	39.94
325.748	78.85
325.962	5.12
326.175	31.74
326.388	39.94
326.601	48.13
326.814	87.04
327.027	84.99
327.24	11.26
327.453	17.41
327.666	115.71
327.879	7.17
328.092	-25.6
328.305	78.85
328.518	99.33
328.731	52.22
328.944	31.74
329.157	23.55
329.37	25.6
329.583	91.13
329.796	33.79
330.009	44.03
330.222	-7.17
330.435	68.61
330.648	62.46
330.861	50.18
331.073	41.98
331.286	54.27
331.499	46.08
331.712	46.08
331.925	58.37
332.138	39.94
332.35	21.5
332.563	-52.22
332.776	70.65
332.989	66.56
333.202	-27.65
333.414	48.13
333.627	109.57
333.84	-33.79
334.053	54.27
334.265	93.18
334.478	31.74
334.691	41.98
334.903	80.89
335.116	52.22
335.329	46.08
335.541	50.18
335.754	64.51
335.966	39.94
336.179	-58.37
336.392	15.36
336.604	31.74
336.817	68.61
337.029	13.31
337.242	-1.02
337.454	17.41
337.667	74.75
337.88	1.02
338.092	50.18
338.305	33.79
338.517	17.41
338.729	-52.22
338.942	44.03
339.154	11.26
339.367	-29.7
339.579	87.04
339.792	39.94
340.004	58.37
340.217	119.81
340.429	46.08
340.641	-50.18
340.854	31.74
341.066	9.22
341.278	54.27
341.491	87.04
341.703	17.41
341.915	101.37
342.128	33.79
342.34	41.98
342.552	37.89
342.764	60.42
342.977	-5.12
343.189	-7.17
343.401	23.55
343.613	23.55
343.826	23.55
344.038	48.13
344.25	13.31
344.462	56.32
344.674	9.22
344.886	29.7
345.099	41.98
345.311	68.61
345.523	37.89
345.735	44.03
345.947	-9.22
346.159	33.79
346.371	37.89
346.583	35.84
346.795	72.7
347.007	50.18
347.219	-1.02
347.431	-23.55
347.643	109.57
347.855	48.13
348.067	78.85
348.279	27.65
348.491	48.13
348.703	-5.12
348.915	78.85
349.127	44.03
349.339	84.99
349.551	13.31
349.763	46.08
349.975	17.41
350.187	72.7
350.399	72.7
350.61	19.46
350.822	23.55
351.034	125.95
351.246	37.89
351.458	48.13
351.669	23.55
351.881	50.18
352.093	39.94
352.305	52.22
352.517	27.65
352.728	39.94
352.94	54.27
353.152	29.7
353.363	-41.98
353.575	50.18
353.787	87.04
353.999	23.55
354.21	68.61
354.422	39.94
354.633	-7.17
354.845	89.09
355.057	7.17
355.268	78.85
355.48	46.08
355.692	17.41
355.903	-5.12
356.115	-9.22
356.326	5.12
356.538	44.03
356.749	27.65
356.961	23.55
357.172	39.94
357.384	-58.37
357.595	142.33
357.807	74.75
358.018	52.22
358.23	-11.26
358.441	95.23
358.653	46.08
358.864	46.08
359.075	50.18
359.287	109.57
359.498	21.5
359.709	35.84
359.921	58.37
360.132	15.36
360.344	41.98
360.555	9.22
360.766	72.7
360.977	3.07
361.189	111.61
361.4	13.31
361.611	54.27
361.823	121.85
362.034	60.42
362.245	17.41
362.456	25.6
362.667	48.13
362.879	44.03
363.09	54.27
363.301	48.13
363.512	9.22
363.723	52.22
363.935	31.74
364.146	50.18
364.357	132.09
364.568	95.23
364.779	13.31
364.99	115.71
365.201	-46.08
365.412	74.75
365.623	52.22
365.834	52.22
366.045	56.32
366.256	60.42
366.467	-5.12
366.678	25.6
366.889	76.8
367.1	21.5
367.311	27.65
367.522	27.65
367.733	70.65
367.944	76.8
368.155	76.8
368.366	19.46
368.577	109.57
368.788	99.33
368.999	91.13
369.209	97.28
369.42	113.66
369.631	166.91
369.842	115.71
370.053	29.7
370.264	130.05
370.474	54.27
370.685	19.46
370.896	17.41
371.107	87.04
371.317	105.47
371.528	56.32
371.739	60.42
371.95	33.79
372.16	37.89
372.371	44.03
372.582	-35.84
372.792	54.27
373.003	21.5
373.214	13.31
373.424	74.75
373.635	46.08
373.846	109.57
374.056	31.74
374.267	13.31
374.477	41.98
374.688	5.12
374.898	25.6
375.109	27.65
375.319	21.5
375.53	74.75
375.74	-13.31
375.951	60.42
376.161	70.65
376.372	15.36
376.582	70.65
376.793	35.84
377.003	48.13
377.214	91.13
377.424	78.85
377.635	76.8
377.845	23.55
378.055	97.28
378.266	33.79
378.476	13.31
378.686	56.32
378.897	54.27
379.107	50.18
379.317	48.13
379.528	99.33
379.738	54.27
379.948	62.46
380.158	41.98
380.369	-37.89
380.579	68.61
380.789	115.71
380.999	25.6
381.21	66.56
381.42	82.94
381.63	87.04
381.84	89.09
382.05	31.74
382.261	138.24
382.471	56.32
382.681	27.65
382.891	66.56
383.101	50.18
383.311	66.56
383.521	80.89
383.731	115.71
383.941	158.72
384.151	15.36
384.361	58.37
384.571	13.31
384.781	150.53
384.991	5.12
385.201	95.23
385.411	25.6
385.621	66.56
385.831	136.19
386.041	19.46
386.251	11.26
386.461	74.75
386.671	-7.17
386.881	50.18
387.091	50.18
387.301	21.5
387.511	48.13
387.72	46.08
387.93	68.61
388.14	91.13
388.35	29.7
388.56	99.33
388.769	97.28
388.979	33.79
389.189	66.56
389.399	99.33
389.609	7.17
389.818	15.36
390.028	119.81
390.238	46.08
390.447	189.44
390.657	17.41
390.867	64.51
391.076	105.47
391.286	82.94
391.496	37.89
391.705	58.37
391.915	70.65
392.125	150.53
392.334	115.71
392.544	29.7
392.753	68.61
392.963	23.55
393.172	62.46
393.382	66.56
393.591	140.29
393.801	80.89
394.01	84.99
394.22	107.52
394.429	64.51
394.639	66.56
394.848	39.94
395.058	60.42
395.267	46.08
395.477	150.53
395.686	74.75
395.895	123.9
396.105	66.56
396.314	68.61
396.524	68.61
396.733	95.23
396.942	138.24
397.152	27.65
397.361	199.68
397.57	60.42
397.78	171.01
397.989	91.13
398.198	95.23
398.407	107.52
398.617	128
398.826	78.85
399.035	44.03
399.244	138.24
399.453	64.51
399.663	21.5
399.872	44.03
400.081	111.61
400.29	140.29
400.499	99.33
400.708	166.91
400.917	91.13
401.127	87.04
401.336	50.18
401.545	87.04
401.754	154.62
401.963	146.43
402.172	111.61
402.381	171.01
402.59	130.05
402.799	103.42
403.008	181.25
403.217	164.86
403.426	91.13
403.635	93.18
403.844	76.8
404.053	185.34
404.262	142.33
404.471	207.87
404.68	228.35
404.888	183.29
405.097	134.14
405.306	205.82
405.515	140.29
405.724	199.68
405.933	201.72
406.142	134.14
406.35	95.23
406.559	136.19
406.768	160.77
406.977	187.39
407.185	164.86
407.394	173.05
407.603	156.67
407.812	197.63
408.02	228.35
408.229	216.06
408.438	203.77
408.646	183.29
408.855	238.59
409.064	271.36
409.272	275.45
409.481	257.02
409.69	324.6
409.898	250.88
410.107	320.51
410.315	340.99
410.524	285.69
410.733	379.9
410.941	279.55
411.15	412.67
411.358	336.89
411.567	412.67
411.775	398.33
411.984	369.66
412.192	447.48
412.401	445.43
412.609	531.45
412.818	519.16
413.026	506.87
413.234	504.82
413.443	553.98
413.651	492.54
413.86	504.82
414.068	537.59
414.276	615.41
414.485	599.03
414.693	627.7
414.901	766.96
415.11	642.04
415.318	762.87
415.526	758.77
415.734	752.63
415.943	738.29
416.151	836.6
416.359	775.16
416.567	850.93
416.776	912.37
416.984	1049.58
417.192	1012.72
417.4	1020.91
417.608	1010.67
417.817	1041.39
418.025	1080.3
418.233	1108.98
418.441	1213.42
418.649	1272.81
418.857	1379.31
419.065	1311.72
419.273	1274.86
419.481	1393.64
419.689	1526.76
419.897	1459.18
420.105	1582.06
420.313	1577.96
420.521	1580.01
420.729	1719.27
420.937	1674.21
421.145	1805.28
421.353	1897.44
421.561	1891.3
421.769	2030.56
421.977	2057.18
422.185	2063.33
422.393	2225.12
422.601	2194.4
422.809	2274.27
423.017	2202.59
423.224	2304.99
423.432	2632.66
423.64	2458.59
423.848	2743.25
424.056	2647
424.263	2786.26
424.471	2786.26
424.679	2896.85
424.887	2943.96
425.094	3202
425.302	3195.86
425.51	3357.64
425.718	3503.05
425.925	3402.7
426.133	3627.98
426.341	3742.66
426.548	4012.99
426.756	3867.59
426.964	3974.08
427.171	4121.54
427.379	4338.62
427.586	4428.73
427.794	4555.71
428.001	4623.29
428.209	5018.55
428.417	4754.36
428.624	5204.91
428.832	5102.51
429.039	5168.05
429.247	5090.23
429.454	5882.79
429.662	5993.38
429.869	5692.33
430.076	6048.68
430.284	5847.97
430.491	6200.23
430.699	6390.69
430.906	6527.9
431.114	6759.32
431.321	6931.35
431.528	7105.43
431.736	7390.1
431.943	7609.23
432.15	7549.84
432.358	7685
432.565	8070.02
432.772	7906.18
432.979	8508.29
433.187	8614.78
433.394	8586.11
433.601	9384.82
433.808	9118.58
434.016	9012.09
434.223	9556.85
434.43	10232.68
434.637	9855.85
434.844	10525.54
435.052	10707.8
435.259	10640.22
435.466	10736.48
435.673	10642.27
435.88	11449.17
436.087	11780.94
436.294	12036.94
436.501	11617.1
436.708	11930.44
436.915	12335.94
437.122	12778.3
437.329	12911.42
437.537	13239.09
437.743	13546.29
437.95	13280.05
438.157	14254.89
438.364	14428.96
438.571	14551.84
438.778	14553.89
438.985	15901.45
439.192	15317.78
439.399	15903.5
439.606	15287.06
439.813	16513.8
440.02	17353.46
440.227	17001.21
440.433	16870.14
440.64	17234.68
440.847	17093.37
441.054	17646.32
441.261	19241.69
441.467	18842.34
441.674	19114.72
441.881	19577.56
442.088	19802.83
442.294	19653.33
442.501	19989.2
442.708	20409.03
442.914	20941.5
443.121	21852.85
443.328	21441.21
443.534	22864.55
443.741	22389.42
443.948	22135.47
444.154	23536.28
444.361	23509.66
444.568	24050.32
444.774	23837.33
444.981	24074.9
445.187	24752.77
445.394	25846.39
445.6	25252.48
445.807	27501.15
446.013	26706.54
446.22	27298.4
446.426	28138.07
446.633	28512.84
446.839	29778.49
447.046	28109.4
447.252	29639.23
447.459	29731.39
447.665	29819.45
447.871	30876.2
448.078	32201.24
448.284	31203.88
448.491	31232.55
448.697	32879.11
448.903	33475.07
449.11	33921.53
449.316	32909.83
449.522	33647.1
449.728	34136.57
449.935	34486.77
450.141	34437.62
450.347	35232.23
450.553	34267.64
450.76	35144.17
450.966	36047.32
451.172	35555.81
451.378	36501.97
451.584	35926.49
451.791	36602.32
451.997	36352.47
452.203	37013.96
452.409	37210.57
452.615	37087.69
452.821	35240.42
453.027	34867.69
453.233	37028.3
453.44	35557.86
453.646	36108.76
453.852	35918.3
454.058	36733.39
454.264	35729.89
454.47	36299.22
454.676	35473.89
454.882	36813.26
455.088	33520.13
455.294	34165.24
455.5	34335.22
455.705	34808.3
455.911	33276.42
456.117	32952.84
456.323	32244.24
456.529	30573.1
456.735	32078.36
456.941	31050.28
457.147	30743.08
457.352	30046.77
457.558	29389.38
457.764	29571.64
457.97	29117
458.176	28469.84
458.381	28232.27
458.587	26708.58
458.793	26774.12
458.999	25236.09
459.204	27312.74
459.41	26823.27
459.616	24933
459.821	24963.72
460.027	24644.23
460.233	24394.38
460.438	23009.95
460.644	23296.67
460.85	22293.16
461.055	21848.75
461.261	22043.31
461.466	20128.46
461.672	19499.73
461.878	20994.75
462.083	19819.22
462.289	19538.65
462.494	19014.37
462.7	18281.19
462.905	17771.25
463.111	18340.58
463.316	18359.02
463.522	18223.85
463.727	17859.31
463.932	18285.29
464.138	17754.87
464.343	17978.09
464.549	17208.06
464.754	17836.78
464.959	17785.58
465.165	17593.08
465.37	16898.81
465.575	16478.98
465.781	17093.37
465.986	17335.03
466.191	16646.91
466.397	16311.05
466.602	15393.56
466.807	16126.73
467.012	15868.69
467.218	16098.06
467.423	15772.43
467.628	15950.6
