Data from USB4F104151__16__11-44-35-814.txt Node

Date: Fri Mar 14 11:44:35 EDT 2025
User: louis
Spectrometer: USB4F10415
Trigger mode: 4
Integration Time (sec): 2.000000E-2
Scans to average: 1
Electric dark correction enabled: true
Nonlinearity correction enabled: false
Boxcar width: 0
XAxis mode: Wavelengths
Number of Pixels in Spectrum: 3648
>>>>>Begin Spectral Data<<<<<
178.204	-51.37
178.424	-51.37
178.644	-51.37
178.864	-127.14
179.084	-37.03
179.304	-8.36
179.524	-12.46
179.744	3.93
179.964	-22.7
180.184	59.22
180.404	-45.23
180.624	-6.31
180.844	100.18
181.064	-104.62
181.283	69.46
181.503	-18.6
181.723	-14.51
181.943	-10.41
182.163	-37.03
182.383	-47.27
182.602	20.31
182.822	-34.99
183.042	38.74
183.262	-4.27
183.482	71.51
183.701	-30.89
183.921	-2.22
184.141	-20.65
184.361	61.27
184.58	-16.55
184.8	34.64
185.02	-39.08
185.239	63.32
185.459	51.03
185.679	22.36
185.898	5.97
186.118	-10.41
186.338	-16.55
186.557	14.17
186.777	-39.08
186.997	-18.6
187.216	-20.65
187.436	-12.46
187.655	18.26
187.875	104.28
188.095	36.69
188.314	10.07
188.534	8.02
188.753	57.17
188.973	1.88
189.192	32.6
189.412	-14.51
189.631	-14.51
189.851	24.4
190.07	22.36
190.29	-2.22
190.509	14.17
190.729	38.74
190.948	77.65
191.168	116.56
191.387	108.37
191.607	53.08
191.826	5.97
192.045	14.17
192.265	-14.51
192.484	40.79
192.704	10.07
192.923	-16.55
193.142	79.7
193.362	24.4
193.581	42.84
193.8	73.56
194.02	-20.65
194.239	3.93
194.458	40.79
194.678	-39.08
194.897	28.5
195.116	-45.23
195.335	26.45
195.555	12.12
195.774	-6.31
195.993	53.08
196.212	40.79
196.432	10.07
196.651	-77.99
196.87	24.4
197.089	32.6
197.308	-8.36
197.528	83.8
197.747	-55.47
197.966	-14.51
198.185	91.99
198.404	26.45
198.623	38.74
198.842	28.5
199.062	1.88
199.281	36.69
199.5	-16.55
199.719	53.08
199.938	36.69
200.157	53.08
200.376	51.03
200.595	14.17
200.814	-10.41
201.033	18.26
201.252	38.74
201.471	59.22
201.69	32.6
201.909	-16.55
202.128	-4.27
202.347	5.97
202.566	63.32
202.785	-24.75
203.004	22.36
203.223	71.51
203.442	-61.61
203.661	-2.22
203.879	-22.7
204.098	-55.47
204.317	26.45
204.536	-4.27
204.755	30.55
204.974	100.18
205.193	-8.36
205.411	87.89
205.63	59.22
205.849	1.88
206.068	-8.36
206.287	34.64
206.505	-6.31
206.724	94.04
206.943	26.45
207.162	89.94
207.381	98.13
207.599	36.69
207.818	-80.04
208.037	12.12
208.255	-22.7
208.474	38.74
208.693	106.32
208.911	36.69
209.13	40.79
209.349	55.12
209.567	-28.84
209.786	18.26
210.005	20.31
210.223	-20.65
210.442	-104.62
210.661	32.6
210.879	-14.51
211.098	-8.36
211.316	14.17
211.535	30.55
211.753	16.21
211.972	-37.03
212.191	-22.7
212.409	63.32
212.628	36.69
212.846	-49.32
213.065	34.64
213.283	71.51
213.502	-49.32
213.72	-18.6
213.938	48.98
214.157	28.5
214.375	32.6
214.594	-18.6
214.812	57.17
215.031	85.84
215.249	46.93
215.467	8.02
215.686	26.45
215.904	83.8
216.122	61.27
216.341	-14.51
216.559	69.46
216.778	-8.36
216.996	18.26
217.214	-18.6
217.432	12.12
217.651	-14.51
217.869	-4.27
218.087	3.93
218.306	-43.18
218.524	10.07
218.742	8.02
218.96	40.79
219.179	34.64
219.397	-18.6
219.615	75.6
219.833	8.02
220.051	34.64
220.27	36.69
220.488	63.32
220.706	46.93
220.924	63.32
221.142	1.88
221.36	1.88
221.578	30.55
221.796	10.07
222.015	26.45
222.233	-0.17
222.451	14.17
222.669	-41.13
222.887	59.22
223.105	-26.79
223.323	-18.6
223.541	-90.28
223.759	10.07
223.977	-26.79
224.195	91.99
224.413	18.26
224.631	12.12
224.849	-2.22
225.067	14.17
225.285	73.56
225.503	36.69
225.721	-73.9
225.939	69.46
226.157	24.4
226.375	40.79
226.592	-0.17
226.81	-16.55
227.028	20.31
227.246	30.55
227.464	-10.41
227.682	63.32
227.9	10.07
228.117	32.6
228.335	30.55
228.553	59.22
228.771	48.98
228.989	104.28
229.206	20.31
229.424	-12.46
229.642	8.02
229.86	28.5
230.077	53.08
230.295	79.7
230.513	36.69
230.731	12.12
230.948	34.64
231.166	40.79
231.384	67.41
231.601	67.41
231.819	-8.36
232.037	20.31
232.254	18.26
232.472	-18.6
232.689	44.88
232.907	85.84
233.125	5.97
233.342	1.88
233.56	-41.13
233.777	69.46
233.995	53.08
234.213	32.6
234.43	-18.6
234.648	-59.56
234.865	14.17
235.083	-24.75
235.3	3.93
235.518	-12.46
235.735	-34.99
235.953	-32.94
236.17	30.55
236.388	-28.84
236.605	-8.36
236.822	-34.99
237.04	-10.41
237.257	67.41
237.475	34.64
237.692	40.79
237.909	-34.99
238.127	-22.7
238.344	34.64
238.562	46.93
238.779	3.93
238.996	63.32
239.214	-55.47
239.431	34.64
239.648	59.22
239.865	-22.7
240.083	46.93
240.3	3.93
240.517	-28.84
240.735	26.45
240.952	83.8
241.169	3.93
241.386	38.74
241.603	24.4
241.821	-26.79
242.038	42.84
242.255	42.84
242.472	-18.6
242.689	61.27
242.907	10.07
243.124	-32.94
243.341	46.93
243.558	-4.27
243.775	-18.6
243.992	-8.36
244.209	18.26
244.426	42.84
244.643	8.02
244.86	53.08
245.078	-18.6
245.295	55.12
245.512	-2.22
245.729	-37.03
245.946	34.64
246.163	36.69
246.38	-75.95
246.597	-14.51
246.814	67.41
247.031	10.07
247.248	-14.51
247.464	26.45
247.681	-10.41
247.898	42.84
248.115	51.03
248.332	40.79
248.549	22.36
248.766	91.99
248.983	38.74
249.2	10.07
249.417	28.5
249.633	-0.17
249.85	20.31
250.067	8.02
250.284	55.12
250.501	18.26
250.717	77.65
250.934	51.03
251.151	34.64
251.368	-6.31
251.585	-8.36
251.801	-80.04
252.018	-26.79
252.235	51.03
252.451	40.79
252.668	3.93
252.885	69.46
253.102	38.74
253.318	-20.65
253.535	65.36
253.752	8.02
253.968	30.55
254.185	28.5
254.401	26.45
254.618	-22.7
254.835	22.36
255.051	83.8
255.268	12.12
255.484	-43.18
255.701	1.88
255.917	83.8
256.134	5.97
256.351	61.27
256.567	-22.7
256.784	-18.6
257	-55.47
257.217	-32.94
257.433	71.51
257.65	71.51
257.866	24.4
258.082	28.5
258.299	-73.9
258.515	-0.17
258.732	-28.84
258.948	-8.36
259.165	89.94
259.381	38.74
259.597	20.31
259.814	-22.7
260.03	40.79
260.246	-4.27
260.463	83.8
260.679	69.46
260.895	48.98
261.112	59.22
261.328	-0.17
261.544	3.93
261.761	132.95
261.977	-14.51
262.193	3.93
262.409	42.84
262.626	-51.37
262.842	-43.18
263.058	16.21
263.274	-4.27
263.49	51.03
263.707	-28.84
263.923	5.97
264.139	38.74
264.355	42.84
264.571	46.93
264.787	1.88
265.004	32.6
265.22	61.27
265.436	-20.65
265.652	-28.84
265.868	65.36
266.084	-51.37
266.3	91.99
266.516	10.07
266.732	-8.36
266.948	44.88
267.164	32.6
267.38	51.03
267.596	71.51
267.812	67.41
268.028	57.17
268.244	-2.22
268.46	51.03
268.676	-45.23
268.892	61.27
269.108	-28.84
269.324	8.02
269.54	40.79
269.756	36.69
269.972	-32.94
270.188	38.74
270.403	-41.13
270.619	77.65
270.835	85.84
271.051	67.41
271.267	-24.75
271.483	10.07
271.698	40.79
271.914	-16.55
272.13	-4.27
272.346	-14.51
272.562	-14.51
272.777	44.88
272.993	26.45
273.209	-0.17
273.425	20.31
273.64	-12.46
273.856	63.32
274.072	-47.27
274.287	-26.79
274.503	34.64
274.719	-34.99
274.934	38.74
275.15	-34.99
275.366	46.93
275.581	-16.55
275.797	87.89
276.012	22.36
276.228	75.6
276.444	-12.46
276.659	63.32
276.875	-55.47
277.09	34.64
277.306	-49.32
277.521	34.64
277.737	-22.7
277.952	116.56
278.168	-4.27
278.383	-30.89
278.599	-2.22
278.814	85.84
279.03	-0.17
279.245	30.55
279.461	14.17
279.676	59.22
279.892	-28.84
280.107	12.12
280.322	-39.08
280.538	1.88
280.753	-43.18
280.969	26.45
281.184	32.6
281.399	22.36
281.615	71.51
281.83	22.36
282.045	-2.22
282.26	46.93
282.476	-41.13
282.691	-6.31
282.906	8.02
283.122	1.88
283.337	57.17
283.552	51.03
283.767	-12.46
283.983	38.74
284.198	24.4
284.413	10.07
284.628	-16.55
284.843	36.69
285.058	-8.36
285.274	46.93
285.489	30.55
285.704	-10.41
285.919	63.32
286.134	63.32
286.349	85.84
286.564	-14.51
286.779	44.88
286.995	30.55
287.21	-32.94
287.425	57.17
287.64	20.31
287.855	32.6
288.07	-0.17
288.285	91.99
288.5	5.97
288.715	34.64
288.93	51.03
289.145	20.31
289.36	48.98
289.575	5.97
289.79	-8.36
290.004	-86.19
290.219	40.79
290.434	16.21
290.649	-10.41
290.864	-12.46
291.079	30.55
291.294	65.36
291.509	3.93
291.724	55.12
291.938	-28.84
292.153	1.88
292.368	63.32
292.583	38.74
292.798	102.23
293.012	75.6
293.227	36.69
293.442	77.65
293.657	10.07
293.871	-20.65
294.086	42.84
294.301	38.74
294.516	22.36
294.73	34.64
294.945	-18.6
295.16	10.07
295.374	94.04
295.589	42.84
295.804	14.17
296.018	59.22
296.233	94.04
296.447	-32.94
296.662	67.41
296.877	89.94
297.091	59.22
297.306	-28.84
297.52	34.64
297.735	14.17
297.949	1.88
298.164	36.69
298.378	46.93
298.593	55.12
298.807	22.36
299.022	-14.51
299.236	-39.08
299.451	30.55
299.665	57.17
299.88	63.32
300.094	59.22
300.309	55.12
300.523	18.26
300.737	46.93
300.952	10.07
301.166	-41.13
301.381	-24.75
301.595	-0.17
301.809	28.5
302.024	-53.42
302.238	-47.27
302.452	61.27
302.667	-8.36
302.881	69.46
303.095	118.61
303.309	46.93
303.524	36.69
303.738	22.36
303.952	-12.46
304.166	22.36
304.381	-55.47
304.595	110.42
304.809	30.55
305.023	53.08
305.237	42.84
305.452	22.36
305.666	20.31
305.88	57.17
306.094	-12.46
306.308	22.36
306.522	18.26
306.736	-53.42
306.95	94.04
307.164	16.21
307.379	-2.22
307.593	8.02
307.807	32.6
308.021	57.17
308.235	71.51
308.449	-59.56
308.663	-28.84
308.877	57.17
309.091	34.64
309.305	55.12
309.519	-18.6
309.733	73.56
309.947	38.74
310.161	14.17
310.374	57.17
310.588	63.32
310.802	48.98
311.016	-30.89
311.23	65.36
311.444	14.17
311.658	14.17
311.872	20.31
312.085	18.26
312.299	30.55
312.513	51.03
312.727	32.6
312.941	38.74
313.154	46.93
313.368	12.12
313.582	-34.99
313.796	18.26
314.009	40.79
314.223	57.17
314.437	40.79
314.651	75.6
314.864	5.97
315.078	67.41
315.292	51.03
315.505	57.17
315.719	-34.99
315.933	14.17
316.146	75.6
316.36	10.07
316.573	30.55
316.787	46.93
317.001	48.98
317.214	12.12
317.428	143.19
317.641	24.4
317.855	-6.31
318.068	57.17
318.282	-16.55
318.495	65.36
318.709	40.79
318.922	51.03
319.136	110.42
319.349	51.03
319.563	-26.79
319.776	18.26
319.99	-20.65
320.203	-30.89
320.417	34.64
320.63	59.22
320.843	1.88
321.057	83.8
321.27	18.26
321.483	30.55
321.697	18.26
321.91	94.04
322.124	55.12
322.337	48.98
322.55	48.98
322.763	-22.7
322.977	-0.17
323.19	12.12
323.403	94.04
323.617	26.45
323.83	61.27
324.043	85.84
324.256	-2.22
324.469	-49.32
324.683	8.02
324.896	-4.27
325.109	14.17
325.322	10.07
325.535	51.03
325.748	26.45
325.962	-8.36
326.175	51.03
326.388	28.5
326.601	-18.6
326.814	-84.14
327.027	30.55
327.24	-20.65
327.453	-34.99
327.666	-12.46
327.879	53.08
328.092	79.7
328.305	53.08
328.518	32.6
328.731	-26.79
328.944	28.5
329.157	-30.89
329.37	69.46
329.583	65.36
329.796	65.36
330.009	-47.27
330.222	51.03
330.435	-2.22
330.648	-8.36
330.861	1.88
331.073	79.7
331.286	-16.55
331.499	120.66
331.712	-0.17
331.925	38.74
332.138	77.65
332.35	81.75
332.563	22.36
332.776	-12.46
332.989	-6.31
333.202	14.17
333.414	-0.17
333.627	51.03
333.84	73.56
334.053	20.31
334.265	63.32
334.478	36.69
334.691	-20.65
334.903	48.98
335.116	1.88
335.329	1.88
335.541	16.21
335.754	8.02
335.966	30.55
336.179	-30.89
336.392	14.17
336.604	22.36
336.817	38.74
337.029	1.88
337.242	55.12
337.454	110.42
337.667	-6.31
337.88	53.08
338.092	96.08
338.305	34.64
338.517	1.88
338.729	69.46
338.942	38.74
339.154	38.74
339.367	-22.7
339.579	81.75
339.792	12.12
340.004	24.4
340.217	-16.55
340.429	-18.6
340.641	59.22
340.854	16.21
341.066	-0.17
341.278	20.31
341.491	26.45
341.703	24.4
341.915	59.22
342.128	46.93
342.34	53.08
342.552	-39.08
342.764	26.45
342.977	30.55
343.189	51.03
343.401	57.17
343.613	59.22
343.826	14.17
344.038	20.31
344.25	24.4
344.462	151.38
344.674	-30.89
344.886	20.31
345.099	-4.27
345.311	-20.65
345.523	26.45
345.735	-24.75
345.947	8.02
346.159	-47.27
346.371	34.64
346.583	-4.27
346.795	120.66
347.007	71.51
347.219	79.7
347.431	59.22
347.643	67.41
347.855	46.93
348.067	30.55
348.279	-0.17
348.491	94.04
348.703	20.31
348.915	48.98
349.127	-18.6
349.339	100.18
349.551	30.55
349.763	57.17
349.975	38.74
350.187	81.75
350.399	-14.51
350.61	-4.27
350.822	48.98
351.034	36.69
351.246	3.93
351.458	28.5
351.669	28.5
351.881	36.69
352.093	-6.31
352.305	55.12
352.517	8.02
352.728	87.89
352.94	-0.17
353.152	81.75
353.363	12.12
353.575	3.93
353.787	63.32
353.999	77.65
354.21	67.41
354.422	-53.42
354.633	91.99
354.845	81.75
355.057	-53.42
355.268	34.64
355.48	-10.41
355.692	65.36
355.903	-6.31
356.115	44.88
356.326	-102.57
356.538	36.69
356.749	112.47
356.961	81.75
357.172	83.8
357.384	-57.51
357.595	85.84
357.807	120.66
358.018	46.93
358.23	71.51
358.441	83.8
358.653	34.64
358.864	51.03
359.075	26.45
359.287	57.17
359.498	42.84
359.709	30.55
359.921	-18.6
360.132	-6.31
360.344	18.26
360.555	-12.46
360.766	-12.46
360.977	-24.75
361.189	34.64
361.4	24.4
361.611	40.79
361.823	53.08
362.034	-22.7
362.245	-16.55
362.456	89.94
362.667	38.74
362.879	10.07
363.09	59.22
363.301	48.98
363.512	57.17
363.723	14.17
363.935	-30.89
364.146	98.13
364.357	20.31
364.568	67.41
364.779	53.08
364.99	55.12
365.201	-51.37
365.412	71.51
365.623	-26.79
365.834	26.45
366.045	-12.46
366.256	89.94
366.467	48.98
366.678	48.98
366.889	-2.22
367.1	67.41
367.311	20.31
367.522	42.84
367.733	40.79
367.944	-10.41
368.155	-0.17
368.366	118.61
368.577	32.6
368.788	36.69
368.999	53.08
369.209	18.26
369.42	51.03
369.631	22.36
369.842	-41.13
370.053	42.84
370.264	59.22
370.474	5.97
370.685	8.02
370.896	22.36
371.107	32.6
371.317	14.17
371.528	-49.32
371.739	63.32
371.95	22.36
372.16	12.12
372.371	34.64
372.582	44.88
372.792	61.27
373.003	-18.6
373.214	83.8
373.424	44.88
373.635	42.84
373.846	38.74
374.056	-8.36
374.267	63.32
374.477	20.31
374.688	44.88
374.898	42.84
375.109	26.45
375.319	26.45
375.53	57.17
375.74	-71.85
375.951	-26.79
376.161	89.94
376.372	30.55
376.582	-55.47
376.793	8.02
377.003	40.79
377.214	10.07
377.424	-16.55
377.635	63.32
377.845	53.08
378.055	-12.46
378.266	69.46
378.476	1.88
378.686	96.08
378.897	51.03
379.107	16.21
379.317	51.03
379.528	-55.47
379.738	42.84
379.948	34.64
380.158	55.12
380.369	12.12
380.579	59.22
380.789	-24.75
380.999	-32.94
381.21	46.93
381.42	75.6
381.63	-18.6
381.84	51.03
382.05	12.12
382.261	79.7
382.471	22.36
382.681	61.27
382.891	57.17
383.101	51.03
383.311	30.55
383.521	28.5
383.731	16.21
383.941	100.18
384.151	-12.46
384.361	24.4
384.571	120.66
384.781	38.74
384.991	3.93
385.201	32.6
385.411	63.32
385.621	51.03
385.831	94.04
386.041	-37.03
386.251	5.97
386.461	128.85
386.671	14.17
386.881	42.84
387.091	57.17
387.301	63.32
387.511	67.41
387.72	63.32
387.93	132.95
388.14	16.21
388.35	34.64
388.56	40.79
388.769	38.74
388.979	-0.17
389.189	-57.51
389.399	3.93
389.609	53.08
389.818	20.31
390.028	34.64
390.238	75.6
390.447	104.28
390.657	110.42
390.867	61.27
391.076	18.26
391.286	51.03
391.496	10.07
391.705	51.03
391.915	116.56
392.125	1.88
392.334	18.26
392.544	104.28
392.753	44.88
392.963	46.93
393.172	28.5
393.382	55.12
393.591	173.91
393.801	63.32
394.01	71.51
394.22	32.6
394.429	89.94
394.639	24.4
394.848	53.08
395.058	46.93
395.267	48.98
395.477	122.71
395.686	118.61
395.895	36.69
396.105	122.71
396.314	59.22
396.524	116.56
396.733	32.6
396.942	67.41
397.152	1.88
397.361	102.23
397.57	57.17
397.78	96.08
397.989	42.84
398.198	167.76
398.407	102.23
398.617	61.27
398.826	120.66
399.035	53.08
399.244	55.12
399.453	67.41
399.663	108.37
399.872	182.1
400.081	75.6
400.29	57.17
400.499	147.28
400.708	53.08
400.917	106.32
401.127	100.18
401.336	69.46
401.545	157.52
401.754	143.19
401.963	91.99
402.172	65.36
402.381	108.37
402.59	194.39
402.799	145.24
403.008	110.42
403.217	120.66
403.426	137.04
403.635	184.15
403.844	124.76
404.053	141.14
404.262	151.38
404.471	124.76
404.68	149.33
404.888	135
405.097	139.09
405.306	137.04
405.515	124.76
405.724	180.05
405.933	175.95
406.142	190.29
406.35	184.15
406.559	233.3
406.768	173.91
406.977	186.19
407.185	171.86
407.394	247.63
407.603	214.87
407.812	171.86
408.02	229.2
408.229	261.97
408.438	178
408.646	169.81
408.855	204.63
409.064	243.54
409.272	196.43
409.481	304.98
409.69	237.39
409.898	192.34
410.107	280.4
410.315	292.69
410.524	210.77
410.733	366.42
410.941	370.51
411.15	272.21
411.358	397.14
411.567	341.84
411.775	397.14
411.984	347.98
412.192	393.04
412.401	458.57
412.609	487.25
412.818	434
413.026	534.35
413.234	466.77
413.443	507.73
413.651	554.83
413.86	542.54
414.068	550.73
414.276	558.92
414.485	560.97
414.693	612.17
414.901	603.98
415.11	689.99
415.318	606.03
415.526	593.74
415.734	687.95
415.943	663.37
416.151	786.25
416.359	708.43
416.567	761.67
416.776	825.16
416.984	862.02
417.192	874.31
417.4	945.99
417.608	952.13
417.817	968.52
418.025	958.28
418.233	1120.07
418.441	1034.05
418.649	1120.07
418.857	1193.8
419.065	1275.71
419.273	1191.75
419.481	1326.91
419.689	1269.57
419.897	1349.44
420.105	1437.5
420.313	1462.08
420.521	1433.41
420.729	1484.61
420.937	1627.96
421.145	1677.12
421.353	1806.14
421.561	1836.86
421.769	1832.76
421.977	1945.4
422.185	1892.15
422.393	2035.51
422.601	2033.46
422.809	2115.38
423.017	2139.96
423.224	2258.74
423.432	2340.66
423.64	2334.51
423.848	2594.61
424.056	2537.26
424.263	2672.43
424.471	2666.28
424.679	2721.58
424.887	2961.19
425.094	2866.99
425.302	2846.51
425.51	3008.3
425.718	3153.7
425.925	3209
426.133	3272.48
426.341	3551.01
426.548	3684.13
426.756	3723.04
426.964	3653.41
427.171	3882.78
427.379	4081.43
427.586	3878.68
427.794	4146.97
428.001	4378.39
428.209	4603.66
428.417	4599.57
428.624	4861.71
428.832	4896.52
429.039	4679.44
429.247	4865.8
429.454	5179.14
429.662	5553.92
429.869	5297.92
430.076	5574.4
430.284	5459.71
430.491	5736.19
430.699	6170.36
430.906	6000.38
431.114	6141.69
431.321	6412.02
431.528	6633.2
431.736	6844.14
431.943	7227.11
432.15	6924.01
432.358	6977.26
432.565	7474.92
432.772	7438.05
432.979	7993.05
433.187	8068.83
433.394	8052.44
433.601	8552.15
433.808	8517.33
434.016	8521.43
434.223	8912.59
434.43	9492.16
434.637	9320.14
434.844	9875.13
435.052	9983.68
435.259	10077.88
435.466	10172.09
435.673	9905.85
435.88	10655.41
436.087	11148.97
436.294	11126.44
436.501	11005.61
436.708	11001.52
436.915	11484.84
437.122	11929.25
437.329	11900.58
437.537	12373.66
437.743	12529.3
437.95	12682.9
438.157	13248.14
438.364	13653.64
438.571	13420.17
438.778	13522.57
438.985	14800.5
439.192	14278.27
439.399	14726.77
439.606	14390.91
439.813	15050.35
440.02	16025.18
440.227	16023.14
440.433	15873.64
440.64	16475.74
440.847	16088.67
441.054	16580.18
441.261	17790.53
441.467	17315.41
441.674	17815.11
441.881	18454.08
442.088	18447.93
442.294	18064.96
442.501	18652.73
442.708	18996.79
442.914	19852.84
443.121	20618.78
443.328	20065.83
443.534	21726.73
443.741	21048.85
443.948	20747.8
444.154	22265.35
444.361	21982.73
444.568	22408.7
444.774	21962.25
444.981	22390.27
445.187	23168.5
445.394	24270.31
445.6	23682.54
445.807	26435.01
446.013	24972.76
446.22	25574.86
446.426	26289.6
446.633	26756.54
446.839	27487.67
447.046	26488.26
447.252	27868.59
447.459	28059.05
447.665	28061.1
447.871	29150.62
448.078	30471.56
448.284	28929.44
448.491	29388.18
448.697	31020.41
448.903	31411.57
449.11	31378.81
449.316	30670.21
449.522	31890.8
449.728	32683.36
449.935	32480.61
450.141	32394.6
450.347	33121.63
450.553	32361.83
450.76	32650.6
450.966	33770.83
451.172	33170.78
451.378	34143.56
451.584	33398.1
451.791	34307.4
451.997	34164.04
452.203	35044.67
452.409	35034.43
452.615	34596.17
452.821	33000.8
453.027	32914.78
453.233	34794.82
453.44	33295.71
453.646	33711.44
453.852	33805.65
454.058	34426.18
454.264	33404.25
454.47	34395.46
454.676	33211.74
454.882	34424.14
455.088	31401.33
455.294	31870.32
455.5	32679.27
455.705	32752.99
455.911	31749.49
456.117	30862.72
456.323	30248.33
456.529	29095.32
456.735	30213.51
456.941	29167
457.147	28824.99
457.352	28161.45
457.558	27528.63
457.764	27624.88
457.97	27397.56
458.176	26660.29
458.381	26521.02
458.587	25144.79
458.793	24970.71
458.999	23838.19
459.204	25869.77
459.41	24800.73
459.616	23416.3
459.821	23406.06
460.027	23244.27
460.233	22459.9
460.438	21597.71
460.644	21833.22
460.85	20852.25
461.055	20586.01
461.261	20583.96
461.466	19080.75
461.672	18396.73
461.878	19766.82
462.083	18169.41
462.289	18173.5
462.494	17905.22
462.7	17167.95
462.905	16719.45
463.111	17206.86
463.316	17217.1
463.522	17000.02
463.727	17049.17
463.932	16987.73
464.138	16739.93
464.343	16739.93
464.549	16326.24
464.754	16690.77
464.959	16658.01
465.165	16754.26
465.37	15914.59
465.575	15709.8
465.781	15953.51
465.986	16240.22
466.191	15543.91
466.397	15378.03
466.602	14513.78
466.807	15312.49
467.012	14913.14
