Data from USB4F104151__6__11-44-25-715.txt Node

Date: Fri Mar 14 11:44:25 EDT 2025
User: louis
Spectrometer: USB4F10415
Trigger mode: 4
Integration Time (sec): 2.000000E-2
Scans to average: 1
Electric dark correction enabled: true
Nonlinearity correction enabled: false
Boxcar width: 0
XAxis mode: Wavelengths
Number of Pixels in Spectrum: 3648
>>>>>Begin Spectral Data<<<<<
178.204	-44.71
178.424	-44.71
178.644	-44.71
178.864	-112.3
179.084	-100.01
179.304	-30.38
179.524	-61.1
179.744	31.06
179.964	29.01
180.184	-30.38
180.404	12.63
180.624	2.39
180.844	-42.67
181.064	14.68
181.283	14.68
181.503	47.44
181.723	12.63
181.943	14.68
182.163	37.2
182.383	39.25
182.602	10.58
182.822	16.73
183.042	49.49
183.262	12.63
183.482	14.68
183.701	63.83
183.921	12.63
184.141	39.25
184.361	47.44
184.58	-28.33
184.8	69.97
185.02	0.34
185.239	112.98
185.459	26.96
185.679	57.68
185.898	0.34
186.118	-3.75
186.338	51.54
186.557	35.16
186.777	-18.09
186.997	108.88
187.216	59.73
187.436	24.92
187.655	-42.67
187.875	20.82
188.095	-26.28
188.314	76.12
188.534	67.92
188.753	6.49
188.973	-24.23
189.192	108.88
189.412	6.49
189.631	22.87
189.851	14.68
190.07	90.45
190.29	45.4
190.509	-1.71
190.729	43.35
190.948	61.78
191.168	82.26
191.387	51.54
191.607	14.68
191.826	29.01
192.045	51.54
192.265	-5.8
192.484	2.39
192.704	104.79
192.923	39.25
193.142	51.54
193.362	-20.14
193.581	108.88
193.8	76.12
194.02	18.77
194.239	8.53
194.458	96.6
194.678	12.63
194.897	86.36
195.116	18.77
195.335	45.4
195.555	35.16
195.774	55.64
195.993	-26.28
196.212	10.58
196.432	37.2
196.651	-30.38
196.87	88.4
197.089	129.36
197.308	4.44
197.528	-1.71
197.747	4.44
197.966	33.11
198.185	94.55
198.404	22.87
198.623	51.54
198.842	104.79
199.062	65.88
199.281	82.26
199.5	45.4
199.719	57.68
199.938	26.96
200.157	82.26
200.376	20.82
200.595	-16.04
200.814	55.64
201.033	20.82
201.252	67.92
201.471	35.16
201.69	31.06
201.909	82.26
202.128	65.88
202.347	53.59
202.566	-9.9
202.785	10.58
203.004	12.63
203.223	123.22
203.442	26.96
203.661	-18.09
203.879	61.78
204.098	96.6
204.317	43.35
204.536	18.77
204.755	31.06
204.974	43.35
205.193	12.63
205.411	76.12
205.63	78.16
205.849	61.78
206.068	65.88
206.287	-30.38
206.505	31.06
206.724	67.92
206.943	14.68
207.162	2.39
207.381	35.16
207.599	-3.75
207.818	31.06
208.037	8.53
208.255	24.92
208.474	2.39
208.693	74.07
208.911	35.16
209.13	47.44
209.349	51.54
209.567	39.25
209.786	51.54
210.005	6.49
210.223	2.39
210.442	-3.75
210.661	94.55
210.879	35.16
211.098	43.35
211.316	63.83
211.535	49.49
211.753	61.78
211.972	43.35
212.191	117.08
212.409	26.96
212.628	41.3
212.846	31.06
213.065	117.08
213.283	49.49
213.502	29.01
213.72	-3.75
213.938	94.55
214.157	39.25
214.375	-11.95
214.594	0.34
214.812	45.4
215.031	55.64
215.249	14.68
215.467	26.96
215.686	20.82
215.904	61.78
216.122	55.64
216.341	96.6
216.559	26.96
216.778	72.02
216.996	55.64
217.214	-13.99
217.432	37.2
217.651	51.54
217.869	78.16
218.087	57.68
218.306	-32.43
218.524	41.3
218.742	-50.86
218.96	22.87
219.179	-16.04
219.397	47.44
219.615	78.16
219.833	76.12
220.051	18.77
220.27	63.83
220.488	20.82
220.706	98.64
220.924	-13.99
221.142	39.25
221.36	22.87
221.578	39.25
221.796	26.96
222.015	8.53
222.233	35.16
222.451	72.02
222.669	14.68
222.887	74.07
223.105	39.25
223.323	26.96
223.541	55.64
223.759	51.54
223.977	24.92
224.195	98.64
224.413	76.12
224.631	35.16
224.849	106.84
225.067	8.53
225.285	-7.85
225.503	31.06
225.721	35.16
225.939	-9.9
226.157	57.68
226.375	35.16
226.592	112.98
226.81	41.3
227.028	82.26
227.246	92.5
227.464	4.44
227.682	82.26
227.9	-18.09
228.117	39.25
228.335	-9.9
228.553	63.83
228.771	57.68
228.989	72.02
229.206	78.16
229.424	78.16
229.642	24.92
229.86	6.49
230.077	72.02
230.295	-24.23
230.513	51.54
230.731	33.11
230.948	35.16
231.166	96.6
231.384	29.01
231.601	61.78
231.819	108.88
232.037	94.55
232.254	41.3
232.472	4.44
232.689	-5.8
232.907	80.21
233.125	43.35
233.342	4.44
233.56	49.49
233.777	33.11
233.995	123.22
234.213	158.03
234.43	112.98
234.648	98.64
234.865	84.31
235.083	24.92
235.3	72.02
235.518	117.08
235.735	145.75
235.953	-1.71
236.17	43.35
236.388	82.26
236.605	57.68
236.822	74.07
237.04	59.73
237.257	88.4
237.475	29.01
237.692	47.44
237.909	39.25
238.127	74.07
238.344	41.3
238.562	47.44
238.779	14.68
238.996	69.97
239.214	65.88
239.431	63.83
239.648	-48.81
239.865	-9.9
240.083	57.68
240.3	55.64
240.517	51.54
240.735	49.49
240.952	88.4
241.169	67.92
241.386	39.25
241.603	47.44
241.821	8.53
242.038	33.11
242.255	63.83
242.472	-7.85
242.689	86.36
242.907	49.49
243.124	29.01
243.341	31.06
243.558	29.01
243.775	-13.99
243.992	2.39
244.209	31.06
244.426	98.64
244.643	141.65
244.86	39.25
245.078	31.06
245.295	2.39
245.512	33.11
245.729	76.12
245.946	26.96
246.163	59.73
246.38	43.35
246.597	108.88
246.814	16.73
247.031	63.83
247.248	43.35
247.464	0.34
247.681	55.64
247.898	74.07
248.115	51.54
248.332	35.16
248.549	106.84
248.766	78.16
248.983	119.12
249.2	-3.75
249.417	35.16
249.633	90.45
249.85	35.16
250.067	-30.38
250.284	86.36
250.501	67.92
250.717	100.69
250.934	-7.85
251.151	24.92
251.368	-5.8
251.585	147.8
251.801	49.49
252.018	57.68
252.235	33.11
252.451	35.16
252.668	63.83
252.885	24.92
253.102	20.82
253.318	49.49
253.535	88.4
253.752	16.73
253.968	100.69
254.185	-1.71
254.401	41.3
254.618	137.56
254.835	4.44
255.051	110.93
255.268	12.63
255.484	26.96
255.701	47.44
255.917	92.5
256.134	20.82
256.351	33.11
256.567	47.44
256.784	24.92
257	72.02
257.217	127.32
257.433	-3.75
257.65	43.35
257.866	76.12
258.082	112.98
258.299	-30.38
258.515	76.12
258.732	47.44
258.948	-13.99
259.165	88.4
259.381	12.63
259.597	92.5
259.814	24.92
260.03	49.49
260.246	88.4
260.463	53.59
260.679	16.73
260.895	86.36
261.112	49.49
261.328	76.12
261.544	43.35
261.761	67.92
261.977	59.73
262.193	6.49
262.409	67.92
262.626	39.25
262.842	65.88
263.058	14.68
263.274	41.3
263.49	31.06
263.707	59.73
263.923	96.6
264.139	49.49
264.355	63.83
264.571	35.16
264.787	33.11
265.004	49.49
265.22	63.83
265.436	29.01
265.652	24.92
265.868	67.92
266.084	-18.09
266.3	53.59
266.516	16.73
266.732	112.98
266.948	80.21
267.164	41.3
267.38	110.93
267.596	112.98
267.812	100.69
268.028	47.44
268.244	39.25
268.46	90.45
268.676	14.68
268.892	69.97
269.108	37.2
269.324	2.39
269.54	43.35
269.756	67.92
269.972	94.55
270.188	51.54
270.403	20.82
270.619	100.69
270.835	80.21
271.051	6.49
271.267	18.77
271.483	74.07
271.698	29.01
271.914	-5.8
272.13	-13.99
272.346	67.92
272.562	45.4
272.777	86.36
272.993	59.73
273.209	59.73
273.425	-26.28
273.64	35.16
273.856	55.64
274.072	-26.28
274.287	-1.71
274.503	90.45
274.719	49.49
274.934	26.96
275.15	14.68
275.366	10.58
275.581	14.68
275.797	35.16
276.012	29.01
276.228	33.11
276.444	155.99
276.659	57.68
276.875	110.93
277.09	51.54
277.306	14.68
277.521	-3.75
277.737	22.87
277.952	55.64
278.168	63.83
278.383	76.12
278.599	65.88
278.814	86.36
279.03	84.31
279.245	57.68
279.461	88.4
279.676	57.68
279.892	61.78
280.107	49.49
280.322	37.2
280.538	47.44
280.753	51.54
280.969	53.59
281.184	16.73
281.399	80.21
281.615	16.73
281.83	143.7
282.045	69.97
282.26	6.49
282.476	6.49
282.691	84.31
282.906	96.6
283.122	-16.04
283.337	57.68
283.552	88.4
283.767	55.64
283.983	20.82
284.198	16.73
284.413	59.73
284.628	-40.62
284.843	76.12
285.058	151.89
285.274	4.44
285.489	55.64
285.704	100.69
285.919	51.54
286.134	78.16
286.349	74.07
286.564	80.21
286.779	112.98
286.995	86.36
287.21	-61.1
287.425	10.58
287.64	39.25
287.855	82.26
288.07	16.73
288.285	51.54
288.5	31.06
288.715	55.64
288.93	22.87
289.145	-13.99
289.36	92.5
289.575	37.2
289.79	47.44
290.004	4.44
290.219	39.25
290.434	33.11
290.649	10.58
290.864	92.5
291.079	20.82
291.294	35.16
291.509	69.97
291.724	74.07
291.938	55.64
292.153	80.21
292.368	12.63
292.583	16.73
292.798	41.3
293.012	76.12
293.227	53.59
293.442	55.64
293.657	106.84
293.871	78.16
294.086	8.53
294.301	76.12
294.516	53.59
294.73	33.11
294.945	82.26
295.16	35.16
295.374	55.64
295.589	43.35
295.804	-34.47
296.018	76.12
296.233	78.16
296.447	35.16
296.662	37.2
296.877	143.7
297.091	43.35
297.306	80.21
297.52	0.34
297.735	74.07
297.949	59.73
298.164	57.68
298.378	14.68
298.593	51.54
298.807	92.5
299.022	29.01
299.236	47.44
299.451	39.25
299.665	72.02
299.88	31.06
300.094	43.35
300.309	92.5
300.523	18.77
300.737	6.49
300.952	-9.9
301.166	100.69
301.381	-20.14
301.595	35.16
301.809	31.06
302.024	47.44
302.238	76.12
302.452	115.03
302.667	2.39
302.881	82.26
303.095	49.49
303.309	63.83
303.524	29.01
303.738	74.07
303.952	20.82
304.166	53.59
304.381	31.06
304.595	108.88
304.809	63.83
305.023	43.35
305.237	24.92
305.452	53.59
305.666	96.6
305.88	90.45
306.094	51.54
306.308	76.12
306.522	-18.09
306.736	67.92
306.95	84.31
307.164	63.83
307.379	31.06
307.593	106.84
307.807	106.84
308.021	51.54
308.235	88.4
308.449	-7.85
308.663	26.96
308.877	84.31
309.091	31.06
309.305	6.49
309.519	104.79
309.733	123.22
309.947	65.88
310.161	65.88
310.374	45.4
310.588	94.55
310.802	-16.04
311.016	94.55
311.23	49.49
311.444	-22.19
311.658	74.07
311.872	127.32
312.085	49.49
312.299	108.88
312.513	74.07
312.727	-18.09
312.941	78.16
313.154	43.35
313.368	90.45
313.582	29.01
313.796	35.16
314.009	-26.28
314.223	149.84
314.437	2.39
314.651	88.4
314.864	57.68
315.078	55.64
315.292	53.59
315.505	14.68
315.719	100.69
315.933	37.2
316.146	16.73
316.36	35.16
316.573	45.4
316.787	39.25
317.001	104.79
317.214	24.92
317.428	67.92
317.641	69.97
317.855	18.77
318.068	110.93
318.282	53.59
318.495	106.84
318.709	12.63
318.922	6.49
319.136	84.31
319.349	12.63
319.563	-57
319.776	20.82
319.99	31.06
320.203	49.49
320.417	-1.71
320.63	45.4
320.843	31.06
321.057	57.68
321.27	65.88
321.483	6.49
321.697	94.55
321.91	92.5
322.124	29.01
322.337	39.25
322.55	110.93
322.763	24.92
322.977	55.64
323.19	80.21
323.403	84.31
323.617	43.35
323.83	96.6
324.043	14.68
324.256	88.4
324.469	78.16
324.683	57.68
324.896	108.88
325.109	33.11
325.322	10.58
325.535	74.07
325.748	39.25
325.962	47.44
326.175	51.54
326.388	31.06
326.601	78.16
326.814	-13.99
327.027	55.64
327.24	110.93
327.453	53.59
327.666	47.44
327.879	78.16
328.092	49.49
328.305	65.88
328.518	80.21
328.731	10.58
328.944	88.4
329.157	43.35
329.37	10.58
329.583	94.55
329.796	121.17
330.009	-95.91
330.222	98.64
330.435	18.77
330.648	35.16
330.861	129.36
331.073	88.4
331.286	26.96
331.499	92.5
331.712	72.02
331.925	119.12
332.138	43.35
332.35	90.45
332.563	24.92
332.776	80.21
332.989	55.64
333.202	26.96
333.414	55.64
333.627	57.68
333.84	10.58
334.053	55.64
334.265	74.07
334.478	57.68
334.691	47.44
334.903	104.79
335.116	-1.71
335.329	33.11
335.541	35.16
335.754	98.64
335.966	80.21
336.179	69.97
336.392	57.68
336.604	74.07
336.817	76.12
337.029	12.63
337.242	59.73
337.454	92.5
337.667	78.16
337.88	94.55
338.092	53.59
338.305	119.12
338.517	47.44
338.729	110.93
338.942	127.32
339.154	-1.71
339.367	39.25
339.579	90.45
339.792	31.06
340.004	92.5
340.217	31.06
340.429	92.5
340.641	6.49
340.854	117.08
341.066	49.49
341.278	69.97
341.491	88.4
341.703	0.34
341.915	90.45
342.128	67.92
342.34	26.96
342.552	35.16
342.764	47.44
342.977	72.02
343.189	41.3
343.401	108.88
343.613	-22.19
343.826	72.02
344.038	49.49
344.25	104.79
344.462	47.44
344.674	84.31
344.886	6.49
345.099	55.64
345.311	31.06
345.523	47.44
345.735	98.64
345.947	98.64
346.159	63.83
346.371	63.83
346.583	61.78
346.795	98.64
347.007	29.01
347.219	51.54
347.431	80.21
347.643	115.03
347.855	-30.38
348.067	115.03
348.279	45.4
348.491	47.44
348.703	108.88
348.915	39.25
349.127	53.59
349.339	76.12
349.551	39.25
349.763	104.79
349.975	104.79
350.187	84.31
350.399	69.97
350.61	90.45
350.822	119.12
351.034	145.75
351.246	24.92
351.458	80.21
351.669	63.83
351.881	94.55
352.093	37.2
352.305	72.02
352.517	-11.95
352.728	51.54
352.94	72.02
353.152	53.59
353.363	55.64
353.575	67.92
353.787	63.83
353.999	31.06
354.21	127.32
354.422	49.49
354.633	61.78
354.845	53.59
355.057	92.5
355.268	4.44
355.48	-11.95
355.692	117.08
355.903	82.26
356.115	6.49
356.326	14.68
356.538	88.4
356.749	57.68
356.961	131.41
357.172	90.45
357.384	108.88
357.595	78.16
357.807	43.35
358.018	8.53
358.23	84.31
358.441	102.74
358.653	80.21
358.864	59.73
359.075	29.01
359.287	55.64
359.498	20.82
359.709	82.26
359.921	45.4
360.132	143.7
360.344	74.07
360.555	115.03
360.766	31.06
360.977	47.44
361.189	106.84
361.4	74.07
361.611	55.64
361.823	47.44
362.034	151.89
362.245	-18.09
362.456	24.92
362.667	57.68
362.879	72.02
363.09	47.44
363.301	112.98
363.512	8.53
363.723	26.96
363.935	55.64
364.146	98.64
364.357	96.6
364.568	72.02
364.779	51.54
364.99	112.98
365.201	41.3
365.412	47.44
365.623	65.88
365.834	160.08
366.045	51.54
366.256	115.03
366.467	4.44
366.678	96.6
366.889	72.02
367.1	94.55
367.311	49.49
367.522	22.87
367.733	86.36
367.944	84.31
368.155	49.49
368.366	127.32
368.577	-5.8
368.788	26.96
368.999	53.59
369.209	35.16
369.42	88.4
369.631	153.94
369.842	65.88
370.053	121.17
370.264	55.64
370.474	90.45
370.685	47.44
370.896	63.83
371.107	24.92
371.317	98.64
371.528	59.73
371.739	115.03
371.95	92.5
372.16	12.63
372.371	59.73
372.582	69.97
372.792	84.31
373.003	80.21
373.214	61.78
373.424	98.64
373.635	45.4
373.846	174.42
374.056	67.92
374.267	112.98
374.477	84.31
374.688	2.39
374.898	135.51
375.109	69.97
375.319	155.99
375.53	45.4
375.74	117.08
375.951	82.26
376.161	47.44
376.372	127.32
376.582	16.73
376.793	98.64
377.003	39.25
377.214	37.2
377.424	78.16
377.635	67.92
377.845	18.77
378.055	47.44
378.266	12.63
378.476	-5.8
378.686	72.02
378.897	108.88
379.107	43.35
379.317	127.32
379.528	121.17
379.738	45.4
379.948	112.98
380.158	86.36
380.369	88.4
380.579	121.17
380.789	153.94
380.999	117.08
381.21	104.79
381.42	94.55
381.63	74.07
381.84	67.92
382.05	55.64
382.261	53.59
382.471	149.84
382.681	67.92
382.891	45.4
383.101	59.73
383.311	37.2
383.521	63.83
383.731	84.31
383.941	55.64
384.151	110.93
384.361	96.6
384.571	88.4
384.781	67.92
384.991	84.31
385.201	145.75
385.411	61.78
385.621	61.78
385.831	69.97
386.041	74.07
386.251	90.45
386.461	12.63
386.671	43.35
386.881	72.02
387.091	166.23
387.301	115.03
387.511	39.25
387.72	59.73
387.93	45.4
388.14	57.68
388.35	43.35
388.56	78.16
388.769	129.36
388.979	102.74
389.189	35.16
389.399	24.92
389.609	80.21
389.818	74.07
390.028	104.79
390.238	67.92
390.447	51.54
390.657	160.08
390.867	24.92
391.076	41.3
391.286	106.84
391.496	92.5
391.705	96.6
391.915	69.97
392.125	117.08
392.334	133.46
392.544	123.22
392.753	137.56
392.963	67.92
393.172	88.4
393.382	90.45
393.591	151.89
393.801	57.68
394.01	198.99
394.22	55.64
394.429	65.88
394.639	135.51
394.848	147.8
395.058	121.17
395.267	190.8
395.477	80.21
395.686	131.41
395.895	121.17
396.105	145.75
396.314	125.27
396.524	35.16
396.733	133.46
396.942	102.74
397.152	149.84
397.361	59.73
397.57	160.08
397.78	80.21
397.989	194.9
398.198	153.94
398.407	78.16
398.617	184.66
398.826	102.74
399.035	131.41
399.244	139.6
399.453	198.99
399.663	84.31
399.872	221.52
400.081	74.07
400.29	168.27
400.499	168.27
400.708	190.8
400.917	160.08
401.127	176.47
401.336	151.89
401.545	176.47
401.754	176.47
401.963	252.24
402.172	108.88
402.381	192.85
402.59	135.51
402.799	147.8
403.008	231.76
403.217	137.56
403.426	176.47
403.635	188.75
403.844	119.12
404.053	192.85
404.262	149.84
404.471	174.42
404.68	242
404.888	213.33
405.097	250.19
405.306	196.95
405.515	215.38
405.724	225.62
405.933	330.06
406.142	215.38
406.35	186.71
406.559	231.76
406.768	225.62
406.977	321.87
407.185	313.68
407.394	252.24
407.603	260.43
407.812	246.1
408.02	368.98
408.229	330.06
408.438	336.21
408.646	371.02
408.855	362.83
409.064	350.54
409.272	360.78
409.481	342.35
409.69	360.78
409.898	328.02
410.107	387.41
410.315	479.57
410.524	495.95
410.733	407.89
410.941	428.37
411.15	526.67
411.358	450.89
411.567	573.77
411.775	561.48
411.984	584.01
412.192	571.72
412.401	586.06
412.609	616.78
412.818	667.98
413.026	717.13
413.234	682.31
413.443	756.04
413.651	768.33
413.86	766.28
414.068	801.1
414.276	825.67
414.485	889.16
414.693	854.34
414.901	995.65
415.11	993.61
415.318	946.5
415.526	1022.28
415.734	997.7
415.943	979.27
416.151	1096
416.359	1192.26
416.567	1069.38
416.776	1192.26
416.984	1233.22
417.192	1300.8
417.4	1325.38
417.608	1298.75
417.817	1364.29
418.025	1409.34
418.233	1575.23
418.441	1601.85
418.649	1564.99
418.857	1724.73
419.065	1767.74
419.273	1788.22
419.481	1929.53
419.689	1886.52
419.897	2058.55
420.105	1995.06
420.313	2056.5
420.521	2140.47
420.729	2189.62
420.937	2224.44
421.145	2402.61
421.353	2384.18
421.561	2670.89
421.769	2771.24
421.977	2701.61
422.185	2730.28
422.393	2873.64
422.601	3041.57
422.809	3008.81
423.017	3086.63
423.224	3215.65
423.432	3328.29
423.64	3246.37
423.848	3600.67
424.056	3494.18
424.263	3815.71
424.471	3899.67
424.679	4116.76
424.887	4274.45
425.094	4133.14
425.302	4282.64
425.51	4540.69
425.718	4643.09
425.925	4849.93
426.133	4759.82
426.341	5028.1
426.548	5376.26
426.756	5228.81
426.964	5234.95
427.171	5685.5
427.379	5923.07
427.586	6097.14
427.794	6072.57
428.001	6379.76
428.209	6676.72
428.417	6562.03
428.624	6994.15
428.832	6842.6
429.039	6828.27
429.247	7069.93
429.454	7643.36
429.662	8249.56
429.869	7493.86
430.076	8306.9
430.284	7932.12
430.491	8249.56
430.699	8720.59
430.906	8784.08
431.114	8935.63
431.321	9271.5
431.528	9488.58
431.736	9885.89
431.943	10358.97
432.15	10113.21
432.358	10160.31
432.565	10832.05
432.772	10750.13
432.979	11339.94
433.187	11413.67
433.394	11569.32
433.601	12513.43
433.808	12222.62
434.016	12284.06
434.223	12830.87
434.43	13879.43
434.637	13330.57
434.844	14243.96
435.052	14508.15
435.259	14223.48
435.466	14610.55
435.673	14561.4
435.88	15339.63
436.087	16093.28
436.294	16099.42
436.501	15790.18
436.708	15966.31
436.915	16738.39
437.122	17348.68
437.329	17254.48
437.537	17834.05
437.743	18135.1
437.95	18057.28
438.157	19257.39
438.364	19585.07
438.571	19554.35
438.778	19656.75
438.985	21501.97
439.192	20598.81
439.399	21266.45
439.606	20869.14
439.813	22005.77
440.02	23486.45
440.227	22923.26
440.433	22919.16
440.64	23683.05
440.847	23400.43
441.054	23867.37
441.261	25505.74
441.467	25376.72
441.674	25739.21
441.881	26687.42
442.088	26546.11
442.294	26316.74
442.501	27129.78
442.708	27707.31
442.914	28456.87
443.121	29788.05
443.328	29058.97
443.534	31203.19
443.741	30443.4
443.948	29751.18
444.154	32245.61
444.361	31821.68
444.568	31975.28
444.774	32221.03
444.981	32339.82
445.187	33396.57
445.394	34889.54
445.6	34281.29
445.807	37603.1
446.013	35931.95
446.22	36835.11
446.426	37981.97
446.633	38385.42
446.839	39614.2
447.046	38174.48
447.252	39687.93
447.459	39952.12
447.665	39931.64
447.871	41424.61
448.078	43255.49
448.284	41475.8
448.491	42583.76
448.697	44371.63
448.903	44938.92
449.11	44760.75
449.316	44064.44
449.522	45373.09
449.728	46433.94
449.935	46939.79
450.141	46694.03
450.347	47545.98
450.553	46106.26
450.76	46587.53
450.966	48068.22
451.172	47928.95
451.378	49094.25
451.584	47742.59
451.791	49413.73
451.997	49151.59
452.203	49700.45
452.409	49636.96
452.615	49245.8
452.821	47617.66
453.027	47253.12
453.233	49536.61
453.44	47521.41
453.646	48021.11
453.852	48488.05
454.058	49350.24
454.264	47951.48
454.47	48682.61
454.676	47464.07
454.882	48995.95
455.088	44777.13
455.294	45655.71
455.5	46290.58
455.705	47234.69
455.911	44539.57
456.117	43912.89
456.323	43525.82
456.529	41051.87
456.735	43269.83
456.941	41854.68
457.147	40976.1
457.352	39788.28
457.558	39685.88
457.764	39628.54
457.97	39030.53
458.176	38188.81
458.381	38137.62
458.587	36265.77
458.793	36409.13
458.999	34357.07
459.204	36788
459.41	35770.16
459.616	33464.15
459.821	33412.95
460.027	33159
460.233	32890.72
460.438	31272.82
460.644	31559.54
460.85	29972.36
461.055	29620.11
461.261	29360.02
461.466	27264.95
461.672	26369.99
461.878	28340.13
462.083	26427.33
462.289	26134.47
462.494	25546.7
462.7	24561.63
462.905	23828.46
463.111	24565.73
463.316	24754.14
463.522	24322.02
463.727	24346.59
463.932	24207.33
464.138	24086.5
464.343	24229.86
464.549	23332.85
464.754	24199.14
464.959	24031.21
465.165	23707.63
465.37	22534.14
465.575	22177.79
465.781	23019.51
465.986	23078.9
466.191	22288.39
466.397	21778.44
466.602	20621.34
466.807	21874.7
467.012	21706.76
467.218	21667.85
