Data from USB4F104151__12__11-44-29-655.txt Node

Date: Fri Mar 14 11:44:29 EDT 2025
User: louis
Spectrometer: USB4F10415
Trigger mode: 4
Integration Time (sec): 2.000000E-2
Scans to average: 1
Electric dark correction enabled: true
Nonlinearity correction enabled: false
Boxcar width: 0
XAxis mode: Wavelengths
Number of Pixels in Spectrum: 3648
>>>>>Begin Spectral Data<<<<<
178.204	-76.29
178.424	-76.29
178.644	-76.29
178.864	-158.21
179.084	-104.96
179.304	3.58
179.524	-20.99
179.744	-25.09
179.964	22.02
180.184	15.87
180.404	5.63
180.624	-16.9
180.844	28.16
181.064	-4.61
181.283	-25.09
181.503	-39.42
181.723	56.83
181.943	-74.24
182.163	89.6
182.383	-8.7
182.602	56.83
182.822	13.82
183.042	-10.75
183.262	17.92
183.482	-8.7
183.701	-4.61
183.921	24.06
184.141	42.5
184.361	-10.75
184.58	67.07
184.8	36.35
185.02	-14.85
185.239	-4.61
185.459	32.26
185.679	81.41
185.898	19.97
186.118	24.06
186.338	-10.75
186.557	50.69
186.777	19.97
186.997	52.74
187.216	-27.14
187.436	69.12
187.655	67.07
187.875	73.21
188.095	-6.66
188.314	30.21
188.534	26.11
188.753	30.21
188.973	-16.9
189.192	108.03
189.412	7.68
189.631	19.97
189.851	1.54
190.07	24.06
190.29	19.97
190.509	60.93
190.729	34.3
190.948	22.02
191.168	161.28
191.387	42.5
191.607	48.64
191.826	-0.51
192.045	95.74
192.265	-61.95
192.484	28.16
192.704	50.69
192.923	-119.29
193.142	108.03
193.362	91.65
193.581	73.21
193.8	87.55
194.02	87.55
194.239	22.02
194.458	-35.33
194.678	-29.18
194.897	60.93
195.116	1.54
195.335	73.21
195.555	3.58
195.774	-8.7
195.993	58.88
196.212	46.59
196.432	15.87
196.651	-31.23
196.87	42.5
197.089	13.82
197.308	34.3
197.528	87.55
197.747	17.92
197.966	-33.28
198.185	9.73
198.404	19.97
198.623	93.69
198.842	114.17
199.062	24.06
199.281	-6.66
199.5	17.92
199.719	65.02
199.938	34.3
200.157	28.16
200.376	134.65
200.595	54.78
200.814	-33.28
201.033	69.12
201.252	50.69
201.471	22.02
201.69	-2.56
201.909	32.26
202.128	58.88
202.347	36.35
202.566	9.73
202.785	-18.94
203.004	36.35
203.223	34.3
203.442	-6.66
203.661	54.78
203.879	-29.18
204.098	22.02
204.317	28.16
204.536	65.02
204.755	-20.99
204.974	40.45
205.193	44.54
205.411	118.27
205.63	87.55
205.849	-68.09
206.068	46.59
206.287	-31.23
206.505	93.69
206.724	42.5
206.943	-18.94
207.162	19.97
207.381	13.82
207.599	36.35
207.818	71.17
208.037	26.11
208.255	-23.04
208.474	9.73
208.693	69.12
208.911	99.84
209.13	5.63
209.349	-119.29
209.567	60.93
209.786	128.51
210.005	26.11
210.223	13.82
210.442	34.3
210.661	13.82
210.879	79.36
211.098	62.98
211.316	71.17
211.535	93.69
211.753	3.58
211.972	26.11
212.191	62.98
212.409	91.65
212.628	54.78
212.846	24.06
213.065	-29.18
213.283	62.98
213.502	13.82
213.72	-78.33
213.938	44.54
214.157	44.54
214.375	-16.9
214.594	19.97
214.812	42.5
215.031	-2.56
215.249	36.35
215.467	-8.7
215.686	34.3
215.904	-10.75
216.122	-66.05
216.341	42.5
216.559	-41.47
216.778	48.64
216.996	-4.61
217.214	30.21
217.432	1.54
217.651	-51.71
217.869	-18.94
218.087	42.5
218.306	-20.99
218.524	89.6
218.742	-23.04
218.96	38.4
219.179	46.59
219.397	34.3
219.615	-12.8
219.833	69.12
220.051	22.02
220.27	58.88
220.488	24.06
220.706	48.64
220.924	75.26
221.142	52.74
221.36	3.58
221.578	-0.51
221.796	34.3
222.015	56.83
222.233	-14.85
222.451	42.5
222.669	-8.7
222.887	112.13
223.105	65.02
223.323	26.11
223.541	9.73
223.759	44.54
223.977	77.31
224.195	52.74
224.413	-41.47
224.631	77.31
224.849	17.92
225.067	67.07
225.285	5.63
225.503	-31.23
225.721	-57.86
225.939	42.5
226.157	48.64
226.375	58.88
226.592	9.73
226.81	75.26
227.028	83.45
227.246	85.5
227.464	22.02
227.682	3.58
227.9	26.11
228.117	-39.42
228.335	56.83
228.553	46.59
228.771	28.16
228.989	77.31
229.206	24.06
229.424	95.74
229.642	-14.85
229.86	-10.75
230.077	26.11
230.295	28.16
230.513	93.69
230.731	95.74
230.948	19.97
231.166	-6.66
231.384	-12.8
231.601	50.69
231.819	87.55
232.037	9.73
232.254	-0.51
232.472	42.5
232.689	17.92
232.907	71.17
233.125	56.83
233.342	65.02
233.56	-4.61
233.777	-6.66
233.995	30.21
234.213	-8.7
234.43	77.31
234.648	60.93
234.865	22.02
235.083	67.07
235.3	42.5
235.518	44.54
235.735	36.35
235.953	134.65
236.17	58.88
236.388	48.64
236.605	89.6
236.822	46.59
237.04	93.69
237.257	89.6
237.475	79.36
237.692	-16.9
237.909	56.83
238.127	89.6
238.344	48.64
238.562	15.87
238.779	5.63
238.996	17.92
239.214	32.26
239.431	56.83
239.648	-25.09
239.865	34.3
240.083	-2.56
240.3	67.07
240.517	62.98
240.735	101.89
240.952	75.26
241.169	24.06
241.386	-4.61
241.603	-12.8
241.821	7.68
242.038	60.93
242.255	22.02
242.472	13.82
242.689	-2.56
242.907	91.65
243.124	97.79
243.341	34.3
243.558	46.59
243.775	-14.85
243.992	15.87
244.209	69.12
244.426	65.02
244.643	105.98
244.86	116.22
245.078	46.59
245.295	52.74
245.512	5.63
245.729	58.88
245.946	15.87
246.163	60.93
246.38	30.21
246.597	17.92
246.814	75.26
247.031	60.93
247.248	83.45
247.464	-12.8
247.681	97.79
247.898	42.5
248.115	83.45
248.332	1.54
248.549	28.16
248.766	52.74
248.983	83.45
249.2	9.73
249.417	-2.56
249.633	-39.42
249.85	-27.14
250.067	62.98
250.284	38.4
250.501	-14.85
250.717	17.92
250.934	11.78
251.151	83.45
251.368	-29.18
251.585	54.78
251.801	110.08
252.018	-10.75
252.235	91.65
252.451	46.59
252.668	11.78
252.885	62.98
253.102	101.89
253.318	-2.56
253.535	40.45
253.752	1.54
253.968	28.16
254.185	46.59
254.401	19.97
254.618	56.83
254.835	22.02
255.051	38.4
255.268	67.07
255.484	54.78
255.701	56.83
255.917	132.61
256.134	54.78
256.351	40.45
256.567	32.26
256.784	54.78
257	122.37
257.217	48.64
257.433	32.26
257.65	30.21
257.866	71.17
258.082	110.08
258.299	17.92
258.515	1.54
258.732	-14.85
258.948	48.64
259.165	91.65
259.381	13.82
259.597	34.3
259.814	-0.51
260.03	40.45
260.246	56.83
260.463	65.02
260.679	69.12
260.895	44.54
261.112	1.54
261.328	58.88
261.544	28.16
261.761	56.83
261.977	136.7
262.193	97.79
262.409	75.26
262.626	75.26
262.842	30.21
263.058	17.92
263.274	89.6
263.49	50.69
263.707	77.31
263.923	93.69
264.139	19.97
264.355	62.98
264.571	85.5
264.787	-14.85
265.004	34.3
265.22	71.17
265.436	69.12
265.652	17.92
265.868	32.26
266.084	34.3
266.3	17.92
266.516	19.97
266.732	9.73
266.948	62.98
267.164	30.21
267.38	3.58
267.596	91.65
267.812	38.4
268.028	54.78
268.244	-37.38
268.46	-10.75
268.676	-27.14
268.892	85.5
269.108	114.17
269.324	7.68
269.54	32.26
269.756	126.46
269.972	30.21
270.188	44.54
270.403	71.17
270.619	42.5
270.835	32.26
271.051	56.83
271.267	67.07
271.483	17.92
271.698	24.06
271.914	87.55
272.13	38.4
272.346	75.26
272.562	-16.9
272.777	48.64
272.993	-6.66
273.209	56.83
273.425	-35.33
273.64	3.58
273.856	40.45
274.072	67.07
274.287	42.5
274.503	73.21
274.719	5.63
274.934	105.98
275.15	73.21
275.366	40.45
275.581	42.5
275.797	30.21
276.012	32.26
276.228	75.26
276.444	108.03
276.659	62.98
276.875	-23.04
277.09	34.3
277.306	19.97
277.521	65.02
277.737	11.78
277.952	77.31
278.168	77.31
278.383	65.02
278.599	89.6
278.814	79.36
279.03	52.74
279.245	38.4
279.461	95.74
279.676	65.02
279.892	60.93
280.107	11.78
280.322	38.4
280.538	9.73
280.753	56.83
280.969	60.93
281.184	17.92
281.399	62.98
281.615	97.79
281.83	83.45
282.045	54.78
282.26	5.63
282.476	22.02
282.691	40.45
282.906	48.64
283.122	13.82
283.337	75.26
283.552	67.07
283.767	65.02
283.983	7.68
284.198	69.12
284.413	62.98
284.628	5.63
284.843	1.54
285.058	58.88
285.274	-23.04
285.489	-14.85
285.704	52.74
285.919	34.3
286.134	75.26
286.349	-14.85
286.564	54.78
286.779	62.98
286.995	15.87
287.21	32.26
287.425	5.63
287.64	-51.71
287.855	105.98
288.07	40.45
288.285	46.59
288.5	62.98
288.715	91.65
288.93	75.26
289.145	-8.7
289.36	105.98
289.575	-6.66
289.79	138.75
290.004	79.36
290.219	24.06
290.434	62.98
290.649	19.97
290.864	44.54
291.079	58.88
291.294	103.93
291.509	48.64
291.724	75.26
291.938	-49.66
292.153	58.88
292.368	95.74
292.583	85.5
292.798	67.07
293.012	62.98
293.227	48.64
293.442	26.11
293.657	-4.61
293.871	87.55
294.086	85.5
294.301	83.45
294.516	97.79
294.73	71.17
294.945	52.74
295.16	110.08
295.374	-25.09
295.589	42.5
295.804	50.69
296.018	38.4
296.233	58.88
296.447	87.55
296.662	38.4
296.877	79.36
297.091	62.98
297.306	26.11
297.52	40.45
297.735	-18.94
297.949	15.87
298.164	60.93
298.378	-35.33
298.593	44.54
298.807	56.83
299.022	77.31
299.236	130.56
299.451	-18.94
299.665	56.83
299.88	75.26
300.094	91.65
300.309	71.17
300.523	1.54
300.737	85.5
300.952	65.02
301.166	58.88
301.381	48.64
301.595	91.65
301.809	44.54
302.024	-8.7
302.238	87.55
302.452	13.82
302.667	177.66
302.881	103.93
303.095	65.02
303.309	91.65
303.524	50.69
303.738	46.59
303.952	79.36
304.166	56.83
304.381	24.06
304.595	48.64
304.809	28.16
305.023	97.79
305.237	58.88
305.452	30.21
305.666	75.26
305.88	79.36
306.094	5.63
306.308	11.78
306.522	91.65
306.736	89.6
306.95	134.65
307.164	60.93
307.379	19.97
307.593	11.78
307.807	67.07
308.021	44.54
308.235	132.61
308.449	26.11
308.663	81.41
308.877	99.84
309.091	67.07
309.305	26.11
309.519	50.69
309.733	81.41
309.947	36.35
310.161	19.97
310.374	89.6
310.588	13.82
310.802	87.55
311.016	-2.56
311.23	50.69
311.444	99.84
311.658	9.73
311.872	54.78
312.085	46.59
312.299	50.69
312.513	67.07
312.727	89.6
312.941	1.54
313.154	58.88
313.368	99.84
313.582	13.82
313.796	77.31
314.009	30.21
314.223	58.88
314.437	54.78
314.651	91.65
314.864	54.78
315.078	67.07
315.292	30.21
315.505	13.82
315.719	38.4
315.933	52.74
316.146	52.74
316.36	77.31
316.573	67.07
316.787	73.21
317.001	65.02
317.214	-0.51
317.428	56.83
317.641	-2.56
317.855	89.6
318.068	91.65
318.282	79.36
318.495	56.83
318.709	48.64
318.922	71.17
319.136	71.17
319.349	130.56
319.563	34.3
319.776	108.03
319.99	40.45
320.203	60.93
320.417	32.26
320.63	116.22
320.843	62.98
321.057	48.64
321.27	71.17
321.483	153.09
321.697	32.26
321.91	30.21
322.124	65.02
322.337	71.17
322.55	77.31
322.763	81.41
322.977	34.3
323.19	89.6
323.403	46.59
323.617	73.21
323.83	161.28
324.043	58.88
324.256	136.7
324.469	22.02
324.683	153.09
324.896	58.88
325.109	-31.23
325.322	40.45
325.535	114.17
325.748	87.55
325.962	128.51
326.175	114.17
326.388	71.17
326.601	24.06
326.814	38.4
327.027	157.18
327.24	54.78
327.453	19.97
327.666	40.45
327.879	99.84
328.092	62.98
328.305	103.93
328.518	97.79
328.731	91.65
328.944	38.4
329.157	28.16
329.37	48.64
329.583	65.02
329.796	93.69
330.009	42.5
330.222	50.69
330.435	103.93
330.648	89.6
330.861	32.26
331.073	95.74
331.286	103.93
331.499	42.5
331.712	56.83
331.925	30.21
332.138	155.13
332.35	81.41
332.563	40.45
332.776	95.74
332.989	118.27
333.202	3.58
333.414	85.5
333.627	85.5
333.84	50.69
334.053	24.06
334.265	-0.51
334.478	110.08
334.691	105.98
334.903	79.36
335.116	5.63
335.329	44.54
335.541	128.51
335.754	122.37
335.966	54.78
336.179	73.21
336.392	50.69
336.604	105.98
336.817	83.45
337.029	81.41
337.242	54.78
337.454	87.55
337.667	85.5
337.88	142.85
338.092	42.5
338.305	52.74
338.517	38.4
338.729	36.35
338.942	103.93
339.154	71.17
339.367	3.58
339.579	83.45
339.792	26.11
340.004	54.78
340.217	91.65
340.429	97.79
340.641	144.89
340.854	42.5
341.066	101.89
341.278	44.54
341.491	85.5
341.703	26.11
341.915	89.6
342.128	93.69
342.34	75.26
342.552	73.21
342.764	69.12
342.977	103.93
343.189	110.08
343.401	99.84
343.613	28.16
343.826	19.97
344.038	89.6
344.25	138.75
344.462	58.88
344.674	103.93
344.886	75.26
345.099	42.5
345.311	85.5
345.523	134.65
345.735	9.73
345.947	173.57
346.159	52.74
346.371	28.16
346.583	67.07
346.795	134.65
347.007	30.21
347.219	77.31
347.431	15.87
347.643	26.11
347.855	87.55
348.067	128.51
348.279	140.8
348.491	93.69
348.703	32.26
348.915	52.74
349.127	30.21
349.339	56.83
349.551	89.6
349.763	159.23
349.975	62.98
350.187	48.64
350.399	58.88
350.61	110.08
350.822	17.92
351.034	26.11
351.246	48.64
351.458	101.89
351.669	44.54
351.881	144.89
352.093	50.69
352.305	89.6
352.517	24.06
352.728	161.28
352.94	71.17
353.152	40.45
353.363	91.65
353.575	52.74
353.787	116.22
353.999	99.84
354.21	124.41
354.422	60.93
354.633	62.98
354.845	62.98
355.057	58.88
355.268	71.17
355.48	71.17
355.692	95.74
355.903	22.02
356.115	105.98
356.326	71.17
356.538	181.76
356.749	91.65
356.961	48.64
357.172	103.93
357.384	110.08
357.595	87.55
357.807	69.12
358.018	30.21
358.23	112.13
358.441	118.27
358.653	118.27
358.864	30.21
359.075	71.17
359.287	42.5
359.498	108.03
359.709	128.51
359.921	101.89
360.132	105.98
360.344	112.13
360.555	97.79
360.766	110.08
360.977	85.5
361.189	87.55
361.4	38.4
361.611	85.5
361.823	151.04
362.034	75.26
362.245	103.93
362.456	26.11
362.667	95.74
362.879	54.78
363.09	58.88
363.301	19.97
363.512	65.02
363.723	54.78
363.935	58.88
364.146	89.6
364.357	58.88
364.568	112.13
364.779	54.78
364.99	83.45
365.201	62.98
365.412	134.65
365.623	36.35
365.834	130.56
366.045	85.5
366.256	52.74
366.467	97.79
366.678	128.51
366.889	134.65
367.1	144.89
367.311	24.06
367.522	79.36
367.733	62.98
367.944	-16.9
368.155	75.26
368.366	114.17
368.577	130.56
368.788	114.17
368.999	22.02
369.209	136.7
369.42	136.7
369.631	118.27
369.842	110.08
370.053	130.56
370.264	144.89
370.474	83.45
370.685	54.78
370.896	38.4
371.107	99.84
371.317	87.55
371.528	60.93
371.739	124.41
371.95	71.17
372.16	140.8
372.371	42.5
372.582	124.41
372.792	146.94
373.003	89.6
373.214	105.98
373.424	79.36
373.635	69.12
373.846	108.03
374.056	65.02
374.267	77.31
374.477	155.13
374.688	148.99
374.898	83.45
375.109	112.13
375.319	69.12
375.53	177.66
375.74	69.12
375.951	79.36
376.161	97.79
376.372	89.6
376.582	110.08
376.793	73.21
377.003	60.93
377.214	126.46
377.424	79.36
377.635	32.26
377.845	99.84
378.055	116.22
378.266	42.5
378.476	103.93
378.686	85.5
378.897	40.45
379.107	124.41
379.317	56.83
379.528	165.37
379.738	134.65
379.948	124.41
380.158	189.95
380.369	75.26
380.579	58.88
380.789	116.22
380.999	132.61
381.21	62.98
381.42	138.75
381.63	24.06
381.84	116.22
382.05	99.84
382.261	81.41
382.471	120.32
382.681	83.45
382.891	101.89
383.101	71.17
383.311	99.84
383.521	32.26
383.731	67.07
383.941	91.65
384.151	42.5
384.361	87.55
384.571	124.41
384.781	144.89
384.991	91.65
385.201	97.79
385.411	77.31
385.621	112.13
385.831	65.02
386.041	130.56
386.251	79.36
386.461	196.09
386.671	114.17
386.881	95.74
387.091	79.36
387.301	208.38
387.511	112.13
387.72	144.89
387.93	198.14
388.14	7.68
388.35	189.95
388.56	239.1
388.769	138.75
388.979	206.33
389.189	56.83
389.399	118.27
389.609	91.65
389.818	155.13
390.028	105.98
390.238	163.33
390.447	99.84
390.657	194.05
390.867	163.33
391.076	128.51
391.286	140.8
391.496	132.61
391.705	46.59
391.915	194.05
392.125	116.22
392.334	130.56
392.544	120.32
392.753	138.75
392.963	69.12
393.172	128.51
393.382	165.37
393.591	179.71
393.801	126.46
394.01	169.47
394.22	97.79
394.429	128.51
394.639	120.32
394.848	136.7
395.058	175.61
395.267	79.36
395.477	247.29
395.686	185.85
395.895	192
396.105	208.38
396.314	173.57
396.524	148.99
396.733	169.47
396.942	177.66
397.152	202.24
397.361	224.76
397.57	196.09
397.78	204.28
397.989	173.57
398.198	220.67
398.407	138.75
398.617	208.38
398.826	224.76
399.035	200.19
399.244	202.24
399.453	153.09
399.663	189.95
399.872	296.44
400.081	177.66
400.29	263.68
400.499	210.43
400.708	187.9
400.917	142.85
401.127	208.38
401.336	239.1
401.545	230.91
401.754	286.2
401.963	224.76
402.172	261.63
402.381	173.57
402.59	208.38
402.799	181.76
403.008	239.1
403.217	243.2
403.426	292.35
403.635	323.07
403.844	308.73
404.053	187.9
404.262	263.68
404.471	327.16
404.68	318.97
404.888	269.82
405.097	298.49
405.306	388.6
405.515	329.21
405.724	355.83
405.933	398.84
406.142	407.03
406.35	349.69
406.559	351.74
406.768	366.07
406.977	470.52
407.185	402.94
407.394	493.05
407.603	345.59
407.812	470.52
408.02	445.95
408.229	482.81
408.438	409.08
408.646	484.86
408.855	591.35
409.064	574.97
409.272	515.58
409.481	589.3
409.69	597.49
409.898	613.88
410.107	769.52
410.315	630.26
410.524	703.99
410.733	738.8
410.941	806.39
411.15	747
411.358	787.96
411.567	888.31
411.775	843.25
411.984	816.63
412.192	996.85
412.401	937.46
412.609	1023.47
412.818	1082.86
413.026	1033.71
413.234	1136.11
413.443	1058.29
413.651	1177.07
413.86	1199.6
414.068	1314.28
414.276	1361.39
414.485	1379.82
414.693	1293.8
414.901	1482.22
415.11	1578.47
415.318	1521.13
415.526	1646.05
415.734	1684.97
415.943	1762.79
416.151	1803.75
416.359	1897.96
416.567	1988.07
416.776	2004.45
416.984	2096.61
417.192	2057.7
417.4	2235.87
417.608	2242.01
417.817	2309.6
418.025	2387.42
418.233	2571.74
418.441	2536.92
418.649	2670.04
418.857	2899.41
419.065	2989.52
419.273	2858.45
419.481	3065.3
419.689	3126.74
419.897	3392.97
420.105	3431.88
420.313	3610.06
420.521	3651.02
420.729	3653.06
420.937	3747.27
421.145	3941.83
421.353	4173.25
421.561	4328.89
421.769	4494.78
421.977	4466.11
422.185	4535.74
422.393	4789.69
422.601	5168.56
422.809	5146.03
423.017	5266.86
423.224	5307.82
423.432	5565.87
423.64	5602.73
423.848	6155.68
424.056	5801.38
424.263	6528.41
424.471	6321.57
424.679	6559.13
424.887	6950.29
425.094	7124.37
425.302	7316.88
425.51	7357.84
425.718	7515.53
425.925	7771.53
426.133	8091.01
426.341	8453.5
426.548	8953.21
426.756	8834.43
426.964	8981.88
427.171	9569.65
427.379	9893.23
427.586	9969
427.794	10018.15
428.001	10771.8
428.209	11210.07
428.417	10992.98
428.624	11787.6
428.832	11636.05
429.039	11615.57
429.247	11830.6
429.454	12811.58
429.662	13626.67
429.869	12723.52
430.076	13622.58
430.284	13069.62
430.491	13937.96
430.699	14660.9
430.906	14728.48
431.114	14884.12
431.321	15574.29
431.528	15912.21
431.736	16827.65
431.943	17347.83
432.15	16895.23
432.358	17130.75
432.565	18341.1
432.772	18081
432.979	19055.84
433.187	19195.1
433.394	19586.26
433.601	20886.72
433.808	21087.42
434.016	20765.89
434.223	21646.52
434.43	22850.72
434.637	22588.58
434.844	23843.99
435.052	24605.83
435.259	24003.73
435.466	24575.11
435.673	24355.98
435.88	25769.08
436.087	27006.05
436.294	27253.86
436.501	26467.44
436.708	27216.99
436.915	27923.54
437.122	29021.25
437.329	29199.43
437.537	30143.54
437.743	30370.86
437.95	30360.62
438.157	32087.06
438.364	33113.09
438.571	32865.29
438.778	33180.68
438.985	36238.3
439.192	34382.84
439.399	35726.3
439.606	34960.36
439.813	36662.22
440.02	39062.44
440.227	38468.53
440.433	38063.04
440.64	39263.14
440.847	38974.38
441.054	40072.09
441.261	42900.34
441.467	41839.49
441.674	43148.14
441.881	44630.87
442.088	44065.63
442.294	44204.89
442.501	45165.39
442.708	46156.61
442.914	47518.51
443.121	49470.22
443.328	48421.66
443.534	51722.99
443.741	50086.66
443.948	49580.81
444.154	52685.53
444.361	53082.84
444.568	53201.62
444.774	53123.8
444.981	53906.12
445.187	55433.91
445.394	57297.56
445.6	56851.1
445.807	61370.97
446.013	58833.53
446.22	60074.6
446.426	62085.71
446.633	62124.62
446.839	63988.27
447.046	62167.63
447.252	64076.33
447.459	64076.33
447.665	64076.33
447.871	64076.33
448.078	64076.33
448.284	64076.33
448.491	64076.33
448.697	64076.33
448.903	64076.33
449.11	64076.33
449.316	64076.33
449.522	64076.33
449.728	64076.33
449.935	64076.33
450.141	64076.33
450.347	64076.33
450.553	64076.33
450.76	64076.33
450.966	64076.33
451.172	64076.33
451.378	64076.33
451.584	64076.33
451.791	64076.33
451.997	64076.33
452.203	64076.33
452.409	64076.33
452.615	64076.33
452.821	64076.33
453.027	64076.33
453.233	64076.33
453.44	64076.33
453.646	64076.33
453.852	64076.33
454.058	64076.33
454.264	64076.33
454.47	64076.33
454.676	64076.33
454.882	64076.33
455.088	64076.33
455.294	64076.33
455.5	64076.33
455.705	64076.33
455.911	64076.33
456.117	64076.33
456.323	64076.33
456.529	64076.33
456.735	64076.33
456.941	64076.33
457.147	64076.33
457.352	64076.33
457.558	64076.33
457.764	64076.33
457.97	64076.33
458.176	62782.02
458.381	61995.6
458.587	58940.03
458.793	59241.08
458.999	56365.73
459.204	59789.94
459.41	58288.77
459.616	55014.07
459.821	55073.46
460.027	54733.5
460.233	53568.21
460.438	51469.04
460.644	51471.09
460.85	49392.4
461.055	48907.03
461.261	49074.96
461.466	45161.29
461.672	43938.66
461.878	46965.56
462.083	44206.94
462.289	42832.75
462.494	42349.43
462.7	40795.03
462.905	39682.98
463.111	41196.43
463.316	41323.4
463.522	40508.31
463.727	40571.8
463.932	40590.23
464.138	39934.88
464.343	39934.88
464.549	38699.95
464.754	40391.58
464.959	39820.19
465.165	39336.87
465.37	37848
465.575	37223.37
465.781	38550.45
465.986	38902.7
466.191	37307.33
