Data from USB4F104151__75__11-45-30-288.txt Node

Date: Fri Mar 14 11:45:30 EDT 2025
User: louis
Spectrometer: USB4F10415
Trigger mode: 4
Integration Time (sec): 2.000000E-2
Scans to average: 1
Electric dark correction enabled: true
Nonlinearity correction enabled: false
Boxcar width: 0
XAxis mode: Wavelengths
Number of Pixels in Spectrum: 3648
>>>>>Begin Spectral Data<<<<<
178.204	-126.46
178.424	-126.46
178.644	-126.46
178.864	-124.41
179.084	-58.88
179.304	-17.92
179.524	33.28
179.744	-52.74
179.964	2.56
180.184	33.28
180.404	-48.64
180.624	57.86
180.844	57.86
181.064	-24.06
181.283	-28.16
181.503	-1.54
181.723	-11.78
181.943	-69.12
182.163	10.75
182.383	35.33
182.602	12.8
182.822	129.53
183.042	-48.64
183.262	-17.92
183.482	-32.26
183.701	-9.73
183.921	70.14
184.141	-34.3
184.361	2.56
184.58	-48.64
184.8	-46.59
185.02	-15.87
185.239	23.04
185.459	33.28
185.679	-7.68
185.898	-19.97
186.118	70.14
186.338	-26.11
186.557	82.43
186.777	-11.78
186.997	-38.4
187.216	-30.21
187.436	57.86
187.655	8.7
187.875	-5.63
188.095	-52.74
188.314	45.57
188.534	-65.02
188.753	47.62
188.973	12.8
189.192	92.67
189.412	8.7
189.631	43.52
189.851	55.81
190.07	35.33
190.29	20.99
190.509	57.86
190.729	16.9
190.948	47.62
191.168	129.53
191.387	74.24
191.607	-11.78
191.826	45.57
192.045	0.51
192.265	14.85
192.484	59.9
192.704	-71.17
192.923	29.18
193.142	12.8
193.362	-38.4
193.581	20.99
193.8	-11.78
194.02	47.62
194.239	35.33
194.458	12.8
194.678	-26.11
194.897	33.28
195.116	-38.4
195.335	-5.63
195.555	33.28
195.774	25.09
195.993	59.9
196.212	80.38
196.432	-15.87
196.651	121.34
196.87	96.77
197.089	45.57
197.308	-52.74
197.528	29.18
197.747	-1.54
197.966	27.14
198.185	94.72
198.404	33.28
198.623	39.42
198.842	76.29
199.062	64
199.281	68.09
199.5	33.28
199.719	10.75
199.938	31.23
200.157	86.53
200.376	6.66
200.595	-40.45
200.814	-60.93
201.033	51.71
201.252	123.39
201.471	10.75
201.69	-1.54
201.909	27.14
202.128	51.71
202.347	-65.02
202.566	-17.92
202.785	43.52
203.004	-3.58
203.223	82.43
203.442	-3.58
203.661	20.99
203.879	-5.63
204.098	33.28
204.317	45.57
204.536	-19.97
204.755	39.42
204.974	18.94
205.193	-5.63
205.411	-38.4
205.63	20.99
205.849	4.61
206.068	47.62
206.287	31.23
206.505	45.57
206.724	29.18
206.943	6.66
207.162	51.71
207.381	78.33
207.599	51.71
207.818	61.95
208.037	80.38
208.255	8.7
208.474	-3.58
208.693	57.86
208.911	-5.63
209.13	-42.5
209.349	51.71
209.567	55.81
209.786	-52.74
210.005	33.28
210.223	47.62
210.442	27.14
210.661	23.04
210.879	2.56
211.098	-36.35
211.316	16.9
211.535	90.62
211.753	23.04
211.972	33.28
212.191	-3.58
212.409	74.24
212.628	-44.54
212.846	0.51
213.065	20.99
213.283	33.28
213.502	57.86
213.72	-1.54
213.938	-36.35
214.157	2.56
214.375	6.66
214.594	-32.26
214.812	35.33
215.031	6.66
215.249	12.8
215.467	-7.68
215.686	29.18
215.904	76.29
216.122	47.62
216.341	64
216.559	-24.06
216.778	43.52
216.996	29.18
217.214	23.04
217.432	-38.4
217.651	-1.54
217.869	-48.64
218.087	-9.73
218.306	70.14
218.524	72.19
218.742	8.7
218.96	23.04
219.179	12.8
219.397	59.9
219.615	113.15
219.833	29.18
220.051	39.42
220.27	8.7
220.488	-22.02
220.706	12.8
220.924	18.94
221.142	-7.68
221.36	49.66
221.578	2.56
221.796	12.8
222.015	47.62
222.233	39.42
222.451	35.33
222.669	-30.21
222.887	25.09
223.105	92.67
223.323	53.76
223.541	-30.21
223.759	39.42
223.977	-13.82
224.195	55.81
224.413	-15.87
224.631	-15.87
224.849	-19.97
225.067	31.23
225.285	-48.64
225.503	51.71
225.721	-11.78
225.939	57.86
226.157	27.14
226.375	45.57
226.592	4.61
226.81	-17.92
227.028	76.29
227.246	16.9
227.464	-36.35
227.682	-5.63
227.9	80.38
228.117	-15.87
228.335	-3.58
228.553	43.52
228.771	33.28
228.989	47.62
229.206	37.38
229.424	57.86
229.642	27.14
229.86	41.47
230.077	41.47
230.295	16.9
230.513	-9.73
230.731	109.05
230.948	31.23
231.166	10.75
231.384	55.81
231.601	55.81
231.819	29.18
232.037	53.76
232.254	20.99
232.472	80.38
232.689	-30.21
232.907	-17.92
233.125	64
233.342	-7.68
233.56	39.42
233.777	14.85
233.995	-22.02
234.213	12.8
234.43	-1.54
234.648	47.62
234.865	12.8
235.083	45.57
235.3	-28.16
235.518	57.86
235.735	33.28
235.953	55.81
236.17	-22.02
236.388	70.14
236.605	78.33
236.822	59.9
237.04	33.28
237.257	55.81
237.475	10.75
237.692	25.09
237.909	8.7
238.127	-17.92
238.344	16.9
238.562	25.09
238.779	-48.64
238.996	-30.21
239.214	39.42
239.431	80.38
239.648	-1.54
239.865	27.14
240.083	-46.59
240.3	-3.58
240.517	6.66
240.735	16.9
240.952	111.1
241.169	14.85
241.386	-13.82
241.603	-17.92
241.821	-36.35
242.038	102.91
242.255	113.15
242.472	10.75
242.689	-65.02
242.907	-9.73
243.124	37.38
243.341	2.56
243.558	31.23
243.775	-24.06
243.992	-30.21
244.209	111.1
244.426	102.91
244.643	53.76
244.86	90.62
245.078	74.24
245.295	68.09
245.512	-46.59
245.729	57.86
245.946	14.85
246.163	53.76
246.38	72.19
246.597	80.38
246.814	-22.02
247.031	-7.68
247.248	74.24
247.464	2.56
247.681	37.38
247.898	61.95
248.115	37.38
248.332	-15.87
248.549	-11.78
248.766	-17.92
248.983	6.66
249.2	29.18
249.417	18.94
249.633	-26.11
249.85	72.19
250.067	27.14
250.284	10.75
250.501	45.57
250.717	64
250.934	6.66
251.151	27.14
251.368	111.1
251.585	4.61
251.801	43.52
252.018	-46.59
252.235	-17.92
252.451	6.66
252.668	43.52
252.885	64
253.102	115.2
253.318	4.61
253.535	-44.54
253.752	55.81
253.968	25.09
254.185	14.85
254.401	6.66
254.618	100.86
254.835	27.14
255.051	125.44
255.268	74.24
255.484	31.23
255.701	37.38
255.917	141.82
256.134	4.61
256.351	35.33
256.567	-36.35
256.784	-1.54
257	68.09
257.217	10.75
257.433	39.42
257.65	23.04
257.866	14.85
258.082	37.38
258.299	-34.3
258.515	-42.5
258.732	27.14
258.948	-71.17
259.165	-36.35
259.381	-38.4
259.597	61.95
259.814	-22.02
260.03	29.18
260.246	2.56
260.463	-11.78
260.679	66.05
260.895	45.57
261.112	10.75
261.328	-26.11
261.544	23.04
261.761	94.72
261.977	33.28
262.193	25.09
262.409	66.05
262.626	86.53
262.842	2.56
263.058	2.56
263.274	82.43
263.49	23.04
263.707	-9.73
263.923	39.42
264.139	4.61
264.355	-5.63
264.571	51.71
264.787	45.57
265.004	10.75
265.22	-15.87
265.436	18.94
265.652	-26.11
265.868	10.75
266.084	-65.02
266.3	47.62
266.516	39.42
266.732	14.85
266.948	66.05
267.164	90.62
267.38	8.7
267.596	4.61
267.812	68.09
268.028	18.94
268.244	4.61
268.46	59.9
268.676	31.23
268.892	43.52
269.108	-1.54
269.324	37.38
269.54	16.9
269.756	37.38
269.972	-15.87
270.188	-11.78
270.403	29.18
270.619	-11.78
270.835	53.76
271.051	-30.21
271.267	-77.31
271.483	80.38
271.698	10.75
271.914	-19.97
272.13	49.66
272.346	2.56
272.562	29.18
272.777	-42.5
272.993	20.99
273.209	6.66
273.425	47.62
273.64	27.14
273.856	25.09
274.072	18.94
274.287	66.05
274.503	31.23
274.719	-9.73
274.934	94.72
275.15	-62.98
275.366	-15.87
275.581	2.56
275.797	20.99
276.012	104.96
276.228	4.61
276.444	-34.3
276.659	55.81
276.875	43.52
277.09	-46.59
277.306	16.9
277.521	0.51
277.737	10.75
277.952	68.09
278.168	78.33
278.383	92.67
278.599	-28.16
278.814	43.52
279.03	14.85
279.245	20.99
279.461	12.8
279.676	55.81
279.892	27.14
280.107	41.47
280.322	-1.54
280.538	27.14
280.753	29.18
280.969	-28.16
281.184	-24.06
281.399	115.2
281.615	37.38
281.83	31.23
282.045	-32.26
282.26	-42.5
282.476	-24.06
282.691	4.61
282.906	-13.82
283.122	35.33
283.337	-52.74
283.552	78.33
283.767	74.24
283.983	-28.16
284.198	4.61
284.413	25.09
284.628	-5.63
284.843	8.7
285.058	-1.54
285.274	20.99
285.489	-36.35
285.704	55.81
285.919	-34.3
286.134	33.28
286.349	68.09
286.564	18.94
286.779	49.66
286.995	53.76
287.21	-7.68
287.425	39.42
287.64	57.86
287.855	98.81
288.07	18.94
288.285	39.42
288.5	64
288.715	70.14
288.93	-42.5
289.145	8.7
289.36	84.48
289.575	-44.54
289.79	18.94
290.004	-48.64
290.219	115.2
290.434	61.95
290.649	-7.68
290.864	41.47
291.079	12.8
291.294	39.42
291.509	53.76
291.724	29.18
291.938	10.75
292.153	145.92
292.368	96.77
292.583	-11.78
292.798	8.7
293.012	-15.87
293.227	45.57
293.442	66.05
293.657	45.57
293.871	33.28
294.086	6.66
294.301	31.23
294.516	57.86
294.73	96.77
294.945	20.99
295.16	31.23
295.374	10.75
295.589	86.53
295.804	39.42
296.018	61.95
296.233	-46.59
296.447	47.62
296.662	-13.82
296.877	10.75
297.091	35.33
297.306	-52.74
297.52	27.14
297.735	-38.4
297.949	12.8
298.164	78.33
298.378	98.81
298.593	8.7
298.807	-26.11
299.022	-13.82
299.236	29.18
299.451	-19.97
299.665	-46.59
299.88	-17.92
300.094	53.76
300.309	41.47
300.523	57.86
300.737	23.04
300.952	78.33
301.166	-7.68
301.381	14.85
301.595	59.9
301.809	39.42
302.024	82.43
302.238	-81.41
302.452	43.52
302.667	-11.78
302.881	68.09
303.095	29.18
303.309	35.33
303.524	-44.54
303.738	27.14
303.952	8.7
304.166	2.56
304.381	35.33
304.595	61.95
304.809	-26.11
305.023	45.57
305.237	23.04
305.452	4.61
305.666	0.51
305.88	18.94
306.094	-3.58
306.308	31.23
306.522	25.09
306.736	127.49
306.95	59.9
307.164	-9.73
307.379	-13.82
307.593	-1.54
307.807	88.57
308.021	-5.63
308.235	29.18
308.449	2.56
308.663	39.42
308.877	45.57
309.091	86.53
309.305	0.51
309.519	12.8
309.733	64
309.947	25.09
310.161	90.62
310.374	43.52
310.588	27.14
310.802	-7.68
311.016	37.38
311.23	64
311.444	10.75
311.658	47.62
311.872	51.71
312.085	43.52
312.299	31.23
312.513	18.94
312.727	-11.78
312.941	33.28
313.154	4.61
313.368	31.23
313.582	107.01
313.796	68.09
314.009	6.66
314.223	29.18
314.437	-5.63
314.651	64
314.864	-58.88
315.078	37.38
315.292	41.47
315.505	12.8
315.719	23.04
315.933	31.23
316.146	29.18
316.36	-15.87
316.573	-5.63
316.787	-1.54
317.001	-19.97
317.214	6.66
317.428	-17.92
317.641	12.8
317.855	27.14
318.068	2.56
318.282	-7.68
318.495	18.94
318.709	31.23
318.922	0.51
319.136	-38.4
319.349	53.76
319.563	-34.3
319.776	72.19
319.99	51.71
320.203	6.66
320.417	-5.63
320.63	27.14
320.843	111.1
321.057	23.04
321.27	18.94
321.483	-1.54
321.697	-7.68
321.91	45.57
322.124	72.19
322.337	43.52
322.55	0.51
322.763	33.28
322.977	49.66
323.19	86.53
323.403	0.51
323.617	59.9
323.83	14.85
324.043	33.28
324.256	-19.97
324.469	23.04
324.683	66.05
324.896	20.99
325.109	47.62
325.322	-17.92
325.535	80.38
325.748	2.56
325.962	35.33
326.175	92.67
326.388	-32.26
326.601	4.61
326.814	51.71
327.027	16.9
327.24	117.25
327.453	-38.4
327.666	90.62
327.879	-22.02
328.092	-5.63
328.305	35.33
328.518	-34.3
328.731	18.94
328.944	88.57
329.157	6.66
329.37	47.62
329.583	51.71
329.796	39.42
330.009	-5.63
330.222	47.62
330.435	53.76
330.648	43.52
330.861	-17.92
331.073	-7.68
331.286	70.14
331.499	33.28
331.712	31.23
331.925	-36.35
332.138	53.76
332.35	4.61
332.563	18.94
332.776	61.95
332.989	-36.35
333.202	10.75
333.414	41.47
333.627	16.9
333.84	4.61
334.053	-19.97
334.265	47.62
334.478	31.23
334.691	8.7
334.903	-9.73
335.116	10.75
335.329	102.91
335.541	29.18
335.754	55.81
335.966	0.51
336.179	80.38
336.392	4.61
336.604	51.71
336.817	90.62
337.029	53.76
337.242	59.9
337.454	18.94
337.667	18.94
337.88	61.95
338.092	18.94
338.305	0.51
338.517	-3.58
338.729	18.94
338.942	-7.68
339.154	-46.59
339.367	23.04
339.579	66.05
339.792	10.75
340.004	14.85
340.217	53.76
340.429	94.72
340.641	-22.02
340.854	31.23
341.066	61.95
341.278	49.66
341.491	57.86
341.703	51.71
341.915	-9.73
342.128	113.15
342.34	27.14
342.552	61.95
342.764	-1.54
342.977	82.43
343.189	4.61
343.401	59.9
343.613	-19.97
343.826	88.57
344.038	12.8
344.25	39.42
344.462	2.56
344.674	53.76
344.886	23.04
345.099	8.7
345.311	-1.54
345.523	41.47
345.735	-9.73
345.947	-1.54
346.159	-24.06
346.371	45.57
346.583	-22.02
346.795	-11.78
347.007	29.18
347.219	51.71
347.431	-44.54
347.643	74.24
347.855	86.53
348.067	33.28
348.279	-81.41
348.491	10.75
348.703	-36.35
348.915	29.18
349.127	43.52
349.339	35.33
349.551	6.66
349.763	109.05
349.975	47.62
350.187	20.99
350.399	2.56
350.61	66.05
350.822	25.09
351.034	-7.68
351.246	72.19
351.458	84.48
351.669	16.9
351.881	41.47
352.093	-36.35
352.305	14.85
352.517	2.56
352.728	51.71
352.94	102.91
353.152	-24.06
353.363	72.19
353.575	59.9
353.787	84.48
353.999	70.14
354.21	31.23
354.422	-11.78
354.633	-11.78
354.845	80.38
355.057	47.62
355.268	27.14
355.48	51.71
355.692	-36.35
355.903	-1.54
356.115	59.9
356.326	-38.4
356.538	94.72
356.749	20.99
356.961	25.09
357.172	-3.58
357.384	-22.02
357.595	68.09
357.807	0.51
358.018	98.81
358.23	4.61
358.441	78.33
358.653	59.9
358.864	33.28
359.075	4.61
359.287	51.71
359.498	51.71
359.709	12.8
359.921	70.14
360.132	45.57
360.344	74.24
360.555	4.61
360.766	86.53
360.977	86.53
361.189	57.86
361.4	-11.78
361.611	29.18
361.823	37.38
362.034	64
362.245	41.47
362.456	27.14
362.667	104.96
362.879	76.29
363.09	-5.63
363.301	84.48
363.512	47.62
363.723	-7.68
363.935	37.38
364.146	94.72
364.357	37.38
364.568	70.14
364.779	27.14
364.99	111.1
365.201	70.14
365.412	57.86
365.623	-38.4
365.834	41.47
366.045	53.76
366.256	64
366.467	-3.58
366.678	-19.97
366.889	0.51
367.1	57.86
367.311	57.86
367.522	-11.78
367.733	100.86
367.944	72.19
368.155	117.25
368.366	94.72
368.577	4.61
368.788	18.94
368.999	14.85
369.209	53.76
369.42	68.09
369.631	76.29
369.842	-24.06
370.053	111.1
370.264	61.95
370.474	-9.73
370.685	66.05
370.896	47.62
371.107	158.21
371.317	49.66
371.528	37.38
371.739	47.62
371.95	20.99
372.16	135.68
372.371	25.09
372.582	72.19
372.792	47.62
373.003	0.51
373.214	39.42
373.424	76.29
373.635	12.8
373.846	53.76
374.056	10.75
374.267	25.09
374.477	43.52
374.688	51.71
374.898	68.09
375.109	64
375.319	88.57
375.53	39.42
375.74	66.05
375.951	25.09
376.161	37.38
376.372	33.28
376.582	2.56
376.793	74.24
377.003	12.8
377.214	-11.78
377.424	27.14
377.635	33.28
377.845	129.53
378.055	72.19
378.266	-9.73
378.476	45.57
378.686	35.33
378.897	23.04
379.107	61.95
379.317	92.67
379.528	6.66
379.738	90.62
379.948	78.33
380.158	41.47
380.369	45.57
380.579	14.85
380.789	86.53
380.999	84.48
381.21	86.53
381.42	64
381.63	80.38
381.84	10.75
382.05	29.18
382.261	80.38
382.471	29.18
382.681	98.81
382.891	119.29
383.101	102.91
383.311	41.47
383.521	53.76
383.731	12.8
383.941	88.57
384.151	80.38
384.361	53.76
384.571	27.14
384.781	-17.92
384.991	102.91
385.201	51.71
385.411	45.57
385.621	41.47
385.831	61.95
386.041	18.94
386.251	76.29
386.461	80.38
386.671	51.71
386.881	-13.82
387.091	94.72
387.301	25.09
387.511	14.85
387.72	47.62
387.93	53.76
388.14	76.29
388.35	72.19
388.56	111.1
388.769	86.53
388.979	64
389.189	47.62
389.399	16.9
389.609	74.24
389.818	92.67
390.028	53.76
390.238	-13.82
390.447	72.19
390.657	53.76
390.867	-7.68
391.076	25.09
391.286	150.01
391.496	12.8
391.705	29.18
391.915	27.14
392.125	43.52
392.334	82.43
392.544	68.09
392.753	33.28
392.963	45.57
393.172	113.15
393.382	70.14
393.591	6.66
393.801	16.9
394.01	98.81
394.22	92.67
394.429	64
394.639	43.52
394.848	66.05
395.058	90.62
395.267	76.29
395.477	43.52
395.686	115.2
395.895	61.95
396.105	150.01
396.314	29.18
396.524	88.57
396.733	18.94
396.942	123.39
397.152	172.54
397.361	102.91
397.57	37.38
397.78	-7.68
397.989	51.71
398.198	113.15
398.407	135.68
398.617	76.29
398.826	141.82
399.035	59.9
399.244	123.39
399.453	47.62
399.663	129.53
399.872	59.9
400.081	98.81
400.29	117.25
400.499	104.96
400.708	96.77
400.917	16.9
401.127	156.16
401.336	29.18
401.545	213.5
401.754	137.73
401.963	127.49
402.172	57.86
402.381	111.1
402.59	102.91
402.799	133.63
403.008	80.38
403.217	135.68
403.426	66.05
403.635	49.66
403.844	193.02
404.053	66.05
404.262	41.47
404.471	170.49
404.68	45.57
404.888	133.63
405.097	96.77
405.306	213.5
405.515	70.14
405.724	111.1
405.933	176.64
406.142	98.81
406.35	143.87
406.559	176.64
406.768	188.93
406.977	180.73
407.185	129.53
407.394	125.44
407.603	272.89
407.812	184.83
408.02	233.98
408.229	219.64
408.438	238.08
408.646	207.36
408.855	176.64
409.064	326.14
409.272	213.5
409.481	270.84
409.69	276.99
409.898	211.45
410.107	301.56
410.315	317.95
410.524	274.94
410.733	289.28
410.941	238.08
411.15	352.76
411.358	348.67
411.567	332.28
411.775	391.67
411.984	438.78
412.192	301.56
412.401	360.95
412.609	422.39
412.818	416.25
413.026	481.78
413.234	418.3
413.443	446.97
413.651	471.54
413.86	481.78
414.068	596.47
414.276	473.59
414.485	520.7
414.693	629.24
414.901	625.14
415.11	664.05
415.318	641.53
415.526	711.16
415.734	674.29
415.943	776.69
416.151	791.03
416.359	719.35
416.567	717.3
416.776	850.42
416.984	834.04
417.192	823.8
417.4	879.09
417.608	827.89
417.817	989.68
418.025	1010.16
418.233	1020.4
418.441	969.2
418.649	1024.5
418.857	1200.62
419.065	1128.94
419.273	1108.46
419.481	1192.43
419.689	1245.68
419.897	1395.18
420.105	1343.98
420.313	1325.55
420.521	1382.89
420.729	1491.43
420.937	1417.71
421.145	1632.74
421.353	1597.93
421.561	1587.69
421.769	1769.96
421.977	1706.47
422.185	1788.39
422.393	1952.23
422.601	2087.39
422.809	2054.62
423.017	2114.02
423.224	2224.61
423.432	2275.81
423.64	2226.65
423.848	2437.59
424.056	2361.82
424.263	2662.87
424.471	2644.44
424.679	2580.95
424.887	2705.88
425.094	2861.52
425.302	2855.38
425.51	2863.57
425.718	2972.11
425.925	3047.89
426.133	3252.69
426.341	3277.26
426.548	3537.35
426.756	3584.46
426.964	3574.22
427.171	3819.97
427.379	3881.41
427.586	3985.86
427.794	4075.97
428.001	4100.55
428.209	4454.84
428.417	4227.52
428.624	4637.11
428.832	4673.98
429.039	4608.44
429.247	4725.18
429.454	5030.32
429.662	5396.91
429.869	5159.35
430.076	5519.79
430.284	5300.66
430.491	5489.07
430.699	5824.94
430.906	5779.88
431.114	5935.53
431.321	6082.98
431.528	6431.13
431.736	6629.79
431.943	7012.76
432.15	6689.18
432.358	6738.33
432.565	7117.2
432.772	7258.51
432.979	7586.19
433.187	7504.27
433.394	7633.29
433.601	8272.26
433.808	8278.4
434.016	8182.15
434.223	8601.98
434.43	9093.49
434.637	8794.49
434.844	9394.54
435.052	9591.15
435.259	9546.09
435.466	9650.54
435.673	9695.6
435.88	10176.87
436.087	10912.09
436.294	10588.51
436.501	10606.94
436.708	10588.51
436.915	11276.63
437.122	11530.58
437.329	11534.67
437.537	11749.71
437.743	12161.35
437.95	12099.91
438.157	12648.77
438.364	13123.9
438.571	13095.22
438.778	13214.01
438.985	14211.37
439.192	13848.88
439.399	14168.36
439.606	13955.37
439.813	14594.34
440.02	15591.7
440.227	15401.24
440.433	15143.19
440.64	15638.8
440.847	15493.4
441.054	15790.35
441.261	17023.23
441.467	16871.68
441.674	17264.89
441.881	17621.24
442.088	17656.05
442.294	17588.47
442.501	18067.69
442.708	18477.29
442.914	18993.37
443.121	19974.35
443.328	19192.03
443.534	20857.03
443.741	20177.1
443.948	19874
444.154	21495.99
444.361	21121.21
444.568	21471.42
444.774	21594.29
444.981	21563.57
445.187	22151.34
445.394	23005.34
445.6	22714.53
445.807	24928.39
446.013	24125.58
446.22	24467.59
446.426	25802.87
446.633	25612.41
446.839	26329.2
447.046	25413.76
447.252	27080.8
447.459	26699.88
447.665	26873.96
447.871	27850.84
448.078	28846.15
448.284	27662.43
448.491	28289.1
448.697	29356.1
448.903	29986.87
449.11	30502.96
449.316	29593.66
449.522	30218.29
449.728	30998.57
449.935	30896.17
450.141	31225.89
450.347	31981.59
450.553	30996.52
450.76	31383.59
450.966	32235.54
451.172	31983.64
451.378	33052.68
451.584	32198.68
451.791	32774.16
451.997	32794.64
452.203	33447.94
452.409	33447.94
452.615	33077.26
452.821	32196.63
453.027	32002.07
453.233	33417.22
453.44	32133.14
453.646	32382.99
453.852	32636.94
454.058	33218.57
454.264	32290.84
454.47	32968.71
454.676	32127
454.882	33056.78
455.088	30355.5
455.294	30756.91
455.5	31057.96
455.705	32055.32
455.911	30101.56
456.117	29714.49
456.323	29306.94
456.529	27697.24
456.735	28848.2
456.941	28377.17
457.147	27945.05
457.352	26966.12
457.558	26511.47
457.764	26613.87
457.97	26161.26
458.176	25542.78
458.381	25698.42
458.587	24520.84
458.793	24430.73
458.999	22952.1
459.204	24936.58
459.41	24051.86
459.616	22440.11
459.821	22505.64
460.027	22286.51
460.233	22028.46
460.438	20840.64
460.644	21334.2
460.85	20005.07
461.055	19513.56
461.261	19448.02
461.466	18311.4
461.672	17813.74
461.878	19046.62
462.083	17871.09
462.289	17428.73
462.494	17268.98
462.7	16630.02
462.905	16021.77
463.111	16591.11
463.316	16718.08
463.522	16275.72
463.727	16285.96
463.932	16163.08
464.138	16099.59
464.343	16148.75
464.549	15386.9
464.754	16267.53
464.959	16208.14
465.165	15966.48
465.37	15274.26
465.575	14725.41
465.781	15378.71
465.986	15374.61
466.191	15231.26
466.397	14686.5
466.602	14068.01
466.807	14651.68
467.012	14735.65
467.218	14600.48
467.423	14131.5
467.628	14414.12
467.833	14815.52
468.038	14199.08
468.244	13967.66
