Data from USB4F104151__45__11-45-07-730.txt Node

Date: Fri Mar 14 11:45:07 EDT 2025
User: louis
Spectrometer: USB4F10415
Trigger mode: 4
Integration Time (sec): 2.000000E-2
Scans to average: 1
Electric dark correction enabled: true
Nonlinearity correction enabled: false
Boxcar width: 0
XAxis mode: Wavelengths
Number of Pixels in Spectrum: 3648
>>>>>Begin Spectral Data<<<<<
178.204	-41.64
178.424	-41.64
178.644	-41.64
178.864	-8.87
179.084	-43.69
179.304	-4.78
179.524	-10.92
179.744	5.46
179.964	83.28
180.184	-37.55
180.404	-19.11
180.624	9.56
180.844	-33.45
181.064	-19.11
181.283	-4.78
181.503	11.61
181.723	19.8
181.943	-15.02
182.163	52.56
182.383	11.61
182.602	11.61
182.822	54.61
183.042	46.42
183.262	30.04
183.482	-6.83
183.701	40.28
183.921	48.47
184.141	38.23
184.361	68.95
184.58	120.15
184.8	44.37
185.02	17.75
185.239	56.66
185.459	-84.65
185.679	60.76
185.898	46.42
186.118	83.28
186.338	-10.92
186.557	66.9
186.777	64.85
186.997	-17.07
187.216	120.15
187.436	99.67
187.655	5.46
187.875	19.8
188.095	79.19
188.314	60.76
188.534	58.71
188.753	5.46
188.973	9.56
189.192	17.75
189.412	25.94
189.631	25.94
189.851	-0.68
190.07	77.14
190.29	71
190.509	-21.16
190.729	32.08
190.948	17.75
191.168	87.38
191.387	9.56
191.607	32.08
191.826	44.37
192.045	17.75
192.265	27.99
192.484	107.86
192.704	32.08
192.923	3.41
193.142	66.9
193.362	44.37
193.581	32.08
193.8	30.04
194.02	54.61
194.239	34.13
194.458	-8.87
194.678	17.75
194.897	-15.02
195.116	58.71
195.335	-49.83
195.555	1.37
195.774	-2.73
195.993	-0.68
196.212	34.13
196.432	15.7
196.651	-23.21
196.87	-0.68
197.089	107.86
197.308	-12.97
197.528	-8.87
197.747	64.85
197.966	38.23
198.185	68.95
198.404	-6.83
198.623	50.52
198.842	21.84
199.062	68.95
199.281	68.95
199.5	58.71
199.719	-8.87
199.938	60.76
200.157	54.61
200.376	-35.5
200.595	19.8
200.814	38.23
201.033	52.56
201.252	27.99
201.471	1.37
201.69	40.28
201.909	50.52
202.128	-31.4
202.347	23.89
202.566	38.23
202.785	46.42
203.004	66.9
203.223	89.43
203.442	44.37
203.661	73.04
203.879	17.75
204.098	44.37
204.317	50.52
204.536	-2.73
204.755	64.85
204.974	103.76
205.193	-25.26
205.411	48.47
205.63	62.8
205.849	38.23
206.068	52.56
206.287	32.08
206.505	52.56
206.724	9.56
206.943	34.13
207.162	46.42
207.381	83.28
207.599	-35.5
207.818	25.94
208.037	52.56
208.255	27.99
208.474	9.56
208.693	34.13
208.911	9.56
209.13	40.28
209.349	58.71
209.567	83.28
209.786	107.86
210.005	40.28
210.223	-27.31
210.442	46.42
210.661	27.99
210.879	-17.07
211.098	97.62
211.316	-29.35
211.535	-4.78
211.753	44.37
211.972	56.66
212.191	1.37
212.409	-37.55
212.628	60.76
212.846	93.52
213.065	23.89
213.283	105.81
213.502	-37.55
213.72	-51.88
213.938	73.04
214.157	25.94
214.375	42.32
214.594	58.71
214.812	89.43
215.031	36.18
215.249	30.04
215.467	30.04
215.686	-0.68
215.904	46.42
216.122	-2.73
216.341	97.62
216.559	30.04
216.778	58.71
216.996	-10.92
217.214	27.99
217.432	-23.21
217.651	-12.97
217.869	21.84
218.087	19.8
218.306	-12.97
218.524	56.66
218.742	1.37
218.96	152.91
219.179	15.7
219.397	58.71
219.615	32.08
219.833	62.8
220.051	36.18
220.27	52.56
220.488	46.42
220.706	46.42
220.924	3.41
221.142	34.13
221.36	44.37
221.578	81.24
221.796	38.23
222.015	-43.69
222.233	9.56
222.451	79.19
222.669	3.41
222.887	-33.45
223.105	-4.78
223.323	-10.92
223.541	42.32
223.759	-23.21
223.977	64.85
224.195	62.8
224.413	-25.26
224.631	99.67
224.849	46.42
225.067	81.24
225.285	75.09
225.503	-6.83
225.721	-10.92
225.939	30.04
226.157	66.9
226.375	107.86
226.592	-2.73
226.81	89.43
227.028	77.14
227.246	46.42
227.464	-19.11
227.682	34.13
227.9	27.99
228.117	68.95
228.335	11.61
228.553	13.65
228.771	-29.35
228.989	42.32
229.206	-41.64
229.424	11.61
229.642	21.84
229.86	36.18
230.077	62.8
230.295	75.09
230.513	56.66
230.731	81.24
230.948	66.9
231.166	17.75
231.384	7.51
231.601	-6.83
231.819	81.24
232.037	44.37
232.254	62.8
232.472	30.04
232.689	1.37
232.907	56.66
233.125	-6.83
233.342	-10.92
233.56	9.56
233.777	58.71
233.995	52.56
234.213	62.8
234.43	42.32
234.648	-6.83
234.865	9.56
235.083	103.76
235.3	-29.35
235.518	19.8
235.735	132.44
235.953	93.52
236.17	-19.11
236.388	-37.55
236.605	7.51
236.822	116.05
237.04	-12.97
237.257	60.76
237.475	52.56
237.692	-10.92
237.909	75.09
238.127	34.13
238.344	46.42
238.562	-12.97
238.779	21.84
238.996	-19.11
239.214	27.99
239.431	79.19
239.648	60.76
239.865	46.42
240.083	71
240.3	60.76
240.517	30.04
240.735	15.7
240.952	46.42
241.169	56.66
241.386	103.76
241.603	44.37
241.821	-8.87
242.038	-55.98
242.255	64.85
242.472	42.32
242.689	7.51
242.907	109.91
243.124	-58.03
243.341	46.42
243.558	15.7
243.775	38.23
243.992	9.56
244.209	87.38
244.426	-21.16
244.643	7.51
244.86	13.65
245.078	52.56
245.295	-45.74
245.512	7.51
245.729	-2.73
245.946	58.71
246.163	42.32
246.38	21.84
246.597	83.28
246.814	95.57
247.031	83.28
247.248	52.56
247.464	81.24
247.681	9.56
247.898	5.46
248.115	-2.73
248.332	5.46
248.549	58.71
248.766	9.56
248.983	23.89
249.2	73.04
249.417	64.85
249.633	1.37
249.85	15.7
250.067	40.28
250.284	13.65
250.501	50.52
250.717	48.47
250.934	-8.87
251.151	1.37
251.368	9.56
251.585	-12.97
251.801	34.13
252.018	42.32
252.235	21.84
252.451	81.24
252.668	85.33
252.885	64.85
253.102	-2.73
253.318	75.09
253.535	48.47
253.752	64.85
253.968	-10.92
254.185	32.08
254.401	17.75
254.618	-8.87
254.835	-23.21
255.051	13.65
255.268	40.28
255.484	1.37
255.701	-55.98
255.917	3.41
256.134	95.57
256.351	13.65
256.567	1.37
256.784	-4.78
257	-19.11
257.217	23.89
257.433	62.8
257.65	42.32
257.866	25.94
258.082	56.66
258.299	17.75
258.515	89.43
258.732	111.96
258.948	42.32
259.165	83.28
259.381	25.94
259.597	-29.35
259.814	40.28
260.03	64.85
260.246	17.75
260.463	23.89
260.679	89.43
260.895	25.94
261.112	103.76
261.328	9.56
261.544	73.04
261.761	56.66
261.977	71
262.193	-0.68
262.409	77.14
262.626	19.8
262.842	83.28
263.058	52.56
263.274	11.61
263.49	87.38
263.707	64.85
263.923	-27.31
264.139	79.19
264.355	58.71
264.571	48.47
264.787	89.43
265.004	87.38
265.22	48.47
265.436	7.51
265.652	11.61
265.868	58.71
266.084	11.61
266.3	34.13
266.516	-2.73
266.732	32.08
266.948	-29.35
267.164	97.62
267.38	-29.35
267.596	36.18
267.812	32.08
268.028	48.47
268.244	42.32
268.46	3.41
268.676	27.99
268.892	89.43
269.108	-4.78
269.324	54.61
269.54	21.84
269.756	103.76
269.972	-25.26
270.188	71
270.403	23.89
270.619	83.28
270.835	19.8
271.051	-6.83
271.267	32.08
271.483	36.18
271.698	62.8
271.914	46.42
272.13	38.23
272.346	23.89
272.562	-0.68
272.777	34.13
272.993	-8.87
273.209	50.52
273.425	7.51
273.64	79.19
273.856	27.99
274.072	-10.92
274.287	-15.02
274.503	13.65
274.719	-0.68
274.934	44.37
275.15	-74.41
275.366	-12.97
275.581	46.42
275.797	-4.78
276.012	1.37
276.228	9.56
276.444	73.04
276.659	1.37
276.875	17.75
277.09	21.84
277.306	1.37
277.521	-4.78
277.737	81.24
277.952	161.11
278.168	36.18
278.383	42.32
278.599	25.94
278.814	-4.78
279.03	56.66
279.245	48.47
279.461	60.76
279.676	68.95
279.892	77.14
280.107	91.48
280.322	21.84
280.538	38.23
280.753	118.1
280.969	58.71
281.184	25.94
281.399	19.8
281.615	-21.16
281.83	21.84
282.045	-4.78
282.26	9.56
282.476	34.13
282.691	-55.98
282.906	32.08
283.122	-25.26
283.337	97.62
283.552	48.47
283.767	-19.11
283.983	44.37
284.198	-4.78
284.413	83.28
284.628	30.04
284.843	62.8
285.058	105.81
285.274	54.61
285.489	87.38
285.704	27.99
285.919	32.08
286.134	25.94
286.349	19.8
286.564	23.89
286.779	48.47
286.995	71
287.21	34.13
287.425	71
287.64	-15.02
287.855	66.9
288.07	11.61
288.285	52.56
288.5	21.84
288.715	25.94
288.93	-23.21
289.145	1.37
289.36	7.51
289.575	3.41
289.79	-29.35
290.004	58.71
290.219	54.61
290.434	50.52
290.649	-45.74
290.864	9.56
291.079	34.13
291.294	77.14
291.509	99.67
291.724	111.96
291.938	23.89
292.153	40.28
292.368	-37.55
292.583	93.52
292.798	30.04
293.012	27.99
293.227	15.7
293.442	44.37
293.657	144.72
293.871	27.99
294.086	93.52
294.301	91.48
294.516	68.95
294.73	58.71
294.945	-21.16
295.16	-27.31
295.374	71
295.589	9.56
295.804	48.47
296.018	27.99
296.233	32.08
296.447	46.42
296.662	-39.59
296.877	36.18
297.091	89.43
297.306	7.51
297.52	60.76
297.735	42.32
297.949	64.85
298.164	-25.26
298.378	64.85
298.593	27.99
298.807	32.08
299.022	19.8
299.236	91.48
299.451	17.75
299.665	-47.79
299.88	-19.11
300.094	3.41
300.309	56.66
300.523	91.48
300.737	9.56
300.952	126.29
301.166	38.23
301.381	34.13
301.595	62.8
301.809	-0.68
302.024	48.47
302.238	75.09
302.452	60.76
302.667	34.13
302.881	81.24
303.095	85.33
303.309	23.89
303.524	79.19
303.738	64.85
303.952	7.51
304.166	-2.73
304.381	-2.73
304.595	111.96
304.809	-10.92
305.023	56.66
305.237	-33.45
305.452	58.71
305.666	73.04
305.88	60.76
306.094	79.19
306.308	40.28
306.522	27.99
306.736	21.84
306.95	48.47
307.164	75.09
307.379	58.71
307.593	23.89
307.807	32.08
308.021	56.66
308.235	79.19
308.449	42.32
308.663	36.18
308.877	120.15
309.091	99.67
309.305	11.61
309.519	-8.87
309.733	120.15
309.947	21.84
310.161	11.61
310.374	109.91
310.588	48.47
310.802	7.51
311.016	19.8
311.23	60.76
311.444	1.37
311.658	97.62
311.872	-17.07
312.085	13.65
312.299	83.28
312.513	73.04
312.727	52.56
312.941	60.76
313.154	42.32
313.368	34.13
313.582	60.76
313.796	32.08
314.009	27.99
314.223	9.56
314.437	77.14
314.651	46.42
314.864	58.71
315.078	-17.07
315.292	50.52
315.505	-8.87
315.719	32.08
315.933	17.75
316.146	-33.45
316.36	73.04
316.573	17.75
316.787	1.37
317.001	42.32
317.214	32.08
317.428	9.56
317.641	34.13
317.855	71
318.068	30.04
318.282	15.7
318.495	58.71
318.709	27.99
318.922	17.75
319.136	114
319.349	52.56
319.563	27.99
319.776	54.61
319.99	46.42
320.203	36.18
320.417	83.28
320.63	89.43
320.843	40.28
321.057	21.84
321.27	-15.02
321.483	81.24
321.697	111.96
321.91	44.37
322.124	34.13
322.337	40.28
322.55	19.8
322.763	-27.31
322.977	-19.11
323.19	17.75
323.403	60.76
323.617	71
323.83	136.53
324.043	23.89
324.256	77.14
324.469	-19.11
324.683	77.14
324.896	-35.5
325.109	-0.68
325.322	48.47
325.535	34.13
325.748	-35.5
325.962	38.23
326.175	27.99
326.388	60.76
326.601	56.66
326.814	-4.78
327.027	52.56
327.24	-19.11
327.453	-45.74
327.666	73.04
327.879	101.72
328.092	54.61
328.305	75.09
328.518	52.56
328.731	46.42
328.944	21.84
329.157	75.09
329.37	71
329.583	111.96
329.796	64.85
330.009	3.41
330.222	25.94
330.435	64.85
330.648	48.47
330.861	-6.83
331.073	109.91
331.286	3.41
331.499	-23.21
331.712	-2.73
331.925	93.52
332.138	40.28
332.35	3.41
332.563	21.84
332.776	71
332.989	56.66
333.202	42.32
333.414	36.18
333.627	25.94
333.84	1.37
334.053	23.89
334.265	25.94
334.478	-47.79
334.691	66.9
334.903	103.76
335.116	62.8
335.329	83.28
335.541	1.37
335.754	40.28
335.966	21.84
336.179	7.51
336.392	89.43
336.604	-27.31
336.817	-6.83
337.029	34.13
337.242	3.41
337.454	25.94
337.667	3.41
337.88	116.05
338.092	15.7
338.305	32.08
338.517	-17.07
338.729	25.94
338.942	91.48
339.154	42.32
339.367	-2.73
339.579	9.56
339.792	71
340.004	13.65
340.217	13.65
340.429	25.94
340.641	-31.4
340.854	159.06
341.066	-15.02
341.278	21.84
341.491	56.66
341.703	42.32
341.915	118.1
342.128	-35.5
342.34	30.04
342.552	42.32
342.764	34.13
342.977	103.76
343.189	3.41
343.401	38.23
343.613	46.42
343.826	13.65
344.038	50.52
344.25	46.42
344.462	25.94
344.674	23.89
344.886	34.13
345.099	36.18
345.311	1.37
345.523	-4.78
345.735	-0.68
345.947	107.86
346.159	1.37
346.371	34.13
346.583	66.9
346.795	75.09
347.007	42.32
347.219	-10.92
347.431	-27.31
347.643	13.65
347.855	-17.07
348.067	-0.68
348.279	48.47
348.491	114
348.703	3.41
348.915	23.89
349.127	7.51
349.339	62.8
349.551	32.08
349.763	50.52
349.975	-25.26
350.187	58.71
350.399	93.52
350.61	-4.78
350.822	44.37
351.034	91.48
351.246	68.95
351.458	85.33
351.669	-10.92
351.881	62.8
352.093	87.38
352.305	17.75
352.517	58.71
352.728	81.24
352.94	27.99
353.152	97.62
353.363	81.24
353.575	15.7
353.787	50.52
353.999	126.29
354.21	64.85
354.422	-2.73
354.633	40.28
354.845	21.84
355.057	17.75
355.268	19.8
355.48	54.61
355.692	-31.4
355.903	58.71
356.115	30.04
356.326	62.8
356.538	52.56
356.749	48.47
356.961	27.99
357.172	27.99
357.384	71
357.595	23.89
357.807	40.28
358.018	-6.83
358.23	3.41
358.441	68.95
358.653	30.04
358.864	77.14
359.075	97.62
359.287	87.38
359.498	122.2
359.709	34.13
359.921	89.43
360.132	132.44
360.344	56.66
360.555	-12.97
360.766	85.33
360.977	5.46
361.189	46.42
361.4	-6.83
361.611	101.72
361.823	60.76
362.034	-45.74
362.245	34.13
362.456	85.33
362.667	13.65
362.879	1.37
363.09	5.46
363.301	68.95
363.512	68.95
363.723	38.23
363.935	116.05
364.146	73.04
364.357	21.84
364.568	27.99
364.779	13.65
364.99	85.33
365.201	-2.73
365.412	56.66
365.623	9.56
365.834	40.28
366.045	48.47
366.256	107.86
366.467	103.76
366.678	58.71
366.889	23.89
367.1	105.81
367.311	1.37
367.522	62.8
367.733	91.48
367.944	21.84
368.155	48.47
368.366	17.75
368.577	81.24
368.788	3.41
368.999	-35.5
369.209	56.66
369.42	62.8
369.631	97.62
369.842	19.8
370.053	52.56
370.264	105.81
370.474	62.8
370.685	7.51
370.896	52.56
371.107	30.04
371.317	75.09
371.528	79.19
371.739	73.04
371.95	95.57
372.16	50.52
372.371	58.71
372.582	27.99
372.792	71
373.003	79.19
373.214	17.75
373.424	93.52
373.635	73.04
373.846	58.71
374.056	81.24
374.267	71
374.477	101.72
374.688	15.7
374.898	19.8
375.109	73.04
375.319	124.24
375.53	71
375.74	73.04
375.951	54.61
376.161	77.14
376.372	56.66
376.582	7.51
376.793	64.85
377.003	-35.5
377.214	46.42
377.424	87.38
377.635	66.9
377.845	73.04
378.055	60.76
378.266	25.94
378.476	21.84
378.686	1.37
378.897	60.76
379.107	48.47
379.317	85.33
379.528	81.24
379.738	122.2
379.948	-51.88
380.158	83.28
380.369	73.04
380.579	40.28
380.789	23.89
380.999	120.15
381.21	132.44
381.42	83.28
381.63	66.9
381.84	50.52
382.05	15.7
382.261	27.99
382.471	5.46
382.681	1.37
382.891	21.84
383.101	42.32
383.311	46.42
383.521	42.32
383.731	15.7
383.941	27.99
384.151	5.46
384.361	25.94
384.571	87.38
384.781	-35.5
384.991	91.48
385.201	73.04
385.411	46.42
385.621	60.76
385.831	77.14
386.041	79.19
386.251	50.52
386.461	73.04
386.671	-33.45
386.881	17.75
387.091	50.52
387.301	-19.11
387.511	27.99
387.72	58.71
387.93	-8.87
388.14	-53.93
388.35	15.7
388.56	68.95
388.769	30.04
388.979	-10.92
389.189	66.9
389.399	66.9
389.609	46.42
389.818	21.84
390.028	44.37
390.238	40.28
390.447	56.66
390.657	15.7
390.867	-15.02
391.076	3.41
391.286	87.38
391.496	21.84
391.705	44.37
391.915	87.38
392.125	81.24
392.334	109.91
392.544	146.77
392.753	79.19
392.963	23.89
393.172	83.28
393.382	27.99
393.591	99.67
393.801	-8.87
394.01	48.47
394.22	34.13
394.429	1.37
394.639	54.61
394.848	54.61
395.058	73.04
395.267	27.99
395.477	99.67
395.686	60.76
395.895	163.15
396.105	118.1
396.314	-2.73
396.524	62.8
396.733	-2.73
396.942	124.24
397.152	73.04
397.361	91.48
397.57	50.52
397.78	79.19
397.989	103.76
398.198	87.38
398.407	66.9
398.617	46.42
398.826	118.1
399.035	34.13
399.244	101.72
399.453	71
399.663	30.04
399.872	101.72
400.081	56.66
400.29	144.72
400.499	46.42
400.708	138.58
400.917	32.08
401.127	103.76
401.336	62.8
401.545	150.87
401.754	99.67
401.963	38.23
402.172	95.57
402.381	128.34
402.59	79.19
402.799	101.72
403.008	38.23
403.217	118.1
403.426	97.62
403.635	85.33
403.844	48.47
404.053	109.91
404.262	34.13
404.471	157.01
404.68	54.61
404.888	148.82
405.097	66.9
405.306	66.9
405.515	116.05
405.724	95.57
405.933	202.07
406.142	120.15
406.35	105.81
406.559	71
406.768	99.67
406.977	163.15
407.185	173.39
407.394	146.77
407.603	87.38
407.812	157.01
408.02	169.3
408.229	161.11
408.438	148.82
408.646	195.92
408.855	146.77
409.064	163.15
409.272	204.11
409.481	171.35
409.69	150.87
409.898	202.07
410.107	212.31
410.315	187.73
410.524	171.35
410.733	224.59
410.941	265.55
411.15	294.22
411.358	269.65
411.567	298.32
411.775	308.56
411.984	304.46
412.192	283.98
412.401	236.88
412.609	353.62
412.818	353.62
413.026	283.98
413.234	353.62
413.443	382.29
413.651	304.46
413.86	400.72
414.068	458.06
414.276	472.4
414.485	431.44
414.693	423.25
414.901	468.3
415.11	464.21
415.318	505.17
415.526	533.84
415.734	558.41
415.943	542.03
416.151	580.94
416.359	542.03
416.567	527.69
416.776	531.79
416.984	636.24
417.192	587.08
417.4	689.48
417.608	707.91
417.817	669
418.025	755.02
418.233	845.13
418.441	736.59
418.649	755.02
418.857	800.07
419.065	892.23
419.273	855.37
419.481	890.18
419.689	978.25
419.897	978.25
420.105	1035.59
420.313	939.33
420.521	1187.14
420.729	1131.84
420.937	1092.93
421.145	1172.8
421.353	1176.9
421.561	1295.68
421.769	1355.07
421.977	1355.07
422.185	1285.44
422.393	1465.66
422.601	1506.62
422.809	1482.05
423.017	1570.11
423.224	1557.82
423.432	1606.97
423.64	1592.64
423.848	1750.33
424.056	1674.56
424.263	1813.82
424.471	1842.49
424.679	1932.6
424.887	1948.98
425.094	2157.88
425.302	2106.68
425.51	2213.17
425.718	2315.57
425.925	2217.27
426.133	2377.01
426.341	2473.26
426.548	2544.94
426.756	2581.81
426.964	2565.42
427.171	2780.46
427.379	2811.18
427.586	2972.97
427.794	2913.58
428.001	3130.66
428.209	3202.34
428.417	3175.72
428.624	3552.54
428.832	3474.72
429.039	3343.65
429.247	3353.89
429.454	3781.92
429.662	3892.51
429.869	3716.38
430.076	3996.95
430.284	3878.17
430.491	3970.33
430.699	4334.87
430.906	4355.35
431.114	4334.87
431.321	4513.04
431.528	4697.36
431.736	4797.71
431.943	5123.34
432.15	4959.5
432.358	4926.73
432.565	5223.69
432.772	5270.79
432.979	5582.08
433.187	5668.09
433.394	5647.62
433.601	6049.02
433.808	6077.69
434.016	6036.73
434.223	6241.53
434.43	6552.82
434.637	6431.99
434.844	6741.23
435.052	7085.29
435.259	7003.37
435.466	7236.84
435.673	6974.7
435.88	7443.68
436.087	7787.74
436.294	7779.55
436.501	7720.16
436.708	7978.2
436.915	8068.31
437.122	8373.46
437.329	8238.3
437.537	8608.98
437.743	8824.01
437.95	8625.36
438.157	9182.41
438.364	9458.89
438.571	9630.91
438.778	9637.06
438.985	10355.9
439.192	10149.05
439.399	10355.9
439.606	10075.32
439.813	10822.83
440.02	11324.58
440.227	11310.25
440.433	11037.87
440.64	11476.13
440.847	11283.63
441.054	11740.32
441.261	12461.21
441.467	12287.13
441.674	12336.28
441.881	12780.69
442.088	12901.52
442.294	13005.97
442.501	12989.58
442.708	13288.59
442.914	13933.7
443.121	14570.61
443.328	14161.02
443.534	15076.46
443.741	14742.64
443.948	14339.19
444.154	15547.5
444.361	15504.49
444.568	15653.99
444.774	15467.63
444.981	15930.47
445.187	16348.25
445.394	16960.59
445.6	16626.78
445.807	18265.15
446.013	17568.84
446.22	17740.87
446.426	18455.61
446.633	18631.74
446.839	19151.92
447.046	18306.11
447.252	19565.61
447.459	19426.35
447.665	19227.7
447.871	20321.31
448.078	21228.56
448.284	20173.86
448.491	20894.74
448.697	21511.18
448.903	21976.07
449.11	22133.76
449.316	21589
449.522	21779.47
449.728	22682.62
449.935	23004.15
450.141	22766.59
450.347	23241.71
450.553	22950.9
450.76	23012.34
450.966	23862.25
451.172	23624.68
451.378	23882.73
451.584	23589.87
451.791	23995.37
451.997	23948.26
452.203	24239.08
452.409	24345.57
452.615	24343.52
452.821	23524.33
453.027	23331.83
453.233	24263.65
453.44	23583.73
453.646	23577.58
453.852	24105.96
454.058	24521.7
454.264	23434.22
454.47	23600.11
454.676	23458.8
454.882	24277.99
455.088	22156.29
455.294	22443.01
455.5	22803.45
455.705	23129.08
455.911	22301.7
456.117	21632.01
456.323	21343.25
456.529	20100.13
456.735	21490.7
456.941	20579.36
457.147	20286.5
457.352	19794.98
457.558	19373.1
457.764	19379.25
457.97	19020.85
458.176	18674.74
458.381	18572.35
458.587	17486.92
458.793	17845.32
458.999	16931.92
459.204	18009.15
459.41	17617.99
459.616	16491.61
459.821	16671.83
460.027	16356.44
460.233	16116.83
460.438	15453.29
460.644	15203.44
460.85	14738.55
461.055	14826.61
461.261	14412.92
461.466	13618.31
461.672	12911.76
461.878	13823.11
462.083	12856.47
462.289	12797.07
462.494	12553.37
462.7	12074.14
462.905	11818.15
463.111	12188.83
463.316	12098.72
463.522	11922.59
463.727	11816.1
463.932	12080.28
464.138	11709.6
464.343	11924.64
464.549	11463.85
464.754	11795.62
464.959	11556
465.165	11605.16
465.37	11422.89
465.575	10792.11
465.781	11257
465.986	11232.43
466.191	11074.73
466.397	10810.54
466.602	10298.55
466.807	10613.94
467.012	10437.81
467.218	10570.93
467.423	10572.98
467.628	10380.47
467.833	10816.69
468.038	10589.36
468.244	10280.12
468.449	10581.17
468.654	10192.06
468.859	10026.17
469.064	10058.94
469.269	9819.33
