Data from USB4F104151__15__11-44-35-394.txt Node

Date: Fri Mar 14 11:44:35 EDT 2025
User: louis
Spectrometer: USB4F10415
Trigger mode: 4
Integration Time (sec): 2.000000E-2
Scans to average: 1
Electric dark correction enabled: true
Nonlinearity correction enabled: false
Boxcar width: 0
XAxis mode: Wavelengths
Number of Pixels in Spectrum: 3648
>>>>>Begin Spectral Data<<<<<
178.204	-3.58
178.424	-3.58
178.644	-3.58
178.864	-116.22
179.084	-36.35
179.304	-46.59
179.524	29.18
179.744	-36.35
179.964	-13.82
180.184	8.7
180.404	57.86
180.624	12.8
180.844	39.42
181.064	-73.21
181.283	29.18
181.503	-1.54
181.723	-5.63
181.943	20.99
182.163	43.52
182.383	31.23
182.602	49.66
182.822	109.05
183.042	35.33
183.262	-11.78
183.482	47.62
183.701	-9.73
183.921	88.57
184.141	53.76
184.361	12.8
184.58	76.29
184.8	76.29
185.02	88.57
185.239	64
185.459	66.05
185.679	64
185.898	-30.21
186.118	61.95
186.338	80.38
186.557	133.63
186.777	6.66
186.997	51.71
187.216	39.42
187.436	117.25
187.655	8.7
187.875	31.23
188.095	68.09
188.314	6.66
188.534	59.9
188.753	-11.78
188.973	59.9
189.192	74.24
189.412	29.18
189.631	43.52
189.851	57.86
190.07	78.33
190.29	59.9
190.509	23.04
190.729	23.04
190.948	-32.26
191.168	133.63
191.387	43.52
191.607	70.14
191.826	-1.54
192.045	86.53
192.265	78.33
192.484	43.52
192.704	66.05
192.923	29.18
193.142	92.67
193.362	-1.54
193.581	64
193.8	4.61
194.02	82.43
194.239	96.77
194.458	35.33
194.678	4.61
194.897	72.19
195.116	111.1
195.335	-1.54
195.555	68.09
195.774	25.09
195.993	117.25
196.212	37.38
196.432	72.19
196.651	92.67
196.87	-24.06
197.089	84.48
197.308	45.57
197.528	25.09
197.747	-50.69
197.966	51.71
198.185	59.9
198.404	16.9
198.623	20.99
198.842	23.04
199.062	115.2
199.281	49.66
199.5	27.14
199.719	-11.78
199.938	23.04
200.157	49.66
200.376	74.24
200.595	100.86
200.814	51.71
201.033	23.04
201.252	33.28
201.471	64
201.69	35.33
201.909	68.09
202.128	29.18
202.347	53.76
202.566	18.94
202.785	10.75
203.004	115.2
203.223	107.01
203.442	51.71
203.661	23.04
203.879	31.23
204.098	29.18
204.317	10.75
204.536	119.29
204.755	70.14
204.974	70.14
205.193	23.04
205.411	107.01
205.63	84.48
205.849	59.9
206.068	121.34
206.287	31.23
206.505	90.62
206.724	39.42
206.943	16.9
207.162	51.71
207.381	55.81
207.599	4.61
207.818	61.95
208.037	27.14
208.255	45.57
208.474	121.34
208.693	27.14
208.911	72.19
209.13	55.81
209.349	27.14
209.567	70.14
209.786	80.38
210.005	25.09
210.223	76.29
210.442	-46.59
210.661	31.23
210.879	-3.58
211.098	53.76
211.316	84.48
211.535	27.14
211.753	4.61
211.972	10.75
212.191	80.38
212.409	74.24
212.628	96.77
212.846	59.9
213.065	37.38
213.283	55.81
213.502	66.05
213.72	53.76
213.938	20.99
214.157	84.48
214.375	18.94
214.594	-11.78
214.812	80.38
215.031	51.71
215.249	92.67
215.467	18.94
215.686	74.24
215.904	98.81
216.122	78.33
216.341	141.82
216.559	-30.21
216.778	127.49
216.996	64
217.214	98.81
217.432	29.18
217.651	18.94
217.869	12.8
218.087	80.38
218.306	53.76
218.524	45.57
218.742	8.7
218.96	66.05
219.179	14.85
219.397	29.18
219.615	109.05
219.833	49.66
220.051	-62.98
220.27	47.62
220.488	49.66
220.706	125.44
220.924	23.04
221.142	31.23
221.36	64
221.578	76.29
221.796	47.62
222.015	45.57
222.233	20.99
222.451	25.09
222.669	82.43
222.887	29.18
223.105	59.9
223.323	45.57
223.541	72.19
223.759	49.66
223.977	27.14
224.195	125.44
224.413	45.57
224.631	-3.58
224.849	4.61
225.067	55.81
225.285	72.19
225.503	55.81
225.721	29.18
225.939	41.47
226.157	74.24
226.375	152.06
226.592	57.86
226.81	74.24
227.028	55.81
227.246	61.95
227.464	31.23
227.682	43.52
227.9	10.75
228.117	43.52
228.335	29.18
228.553	90.62
228.771	20.99
228.989	64
229.206	78.33
229.424	27.14
229.642	80.38
229.86	-19.97
230.077	0.51
230.295	-48.64
230.513	190.97
230.731	66.05
230.948	47.62
231.166	47.62
231.384	43.52
231.601	29.18
231.819	53.76
232.037	29.18
232.254	2.56
232.472	33.28
232.689	33.28
232.907	39.42
233.125	-1.54
233.342	33.28
233.56	6.66
233.777	25.09
233.995	14.85
234.213	115.2
234.43	20.99
234.648	82.43
234.865	53.76
235.083	0.51
235.3	107.01
235.518	29.18
235.735	47.62
235.953	49.66
236.17	107.01
236.388	64
236.605	18.94
236.822	107.01
237.04	29.18
237.257	47.62
237.475	37.38
237.692	8.7
237.909	53.76
238.127	-11.78
238.344	74.24
238.562	78.33
238.779	31.23
238.996	72.19
239.214	39.42
239.431	129.53
239.648	20.99
239.865	66.05
240.083	115.2
240.3	31.23
240.517	66.05
240.735	20.99
240.952	66.05
241.169	107.01
241.386	12.8
241.603	8.7
241.821	35.33
242.038	84.48
242.255	27.14
242.472	10.75
242.689	94.72
242.907	59.9
243.124	-3.58
243.341	27.14
243.558	51.71
243.775	23.04
243.992	-65.02
244.209	61.95
244.426	-19.97
244.643	104.96
244.86	16.9
245.078	14.85
245.295	35.33
245.512	43.52
245.729	-13.82
245.946	-7.68
246.163	78.33
246.38	64
246.597	12.8
246.814	41.47
247.031	117.25
247.248	41.47
247.464	66.05
247.681	53.76
247.898	107.01
248.115	92.67
248.332	-11.78
248.549	4.61
248.766	29.18
248.983	90.62
249.2	27.14
249.417	-7.68
249.633	14.85
249.85	-42.5
250.067	86.53
250.284	92.67
250.501	84.48
250.717	119.29
250.934	29.18
251.151	76.29
251.368	68.09
251.585	88.57
251.801	-13.82
252.018	2.56
252.235	143.87
252.451	53.76
252.668	64
252.885	31.23
253.102	64
253.318	51.71
253.535	37.38
253.752	27.14
253.968	12.8
254.185	-75.26
254.401	27.14
254.618	102.91
254.835	92.67
255.051	78.33
255.268	47.62
255.484	53.76
255.701	76.29
255.917	117.25
256.134	55.81
256.351	-1.54
256.567	2.56
256.784	14.85
257	-67.07
257.217	31.23
257.433	78.33
257.65	119.29
257.866	23.04
258.082	90.62
258.299	-13.82
258.515	39.42
258.732	31.23
258.948	64
259.165	66.05
259.381	20.99
259.597	20.99
259.814	170.49
260.03	27.14
260.246	76.29
260.463	53.76
260.679	-5.63
260.895	104.96
261.112	-9.73
261.328	45.57
261.544	-34.3
261.761	102.91
261.977	35.33
262.193	41.47
262.409	14.85
262.626	82.43
262.842	35.33
263.058	25.09
263.274	29.18
263.49	4.61
263.707	35.33
263.923	104.96
264.139	27.14
264.355	109.05
264.571	39.42
264.787	-17.92
265.004	96.77
265.22	123.39
265.436	33.28
265.652	-50.69
265.868	72.19
266.084	53.76
266.3	18.94
266.516	78.33
266.732	70.14
266.948	27.14
267.164	84.48
267.38	104.96
267.596	80.38
267.812	23.04
268.028	37.38
268.244	23.04
268.46	-9.73
268.676	2.56
268.892	53.76
269.108	68.09
269.324	2.56
269.54	-11.78
269.756	35.33
269.972	53.76
270.188	12.8
270.403	0.51
270.619	61.95
270.835	35.33
271.051	78.33
271.267	66.05
271.483	12.8
271.698	16.9
271.914	80.38
272.13	72.19
272.346	76.29
272.562	0.51
272.777	119.29
272.993	25.09
273.209	14.85
273.425	78.33
273.64	53.76
273.856	64
274.072	66.05
274.287	90.62
274.503	-40.45
274.719	31.23
274.934	64
275.15	14.85
275.366	47.62
275.581	-19.97
275.797	94.72
276.012	20.99
276.228	49.66
276.444	131.58
276.659	68.09
276.875	96.77
277.09	98.81
277.306	10.75
277.521	4.61
277.737	64
277.952	43.52
278.168	45.57
278.383	82.43
278.599	49.66
278.814	47.62
279.03	31.23
279.245	129.53
279.461	-48.64
279.676	14.85
279.892	-11.78
280.107	20.99
280.322	70.14
280.538	35.33
280.753	57.86
280.969	10.75
281.184	47.62
281.399	45.57
281.615	20.99
281.83	76.29
282.045	20.99
282.26	18.94
282.476	43.52
282.691	78.33
282.906	53.76
283.122	-1.54
283.337	45.57
283.552	35.33
283.767	-19.97
283.983	12.8
284.198	0.51
284.413	59.9
284.628	82.43
284.843	76.29
285.058	6.66
285.274	43.52
285.489	41.47
285.704	-5.63
285.919	18.94
286.134	-19.97
286.349	20.99
286.564	39.42
286.779	94.72
286.995	64
287.21	14.85
287.425	35.33
287.64	-50.69
287.855	53.76
288.07	59.9
288.285	39.42
288.5	76.29
288.715	20.99
288.93	29.18
289.145	74.24
289.36	84.48
289.575	51.71
289.79	74.24
290.004	-1.54
290.219	-1.54
290.434	70.14
290.649	18.94
290.864	53.76
291.079	76.29
291.294	57.86
291.509	59.9
291.724	-19.97
291.938	64
292.153	0.51
292.368	53.76
292.583	84.48
292.798	57.86
293.012	-17.92
293.227	64
293.442	37.38
293.657	90.62
293.871	12.8
294.086	2.56
294.301	90.62
294.516	29.18
294.73	43.52
294.945	125.44
295.16	76.29
295.374	25.09
295.589	57.86
295.804	25.09
296.018	43.52
296.233	72.19
296.447	18.94
296.662	27.14
296.877	74.24
297.091	84.48
297.306	-13.82
297.52	45.57
297.735	39.42
297.949	41.47
298.164	8.7
298.378	61.95
298.593	20.99
298.807	37.38
299.022	18.94
299.236	70.14
299.451	-13.82
299.665	31.23
299.88	59.9
300.094	35.33
300.309	55.81
300.523	43.52
300.737	72.19
300.952	53.76
301.166	-83.45
301.381	4.61
301.595	18.94
301.809	49.66
302.024	74.24
302.238	72.19
302.452	27.14
302.667	27.14
302.881	72.19
303.095	33.28
303.309	51.71
303.524	78.33
303.738	-7.68
303.952	37.38
304.166	59.9
304.381	-3.58
304.595	47.62
304.809	39.42
305.023	4.61
305.237	72.19
305.452	29.18
305.666	80.38
305.88	82.43
306.094	84.48
306.308	45.57
306.522	-30.21
306.736	66.05
306.95	23.04
307.164	119.29
307.379	27.14
307.593	68.09
307.807	88.57
308.021	57.86
308.235	47.62
308.449	18.94
308.663	61.95
308.877	102.91
309.091	115.2
309.305	59.9
309.519	6.66
309.733	74.24
309.947	27.14
310.161	78.33
310.374	107.01
310.588	66.05
310.802	41.47
311.016	41.47
311.23	92.67
311.444	27.14
311.658	2.56
311.872	27.14
312.085	37.38
312.299	64
312.513	14.85
312.727	23.04
312.941	27.14
313.154	72.19
313.368	41.47
313.582	6.66
313.796	-26.11
314.009	74.24
314.223	98.81
314.437	92.67
314.651	43.52
314.864	55.81
315.078	-38.4
315.292	74.24
315.505	64
315.719	70.14
315.933	59.9
316.146	57.86
316.36	-5.63
316.573	64
316.787	49.66
317.001	-24.06
317.214	6.66
317.428	90.62
317.641	76.29
317.855	-5.63
318.068	25.09
318.282	43.52
318.495	47.62
318.709	70.14
318.922	35.33
319.136	90.62
319.349	47.62
319.563	61.95
319.776	96.77
319.99	-3.58
320.203	72.19
320.417	25.09
320.63	4.61
320.843	-13.82
321.057	37.38
321.27	47.62
321.483	47.62
321.697	47.62
321.91	-24.06
322.124	-5.63
322.337	59.9
322.55	47.62
322.763	72.19
322.977	45.57
323.19	51.71
323.403	47.62
323.617	-5.63
323.83	35.33
324.043	64
324.256	43.52
324.469	35.33
324.683	61.95
324.896	10.75
325.109	92.67
325.322	150.01
325.535	64
325.748	-26.11
325.962	49.66
326.175	64
326.388	92.67
326.601	53.76
326.814	23.04
327.027	41.47
327.24	90.62
327.453	-36.35
327.666	29.18
327.879	84.48
328.092	-1.54
328.305	53.76
328.518	115.2
328.731	43.52
328.944	74.24
329.157	25.09
329.37	39.42
329.583	-9.73
329.796	78.33
330.009	113.15
330.222	109.05
330.435	31.23
330.648	31.23
330.861	10.75
331.073	51.71
331.286	-17.92
331.499	4.61
331.712	37.38
331.925	72.19
332.138	39.42
332.35	96.77
332.563	0.51
332.776	98.81
332.989	-7.68
333.202	27.14
333.414	-3.58
333.627	29.18
333.84	-17.92
334.053	27.14
334.265	66.05
334.478	45.57
334.691	49.66
334.903	8.7
335.116	47.62
335.329	37.38
335.541	53.76
335.754	78.33
335.966	31.23
336.179	55.81
336.392	29.18
336.604	98.81
336.817	31.23
337.029	55.81
337.242	23.04
337.454	84.48
337.667	23.04
337.88	6.66
338.092	59.9
338.305	35.33
338.517	37.38
338.729	127.49
338.942	-22.02
339.154	23.04
339.367	119.29
339.579	25.09
339.792	45.57
340.004	20.99
340.217	72.19
340.429	29.18
340.641	41.47
340.854	-17.92
341.066	25.09
341.278	20.99
341.491	57.86
341.703	66.05
341.915	-26.11
342.128	4.61
342.34	14.85
342.552	96.77
342.764	47.62
342.977	10.75
343.189	125.44
343.401	53.76
343.613	-24.06
343.826	27.14
344.038	14.85
344.25	43.52
344.462	57.86
344.674	35.33
344.886	96.77
345.099	137.73
345.311	86.53
345.523	131.58
345.735	-26.11
345.947	12.8
346.159	57.86
346.371	23.04
346.583	25.09
346.795	53.76
347.007	12.8
347.219	39.42
347.431	27.14
347.643	6.66
347.855	-15.87
348.067	86.53
348.279	68.09
348.491	113.15
348.703	39.42
348.915	18.94
349.127	98.81
349.339	4.61
349.551	107.01
349.763	76.29
349.975	98.81
350.187	72.19
350.399	76.29
350.61	14.85
350.822	64
351.034	66.05
351.246	51.71
351.458	10.75
351.669	59.9
351.881	45.57
352.093	39.42
352.305	-13.82
352.517	43.52
352.728	18.94
352.94	64
353.152	37.38
353.363	-7.68
353.575	123.39
353.787	158.21
353.999	43.52
354.21	47.62
354.422	-5.63
354.633	72.19
354.845	51.71
355.057	109.05
355.268	12.8
355.48	45.57
355.692	59.9
355.903	82.43
356.115	92.67
356.326	86.53
356.538	37.38
356.749	45.57
356.961	127.49
357.172	96.77
357.384	80.38
357.595	10.75
357.807	76.29
358.018	0.51
358.23	59.9
358.441	82.43
358.653	59.9
358.864	29.18
359.075	78.33
359.287	45.57
359.498	150.01
359.709	100.86
359.921	27.14
360.132	47.62
360.344	143.87
360.555	-22.02
360.766	14.85
360.977	59.9
361.189	102.91
361.4	84.48
361.611	86.53
361.823	49.66
362.034	94.72
362.245	115.2
362.456	49.66
362.667	129.53
362.879	86.53
363.09	55.81
363.301	59.9
363.512	78.33
363.723	27.14
363.935	80.38
364.146	88.57
364.357	20.99
364.568	135.68
364.779	-46.59
364.99	125.44
365.201	53.76
365.412	94.72
365.623	45.57
365.834	57.86
366.045	37.38
366.256	57.86
366.467	25.09
366.678	74.24
366.889	68.09
367.1	64
367.311	121.34
367.522	23.04
367.733	107.01
367.944	51.71
368.155	29.18
368.366	47.62
368.577	59.9
368.788	127.49
368.999	61.95
369.209	176.64
369.42	115.2
369.631	86.53
369.842	18.94
370.053	86.53
370.264	45.57
370.474	125.44
370.685	64
370.896	27.14
371.107	72.19
371.317	94.72
371.528	113.15
371.739	37.38
371.95	55.81
372.16	66.05
372.371	-9.73
372.582	104.96
372.792	47.62
373.003	117.25
373.214	14.85
373.424	82.43
373.635	23.04
373.846	55.81
374.056	0.51
374.267	104.96
374.477	29.18
374.688	53.76
374.898	70.14
375.109	66.05
375.319	109.05
375.53	119.29
375.74	86.53
375.951	0.51
376.161	123.39
376.372	113.15
376.582	20.99
376.793	64
377.003	49.66
377.214	59.9
377.424	68.09
377.635	88.57
377.845	55.81
378.055	84.48
378.266	117.25
378.476	-30.21
378.686	4.61
378.897	57.86
379.107	-22.02
379.317	74.24
379.528	43.52
379.738	55.81
379.948	-1.54
380.158	129.53
380.369	68.09
380.579	74.24
380.789	39.42
380.999	53.76
381.21	59.9
381.42	121.34
381.63	66.05
381.84	53.76
382.05	125.44
382.261	43.52
382.471	84.48
382.681	86.53
382.891	74.24
383.101	123.39
383.311	37.38
383.521	88.57
383.731	25.09
383.941	47.62
384.151	55.81
384.361	74.24
384.571	72.19
384.781	123.39
384.991	143.87
385.201	147.97
385.411	143.87
385.621	-42.5
385.831	68.09
386.041	68.09
386.251	35.33
386.461	33.28
386.671	45.57
386.881	41.47
387.091	131.58
387.301	84.48
387.511	119.29
387.72	92.67
387.93	57.86
388.14	-1.54
388.35	84.48
388.56	133.63
388.769	68.09
388.979	47.62
389.189	59.9
389.399	74.24
389.609	53.76
389.818	113.15
390.028	117.25
390.238	104.96
390.447	45.57
390.657	78.33
390.867	20.99
391.076	10.75
391.286	92.67
391.496	98.81
391.705	29.18
391.915	61.95
392.125	158.21
392.334	72.19
392.544	133.63
392.753	102.91
392.963	70.14
393.172	70.14
393.382	64
393.591	66.05
393.801	84.48
394.01	131.58
394.22	121.34
394.429	45.57
394.639	20.99
394.848	129.53
395.058	193.02
395.267	129.53
395.477	141.82
395.686	72.19
395.895	102.91
396.105	137.73
396.314	154.11
396.524	131.58
396.733	88.57
396.942	188.93
397.152	66.05
397.361	109.05
397.57	96.77
397.78	98.81
397.989	94.72
398.198	117.25
398.407	98.81
398.617	121.34
398.826	49.66
399.035	86.53
399.244	84.48
399.453	113.15
399.663	152.06
399.872	233.98
400.081	131.58
400.29	111.1
400.499	29.18
400.708	127.49
400.917	98.81
401.127	74.24
401.336	176.64
401.545	141.82
401.754	133.63
401.963	182.78
402.172	219.64
402.381	139.77
402.59	197.12
402.799	137.73
403.008	186.88
403.217	82.43
403.426	125.44
403.635	76.29
403.844	131.58
404.053	154.11
404.262	107.01
404.471	223.74
404.68	197.12
404.888	168.45
405.097	172.54
405.306	199.16
405.515	152.06
405.724	170.49
405.933	199.16
406.142	160.25
406.35	197.12
406.559	219.64
406.768	190.97
406.977	190.97
407.185	195.07
407.394	203.26
407.603	199.16
407.812	215.55
408.02	346.62
408.229	231.93
408.438	233.98
408.646	260.6
408.855	326.14
409.064	303.61
409.272	295.42
409.481	297.47
409.69	293.37
409.898	279.04
410.107	365.05
410.315	313.85
410.524	317.95
410.733	338.43
410.941	424.44
411.15	408.06
411.358	393.72
411.567	393.72
411.775	358.91
411.984	381.43
412.192	416.25
412.401	373.24
412.609	453.11
412.818	578.04
413.026	453.11
413.234	428.54
413.443	487.93
413.651	524.79
413.86	471.54
414.068	645.62
414.276	715.25
414.485	600.57
414.693	549.37
414.901	670.2
415.11	653.81
415.318	580.09
415.526	717.3
415.734	760.31
415.943	780.79
416.151	754.16
416.359	766.45
416.567	813.56
416.776	895.47
416.984	895.47
417.192	932.34
417.4	901.62
417.608	944.63
417.817	975.35
418.025	1030.64
418.233	1147.37
418.441	1038.83
418.649	1124.85
418.857	1239.53
419.065	1206.77
419.273	1257.96
419.481	1251.82
419.689	1292.78
419.897	1415.66
420.105	1462.76
420.313	1505.77
420.521	1575.4
420.729	1468.91
420.937	1567.21
421.145	1692.13
421.353	1681.89
421.561	1776.1
421.769	1858.02
421.977	1917.41
422.185	1880.55
422.393	1978.85
422.601	2173.41
422.809	2126.3
423.017	2267.61
423.224	2247.13
423.432	2267.61
423.64	2322.91
423.848	2564.57
424.056	2408.92
424.263	2759.13
424.471	2589.14
424.679	2787.8
424.887	2910.68
425.094	2896.34
425.302	2963.92
425.51	3117.52
425.718	3060.18
425.925	3187.15
426.133	3373.52
426.341	3551.69
426.548	3547.59
426.756	3580.36
426.964	3742.15
427.171	4063.68
427.379	4116.93
427.586	4010.43
427.794	4196.8
428.001	4454.84
428.209	4661.69
428.417	4442.56
428.624	4999.6
428.832	4929.97
429.039	4555.19
429.247	4825.53
429.454	5370.29
429.662	5546.41
429.869	5239.22
430.076	5706.15
430.284	5366.19
430.491	5695.91
430.699	6017.44
430.906	6066.6
431.114	6205.86
431.321	6328.74
431.528	6429.09
431.736	6941.08
431.943	7211.41
432.15	7106.96
432.358	6996.37
432.565	7649.68
432.772	7428.49
432.979	7840.14
433.187	8075.65
433.394	7854.47
433.601	8614.27
433.808	8620.41
434.016	8509.82
434.223	8731
434.43	9404.78
434.637	9030.01
434.844	9894.25
435.052	10080.61
435.259	10013.03
435.466	10000.74
435.673	9896.3
435.88	10592.61
436.087	11102.55
436.294	11264.34
436.501	10905.95
436.708	10953.05
436.915	11549.01
437.122	11762
437.329	12013.9
437.537	12269.89
437.743	12419.39
437.95	12558.66
438.157	12761.41
438.364	13560.11
438.571	13461.81
438.778	13547.83
438.985	14811.42
439.192	14178.6
439.399	14741.79
439.606	14342.44
439.813	15051.03
440.02	16310.54
440.227	15829.26
440.433	15651.09
440.64	16349.45
440.847	16204.04
441.054	16658.69
441.261	17823.98
441.467	17404.15
441.674	18102.51
441.881	18557.16
442.088	18145.52
442.294	18491.62
442.501	18475.24
442.708	19054.81
442.914	19962.06
443.121	20617.41
443.328	19839.19
443.534	21504.18
443.741	20756.68
443.948	20541.64
444.154	22249.64
444.361	21993.65
444.568	22225.07
444.774	21983.41
444.981	22300.84
445.187	23156.89
445.394	24270.99
445.6	23570.58
445.807	26065.01
446.013	25198.72
446.22	25376.89
446.426	26288.24
446.633	26218.61
446.839	27480.16
447.046	26325.1
447.252	27666.52
447.459	27553.88
447.665	27398.24
447.871	28846.15
448.078	30181.43
448.284	28659.79
448.491	29669.44
448.697	30476.33
448.903	31215.65
449.11	31115.3
449.316	30588.97
449.522	30939.18
449.728	32153.62
449.935	32237.59
450.141	32032.79
450.347	32942.09
450.553	31942.68
450.76	32544.78
450.966	33601.54
451.172	33052.68
451.378	33929.21
451.584	33423.36
451.791	34256.89
451.997	34275.32
452.203	34543.6
452.409	34693.1
452.615	34291.7
452.821	33214.47
453.027	32759.82
453.233	34701.29
453.44	33318.92
453.646	33648.64
453.852	33740.8
454.058	34291.7
454.264	32907.27
454.47	33892.35
454.676	32825.36
454.882	34246.65
455.088	31156.26
455.294	31528.99
455.5	32194.58
455.705	32272.4
455.911	31346.72
456.117	30562.35
456.323	29993.01
456.529	28786.76
456.735	29732.92
456.941	29225.03
457.147	28823.62
457.352	27906.13
457.558	27474.01
457.764	27754.58
457.97	26902.63
458.176	26296.43
458.381	26509.42
458.587	24928.39
458.793	25008.26
458.999	23994.51
459.204	25723
459.41	24731.78
459.616	23054.5
459.821	23322.78
460.027	23068.83
460.233	22798.5
460.438	21770.42
460.644	21944.5
460.85	20799.68
461.055	20576.45
461.261	20369.61
461.466	19114.2
461.672	18213.1
461.878	19722.45
462.083	18335.98
462.289	18125.04
462.494	17815.79
462.7	16990.46
462.905	16541.96
463.111	17221.88
463.316	17033.47
463.522	16836.86
463.727	16765.18
463.932	16705.79
464.138	16414.98
464.343	16654.59
464.549	16318.73
464.754	16783.62
464.959	16607.49
465.165	16261.38
465.37	15876.37
465.575	15485.2
465.781	16013.58
465.986	16126.22
466.191	15565.07
466.397	15165.72
466.602	14328.1
466.807	14979.36
467.012	15204.63
467.218	14903.58
467.423	14760.22
467.628	14788.89
467.833	15626.51
468.038	14956.83
468.244	14641.44
