Data from USB4F104151__104__14-18-08-277.txt Node

Date: Thu Mar 13 14:18:08 EDT 2025
User: louis
Spectrometer: USB4F10415
Trigger mode: 4
Integration Time (sec): 2.000000E-2
Scans to average: 1
Electric dark correction enabled: true
Nonlinearity correction enabled: false
Boxcar width: 0
XAxis mode: Wavelengths
Number of Pixels in Spectrum: 3648
>>>>>Begin Spectral Data<<<<<
178.204	-165.71
178.424	-165.71
178.644	-165.71
178.864	-112.47
179.084	-147.28
179.304	12.46
179.524	20.65
179.744	-75.6
179.964	-18.26
180.184	55.47
180.404	0.17
180.624	-8.02
180.844	47.27
181.064	-59.22
181.283	-55.12
181.503	59.56
181.723	20.65
181.943	-10.07
182.163	12.46
182.383	-1.88
182.602	39.08
182.822	84.14
183.042	-42.84
183.262	-34.64
183.482	-16.21
183.701	30.89
183.921	6.31
184.141	2.22
184.361	18.6
184.58	59.56
184.8	47.27
185.02	59.56
185.239	80.04
185.459	-46.93
185.679	14.51
185.898	-40.79
186.118	80.04
186.338	-8.02
186.557	14.51
186.777	-14.17
186.997	53.42
187.216	-26.45
187.436	14.51
187.655	55.47
187.875	67.75
188.095	65.71
188.314	80.04
188.534	104.62
188.753	-34.64
188.973	82.09
189.192	-18.26
189.412	-26.45
189.631	20.65
189.851	-5.97
190.07	47.27
190.29	-34.64
190.509	47.27
190.729	-32.6
190.948	34.99
191.168	125.1
191.387	86.19
191.607	14.51
191.826	39.08
192.045	41.13
192.265	0.17
192.484	-14.17
192.704	12.46
192.923	-67.41
193.142	30.89
193.362	45.23
193.581	80.04
193.8	43.18
194.02	51.37
194.239	63.66
194.458	63.66
194.678	32.94
194.897	-1.88
195.116	22.7
195.335	-10.07
195.555	22.7
195.774	90.28
195.993	55.47
196.212	39.08
196.432	16.55
196.651	-5.97
196.87	30.89
197.089	65.71
197.308	24.75
197.528	88.23
197.747	-40.79
197.966	71.85
198.185	30.89
198.404	55.47
198.623	34.99
198.842	8.36
199.062	-22.36
199.281	43.18
199.5	65.71
199.719	-28.5
199.938	51.37
200.157	-8.02
200.376	-40.79
200.595	47.27
200.814	47.27
201.033	-3.93
201.252	-44.88
201.471	71.85
201.69	-1.88
201.909	20.65
202.128	0.17
202.347	77.99
202.566	90.28
202.785	0.17
203.004	-10.07
203.223	-16.21
203.442	80.04
203.661	2.22
203.879	-1.88
204.098	94.38
204.317	18.6
204.536	-59.22
204.755	73.9
204.974	10.41
205.193	26.79
205.411	-10.07
205.63	57.51
205.849	16.55
206.068	4.27
206.287	47.27
206.505	26.79
206.724	39.08
206.943	-10.07
207.162	14.51
207.381	6.31
207.599	6.31
207.818	-67.41
208.037	-34.64
208.255	51.37
208.474	67.75
208.693	30.89
208.911	80.04
209.13	-1.88
209.349	-5.97
209.567	92.33
209.786	2.22
210.005	22.7
210.223	61.61
210.442	-34.64
210.661	80.04
210.879	-8.02
211.098	-5.97
211.316	-51.03
211.535	65.71
211.753	63.66
211.972	30.89
212.191	-42.84
212.409	51.37
212.628	24.75
212.846	-5.97
213.065	12.46
213.283	96.43
213.502	16.55
213.72	57.51
213.938	6.31
214.157	49.32
214.375	49.32
214.594	30.89
214.812	34.99
215.031	-12.12
215.249	24.75
215.467	28.84
215.686	12.46
215.904	6.31
216.122	55.47
216.341	102.57
216.559	6.31
216.778	34.99
216.996	-59.22
217.214	57.51
217.432	26.79
217.651	16.55
217.869	49.32
218.087	32.94
218.306	-1.88
218.524	43.18
218.742	-26.45
218.96	104.62
219.179	4.27
219.397	39.08
219.615	39.08
219.833	-8.02
220.051	30.89
220.27	41.13
220.488	-5.97
220.706	-32.6
220.924	39.08
221.142	67.75
221.36	-30.55
221.578	67.75
221.796	55.47
222.015	55.47
222.233	26.79
222.451	92.33
222.669	4.27
222.887	-16.21
223.105	24.75
223.323	108.71
223.541	-1.88
223.759	67.75
223.977	-26.45
224.195	-18.26
224.413	67.75
224.631	-40.79
224.849	43.18
225.067	10.41
225.285	41.13
225.503	8.36
225.721	-24.4
225.939	-32.6
226.157	22.7
226.375	112.81
226.592	6.31
226.81	49.32
227.028	-34.64
227.246	61.61
227.464	28.84
227.682	41.13
227.9	65.71
228.117	30.89
228.335	55.47
228.553	-30.55
228.771	49.32
228.989	80.04
229.206	28.84
229.424	24.75
229.642	65.71
229.86	6.31
230.077	32.94
230.295	14.51
230.513	8.36
230.731	16.55
230.948	57.51
231.166	30.89
231.384	6.31
231.601	37.03
231.819	110.76
232.037	-24.4
232.254	16.55
232.472	71.85
232.689	8.36
232.907	39.08
233.125	-12.12
233.342	32.94
233.56	-10.07
233.777	-40.79
233.995	63.66
234.213	69.8
234.43	69.8
234.648	-83.8
234.865	16.55
235.083	59.56
235.3	51.37
235.518	92.33
235.735	96.43
235.953	14.51
236.17	24.75
236.388	-1.88
236.605	49.32
236.822	37.03
237.04	6.31
237.257	-1.88
237.475	-8.02
237.692	22.7
237.909	0.17
238.127	71.85
238.344	-14.17
238.562	47.27
238.779	30.89
238.996	45.23
239.214	41.13
239.431	0.17
239.648	73.9
239.865	-22.36
240.083	30.89
240.3	86.19
240.517	61.61
240.735	47.27
240.952	0.17
241.169	18.6
241.386	0.17
241.603	10.41
241.821	-24.4
242.038	86.19
242.255	84.14
242.472	30.89
242.689	-28.5
242.907	67.75
243.124	47.27
243.341	24.75
243.558	-42.84
243.775	-5.97
243.992	-81.75
244.209	67.75
244.426	47.27
244.643	-48.98
244.86	53.42
245.078	47.27
245.295	49.32
245.512	30.89
245.729	-14.17
245.946	-48.98
246.163	37.03
246.38	22.7
246.597	0.17
246.814	18.6
247.031	77.99
247.248	-16.21
247.464	8.36
247.681	41.13
247.898	84.14
248.115	49.32
248.332	6.31
248.549	34.99
248.766	84.14
248.983	88.23
249.2	92.33
249.417	47.27
249.633	47.27
249.85	10.41
250.067	-5.97
250.284	73.9
250.501	-98.13
250.717	34.99
250.934	-28.5
251.151	32.94
251.368	55.47
251.585	28.84
251.801	-24.4
252.018	-3.93
252.235	47.27
252.451	39.08
252.668	39.08
252.885	73.9
253.102	39.08
253.318	32.94
253.535	49.32
253.752	8.36
253.968	88.23
254.185	63.66
254.401	63.66
254.618	24.75
254.835	39.08
255.051	14.51
255.268	51.37
255.484	49.32
255.701	6.31
255.917	45.23
256.134	0.17
256.351	-1.88
256.567	-24.4
256.784	32.94
257	6.31
257.217	118.95
257.433	82.09
257.65	16.55
257.866	-5.97
258.082	55.47
258.299	-16.21
258.515	-1.88
258.732	20.65
258.948	24.75
259.165	10.41
259.381	63.66
259.597	104.62
259.814	65.71
260.03	75.95
260.246	63.66
260.463	6.31
260.679	-67.41
260.895	-1.88
261.112	10.41
261.328	-10.07
261.544	14.51
261.761	86.19
261.977	71.85
262.193	-8.02
262.409	26.79
262.626	26.79
262.842	65.71
263.058	-1.88
263.274	55.47
263.49	-30.55
263.707	88.23
263.923	47.27
264.139	55.47
264.355	63.66
264.571	39.08
264.787	51.37
265.004	104.62
265.22	63.66
265.436	51.37
265.652	-26.45
265.868	75.95
266.084	-12.12
266.3	-18.26
266.516	37.03
266.732	57.51
266.948	14.51
267.164	69.8
267.38	28.84
267.596	80.04
267.812	80.04
268.028	37.03
268.244	22.7
268.46	-26.45
268.676	28.84
268.892	71.85
269.108	-42.84
269.324	49.32
269.54	82.09
269.756	157.86
269.972	55.47
270.188	-8.02
270.403	16.55
270.619	57.51
270.835	47.27
271.051	47.27
271.267	8.36
271.483	-1.88
271.698	20.65
271.914	12.46
272.13	-36.69
272.346	63.66
272.562	2.22
272.777	55.47
272.993	96.43
273.209	0.17
273.425	-34.64
273.64	-1.88
273.856	22.7
274.072	30.89
274.287	-26.45
274.503	26.79
274.719	39.08
274.934	55.47
275.15	28.84
275.366	90.28
275.581	43.18
275.797	41.13
276.012	43.18
276.228	26.79
276.444	-5.97
276.659	125.1
276.875	49.32
277.09	12.46
277.306	32.94
277.521	106.67
277.737	-1.88
277.952	53.42
278.168	112.81
278.383	30.89
278.599	0.17
278.814	-8.02
279.03	41.13
279.245	47.27
279.461	-30.55
279.676	30.89
279.892	59.56
280.107	-24.4
280.322	18.6
280.538	30.89
280.753	30.89
280.969	-14.17
281.184	16.55
281.399	2.22
281.615	32.94
281.83	41.13
282.045	-65.36
282.26	65.71
282.476	12.46
282.691	112.81
282.906	-1.88
283.122	92.33
283.337	8.36
283.552	32.94
283.767	-18.26
283.983	69.8
284.198	-40.79
284.413	75.95
284.628	-46.93
284.843	8.36
285.058	55.47
285.274	39.08
285.489	-10.07
285.704	73.9
285.919	-26.45
286.134	80.04
286.349	12.46
286.564	0.17
286.779	57.51
286.995	49.32
287.21	47.27
287.425	82.09
287.64	0.17
287.855	26.79
288.07	51.37
288.285	14.51
288.5	63.66
288.715	88.23
288.93	-22.36
289.145	2.22
289.36	57.51
289.575	16.55
289.79	39.08
290.004	55.47
290.219	55.47
290.434	-18.26
290.649	-14.17
290.864	57.51
291.079	-30.55
291.294	92.33
291.509	106.67
291.724	-30.55
291.938	-48.98
292.153	12.46
292.368	32.94
292.583	135.34
292.798	14.51
293.012	63.66
293.227	63.66
293.442	145.58
293.657	22.7
293.871	88.23
294.086	71.85
294.301	2.22
294.516	47.27
294.73	39.08
294.945	-22.36
295.16	24.75
295.374	-42.84
295.589	61.61
295.804	2.22
296.018	34.99
296.233	20.65
296.447	-14.17
296.662	6.31
296.877	80.04
297.091	0.17
297.306	2.22
297.52	-57.17
297.735	-1.88
297.949	37.03
298.164	26.79
298.378	30.89
298.593	47.27
298.807	16.55
299.022	80.04
299.236	63.66
299.451	90.28
299.665	-1.88
299.88	47.27
300.094	-18.26
300.309	45.23
300.523	129.19
300.737	28.84
300.952	96.43
301.166	71.85
301.381	-26.45
301.595	14.51
301.809	73.9
302.024	49.32
302.238	30.89
302.452	39.08
302.667	2.22
302.881	59.56
303.095	30.89
303.309	26.79
303.524	2.22
303.738	-30.55
303.952	-8.02
304.166	32.94
304.381	-59.22
304.595	80.04
304.809	51.37
305.023	51.37
305.237	39.08
305.452	-8.02
305.666	71.85
305.88	22.7
306.094	39.08
306.308	0.17
306.522	67.75
306.736	69.8
306.95	84.14
307.164	2.22
307.379	49.32
307.593	121
307.807	41.13
308.021	41.13
308.235	37.03
308.449	-26.45
308.663	22.7
308.877	102.57
309.091	-16.21
309.305	47.27
309.519	-18.26
309.733	45.23
309.947	-24.4
310.161	43.18
310.374	10.41
310.588	55.47
310.802	47.27
311.016	-98.13
311.23	47.27
311.444	-24.4
311.658	51.37
311.872	-22.36
312.085	22.7
312.299	22.7
312.513	32.94
312.727	18.6
312.941	32.94
313.154	65.71
313.368	30.89
313.582	16.55
313.796	71.85
314.009	106.67
314.223	67.75
314.437	39.08
314.651	39.08
314.864	75.95
315.078	-10.07
315.292	53.42
315.505	55.47
315.719	8.36
315.933	47.27
316.146	30.89
316.36	-3.93
316.573	14.51
316.787	75.95
317.001	30.89
317.214	45.23
317.428	41.13
317.641	4.27
317.855	49.32
318.068	-5.97
318.282	-5.97
318.495	110.76
318.709	63.66
318.922	-30.55
319.136	49.32
319.349	18.6
319.563	34.99
319.776	88.23
319.99	-26.45
320.203	41.13
320.417	10.41
320.63	-1.88
320.843	108.71
321.057	98.47
321.27	80.04
321.483	30.89
321.697	88.23
321.91	75.95
322.124	92.33
322.337	106.67
322.55	30.89
322.763	92.33
322.977	43.18
323.19	-8.02
323.403	63.66
323.617	22.7
323.83	61.61
324.043	63.66
324.256	-5.97
324.469	0.17
324.683	59.56
324.896	57.51
325.109	-8.02
325.322	24.75
325.535	131.24
325.748	82.09
325.962	8.36
326.175	34.99
326.388	59.56
326.601	92.33
326.814	-20.31
327.027	39.08
327.24	94.38
327.453	61.61
327.666	55.47
327.879	32.94
328.092	51.37
328.305	8.36
328.518	18.6
328.731	-28.5
328.944	96.43
329.157	14.51
329.37	-18.26
329.583	94.38
329.796	71.85
330.009	80.04
330.222	65.71
330.435	59.56
330.648	96.43
330.861	8.36
331.073	82.09
331.286	82.09
331.499	84.14
331.712	71.85
331.925	86.19
332.138	63.66
332.35	94.38
332.563	10.41
332.776	88.23
332.989	41.13
333.202	18.6
333.414	18.6
333.627	24.75
333.84	39.08
334.053	39.08
334.265	24.75
334.478	32.94
334.691	6.31
334.903	75.95
335.116	77.99
335.329	16.55
335.541	-3.93
335.754	63.66
335.966	39.08
336.179	6.31
336.392	43.18
336.604	49.32
336.817	2.22
337.029	22.7
337.242	14.51
337.454	80.04
337.667	53.42
337.88	65.71
338.092	-12.12
338.305	10.41
338.517	75.95
338.729	94.38
338.942	57.51
339.154	59.56
339.367	6.31
339.579	14.51
339.792	6.31
340.004	104.62
340.217	123.05
340.429	94.38
340.641	34.99
340.854	59.56
341.066	-22.36
341.278	90.28
341.491	88.23
341.703	43.18
341.915	8.36
342.128	16.55
342.34	106.67
342.552	-16.21
342.764	80.04
342.977	63.66
343.189	55.47
343.401	118.95
343.613	14.51
343.826	41.13
344.038	67.75
344.25	-40.79
344.462	-8.02
344.674	63.66
344.886	-5.97
345.099	49.32
345.311	96.43
345.523	75.95
345.735	-32.6
345.947	114.86
346.159	-53.08
346.371	51.37
346.583	47.27
346.795	14.51
347.007	-40.79
347.219	80.04
347.431	80.04
347.643	172.2
347.855	-18.26
348.067	51.37
348.279	67.75
348.491	30.89
348.703	49.32
348.915	30.89
349.127	34.99
349.339	39.08
349.551	20.65
349.763	14.51
349.975	61.61
350.187	51.37
350.399	41.13
350.61	92.33
350.822	37.03
351.034	-32.6
351.246	55.47
351.458	65.71
351.669	-1.88
351.881	73.9
352.093	-8.02
352.305	37.03
352.517	16.55
352.728	10.41
352.94	2.22
353.152	43.18
353.363	30.89
353.575	39.08
353.787	129.19
353.999	88.23
354.21	96.43
354.422	88.23
354.633	104.62
354.845	-5.97
355.057	-14.17
355.268	55.47
355.48	41.13
355.692	63.66
355.903	57.51
356.115	-30.55
356.326	-12.12
356.538	112.81
356.749	88.23
356.961	20.65
357.172	6.31
357.384	6.31
357.595	182.44
357.807	34.99
358.018	82.09
358.23	24.75
358.441	69.8
358.653	2.22
358.864	-22.36
359.075	-14.17
359.287	86.19
359.498	24.75
359.709	6.31
359.921	67.75
360.132	-38.74
360.344	71.85
360.555	-20.31
360.766	34.99
360.977	51.37
361.189	118.95
361.4	34.99
361.611	2.22
361.823	30.89
362.034	-12.12
362.245	57.51
362.456	73.9
362.667	73.9
362.879	-3.93
363.09	18.6
363.301	55.47
363.512	71.85
363.723	-1.88
363.935	14.51
364.146	96.43
364.357	84.14
364.568	90.28
364.779	24.75
364.99	30.89
365.201	45.23
365.412	57.51
365.623	14.51
365.834	39.08
366.045	-1.88
366.256	65.71
366.467	108.71
366.678	41.13
366.889	-18.26
367.1	49.32
367.311	45.23
367.522	-12.12
367.733	14.51
367.944	51.37
368.155	-10.07
368.366	92.33
368.577	63.66
368.788	123.05
368.999	-36.69
369.209	47.27
369.42	129.19
369.631	30.89
369.842	22.7
370.053	26.79
370.264	69.8
370.474	14.51
370.685	92.33
370.896	18.6
371.107	67.75
371.317	-10.07
371.528	8.36
371.739	100.52
371.95	75.95
372.16	73.9
372.371	10.41
372.582	-1.88
372.792	-1.88
373.003	92.33
373.214	51.37
373.424	30.89
373.635	-14.17
373.846	69.8
374.056	45.23
374.267	55.47
374.477	30.89
374.688	28.84
374.898	82.09
375.109	-1.88
375.319	14.51
375.53	125.1
375.74	57.51
375.951	71.85
376.161	6.31
376.372	84.14
376.582	-14.17
376.793	65.71
377.003	75.95
377.214	51.37
377.424	47.27
377.635	69.8
377.845	39.08
378.055	125.1
378.266	49.32
378.476	98.47
378.686	88.23
378.897	32.94
379.107	37.03
379.317	86.19
379.528	-1.88
379.738	55.47
379.948	20.65
380.158	73.9
380.369	47.27
380.579	65.71
380.789	67.75
380.999	32.94
381.21	32.94
381.42	135.34
381.63	12.46
381.84	63.66
382.05	145.58
382.261	57.51
382.471	55.47
382.681	39.08
382.891	82.09
383.101	116.9
383.311	80.04
383.521	63.66
383.731	-46.93
383.941	96.43
384.151	127.14
384.361	43.18
384.571	47.27
384.781	10.41
384.991	143.53
385.201	6.31
385.411	86.19
385.621	26.79
385.831	34.99
386.041	22.7
386.251	49.32
386.461	82.09
386.671	90.28
386.881	121
387.091	88.23
387.301	108.71
387.511	73.9
387.72	88.23
387.93	71.85
388.14	-34.64
388.35	55.47
388.56	73.9
388.769	65.71
388.979	121
389.189	86.19
389.399	45.23
389.609	100.52
389.818	88.23
390.028	59.56
390.238	96.43
390.447	43.18
390.657	116.9
390.867	30.89
391.076	63.66
391.286	14.51
391.496	55.47
391.705	37.03
391.915	71.85
392.125	104.62
392.334	61.61
392.544	102.57
392.753	94.38
392.963	30.89
393.172	104.62
393.382	65.71
393.591	104.62
393.801	92.33
394.01	180.39
394.22	100.52
394.429	24.75
394.639	80.04
394.848	131.24
395.058	71.85
395.267	32.94
395.477	88.23
395.686	110.76
395.895	184.49
396.105	88.23
396.314	108.71
396.524	47.27
396.733	82.09
396.942	84.14
397.152	110.76
397.361	164.01
397.57	196.78
397.78	129.19
397.989	77.99
398.198	178.34
398.407	102.57
398.617	69.8
398.826	22.7
399.035	123.05
399.244	65.71
399.453	82.09
399.663	116.9
399.872	170.15
400.081	73.9
400.29	194.73
400.499	114.86
400.708	164.01
400.917	164.01
401.127	82.09
401.336	55.47
401.545	170.15
401.754	153.77
401.963	211.11
402.172	139.43
402.381	127.14
402.59	88.23
402.799	137.38
403.008	155.82
403.217	116.9
403.426	116.9
403.635	170.15
403.844	121
404.053	151.72
404.262	157.86
404.471	198.82
404.68	108.71
404.888	161.96
405.097	174.25
405.306	153.77
405.515	207.02
405.724	235.69
405.933	168.1
406.142	170.15
406.35	217.26
406.559	123.05
406.768	270.5
406.977	239.78
407.185	235.69
407.394	243.88
407.603	161.96
407.812	239.78
408.02	317.61
408.229	235.69
408.438	270.5
408.646	268.45
408.855	237.74
409.064	221.35
409.272	338.09
409.481	333.99
409.69	321.7
409.898	391.33
410.107	350.37
410.315	274.6
410.524	424.1
410.733	387.24
410.941	377
411.15	366.76
411.358	442.53
411.567	452.77
411.775	333.99
411.984	483.49
412.192	458.92
412.401	557.22
412.609	573.6
412.818	499.88
413.026	598.18
413.234	565.41
413.443	546.98
413.651	649.38
413.86	645.28
414.068	727.2
414.276	657.57
414.485	637.09
414.693	727.2
414.901	805.02
415.11	780.45
415.318	729.25
415.526	772.25
415.734	901.28
415.943	915.61
416.151	948.38
416.359	923.8
416.567	960.67
416.776	972.96
416.984	1026.2
417.192	1011.87
417.4	1128.6
417.608	1112.22
417.817	1075.35
418.025	1296.53
418.233	1341.59
418.441	1317.01
418.649	1312.92
418.857	1284.25
419.065	1489.04
419.273	1448.08
419.481	1558.67
419.689	1521.81
419.897	1704.08
420.105	1585.3
420.313	1747.09
420.521	1898.64
420.729	1833.1
420.937	1943.69
421.145	1923.21
421.353	2105.48
421.561	2179.21
421.769	2140.3
421.977	2326.66
422.185	2424.97
422.393	2365.57
422.601	2465.93
422.809	2472.07
423.017	2474.12
423.224	2693.25
423.432	2723.97
423.64	2828.42
423.848	3049.6
424.056	2963.58
424.263	3151.99
424.471	3160.19
424.679	3258.49
424.887	3364.98
425.094	3446.9
425.302	3522.68
425.51	3682.42
425.718	3739.76
425.925	3627.12
426.133	3901.55
426.341	4049
426.548	4384.87
426.756	4298.86
426.964	4325.48
427.171	4585.57
427.379	4880.48
427.586	4839.52
427.794	4933.73
428.001	5245.02
428.209	5521.49
428.417	5355.61
428.624	5757.01
428.832	5718.1
429.039	5687.38
429.247	5806.16
429.454	6412.36
429.662	6570.05
429.869	6234.19
430.076	6678.6
430.284	6447.18
430.491	6774.85
430.699	7389.24
430.906	7022.66
431.114	7266.36
431.321	7553.08
431.528	7673.91
431.736	8140.85
431.943	8599.59
432.15	8114.22
432.358	8405.03
432.565	8816.68
432.772	8724.52
432.979	9279.52
433.187	9467.93
433.394	9476.12
433.601	9855
433.808	10174.48
434.016	10151.95
434.223	10450.96
434.43	11171.84
434.637	10862.6
434.844	11626.49
435.052	11853.81
435.259	11556.86
435.466	11687.93
435.673	11476.99
435.88	12330.99
436.087	12984.29
436.294	12900.33
436.501	12707.82
436.708	13086.69
436.915	13328.35
437.122	14004.18
437.329	13799.38
437.537	14421.97
437.743	14794.7
437.95	14657.48
438.157	15419.33
438.364	15769.53
438.571	15755.19
438.778	15968.18
438.985	17504.16
439.192	16527.28
439.399	17250.21
439.606	17037.22
439.813	17938.33
440.02	18804.62
440.227	18411.41
440.433	18390.93
440.64	19195.78
440.847	18878.35
441.054	19310.47
441.261	20475.76
441.467	20424.56
441.674	20733.81
441.881	21260.13
442.088	21401.44
442.294	21174.12
442.501	21860.19
442.708	22069.08
442.914	22910.8
443.121	24065.85
443.328	23242.57
443.534	25192.23
443.741	24493.88
443.948	23732.03
444.154	25556.77
444.361	25448.23
444.568	25546.53
444.774	25913.12
444.981	26205.98
445.187	26646.29
445.394	27686.66
445.6	27334.41
445.807	30029.54
446.013	28507.9
446.22	29347.56
446.426	30826.2
446.633	30770.9
446.839	31930.05
447.046	30488.28
447.252	31975.11
447.459	31612.62
447.665	32169.66
447.871	33392.3
448.078	34934.42
448.284	33169.07
448.491	33973.92
448.697	35317.39
448.903	35856.01
449.11	36062.85
449.316	35423.89
449.522	35745.42
449.728	37176.95
449.935	37541.49
450.141	37430.9
450.347	38530.65
450.553	36947.57
450.76	37584.49
450.966	39046.74
451.172	38311.52
451.378	39306.83
451.584	38622.81
451.791	39493.2
451.997	39175.76
452.203	40037.96
452.409	40007.24
452.615	39919.18
452.821	38452.83
453.027	38305.38
453.233	40040.01
453.44	38653.53
453.646	38807.13
453.852	39286.36
454.058	39831.11
454.264	38549.09
454.47	39456.34
454.676	38485.6
454.882	39650.89
455.088	36333.18
455.294	36871.8
455.5	37154.42
455.705	37787.24
455.911	36032.13
456.117	35700.36
456.323	34967.19
456.529	33255.09
456.735	34850.45
456.941	33466.03
457.147	33593
457.352	32376.51
457.558	32196.29
457.764	32192.19
457.97	31440.59
458.176	30957.27
458.381	30541.53
458.587	29564.65
458.793	29382.38
458.999	27885.31
459.204	29951.71
459.41	28661.49
459.616	27113.23
459.821	27432.71
460.027	27062.03
460.233	26562.33
460.438	25282.34
460.644	25644.84
460.85	24551.22
461.055	23955.26
461.261	23805.76
461.466	22196.06
461.672	21522.27
461.878	22984.52
462.083	21385.06
462.289	21127.02
462.494	20930.41
462.7	20039.54
462.905	19244.93
463.111	19984.25
463.316	20223.86
463.522	19779.45
463.727	19826.56
463.932	19916.67
464.138	19396.48
464.343	19693.44
464.549	19052.42
464.754	19691.39
464.959	19615.62
465.165	19191.69
465.37	18612.11
465.575	18368.4
465.781	18810.76
465.986	18704.27
466.191	18153.37
466.397	17856.41
466.602	17362.85
466.807	17670.05
467.012	17614.75
467.218	17651.61
467.423	17237.92
