Data from USB4F104151__23__14-16-15-397.txt Node

Date: Thu Mar 13 14:16:15 EDT 2025
User: louis
Spectrometer: USB4F10415
Trigger mode: 4
Integration Time (sec): 2.000000E-2
Scans to average: 1
Electric dark correction enabled: true
Nonlinearity correction enabled: false
Boxcar width: 0
XAxis mode: Wavelengths
Number of Pixels in Spectrum: 3648
>>>>>Begin Spectral Data<<<<<
178.204	-74.41
178.424	-74.41
178.644	-74.41
178.864	-156.33
179.084	-115.37
179.304	-25.26
179.524	-25.26
179.744	-31.4
179.964	66.9
180.184	56.66
180.404	-49.83
180.624	-31.4
180.844	-37.55
181.064	-6.83
181.283	11.61
181.503	40.28
181.723	32.08
181.943	-33.45
182.163	68.95
182.383	-58.03
182.602	27.99
182.822	-23.21
183.042	34.13
183.262	13.65
183.482	-8.87
183.701	-37.55
183.921	64.85
184.141	3.41
184.361	64.85
184.58	-0.68
184.8	23.89
185.02	73.04
185.239	48.47
185.459	34.13
185.679	-4.78
185.898	68.95
186.118	48.47
186.338	38.23
186.557	93.52
186.777	19.8
186.997	73.04
187.216	56.66
187.436	126.29
187.655	9.56
187.875	40.28
188.095	85.33
188.314	62.8
188.534	44.37
188.753	23.89
188.973	48.47
189.192	-49.83
189.412	83.28
189.631	46.42
189.851	32.08
190.07	38.23
190.29	34.13
190.509	-0.68
190.729	-39.59
190.948	56.66
191.168	148.82
191.387	52.56
191.607	-4.78
191.826	-41.64
192.045	75.09
192.265	15.7
192.484	56.66
192.704	13.65
192.923	38.23
193.142	71
193.362	46.42
193.581	118.1
193.8	44.37
194.02	11.61
194.239	109.91
194.458	75.09
194.678	17.75
194.897	13.65
195.116	15.7
195.335	32.08
195.555	-21.16
195.774	48.47
195.993	27.99
196.212	50.52
196.432	48.47
196.651	40.28
196.87	68.95
197.089	56.66
197.308	25.94
197.528	17.75
197.747	25.94
197.966	-0.68
198.185	73.04
198.404	36.18
198.623	85.33
198.842	64.85
199.062	40.28
199.281	7.51
199.5	30.04
199.719	52.56
199.938	109.91
200.157	75.09
200.376	58.71
200.595	114
200.814	36.18
201.033	81.24
201.252	25.94
201.471	71
201.69	85.33
201.909	124.24
202.128	42.32
202.347	-0.68
202.566	27.99
202.785	17.75
203.004	52.56
203.223	27.99
203.442	3.41
203.661	27.99
203.879	13.65
204.098	1.37
204.317	-6.83
204.536	9.56
204.755	-15.02
204.974	40.28
205.193	68.95
205.411	140.63
205.63	144.72
205.849	105.81
206.068	68.95
206.287	-15.02
206.505	50.52
206.724	62.8
206.943	30.04
207.162	62.8
207.381	109.91
207.599	-4.78
207.818	7.51
208.037	-12.97
208.255	42.32
208.474	42.32
208.693	46.42
208.911	7.51
209.13	-8.87
209.349	34.13
209.567	-19.11
209.786	-6.83
210.005	11.61
210.223	25.94
210.442	13.65
210.661	56.66
210.879	52.56
211.098	85.33
211.316	25.94
211.535	109.91
211.753	52.56
211.972	17.75
212.191	15.7
212.409	11.61
212.628	23.89
212.846	38.23
213.065	46.42
213.283	134.48
213.502	73.04
213.72	44.37
213.938	95.57
214.157	32.08
214.375	83.28
214.594	44.37
214.812	150.87
215.031	11.61
215.249	52.56
215.467	42.32
215.686	21.84
215.904	91.48
216.122	118.1
216.341	23.89
216.559	-2.73
216.778	7.51
216.996	34.13
217.214	19.8
217.432	60.76
217.651	15.7
217.869	95.57
218.087	50.52
218.306	85.33
218.524	11.61
218.742	-25.26
218.96	34.13
219.179	23.89
219.397	44.37
219.615	95.57
219.833	89.43
220.051	19.8
220.27	56.66
220.488	44.37
220.706	60.76
220.924	64.85
221.142	101.72
221.36	-19.11
221.578	-8.87
221.796	27.99
222.015	58.71
222.233	15.7
222.451	56.66
222.669	1.37
222.887	40.28
223.105	32.08
223.323	-25.26
223.541	19.8
223.759	-12.97
223.977	-31.4
224.195	64.85
224.413	68.95
224.631	89.43
224.849	42.32
225.067	138.58
225.285	73.04
225.503	56.66
225.721	23.89
225.939	48.47
226.157	66.9
226.375	81.24
226.592	-15.02
226.81	58.71
227.028	101.72
227.246	73.04
227.464	-21.16
227.682	48.47
227.9	56.66
228.117	36.18
228.335	27.99
228.553	60.76
228.771	75.09
228.989	62.8
229.206	38.23
229.424	27.99
229.642	-41.64
229.86	34.13
230.077	38.23
230.295	56.66
230.513	7.51
230.731	58.71
230.948	83.28
231.166	91.48
231.384	44.37
231.601	48.47
231.819	124.24
232.037	42.32
232.254	-47.79
232.472	25.94
232.689	40.28
232.907	46.42
233.125	-29.35
233.342	25.94
233.56	11.61
233.777	56.66
233.995	56.66
234.213	7.51
234.43	54.61
234.648	-19.11
234.865	54.61
235.083	97.62
235.3	40.28
235.518	60.76
235.735	56.66
235.953	81.24
236.17	40.28
236.388	73.04
236.605	23.89
236.822	75.09
237.04	64.85
237.257	23.89
237.475	-25.26
237.692	30.04
237.909	75.09
238.127	56.66
238.344	101.72
238.562	36.18
238.779	-25.26
238.996	17.75
239.214	71
239.431	85.33
239.648	-8.87
239.865	-10.92
240.083	138.58
240.3	66.9
240.517	11.61
240.735	58.71
240.952	-53.93
241.169	99.67
241.386	1.37
241.603	9.56
241.821	42.32
242.038	83.28
242.255	-12.97
242.472	73.04
242.689	-0.68
242.907	42.32
243.124	25.94
243.341	-2.73
243.558	-0.68
243.775	36.18
243.992	-66.22
244.209	81.24
244.426	58.71
244.643	109.91
244.86	89.43
245.078	124.24
245.295	60.76
245.512	36.18
245.729	13.65
245.946	11.61
246.163	89.43
246.38	56.66
246.597	44.37
246.814	7.51
247.031	23.89
247.248	5.46
247.464	89.43
247.681	46.42
247.898	9.56
248.115	27.99
248.332	58.71
248.549	7.51
248.766	52.56
248.983	89.43
249.2	32.08
249.417	64.85
249.633	42.32
249.85	44.37
250.067	77.14
250.284	50.52
250.501	44.37
250.717	48.47
250.934	-4.78
251.151	3.41
251.368	17.75
251.585	66.9
251.801	7.51
252.018	34.13
252.235	109.91
252.451	81.24
252.668	75.09
252.885	83.28
253.102	3.41
253.318	77.14
253.535	-8.87
253.752	21.84
253.968	-6.83
254.185	7.51
254.401	15.7
254.618	111.96
254.835	-0.68
255.051	32.08
255.268	56.66
255.484	58.71
255.701	48.47
255.917	60.76
256.134	13.65
256.351	36.18
256.567	75.09
256.784	-45.74
257	36.18
257.217	32.08
257.433	11.61
257.65	60.76
257.866	38.23
258.082	15.7
258.299	19.8
258.515	-17.07
258.732	34.13
258.948	-25.26
259.165	62.8
259.381	68.95
259.597	50.52
259.814	42.32
260.03	-39.59
260.246	13.65
260.463	60.76
260.679	32.08
260.895	56.66
261.112	15.7
261.328	-29.35
261.544	27.99
261.761	99.67
261.977	15.7
262.193	-58.03
262.409	3.41
262.626	-27.31
262.842	81.24
263.058	58.71
263.274	103.76
263.49	64.85
263.707	34.13
263.923	91.48
264.139	-82.6
264.355	3.41
264.571	97.62
264.787	91.48
265.004	114
265.22	5.46
265.436	48.47
265.652	58.71
265.868	32.08
266.084	7.51
266.3	-25.26
266.516	9.56
266.732	89.43
266.948	44.37
267.164	-64.17
267.38	75.09
267.596	32.08
267.812	97.62
268.028	34.13
268.244	42.32
268.46	50.52
268.676	27.99
268.892	52.56
269.108	-0.68
269.324	40.28
269.54	-6.83
269.756	73.04
269.972	77.14
270.188	40.28
270.403	97.62
270.619	58.71
270.835	-12.97
271.051	25.94
271.267	52.56
271.483	44.37
271.698	105.81
271.914	48.47
272.13	40.28
272.346	-27.31
272.562	40.28
272.777	105.81
272.993	81.24
273.209	85.33
273.425	23.89
273.64	54.61
273.856	56.66
274.072	32.08
274.287	116.05
274.503	58.71
274.719	56.66
274.934	62.8
275.15	-25.26
275.366	7.51
275.581	-86.7
275.797	89.43
276.012	-41.64
276.228	73.04
276.444	-17.07
276.659	52.56
276.875	-8.87
277.09	64.85
277.306	13.65
277.521	54.61
277.737	40.28
277.952	73.04
278.168	-0.68
278.383	-17.07
278.599	5.46
278.814	68.95
279.03	56.66
279.245	40.28
279.461	15.7
279.676	17.75
279.892	64.85
280.107	161.11
280.322	68.95
280.538	44.37
280.753	52.56
280.969	-6.83
281.184	50.52
281.399	64.85
281.615	-12.97
281.83	134.48
282.045	9.56
282.26	11.61
282.476	1.37
282.691	38.23
282.906	91.48
283.122	-4.78
283.337	3.41
283.552	52.56
283.767	60.76
283.983	40.28
284.198	50.52
284.413	79.19
284.628	-33.45
284.843	48.47
285.058	73.04
285.274	32.08
285.489	-23.21
285.704	68.95
285.919	81.24
286.134	40.28
286.349	-2.73
286.564	73.04
286.779	93.52
286.995	15.7
287.21	-107.18
287.425	48.47
287.64	25.94
287.855	50.52
288.07	-4.78
288.285	50.52
288.5	105.81
288.715	116.05
288.93	19.8
289.145	27.99
289.36	93.52
289.575	87.38
289.79	50.52
290.004	58.71
290.219	48.47
290.434	56.66
290.649	9.56
290.864	114
291.079	19.8
291.294	73.04
291.509	27.99
291.724	52.56
291.938	-8.87
292.153	60.76
292.368	7.51
292.583	75.09
292.798	79.19
293.012	27.99
293.227	71
293.442	-31.4
293.657	103.76
293.871	64.85
294.086	38.23
294.301	50.52
294.516	7.51
294.73	48.47
294.945	122.2
295.16	48.47
295.374	48.47
295.589	17.75
295.804	13.65
296.018	9.56
296.233	75.09
296.447	25.94
296.662	25.94
296.877	122.2
297.091	77.14
297.306	107.86
297.52	15.7
297.735	73.04
297.949	83.28
298.164	40.28
298.378	19.8
298.593	-19.11
298.807	7.51
299.022	48.47
299.236	89.43
299.451	81.24
299.665	19.8
299.88	44.37
300.094	38.23
300.309	56.66
300.523	1.37
300.737	79.19
300.952	17.75
301.166	132.44
301.381	-12.97
301.595	68.95
301.809	-8.87
302.024	7.51
302.238	21.84
302.452	97.62
302.667	7.51
302.881	81.24
303.095	89.43
303.309	23.89
303.524	5.46
303.738	83.28
303.952	-29.35
304.166	48.47
304.381	17.75
304.595	97.62
304.809	32.08
305.023	46.42
305.237	64.85
305.452	68.95
305.666	7.51
305.88	97.62
306.094	40.28
306.308	11.61
306.522	17.75
306.736	83.28
306.95	23.89
307.164	27.99
307.379	19.8
307.593	73.04
307.807	154.96
308.021	85.33
308.235	73.04
308.449	-23.21
308.663	46.42
308.877	109.91
309.091	1.37
309.305	66.9
309.519	50.52
309.733	50.52
309.947	-25.26
310.161	64.85
310.374	56.66
310.588	42.32
310.802	3.41
311.016	-8.87
311.23	64.85
311.444	71
311.658	-49.83
311.872	66.9
312.085	32.08
312.299	42.32
312.513	50.52
312.727	54.61
312.941	-8.87
313.154	91.48
313.368	38.23
313.582	25.94
313.796	48.47
314.009	-23.21
314.223	15.7
314.437	64.85
314.651	109.91
314.864	77.14
315.078	85.33
315.292	1.37
315.505	-21.16
315.719	27.99
315.933	32.08
316.146	9.56
316.36	42.32
316.573	83.28
316.787	32.08
317.001	42.32
317.214	-12.97
317.428	56.66
317.641	62.8
317.855	-19.11
318.068	50.52
318.282	-23.21
318.495	34.13
318.709	17.75
318.922	48.47
319.136	17.75
319.349	-37.55
319.563	42.32
319.776	40.28
319.99	11.61
320.203	89.43
320.417	56.66
320.63	34.13
320.843	9.56
321.057	120.15
321.27	148.82
321.483	-51.88
321.697	75.09
321.91	97.62
322.124	7.51
322.337	1.37
322.55	71
322.763	11.61
322.977	58.71
323.19	42.32
323.403	11.61
323.617	32.08
323.83	-12.97
324.043	13.65
324.256	-8.87
324.469	-8.87
324.683	15.7
324.896	11.61
325.109	116.05
325.322	19.8
325.535	77.14
325.748	-31.4
325.962	25.94
326.175	95.57
326.388	62.8
326.601	44.37
326.814	62.8
327.027	-82.6
327.24	107.86
327.453	38.23
327.666	68.95
327.879	52.56
328.092	105.81
328.305	36.18
328.518	42.32
328.731	34.13
328.944	32.08
329.157	-0.68
329.37	-17.07
329.583	85.33
329.796	75.09
330.009	9.56
330.222	138.58
330.435	48.47
330.648	-17.07
330.861	48.47
331.073	56.66
331.286	64.85
331.499	62.8
331.712	-25.26
331.925	107.86
332.138	40.28
332.35	66.9
332.563	23.89
332.776	79.19
332.989	68.95
333.202	64.85
333.414	58.71
333.627	95.57
333.84	89.43
334.053	25.94
334.265	114
334.478	58.71
334.691	75.09
334.903	40.28
335.116	99.67
335.329	60.76
335.541	83.28
335.754	30.04
335.966	13.65
336.179	114
336.392	50.52
336.604	7.51
336.817	71
337.029	114
337.242	34.13
337.454	50.52
337.667	36.18
337.88	52.56
338.092	89.43
338.305	56.66
338.517	34.13
338.729	130.39
338.942	71
339.154	17.75
339.367	-43.69
339.579	64.85
339.792	-15.02
340.004	73.04
340.217	5.46
340.429	23.89
340.641	62.8
340.854	9.56
341.066	81.24
341.278	118.1
341.491	150.87
341.703	23.89
341.915	48.47
342.128	83.28
342.34	7.51
342.552	-21.16
342.764	-15.02
342.977	56.66
343.189	64.85
343.401	62.8
343.613	40.28
343.826	56.66
344.038	60.76
344.25	42.32
344.462	44.37
344.674	81.24
344.886	9.56
345.099	97.62
345.311	68.95
345.523	36.18
345.735	56.66
345.947	83.28
346.159	11.61
346.371	32.08
346.583	40.28
346.795	130.39
347.007	23.89
347.219	107.86
347.431	62.8
347.643	34.13
347.855	-66.22
348.067	-37.55
348.279	25.94
348.491	21.84
348.703	42.32
348.915	-64.17
349.127	71
349.339	48.47
349.551	27.99
349.763	83.28
349.975	40.28
350.187	138.58
350.399	75.09
350.61	64.85
350.822	25.94
351.034	58.71
351.246	48.47
351.458	114
351.669	11.61
351.881	99.67
352.093	42.32
352.305	64.85
352.517	34.13
352.728	154.96
352.94	27.99
353.152	44.37
353.363	25.94
353.575	30.04
353.787	97.62
353.999	114
354.21	103.76
354.422	34.13
354.633	91.48
354.845	83.28
355.057	75.09
355.268	87.38
355.48	111.96
355.692	21.84
355.903	11.61
356.115	91.48
356.326	13.65
356.538	71
356.749	116.05
356.961	150.87
357.172	89.43
357.384	48.47
357.595	77.14
357.807	99.67
358.018	85.33
358.23	23.89
358.441	89.43
358.653	132.44
358.864	36.18
359.075	42.32
359.287	93.52
359.498	-0.68
359.709	40.28
359.921	48.47
360.132	56.66
360.344	25.94
360.555	48.47
360.766	46.42
360.977	101.72
361.189	66.9
361.4	19.8
361.611	62.8
361.823	97.62
362.034	99.67
362.245	66.9
362.456	36.18
362.667	23.89
362.879	71
363.09	44.37
363.301	152.91
363.512	58.71
363.723	54.61
363.935	44.37
364.146	130.39
364.357	32.08
364.568	105.81
364.779	73.04
364.99	23.89
365.201	32.08
365.412	93.52
365.623	56.66
365.834	89.43
366.045	87.38
366.256	77.14
366.467	5.46
366.678	-0.68
366.889	56.66
367.1	27.99
367.311	-0.68
367.522	32.08
367.733	23.89
367.944	44.37
368.155	54.61
368.366	91.48
368.577	9.56
368.788	66.9
368.999	-2.73
369.209	105.81
369.42	138.58
369.631	87.38
369.842	85.33
370.053	32.08
370.264	48.47
370.474	27.99
370.685	99.67
370.896	75.09
371.107	32.08
371.317	64.85
371.528	3.41
371.739	93.52
371.95	36.18
372.16	60.76
372.371	-49.83
372.582	19.8
372.792	-4.78
373.003	114
373.214	23.89
373.424	99.67
373.635	64.85
373.846	116.05
374.056	17.75
374.267	66.9
374.477	48.47
374.688	64.85
374.898	-6.83
375.109	77.14
375.319	38.23
375.53	122.2
375.74	87.38
375.951	114
376.161	66.9
376.372	71
376.582	48.47
376.793	75.09
377.003	81.24
377.214	50.52
377.424	77.14
377.635	73.04
377.845	95.57
378.055	105.81
378.266	3.41
378.476	42.32
378.686	11.61
378.897	107.86
379.107	73.04
379.317	-2.73
379.528	64.85
379.738	89.43
379.948	89.43
380.158	99.67
380.369	58.71
380.579	52.56
380.789	11.61
380.999	44.37
381.21	42.32
381.42	163.15
381.63	36.18
381.84	114
382.05	103.76
382.261	-15.02
382.471	124.24
382.681	54.61
382.891	116.05
383.101	56.66
383.311	68.95
383.521	89.43
383.731	58.71
383.941	71
384.151	48.47
384.361	75.09
384.571	58.71
384.781	50.52
384.991	91.48
385.201	101.72
385.411	122.2
385.621	73.04
385.831	66.9
386.041	7.51
386.251	-4.78
386.461	77.14
386.671	87.38
386.881	64.85
387.091	60.76
387.301	107.86
387.511	50.52
387.72	58.71
387.93	9.56
388.14	52.56
388.35	83.28
388.56	52.56
388.769	48.47
388.979	56.66
389.189	32.08
389.399	7.51
389.609	58.71
389.818	87.38
390.028	60.76
390.238	107.86
390.447	122.2
390.657	71
390.867	27.99
391.076	40.28
391.286	105.81
391.496	56.66
391.705	19.8
391.915	97.62
392.125	91.48
392.334	7.51
392.544	58.71
392.753	105.81
392.963	32.08
393.172	114
393.382	97.62
393.591	107.86
393.801	50.52
394.01	122.2
394.22	99.67
394.429	154.96
394.639	85.33
394.848	99.67
395.058	118.1
395.267	116.05
395.477	73.04
395.686	146.77
395.895	75.09
396.105	142.68
396.314	87.38
396.524	114
396.733	77.14
396.942	122.2
397.152	64.85
397.361	89.43
397.57	9.56
397.78	48.47
397.989	75.09
398.198	97.62
398.407	101.72
398.617	73.04
398.826	107.86
399.035	116.05
399.244	138.58
399.453	44.37
399.663	95.57
399.872	183.63
400.081	46.42
400.29	148.82
400.499	81.24
400.708	97.62
400.917	13.65
401.127	79.19
401.336	146.77
401.545	159.06
401.754	124.24
401.963	109.91
402.172	175.44
402.381	126.29
402.59	93.52
402.799	171.35
403.008	91.48
403.217	109.91
403.426	157.01
403.635	109.91
403.844	93.52
404.053	81.24
404.262	103.76
404.471	171.35
404.68	173.39
404.888	68.95
405.097	175.44
405.306	165.2
405.515	179.54
405.724	146.77
405.933	187.73
406.142	154.96
406.35	159.06
406.559	200.02
406.768	191.83
406.977	253.27
407.185	255.31
407.394	126.29
407.603	240.98
407.812	230.74
408.02	261.46
408.229	208.21
408.438	261.46
408.646	173.39
408.855	195.92
409.064	279.89
409.272	187.73
409.481	283.98
409.69	322.9
409.898	212.31
410.107	226.64
410.315	281.94
410.524	249.17
410.733	329.04
410.941	376.14
411.15	341.33
411.358	384.34
411.567	466.25
411.775	322.9
411.984	400.72
412.192	472.4
412.401	396.62
412.609	402.77
412.818	435.53
413.026	441.68
413.234	474.45
413.443	533.84
413.651	462.16
413.86	431.44
414.068	523.6
414.276	607.56
414.485	615.76
414.693	580.94
414.901	650.57
415.11	687.43
415.318	599.37
415.526	681.29
415.734	632.14
415.943	726.35
416.151	765.26
416.359	720.2
416.567	816.46
416.776	795.98
416.984	912.71
417.192	927.05
417.4	875.85
417.608	912.71
417.817	961.86
418.025	986.44
418.233	1064.26
418.441	1011.01
418.649	1162.56
418.857	1146.18
419.065	1187.14
419.273	1178.95
419.481	1256.77
419.689	1428.8
419.897	1355.07
420.105	1334.59
420.313	1473.85
420.521	1590.59
420.729	1539.39
420.937	1621.31
421.145	1604.92
421.353	1707.32
421.561	1776.95
421.769	1785.15
421.977	1918.26
422.185	1889.59
422.393	2032.95
422.601	2075.96
422.809	2123.06
423.017	2045.24
423.224	2252.08
423.432	2262.32
423.64	2331.95
423.848	2579.76
424.056	2352.43
424.263	2563.37
424.471	2688.3
424.679	2628.91
424.887	2837.8
425.094	2862.38
425.302	2952.49
425.51	3079.46
425.718	3106.09
425.925	3145
426.133	3179.81
426.341	3427.62
426.548	3613.98
426.756	3575.07
426.964	3667.23
427.171	3927.32
427.379	4042.01
427.586	3980.57
427.794	4050.2
428.001	4316.44
428.209	4427.03
428.417	4455.7
428.624	4711.69
428.832	4662.54
429.039	4637.97
429.247	4701.45
429.454	5119.24
429.662	5608.7
429.869	5096.71
430.076	5618.94
430.284	5221.64
430.491	5596.42
430.699	6114.55
430.906	5897.47
431.114	5950.71
431.321	6300.92
431.528	6210.81
431.736	6782.19
431.943	7050.47
432.15	6900.97
432.358	6997.23
432.565	7242.98
432.772	7265.51
432.979	7722.21
433.187	7746.78
433.394	7855.33
433.601	8330.45
433.808	8244.44
434.016	8352.98
434.223	8674.51
434.43	9022.67
434.637	8998.09
434.844	9508.04
435.052	9702.59
435.259	9643.2
435.466	9600.19
435.673	9592
435.88	10325.18
436.087	10939.57
436.294	10851.5
436.501	10386.61
436.708	10650.8
436.915	10984.62
437.122	11603.11
437.329	11777.19
437.537	11996.32
437.743	12197.02
437.95	11836.58
438.157	12543.13
438.364	13034.64
438.571	13024.4
438.778	13149.32
438.985	14189.69
439.192	13730.95
439.399	14408.83
439.606	13876.35
439.813	14593.14
440.02	15498.34
440.227	15299.69
440.433	15248.49
440.64	15578.22
440.847	15498.34
441.054	16020.58
441.261	17142.86
441.467	16751.7
441.674	17202.25
441.881	17564.75
442.088	17652.81
442.294	17527.88
442.501	17849.41
442.708	18383.93
442.914	19031.09
443.121	20114.47
443.328	19448.88
443.534	20698.14
443.741	20044.84
443.948	19522.6
444.154	21060.63
444.361	21249.04
444.568	21472.27
444.774	21124.11
444.981	21705.74
445.187	22172.67
445.394	23180.28
445.6	22803.45
445.807	24939.48
446.013	23718.89
446.22	24173.54
446.426	25203.67
446.633	25375.7
446.839	26141.64
447.046	25005.02
447.252	26465.22
447.459	26395.59
447.665	26461.12
447.871	27261.88
448.078	28728.22
448.284	27499.44
448.491	27638.7
448.697	29299.61
448.903	29723.54
449.11	29948.81
449.316	29272.98
449.522	30032.78
449.728	30512
449.935	30856.06
450.141	30954.36
450.347	31769.46
450.553	30485.38
450.76	30952.32
450.966	32090.99
451.172	31976.3
451.378	32392.04
451.584	31824.75
451.791	32676.71
451.997	32680.8
452.203	32928.61
452.409	32914.27
452.615	33194.84
452.821	31673.2
453.027	31298.42
453.233	33088.35
453.44	31740.78
453.646	31984.49
453.852	32179.05
454.058	32799.58
454.264	31628.15
454.47	32813.92
454.676	31695.73
454.882	32686.95
455.088	29635.47
455.294	30534.53
455.5	30700.42
455.705	31099.77
455.911	30065.55
456.117	29318.04
456.323	29219.74
456.529	27446.19
456.735	29225.88
456.941	27884.46
457.147	27558.83
457.352	26616.77
457.558	26594.24
457.764	26190.79
457.97	26074.06
458.176	25635.79
458.381	25451.47
458.587	23872.49
458.793	23903.21
458.999	23170.04
459.204	24519.65
459.41	23878.63
459.616	22160.39
459.821	22244.35
460.027	22287.36
460.233	21818.38
460.438	20872.21
460.644	21324.82
460.85	20026.4
461.055	19633.19
461.261	19561.51
461.466	18144.32
461.672	18029.63
461.878	18897.97
462.083	17667.14
462.289	17435.72
462.494	17243.21
462.7	16301.15
462.905	15920.23
463.111	16524.38
463.316	16579.67
463.522	16182.37
463.727	15959.14
463.932	16204.89
464.138	16137.31
464.343	16319.58
464.549	15770.72
464.754	16151.65
464.959	16088.16
465.165	15703.14
465.37	15090.8
465.575	14777.46
465.781	15610.98
465.986	15488.1
466.191	15055.98
466.397	14695.54
466.602	13786.24
466.807	14441.59
467.012	14492.79
467.218	14359.67
467.423	14146.69
467.628	14455.93
467.833	14785.65
468.038	14163.07
468.244	13829.25
468.449	14269.56
