Data from USB4F104151__267__14-22-50-216.txt Node

Date: Thu Mar 13 14:22:50 EDT 2025
User: louis
Spectrometer: USB4F10415
Trigger mode: 4
Integration Time (sec): 2.000000E-2
Scans to average: 1
Electric dark correction enabled: true
Nonlinearity correction enabled: false
Boxcar width: 0
XAxis mode: Wavelengths
Number of Pixels in Spectrum: 3648
>>>>>Begin Spectral Data<<<<<
178.204	-131.58
178.424	-131.58
178.644	-131.58
178.864	-107.01
179.084	-98.81
179.304	58.88
179.524	-8.7
179.744	-23.04
179.964	-23.04
180.184	7.68
180.404	-4.61
180.624	65.02
180.844	30.21
181.064	-86.53
181.283	17.92
181.503	-41.47
181.723	7.68
181.943	-31.23
182.163	73.21
182.383	40.45
182.602	11.78
182.822	58.88
183.042	65.02
183.262	-31.23
183.482	-74.24
183.701	-8.7
183.921	-59.9
184.141	52.74
184.361	17.92
184.58	-64
184.8	34.3
185.02	9.73
185.239	116.22
185.459	3.58
185.679	71.17
185.898	-8.7
186.118	67.07
186.338	7.68
186.557	73.21
186.777	-18.94
186.997	65.02
187.216	7.68
187.436	65.02
187.655	50.69
187.875	73.21
188.095	-55.81
188.314	69.12
188.534	73.21
188.753	17.92
188.973	-2.56
189.192	17.92
189.412	32.26
189.631	-8.7
189.851	26.11
190.07	-12.8
190.29	11.78
190.509	-16.9
190.729	50.69
190.948	40.45
191.168	93.69
191.387	42.5
191.607	3.58
191.826	13.82
192.045	-0.51
192.265	40.45
192.484	17.92
192.704	17.92
192.923	7.68
193.142	22.02
193.362	-10.75
193.581	65.02
193.8	89.6
194.02	-8.7
194.239	32.26
194.458	7.68
194.678	-12.8
194.897	1.54
195.116	-37.38
195.335	11.78
195.555	105.98
195.774	24.06
195.993	19.97
196.212	48.64
196.432	3.58
196.651	71.17
196.87	-45.57
197.089	15.87
197.308	46.59
197.528	60.93
197.747	46.59
197.966	32.26
198.185	77.31
198.404	28.16
198.623	11.78
198.842	65.02
199.062	40.45
199.281	17.92
199.5	48.64
199.719	24.06
199.938	19.97
200.157	75.26
200.376	-14.85
200.595	9.73
200.814	60.93
201.033	40.45
201.252	9.73
201.471	73.21
201.69	-2.56
201.909	60.93
202.128	30.21
202.347	-6.66
202.566	-0.51
202.785	-23.04
203.004	-2.56
203.223	42.5
203.442	42.5
203.661	1.54
203.879	-41.47
204.098	73.21
204.317	40.45
204.536	28.16
204.755	32.26
204.974	44.54
205.193	15.87
205.411	114.17
205.63	-41.47
205.849	7.68
206.068	7.68
206.287	1.54
206.505	75.26
206.724	13.82
206.943	65.02
207.162	22.02
207.381	-25.09
207.599	9.73
207.818	-16.9
208.037	3.58
208.255	-8.7
208.474	11.78
208.693	-39.42
208.911	-43.52
209.13	19.97
209.349	38.4
209.567	1.54
209.786	17.92
210.005	-31.23
210.223	77.31
210.442	-82.43
210.661	60.93
210.879	44.54
211.098	34.3
211.316	-55.81
211.535	50.69
211.753	24.06
211.972	40.45
212.191	5.63
212.409	-0.51
212.628	85.5
212.846	15.87
213.065	28.16
213.283	130.56
213.502	-6.66
213.72	-16.9
213.938	3.58
214.157	9.73
214.375	3.58
214.594	-51.71
214.812	32.26
215.031	34.3
215.249	-8.7
215.467	52.74
215.686	50.69
215.904	32.26
216.122	13.82
216.341	77.31
216.559	58.88
216.778	15.87
216.996	77.31
217.214	-66.05
217.432	-25.09
217.651	7.68
217.869	19.97
218.087	42.5
218.306	-6.66
218.524	13.82
218.742	50.69
218.96	-8.7
219.179	-53.76
219.397	42.5
219.615	93.69
219.833	-6.66
220.051	-41.47
220.27	50.69
220.488	54.78
220.706	-55.81
220.924	58.88
221.142	48.64
221.36	62.98
221.578	73.21
221.796	-0.51
222.015	58.88
222.233	15.87
222.451	50.69
222.669	36.35
222.887	-2.56
223.105	-16.9
223.323	40.45
223.541	-37.38
223.759	85.5
223.977	34.3
224.195	48.64
224.413	15.87
224.631	65.02
224.849	30.21
225.067	40.45
225.285	7.68
225.503	-31.23
225.721	-31.23
225.939	22.02
226.157	32.26
226.375	56.83
226.592	-66.05
226.81	38.4
227.028	34.3
227.246	58.88
227.464	58.88
227.682	65.02
227.9	69.12
228.117	40.45
228.335	26.11
228.553	3.58
228.771	-14.85
228.989	-0.51
229.206	7.68
229.424	9.73
229.642	-16.9
229.86	-31.23
230.077	-49.66
230.295	15.87
230.513	34.3
230.731	30.21
230.948	140.8
231.166	42.5
231.384	-14.85
231.601	62.98
231.819	-25.09
232.037	42.5
232.254	-39.42
232.472	81.41
232.689	-23.04
232.907	48.64
233.125	15.87
233.342	-14.85
233.56	42.5
233.777	-25.09
233.995	-25.09
234.213	34.3
234.43	13.82
234.648	-16.9
234.865	24.06
235.083	32.26
235.3	50.69
235.518	65.02
235.735	65.02
235.953	83.45
236.17	42.5
236.388	89.6
236.605	11.78
236.822	-27.14
237.04	50.69
237.257	9.73
237.475	7.68
237.692	26.11
237.909	40.45
238.127	40.45
238.344	73.21
238.562	17.92
238.779	-49.66
238.996	11.78
239.214	97.79
239.431	77.31
239.648	46.59
239.865	-0.51
240.083	56.83
240.3	17.92
240.517	32.26
240.735	15.87
240.952	40.45
241.169	48.64
241.386	42.5
241.603	-53.76
241.821	-68.09
242.038	24.06
242.255	48.64
242.472	-18.94
242.689	24.06
242.907	7.68
243.124	75.26
243.341	-33.28
243.558	-33.28
243.775	-6.66
243.992	-37.38
244.209	-6.66
244.426	48.64
244.643	-39.42
244.86	-115.2
245.078	-6.66
245.295	44.54
245.512	32.26
245.729	85.5
245.946	36.35
246.163	-23.04
246.38	32.26
246.597	24.06
246.814	-6.66
247.031	24.06
247.248	9.73
247.464	26.11
247.681	56.83
247.898	44.54
248.115	-31.23
248.332	17.92
248.549	83.45
248.766	73.21
248.983	9.73
249.2	44.54
249.417	44.54
249.633	-12.8
249.85	-49.66
250.067	32.26
250.284	-4.61
250.501	17.92
250.717	89.6
250.934	-55.81
251.151	26.11
251.368	-31.23
251.585	40.45
251.801	34.3
252.018	-23.04
252.235	42.5
252.451	7.68
252.668	48.64
252.885	73.21
253.102	101.89
253.318	50.69
253.535	-0.51
253.752	-0.51
253.968	48.64
254.185	75.26
254.401	30.21
254.618	5.63
254.835	26.11
255.051	85.5
255.268	17.92
255.484	-12.8
255.701	-8.7
255.917	-6.66
256.134	36.35
256.351	17.92
256.567	11.78
256.784	73.21
257	-2.56
257.217	105.98
257.433	34.3
257.65	81.41
257.866	42.5
258.082	38.4
258.299	65.02
258.515	58.88
258.732	-33.28
258.948	-14.85
259.165	7.68
259.381	89.6
259.597	22.02
259.814	36.35
260.03	34.3
260.246	-64
260.463	46.59
260.679	15.87
260.895	-47.62
261.112	40.45
261.328	15.87
261.544	34.3
261.761	34.3
261.977	7.68
262.193	26.11
262.409	26.11
262.626	-12.8
262.842	-31.23
263.058	75.26
263.274	-0.51
263.49	110.08
263.707	34.3
263.923	50.69
264.139	52.74
264.355	-6.66
264.571	7.68
264.787	56.83
265.004	89.6
265.22	-0.51
265.436	-16.9
265.652	3.58
265.868	-25.09
266.084	1.54
266.3	52.74
266.516	-35.33
266.732	28.16
266.948	34.3
267.164	-35.33
267.38	24.06
267.596	44.54
267.812	34.3
268.028	-0.51
268.244	-51.71
268.46	26.11
268.676	9.73
268.892	-8.7
269.108	-0.51
269.324	-55.81
269.54	11.78
269.756	17.92
269.972	11.78
270.188	36.35
270.403	-41.47
270.619	30.21
270.835	-8.7
271.051	19.97
271.267	-70.14
271.483	15.87
271.698	-57.86
271.914	-0.51
272.13	40.45
272.346	-12.8
272.562	15.87
272.777	48.64
272.993	-2.56
273.209	17.92
273.425	11.78
273.64	24.06
273.856	65.02
274.072	-33.28
274.287	-8.7
274.503	42.5
274.719	-6.66
274.934	3.58
275.15	-37.38
275.366	73.21
275.581	30.21
275.797	108.03
276.012	69.12
276.228	48.64
276.444	19.97
276.659	56.83
276.875	-55.81
277.09	11.78
277.306	40.45
277.521	48.64
277.737	-8.7
277.952	42.5
278.168	-33.28
278.383	65.02
278.599	15.87
278.814	32.26
279.03	34.3
279.245	7.68
279.461	-20.99
279.676	11.78
279.892	-6.66
280.107	-64
280.322	-49.66
280.538	-0.51
280.753	67.07
280.969	42.5
281.184	-8.7
281.399	26.11
281.615	24.06
281.83	67.07
282.045	-86.53
282.26	24.06
282.476	34.3
282.691	56.83
282.906	30.21
283.122	13.82
283.337	-41.47
283.552	5.63
283.767	34.3
283.983	24.06
284.198	38.4
284.413	58.88
284.628	11.78
284.843	11.78
285.058	3.58
285.274	-43.52
285.489	-74.24
285.704	60.93
285.919	58.88
286.134	38.4
286.349	19.97
286.564	58.88
286.779	56.83
286.995	28.16
287.21	-16.9
287.425	89.6
287.64	-8.7
287.855	46.59
288.07	-18.94
288.285	95.74
288.5	11.78
288.715	7.68
288.93	48.64
289.145	-2.56
289.36	9.73
289.575	9.73
289.79	15.87
290.004	-14.85
290.219	40.45
290.434	-55.81
290.649	-33.28
290.864	-0.51
291.079	19.97
291.294	48.64
291.509	40.45
291.724	32.26
291.938	-23.04
292.153	15.87
292.368	11.78
292.583	60.93
292.798	40.45
293.012	38.4
293.227	81.41
293.442	-82.43
293.657	-20.99
293.871	28.16
294.086	-16.9
294.301	15.87
294.516	65.02
294.73	40.45
294.945	-14.85
295.16	46.59
295.374	-33.28
295.589	40.45
295.804	7.68
296.018	-33.28
296.233	-12.8
296.447	105.98
296.662	-33.28
296.877	42.5
297.091	17.92
297.306	-49.66
297.52	11.78
297.735	52.74
297.949	67.07
298.164	-35.33
298.378	26.11
298.593	-35.33
298.807	44.54
299.022	99.84
299.236	-0.51
299.451	48.64
299.665	48.64
299.88	44.54
300.094	77.31
300.309	-8.7
300.523	3.58
300.737	-14.85
300.952	54.78
301.166	-29.18
301.381	-6.66
301.595	36.35
301.809	60.93
302.024	19.97
302.238	-27.14
302.452	40.45
302.667	-16.9
302.881	9.73
303.095	5.63
303.309	24.06
303.524	-2.56
303.738	28.16
303.952	-6.66
304.166	65.02
304.381	-90.62
304.595	56.83
304.809	-12.8
305.023	22.02
305.237	19.97
305.452	-0.51
305.666	-4.61
305.88	19.97
306.094	11.78
306.308	19.97
306.522	52.74
306.736	114.17
306.95	71.17
307.164	-33.28
307.379	5.63
307.593	52.74
307.807	11.78
308.021	44.54
308.235	-12.8
308.449	-0.51
308.663	60.93
308.877	50.69
309.091	52.74
309.305	105.98
309.519	-33.28
309.733	73.21
309.947	-35.33
310.161	81.41
310.374	97.79
310.588	52.74
310.802	-35.33
311.016	50.69
311.23	-53.76
311.444	-16.9
311.658	-10.75
311.872	52.74
312.085	48.64
312.299	19.97
312.513	44.54
312.727	42.5
312.941	-8.7
313.154	56.83
313.368	28.16
313.582	26.11
313.796	-2.56
314.009	-8.7
314.223	58.88
314.437	17.92
314.651	28.16
314.864	40.45
315.078	19.97
315.292	-31.23
315.505	50.69
315.719	17.92
315.933	15.87
316.146	7.68
316.36	48.64
316.573	32.26
316.787	-12.8
317.001	44.54
317.214	-25.09
317.428	48.64
317.641	28.16
317.855	9.73
318.068	44.54
318.282	36.35
318.495	58.88
318.709	40.45
318.922	48.64
319.136	89.6
319.349	-12.8
319.563	9.73
319.776	11.78
319.99	-12.8
320.203	34.3
320.417	22.02
320.63	17.92
320.843	95.74
321.057	32.26
321.27	28.16
321.483	40.45
321.697	126.46
321.91	28.16
322.124	-14.85
322.337	36.35
322.55	42.5
322.763	-14.85
322.977	48.64
323.19	-6.66
323.403	-20.99
323.617	3.58
323.83	34.3
324.043	32.26
324.256	-6.66
324.469	-0.51
324.683	73.21
324.896	-18.94
325.109	69.12
325.322	69.12
325.535	50.69
325.748	15.87
325.962	103.93
326.175	-4.61
326.388	122.37
326.601	83.45
326.814	17.92
327.027	7.68
327.24	38.4
327.453	-49.66
327.666	32.26
327.879	13.82
328.092	99.84
328.305	-16.9
328.518	42.5
328.731	42.5
328.944	22.02
329.157	13.82
329.37	-33.28
329.583	60.93
329.796	79.36
330.009	-6.66
330.222	-35.33
330.435	40.45
330.648	44.54
330.861	32.26
331.073	-72.19
331.286	30.21
331.499	-23.04
331.712	32.26
331.925	56.83
332.138	7.68
332.35	17.92
332.563	75.26
332.776	34.3
332.989	9.73
333.202	13.82
333.414	56.83
333.627	38.4
333.84	48.64
334.053	85.5
334.265	34.3
334.478	-0.51
334.691	11.78
334.903	-14.85
335.116	13.82
335.329	19.97
335.541	26.11
335.754	112.13
335.966	52.74
336.179	24.06
336.392	-20.99
336.604	-14.85
336.817	60.93
337.029	50.69
337.242	44.54
337.454	77.31
337.667	22.02
337.88	56.83
338.092	-2.56
338.305	60.93
338.517	67.07
338.729	93.69
338.942	22.02
339.154	-4.61
339.367	24.06
339.579	58.88
339.792	-12.8
340.004	67.07
340.217	3.58
340.429	44.54
340.641	-0.51
340.854	-20.99
341.066	28.16
341.278	120.32
341.491	32.26
341.703	69.12
341.915	-18.94
342.128	42.5
342.34	-6.66
342.552	36.35
342.764	-23.04
342.977	28.16
343.189	44.54
343.401	-4.61
343.613	9.73
343.826	34.3
344.038	24.06
344.25	67.07
344.462	40.45
344.674	-16.9
344.886	19.97
345.099	15.87
345.311	11.78
345.523	-16.9
345.735	-33.28
345.947	-25.09
346.159	69.12
346.371	17.92
346.583	56.83
346.795	114.17
347.007	-6.66
347.219	48.64
347.431	-8.7
347.643	60.93
347.855	-16.9
348.067	71.17
348.279	5.63
348.491	-6.66
348.703	69.12
348.915	30.21
349.127	-31.23
349.339	-8.7
349.551	-2.56
349.763	65.02
349.975	17.92
350.187	48.64
350.399	34.3
350.61	40.45
350.822	-51.71
351.034	40.45
351.246	46.59
351.458	-16.9
351.669	40.45
351.881	-12.8
352.093	13.82
352.305	91.65
352.517	85.5
352.728	26.11
352.94	5.63
353.152	3.58
353.363	-49.66
353.575	46.59
353.787	65.02
353.999	54.78
354.21	52.74
354.422	-6.66
354.633	-57.86
354.845	13.82
355.057	67.07
355.268	34.3
355.48	89.6
355.692	42.5
355.903	22.02
356.115	3.58
356.326	-23.04
356.538	-10.75
356.749	79.36
356.961	48.64
357.172	19.97
357.384	-12.8
357.595	99.84
357.807	77.31
358.018	56.83
358.23	9.73
358.441	52.74
358.653	7.68
358.864	-0.51
359.075	60.93
359.287	-20.99
359.498	19.97
359.709	58.88
359.921	-8.7
360.132	17.92
360.344	60.93
360.555	-31.23
360.766	17.92
360.977	24.06
361.189	73.21
361.4	93.69
361.611	89.6
361.823	-64
362.034	52.74
362.245	-0.51
362.456	-4.61
362.667	87.55
362.879	65.02
363.09	7.68
363.301	-14.85
363.512	60.93
363.723	24.06
363.935	-39.42
364.146	130.56
364.357	15.87
364.568	13.82
364.779	11.78
364.99	83.45
365.201	-25.09
365.412	17.92
365.623	-64
365.834	91.65
366.045	38.4
366.256	163.33
366.467	44.54
366.678	17.92
366.889	1.54
367.1	-8.7
367.311	38.4
367.522	5.63
367.733	50.69
367.944	7.68
368.155	-16.9
368.366	73.21
368.577	32.26
368.788	81.41
368.999	3.58
369.209	62.98
369.42	52.74
369.631	114.17
369.842	-4.61
370.053	3.58
370.264	91.65
370.474	-43.52
370.685	34.3
370.896	11.78
371.107	97.79
371.317	7.68
371.528	28.16
371.739	24.06
371.95	28.16
372.16	34.3
372.371	17.92
372.582	-8.7
372.792	48.64
373.003	56.83
373.214	89.6
373.424	32.26
373.635	-12.8
373.846	56.83
374.056	89.6
374.267	9.73
374.477	48.64
374.688	-20.99
374.898	97.79
375.109	46.59
375.319	40.45
375.53	7.68
375.74	83.45
375.951	15.87
376.161	-47.62
376.372	44.54
376.582	-8.7
376.793	52.74
377.003	58.88
377.214	73.21
377.424	77.31
377.635	-35.33
377.845	-80.38
378.055	75.26
378.266	-8.7
378.476	3.58
378.686	-20.99
378.897	44.54
379.107	56.83
379.317	15.87
379.528	-33.28
379.738	26.11
379.948	46.59
380.158	40.45
380.369	-37.38
380.579	116.22
380.789	-25.09
380.999	-4.61
381.21	44.54
381.42	93.69
381.63	91.65
381.84	-8.7
382.05	54.78
382.261	-41.47
382.471	48.64
382.681	48.64
382.891	22.02
383.101	89.6
383.311	-0.51
383.521	44.54
383.731	99.84
383.941	81.41
384.151	36.35
384.361	60.93
384.571	15.87
384.781	56.83
384.991	40.45
385.201	91.65
385.411	-66.05
385.621	65.02
385.831	67.07
386.041	40.45
386.251	9.73
386.461	87.55
386.671	48.64
386.881	24.06
387.091	22.02
387.301	15.87
387.511	15.87
387.72	1.54
387.93	58.88
388.14	89.6
388.35	15.87
388.56	81.41
388.769	83.45
388.979	54.78
389.189	24.06
389.399	73.21
389.609	101.89
389.818	77.31
390.028	56.83
390.238	122.37
390.447	48.64
390.657	44.54
390.867	1.54
391.076	22.02
391.286	73.21
391.496	81.41
391.705	-43.52
391.915	105.98
392.125	73.21
392.334	40.45
392.544	73.21
392.753	17.92
392.963	87.55
393.172	93.69
393.382	83.45
393.591	73.21
393.801	81.41
394.01	52.74
394.22	15.87
394.429	28.16
394.639	32.26
394.848	91.65
395.058	19.97
395.267	114.17
395.477	69.12
395.686	69.12
395.895	46.59
396.105	83.45
396.314	58.88
396.524	22.02
396.733	15.87
396.942	69.12
397.152	62.98
397.361	122.37
397.57	87.55
397.78	73.21
397.989	48.64
398.198	89.6
398.407	83.45
398.617	126.46
398.826	58.88
399.035	65.02
399.244	87.55
399.453	118.27
399.663	81.41
399.872	112.13
400.081	89.6
400.29	-20.99
400.499	65.02
400.708	46.59
400.917	69.12
401.127	9.73
401.336	60.93
401.545	103.93
401.754	42.5
401.963	103.93
402.172	99.84
402.381	36.35
402.59	73.21
402.799	130.56
403.008	81.41
403.217	93.69
403.426	93.69
403.635	77.31
403.844	87.55
404.053	67.07
404.262	40.45
404.471	138.75
404.68	99.84
404.888	89.6
405.097	122.37
405.306	140.8
405.515	28.16
405.724	130.56
405.933	99.84
406.142	177.66
406.35	153.09
406.559	146.94
406.768	44.54
406.977	138.75
407.185	212.48
407.394	138.75
407.603	73.21
407.812	126.46
408.02	167.42
408.229	148.99
408.438	214.52
408.646	126.46
408.855	134.65
409.064	228.86
409.272	181.76
409.481	241.15
409.69	212.48
409.898	239.1
410.107	288.25
410.315	169.47
410.524	220.67
410.733	249.34
410.941	183.81
411.15	202.24
411.358	253.44
411.567	302.59
411.775	304.64
411.984	228.86
412.192	257.53
412.401	237.05
412.609	302.59
412.818	345.59
413.026	339.45
413.234	380.41
413.443	359.93
413.651	318.97
413.86	372.22
414.068	425.47
414.276	396.79
414.485	312.83
414.693	443.9
414.901	425.47
415.11	394.75
415.318	398.84
415.526	382.46
415.734	515.58
415.943	495.1
416.151	552.44
416.359	648.69
416.567	515.58
416.776	581.11
416.984	679.41
417.192	673.27
417.4	556.54
417.608	552.44
417.817	720.37
418.025	712.18
418.233	730.61
418.441	720.37
418.649	765.43
418.857	773.62
419.065	843.25
419.273	919.03
419.481	904.69
419.689	830.96
419.897	990.7
420.105	916.98
420.313	1078.77
420.521	1000.94
420.729	1019.38
420.937	1015.28
421.145	1068.53
421.353	1115.63
421.561	1281.52
421.769	1179.12
421.977	1297.9
422.185	1271.28
422.393	1359.34
422.601	1498.6
422.809	1424.87
423.017	1408.49
423.224	1490.41
423.432	1517.03
423.64	1689.06
423.848	1762.79
424.056	1566.18
424.263	1752.55
424.471	1801.7
424.679	1818.08
424.887	1897.96
425.094	1846.76
425.302	1918.43
425.51	1986.02
425.718	2090.46
425.925	2166.24
426.133	2092.51
426.341	2344.41
426.548	2440.67
426.756	2424.28
426.964	2371.04
427.171	2547.16
427.379	2465.24
427.586	2694.61
427.794	2815.45
428.001	2850.26
428.209	3091.92
428.417	2948.56
428.624	3229.13
428.832	3114.45
429.039	3155.41
429.247	3161.55
429.454	3349.96
429.662	3753.41
429.869	3407.31
430.076	3857.86
430.284	3501.51
430.491	3859.91
430.699	3874.24
430.906	3878.34
431.114	3978.69
431.321	4156.86
431.528	4253.12
431.736	4523.45
431.943	4660.66
432.15	4593.08
432.358	4787.64
432.565	5012.92
432.772	4799.93
432.979	5041.59
433.187	5211.57
433.394	5158.32
433.601	5518.76
433.808	5639.59
434.016	5440.94
434.223	5746.09
434.43	6032.8
434.637	5969.32
434.844	6417.82
435.052	6612.38
435.259	6489.5
435.466	6622.62
435.673	6348.19
435.88	6895
436.087	7120.28
436.294	7187.86
436.501	7189.91
436.708	7171.47
436.915	7335.31
437.122	7904.65
437.329	7581.07
437.537	8117.64
437.743	8068.48
437.95	8086.92
438.157	8361.34
438.364	8760.7
438.571	8768.89
438.778	8744.31
438.985	9409.9
439.192	9086.33
439.399	9403.76
439.606	9305.46
439.813	9903.46
440.02	10567.01
440.227	10335.59
440.433	10296.67
440.64	10204.52
440.847	10216.8
441.054	10681.69
441.261	11351.38
441.467	11119.96
441.674	11437.39
441.881	11816.27
442.088	11861.32
442.294	11642.19
442.501	11957.58
442.708	12066.12
442.914	12483.91
443.121	13409.59
443.328	12789.05
443.534	13702.45
443.741	13311.28
443.948	13122.87
444.154	14204.2
444.361	14058.79
444.568	14128.42
444.774	13954.35
444.981	14165.29
445.187	14628.13
445.394	15455.51
445.6	15279.38
445.807	16813.31
446.013	15885.58
446.22	15940.88
446.426	16715.01
446.633	17005.82
446.839	17480.95
447.046	16803.07
447.252	17972.46
447.459	17738.99
447.665	17724.66
447.871	18384.1
448.078	19236.06
448.284	18255.08
448.491	18826.46
448.697	19645.65
448.903	19920.08
449.11	20128.97
449.316	19434.71
449.522	19997.9
449.728	20405.45
449.935	20815.04
450.141	20423.88
450.347	21167.29
450.553	20579.53
450.76	20833.47
450.966	21339.32
451.172	21236.92
451.378	21982.38
451.584	21269.69
451.791	21966
451.997	21742.77
452.203	21990.58
452.409	22252.72
452.615	21867.7
452.821	21382.33
453.027	21365.95
453.233	22451.37
453.44	21507.26
453.646	21734.58
453.852	21621.94
454.058	21929.14
454.264	21277.88
454.47	21945.52
454.676	21521.59
454.882	22195.37
455.088	20102.35
455.294	20266.19
455.5	21019.84
455.705	21363.9
455.911	20237.52
456.117	19832.02
456.323	19807.44
456.529	18578.66
456.735	19377.37
456.941	18851.04
457.147	18463.97
457.352	18173.16
457.558	18222.31
457.764	17980.65
457.97	17718.51
458.176	17284.34
458.381	17243.38
458.587	16506.12
458.793	16327.94
458.999	15621.39
459.204	16473.35
459.41	16307.46
459.616	15123.74
459.821	15328.53
460.027	14886.17
460.233	14939.42
460.438	14103.85
460.644	14544.16
460.85	13565.23
461.055	13407.54
461.261	13376.82
461.466	12502.34
461.672	12156.23
461.878	12787
462.083	12025.16
462.289	11892.04
462.494	11668.81
462.7	11509.07
462.905	10954.07
463.111	11388.24
463.316	11240.79
463.522	11138.39
463.727	11099.48
463.932	10956.12
464.138	10937.69
464.343	11025.75
464.549	10626.4
464.754	11076.95
464.959	10757.47
465.165	10837.34
465.37	10231.14
465.575	9995.62
465.781	10493.28
465.986	10480.99
466.191	9999.72
466.397	10075.49
466.602	9274.74
466.807	9991.53
467.012	9749.87
467.218	9725.29
467.423	9573.74
467.628	9678.19
467.833	10190.18
468.038	9858.41
468.244	9469.3
468.449	9917.8
468.654	9461.1
468.859	9649.52
469.064	9512.3
