Data from USB4F104151__58__14-17-06-419.txt Node

Date: Thu Mar 13 14:17:06 EDT 2025
User: louis
Spectrometer: USB4F10415
Trigger mode: 4
Integration Time (sec): 2.000000E-2
Scans to average: 1
Electric dark correction enabled: true
Nonlinearity correction enabled: false
Boxcar width: 0
XAxis mode: Wavelengths
Number of Pixels in Spectrum: 3648
>>>>>Begin Spectral Data<<<<<
178.204	-66.73
178.424	-66.73
178.644	-66.73
178.864	-23.72
179.084	-68.78
179.304	70.48
179.524	15.19
179.744	-19.63
179.964	-25.77
180.184	54.1
180.404	-17.58
180.624	-42.15
180.844	41.81
181.064	-48.3
181.283	-7.34
181.503	-11.43
181.723	-9.39
181.943	7
182.163	93.01
182.383	9.05
182.602	13.14
182.822	50
183.042	17.24
183.262	56.15
183.482	62.29
183.701	33.62
183.921	15.19
184.141	47.96
184.361	33.62
184.58	39.76
184.8	-11.43
185.02	4.95
185.239	19.29
185.459	-17.58
185.679	62.29
185.898	39.76
186.118	68.44
186.338	125.78
186.557	88.92
186.777	21.33
186.997	47.96
187.216	33.62
187.436	88.92
187.655	31.57
187.875	33.62
188.095	31.57
188.314	76.63
188.534	29.52
188.753	-17.58
188.973	41.81
189.192	72.53
189.412	47.96
189.631	17.24
189.851	72.53
190.07	82.77
190.29	103.25
190.509	-31.91
190.729	54.1
190.948	0.85
191.168	121.68
191.387	64.34
191.607	39.76
191.826	25.43
192.045	29.52
192.265	29.52
192.484	45.91
192.704	78.68
192.923	-40.11
193.142	107.35
193.362	88.92
193.581	29.52
193.8	0.85
194.02	111.44
194.239	31.57
194.458	-3.24
194.678	23.38
194.897	25.43
195.116	95.06
195.335	58.2
195.555	54.1
195.774	58.2
195.993	31.57
196.212	56.15
196.432	-11.43
196.651	88.92
196.87	-17.58
197.089	115.54
197.308	70.48
197.528	56.15
197.747	-44.2
197.966	76.63
198.185	95.06
198.404	62.29
198.623	103.25
198.842	86.87
199.062	29.52
199.281	97.11
199.5	37.72
199.719	103.25
199.938	25.43
200.157	37.72
200.376	33.62
200.595	21.33
200.814	37.72
201.033	45.91
201.252	113.49
201.471	37.72
201.69	41.81
201.909	56.15
202.128	2.9
202.347	29.52
202.566	52.05
202.785	72.53
203.004	23.38
203.223	95.06
203.442	-27.82
203.661	60.24
203.879	29.52
204.098	54.1
204.317	-11.43
204.536	123.73
204.755	117.59
204.974	9.05
205.193	60.24
205.411	136.02
205.63	37.72
205.849	64.34
206.068	9.05
206.287	-38.06
206.505	68.44
206.724	54.1
206.943	41.81
207.162	-9.39
207.381	19.29
207.599	25.43
207.818	29.52
208.037	39.76
208.255	13.14
208.474	-36.01
208.693	90.96
208.911	0.85
209.13	-1.19
209.349	95.06
209.567	95.06
209.786	64.34
210.005	21.33
210.223	50
210.442	-46.25
210.661	33.62
210.879	76.63
211.098	33.62
211.316	23.38
211.535	125.78
211.753	-7.34
211.972	27.48
212.191	47.96
212.409	103.25
212.628	66.39
212.846	-13.48
213.065	103.25
213.283	13.14
213.502	-9.39
213.72	-17.58
213.938	7
214.157	45.91
214.375	33.62
214.594	62.29
214.812	-21.67
215.031	95.06
215.249	52.05
215.467	21.33
215.686	23.38
215.904	103.25
216.122	62.29
216.341	33.62
216.559	56.15
216.778	43.86
216.996	31.57
217.214	50
217.432	31.57
217.651	64.34
217.869	13.14
218.087	78.68
218.306	29.52
218.524	70.48
218.742	54.1
218.96	97.11
219.179	7
219.397	64.34
219.615	101.2
219.833	19.29
220.051	56.15
220.27	95.06
220.488	150.36
220.706	37.72
220.924	50
221.142	-19.63
221.36	-5.29
221.578	70.48
221.796	125.78
222.015	95.06
222.233	23.38
222.451	7
222.669	54.1
222.887	-3.24
223.105	4.95
223.323	21.33
223.541	31.57
223.759	4.95
223.977	17.24
224.195	84.82
224.413	86.87
224.631	115.54
224.849	66.39
225.067	66.39
225.285	-3.24
225.503	31.57
225.721	-19.63
225.939	76.63
226.157	25.43
226.375	127.83
226.592	31.57
226.81	41.81
227.028	33.62
227.246	84.82
227.464	-40.11
227.682	107.35
227.9	-11.43
228.117	-19.63
228.335	66.39
228.553	15.19
228.771	41.81
228.989	84.82
229.206	82.77
229.424	4.95
229.642	58.2
229.86	-19.63
230.077	21.33
230.295	58.2
230.513	119.64
230.731	103.25
230.948	90.96
231.166	54.1
231.384	56.15
231.601	47.96
231.819	82.77
232.037	4.95
232.254	107.35
232.472	52.05
232.689	17.24
232.907	52.05
233.125	13.14
233.342	52.05
233.56	17.24
233.777	43.86
233.995	-42.15
234.213	50
234.43	62.29
234.648	-11.43
234.865	-58.54
235.083	99.16
235.3	74.58
235.518	27.48
235.735	-3.24
235.953	88.92
236.17	56.15
236.388	62.29
236.605	35.67
236.822	74.58
237.04	-21.67
237.257	-33.96
237.475	9.05
237.692	78.68
237.909	-56.49
238.127	9.05
238.344	54.1
238.562	60.24
238.779	2.9
238.996	13.14
239.214	80.72
239.431	103.25
239.648	54.1
239.865	37.72
240.083	-17.58
240.3	15.19
240.517	64.34
240.735	78.68
240.952	56.15
241.169	-9.39
241.386	86.87
241.603	64.34
241.821	39.76
242.038	21.33
242.255	66.39
242.472	31.57
242.689	43.86
242.907	146.26
243.124	-1.19
243.341	93.01
243.558	45.91
243.775	95.06
243.992	13.14
244.209	-3.24
244.426	45.91
244.643	37.72
244.86	47.96
245.078	47.96
245.295	62.29
245.512	21.33
245.729	58.2
245.946	86.87
246.163	25.43
246.38	88.92
246.597	107.35
246.814	-1.19
247.031	58.2
247.248	86.87
247.464	86.87
247.681	45.91
247.898	90.96
248.115	74.58
248.332	-15.53
248.549	105.3
248.766	7
248.983	70.48
249.2	88.92
249.417	2.9
249.633	17.24
249.85	72.53
250.067	-23.72
250.284	64.34
250.501	43.86
250.717	86.87
250.934	-3.24
251.151	2.9
251.368	29.52
251.585	95.06
251.801	121.68
252.018	23.38
252.235	54.1
252.451	-60.59
252.668	9.05
252.885	-50.35
253.102	86.87
253.318	64.34
253.535	-19.63
253.752	13.14
253.968	0.85
254.185	11.09
254.401	-36.01
254.618	68.44
254.835	70.48
255.051	21.33
255.268	60.24
255.484	11.09
255.701	-25.77
255.917	109.4
256.134	-29.87
256.351	13.14
256.567	-48.3
256.784	84.82
257	-9.39
257.217	109.4
257.433	56.15
257.65	78.68
257.866	123.73
258.082	50
258.299	-52.39
258.515	37.72
258.732	23.38
258.948	35.67
259.165	31.57
259.381	35.67
259.597	164.69
259.814	52.05
260.03	23.38
260.246	45.91
260.463	2.9
260.679	50
260.895	19.29
261.112	72.53
261.328	9.05
261.544	62.29
261.761	58.2
261.977	62.29
262.193	15.19
262.409	13.14
262.626	0.85
262.842	97.11
263.058	21.33
263.274	11.09
263.49	93.01
263.707	78.68
263.923	50
264.139	4.95
264.355	17.24
264.571	103.25
264.787	70.48
265.004	-46.25
265.22	50
265.436	-36.01
265.652	62.29
265.868	7
266.084	-11.43
266.3	13.14
266.516	-19.63
266.732	62.29
266.948	50
267.164	23.38
267.38	66.39
267.596	52.05
267.812	95.06
268.028	37.72
268.244	37.72
268.46	29.52
268.676	4.95
268.892	80.72
269.108	-1.19
269.324	4.95
269.54	4.95
269.756	62.29
269.972	-11.43
270.188	66.39
270.403	7
270.619	39.76
270.835	54.1
271.051	33.62
271.267	27.48
271.483	64.34
271.698	52.05
271.914	-33.96
272.13	23.38
272.346	-1.19
272.562	25.43
272.777	86.87
272.993	21.33
273.209	119.64
273.425	-11.43
273.64	-33.96
273.856	103.25
274.072	-1.19
274.287	64.34
274.503	41.81
274.719	90.96
274.934	39.76
275.15	62.29
275.366	37.72
275.581	80.72
275.797	-5.29
276.012	-3.24
276.228	54.1
276.444	78.68
276.659	70.48
276.875	-11.43
277.09	9.05
277.306	-42.15
277.521	97.11
277.737	7
277.952	-15.53
278.168	45.91
278.383	64.34
278.599	47.96
278.814	70.48
279.03	31.57
279.245	74.58
279.461	39.76
279.676	68.44
279.892	19.29
280.107	86.87
280.322	58.2
280.538	95.06
280.753	21.33
280.969	64.34
281.184	-7.34
281.399	86.87
281.615	62.29
281.83	70.48
282.045	-42.15
282.26	86.87
282.476	66.39
282.691	15.19
282.906	39.76
283.122	45.91
283.337	9.05
283.552	127.83
283.767	45.91
283.983	68.44
284.198	54.1
284.413	13.14
284.628	-60.59
284.843	62.29
285.058	29.52
285.274	19.29
285.489	103.25
285.704	47.96
285.919	93.01
286.134	25.43
286.349	-3.24
286.564	29.52
286.779	2.9
286.995	15.19
287.21	7
287.425	136.02
287.64	-31.91
287.855	45.91
288.07	13.14
288.285	58.2
288.5	9.05
288.715	111.44
288.93	101.2
289.145	45.91
289.36	66.39
289.575	74.58
289.79	47.96
290.004	4.95
290.219	58.2
290.434	39.76
290.649	80.72
290.864	37.72
291.079	43.86
291.294	88.92
291.509	-11.43
291.724	54.1
291.938	31.57
292.153	9.05
292.368	50
292.583	74.58
292.798	111.44
293.012	43.86
293.227	39.76
293.442	111.44
293.657	56.15
293.871	86.87
294.086	13.14
294.301	25.43
294.516	29.52
294.73	54.1
294.945	9.05
295.16	-15.53
295.374	97.11
295.589	80.72
295.804	84.82
296.018	4.95
296.233	82.77
296.447	88.92
296.662	4.95
296.877	68.44
297.091	54.1
297.306	78.68
297.52	11.09
297.735	45.91
297.949	-1.19
298.164	39.76
298.378	74.58
298.593	21.33
298.807	-19.63
299.022	56.15
299.236	50
299.451	47.96
299.665	25.43
299.88	4.95
300.094	93.01
300.309	37.72
300.523	74.58
300.737	4.95
300.952	82.77
301.166	70.48
301.381	-19.63
301.595	-3.24
301.809	45.91
302.024	129.88
302.238	13.14
302.452	97.11
302.667	66.39
302.881	88.92
303.095	29.52
303.309	45.91
303.524	37.72
303.738	25.43
303.952	-33.96
304.166	41.81
304.381	25.43
304.595	66.39
304.809	-19.63
305.023	50
305.237	-17.58
305.452	41.81
305.666	52.05
305.88	78.68
306.094	33.62
306.308	-11.43
306.522	50
306.736	93.01
306.95	62.29
307.164	86.87
307.379	-9.39
307.593	93.01
307.807	86.87
308.021	80.72
308.235	-9.39
308.449	21.33
308.663	62.29
308.877	82.77
309.091	54.1
309.305	90.96
309.519	-60.59
309.733	11.09
309.947	7
310.161	80.72
310.374	152.4
310.588	56.15
310.802	17.24
311.016	15.19
311.23	62.29
311.444	37.72
311.658	56.15
311.872	50
312.085	35.67
312.299	70.48
312.513	88.92
312.727	47.96
312.941	9.05
313.154	64.34
313.368	35.67
313.582	37.72
313.796	52.05
314.009	93.01
314.223	84.82
314.437	29.52
314.651	31.57
314.864	107.35
315.078	29.52
315.292	17.24
315.505	-36.01
315.719	13.14
315.933	41.81
316.146	54.1
316.36	107.35
316.573	70.48
316.787	66.39
317.001	119.64
317.214	43.86
317.428	54.1
317.641	45.91
317.855	29.52
318.068	101.2
318.282	58.2
318.495	86.87
318.709	47.96
318.922	70.48
319.136	113.49
319.349	62.29
319.563	41.81
319.776	9.05
319.99	62.29
320.203	78.68
320.417	37.72
320.63	78.68
320.843	56.15
321.057	23.38
321.27	64.34
321.483	131.92
321.697	99.16
321.91	70.48
322.124	70.48
322.337	13.14
322.55	43.86
322.763	78.68
322.977	31.57
323.19	27.48
323.403	93.01
323.617	-17.58
323.83	76.63
324.043	21.33
324.256	66.39
324.469	-15.53
324.683	54.1
324.896	17.24
325.109	64.34
325.322	-21.67
325.535	88.92
325.748	64.34
325.962	78.68
326.175	78.68
326.388	80.72
326.601	52.05
326.814	133.97
327.027	95.06
327.24	23.38
327.453	27.48
327.666	80.72
327.879	41.81
328.092	33.62
328.305	41.81
328.518	39.76
328.731	47.96
328.944	64.34
329.157	31.57
329.37	54.1
329.583	21.33
329.796	43.86
330.009	64.34
330.222	58.2
330.435	62.29
330.648	66.39
330.861	84.82
331.073	93.01
331.286	39.76
331.499	45.91
331.712	93.01
331.925	103.25
332.138	146.26
332.35	101.2
332.563	-11.43
332.776	60.24
332.989	56.15
333.202	129.88
333.414	-1.19
333.627	7
333.84	76.63
334.053	64.34
334.265	45.91
334.478	-11.43
334.691	90.96
334.903	25.43
335.116	29.52
335.329	29.52
335.541	41.81
335.754	125.78
335.966	35.67
336.179	4.95
336.392	7
336.604	82.77
336.817	35.67
337.029	97.11
337.242	74.58
337.454	45.91
337.667	27.48
337.88	82.77
338.092	23.38
338.305	39.76
338.517	9.05
338.729	62.29
338.942	119.64
339.154	56.15
339.367	50
339.579	84.82
339.792	21.33
340.004	62.29
340.217	62.29
340.429	50
340.641	21.33
340.854	-17.58
341.066	68.44
341.278	123.73
341.491	127.83
341.703	41.81
341.915	37.72
342.128	170.83
342.34	52.05
342.552	25.43
342.764	76.63
342.977	54.1
343.189	56.15
343.401	37.72
343.613	43.86
343.826	64.34
344.038	64.34
344.25	64.34
344.462	35.67
344.674	41.81
344.886	39.76
345.099	31.57
345.311	80.72
345.523	80.72
345.735	39.76
345.947	127.83
346.159	64.34
346.371	62.29
346.583	58.2
346.795	160.59
347.007	66.39
347.219	21.33
347.431	-42.15
347.643	4.95
347.855	82.77
348.067	56.15
348.279	123.73
348.491	19.29
348.703	72.53
348.915	58.2
349.127	119.64
349.339	43.86
349.551	54.1
349.763	78.68
349.975	107.35
350.187	88.92
350.399	127.83
350.61	60.24
350.822	47.96
351.034	97.11
351.246	35.67
351.458	72.53
351.669	62.29
351.881	54.1
352.093	62.29
352.305	119.64
352.517	33.62
352.728	-9.39
352.94	74.58
353.152	129.88
353.363	-40.11
353.575	86.87
353.787	138.07
353.999	113.49
354.21	93.01
354.422	99.16
354.633	37.72
354.845	31.57
355.057	113.49
355.268	2.9
355.48	95.06
355.692	33.62
355.903	78.68
356.115	70.48
356.326	21.33
356.538	86.87
356.749	86.87
356.961	64.34
357.172	64.34
357.384	54.1
357.595	86.87
357.807	23.38
358.018	103.25
358.23	121.68
358.441	23.38
358.653	64.34
358.864	9.05
359.075	43.86
359.287	21.33
359.498	58.2
359.709	86.87
359.921	105.3
360.132	66.39
360.344	41.81
360.555	47.96
360.766	97.11
360.977	-19.63
361.189	37.72
361.4	70.48
361.611	123.73
361.823	62.29
362.034	45.91
362.245	-33.96
362.456	123.73
362.667	97.11
362.879	66.39
363.09	138.07
363.301	56.15
363.512	45.91
363.723	105.3
363.935	31.57
364.146	7
364.357	35.67
364.568	109.4
364.779	80.72
364.99	138.07
365.201	58.2
365.412	115.54
365.623	56.15
365.834	78.68
366.045	84.82
366.256	123.73
366.467	0.85
366.678	72.53
366.889	4.95
367.1	86.87
367.311	121.68
367.522	101.2
367.733	45.91
367.944	45.91
368.155	-23.72
368.366	93.01
368.577	99.16
368.788	70.48
368.999	15.19
369.209	21.33
369.42	111.44
369.631	72.53
369.842	29.52
370.053	97.11
370.264	25.43
370.474	58.2
370.685	39.76
370.896	82.77
371.107	103.25
371.317	68.44
371.528	50
371.739	103.25
371.95	56.15
372.16	170.83
372.371	123.73
372.582	15.19
372.792	47.96
373.003	113.49
373.214	148.31
373.424	162.64
373.635	45.91
373.846	72.53
374.056	74.58
374.267	47.96
374.477	76.63
374.688	111.44
374.898	78.68
375.109	168.79
375.319	45.91
375.53	64.34
375.74	140.12
375.951	62.29
376.161	119.64
376.372	111.44
376.582	19.29
376.793	-11.43
377.003	68.44
377.214	80.72
377.424	62.29
377.635	78.68
377.845	176.98
378.055	140.12
378.266	41.81
378.476	103.25
378.686	166.74
378.897	111.44
379.107	74.58
379.317	146.26
379.528	47.96
379.738	66.39
379.948	70.48
380.158	47.96
380.369	31.57
380.579	76.63
380.789	105.3
380.999	27.48
381.21	56.15
381.42	160.59
381.63	27.48
381.84	54.1
382.05	41.81
382.261	50
382.471	74.58
382.681	47.96
382.891	74.58
383.101	33.62
383.311	99.16
383.521	82.77
383.731	47.96
383.941	95.06
384.151	70.48
384.361	41.81
384.571	70.48
384.781	203.6
384.991	74.58
385.201	107.35
385.411	115.54
385.621	127.83
385.831	95.06
386.041	123.73
386.251	78.68
386.461	138.07
386.671	62.29
386.881	105.3
387.091	15.19
387.301	72.53
387.511	72.53
387.72	80.72
387.93	45.91
388.14	78.68
388.35	74.58
388.56	103.25
388.769	60.24
388.979	113.49
389.189	-33.96
389.399	78.68
389.609	43.86
389.818	111.44
390.028	52.05
390.238	127.83
390.447	111.44
390.657	54.1
390.867	58.2
391.076	115.54
391.286	113.49
391.496	-1.19
391.705	146.26
391.915	187.22
392.125	113.49
392.334	21.33
392.544	121.68
392.753	74.58
392.963	29.52
393.172	111.44
393.382	78.68
393.591	95.06
393.801	70.48
394.01	70.48
394.22	4.95
394.429	31.57
394.639	76.63
394.848	195.41
395.058	113.49
395.267	129.88
395.477	158.55
395.686	119.64
395.895	156.5
396.105	95.06
396.314	107.35
396.524	115.54
396.733	66.39
396.942	162.64
397.152	52.05
397.361	181.07
397.57	99.16
397.78	136.02
397.989	54.1
398.198	70.48
398.407	80.72
398.617	148.31
398.826	160.59
399.035	152.4
399.244	95.06
399.453	107.35
399.663	156.5
399.872	74.58
400.081	97.11
400.29	127.83
400.499	39.76
400.708	129.88
400.917	88.92
401.127	199.51
401.336	111.44
401.545	140.12
401.754	103.25
401.963	121.68
402.172	125.78
402.381	152.4
402.59	52.05
402.799	197.46
403.008	146.26
403.217	162.64
403.426	172.88
403.635	170.83
403.844	146.26
404.053	156.5
404.262	127.83
404.471	205.65
404.68	209.75
404.888	238.42
405.097	189.27
405.306	193.36
405.515	222.03
405.724	162.64
405.933	203.6
406.142	222.03
406.35	219.99
406.559	209.75
406.768	234.32
406.977	205.65
407.185	301.9
407.394	242.51
407.603	219.99
407.812	244.56
408.02	303.95
408.229	326.48
408.438	203.6
408.646	299.86
408.855	355.15
409.064	324.43
409.272	283.47
409.481	330.58
409.69	344.91
409.898	379.73
410.107	330.58
410.315	351.06
410.524	381.78
410.733	369.49
410.941	406.35
411.15	449.36
411.358	443.21
411.567	451.41
411.775	447.31
411.984	465.74
412.192	480.08
412.401	523.09
412.609	592.72
412.818	521.04
413.026	578.38
413.234	656.2
413.443	627.53
413.651	588.62
413.86	664.4
414.068	670.54
414.276	723.79
414.485	772.94
414.693	639.82
414.901	793.42
415.11	764.75
415.318	815.94
415.526	832.33
415.734	891.72
415.943	973.64
416.151	1030.98
416.359	998.21
416.567	979.78
416.776	1086.28
416.984	1020.74
417.192	1092.42
417.4	1170.24
417.608	1033.03
417.817	1168.2
418.025	1260.35
418.233	1317.7
418.441	1303.36
418.649	1336.13
418.857	1448.77
419.065	1489.73
419.273	1463.1
419.481	1538.88
419.689	1612.6
419.897	1676.09
420.105	1819.45
420.313	1831.74
420.521	1932.09
420.729	1884.98
420.937	1948.47
421.145	1983.29
421.353	2093.88
421.561	2190.13
421.769	2183.99
421.977	2349.87
422.185	2327.35
422.393	2528.05
422.601	2683.69
422.809	2554.67
423.017	2732.84
423.224	2745.13
423.432	2786.09
423.64	2839.34
423.848	3183.4
424.056	3037.99
424.263	3437.34
424.471	3224.36
424.679	3314.47
424.887	3525.41
425.094	3646.24
425.302	3574.56
425.51	3715.87
425.718	3887.9
425.925	3805.98
426.133	4053.78
426.341	4242.2
426.548	4576.02
426.756	4297.49
426.964	4664.08
427.171	4905.74
427.379	4887.31
427.586	5024.52
427.794	4918.03
428.001	5366.53
428.209	5554.94
428.417	5475.07
428.624	6038.27
428.832	5894.91
429.039	5976.83
429.247	5978.87
429.454	6447.86
429.662	6922.99
429.869	6427.38
430.076	6968.04
430.284	6578.93
430.491	6996.71
430.699	7330.53
430.906	7475.94
431.114	7445.22
431.321	7709.41
431.528	8028.89
431.736	8313.56
431.943	8909.52
432.15	8530.64
432.358	8508.12
432.565	9224.9
432.772	8821.45
432.979	9550.53
433.187	9693.89
433.394	9620.16
433.601	10396.34
433.808	10457.78
434.016	10304.18
434.223	10900.14
434.43	11360.94
434.637	11145.9
434.844	12030.62
435.052	12139.16
435.259	12145.31
435.466	12219.03
435.673	11932.32
435.88	12814.99
436.087	13302.41
436.294	13398.66
436.501	13326.99
436.708	13476.49
436.915	13849.22
437.122	14580.34
437.329	14504.57
437.537	14856.82
437.743	15274.6
437.95	14928.5
438.157	15897.19
438.364	16609.88
438.571	16310.88
438.778	16370.27
438.985	17754.69
439.192	17168.98
439.399	17621.58
439.606	17298
439.813	18618.94
440.02	19356.21
440.227	19178.03
440.433	18944.56
440.64	19599.91
440.847	19683.88
441.054	19821.09
441.261	21303.82
441.467	20824.6
441.674	21406.22
441.881	22061.57
442.088	22141.44
442.294	21793.29
442.501	22567.42
442.708	22970.87
442.914	23677.42
443.121	24760.8
443.328	24197.6
443.534	25917.9
443.741	25022.94
443.948	24658.4
444.154	26358.21
444.361	26380.74
444.568	26507.71
444.774	26282.44
444.981	26833.34
445.187	27513.27
445.394	28686.75
445.6	28412.32
445.807	31369.59
446.013	29688.21
446.22	30175.62
446.426	31205.75
446.633	31865.2
446.839	32774.5
447.046	31193.47
447.252	33188.19
447.459	33077.6
447.665	33005.92
447.871	34253.13
448.078	36120.88
448.284	34550.09
448.491	35653.94
448.697	36671.78
448.903	37146.91
449.11	37476.63
449.316	36780.32
449.522	37120.29
449.728	38125.84
449.935	38404.36
450.141	38795.53
450.347	39315.71
450.553	38648.07
450.76	38897.92
450.966	39706.87
451.172	39465.21
451.378	40671.46
451.584	39465.21
451.791	40632.55
451.997	40229.1
452.203	41386.21
452.409	41267.42
452.615	41029.86
452.821	39164.16
453.027	39090.43
453.233	41246.94
453.44	39561.47
453.646	39790.84
453.852	40311.02
454.058	41007.33
454.264	39485.69
454.47	40405.23
454.676	39346.43
454.882	40534.25
455.088	37181.73
455.294	37945.62
455.5	38791.43
455.705	38623.5
455.911	37052.7
456.117	36665.64
456.323	36137.26
456.529	34335.05
456.735	36090.16
456.941	34519.37
457.147	34236.75
457.352	33401.18
457.558	32573.8
457.764	32901.47
457.97	32680.29
458.176	31471.99
458.381	31437.17
458.587	29989.26
458.793	30347.65
458.999	28606.88
459.204	30773.63
459.41	29811.09
459.616	28080.55
459.821	27898.28
460.027	28074.41
460.233	27349.43
460.438	26046.92
460.644	26362.31
460.85	25074.13
461.055	24762.84
461.261	24734.17
461.466	22688.25
461.672	21869.06
461.878	23841.26
462.083	22245.89
462.289	21740.04
462.494	21602.83
462.7	20509.21
462.905	20001.32
463.111	20576.8
463.316	20505.12
463.522	20249.12
463.727	20476.44
463.932	20412.96
464.138	20132.39
464.343	20015.65
464.549	19878.44
464.754	20333.09
464.959	20038.18
465.165	19532.33
465.37	19061.3
465.575	18616.89
465.781	19300.91
465.986	18876.98
466.191	18688.57
466.397	18373.18
466.602	17150.54
466.807	18090.56
467.012	18068.03
467.218	17990.21
467.423	17748.55
467.628	17879.62
467.833	18641.46
