Data from USB4F104151__273__14-23-18-607.txt Node

Date: Thu Mar 13 14:23:18 EDT 2025
User: louis
Spectrometer: USB4F10415
Trigger mode: 4
Integration Time (sec): 2.000000E-2
Scans to average: 1
Electric dark correction enabled: true
Nonlinearity correction enabled: false
Boxcar width: 0
XAxis mode: Wavelengths
Number of Pixels in Spectrum: 3648
>>>>>Begin Spectral Data<<<<<
178.204	-150.53
178.424	-150.53
178.644	-150.53
178.864	-105.47
179.084	-87.04
179.304	-9.22
179.524	33.79
179.744	-3.07
179.964	50.18
180.184	-70.65
180.404	-15.36
180.624	46.08
180.844	-31.74
181.064	-27.65
181.283	-5.12
181.503	15.36
181.723	17.41
181.943	50.18
182.163	19.46
182.383	-21.5
182.602	60.42
182.822	72.7
183.042	44.03
183.262	-1.02
183.482	89.09
183.701	64.51
183.921	3.07
184.141	21.5
184.361	52.22
184.58	-17.41
184.8	50.18
185.02	-19.46
185.239	15.36
185.459	80.89
185.679	15.36
185.898	5.12
186.118	154.62
186.338	41.98
186.557	29.7
186.777	15.36
186.997	46.08
187.216	-1.02
187.436	48.13
187.655	29.7
187.875	17.41
188.095	-31.74
188.314	48.13
188.534	-13.31
188.753	-9.22
188.973	23.55
189.192	17.41
189.412	21.5
189.631	19.46
189.851	44.03
190.07	132.09
190.29	-19.46
190.509	1.02
190.729	89.09
190.948	89.09
191.168	130.05
191.387	33.79
191.607	72.7
191.826	23.55
192.045	-17.41
192.265	7.17
192.484	9.22
192.704	25.6
192.923	-7.17
193.142	121.85
193.362	-19.46
193.581	33.79
193.8	-1.02
194.02	50.18
194.239	1.02
194.458	-21.5
194.678	46.08
194.897	7.17
195.116	23.55
195.335	-9.22
195.555	105.47
195.774	-25.6
195.993	58.37
196.212	58.37
196.432	9.22
196.651	-5.12
196.87	15.36
197.089	31.74
197.308	44.03
197.528	-60.42
197.747	-99.33
197.966	72.7
198.185	105.47
198.404	-17.41
198.623	60.42
198.842	89.09
199.062	68.61
199.281	7.17
199.5	58.37
199.719	-19.46
199.938	123.9
200.157	44.03
200.376	21.5
200.595	-9.22
200.814	33.79
201.033	-31.74
201.252	58.37
201.471	50.18
201.69	68.61
201.909	-9.22
202.128	13.31
202.347	-37.89
202.566	-11.26
202.785	-44.03
203.004	48.13
203.223	109.57
203.442	21.5
203.661	-13.31
203.879	37.89
204.098	1.02
204.317	7.17
204.536	58.37
204.755	80.89
204.974	62.46
205.193	48.13
205.411	52.22
205.63	-1.02
205.849	39.94
206.068	-41.98
206.287	39.94
206.505	76.8
206.724	-9.22
206.943	39.94
207.162	-46.08
207.381	23.55
207.599	72.7
207.818	39.94
208.037	72.7
208.255	-1.02
208.474	-33.79
208.693	-48.13
208.911	27.65
209.13	35.84
209.349	-1.02
209.567	44.03
209.786	99.33
210.005	-27.65
210.223	31.74
210.442	-25.6
210.661	37.89
210.879	17.41
211.098	15.36
211.316	11.26
211.535	7.17
211.753	7.17
211.972	68.61
212.191	17.41
212.409	-23.55
212.628	72.7
212.846	-78.85
213.065	39.94
213.283	17.41
213.502	23.55
213.72	58.37
213.938	66.56
214.157	9.22
214.375	7.17
214.594	23.55
214.812	66.56
215.031	9.22
215.249	31.74
215.467	93.18
215.686	1.02
215.904	7.17
216.122	33.79
216.341	68.61
216.559	7.17
216.778	21.5
216.996	15.36
217.214	31.74
217.432	-13.31
217.651	54.27
217.869	70.65
218.087	66.56
218.306	-5.12
218.524	3.07
218.742	-54.27
218.96	35.84
219.179	3.07
219.397	48.13
219.615	121.85
219.833	-29.7
220.051	-25.6
220.27	-3.07
220.488	31.74
220.706	72.7
220.924	56.32
221.142	44.03
221.36	-13.31
221.578	-15.36
221.796	50.18
222.015	74.75
222.233	-37.89
222.451	11.26
222.669	-15.36
222.887	48.13
223.105	-39.94
223.323	31.74
223.541	-3.07
223.759	54.27
223.977	68.61
224.195	60.42
224.413	50.18
224.631	23.55
224.849	78.85
225.067	33.79
225.285	23.55
225.503	9.22
225.721	-33.79
225.939	31.74
226.157	44.03
226.375	107.52
226.592	-15.36
226.81	-41.98
227.028	13.31
227.246	113.66
227.464	9.22
227.682	21.5
227.9	19.46
228.117	128
228.335	-48.13
228.553	-62.46
228.771	-39.94
228.989	56.32
229.206	-9.22
229.424	27.65
229.642	-15.36
229.86	9.22
230.077	76.8
230.295	15.36
230.513	87.04
230.731	7.17
230.948	82.94
231.166	66.56
231.384	48.13
231.601	35.84
231.819	11.26
232.037	15.36
232.254	27.65
232.472	11.26
232.689	19.46
232.907	-15.36
233.125	-78.85
233.342	66.56
233.56	-48.13
233.777	39.94
233.995	11.26
234.213	25.6
234.43	-21.5
234.648	-17.41
234.865	48.13
235.083	52.22
235.3	17.41
235.518	89.09
235.735	89.09
235.953	97.28
236.17	-21.5
236.388	41.98
236.605	31.74
236.822	66.56
237.04	-41.98
237.257	50.18
237.475	-58.37
237.692	50.18
237.909	13.31
238.127	64.51
238.344	76.8
238.562	46.08
238.779	11.26
238.996	-48.13
239.214	48.13
239.431	72.7
239.648	11.26
239.865	-1.02
240.083	25.6
240.3	17.41
240.517	-9.22
240.735	56.32
240.952	35.84
241.169	68.61
241.386	76.8
241.603	56.32
241.821	7.17
242.038	-46.08
242.255	31.74
242.472	-23.55
242.689	23.55
242.907	58.37
243.124	19.46
243.341	89.09
243.558	-1.02
243.775	-31.74
243.992	-5.12
244.209	19.46
244.426	80.89
244.643	11.26
244.86	33.79
245.078	46.08
245.295	31.74
245.512	33.79
245.729	-1.02
245.946	72.7
246.163	21.5
246.38	39.94
246.597	7.17
246.814	70.65
247.031	31.74
247.248	15.36
247.464	33.79
247.681	76.8
247.898	84.99
248.115	25.6
248.332	7.17
248.549	39.94
248.766	33.79
248.983	99.33
249.2	15.36
249.417	56.32
249.633	-1.02
249.85	23.55
250.067	9.22
250.284	115.71
250.501	78.85
250.717	111.61
250.934	64.51
251.151	-5.12
251.368	80.89
251.585	82.94
251.801	41.98
252.018	-25.6
252.235	15.36
252.451	-9.22
252.668	-17.41
252.885	95.23
253.102	60.42
253.318	-9.22
253.535	72.7
253.752	-7.17
253.968	7.17
254.185	-17.41
254.401	25.6
254.618	23.55
254.835	21.5
255.051	48.13
255.268	7.17
255.484	-9.22
255.701	-15.36
255.917	41.98
256.134	-13.31
256.351	-5.12
256.567	35.84
256.784	33.79
257	7.17
257.217	66.56
257.433	25.6
257.65	41.98
257.866	-21.5
258.082	35.84
258.299	31.74
258.515	56.32
258.732	29.7
258.948	17.41
259.165	-29.7
259.381	-17.41
259.597	1.02
259.814	56.32
260.03	9.22
260.246	7.17
260.463	15.36
260.679	70.65
260.895	-9.22
261.112	-1.02
261.328	-48.13
261.544	23.55
261.761	54.27
261.977	17.41
262.193	15.36
262.409	121.85
262.626	74.75
262.842	52.22
263.058	56.32
263.274	27.65
263.49	-7.17
263.707	9.22
263.923	-44.03
264.139	23.55
264.355	48.13
264.571	84.99
264.787	29.7
265.004	31.74
265.22	54.27
265.436	7.17
265.652	9.22
265.868	-13.31
266.084	37.89
266.3	101.37
266.516	46.08
266.732	17.41
266.948	-17.41
267.164	-31.74
267.38	7.17
267.596	15.36
267.812	-7.17
268.028	-15.36
268.244	5.12
268.46	33.79
268.676	11.26
268.892	52.22
269.108	-25.6
269.324	72.7
269.54	15.36
269.756	35.84
269.972	7.17
270.188	25.6
270.403	76.8
270.619	-41.98
270.835	31.74
271.051	41.98
271.267	17.41
271.483	50.18
271.698	33.79
271.914	-33.79
272.13	-1.02
272.346	23.55
272.562	44.03
272.777	80.89
272.993	33.79
273.209	-17.41
273.425	17.41
273.64	35.84
273.856	97.28
274.072	35.84
274.287	35.84
274.503	146.43
274.719	19.46
274.934	58.37
275.15	3.07
275.366	78.85
275.581	-29.7
275.797	-1.02
276.012	15.36
276.228	72.7
276.444	-5.12
276.659	48.13
276.875	-107.52
277.09	9.22
277.306	107.52
277.521	72.7
277.737	15.36
277.952	46.08
278.168	37.89
278.383	-15.36
278.599	7.17
278.814	41.98
279.03	62.46
279.245	58.37
279.461	25.6
279.676	33.79
279.892	-50.18
280.107	48.13
280.322	-89.09
280.538	5.12
280.753	-5.12
280.969	91.13
281.184	21.5
281.399	29.7
281.615	-1.02
281.83	107.52
282.045	17.41
282.26	70.65
282.476	31.74
282.691	58.37
282.906	39.94
283.122	17.41
283.337	19.46
283.552	82.94
283.767	1.02
283.983	48.13
284.198	27.65
284.413	23.55
284.628	7.17
284.843	89.09
285.058	27.65
285.274	78.85
285.489	-1.02
285.704	93.18
285.919	39.94
286.134	11.26
286.349	-41.98
286.564	76.8
286.779	87.04
286.995	72.7
287.21	35.84
287.425	80.89
287.64	11.26
287.855	50.18
288.07	-25.6
288.285	41.98
288.5	56.32
288.715	56.32
288.93	54.27
289.145	-33.79
289.36	91.13
289.575	44.03
289.79	82.94
290.004	15.36
290.219	39.94
290.434	15.36
290.649	1.02
290.864	17.41
291.079	-46.08
291.294	39.94
291.509	44.03
291.724	41.98
291.938	15.36
292.153	66.56
292.368	-7.17
292.583	39.94
292.798	25.6
293.012	17.41
293.227	7.17
293.442	-48.13
293.657	89.09
293.871	64.51
294.086	68.61
294.301	113.66
294.516	37.89
294.73	-44.03
294.945	35.84
295.16	35.84
295.374	72.7
295.589	11.26
295.804	7.17
296.018	56.32
296.233	25.6
296.447	15.36
296.662	82.94
296.877	25.6
297.091	25.6
297.306	13.31
297.52	-15.36
297.735	58.37
297.949	58.37
298.164	-7.17
298.378	95.23
298.593	41.98
298.807	60.42
299.022	58.37
299.236	33.79
299.451	-58.37
299.665	-9.22
299.88	80.89
300.094	-31.74
300.309	23.55
300.523	35.84
300.737	25.6
300.952	-17.41
301.166	66.56
301.381	-17.41
301.595	56.32
301.809	50.18
302.024	-29.7
302.238	91.13
302.452	97.28
302.667	66.56
302.881	97.28
303.095	60.42
303.309	27.65
303.524	-17.41
303.738	13.31
303.952	27.65
304.166	60.42
304.381	-21.5
304.595	41.98
304.809	39.94
305.023	56.32
305.237	31.74
305.452	50.18
305.666	23.55
305.88	56.32
306.094	39.94
306.308	50.18
306.522	60.42
306.736	64.51
306.95	50.18
307.164	-1.02
307.379	33.79
307.593	58.37
307.807	72.7
308.021	-1.02
308.235	15.36
308.449	-39.94
308.663	54.27
308.877	82.94
309.091	-9.22
309.305	58.37
309.519	44.03
309.733	44.03
309.947	-17.41
310.161	130.05
310.374	80.89
310.588	27.65
310.802	1.02
311.016	-1.02
311.23	29.7
311.444	-37.89
311.658	7.17
311.872	48.13
312.085	13.31
312.299	82.94
312.513	39.94
312.727	84.99
312.941	25.6
313.154	15.36
313.368	27.65
313.582	56.32
313.796	19.46
314.009	33.79
314.223	105.47
314.437	19.46
314.651	107.52
314.864	39.94
315.078	41.98
315.292	33.79
315.505	76.8
315.719	29.7
315.933	39.94
316.146	-29.7
316.36	17.41
316.573	35.84
316.787	50.18
317.001	107.52
317.214	58.37
317.428	-37.89
317.641	31.74
317.855	-25.6
318.068	9.22
318.282	-9.22
318.495	48.13
318.709	74.75
318.922	15.36
319.136	41.98
319.349	111.61
319.563	39.94
319.776	35.84
319.99	5.12
320.203	52.22
320.417	-9.22
320.63	-9.22
320.843	128
321.057	48.13
321.27	68.61
321.483	-17.41
321.697	72.7
321.91	105.47
322.124	17.41
322.337	44.03
322.55	-1.02
322.763	15.36
322.977	74.75
323.19	-13.31
323.403	-15.36
323.617	54.27
323.83	23.55
324.043	17.41
324.256	70.65
324.469	-54.27
324.683	-13.31
324.896	-3.07
325.109	-1.02
325.322	35.84
325.535	76.8
325.748	-1.02
325.962	-17.41
326.175	64.51
326.388	115.71
326.601	-15.36
326.814	72.7
327.027	-82.94
327.24	123.9
327.453	31.74
327.666	48.13
327.879	21.5
328.092	23.55
328.305	-9.22
328.518	52.22
328.731	23.55
328.944	48.13
329.157	80.89
329.37	-35.84
329.583	58.37
329.796	44.03
330.009	-56.32
330.222	48.13
330.435	101.37
330.648	39.94
330.861	37.89
331.073	15.36
331.286	89.09
331.499	-33.79
331.712	-9.22
331.925	27.65
332.138	48.13
332.35	84.99
332.563	-9.22
332.776	27.65
332.989	-1.02
333.202	39.94
333.414	48.13
333.627	-9.22
333.84	33.79
334.053	97.28
334.265	33.79
334.478	7.17
334.691	-33.79
334.903	125.95
335.116	50.18
335.329	1.02
335.541	64.51
335.754	64.51
335.966	-25.6
336.179	9.22
336.392	-31.74
336.604	48.13
336.817	19.46
337.029	74.75
337.242	19.46
337.454	93.18
337.667	97.28
337.88	56.32
338.092	60.42
338.305	76.8
338.517	7.17
338.729	80.89
338.942	97.28
339.154	35.84
339.367	1.02
339.579	58.37
339.792	39.94
340.004	41.98
340.217	21.5
340.429	66.56
340.641	9.22
340.854	-37.89
341.066	5.12
341.278	-1.02
341.491	23.55
341.703	11.26
341.915	76.8
342.128	56.32
342.34	48.13
342.552	56.32
342.764	5.12
342.977	44.03
343.189	39.94
343.401	39.94
343.613	41.98
343.826	44.03
344.038	23.55
344.25	46.08
344.462	44.03
344.674	39.94
344.886	27.65
345.099	39.94
345.311	82.94
345.523	64.51
345.735	-58.37
345.947	115.71
346.159	-11.26
346.371	62.46
346.583	101.37
346.795	-9.22
347.007	15.36
347.219	41.98
347.431	64.51
347.643	72.7
347.855	31.74
348.067	9.22
348.279	31.74
348.491	31.74
348.703	64.51
348.915	41.98
349.127	19.46
349.339	23.55
349.551	52.22
349.763	64.51
349.975	37.89
350.187	60.42
350.399	-3.07
350.61	52.22
350.822	74.75
351.034	52.22
351.246	84.99
351.458	89.09
351.669	7.17
351.881	80.89
352.093	23.55
352.305	58.37
352.517	80.89
352.728	52.22
352.94	39.94
353.152	76.8
353.363	60.42
353.575	60.42
353.787	52.22
353.999	89.09
354.21	15.36
354.422	17.41
354.633	142.33
354.845	66.56
355.057	23.55
355.268	64.51
355.48	80.89
355.692	-5.12
355.903	-1.02
356.115	48.13
356.326	7.17
356.538	41.98
356.749	87.04
356.961	39.94
357.172	87.04
357.384	41.98
357.595	84.99
357.807	27.65
358.018	15.36
358.23	60.42
358.441	60.42
358.653	31.74
358.864	60.42
359.075	-25.6
359.287	27.65
359.498	89.09
359.709	150.53
359.921	11.26
360.132	72.7
360.344	48.13
360.555	-1.02
360.766	27.65
360.977	80.89
361.189	80.89
361.4	80.89
361.611	84.99
361.823	68.61
362.034	121.85
362.245	-25.6
362.456	80.89
362.667	-13.31
362.879	31.74
363.09	41.98
363.301	19.46
363.512	101.37
363.723	17.41
363.935	23.55
364.146	31.74
364.357	-5.12
364.568	74.75
364.779	9.22
364.99	33.79
365.201	74.75
365.412	52.22
365.623	46.08
365.834	84.99
366.045	111.61
366.256	3.07
366.467	58.37
366.678	17.41
366.889	72.7
367.1	44.03
367.311	101.37
367.522	107.52
367.733	23.55
367.944	27.65
368.155	-1.02
368.366	64.51
368.577	56.32
368.788	19.46
368.999	11.26
369.209	115.71
369.42	105.47
369.631	99.33
369.842	50.18
370.053	25.6
370.264	156.67
370.474	17.41
370.685	35.84
370.896	15.36
371.107	29.7
371.317	74.75
371.528	-9.22
371.739	1.02
371.95	87.04
372.16	123.9
372.371	23.55
372.582	27.65
372.792	76.8
373.003	27.65
373.214	11.26
373.424	-15.36
373.635	37.89
373.846	93.18
374.056	25.6
374.267	23.55
374.477	39.94
374.688	-21.5
374.898	80.89
375.109	-7.17
375.319	76.8
375.53	9.22
375.74	142.33
375.951	31.74
376.161	11.26
376.372	105.47
376.582	74.75
376.793	31.74
377.003	93.18
377.214	74.75
377.424	62.46
377.635	97.28
377.845	-25.6
378.055	52.22
378.266	1.02
378.476	17.41
378.686	27.65
378.897	130.05
379.107	91.13
379.317	115.71
379.528	80.89
379.738	105.47
379.948	25.6
380.158	80.89
380.369	48.13
380.579	58.37
380.789	54.27
380.999	70.65
381.21	89.09
381.42	115.71
381.63	41.98
381.84	89.09
382.05	41.98
382.261	35.84
382.471	95.23
382.681	-33.79
382.891	68.61
383.101	64.51
383.311	-17.41
383.521	123.9
383.731	97.28
383.941	101.37
384.151	21.5
384.361	89.09
384.571	142.33
384.781	52.22
384.991	99.33
385.201	-29.7
385.411	95.23
385.621	70.65
385.831	97.28
386.041	64.51
386.251	64.51
386.461	138.24
386.671	33.79
386.881	113.66
387.091	39.94
387.301	72.7
387.511	41.98
387.72	91.13
387.93	66.56
388.14	74.75
388.35	44.03
388.56	54.27
388.769	68.61
388.979	41.98
389.189	-39.94
389.399	105.47
389.609	97.28
389.818	146.43
390.028	91.13
390.238	66.56
390.447	60.42
390.657	91.13
390.867	27.65
391.076	29.7
391.286	74.75
391.496	91.13
391.705	99.33
391.915	80.89
392.125	80.89
392.334	138.24
392.544	113.66
392.753	25.6
392.963	74.75
393.172	39.94
393.382	113.66
393.591	99.33
393.801	132.09
394.01	17.41
394.22	89.09
394.429	33.79
394.639	72.7
394.848	58.37
395.058	82.94
395.267	74.75
395.477	105.47
395.686	109.57
395.895	111.61
396.105	146.43
396.314	89.09
396.524	56.32
396.733	50.18
396.942	80.89
397.152	130.05
397.361	72.7
397.57	113.66
397.78	84.99
397.989	123.9
398.198	175.1
398.407	80.89
398.617	50.18
398.826	23.55
399.035	82.94
399.244	109.57
399.453	150.53
399.663	72.7
399.872	117.76
400.081	125.95
400.29	95.23
400.499	72.7
400.708	148.48
400.917	74.75
401.127	140.29
401.336	84.99
401.545	168.96
401.754	125.95
401.963	162.81
402.172	101.37
402.381	99.33
402.59	44.03
402.799	117.76
403.008	121.85
403.217	156.67
403.426	171.01
403.635	68.61
403.844	138.24
404.053	105.47
404.262	101.37
404.471	162.81
404.68	197.63
404.888	105.47
405.097	156.67
405.306	123.9
405.515	228.35
405.724	117.76
405.933	160.77
406.142	171.01
406.35	171.01
406.559	254.97
406.768	189.44
406.977	187.39
407.185	187.39
407.394	267.26
407.603	105.47
407.812	228.35
408.02	222.2
408.229	293.88
408.438	207.87
408.646	220.16
408.855	228.35
409.064	283.64
409.272	304.12
409.481	275.45
409.69	295.93
409.898	228.35
410.107	322.56
410.315	302.08
410.524	302.08
410.733	359.42
410.941	357.37
411.15	381.95
411.358	508.92
411.567	408.57
411.775	398.33
411.984	396.28
412.192	502.78
412.401	359.42
412.609	496.63
412.818	547.83
413.026	535.54
413.234	498.68
413.443	596.98
413.651	637.94
413.86	623.61
414.068	633.85
414.276	603.13
414.485	650.23
414.693	654.33
414.901	728.05
415.11	674.81
415.318	736.24
415.526	752.63
415.734	769.01
415.943	859.12
416.151	867.31
416.359	844.79
416.567	861.17
416.776	953.33
416.984	947.19
417.192	1010.67
417.4	982
417.608	1025.01
417.817	967.67
418.025	1059.82
418.233	1194.99
418.441	1131.5
418.649	1297.39
418.857	1330.16
419.065	1436.65
419.273	1344.49
419.481	1377.26
419.689	1446.89
419.897	1514.47
420.105	1489.9
420.313	1502.19
420.521	1754.09
420.729	1702.89
420.937	1737.7
421.145	1737.7
421.353	1919.97
421.561	1952.74
421.769	2087.9
421.977	2081.76
422.185	2016.23
422.393	2106.34
422.601	2304.99
422.809	2302.94
423.017	2327.52
423.224	2495.45
423.432	2452.44
423.64	2628.57
423.848	2761.69
424.056	2737.11
424.263	2886.61
424.471	2874.32
424.679	2954.19
424.887	3263.44
425.094	3173.33
425.302	3294.16
425.51	3359.69
425.718	3480.52
425.925	3445.71
426.133	3697.61
426.341	3771.33
426.548	3951.56
426.756	3941.32
426.964	4074.43
427.171	4258.75
427.379	4408.25
427.586	4316.09
427.794	4744.12
428.001	4815.8
428.209	5186.48
428.417	5067.7
428.624	5262.26
428.832	5335.98
429.039	5282.74
429.247	5194.67
429.454	5710.76
429.662	6222.75
429.869	5725.1
430.076	6151.07
430.284	6005.67
430.491	6316.96
430.699	6495.13
430.906	6468.51
431.114	6718.36
431.321	6806.42
431.528	7017.36
431.736	7574.41
431.943	7713.67
432.15	7504.78
432.358	7732.11
432.565	8127.36
432.772	8037.25
432.979	8295.3
433.187	8577.92
433.394	8549.25
433.601	9218.93
433.808	9149.3
434.016	9184.12
434.223	9659.24
434.43	10165.09
434.637	9855.85
434.844	10425.18
435.052	10861.4
435.259	10834.78
435.466	10632.03
435.673	10677.09
435.88	11422.55
436.087	12034.89
436.294	11922.25
436.501	11676.49
436.708	12055.37
436.915	12286.79
437.122	12819.26
437.329	12794.68
437.537	13069.11
437.743	13613.87
437.95	13263.67
438.157	14027.56
438.364	14699.3
438.571	14449.44
438.778	14426.92
438.985	15926.03
439.192	15223.58
439.399	15860.49
439.606	15498
439.813	16474.88
440.02	17464.05
440.227	16917.25
440.433	16988.92
440.64	17322.74
440.847	17042.17
441.054	17488.63
441.261	18750.18
441.467	18490.09
441.674	18959.07
441.881	19536.6
442.088	19401.43
442.294	19649.24
442.501	19880.66
442.708	20302.54
442.914	21154.49
443.121	21977.78
443.328	21156.54
443.534	22815.4
443.741	22201.01
443.948	21852.85
444.154	23556.76
444.361	23333.53
444.568	23435.93
444.774	23665.3
444.981	23853.72
445.187	24265.36
445.394	25422.46
445.6	25150.08
445.807	27476.57
446.013	26219.12
446.22	26626.67
446.426	27871.83
446.633	28125.78
446.839	29117
447.046	27941.46
447.252	29446.72
447.459	29250.11
447.665	29014.6
447.871	30861.87
448.078	31801.88
448.284	30800.43
448.491	31349.28
448.697	32659.98
448.903	33122.82
449.11	33360.39
449.316	32461.33
449.522	33354.24
449.728	34032.12
449.935	34550.26
450.141	34609.65
450.347	35047.91
450.553	33948.15
450.76	34523.63
450.966	35930.59
451.172	35453.41
451.378	35971.55
451.584	35637.73
451.791	36370.9
451.997	36198.87
452.203	36899.28
452.409	37020.11
452.615	36938.19
452.821	35305.96
453.027	35021.29
453.233	37140.94
453.44	35797.47
453.646	36010.46
453.852	36096.47
454.058	36477.4
454.264	35564
454.47	36477.4
454.676	35148.26
454.882	36930
455.088	33548.8
455.294	33993.21
455.5	34689.52
455.705	34908.65
455.911	33614.34
456.117	32864.78
456.323	32659.98
456.529	31056.42
456.735	32113.17
456.941	31459.87
457.147	31052.33
457.352	30009.91
457.558	29889.08
457.764	29737.53
457.97	29436.48
458.176	29039.17
458.381	28658.25
458.587	27093.6
458.793	27191.91
458.999	26157.68
459.204	27687.51
459.41	26995.3
459.616	25344.64
459.821	25367.16
460.027	25002.63
460.233	24605.32
460.438	23493.27
460.644	23952.02
460.85	22723.24
461.055	22381.23
461.261	22235.82
461.466	20775.62
461.672	19847.89
461.878	21557.94
462.083	20189.9
462.289	19393.24
462.494	19329.75
462.7	18352.87
462.905	17963.76
463.111	18952.93
463.316	18643.68
463.522	18481.89
463.727	18537.19
463.932	18283.24
464.138	18209.51
464.343	18430.69
464.549	17687.28
464.754	18002.67
464.959	18322.15
465.165	18125.55
465.37	17408.76
465.575	16747.26
465.781	17513.2
465.986	17601.27
466.191	16827.14
466.397	16630.53
466.602	15813.39
466.807	16468.74
467.012	16505.6
467.218	16368.39
467.423	16034.57
467.628	16382.73
467.833	16880.38
