Data from USB4F104151__49__14-16-50-005.txt Node

Date: Thu Mar 13 14:16:50 EDT 2025
User: louis
Spectrometer: USB4F10415
Trigger mode: 4
Integration Time (sec): 2.000000E-2
Scans to average: 1
Electric dark correction enabled: true
Nonlinearity correction enabled: false
Boxcar width: 0
XAxis mode: Wavelengths
Number of Pixels in Spectrum: 3648
>>>>>Begin Spectral Data<<<<<
178.204	-82.26
178.424	-82.26
178.644	-82.26
178.864	-65.88
179.084	-61.78
179.304	-31.06
179.524	34.47
179.744	7.85
179.964	-2.39
180.184	7.85
180.404	11.95
180.624	40.62
180.844	-12.63
181.064	-41.3
181.283	-22.87
181.503	-4.44
181.723	11.95
181.943	-49.49
182.163	-24.92
182.383	63.15
182.602	89.77
182.822	50.86
183.042	34.47
183.262	30.38
183.482	79.53
183.701	73.39
183.921	48.81
184.141	13.99
184.361	48.81
184.58	-12.63
184.8	52.91
185.02	1.71
185.239	57
185.459	3.75
185.679	-16.73
185.898	24.23
186.118	-0.34
186.338	-29.01
186.557	28.33
186.777	-12.63
186.997	-33.11
187.216	7.85
187.436	75.43
187.655	40.62
187.875	57
188.095	-37.2
188.314	46.76
188.534	89.77
188.753	-16.73
188.973	44.71
189.192	57
189.412	42.67
189.631	50.86
189.851	69.29
190.07	65.19
190.29	-4.44
190.509	36.52
190.729	-45.4
190.948	73.39
191.168	75.43
191.387	57
191.607	1.71
191.826	59.05
192.045	28.33
192.265	52.91
192.484	50.86
192.704	89.77
192.923	24.23
193.142	7.85
193.362	77.48
193.581	97.96
193.8	11.95
194.02	42.67
194.239	24.23
194.458	24.23
194.678	-90.45
194.897	20.14
195.116	48.81
195.335	-14.68
195.555	-4.44
195.774	67.24
195.993	59.05
196.212	40.62
196.432	52.91
196.651	38.57
196.87	9.9
197.089	50.86
197.308	75.43
197.528	-2.39
197.747	-35.16
197.966	77.48
198.185	67.24
198.404	5.8
198.623	-29.01
198.842	83.63
199.062	59.05
199.281	11.95
199.5	73.39
199.719	61.1
199.938	48.81
200.157	24.23
200.376	34.47
200.595	20.14
200.814	11.95
201.033	-16.73
201.252	16.04
201.471	-0.34
201.69	85.67
201.909	40.62
202.128	50.86
202.347	34.47
202.566	-4.44
202.785	89.77
203.004	57
203.223	67.24
203.442	-33.11
203.661	-74.07
203.879	-31.06
204.098	104.11
204.317	-72.02
204.536	-6.49
204.755	67.24
204.974	91.82
205.193	59.05
205.411	116.39
205.63	83.63
205.849	48.81
206.068	-4.44
206.287	36.52
206.505	106.15
206.724	-49.49
206.943	11.95
207.162	-6.49
207.381	34.47
207.599	102.06
207.818	24.23
208.037	18.09
208.255	-69.97
208.474	54.95
208.693	24.23
208.911	-6.49
209.13	59.05
209.349	-8.53
209.567	28.33
209.786	69.29
210.005	22.19
210.223	61.1
210.442	-82.26
210.661	34.47
210.879	-96.6
211.098	11.95
211.316	65.19
211.535	34.47
211.753	81.58
211.972	20.14
212.191	50.86
212.409	36.52
212.628	42.67
212.846	-29.01
213.065	-6.49
213.283	65.19
213.502	16.04
213.72	28.33
213.938	-24.92
214.157	-4.44
214.375	-0.34
214.594	28.33
214.812	-0.34
215.031	36.52
215.249	54.95
215.467	89.77
215.686	1.71
215.904	13.99
216.122	77.48
216.341	24.23
216.559	32.43
216.778	118.44
216.996	24.23
217.214	44.71
217.432	108.2
217.651	-74.07
217.869	65.19
218.087	54.95
218.306	-0.34
218.524	16.04
218.742	-31.06
218.96	22.19
219.179	48.81
219.397	-20.82
219.615	73.39
219.833	30.38
220.051	40.62
220.27	16.04
220.488	5.8
220.706	26.28
220.924	59.05
221.142	46.76
221.36	7.85
221.578	-10.58
221.796	20.14
222.015	67.24
222.233	16.04
222.451	77.48
222.669	-20.82
222.887	32.43
223.105	36.52
223.323	-33.11
223.541	52.91
223.759	71.34
223.977	3.75
224.195	40.62
224.413	30.38
224.631	52.91
224.849	24.23
225.067	65.19
225.285	-24.92
225.503	5.8
225.721	-78.16
225.939	16.04
226.157	38.57
226.375	44.71
226.592	73.39
226.81	42.67
227.028	73.39
227.246	149.16
227.464	77.48
227.682	-12.63
227.9	-12.63
228.117	97.96
228.335	-12.63
228.553	16.04
228.771	52.91
228.989	93.87
229.206	-0.34
229.424	42.67
229.642	54.95
229.86	32.43
230.077	75.43
230.295	-33.11
230.513	81.58
230.731	67.24
230.948	36.52
231.166	42.67
231.384	46.76
231.601	-8.53
231.819	63.15
232.037	24.23
232.254	16.04
232.472	100.01
232.689	-12.63
232.907	104.11
233.125	102.06
233.342	-14.68
233.56	57
233.777	93.87
233.995	50.86
234.213	59.05
234.43	36.52
234.648	7.85
234.865	22.19
235.083	67.24
235.3	34.47
235.518	18.09
235.735	40.62
235.953	89.77
236.17	42.67
236.388	26.28
236.605	-10.58
236.822	108.2
237.04	-0.34
237.257	46.76
237.475	16.04
237.692	77.48
237.909	-0.34
238.127	-8.53
238.344	61.1
238.562	28.33
238.779	38.57
238.996	9.9
239.214	-43.35
239.431	24.23
239.648	24.23
239.865	48.81
240.083	54.95
240.3	32.43
240.517	-39.25
240.735	16.04
240.952	73.39
241.169	7.85
241.386	42.67
241.603	34.47
241.821	13.99
242.038	59.05
242.255	48.81
242.472	-10.58
242.689	-43.35
242.907	40.62
243.124	59.05
243.341	-14.68
243.558	65.19
243.775	9.9
243.992	-24.92
244.209	26.28
244.426	138.92
244.643	75.43
244.86	20.14
245.078	24.23
245.295	81.58
245.512	-29.01
245.729	-41.3
245.946	91.82
246.163	34.47
246.38	28.33
246.597	-16.73
246.814	40.62
247.031	24.23
247.248	1.71
247.464	63.15
247.681	42.67
247.898	48.81
248.115	57
248.332	48.81
248.549	81.58
248.766	44.71
248.983	40.62
249.2	13.99
249.417	61.1
249.633	11.95
249.85	-12.63
250.067	18.09
250.284	50.86
250.501	36.52
250.717	91.82
250.934	-49.49
251.151	44.71
251.368	61.1
251.585	122.54
251.801	22.19
252.018	11.95
252.235	28.33
252.451	52.91
252.668	61.1
252.885	48.81
253.102	50.86
253.318	22.19
253.535	9.9
253.752	22.19
253.968	100.01
254.185	11.95
254.401	81.58
254.618	40.62
254.835	20.14
255.051	97.96
255.268	9.9
255.484	36.52
255.701	59.05
255.917	63.15
256.134	42.67
256.351	91.82
256.567	-20.82
256.784	-20.82
257	-31.06
257.217	73.39
257.433	3.75
257.65	24.23
257.866	9.9
258.082	-4.44
258.299	20.14
258.515	81.58
258.732	36.52
258.948	61.1
259.165	34.47
259.381	26.28
259.597	67.24
259.814	-12.63
260.03	7.85
260.246	57
260.463	65.19
260.679	34.47
260.895	59.05
261.112	7.85
261.328	28.33
261.544	40.62
261.761	-0.34
261.977	48.81
262.193	-8.53
262.409	24.23
262.626	50.86
262.842	24.23
263.058	-41.3
263.274	9.9
263.49	3.75
263.707	18.09
263.923	-8.53
264.139	40.62
264.355	20.14
264.571	110.25
264.787	40.62
265.004	67.24
265.22	50.86
265.436	24.23
265.652	-22.87
265.868	9.9
266.084	-35.16
266.3	57
266.516	-61.78
266.732	16.04
266.948	42.67
267.164	24.23
267.38	83.63
267.596	50.86
267.812	124.58
268.028	93.87
268.244	-12.63
268.46	48.81
268.676	-14.68
268.892	22.19
269.108	24.23
269.324	-57.68
269.54	-57.68
269.756	44.71
269.972	-39.25
270.188	40.62
270.403	-37.2
270.619	79.53
270.835	24.23
271.051	50.86
271.267	-4.44
271.483	1.71
271.698	5.8
271.914	89.77
272.13	-0.34
272.346	85.67
272.562	57
272.777	34.47
272.993	104.11
273.209	138.92
273.425	36.52
273.64	34.47
273.856	40.62
274.072	18.09
274.287	57
274.503	67.24
274.719	134.82
274.934	7.85
275.15	34.47
275.366	22.19
275.581	52.91
275.797	50.86
276.012	-6.49
276.228	-20.82
276.444	48.81
276.659	116.39
276.875	40.62
277.09	147.11
277.306	40.62
277.521	91.82
277.737	77.48
277.952	34.47
278.168	-80.21
278.383	-0.34
278.599	71.34
278.814	57
279.03	-12.63
279.245	52.91
279.461	24.23
279.676	89.77
279.892	16.04
280.107	44.71
280.322	9.9
280.538	69.29
280.753	-2.39
280.969	77.48
281.184	-55.64
281.399	48.81
281.615	30.38
281.83	20.14
282.045	32.43
282.26	18.09
282.476	-33.11
282.691	38.57
282.906	7.85
283.122	59.05
283.337	18.09
283.552	67.24
283.767	-18.77
283.983	-4.44
284.198	57
284.413	-53.59
284.628	-24.92
284.843	42.67
285.058	7.85
285.274	9.9
285.489	30.38
285.704	65.19
285.919	-37.2
286.134	-12.63
286.349	102.06
286.564	11.95
286.779	97.96
286.995	50.86
287.21	-69.97
287.425	24.23
287.64	1.71
287.855	-49.49
288.07	-29.01
288.285	-0.34
288.5	95.91
288.715	32.43
288.93	9.9
289.145	61.1
289.36	30.38
289.575	59.05
289.79	122.54
290.004	-22.87
290.219	26.28
290.434	34.47
290.649	-0.34
290.864	16.04
291.079	-16.73
291.294	-22.87
291.509	108.2
291.724	11.95
291.938	26.28
292.153	16.04
292.368	-2.39
292.583	71.34
292.798	36.52
293.012	130.73
293.227	73.39
293.442	116.39
293.657	48.81
293.871	71.34
294.086	-16.73
294.301	138.92
294.516	-8.53
294.73	83.63
294.945	18.09
295.16	-12.63
295.374	102.06
295.589	11.95
295.804	59.05
296.018	-61.78
296.233	-6.49
296.447	13.99
296.662	9.9
296.877	40.62
297.091	44.71
297.306	61.1
297.52	-8.53
297.735	89.77
297.949	97.96
298.164	65.19
298.378	32.43
298.593	-24.92
298.807	61.1
299.022	97.96
299.236	65.19
299.451	-16.73
299.665	65.19
299.88	42.67
300.094	57
300.309	-0.34
300.523	32.43
300.737	57
300.952	-20.82
301.166	34.47
301.381	-35.16
301.595	44.71
301.809	20.14
302.024	24.23
302.238	-31.06
302.452	40.62
302.667	11.95
302.881	122.54
303.095	48.81
303.309	69.29
303.524	40.62
303.738	44.71
303.952	57
304.166	61.1
304.381	38.57
304.595	95.91
304.809	-4.44
305.023	-0.34
305.237	3.75
305.452	18.09
305.666	32.43
305.88	73.39
306.094	73.39
306.308	-2.39
306.522	52.91
306.736	16.04
306.95	24.23
307.164	102.06
307.379	89.77
307.593	57
307.807	30.38
308.021	106.15
308.235	11.95
308.449	69.29
308.663	97.96
308.877	102.06
309.091	18.09
309.305	9.9
309.519	57
309.733	26.28
309.947	-78.16
310.161	20.14
310.374	69.29
310.588	9.9
310.802	32.43
311.016	32.43
311.23	9.9
311.444	-6.49
311.658	42.67
311.872	97.96
312.085	63.15
312.299	13.99
312.513	67.24
312.727	48.81
312.941	-51.54
313.154	-2.39
313.368	85.67
313.582	73.39
313.796	100.01
314.009	-4.44
314.223	11.95
314.437	79.53
314.651	1.71
314.864	89.77
315.078	13.99
315.292	-80.21
315.505	65.19
315.719	69.29
315.933	106.15
316.146	48.81
316.36	30.38
316.573	46.76
316.787	36.52
317.001	93.87
317.214	57
317.428	1.71
317.641	-16.73
317.855	65.19
318.068	24.23
318.282	-4.44
318.495	120.49
318.709	48.81
318.922	73.39
319.136	85.67
319.349	97.96
319.563	48.81
319.776	-2.39
319.99	67.24
320.203	42.67
320.417	-10.58
320.63	-8.53
320.843	136.87
321.057	-0.34
321.27	93.87
321.483	40.62
321.697	97.96
321.91	57
322.124	100.01
322.337	24.23
322.55	-41.3
322.763	9.9
322.977	48.81
323.19	-14.68
323.403	50.86
323.617	65.19
323.83	26.28
324.043	3.75
324.256	20.14
324.469	-4.44
324.683	77.48
324.896	-29.01
325.109	57
325.322	-20.82
325.535	52.91
325.748	48.81
325.962	40.62
326.175	40.62
326.388	11.95
326.601	102.06
326.814	34.47
327.027	34.47
327.24	69.29
327.453	-6.49
327.666	106.15
327.879	57
328.092	59.05
328.305	20.14
328.518	65.19
328.731	-20.82
328.944	42.67
329.157	3.75
329.37	59.05
329.583	59.05
329.796	97.96
330.009	40.62
330.222	73.39
330.435	24.23
330.648	26.28
330.861	-72.02
331.073	71.34
331.286	126.63
331.499	18.09
331.712	-2.39
331.925	59.05
332.138	57
332.35	67.24
332.563	30.38
332.776	73.39
332.989	116.39
333.202	97.96
333.414	-4.44
333.627	50.86
333.84	87.72
334.053	69.29
334.265	-41.3
334.478	40.62
334.691	44.71
334.903	26.28
335.116	3.75
335.329	79.53
335.541	50.86
335.754	126.63
335.966	59.05
336.179	102.06
336.392	40.62
336.604	106.15
336.817	81.58
337.029	18.09
337.242	77.48
337.454	89.77
337.667	59.05
337.88	75.43
338.092	34.47
338.305	36.52
338.517	34.47
338.729	30.38
338.942	91.82
339.154	-16.73
339.367	1.71
339.579	159.4
339.792	34.47
340.004	-12.63
340.217	-14.68
340.429	126.63
340.641	-16.73
340.854	28.33
341.066	5.8
341.278	89.77
341.491	52.91
341.703	52.91
341.915	18.09
342.128	7.85
342.34	75.43
342.552	77.48
342.764	100.01
342.977	-33.11
343.189	69.29
343.401	40.62
343.613	-37.2
343.826	65.19
344.038	30.38
344.25	18.09
344.462	73.39
344.674	24.23
344.886	3.75
345.099	97.96
345.311	48.81
345.523	81.58
345.735	18.09
345.947	42.67
346.159	106.15
346.371	89.77
346.583	61.1
346.795	134.82
347.007	1.71
347.219	7.85
347.431	40.62
347.643	11.95
347.855	73.39
348.067	106.15
348.279	-0.34
348.491	-4.44
348.703	28.33
348.915	-26.96
349.127	-2.39
349.339	63.15
349.551	44.71
349.763	75.43
349.975	24.23
350.187	71.34
350.399	114.34
350.61	104.11
350.822	-41.3
351.034	32.43
351.246	-22.87
351.458	30.38
351.669	108.2
351.881	54.95
352.093	32.43
352.305	122.54
352.517	26.28
352.728	89.77
352.94	-22.87
353.152	143.02
353.363	52.91
353.575	7.85
353.787	118.44
353.999	73.39
354.21	104.11
354.422	-33.11
354.633	-20.82
354.845	114.34
355.057	108.2
355.268	36.52
355.48	-35.16
355.692	85.67
355.903	134.82
356.115	5.8
356.326	9.9
356.538	73.39
356.749	48.81
356.961	114.34
357.172	-6.49
357.384	-6.49
357.595	93.87
357.807	42.67
358.018	7.85
358.23	73.39
358.441	138.92
358.653	3.75
358.864	61.1
359.075	91.82
359.287	57
359.498	9.9
359.709	22.19
359.921	18.09
360.132	44.71
360.344	-6.49
360.555	81.58
360.766	36.52
360.977	50.86
361.189	67.24
361.4	-10.58
361.611	124.58
361.823	32.43
362.034	87.72
362.245	42.67
362.456	114.34
362.667	32.43
362.879	36.52
363.09	18.09
363.301	36.52
363.512	65.19
363.723	73.39
363.935	63.15
364.146	63.15
364.357	24.23
364.568	36.52
364.779	3.75
364.99	89.77
365.201	73.39
365.412	65.19
365.623	50.86
365.834	18.09
366.045	67.24
366.256	42.67
366.467	87.72
366.678	71.34
366.889	61.1
367.1	3.75
367.311	46.76
367.522	83.63
367.733	69.29
367.944	77.48
368.155	44.71
368.366	34.47
368.577	57
368.788	126.63
368.999	-20.82
369.209	75.43
369.42	93.87
369.631	124.58
369.842	89.77
370.053	20.14
370.264	85.67
370.474	75.43
370.685	48.81
370.896	-37.2
371.107	155.3
371.317	63.15
371.528	44.71
371.739	112.3
371.95	89.77
372.16	42.67
372.371	-35.16
372.582	108.2
372.792	110.25
373.003	106.15
373.214	13.99
373.424	134.82
373.635	100.01
373.846	140.97
374.056	3.75
374.267	59.05
374.477	50.86
374.688	26.28
374.898	26.28
375.109	73.39
375.319	67.24
375.53	126.63
375.74	61.1
375.951	16.04
376.161	18.09
376.372	59.05
376.582	-0.34
376.793	54.95
377.003	48.81
377.214	44.71
377.424	95.91
377.635	1.71
377.845	61.1
378.055	73.39
378.266	40.62
378.476	34.47
378.686	73.39
378.897	91.82
379.107	61.1
379.317	89.77
379.528	-29.01
379.738	77.48
379.948	57
380.158	91.82
380.369	32.43
380.579	57
380.789	-4.44
380.999	181.93
381.21	52.91
381.42	42.67
381.63	30.38
381.84	83.63
382.05	81.58
382.261	130.73
382.471	126.63
382.681	9.9
382.891	81.58
383.101	81.58
383.311	67.24
383.521	67.24
383.731	57
383.941	116.39
384.151	83.63
384.361	73.39
384.571	97.96
384.781	69.29
384.991	89.77
385.201	61.1
385.411	57
385.621	59.05
385.831	65.19
386.041	65.19
386.251	77.48
386.461	52.91
386.671	44.71
386.881	61.1
387.091	54.95
387.301	59.05
387.511	75.43
387.72	120.49
387.93	67.24
388.14	75.43
388.35	118.44
388.56	102.06
388.769	61.1
388.979	122.54
389.189	22.19
389.399	116.39
389.609	34.47
389.818	52.91
390.028	75.43
390.238	-4.44
390.447	20.14
390.657	106.15
390.867	79.53
391.076	77.48
391.286	42.67
391.496	24.23
391.705	24.23
391.915	73.39
392.125	50.86
392.334	16.04
392.544	83.63
392.753	30.38
392.963	50.86
393.172	132.78
393.382	32.43
393.591	75.43
393.801	73.39
394.01	181.93
394.22	145.06
394.429	116.39
394.639	61.1
394.848	97.96
395.058	71.34
395.267	61.1
395.477	122.54
395.686	128.68
395.895	145.06
396.105	138.92
396.314	85.67
396.524	106.15
396.733	50.86
396.942	106.15
397.152	79.53
397.361	122.54
397.57	42.67
397.78	130.73
397.989	91.82
398.198	194.22
398.407	108.2
398.617	122.54
398.826	97.96
399.035	46.76
399.244	24.23
399.453	102.06
399.663	50.86
399.872	159.4
400.081	85.67
400.29	136.87
400.499	165.54
400.708	130.73
400.917	140.97
401.127	190.12
401.336	95.91
401.545	235.18
401.754	110.25
401.963	155.3
402.172	153.26
402.381	124.58
402.59	136.87
402.799	114.34
403.008	171.69
403.217	181.93
403.426	104.11
403.635	171.69
403.844	122.54
404.053	134.82
404.262	138.92
404.471	214.7
404.68	192.17
404.888	229.03
405.097	138.92
405.306	190.12
405.515	171.69
405.724	171.69
405.933	204.46
406.142	190.12
406.35	249.51
406.559	288.42
406.768	194.22
406.977	302.76
407.185	226.98
407.394	241.32
407.603	198.31
407.812	286.37
408.02	378.53
408.229	278.18
408.438	261.8
408.646	298.66
408.855	263.85
409.064	323.24
409.272	325.29
409.481	280.23
409.69	274.09
409.898	353.96
410.107	349.86
410.315	376.48
410.524	415.4
410.733	423.59
410.941	417.44
411.15	552.61
411.358	386.72
411.567	517.79
411.775	495.27
411.984	517.79
412.192	519.84
412.401	614.05
412.609	597.67
412.818	618.15
413.026	585.38
413.234	691.87
413.443	552.61
413.651	622.24
413.86	706.21
414.068	755.36
414.276	771.74
414.485	702.11
414.693	683.68
414.901	861.85
415.11	882.33
415.318	851.61
415.526	859.81
415.734	902.81
415.943	1009.31
416.151	1080.99
416.359	1023.64
416.567	1134.23
416.776	1136.28
416.984	1183.38
417.192	1203.86
417.4	1156.76
417.608	1212.06
417.817	1207.96
418.025	1269.4
418.233	1468.05
418.441	1402.52
418.649	1511.06
418.857	1545.88
419.065	1609.36
419.273	1562.26
419.481	1687.18
419.689	1846.93
419.897	1765.01
420.105	1844.88
420.313	1834.64
420.521	1984.14
420.729	2049.68
420.937	2055.82
421.145	2289.29
421.353	2238.09
421.561	2352.77
421.769	2442.89
421.977	2547.33
422.185	2524.8
422.393	2666.11
422.601	2786.94
422.809	2780.8
423.017	2868.86
423.224	2926.21
423.432	3137.15
423.64	3049.08
423.848	3343.99
424.056	3303.03
424.263	3321.46
424.471	3597.94
424.679	3559.03
424.887	3794.54
425.094	3759.73
425.302	3956.33
425.51	4007.53
425.718	4277.87
425.925	4187.75
426.133	4374.12
426.341	4585.06
426.548	4851.3
426.756	4728.42
426.964	4918.88
427.171	5086.81
427.379	5398.1
427.586	5115.48
427.794	5465.69
428.001	5850.71
428.209	6090.32
428.417	5893.71
428.624	6442.57
428.832	6250.06
429.039	6250.06
429.247	6254.16
429.454	6921.79
429.662	7274.04
429.869	6901.31
430.076	7272
430.284	7130.69
430.491	7372.35
430.699	7863.86
430.906	7953.97
431.114	8042.03
431.321	8257.07
431.528	8478.25
431.736	9018.91
431.943	9426.46
432.15	9100.83
432.358	9154.08
432.565	9805.33
432.772	9651.74
432.979	10249.74
433.187	10266.13
433.394	10225.17
433.601	11089.41
433.808	11197.95
434.016	10862.08
434.223	11558.39
434.43	12242.42
434.637	11922.93
434.844	12838.37
435.052	13075.94
435.259	12727.78
435.466	13039.08
435.673	12854.76
435.88	13665.75
436.087	14390.74
436.294	14351.82
436.501	13913.56
436.708	14392.78
436.915	14992.84
437.122	15500.73
437.329	15556.03
437.537	15855.03
437.743	16031.16
437.95	15996.34
438.157	16928.17
438.364	17470.88
438.571	17278.37
438.778	17517.98
438.985	19062.15
439.192	18283.92
439.399	19264.9
439.606	18699.66
439.813	19496.32
440.02	20983.15
440.227	20407.67
440.433	20256.12
440.64	20788.59
440.847	20811.12
441.054	21364.07
441.261	22680.91
441.467	22699.34
441.674	22637.91
441.881	23686.47
442.088	23530.82
442.294	23383.37
442.501	24063.29
442.708	24732.98
442.914	24982.83
443.121	26309.91
443.328	25752.87
443.534	27579.65
443.741	26658.07
443.948	25953.57
444.154	28116.22
444.361	27921.66
444.568	28484.86
444.774	28046.59
444.981	28646.65
445.187	29287.66
445.394	30598.36
445.6	30192.86
445.807	32933.04
446.013	31874.24
446.22	32355.52
446.426	33352.88
446.633	33608.87
446.839	34870.42
447.046	33397.93
447.252	35146.9
447.459	35300.5
447.665	34983.06
447.871	36738.17
448.078	37796.97
448.284	36607.1
448.491	37688.43
448.697	38859.87
448.903	39648.33
449.11	39824.46
449.316	39222.36
449.522	39928.91
449.728	40516.67
449.935	40852.54
450.141	41124.92
450.347	42005.55
450.553	40465.47
450.76	41368.63
450.966	42634.27
451.172	41962.54
451.378	43269.14
451.584	42208.29
451.791	42798.11
451.997	42888.22
452.203	43768.85
452.409	43619.35
452.615	43041.82
452.821	41544.75
453.027	41702.45
453.233	43551.76
453.44	42153
453.646	42310.69
453.852	42535.97
454.058	43518.99
454.264	41808.94
454.47	42888.22
454.676	41772.08
454.882	43199.51
455.088	39552.08
455.294	40379.46
455.5	40518.72
455.705	41100.34
455.911	39035.99
456.117	38552.67
456.323	38458.46
456.529	36226.18
456.735	38175.84
456.941	37022.84
457.147	36516.99
457.352	35161.23
457.558	34819.22
457.764	34991.25
457.97	34354.33
458.176	33748.14
458.381	33674.41
458.587	31894.72
458.793	31663.3
458.999	30000.35
459.204	32597.18
459.41	31630.54
459.616	29529.32
459.821	29719.78
460.027	29844.71
460.233	29064.43
460.438	27456.78
460.644	27960.58
460.85	26627.35
461.055	25928.99
461.261	26164.51
461.466	24438.07
461.672	23360.84
461.878	25292.07
462.083	23500.1
462.289	23262.54
462.494	22648.15
462.7	21697.89
462.905	21208.42
463.111	22093.15
463.316	21769.57
463.522	21525.86
463.727	21441.89
463.932	21443.94
464.138	21099.88
464.343	21488.99
464.549	20456.82
464.754	21448.04
464.959	21067.11
465.165	20944.24
465.37	20098.42
465.575	19398.02
465.781	20245.88
465.986	20415.86
466.191	19527.04
466.397	19395.97
466.602	18529.68
466.807	19479.94
467.012	19144.07
467.218	19021.19
467.423	18863.5
467.628	18896.27
