Data from USB4F104151__289__14-23-46-496.txt Node

Date: Thu Mar 13 14:23:46 EDT 2025
User: louis
Spectrometer: USB4F10415
Trigger mode: 4
Integration Time (sec): 2.000000E-2
Scans to average: 1
Electric dark correction enabled: true
Nonlinearity correction enabled: false
Boxcar width: 0
XAxis mode: Wavelengths
Number of Pixels in Spectrum: 3648
>>>>>Begin Spectral Data<<<<<
178.204	-107.69
178.424	-107.69
178.644	-107.69
178.864	-117.93
179.084	-68.78
179.304	-36.01
179.524	-48.3
179.744	13.14
179.964	21.33
180.184	-11.43
180.404	19.29
180.624	19.29
180.844	39.76
181.064	-7.34
181.283	-33.96
181.503	-3.24
181.723	27.48
181.943	-44.2
182.163	56.15
182.383	-23.72
182.602	33.62
182.822	58.2
183.042	25.43
183.262	-23.72
183.482	43.86
183.701	86.87
183.921	52.05
184.141	62.29
184.361	-15.53
184.58	86.87
184.8	-23.72
185.02	13.14
185.239	47.96
185.459	29.52
185.679	43.86
185.898	15.19
186.118	70.48
186.338	37.72
186.557	9.05
186.777	-27.82
186.997	54.1
187.216	-19.63
187.436	21.33
187.655	-3.24
187.875	23.38
188.095	45.91
188.314	56.15
188.534	58.2
188.753	33.62
188.973	-56.49
189.192	90.96
189.412	15.19
189.631	39.76
189.851	-38.06
190.07	80.72
190.29	-66.73
190.509	41.81
190.729	-50.35
190.948	54.1
191.168	152.4
191.387	37.72
191.607	37.72
191.826	-5.29
192.045	56.15
192.265	-23.72
192.484	11.09
192.704	17.24
192.923	-25.77
193.142	129.88
193.362	29.52
193.581	13.14
193.8	-3.24
194.02	-5.29
194.239	41.81
194.458	13.14
194.678	74.58
194.897	-13.48
195.116	-17.58
195.335	-19.63
195.555	39.76
195.774	-11.43
195.993	-11.43
196.212	7
196.432	-31.91
196.651	56.15
196.87	64.34
197.089	64.34
197.308	47.96
197.528	-15.53
197.747	-44.2
197.966	4.95
198.185	56.15
198.404	7
198.623	37.72
198.842	88.92
199.062	13.14
199.281	54.1
199.5	88.92
199.719	45.91
199.938	70.48
200.157	35.67
200.376	-52.39
200.595	-9.39
200.814	-25.77
201.033	-42.15
201.252	39.76
201.471	45.91
201.69	95.06
201.909	107.35
202.128	45.91
202.347	43.86
202.566	54.1
202.785	45.91
203.004	-3.24
203.223	121.68
203.442	99.16
203.661	-31.91
203.879	-1.19
204.098	64.34
204.317	4.95
204.536	62.29
204.755	72.53
204.974	-9.39
205.193	52.05
205.411	80.72
205.63	7
205.849	54.1
206.068	76.63
206.287	86.87
206.505	15.19
206.724	52.05
206.943	33.62
207.162	-66.73
207.381	37.72
207.599	56.15
207.818	74.58
208.037	4.95
208.255	31.57
208.474	-7.34
208.693	-1.19
208.911	-3.24
209.13	15.19
209.349	4.95
209.567	64.34
209.786	-11.43
210.005	47.96
210.223	-3.24
210.442	9.05
210.661	62.29
210.879	-19.63
211.098	78.68
211.316	-36.01
211.535	58.2
211.753	33.62
211.972	88.92
212.191	37.72
212.409	0.85
212.628	19.29
212.846	17.24
213.065	50
213.283	80.72
213.502	-5.29
213.72	45.91
213.938	35.67
214.157	78.68
214.375	-19.63
214.594	21.33
214.812	27.48
215.031	58.2
215.249	27.48
215.467	39.76
215.686	-15.53
215.904	7
216.122	-27.82
216.341	35.67
216.559	19.29
216.778	13.14
216.996	58.2
217.214	-19.63
217.432	37.72
217.651	47.96
217.869	-31.91
218.087	21.33
218.306	66.39
218.524	29.52
218.742	31.57
218.96	41.81
219.179	25.43
219.397	47.96
219.615	78.68
219.833	150.36
220.051	29.52
220.27	117.59
220.488	54.1
220.706	13.14
220.924	19.29
221.142	47.96
221.36	121.68
221.578	86.87
221.796	-19.63
222.015	37.72
222.233	-36.01
222.451	54.1
222.669	11.09
222.887	-11.43
223.105	21.33
223.323	-3.24
223.541	15.19
223.759	86.87
223.977	-19.63
224.195	68.44
224.413	9.05
224.631	11.09
224.849	17.24
225.067	50
225.285	4.95
225.503	88.92
225.721	-40.11
225.939	-3.24
226.157	11.09
226.375	113.49
226.592	-25.77
226.81	39.76
227.028	31.57
227.246	138.07
227.464	15.19
227.682	70.48
227.9	62.29
228.117	90.96
228.335	43.86
228.553	72.53
228.771	-81.07
228.989	80.72
229.206	43.86
229.424	-1.19
229.642	39.76
229.86	-68.78
230.077	64.34
230.295	41.81
230.513	90.96
230.731	-3.24
230.948	86.87
231.166	70.48
231.384	0.85
231.601	-9.39
231.819	31.57
232.037	45.91
232.254	-11.43
232.472	82.77
232.689	-42.15
232.907	37.72
233.125	-5.29
233.342	15.19
233.56	45.91
233.777	-17.58
233.995	76.63
234.213	90.96
234.43	17.24
234.648	62.29
234.865	54.1
235.083	-1.19
235.3	50
235.518	41.81
235.735	33.62
235.953	156.5
236.17	21.33
236.388	45.91
236.605	25.43
236.822	54.1
237.04	56.15
237.257	11.09
237.475	21.33
237.692	27.48
237.909	35.67
238.127	17.24
238.344	37.72
238.562	31.57
238.779	72.53
238.996	33.62
239.214	64.34
239.431	82.77
239.648	15.19
239.865	15.19
240.083	70.48
240.3	13.14
240.517	56.15
240.735	21.33
240.952	-9.39
241.169	88.92
241.386	39.76
241.603	29.52
241.821	56.15
242.038	78.68
242.255	-5.29
242.472	9.05
242.689	72.53
242.907	23.38
243.124	64.34
243.341	47.96
243.558	17.24
243.775	-19.63
243.992	58.2
244.209	62.29
244.426	50
244.643	33.62
244.86	23.38
245.078	45.91
245.295	74.58
245.512	-11.43
245.729	13.14
245.946	-33.96
246.163	-25.77
246.38	-40.11
246.597	97.11
246.814	-19.63
247.031	47.96
247.248	4.95
247.464	58.2
247.681	4.95
247.898	41.81
248.115	95.06
248.332	-21.67
248.549	21.33
248.766	37.72
248.983	35.67
249.2	76.63
249.417	13.14
249.633	60.24
249.85	103.25
250.067	13.14
250.284	93.01
250.501	54.1
250.717	90.96
250.934	-3.24
251.151	47.96
251.368	64.34
251.585	25.43
251.801	39.76
252.018	29.52
252.235	66.39
252.451	-58.54
252.668	41.81
252.885	66.39
253.102	29.52
253.318	-40.11
253.535	13.14
253.752	21.33
253.968	-40.11
254.185	27.48
254.401	31.57
254.618	37.72
254.835	13.14
255.051	7
255.268	95.06
255.484	90.96
255.701	56.15
255.917	17.24
256.134	-3.24
256.351	-13.48
256.567	-25.77
256.784	4.95
257	21.33
257.217	62.29
257.433	97.11
257.65	45.91
257.866	78.68
258.082	25.43
258.299	-17.58
258.515	64.34
258.732	21.33
258.948	9.05
259.165	176.98
259.381	23.38
259.597	54.1
259.814	-3.24
260.03	13.14
260.246	13.14
260.463	62.29
260.679	37.72
260.895	78.68
261.112	17.24
261.328	-1.19
261.544	-27.82
261.761	50
261.977	41.81
262.193	-19.63
262.409	60.24
262.626	39.76
262.842	31.57
263.058	9.05
263.274	35.67
263.49	17.24
263.707	2.9
263.923	29.52
264.139	-36.01
264.355	13.14
264.571	121.68
264.787	-52.39
265.004	29.52
265.22	31.57
265.436	29.52
265.652	-11.43
265.868	56.15
266.084	33.62
266.3	37.72
266.516	-1.19
266.732	-5.29
266.948	39.76
267.164	13.14
267.38	54.1
267.596	72.53
267.812	7
268.028	37.72
268.244	37.72
268.46	52.05
268.676	-56.49
268.892	37.72
269.108	-23.72
269.324	13.14
269.54	9.05
269.756	68.44
269.972	52.05
270.188	-3.24
270.403	27.48
270.619	72.53
270.835	21.33
271.051	17.24
271.267	17.24
271.483	9.05
271.698	41.81
271.914	62.29
272.13	115.54
272.346	105.3
272.562	56.15
272.777	-17.58
272.993	70.48
273.209	21.33
273.425	17.24
273.64	-3.24
273.856	60.24
274.072	-3.24
274.287	-9.39
274.503	17.24
274.719	62.29
274.934	4.95
275.15	60.24
275.366	86.87
275.581	54.1
275.797	29.52
276.012	-44.2
276.228	7
276.444	70.48
276.659	99.16
276.875	-21.67
277.09	37.72
277.306	-19.63
277.521	72.53
277.737	29.52
277.952	7
278.168	7
278.383	68.44
278.599	27.48
278.814	43.86
279.03	4.95
279.245	111.44
279.461	4.95
279.676	-9.39
279.892	29.52
280.107	17.24
280.322	-1.19
280.538	29.52
280.753	-36.01
280.969	54.1
281.184	-23.72
281.399	35.67
281.615	0.85
281.83	56.15
282.045	-1.19
282.26	-11.43
282.476	-3.24
282.691	50
282.906	50
283.122	-54.44
283.337	45.91
283.552	66.39
283.767	9.05
283.983	64.34
284.198	21.33
284.413	88.92
284.628	31.57
284.843	27.48
285.058	23.38
285.274	45.91
285.489	-36.01
285.704	50
285.919	-5.29
286.134	78.68
286.349	-3.24
286.564	29.52
286.779	21.33
286.995	13.14
287.21	-3.24
287.425	45.91
287.64	11.09
287.855	52.05
288.07	33.62
288.285	23.38
288.5	-19.63
288.715	97.11
288.93	82.77
289.145	64.34
289.36	72.53
289.575	4.95
289.79	58.2
290.004	78.68
290.219	-5.29
290.434	113.49
290.649	23.38
290.864	23.38
291.079	-3.24
291.294	7
291.509	41.81
291.724	23.38
291.938	50
292.153	127.83
292.368	80.72
292.583	50
292.798	70.48
293.012	19.29
293.227	-15.53
293.442	129.88
293.657	50
293.871	15.19
294.086	47.96
294.301	127.83
294.516	123.73
294.73	7
294.945	21.33
295.16	9.05
295.374	39.76
295.589	4.95
295.804	4.95
296.018	15.19
296.233	47.96
296.447	21.33
296.662	-23.72
296.877	80.72
297.091	58.2
297.306	66.39
297.52	-9.39
297.735	17.24
297.949	47.96
298.164	90.96
298.378	7
298.593	45.91
298.807	74.58
299.022	31.57
299.236	33.62
299.451	37.72
299.665	31.57
299.88	54.1
300.094	17.24
300.309	45.91
300.523	4.95
300.737	-11.43
300.952	62.29
301.166	47.96
301.381	15.19
301.595	13.14
301.809	60.24
302.024	9.05
302.238	54.1
302.452	107.35
302.667	127.83
302.881	90.96
303.095	31.57
303.309	37.72
303.524	78.68
303.738	136.02
303.952	86.87
304.166	45.91
304.381	45.91
304.595	111.44
304.809	82.77
305.023	95.06
305.237	50
305.452	47.96
305.666	47.96
305.88	47.96
306.094	2.9
306.308	97.11
306.522	41.81
306.736	86.87
306.95	80.72
307.164	58.2
307.379	45.91
307.593	78.68
307.807	164.69
308.021	-48.3
308.235	33.62
308.449	-19.63
308.663	25.43
308.877	86.87
309.091	31.57
309.305	-11.43
309.519	19.29
309.733	80.72
309.947	15.19
310.161	37.72
310.374	-25.77
310.588	25.43
310.802	15.19
311.016	23.38
311.23	78.68
311.444	-23.72
311.658	7
311.872	119.64
312.085	21.33
312.299	47.96
312.513	33.62
312.727	62.29
312.941	19.29
313.154	25.43
313.368	17.24
313.582	90.96
313.796	47.96
314.009	-13.48
314.223	15.19
314.437	68.44
314.651	21.33
314.864	43.86
315.078	-13.48
315.292	56.15
315.505	50
315.719	107.35
315.933	33.62
316.146	64.34
316.36	-13.48
316.573	4.95
316.787	-11.43
317.001	31.57
317.214	13.14
317.428	37.72
317.641	50
317.855	-9.39
318.068	29.52
318.282	0.85
318.495	99.16
318.709	103.25
318.922	41.81
319.136	72.53
319.349	80.72
319.563	62.29
319.776	-15.53
319.99	-9.39
320.203	76.63
320.417	-3.24
320.63	37.72
320.843	39.76
321.057	-5.29
321.27	13.14
321.483	78.68
321.697	80.72
321.91	7
322.124	70.48
322.337	23.38
322.55	56.15
322.763	-27.82
322.977	-11.43
323.19	-52.39
323.403	33.62
323.617	47.96
323.83	7
324.043	68.44
324.256	74.58
324.469	-9.39
324.683	99.16
324.896	29.52
325.109	39.76
325.322	0.85
325.535	43.86
325.748	39.76
325.962	41.81
326.175	29.52
326.388	50
326.601	54.1
326.814	4.95
327.027	78.68
327.24	76.63
327.453	29.52
327.666	-27.82
327.879	39.76
328.092	74.58
328.305	127.83
328.518	82.77
328.731	-3.24
328.944	-27.82
329.157	160.59
329.37	-40.11
329.583	62.29
329.796	9.05
330.009	-42.15
330.222	47.96
330.435	97.11
330.648	78.68
330.861	-27.82
331.073	17.24
331.286	78.68
331.499	45.91
331.712	119.64
331.925	45.91
332.138	47.96
332.35	97.11
332.563	15.19
332.776	103.25
332.989	23.38
333.202	41.81
333.414	37.72
333.627	50
333.84	54.1
334.053	17.24
334.265	25.43
334.478	-23.72
334.691	13.14
334.903	86.87
335.116	33.62
335.329	7
335.541	17.24
335.754	50
335.966	-9.39
336.179	17.24
336.392	-1.19
336.604	70.48
336.817	-3.24
337.029	66.39
337.242	37.72
337.454	90.96
337.667	19.29
337.88	-13.48
338.092	27.48
338.305	56.15
338.517	31.57
338.729	2.9
338.942	31.57
339.154	95.06
339.367	68.44
339.579	37.72
339.792	37.72
340.004	60.24
340.217	56.15
340.429	109.4
340.641	107.35
340.854	4.95
341.066	39.76
341.278	9.05
341.491	19.29
341.703	-11.43
341.915	64.34
342.128	41.81
342.34	-15.53
342.552	43.86
342.764	-9.39
342.977	54.1
343.189	21.33
343.401	21.33
343.613	-13.48
343.826	25.43
344.038	-33.96
344.25	37.72
344.462	78.68
344.674	74.58
344.886	-9.39
345.099	56.15
345.311	25.43
345.523	54.1
345.735	56.15
345.947	23.38
346.159	54.1
346.371	21.33
346.583	103.25
346.795	82.77
347.007	0.85
347.219	21.33
347.431	37.72
347.643	146.26
347.855	21.33
348.067	115.54
348.279	-52.39
348.491	62.29
348.703	-3.24
348.915	37.72
349.127	84.82
349.339	37.72
349.551	33.62
349.763	115.54
349.975	76.63
350.187	4.95
350.399	41.81
350.61	41.81
350.822	-9.39
351.034	23.38
351.246	19.29
351.458	101.2
351.669	97.11
351.881	103.25
352.093	74.58
352.305	33.62
352.517	19.29
352.728	23.38
352.94	99.16
353.152	7
353.363	-1.19
353.575	90.96
353.787	50
353.999	52.05
354.21	-9.39
354.422	45.91
354.633	21.33
354.845	4.95
355.057	121.68
355.268	88.92
355.48	0.85
355.692	4.95
355.903	99.16
356.115	7
356.326	-29.87
356.538	144.21
356.749	-44.2
356.961	84.82
357.172	11.09
357.384	127.83
357.595	78.68
357.807	-3.24
358.018	52.05
358.23	127.83
358.441	90.96
358.653	31.57
358.864	107.35
359.075	47.96
359.287	-1.19
359.498	56.15
359.709	9.05
359.921	86.87
360.132	15.19
360.344	70.48
360.555	74.58
360.766	56.15
360.977	-36.01
361.189	39.76
361.4	56.15
361.611	58.2
361.823	25.43
362.034	56.15
362.245	23.38
362.456	103.25
362.667	33.62
362.879	72.53
363.09	27.48
363.301	64.34
363.512	82.77
363.723	62.29
363.935	45.91
364.146	70.48
364.357	13.14
364.568	103.25
364.779	2.9
364.99	68.44
365.201	54.1
365.412	15.19
365.623	27.48
365.834	7
366.045	25.43
366.256	86.87
366.467	103.25
366.678	58.2
366.889	13.14
367.1	4.95
367.311	127.83
367.522	66.39
367.733	82.77
367.944	45.91
368.155	13.14
368.366	121.68
368.577	103.25
368.788	86.87
368.999	62.29
369.209	15.19
369.42	86.87
369.631	136.02
369.842	-7.34
370.053	58.2
370.264	74.58
370.474	-3.24
370.685	23.38
370.896	15.19
371.107	148.31
371.317	136.02
371.528	25.43
371.739	64.34
371.95	17.24
372.16	113.49
372.371	39.76
372.582	-17.58
372.792	62.29
373.003	29.52
373.214	86.87
373.424	95.06
373.635	78.68
373.846	107.35
374.056	-27.82
374.267	74.58
374.477	33.62
374.688	-23.72
374.898	39.76
375.109	54.1
375.319	33.62
375.53	101.2
375.74	33.62
375.951	15.19
376.161	70.48
376.372	146.26
376.582	19.29
376.793	64.34
377.003	9.05
377.214	0.85
377.424	90.96
377.635	31.57
377.845	13.14
378.055	76.63
378.266	-9.39
378.476	-9.39
378.686	13.14
378.897	52.05
379.107	111.44
379.317	47.96
379.528	37.72
379.738	70.48
379.948	-11.43
380.158	133.97
380.369	-3.24
380.579	74.58
380.789	39.76
380.999	47.96
381.21	72.53
381.42	131.92
381.63	21.33
381.84	41.81
382.05	52.05
382.261	74.58
382.471	90.96
382.681	-17.58
382.891	82.77
383.101	88.92
383.311	70.48
383.521	88.92
383.731	47.96
383.941	4.95
384.151	70.48
384.361	90.96
384.571	97.11
384.781	88.92
384.991	70.48
385.201	33.62
385.411	80.72
385.621	99.16
385.831	23.38
386.041	64.34
386.251	74.58
386.461	64.34
386.671	4.95
386.881	54.1
387.091	19.29
387.301	54.1
387.511	39.76
387.72	88.92
387.93	29.52
388.14	37.72
388.35	31.57
388.56	86.87
388.769	58.2
388.979	21.33
389.189	13.14
389.399	21.33
389.609	72.53
389.818	105.3
390.028	43.86
390.238	-25.77
390.447	23.38
390.657	78.68
390.867	25.43
391.076	-17.58
391.286	17.24
391.496	21.33
391.705	117.59
391.915	54.1
392.125	62.29
392.334	37.72
392.544	109.4
392.753	82.77
392.963	-56.49
393.172	54.1
393.382	58.2
393.591	127.83
393.801	62.29
394.01	105.3
394.22	64.34
394.429	64.34
394.639	19.29
394.848	150.36
395.058	111.44
395.267	144.21
395.477	74.58
395.686	119.64
395.895	111.44
396.105	148.31
396.314	86.87
396.524	78.68
396.733	45.91
396.942	66.39
397.152	62.29
397.361	105.3
397.57	52.05
397.78	52.05
397.989	105.3
398.198	160.59
398.407	86.87
398.617	148.31
398.826	54.1
399.035	127.83
399.244	95.06
399.453	115.54
399.663	58.2
399.872	70.48
400.081	111.44
400.29	154.45
400.499	103.25
400.708	209.75
400.917	127.83
401.127	52.05
401.336	119.64
401.545	144.21
401.754	136.02
401.963	152.4
402.172	111.44
402.381	95.06
402.59	123.73
402.799	133.97
403.008	76.63
403.217	123.73
403.426	101.2
403.635	70.48
403.844	150.36
404.053	125.78
404.262	101.2
404.471	170.83
404.68	121.68
404.888	64.34
405.097	158.55
405.306	209.75
405.515	172.88
405.724	160.59
405.933	101.2
406.142	162.64
406.35	191.31
406.559	152.4
406.768	242.51
406.977	142.16
407.185	195.41
407.394	267.09
407.603	136.02
407.812	226.13
408.02	185.17
408.229	189.27
408.438	203.6
408.646	183.12
408.855	185.17
409.064	228.18
409.272	232.27
409.481	258.9
409.69	289.62
409.898	258.9
410.107	301.9
410.315	207.7
410.524	349.01
410.733	349.01
410.941	402.26
411.15	324.43
411.358	367.44
411.567	392.02
411.775	414.54
411.984	418.64
412.192	537.42
412.401	469.84
412.609	510.8
412.818	465.74
413.026	586.57
413.234	465.74
413.443	469.84
413.651	496.46
413.86	494.41
414.068	600.91
414.276	627.53
414.485	572.24
414.693	717.64
414.901	695.11
415.11	703.31
415.318	682.83
415.526	699.21
415.734	766.79
415.943	764.75
416.151	795.47
416.359	822.09
416.567	820.04
416.776	809.8
416.984	924.49
417.192	1006.41
417.4	967.49
417.608	1030.98
417.817	1000.26
418.025	1063.75
418.233	1139.52
418.441	1028.93
418.649	1180.48
418.857	1213.25
419.065	1282.88
419.273	1160
419.481	1375.04
419.689	1420.1
419.897	1502.01
420.105	1471.29
420.313	1428.29
420.521	1598.27
420.729	1569.6
420.937	1581.89
421.145	1663.8
421.353	1872.7
421.561	1825.59
421.769	1876.79
421.977	2014.01
422.185	1930.04
422.393	2183.99
422.601	2243.38
422.809	2183.99
423.017	2081.59
423.224	2227
423.432	2335.54
423.64	2333.49
423.848	2620.21
424.056	2519.85
424.263	2679.6
424.471	2798.38
424.679	2855.72
424.887	2888.49
425.094	2964.26
425.302	3117.86
425.51	3119.91
425.718	3087.14
425.925	3406.63
426.133	3175.2
426.341	3490.59
426.548	3697.44
426.756	3758.88
426.964	3789.6
427.171	3955.48
427.379	4037.4
427.586	4098.84
427.794	4207.38
428.001	4629.26
428.209	4594.45
428.417	4576.02
428.624	4823.82
428.832	4954.89
429.039	4938.51
429.247	4821.77
429.454	5184.26
429.662	5675.77
429.869	5260.04
430.076	5710.59
430.284	5591.81
430.491	5874.43
430.699	6255.35
430.906	6218.49
431.114	6150.9
431.321	6445.81
431.528	6478.58
431.736	6879.98
431.943	7230.18
432.15	7000.81
432.358	7105.26
432.565	7592.67
432.772	7510.75
432.979	7957.21
433.187	8149.72
433.394	8135.39
433.601	8626.9
433.808	8434.39
434.016	8383.19
434.223	9026.25
434.43	9595.59
434.637	9366.21
434.844	9960.13
435.052	10058.43
435.259	9953.98
435.466	10171.07
435.673	9786.05
435.88	10597.04
436.087	11154.09
436.294	11254.44
436.501	10984.11
436.708	11524.77
436.915	11453.09
437.122	12145.31
437.329	12120.73
437.537	12450.46
437.743	12528.28
437.95	12622.48
438.157	13083.28
438.364	13769.35
438.571	13542.02
438.778	13687.43
438.985	15084.14
439.192	14267
439.399	14656.12
439.606	14353.02
439.813	15350.38
440.02	16202.33
440.227	15907.43
440.433	16026.21
440.64	16292.44
440.847	16024.16
441.054	16564.82
441.261	17699.4
441.467	17373.77
441.674	17947.2
441.881	18262.59
442.088	18418.24
442.294	18242.11
442.501	18637.37
442.708	18805.3
442.914	19661.35
443.121	20765.21
443.328	20263.46
443.534	21340.69
443.741	21000.72
443.948	20326.94
444.154	22057.48
444.361	21838.34
444.568	22422.02
444.774	22364.67
444.981	21910.02
445.187	22931.96
445.394	24019.43
445.6	23673.32
445.807	25674.19
446.013	24795.61
446.22	25291.22
446.426	26370.5
446.633	26399.17
446.839	27109.82
447.046	26188.23
447.252	27519.41
447.459	27707.82
447.665	27498.93
447.871	28756.38
448.078	30286.22
448.284	28498.34
448.491	29579.67
448.697	30515.59
448.903	30980.48
449.11	30990.72
449.316	30316.93
449.522	31187.32
449.728	32246.12
449.935	32059.76
450.141	32325.99
450.347	32944.48
450.553	32090.48
450.76	32110.96
450.966	33749.33
451.172	33503.57
451.378	34060.62
451.584	33366.36
451.791	34306.38
451.997	33943.89
452.203	34701.64
452.409	34484.55
452.615	34842.95
452.821	33499.48
453.027	32969.05
453.233	34750.79
453.44	33134.94
453.646	33857.87
453.852	33917.26
454.058	34269.51
454.264	33470.81
454.47	34507.08
454.676	32944.48
454.882	34609.48
455.088	31621.49
455.294	32098.67
455.5	32506.21
455.705	33055.07
455.911	31338.87
456.117	31259
456.323	30554.5
456.529	29251.99
456.735	30128.52
456.941	29550.99
457.147	28907.93
457.352	28170.66
457.558	28066.22
457.764	28000.68
457.97	27597.23
458.176	27052.47
458.381	27015.61
458.587	25453.01
458.793	25899.47
458.999	24445.41
459.204	26296.77
459.41	25340.37
459.616	23597.55
459.821	24347.11
460.027	23560.69
460.233	23282.16
460.438	22135.3
460.644	22454.78
460.85	21172.75
461.055	20822.55
461.261	20970.01
461.466	19378.73
461.672	18963
461.878	19952.16
462.083	18915.89
462.289	18526.78
462.494	18233.92
462.7	17721.93
462.905	16960.08
463.111	17582.67
463.316	17470.03
463.522	17195.6
463.727	17347.15
463.932	17013.33
464.138	17001.04
464.343	16912.98
464.549	16661.08
464.754	17191.5
464.959	17003.09
465.165	16761.43
465.37	16319.07
465.575	15845.99
465.781	16456.28
465.986	16546.39
466.191	16030.3
466.397	15561.32
466.602	14543.48
466.807	15118.96
467.012	15336.04
467.218	15194.73
467.423	15231.6
467.628	15393.39
467.833	15911.52
468.038	15334
468.244	14766.71
468.449	15573.61
468.654	14873.2
