Data from USB4F104151__301__14-24-02-111.txt Node

Date: Thu Mar 13 14:24:02 EDT 2025
User: louis
Spectrometer: USB4F10415
Trigger mode: 4
Integration Time (sec): 2.000000E-2
Scans to average: 1
Electric dark correction enabled: true
Nonlinearity correction enabled: false
Boxcar width: 0
XAxis mode: Wavelengths
Number of Pixels in Spectrum: 3648
>>>>>Begin Spectral Data<<<<<
178.204	-73.39
178.424	-73.39
178.644	-73.39
178.864	-138.92
179.084	-40.62
179.304	-9.9
179.524	-69.29
179.744	-38.57
179.964	26.96
180.184	59.73
180.404	16.73
180.624	41.3
180.844	29.01
181.064	-79.53
181.283	2.39
181.503	-3.75
181.723	24.92
181.943	20.82
182.163	6.49
182.383	-65.19
182.602	41.3
182.822	33.11
183.042	-9.9
183.262	-40.62
183.482	-3.75
183.701	16.73
183.921	57.68
184.141	-18.09
184.361	-48.81
184.58	8.53
184.8	26.96
185.02	-69.29
185.239	18.77
185.459	12.63
185.679	22.87
185.898	59.73
186.118	39.25
186.338	-24.23
186.557	39.25
186.777	24.92
186.997	74.07
187.216	16.73
187.436	33.11
187.655	33.11
187.875	2.39
188.095	-30.38
188.314	90.45
188.534	63.83
188.753	-13.99
188.973	78.16
189.192	-3.75
189.412	-20.14
189.631	12.63
189.851	12.63
190.07	45.4
190.29	33.11
190.509	57.68
190.729	18.77
190.948	86.36
191.168	149.84
191.387	24.92
191.607	65.88
191.826	41.3
192.045	47.44
192.265	0.34
192.484	-30.38
192.704	51.54
192.923	26.96
193.142	33.11
193.362	10.58
193.581	98.64
193.8	8.53
194.02	43.35
194.239	63.83
194.458	-24.23
194.678	20.82
194.897	-65.19
195.116	-13.99
195.335	-13.99
195.555	2.39
195.774	35.16
195.993	8.53
196.212	-5.8
196.432	16.73
196.651	-40.62
196.87	43.35
197.089	74.07
197.308	82.26
197.528	43.35
197.747	20.82
197.966	-13.99
198.185	84.31
198.404	-63.15
198.623	-16.04
198.842	-7.85
199.062	35.16
199.281	26.96
199.5	-7.85
199.719	57.68
199.938	33.11
200.157	24.92
200.376	33.11
200.595	98.64
200.814	45.4
201.033	49.49
201.252	29.01
201.471	-42.67
201.69	8.53
201.909	-13.99
202.128	41.3
202.347	8.53
202.566	-73.39
202.785	31.06
203.004	-16.04
203.223	45.4
203.442	59.73
203.661	-38.57
203.879	37.2
204.098	51.54
204.317	-44.71
204.536	24.92
204.755	49.49
204.974	29.01
205.193	57.68
205.411	8.53
205.63	55.64
205.849	65.88
206.068	57.68
206.287	-24.23
206.505	-18.09
206.724	24.92
206.943	8.53
207.162	41.3
207.381	12.63
207.599	53.59
207.818	-20.14
208.037	51.54
208.255	98.64
208.474	2.39
208.693	-24.23
208.911	2.39
209.13	26.96
209.349	20.82
209.567	-48.81
209.786	35.16
210.005	-16.04
210.223	2.39
210.442	-16.04
210.661	14.68
210.879	-3.75
211.098	55.64
211.316	8.53
211.535	108.88
211.753	0.34
211.972	69.97
212.191	-16.04
212.409	14.68
212.628	26.96
212.846	41.3
213.065	37.2
213.283	33.11
213.502	4.44
213.72	98.64
213.938	67.92
214.157	-16.04
214.375	43.35
214.594	-38.57
214.812	26.96
215.031	57.68
215.249	41.3
215.467	-7.85
215.686	12.63
215.904	12.63
216.122	-24.23
216.341	57.68
216.559	-22.19
216.778	51.54
216.996	65.88
217.214	8.53
217.432	51.54
217.651	-65.19
217.869	20.82
218.087	20.82
218.306	8.53
218.524	65.88
218.742	33.11
218.96	-5.8
219.179	-24.23
219.397	31.06
219.615	90.45
219.833	65.88
220.051	4.44
220.27	90.45
220.488	55.64
220.706	-7.85
220.924	-63.15
221.142	51.54
221.36	-7.85
221.578	59.73
221.796	-3.75
222.015	-22.19
222.233	57.68
222.451	49.49
222.669	53.59
222.887	-65.19
223.105	-61.1
223.323	63.83
223.541	-16.04
223.759	106.84
223.977	43.35
224.195	57.68
224.413	86.36
224.631	74.07
224.849	-13.99
225.067	26.96
225.285	43.35
225.503	24.92
225.721	45.4
225.939	16.73
226.157	16.73
226.375	108.88
226.592	-57
226.81	16.73
227.028	72.02
227.246	41.3
227.464	53.59
227.682	49.49
227.9	2.39
228.117	24.92
228.335	10.58
228.553	57.68
228.771	18.77
228.989	0.34
229.206	41.3
229.424	37.2
229.642	14.68
229.86	59.73
230.077	-40.62
230.295	12.63
230.513	-32.43
230.731	14.68
230.948	90.45
231.166	4.44
231.384	41.3
231.601	12.63
231.819	108.88
232.037	41.3
232.254	2.39
232.472	18.77
232.689	26.96
232.907	37.2
233.125	-44.71
233.342	24.92
233.56	59.73
233.777	0.34
233.995	51.54
234.213	39.25
234.43	74.07
234.648	-32.43
234.865	-42.67
235.083	131.41
235.3	-52.91
235.518	121.17
235.735	26.96
235.953	39.25
236.17	51.54
236.388	16.73
236.605	-52.91
236.822	24.92
237.04	57.68
237.257	8.53
237.475	72.02
237.692	41.3
237.909	106.84
238.127	-54.95
238.344	51.54
238.562	16.73
238.779	-30.38
238.996	-24.23
239.214	-24.23
239.431	53.59
239.648	-30.38
239.865	49.49
240.083	6.49
240.3	24.92
240.517	8.53
240.735	35.16
240.952	35.16
241.169	65.88
241.386	33.11
241.603	16.73
241.821	-32.43
242.038	8.53
242.255	0.34
242.472	18.77
242.689	74.07
242.907	-26.28
243.124	82.26
243.341	51.54
243.558	10.58
243.775	-24.23
243.992	-28.33
244.209	51.54
244.426	55.64
244.643	49.49
244.86	-16.04
245.078	33.11
245.295	20.82
245.512	-9.9
245.729	8.53
245.946	26.96
246.163	110.93
246.38	65.88
246.597	51.54
246.814	67.92
247.031	12.63
247.248	-48.81
247.464	78.16
247.681	51.54
247.898	59.73
248.115	61.78
248.332	-13.99
248.549	8.53
248.766	90.45
248.983	20.82
249.2	53.59
249.417	59.73
249.633	-30.38
249.85	24.92
250.067	18.77
250.284	86.36
250.501	53.59
250.717	4.44
250.934	43.35
251.151	2.39
251.368	22.87
251.585	49.49
251.801	41.3
252.018	24.92
252.235	90.45
252.451	41.3
252.668	-61.1
252.885	51.54
253.102	108.88
253.318	16.73
253.535	-40.62
253.752	-11.95
253.968	-52.91
254.185	-20.14
254.401	35.16
254.618	33.11
254.835	-20.14
255.051	14.68
255.268	2.39
255.484	74.07
255.701	78.16
255.917	4.44
256.134	-30.38
256.351	8.53
256.567	-1.71
256.784	2.39
257	-40.62
257.217	-52.91
257.433	104.79
257.65	90.45
257.866	65.88
258.082	-40.62
258.299	-32.43
258.515	2.39
258.732	-11.95
258.948	8.53
259.165	-11.95
259.381	57.68
259.597	2.39
259.814	2.39
260.03	12.63
260.246	69.97
260.463	61.78
260.679	8.53
260.895	31.06
261.112	49.49
261.328	67.92
261.544	0.34
261.761	59.73
261.977	8.53
262.193	14.68
262.409	-3.75
262.626	33.11
262.842	84.31
263.058	-16.04
263.274	100.69
263.49	22.87
263.707	16.73
263.923	35.16
264.139	-44.71
264.355	-7.85
264.571	65.88
264.787	-13.99
265.004	98.64
265.22	41.3
265.436	-11.95
265.652	10.58
265.868	-28.33
266.084	-69.29
266.3	33.11
266.516	-38.57
266.732	76.12
266.948	-5.8
267.164	-24.23
267.38	10.58
267.596	76.12
267.812	6.49
268.028	2.39
268.244	16.73
268.46	35.16
268.676	10.58
268.892	16.73
269.108	12.63
269.324	43.35
269.54	22.87
269.756	33.11
269.972	-5.8
270.188	4.44
270.403	74.07
270.619	16.73
270.835	72.02
271.051	-13.99
271.267	51.54
271.483	33.11
271.698	24.92
271.914	90.45
272.13	33.11
272.346	0.34
272.562	-91.82
272.777	82.26
272.993	18.77
273.209	-5.8
273.425	26.96
273.64	125.27
273.856	22.87
274.072	57.68
274.287	33.11
274.503	65.88
274.719	12.63
274.934	63.83
275.15	18.77
275.366	29.01
275.581	47.44
275.797	67.92
276.012	0.34
276.228	-65.19
276.444	-20.14
276.659	-16.04
276.875	65.88
277.09	90.45
277.306	69.97
277.521	-24.23
277.737	78.16
277.952	53.59
278.168	43.35
278.383	100.69
278.599	-24.23
278.814	59.73
279.03	43.35
279.245	106.84
279.461	100.69
279.676	35.16
279.892	18.77
280.107	43.35
280.322	-40.62
280.538	-7.85
280.753	-16.04
280.969	45.4
281.184	-40.62
281.399	33.11
281.615	-11.95
281.83	98.64
282.045	-32.43
282.26	10.58
282.476	-32.43
282.691	76.12
282.906	22.87
283.122	35.16
283.337	-5.8
283.552	20.82
283.767	-69.29
283.983	-32.43
284.198	31.06
284.413	57.68
284.628	100.69
284.843	41.3
285.058	57.68
285.274	20.82
285.489	82.26
285.704	20.82
285.919	16.73
286.134	4.44
286.349	-63.15
286.564	2.39
286.779	57.68
286.995	6.49
287.21	-63.15
287.425	4.44
287.64	16.73
287.855	78.16
288.07	-9.9
288.285	59.73
288.5	33.11
288.715	-7.85
288.93	-1.71
289.145	76.12
289.36	0.34
289.575	45.4
289.79	24.92
290.004	-3.75
290.219	74.07
290.434	-24.23
290.649	-65.19
290.864	-7.85
291.079	16.73
291.294	35.16
291.509	90.45
291.724	16.73
291.938	-3.75
292.153	82.26
292.368	0.34
292.583	49.49
292.798	92.5
293.012	-7.85
293.227	41.3
293.442	86.36
293.657	39.25
293.871	106.84
294.086	57.68
294.301	135.51
294.516	53.59
294.73	78.16
294.945	-28.33
295.16	2.39
295.374	45.4
295.589	90.45
295.804	-3.75
296.018	33.11
296.233	82.26
296.447	-32.43
296.662	78.16
296.877	24.92
297.091	92.5
297.306	16.73
297.52	-54.95
297.735	-24.23
297.949	53.59
298.164	10.58
298.378	18.77
298.593	-3.75
298.807	22.87
299.022	-5.8
299.236	41.3
299.451	24.92
299.665	20.82
299.88	102.74
300.094	67.92
300.309	10.58
300.523	-7.85
300.737	86.36
300.952	51.54
301.166	61.78
301.381	31.06
301.595	12.63
301.809	49.49
302.024	41.3
302.238	90.45
302.452	61.78
302.667	-3.75
302.881	16.73
303.095	-16.04
303.309	-3.75
303.524	-32.43
303.738	8.53
303.952	-3.75
304.166	164.18
304.381	16.73
304.595	74.07
304.809	20.82
305.023	-24.23
305.237	2.39
305.452	-24.23
305.666	33.11
305.88	98.64
306.094	-5.8
306.308	12.63
306.522	37.2
306.736	59.73
306.95	24.92
307.164	47.44
307.379	45.4
307.593	31.06
307.807	-5.8
308.021	82.26
308.235	43.35
308.449	-36.52
308.663	82.26
308.877	-28.33
309.091	63.83
309.305	88.4
309.519	43.35
309.733	16.73
309.947	-30.38
310.161	45.4
310.374	74.07
310.588	12.63
310.802	20.82
311.016	49.49
311.23	26.96
311.444	14.68
311.658	69.97
311.872	102.74
312.085	-1.71
312.299	117.08
312.513	18.77
312.727	24.92
312.941	-28.33
313.154	26.96
313.368	0.34
313.582	-16.04
313.796	65.88
314.009	8.53
314.223	18.77
314.437	-1.71
314.651	16.73
314.864	-32.43
315.078	2.39
315.292	57.68
315.505	59.73
315.719	51.54
315.933	33.11
316.146	-26.28
316.36	16.73
316.573	45.4
316.787	-1.71
317.001	20.82
317.214	55.64
317.428	43.35
317.641	6.49
317.855	-67.24
318.068	-13.99
318.282	39.25
318.495	35.16
318.709	51.54
318.922	-7.85
319.136	82.26
319.349	80.21
319.563	14.68
319.776	41.3
319.99	-16.04
320.203	55.64
320.417	51.54
320.63	24.92
320.843	-1.71
321.057	37.2
321.27	45.4
321.483	16.73
321.697	84.31
321.91	61.78
322.124	98.64
322.337	2.39
322.55	41.3
322.763	59.73
322.977	26.96
323.19	-71.34
323.403	69.97
323.617	47.44
323.83	59.73
324.043	-22.19
324.256	-34.47
324.469	33.11
324.683	-11.95
324.896	-57
325.109	57.68
325.322	-57
325.535	-24.23
325.748	98.64
325.962	-48.81
326.175	12.63
326.388	82.26
326.601	-5.8
326.814	26.96
327.027	102.74
327.24	49.49
327.453	-24.23
327.666	-57
327.879	90.45
328.092	69.97
328.305	-13.99
328.518	43.35
328.731	45.4
328.944	-5.8
329.157	-7.85
329.37	0.34
329.583	137.56
329.796	47.44
330.009	2.39
330.222	82.26
330.435	59.73
330.648	35.16
330.861	2.39
331.073	69.97
331.286	39.25
331.499	102.74
331.712	26.96
331.925	41.3
332.138	33.11
332.35	35.16
332.563	-9.9
332.776	61.78
332.989	-18.09
333.202	4.44
333.414	49.49
333.627	82.26
333.84	12.63
334.053	22.87
334.265	0.34
334.478	90.45
334.691	-1.71
334.903	4.44
335.116	20.82
335.329	2.39
335.541	41.3
335.754	90.45
335.966	22.87
336.179	-40.62
336.392	20.82
336.604	41.3
336.817	-18.09
337.029	106.84
337.242	-79.53
337.454	76.12
337.667	-5.8
337.88	35.16
338.092	29.01
338.305	43.35
338.517	-28.33
338.729	49.49
338.942	127.32
339.154	-16.04
339.367	10.58
339.579	65.88
339.792	-67.24
340.004	131.41
340.217	-7.85
340.429	-40.62
340.641	-5.8
340.854	20.82
341.066	20.82
341.278	57.68
341.491	115.03
341.703	20.82
341.915	65.88
342.128	-50.86
342.34	-3.75
342.552	-106.15
342.764	16.73
342.977	84.31
343.189	8.53
343.401	82.26
343.613	31.06
343.826	18.77
344.038	0.34
344.25	92.5
344.462	-3.75
344.674	18.77
344.886	24.92
345.099	18.77
345.311	104.79
345.523	26.96
345.735	14.68
345.947	53.59
346.159	35.16
346.371	-24.23
346.583	10.58
346.795	69.97
347.007	35.16
347.219	94.55
347.431	16.73
347.643	86.36
347.855	49.49
348.067	63.83
348.279	49.49
348.491	63.83
348.703	31.06
348.915	-73.39
349.127	115.03
349.339	-1.71
349.551	24.92
349.763	41.3
349.975	-26.28
350.187	84.31
350.399	29.01
350.61	12.63
350.822	-3.75
351.034	57.68
351.246	76.12
351.458	12.63
351.669	-24.23
351.881	131.41
352.093	41.3
352.305	43.35
352.517	51.54
352.728	6.49
352.94	-48.81
353.152	41.3
353.363	41.3
353.575	72.02
353.787	86.36
353.999	49.49
354.21	67.92
354.422	117.08
354.633	43.35
354.845	16.73
355.057	12.63
355.268	69.97
355.48	76.12
355.692	18.77
355.903	37.2
356.115	-30.38
356.326	-32.43
356.538	49.49
356.749	59.73
356.961	26.96
357.172	18.77
357.384	-52.91
357.595	104.79
357.807	61.78
358.018	14.68
358.23	74.07
358.441	80.21
358.653	82.26
358.864	43.35
359.075	-22.19
359.287	20.82
359.498	29.01
359.709	110.93
359.921	47.44
360.132	26.96
360.344	14.68
360.555	82.26
360.766	65.88
360.977	20.82
361.189	65.88
361.4	86.36
361.611	37.2
361.823	61.78
362.034	8.53
362.245	-24.23
362.456	41.3
362.667	69.97
362.879	69.97
363.09	-20.14
363.301	53.59
363.512	94.55
363.723	16.73
363.935	-104.11
364.146	100.69
364.357	24.92
364.568	49.49
364.779	20.82
364.99	69.97
365.201	16.73
365.412	45.4
365.623	-63.15
365.834	74.07
366.045	0.34
366.256	51.54
366.467	59.73
366.678	41.3
366.889	29.01
367.1	-32.43
367.311	43.35
367.522	41.3
367.733	43.35
367.944	82.26
368.155	4.44
368.366	82.26
368.577	51.54
368.788	-3.75
368.999	-54.95
369.209	-1.71
369.42	100.69
369.631	41.3
369.842	12.63
370.053	51.54
370.264	47.44
370.474	24.92
370.685	24.92
370.896	80.21
371.107	86.36
371.317	-3.75
371.528	-7.85
371.739	90.45
371.95	24.92
372.16	57.68
372.371	-7.85
372.582	59.73
372.792	45.4
373.003	39.25
373.214	16.73
373.424	-20.14
373.635	39.25
373.846	82.26
374.056	-16.04
374.267	16.73
374.477	26.96
374.688	51.54
374.898	117.08
375.109	78.16
375.319	6.49
375.53	-24.23
375.74	8.53
375.951	18.77
376.161	16.73
376.372	115.03
376.582	-16.04
376.793	119.12
377.003	-7.85
377.214	-1.71
377.424	55.64
377.635	39.25
377.845	-73.39
378.055	-5.8
378.266	22.87
378.476	-24.23
378.686	-20.14
378.897	133.46
379.107	72.02
379.317	45.4
379.528	-52.91
379.738	84.31
379.948	29.01
380.158	82.26
380.369	74.07
380.579	49.49
380.789	82.26
380.999	-28.33
381.21	74.07
381.42	51.54
381.63	39.25
381.84	33.11
382.05	53.59
382.261	98.64
382.471	8.53
382.681	29.01
382.891	61.78
383.101	12.63
383.311	-5.8
383.521	16.73
383.731	43.35
383.941	-20.14
384.151	22.87
384.361	41.3
384.571	100.69
384.781	-32.43
384.991	82.26
385.201	41.3
385.411	43.35
385.621	-36.52
385.831	22.87
386.041	74.07
386.251	94.55
386.461	14.68
386.671	82.26
386.881	47.44
387.091	16.73
387.301	67.92
387.511	8.53
387.72	41.3
387.93	0.34
388.14	41.3
388.35	59.73
388.56	69.97
388.769	92.5
388.979	-20.14
389.189	-20.14
389.399	-3.75
389.609	16.73
389.818	86.36
390.028	96.6
390.238	106.84
390.447	-48.81
390.657	10.58
390.867	-1.71
391.076	8.53
391.286	57.68
391.496	29.01
391.705	90.45
391.915	90.45
392.125	88.4
392.334	49.49
392.544	61.78
392.753	82.26
392.963	26.96
393.172	26.96
393.382	20.82
393.591	67.92
393.801	33.11
394.01	139.6
394.22	35.16
394.429	-52.91
394.639	61.78
394.848	-18.09
395.058	37.2
395.267	51.54
395.477	45.4
395.686	123.22
395.895	147.8
396.105	127.32
396.314	65.88
396.524	26.96
396.733	65.88
396.942	123.22
397.152	57.68
397.361	33.11
397.57	43.35
397.78	57.68
397.989	51.54
398.198	65.88
398.407	57.68
398.617	90.45
398.826	82.26
399.035	98.64
399.244	117.08
399.453	74.07
399.663	76.12
399.872	106.84
400.081	98.64
400.29	145.75
400.499	41.3
400.708	106.84
400.917	74.07
401.127	112.98
401.336	43.35
401.545	67.92
401.754	49.49
401.963	131.41
402.172	82.26
402.381	57.68
402.59	-9.9
402.799	86.36
403.008	139.6
403.217	108.88
403.426	74.07
403.635	41.3
403.844	106.84
404.053	131.41
404.262	82.26
404.471	205.14
404.68	139.6
404.888	41.3
405.097	67.92
405.306	115.03
405.515	125.27
405.724	172.37
405.933	106.84
406.142	106.84
406.35	141.65
406.559	139.6
406.768	147.8
406.977	158.03
407.185	135.51
407.394	127.32
407.603	127.32
407.812	170.32
408.02	242
408.229	106.84
408.438	233.81
408.646	170.32
408.855	94.55
409.064	168.27
409.272	215.38
409.481	198.99
409.69	252.24
409.898	188.75
410.107	213.33
410.315	229.71
410.524	244.05
410.733	280.91
410.941	225.62
411.15	287.06
411.358	221.52
411.567	356.69
411.775	319.82
411.984	328.02
412.192	340.3
412.401	321.87
412.609	379.22
412.818	411.98
413.026	328.02
413.234	411.98
413.443	395.6
413.651	442.7
413.86	360.78
414.068	500.05
414.276	475.47
414.485	475.47
414.693	581.96
414.901	495.95
415.11	504.14
415.318	495.95
415.526	569.68
415.734	502.09
415.943	588.11
416.151	649.55
416.359	618.83
416.567	606.54
416.776	682.31
416.984	745.8
417.192	786.76
417.4	772.43
417.608	721.23
417.817	784.71
418.025	835.91
418.233	870.73
418.441	827.72
418.649	932.17
418.857	950.6
419.065	905.54
419.273	991.56
419.481	1026.37
419.689	1050.95
419.897	1141.06
420.105	1093.96
420.313	1081.67
420.521	1282.37
420.729	1179.97
420.937	1253.7
421.145	1319.23
421.353	1444.16
421.561	1460.54
421.769	1579.33
421.977	1567.04
422.185	1474.88
422.393	1569.09
422.601	1657.15
422.809	1714.49
423.017	1708.35
423.224	1769.79
423.432	1786.17
423.64	1728.83
423.848	1986.87
424.056	2017.59
424.263	2081.08
424.471	2068.79
424.679	2117.94
424.887	2236.72
425.094	2335.03
425.302	2380.08
425.51	2335.03
425.718	2492.72
425.925	2634.03
426.133	2664.75
426.341	2785.58
426.548	2855.21
426.756	2873.64
426.964	2957.61
427.171	3066.15
427.379	3143.97
427.586	3240.23
427.794	3277.09
428.001	3420.45
428.209	3563.81
428.417	3514.66
428.624	3787.04
428.832	3744.03
429.039	3711.26
429.247	3809.56
429.454	4114.71
429.662	4290.84
429.869	4208.92
430.076	4391.19
430.284	4362.51
430.491	4456.72
430.699	4688.14
430.906	4770.06
431.114	4673.81
431.321	4950.28
431.528	5005.58
431.736	5218.57
431.943	5619.97
432.15	5447.94
432.358	5562.62
432.565	5671.17
432.772	5861.63
432.979	6131.96
433.187	6246.65
433.394	6283.51
433.601	6674.67
433.808	6674.67
434.016	6635.76
434.223	6848.75
434.43	7268.58
434.637	7184.62
434.844	7749.86
435.052	7667.94
435.259	7831.77
435.466	7692.51
435.673	7747.81
435.88	8069.34
436.087	8691.92
436.294	8661.2
436.501	8454.36
436.708	8569.04
436.915	9078.99
437.122	9328.84
437.329	9349.32
437.537	9427.14
437.743	9742.53
437.95	9660.61
438.157	10086.59
438.364	10424.5
438.571	10494.13
438.778	10307.77
438.985	11276.46
439.192	10993.84
439.399	11288.75
439.606	10930.35
439.813	11641
440.02	12306.59
440.227	12099.74
440.433	12169.37
440.64	12501.14
440.847	12320.92
441.054	12490.9
441.261	13639.81
441.467	13508.74
441.674	13746.31
441.881	13947.01
442.088	14065.79
442.294	13979.78
442.501	14346.36
442.708	14461.05
442.914	15149.17
443.121	15833.19
443.328	15149.17
443.534	16136.29
443.741	15876.2
443.948	15548.52
444.154	16660.57
444.361	16664.66
444.568	16971.86
444.774	16775.25
444.981	16910.42
445.187	17326.16
445.394	18061.38
445.6	18036.8
445.807	19681.32
446.013	18792.5
446.22	19025.97
446.426	19681.32
446.633	20183.07
446.839	20762.65
447.046	19892.26
447.252	20856.86
447.459	20897.81
447.665	20809.75
447.871	21694.47
448.078	22738.94
448.284	21749.77
448.491	22208.51
448.697	23205.88
448.903	23627.76
449.11	23468.02
449.316	23322.61
449.522	23738.35
449.728	24203.24
449.935	24621.02
450.141	24578.01
450.347	25061.33
450.553	24219.62
450.76	24668.12
450.966	25219.03
451.172	25311.19
451.378	25892.81
451.584	25259.99
451.791	25788.36
451.997	25780.17
452.203	26335.17
452.409	26351.56
452.615	26355.65
452.821	25130.97
453.027	24739.8
453.233	26279.88
453.44	25303
453.646	25485.26
453.852	25716.68
454.058	26228.68
454.264	25233.36
454.47	25956.3
454.676	24938.46
454.882	25759.69
455.088	23668.72
455.294	24168.42
455.5	24289.25
455.705	24774.62
455.911	23554.03
456.117	22990.84
456.323	23095.28
456.529	22140.93
456.735	22757.37
456.941	22052.87
457.147	21811.21
457.352	21358.61
457.558	21026.84
457.764	20985.88
457.97	20428.83
458.176	20224.03
458.381	20432.93
458.587	19191.86
458.793	18976.82
458.999	18333.76
459.204	19693.61
459.41	18896.95
459.616	17977.41
459.821	18006.08
460.027	17678.41
460.233	17418.32
460.438	16435.29
460.644	16719.96
460.85	15812.71
461.055	15741.03
461.261	15603.82
461.466	14430.33
461.672	14125.18
461.878	15186.03
462.083	14020.74
462.289	13920.38
462.494	13635.72
462.7	13009.04
462.905	12589.21
463.111	13117.58
463.316	13312.14
463.522	12832.91
463.727	13021.33
463.932	12902.54
464.138	12656.79
464.343	12724.37
464.549	12419.22
464.754	12722.32
464.959	12697.75
465.165	12478.61
465.37	12191.9
465.575	11665.57
465.781	12273.82
465.986	12148.89
466.191	11886.75
466.397	11739.3
466.602	10969.26
466.807	11602.08
467.012	11491.49
467.218	11233.45
467.423	11325.61
467.628	11528.36
467.833	11948.19
