Data from USB4F104151__59__14-17-06-839.txt Node

Date: Thu Mar 13 14:17:06 EDT 2025
User: louis
Spectrometer: USB4F10415
Trigger mode: 4
Integration Time (sec): 2.000000E-2
Scans to average: 1
Electric dark correction enabled: true
Nonlinearity correction enabled: false
Boxcar width: 0
XAxis mode: Wavelengths
Number of Pixels in Spectrum: 3648
>>>>>Begin Spectral Data<<<<<
178.204	-56.83
178.424	-56.83
178.644	-56.83
178.864	-142.85
179.084	-142.85
179.304	0.51
179.524	12.8
179.744	-15.87
179.964	49.66
180.184	-48.64
180.404	59.9
180.624	2.56
180.844	-93.69
181.064	4.61
181.283	33.28
181.503	-13.82
181.723	8.7
181.943	-26.11
182.163	84.48
182.383	57.86
182.602	-1.54
182.822	53.76
183.042	41.47
183.262	-110.08
183.482	100.86
183.701	-7.68
183.921	66.05
184.141	25.09
184.361	16.9
184.58	-22.02
184.8	-5.63
185.02	12.8
185.239	70.14
185.459	49.66
185.679	27.14
185.898	-7.68
186.118	45.57
186.338	51.71
186.557	-1.54
186.777	68.09
186.997	74.24
187.216	57.86
187.436	57.86
187.655	82.43
187.875	98.81
188.095	57.86
188.314	57.86
188.534	14.85
188.753	31.23
188.973	64
189.192	61.95
189.412	-32.26
189.631	18.94
189.851	-40.45
190.07	41.47
190.29	10.75
190.509	8.7
190.729	57.86
190.948	115.2
191.168	170.49
191.387	80.38
191.607	-1.54
191.826	-42.5
192.045	49.66
192.265	94.72
192.484	-3.58
192.704	82.43
192.923	37.38
193.142	90.62
193.362	66.05
193.581	29.18
193.8	68.09
194.02	100.86
194.239	61.95
194.458	107.01
194.678	51.71
194.897	-19.97
195.116	49.66
195.335	25.09
195.555	43.52
195.774	37.38
195.993	25.09
196.212	41.47
196.432	-5.63
196.651	8.7
196.87	49.66
197.089	59.9
197.308	31.23
197.528	66.05
197.747	-11.78
197.966	70.14
198.185	-38.4
198.404	-11.78
198.623	6.66
198.842	70.14
199.062	39.42
199.281	57.86
199.5	12.8
199.719	-15.87
199.938	61.95
200.157	55.81
200.376	72.19
200.595	98.81
200.814	47.62
201.033	41.47
201.252	-7.68
201.471	-28.16
201.69	14.85
201.909	-15.87
202.128	-15.87
202.347	41.47
202.566	18.94
202.785	4.61
203.004	25.09
203.223	109.05
203.442	84.48
203.661	59.9
203.879	18.94
204.098	31.23
204.317	-15.87
204.536	2.56
204.755	12.8
204.974	0.51
205.193	53.76
205.411	43.52
205.63	25.09
205.849	41.47
206.068	-3.58
206.287	57.86
206.505	55.81
206.724	25.09
206.943	-7.68
207.162	4.61
207.381	-19.97
207.599	-5.63
207.818	-24.06
208.037	90.62
208.255	55.81
208.474	4.61
208.693	82.43
208.911	70.14
209.13	86.53
209.349	16.9
209.567	33.28
209.786	84.48
210.005	61.95
210.223	35.33
210.442	70.14
210.661	-1.54
210.879	-3.58
211.098	70.14
211.316	72.19
211.535	55.81
211.753	-44.54
211.972	59.9
212.191	35.33
212.409	-7.68
212.628	61.95
212.846	72.19
213.065	117.25
213.283	84.48
213.502	66.05
213.72	33.28
213.938	70.14
214.157	-32.26
214.375	94.72
214.594	92.67
214.812	80.38
215.031	41.47
215.249	-36.35
215.467	-19.97
215.686	6.66
215.904	33.28
216.122	8.7
216.341	27.14
216.559	51.71
216.778	53.76
216.996	74.24
217.214	-3.58
217.432	43.52
217.651	33.28
217.869	0.51
218.087	127.49
218.306	-15.87
218.524	37.38
218.742	-40.45
218.96	27.14
219.179	12.8
219.397	61.95
219.615	107.01
219.833	4.61
220.051	-7.68
220.27	104.96
220.488	51.71
220.706	82.43
220.924	-15.87
221.142	25.09
221.36	76.29
221.578	82.43
221.796	41.47
222.015	33.28
222.233	-42.5
222.451	88.57
222.669	6.66
222.887	82.43
223.105	-22.02
223.323	53.76
223.541	14.85
223.759	18.94
223.977	107.01
224.195	107.01
224.413	53.76
224.631	25.09
224.849	33.28
225.067	96.77
225.285	33.28
225.503	25.09
225.721	-19.97
225.939	47.62
226.157	25.09
226.375	92.67
226.592	-3.58
226.81	-46.59
227.028	59.9
227.246	90.62
227.464	37.38
227.682	0.51
227.9	78.33
228.117	74.24
228.335	14.85
228.553	107.01
228.771	2.56
228.989	20.99
229.206	121.34
229.424	27.14
229.642	90.62
229.86	12.8
230.077	53.76
230.295	109.05
230.513	0.51
230.731	37.38
230.948	33.28
231.166	41.47
231.384	2.56
231.601	6.66
231.819	51.71
232.037	53.76
232.254	-11.78
232.472	49.66
232.689	0.51
232.907	0.51
233.125	12.8
233.342	64
233.56	-24.06
233.777	18.94
233.995	78.33
234.213	66.05
234.43	70.14
234.648	-7.68
234.865	12.8
235.083	43.52
235.3	61.95
235.518	35.33
235.735	53.76
235.953	45.57
236.17	86.53
236.388	20.99
236.605	6.66
236.822	86.53
237.04	80.38
237.257	10.75
237.475	-5.63
237.692	-19.97
237.909	29.18
238.127	8.7
238.344	16.9
238.562	49.66
238.779	-38.4
238.996	41.47
239.214	68.09
239.431	12.8
239.648	33.28
239.865	53.76
240.083	25.09
240.3	37.38
240.517	70.14
240.735	4.61
240.952	57.86
241.169	41.47
241.386	45.57
241.603	20.99
241.821	-32.26
242.038	37.38
242.255	66.05
242.472	57.86
242.689	90.62
242.907	10.75
243.124	55.81
243.341	43.52
243.558	12.8
243.775	29.18
243.992	-13.82
244.209	14.85
244.426	8.7
244.643	2.56
244.86	29.18
245.078	59.9
245.295	96.77
245.512	16.9
245.729	33.28
245.946	41.47
246.163	82.43
246.38	92.67
246.597	-28.16
246.814	100.86
247.031	18.94
247.248	8.7
247.464	49.66
247.681	76.29
247.898	12.8
248.115	109.05
248.332	37.38
248.549	104.96
248.766	123.39
248.983	100.86
249.2	27.14
249.417	16.9
249.633	33.28
249.85	-7.68
250.067	92.67
250.284	53.76
250.501	29.18
250.717	16.9
250.934	53.76
251.151	6.66
251.368	70.14
251.585	78.33
251.801	92.67
252.018	74.24
252.235	39.42
252.451	29.18
252.668	-7.68
252.885	33.28
253.102	72.19
253.318	10.75
253.535	8.7
253.752	31.23
253.968	51.71
254.185	59.9
254.401	59.9
254.618	76.29
254.835	61.95
255.051	121.34
255.268	27.14
255.484	27.14
255.701	68.09
255.917	84.48
256.134	12.8
256.351	51.71
256.567	0.51
256.784	82.43
257	66.05
257.217	113.15
257.433	90.62
257.65	78.33
257.866	74.24
258.082	-62.98
258.299	-3.58
258.515	16.9
258.732	49.66
258.948	16.9
259.165	49.66
259.381	74.24
259.597	16.9
259.814	29.18
260.03	72.19
260.246	98.81
260.463	0.51
260.679	16.9
260.895	39.42
261.112	68.09
261.328	31.23
261.544	-5.63
261.761	61.95
261.977	-7.68
262.193	-97.79
262.409	82.43
262.626	57.86
262.842	-32.26
263.058	37.38
263.274	53.76
263.49	68.09
263.707	39.42
263.923	64
264.139	90.62
264.355	-24.06
264.571	8.7
264.787	41.47
265.004	37.38
265.22	84.48
265.436	59.9
265.652	39.42
265.868	25.09
266.084	12.8
266.3	76.29
266.516	16.9
266.732	66.05
266.948	78.33
267.164	57.86
267.38	88.57
267.596	57.86
267.812	-9.73
268.028	86.53
268.244	16.9
268.46	98.81
268.676	82.43
268.892	27.14
269.108	-22.02
269.324	29.18
269.54	27.14
269.756	123.39
269.972	-5.63
270.188	57.86
270.403	16.9
270.619	41.47
270.835	51.71
271.051	86.53
271.267	45.57
271.483	27.14
271.698	86.53
271.914	49.66
272.13	16.9
272.346	25.09
272.562	59.9
272.777	12.8
272.993	-3.58
273.209	-7.68
273.425	51.71
273.64	-24.06
273.856	41.47
274.072	68.09
274.287	-1.54
274.503	53.76
274.719	47.62
274.934	64
275.15	-1.54
275.366	78.33
275.581	76.29
275.797	41.47
276.012	20.99
276.228	76.29
276.444	43.52
276.659	90.62
276.875	104.96
277.09	2.56
277.306	80.38
277.521	102.91
277.737	49.66
277.952	0.51
278.168	10.75
278.383	57.86
278.599	-9.73
278.814	51.71
279.03	117.25
279.245	51.71
279.461	6.66
279.676	-13.82
279.892	0.51
280.107	-71.17
280.322	25.09
280.538	18.94
280.753	61.95
280.969	100.86
281.184	-13.82
281.399	41.47
281.615	18.94
281.83	78.33
282.045	-7.68
282.26	64
282.476	25.09
282.691	82.43
282.906	76.29
283.122	37.38
283.337	8.7
283.552	18.94
283.767	100.86
283.983	139.77
284.198	33.28
284.413	35.33
284.628	-17.92
284.843	20.99
285.058	51.71
285.274	45.57
285.489	-32.26
285.704	82.43
285.919	57.86
286.134	-3.58
286.349	-24.06
286.564	55.81
286.779	45.57
286.995	25.09
287.21	-15.87
287.425	35.33
287.64	55.81
287.855	98.81
288.07	2.56
288.285	82.43
288.5	29.18
288.715	8.7
288.93	68.09
289.145	37.38
289.36	49.66
289.575	82.43
289.79	64
290.004	8.7
290.219	49.66
290.434	70.14
290.649	66.05
290.864	68.09
291.079	-3.58
291.294	-40.45
291.509	59.9
291.724	76.29
291.938	33.28
292.153	16.9
292.368	33.28
292.583	115.2
292.798	109.05
293.012	117.25
293.227	82.43
293.442	-67.07
293.657	49.66
293.871	90.62
294.086	27.14
294.301	41.47
294.516	84.48
294.73	68.09
294.945	33.28
295.16	-36.35
295.374	72.19
295.589	59.9
295.804	16.9
296.018	45.57
296.233	123.39
296.447	86.53
296.662	0.51
296.877	55.81
297.091	90.62
297.306	0.51
297.52	123.39
297.735	61.95
297.949	10.75
298.164	86.53
298.378	-22.02
298.593	-13.82
298.807	14.85
299.022	43.52
299.236	86.53
299.451	94.72
299.665	49.66
299.88	33.28
300.094	8.7
300.309	33.28
300.523	57.86
300.737	12.8
300.952	45.57
301.166	49.66
301.381	8.7
301.595	-9.73
301.809	49.66
302.024	33.28
302.238	12.8
302.452	59.9
302.667	82.43
302.881	76.29
303.095	27.14
303.309	57.86
303.524	-7.68
303.738	16.9
303.952	84.48
304.166	33.28
304.381	-48.64
304.595	74.24
304.809	8.7
305.023	59.9
305.237	31.23
305.452	72.19
305.666	49.66
305.88	25.09
306.094	66.05
306.308	16.9
306.522	33.28
306.736	45.57
306.95	64
307.164	-5.63
307.379	70.14
307.593	119.29
307.807	0.51
308.021	51.71
308.235	90.62
308.449	16.9
308.663	53.76
308.877	123.39
309.091	33.28
309.305	76.29
309.519	33.28
309.733	49.66
309.947	0.51
310.161	4.61
310.374	33.28
310.588	98.81
310.802	8.7
311.016	107.01
311.23	80.38
311.444	16.9
311.658	57.86
311.872	78.33
312.085	4.61
312.299	90.62
312.513	45.57
312.727	2.56
312.941	-19.97
313.154	137.73
313.368	49.66
313.582	-5.63
313.796	45.57
314.009	2.56
314.223	61.95
314.437	0.51
314.651	-30.21
314.864	12.8
315.078	84.48
315.292	-5.63
315.505	20.99
315.719	10.75
315.933	70.14
316.146	27.14
316.36	33.28
316.573	37.38
316.787	8.7
317.001	51.71
317.214	35.33
317.428	18.94
317.641	70.14
317.855	41.47
318.068	107.01
318.282	90.62
318.495	57.86
318.709	139.77
318.922	43.52
319.136	74.24
319.349	61.95
319.563	57.86
319.776	111.1
319.99	0.51
320.203	86.53
320.417	100.86
320.63	61.95
320.843	61.95
321.057	25.09
321.27	61.95
321.483	74.24
321.697	104.96
321.91	100.86
322.124	10.75
322.337	23.04
322.55	72.19
322.763	61.95
322.977	57.86
323.19	35.33
323.403	12.8
323.617	41.47
323.83	125.44
324.043	-5.63
324.256	135.68
324.469	47.62
324.683	127.49
324.896	59.9
325.109	49.66
325.322	37.38
325.535	115.2
325.748	43.52
325.962	66.05
326.175	66.05
326.388	68.09
326.601	96.77
326.814	68.09
327.027	-85.5
327.24	37.38
327.453	-48.64
327.666	18.94
327.879	111.1
328.092	23.04
328.305	72.19
328.518	18.94
328.731	45.57
328.944	66.05
329.157	82.43
329.37	76.29
329.583	33.28
329.796	127.49
330.009	-1.54
330.222	135.68
330.435	66.05
330.648	111.1
330.861	12.8
331.073	16.9
331.286	76.29
331.499	-9.73
331.712	102.91
331.925	74.24
332.138	31.23
332.35	49.66
332.563	4.61
332.776	98.81
332.989	12.8
333.202	57.86
333.414	35.33
333.627	61.95
333.84	-3.58
334.053	152.06
334.265	8.7
334.478	47.62
334.691	35.33
334.903	100.86
335.116	82.43
335.329	68.09
335.541	39.42
335.754	70.14
335.966	43.52
336.179	109.05
336.392	35.33
336.604	37.38
336.817	57.86
337.029	49.66
337.242	31.23
337.454	18.94
337.667	84.48
337.88	66.05
338.092	25.09
338.305	70.14
338.517	68.09
338.729	109.05
338.942	47.62
339.154	-36.35
339.367	41.47
339.579	82.43
339.792	51.71
340.004	6.66
340.217	20.99
340.429	125.44
340.641	92.67
340.854	92.67
341.066	59.9
341.278	107.01
341.491	109.05
341.703	53.76
341.915	-5.63
342.128	57.86
342.34	82.43
342.552	133.63
342.764	8.7
342.977	39.42
343.189	27.14
343.401	66.05
343.613	4.61
343.826	33.28
344.038	74.24
344.25	51.71
344.462	0.51
344.674	92.67
344.886	55.81
345.099	90.62
345.311	37.38
345.523	20.99
345.735	16.9
345.947	80.38
346.159	74.24
346.371	25.09
346.583	88.57
346.795	127.49
347.007	25.09
347.219	-5.63
347.431	39.42
347.643	66.05
347.855	70.14
348.067	68.09
348.279	76.29
348.491	25.09
348.703	25.09
348.915	-15.87
349.127	0.51
349.339	74.24
349.551	51.71
349.763	92.67
349.975	123.39
350.187	76.29
350.399	123.39
350.61	117.25
350.822	53.76
351.034	33.28
351.246	125.44
351.458	107.01
351.669	41.47
351.881	43.52
352.093	74.24
352.305	27.14
352.517	49.66
352.728	33.28
352.94	16.9
353.152	76.29
353.363	14.85
353.575	59.9
353.787	92.67
353.999	43.52
354.21	115.2
354.422	2.56
354.633	66.05
354.845	0.51
355.057	64
355.268	33.28
355.48	45.57
355.692	76.29
355.903	57.86
356.115	57.86
356.326	12.8
356.538	86.53
356.749	18.94
356.961	33.28
357.172	57.86
357.384	74.24
357.595	139.77
357.807	-3.58
358.018	18.94
358.23	25.09
358.441	59.9
358.653	51.71
358.864	70.14
359.075	64
359.287	57.86
359.498	113.15
359.709	117.25
359.921	107.01
360.132	147.97
360.344	-28.16
360.555	25.09
360.766	29.18
360.977	0.51
361.189	115.2
361.4	33.28
361.611	141.82
361.823	156.16
362.034	107.01
362.245	61.95
362.456	61.95
362.667	68.09
362.879	33.28
363.09	66.05
363.301	61.95
363.512	74.24
363.723	18.94
363.935	74.24
364.146	129.53
364.357	57.86
364.568	66.05
364.779	43.52
364.99	-1.54
365.201	12.8
365.412	45.57
365.623	-3.58
365.834	78.33
366.045	-11.78
366.256	68.09
366.467	51.71
366.678	37.38
366.889	25.09
367.1	20.99
367.311	35.33
367.522	64
367.733	102.91
367.944	121.34
368.155	78.33
368.366	33.28
368.577	43.52
368.788	53.76
368.999	20.99
369.209	100.86
369.42	125.44
369.631	70.14
369.842	66.05
370.053	45.57
370.264	137.73
370.474	68.09
370.685	49.66
370.896	53.76
371.107	49.66
371.317	57.86
371.528	10.75
371.739	107.01
371.95	74.24
372.16	100.86
372.371	82.43
372.582	43.52
372.792	111.1
373.003	57.86
373.214	16.9
373.424	33.28
373.635	27.14
373.846	156.16
374.056	16.9
374.267	0.51
374.477	111.1
374.688	57.86
374.898	111.1
375.109	107.01
375.319	57.86
375.53	37.38
375.74	16.9
375.951	78.33
376.161	20.99
376.372	72.19
376.582	72.19
376.793	90.62
377.003	57.86
377.214	-44.54
377.424	74.24
377.635	80.38
377.845	35.33
378.055	78.33
378.266	18.94
378.476	25.09
378.686	74.24
378.897	164.35
379.107	55.81
379.317	-5.63
379.528	18.94
379.738	90.62
379.948	29.18
380.158	117.25
380.369	61.95
380.579	14.85
380.789	41.47
380.999	88.57
381.21	131.58
381.42	121.34
381.63	68.09
381.84	76.29
382.05	74.24
382.261	109.05
382.471	152.06
382.681	66.05
382.891	92.67
383.101	18.94
383.311	41.47
383.521	49.66
383.731	41.47
383.941	123.39
384.151	115.2
384.361	-24.06
384.571	121.34
384.781	43.52
384.991	111.1
385.201	160.25
385.411	-32.26
385.621	49.66
385.831	6.66
386.041	66.05
386.251	100.86
386.461	162.3
386.671	164.35
386.881	55.81
387.091	82.43
387.301	61.95
387.511	16.9
387.72	78.33
387.93	111.1
388.14	55.81
388.35	53.76
388.56	70.14
388.769	-5.63
388.979	139.77
389.189	76.29
389.399	107.01
389.609	131.58
389.818	115.2
390.028	35.33
390.238	49.66
390.447	80.38
390.657	8.7
390.867	64
391.076	39.42
391.286	74.24
391.496	59.9
391.705	66.05
391.915	84.48
392.125	139.77
392.334	-13.82
392.544	133.63
392.753	94.72
392.963	82.43
393.172	152.06
393.382	98.81
393.591	127.49
393.801	78.33
394.01	92.67
394.22	102.91
394.429	150.01
394.639	74.24
394.848	84.48
395.058	152.06
395.267	94.72
395.477	74.24
395.686	47.62
395.895	199.16
396.105	145.92
396.314	107.01
396.524	100.86
396.733	129.53
396.942	109.05
397.152	92.67
397.361	96.77
397.57	86.53
397.78	84.48
397.989	129.53
398.198	137.73
398.407	193.02
398.617	127.49
398.826	111.1
399.035	168.45
399.244	90.62
399.453	182.78
399.663	27.14
399.872	127.49
400.081	139.77
400.29	139.77
400.499	111.1
400.708	145.92
400.917	115.2
401.127	127.49
401.336	72.19
401.545	215.55
401.754	190.97
401.963	164.35
402.172	123.39
402.381	203.26
402.59	107.01
402.799	98.81
403.008	180.73
403.217	123.39
403.426	182.78
403.635	94.72
403.844	84.48
404.053	166.4
404.262	74.24
404.471	213.5
404.68	158.21
404.888	213.5
405.097	184.83
405.306	147.97
405.515	209.4
405.724	252.41
405.933	197.12
406.142	240.12
406.35	180.73
406.559	223.74
406.768	188.93
406.977	238.08
407.185	254.46
407.394	166.4
407.603	227.84
407.812	242.17
408.02	262.65
408.229	262.65
408.438	211.45
408.646	256.51
408.855	356.86
409.064	320
409.272	281.08
409.481	328.19
409.69	217.6
409.898	279.04
410.107	326.14
410.315	371.19
410.524	346.62
410.733	365.05
410.941	369.15
411.15	401.91
411.358	459.26
411.567	365.05
411.775	381.43
411.984	489.98
412.192	412.15
412.401	532.98
412.609	516.6
412.818	524.79
413.026	567.8
413.234	477.69
413.443	604.66
413.651	627.19
413.86	578.04
414.068	614.9
414.276	668.15
414.485	721.4
414.693	778.74
414.901	778.74
415.11	815.6
415.318	778.74
415.526	907.76
415.734	815.6
415.943	860.66
416.151	870.9
416.359	891.38
416.567	975.35
416.776	1020.4
416.984	1108.46
417.192	1128.94
417.4	1112.56
417.608	1139.18
417.817	1147.37
418.025	1169.9
418.233	1235.44
418.441	1278.44
418.649	1343.98
418.857	1399.27
419.065	1417.71
419.273	1397.23
419.481	1503.72
419.689	1575.4
419.897	1585.64
420.105	1716.71
420.313	1679.85
420.521	1835.49
420.729	1876.45
420.937	1884.64
421.145	1851.88
421.353	1884.64
421.561	2062.82
421.769	2126.3
421.977	2222.56
422.185	2161.12
422.393	2429.4
422.601	2558.42
422.809	2529.75
423.017	2515.42
423.224	2583
423.432	2726.36
423.64	2613.72
423.848	2892.24
424.056	2869.72
424.263	3156.43
424.471	3160.53
424.679	3213.77
424.887	3299.79
425.094	3437
425.302	3359.18
425.51	3566.03
425.718	3705.29
425.925	3783.11
426.133	3815.88
426.341	4041.15
426.548	4305.34
426.756	4444.6
426.964	4346.3
427.171	4628.92
427.379	4854.2
427.586	4784.57
427.794	4776.38
428.001	5212.59
428.209	5409.2
428.417	5288.37
428.624	5616.04
428.832	5624.23
429.039	5530.03
429.247	5411.25
429.454	6255.01
429.662	6498.72
429.869	6015.4
430.076	6599.07
430.284	6504.86
430.491	6670.75
430.699	6971.8
430.906	7188.88
431.114	7154.07
431.321	7537.04
431.528	7496.08
431.736	8018.31
431.943	8511.87
432.15	8081.8
432.358	8196.48
432.565	8751.48
432.772	8731
432.979	9001.33
433.187	9374.06
433.394	9054.58
433.601	9941.35
433.808	10033.51
434.016	10127.72
434.223	10389.86
434.43	10918.23
434.637	10795.36
434.844	11391.31
435.052	11612.49
435.259	11915.59
435.466	11637.07
435.673	11649.36
435.88	12243.27
436.087	12867.9
436.294	12843.32
436.501	12738.88
436.708	12847.42
436.915	13494.58
437.122	13814.06
437.329	13963.56
437.537	14203.18
437.743	14668.06
437.95	14493.99
438.157	14948.64
438.364	15620.37
438.571	15796.49
438.778	15747.34
438.985	17094.91
439.192	16406.79
439.399	17158.39
439.606	16673.03
439.813	17496.31
440.02	18747.62
440.227	18493.67
440.433	18436.33
440.64	18532.58
440.847	18501.86
441.054	19120.35
441.261	20476.1
441.467	20113.61
441.674	20451.53
441.881	21256.38
442.088	21227.71
442.294	20977.86
442.501	21700.79
442.708	22073.52
442.914	22546.6
443.121	23861.4
443.328	23105.7
443.534	25047.17
443.741	23863.44
443.948	23742.61
444.154	25213.06
444.361	25163.9
444.568	25430.14
444.774	25315.45
444.981	25776.25
445.187	26470.51
445.394	27689.05
445.6	27330.65
445.807	29753.4
446.013	28592.2
446.22	28702.79
446.426	30208.05
446.633	30443.57
446.839	31375.39
447.046	30146.61
447.252	31631.39
447.459	31834.14
447.665	31547.42
447.871	32862.22
448.078	34152.44
448.284	32712.72
448.491	33906.68
448.697	34936.81
448.903	35557.35
449.11	35592.16
449.316	35061.74
449.522	35569.63
449.728	36798.41
449.935	36986.83
450.141	36986.83
450.347	37849.02
450.553	36321.24
450.76	36968.4
450.966	38684.59
451.172	37474.24
451.378	38510.52
451.584	37873.6
451.791	39067.56
451.997	38784.94
452.203	39440.29
452.409	39255.98
452.615	39206.83
452.821	37590.98
453.027	37232.58
453.233	39083.95
453.44	37830.59
453.646	37918.65
453.852	38518.71
454.058	38918.06
454.264	37515.2
454.47	38662.07
454.676	37705.66
454.882	39110.57
455.088	35717.09
455.294	36329.43
455.5	36798.41
455.705	37248.97
455.911	35456.99
456.117	34975.72
456.323	34451.44
456.529	32524.3
456.735	34492.4
456.941	32997.38
457.147	32925.71
457.352	31688.73
457.558	31363.11
457.764	32083.99
457.97	30988.33
458.176	30455.86
458.381	29825.08
458.587	28629.07
458.793	28584.01
458.999	27594.84
459.204	29354.05
459.41	28262.48
459.616	26447.98
459.821	27005.03
460.027	26810.47
460.233	25829.49
460.438	24987.78
460.644	24760.45
460.85	23888.02
461.055	23537.82
461.261	23455.9
461.466	21786.8
461.672	21125.31
461.878	22730.92
462.083	21264.57
462.289	20523.21
462.494	20711.62
462.7	19452.12
462.905	19056.86
463.111	19837.14
463.316	19730.64
463.522	19491.03
463.727	19296.47
463.932	19581.14
464.138	19036.38
464.343	19298.52
464.549	18915.55
464.754	19323.1
464.959	18964.7
465.165	18776.29
465.37	18303.21
465.575	17717.49
465.781	18378.98
465.986	18477.29
466.191	17910
466.397	17709.3
466.602	16863.49
466.807	17371.38
467.012	17346.81
467.218	17295.61
467.423	17021.18
467.628	17398.01
467.833	17819.89
468.038	17088.76
468.244	16650.5
