Data from USB4F104151__168__14-19-52-680.txt Node

Date: Thu Mar 13 14:19:52 EDT 2025
User: louis
Spectrometer: USB4F10415
Trigger mode: 4
Integration Time (sec): 2.000000E-2
Scans to average: 1
Electric dark correction enabled: true
Nonlinearity correction enabled: false
Boxcar width: 0
XAxis mode: Wavelengths
Number of Pixels in Spectrum: 3648
>>>>>Begin Spectral Data<<<<<
178.204	-146.94
178.424	-146.94
178.644	-146.94
178.864	-87.55
179.084	-136.7
179.304	25.09
179.524	66.05
179.744	4.61
179.964	-11.78
180.184	-11.78
180.404	0.51
180.624	10.75
180.844	-36.35
181.064	-28.16
181.283	-44.54
181.503	0.51
181.723	25.09
181.943	-34.3
182.163	66.05
182.383	8.7
182.602	29.18
182.822	53.76
183.042	-11.78
183.262	43.52
183.482	43.52
183.701	25.09
183.921	14.85
184.141	-19.97
184.361	33.28
184.58	82.43
184.8	16.9
185.02	-44.54
185.239	-28.16
185.459	-11.78
185.679	-19.97
185.898	-7.68
186.118	-19.97
186.338	57.86
186.557	59.9
186.777	-62.98
186.997	-22.02
187.216	-22.02
187.436	51.71
187.655	51.71
187.875	109.05
188.095	10.75
188.314	33.28
188.534	-24.06
188.753	35.33
188.973	57.86
189.192	41.47
189.412	2.56
189.631	-15.87
189.851	51.71
190.07	92.67
190.29	-52.74
190.509	-40.45
190.729	-15.87
190.948	55.81
191.168	33.28
191.387	72.19
191.607	-7.68
191.826	43.52
192.045	-60.93
192.265	18.94
192.484	-24.06
192.704	0.51
192.923	0.51
193.142	92.67
193.362	-73.21
193.581	25.09
193.8	-22.02
194.02	96.77
194.239	39.42
194.458	25.09
194.678	61.95
194.897	2.56
195.116	-32.26
195.335	16.9
195.555	25.09
195.774	45.57
195.993	78.33
196.212	0.51
196.432	-22.02
196.651	-11.78
196.87	6.66
197.089	20.99
197.308	107.01
197.528	41.47
197.747	-48.64
197.966	70.14
198.185	74.24
198.404	-75.26
198.623	31.23
198.842	61.95
199.062	16.9
199.281	10.75
199.5	82.43
199.719	41.47
199.938	55.81
200.157	2.56
200.376	-24.06
200.595	31.23
200.814	-32.26
201.033	45.57
201.252	12.8
201.471	-7.68
201.69	98.81
201.909	16.9
202.128	41.47
202.347	-62.98
202.566	35.33
202.785	53.76
203.004	84.48
203.223	68.09
203.442	31.23
203.661	10.75
203.879	39.42
204.098	51.71
204.317	-26.11
204.536	51.71
204.755	55.81
204.974	-30.21
205.193	-3.58
205.411	137.73
205.63	-7.68
205.849	35.33
206.068	25.09
206.287	12.8
206.505	-7.68
206.724	41.47
206.943	33.28
207.162	74.24
207.381	-15.87
207.599	70.14
207.818	-38.4
208.037	-15.87
208.255	72.19
208.474	53.76
208.693	16.9
208.911	51.71
209.13	45.57
209.349	-24.06
209.567	43.52
209.786	66.05
210.005	47.62
210.223	-7.68
210.442	-48.64
210.661	43.52
210.879	31.23
211.098	-32.26
211.316	55.81
211.535	59.9
211.753	29.18
211.972	10.75
212.191	-15.87
212.409	12.8
212.628	43.52
212.846	-79.36
213.065	53.76
213.283	98.81
213.502	-24.06
213.72	14.85
213.938	-19.97
214.157	-9.73
214.375	-38.4
214.594	-11.78
214.812	25.09
215.031	27.14
215.249	-28.16
215.467	53.76
215.686	20.99
215.904	55.81
216.122	41.47
216.341	66.05
216.559	8.7
216.778	18.94
216.996	72.19
217.214	51.71
217.432	0.51
217.651	70.14
217.869	-22.02
218.087	37.38
218.306	-34.3
218.524	64
218.742	-28.16
218.96	16.9
219.179	-22.02
219.397	43.52
219.615	94.72
219.833	88.57
220.051	29.18
220.27	8.7
220.488	0.51
220.706	45.57
220.924	16.9
221.142	31.23
221.36	-40.45
221.578	43.52
221.796	37.38
222.015	18.94
222.233	68.09
222.451	49.66
222.669	-22.02
222.887	12.8
223.105	35.33
223.323	8.7
223.541	-30.21
223.759	80.38
223.977	12.8
224.195	90.62
224.413	0.51
224.631	45.57
224.849	10.75
225.067	49.66
225.285	-30.21
225.503	-38.4
225.721	-24.06
225.939	76.29
226.157	-19.97
226.375	98.81
226.592	27.14
226.81	-7.68
227.028	45.57
227.246	49.66
227.464	55.81
227.682	74.24
227.9	70.14
228.117	51.71
228.335	51.71
228.553	8.7
228.771	0.51
228.989	10.75
229.206	8.7
229.424	39.42
229.642	-7.68
229.86	-73.21
230.077	41.47
230.295	43.52
230.513	82.43
230.731	-9.73
230.948	8.7
231.166	109.05
231.384	8.7
231.601	18.94
231.819	0.51
232.037	-24.06
232.254	-44.54
232.472	25.09
232.689	16.9
232.907	70.14
233.125	14.85
233.342	53.76
233.56	16.9
233.777	64
233.995	-22.02
234.213	109.05
234.43	47.62
234.648	66.05
234.865	8.7
235.083	-19.97
235.3	0.51
235.518	-52.74
235.735	94.72
235.953	107.01
236.17	-13.82
236.388	-22.02
236.605	29.18
236.822	12.8
237.04	35.33
237.257	37.38
237.475	-32.26
237.692	12.8
237.909	37.38
238.127	-24.06
238.344	33.28
238.562	25.09
238.779	8.7
238.996	8.7
239.214	2.56
239.431	-17.92
239.648	25.09
239.865	100.86
240.083	25.09
240.3	37.38
240.517	-30.21
240.735	25.09
240.952	41.47
241.169	-73.21
241.386	47.62
241.603	-13.82
241.821	-48.64
242.038	18.94
242.255	90.62
242.472	-60.93
242.689	25.09
242.907	49.66
243.124	-9.73
243.341	33.28
243.558	10.75
243.775	82.43
243.992	16.9
244.209	49.66
244.426	133.63
244.643	82.43
244.86	-71.17
245.078	31.23
245.295	-15.87
245.512	33.28
245.729	27.14
245.946	16.9
246.163	20.99
246.38	16.9
246.597	-5.63
246.814	39.42
247.031	41.47
247.248	96.77
247.464	59.9
247.681	74.24
247.898	6.66
248.115	86.53
248.332	57.86
248.549	45.57
248.766	41.47
248.983	31.23
249.2	2.56
249.417	33.28
249.633	20.99
249.85	57.86
250.067	57.86
250.284	10.75
250.501	61.95
250.717	25.09
250.934	8.7
251.151	4.61
251.368	-46.59
251.585	156.16
251.801	-38.4
252.018	6.66
252.235	-46.59
252.451	2.56
252.668	-1.54
252.885	37.38
253.102	43.52
253.318	45.57
253.535	-24.06
253.752	18.94
253.968	16.9
254.185	57.86
254.401	-32.26
254.618	49.66
254.835	2.56
255.051	37.38
255.268	0.51
255.484	-36.35
255.701	61.95
255.917	10.75
256.134	-7.68
256.351	92.67
256.567	-32.26
256.784	25.09
257	12.8
257.217	66.05
257.433	16.9
257.65	49.66
257.866	-24.06
258.082	-28.16
258.299	8.7
258.515	2.56
258.732	-3.58
258.948	-65.02
259.165	31.23
259.381	-69.12
259.597	-5.63
259.814	0.51
260.03	-32.26
260.246	14.85
260.463	47.62
260.679	12.8
260.895	70.14
261.112	51.71
261.328	8.7
261.544	-15.87
261.761	104.96
261.977	10.75
262.193	-5.63
262.409	25.09
262.626	-30.21
262.842	66.05
263.058	25.09
263.274	86.53
263.49	14.85
263.707	61.95
263.923	35.33
264.139	-7.68
264.355	20.99
264.571	68.09
264.787	74.24
265.004	37.38
265.22	16.9
265.436	-7.68
265.652	57.86
265.868	16.9
266.084	80.38
266.3	59.9
266.516	23.04
266.732	-48.64
266.948	47.62
267.164	10.75
267.38	16.9
267.596	76.29
267.812	12.8
268.028	59.9
268.244	-44.54
268.46	16.9
268.676	82.43
268.892	33.28
269.108	8.7
269.324	0.51
269.54	25.09
269.756	37.38
269.972	-85.5
270.188	-30.21
270.403	27.14
270.619	53.76
270.835	41.47
271.051	-11.78
271.267	12.8
271.483	-30.21
271.698	2.56
271.914	98.81
272.13	14.85
272.346	-7.68
272.562	45.57
272.777	74.24
272.993	0.51
273.209	10.75
273.425	20.99
273.64	-30.21
273.856	12.8
274.072	111.1
274.287	55.81
274.503	100.86
274.719	88.57
274.934	-17.92
275.15	16.9
275.366	53.76
275.581	49.66
275.797	82.43
276.012	41.47
276.228	59.9
276.444	70.14
276.659	33.28
276.875	-32.26
277.09	57.86
277.306	-28.16
277.521	25.09
277.737	-15.87
277.952	10.75
278.168	86.53
278.383	39.42
278.599	64
278.814	39.42
279.03	8.7
279.245	74.24
279.461	23.04
279.676	35.33
279.892	35.33
280.107	-26.11
280.322	23.04
280.538	-1.54
280.753	-40.45
280.969	-65.02
281.184	-54.78
281.399	37.38
281.615	-22.02
281.83	35.33
282.045	35.33
282.26	16.9
282.476	-28.16
282.691	51.71
282.906	39.42
283.122	4.61
283.337	-15.87
283.552	84.48
283.767	43.52
283.983	-30.21
284.198	-28.16
284.413	23.04
284.628	-32.26
284.843	20.99
285.058	68.09
285.274	57.86
285.489	25.09
285.704	35.33
285.919	33.28
286.134	43.52
286.349	-3.58
286.564	98.81
286.779	27.14
286.995	8.7
287.21	-30.21
287.425	90.62
287.64	-52.74
287.855	96.77
288.07	51.71
288.285	2.56
288.5	86.53
288.715	70.14
288.93	49.66
289.145	61.95
289.36	86.53
289.575	59.9
289.79	27.14
290.004	57.86
290.219	-15.87
290.434	-32.26
290.649	18.94
290.864	20.99
291.079	16.9
291.294	74.24
291.509	94.72
291.724	2.56
291.938	-30.21
292.153	-24.06
292.368	92.67
292.583	74.24
292.798	45.57
293.012	51.71
293.227	76.29
293.442	-15.87
293.657	8.7
293.871	43.52
294.086	20.99
294.301	131.58
294.516	33.28
294.73	-15.87
294.945	-15.87
295.16	74.24
295.374	29.18
295.589	49.66
295.804	-17.92
296.018	90.62
296.233	68.09
296.447	74.24
296.662	18.94
296.877	78.33
297.091	-48.64
297.306	-7.68
297.52	41.47
297.735	86.53
297.949	-24.06
298.164	-26.11
298.378	-5.63
298.593	27.14
298.807	-11.78
299.022	82.43
299.236	57.86
299.451	37.38
299.665	53.76
299.88	25.09
300.094	33.28
300.309	16.9
300.523	25.09
300.737	-73.21
300.952	-28.16
301.166	14.85
301.381	84.48
301.595	-7.68
301.809	41.47
302.024	8.7
302.238	12.8
302.452	76.29
302.667	33.28
302.881	80.38
303.095	61.95
303.309	10.75
303.524	-5.63
303.738	-1.54
303.952	92.67
304.166	-24.06
304.381	20.99
304.595	98.81
304.809	-28.16
305.023	18.94
305.237	94.72
305.452	-24.06
305.666	107.01
305.88	49.66
306.094	68.09
306.308	-7.68
306.522	59.9
306.736	-7.68
306.95	-7.68
307.164	66.05
307.379	23.04
307.593	92.67
307.807	18.94
308.021	-1.54
308.235	41.47
308.449	53.76
308.663	-3.58
308.877	98.81
309.091	14.85
309.305	25.09
309.519	-5.63
309.733	-7.68
309.947	20.99
310.161	66.05
310.374	49.66
310.588	18.94
310.802	20.99
311.016	45.57
311.23	18.94
311.444	-9.73
311.658	29.18
311.872	59.9
312.085	51.71
312.299	-7.68
312.513	59.9
312.727	41.47
312.941	4.61
313.154	-44.54
313.368	41.47
313.582	8.7
313.796	25.09
314.009	66.05
314.223	-5.63
314.437	35.33
314.651	115.2
314.864	-5.63
315.078	0.51
315.292	8.7
315.505	43.52
315.719	-30.21
315.933	20.99
316.146	0.51
316.36	-7.68
316.573	98.81
316.787	90.62
317.001	78.33
317.214	16.9
317.428	37.38
317.641	-3.58
317.855	8.7
318.068	18.94
318.282	-13.82
318.495	86.53
318.709	68.09
318.922	100.86
319.136	78.33
319.349	57.86
319.563	43.52
319.776	57.86
319.99	16.9
320.203	94.72
320.417	41.47
320.63	59.9
320.843	139.77
321.057	-40.45
321.27	-15.87
321.483	31.23
321.697	102.91
321.91	-24.06
322.124	-5.63
322.337	-38.4
322.55	47.62
322.763	92.67
322.977	-24.06
323.19	25.09
323.403	49.66
323.617	-5.63
323.83	74.24
324.043	8.7
324.256	66.05
324.469	35.33
324.683	45.57
324.896	-24.06
325.109	57.86
325.322	14.85
325.535	20.99
325.748	57.86
325.962	-9.73
326.175	53.76
326.388	-3.58
326.601	51.71
326.814	41.47
327.027	2.56
327.24	131.58
327.453	-15.87
327.666	59.9
327.879	23.04
328.092	86.53
328.305	25.09
328.518	-36.35
328.731	53.76
328.944	35.33
329.157	37.38
329.37	-7.68
329.583	64
329.796	57.86
330.009	-22.02
330.222	20.99
330.435	16.9
330.648	74.24
330.861	18.94
331.073	0.51
331.286	0.51
331.499	-15.87
331.712	39.42
331.925	-5.63
332.138	82.43
332.35	45.57
332.563	61.95
332.776	57.86
332.989	125.44
333.202	18.94
333.414	53.76
333.627	16.9
333.84	4.61
334.053	102.91
334.265	66.05
334.478	29.18
334.691	78.33
334.903	70.14
335.116	-30.21
335.329	2.56
335.541	57.86
335.754	76.29
335.966	6.66
336.179	57.86
336.392	78.33
336.604	102.91
336.817	59.9
337.029	0.51
337.242	49.66
337.454	18.94
337.667	18.94
337.88	8.7
338.092	59.9
338.305	-13.82
338.517	-36.35
338.729	-1.54
338.942	8.7
339.154	0.51
339.367	27.14
339.579	41.47
339.792	-22.02
340.004	-26.11
340.217	25.09
340.429	47.62
340.641	90.62
340.854	-22.02
341.066	-7.68
341.278	86.53
341.491	68.09
341.703	6.66
341.915	-26.11
342.128	0.51
342.34	49.66
342.552	4.61
342.764	-28.16
342.977	100.86
343.189	29.18
343.401	6.66
343.613	-15.87
343.826	-11.78
344.038	41.47
344.25	39.42
344.462	-11.78
344.674	66.05
344.886	98.81
345.099	80.38
345.311	27.14
345.523	-1.54
345.735	-44.54
345.947	86.53
346.159	-13.82
346.371	-38.4
346.583	33.28
346.795	20.99
347.007	2.56
347.219	29.18
347.431	80.38
347.643	68.09
347.855	10.75
348.067	14.85
348.279	-46.59
348.491	-17.92
348.703	94.72
348.915	94.72
349.127	78.33
349.339	-40.45
349.551	-40.45
349.763	90.62
349.975	59.9
350.187	98.81
350.399	107.01
350.61	-7.68
350.822	25.09
351.034	-11.78
351.246	49.66
351.458	68.09
351.669	16.9
351.881	49.66
352.093	-11.78
352.305	123.39
352.517	92.67
352.728	18.94
352.94	59.9
353.152	68.09
353.363	0.51
353.575	78.33
353.787	49.66
353.999	18.94
354.21	33.28
354.422	10.75
354.633	82.43
354.845	12.8
355.057	82.43
355.268	16.9
355.48	41.47
355.692	2.56
355.903	20.99
356.115	4.61
356.326	61.95
356.538	117.25
356.749	4.61
356.961	88.57
357.172	-26.11
357.384	-7.68
357.595	80.38
357.807	51.71
358.018	61.95
358.23	27.14
358.441	98.81
358.653	41.47
358.864	16.9
359.075	2.56
359.287	53.76
359.498	74.24
359.709	33.28
359.921	68.09
360.132	86.53
360.344	25.09
360.555	16.9
360.766	-13.82
360.977	59.9
361.189	29.18
361.4	-5.63
361.611	8.7
361.823	59.9
362.034	76.29
362.245	-5.63
362.456	68.09
362.667	-5.63
362.879	2.56
363.09	35.33
363.301	-19.97
363.512	76.29
363.723	47.62
363.935	-24.06
364.146	-11.78
364.357	45.57
364.568	96.77
364.779	-9.73
364.99	92.67
365.201	109.05
365.412	107.01
365.623	-15.87
365.834	12.8
366.045	-28.16
366.256	16.9
366.467	2.56
366.678	117.25
366.889	-22.02
367.1	64
367.311	35.33
367.522	90.62
367.733	43.52
367.944	55.81
368.155	-38.4
368.366	57.86
368.577	31.23
368.788	53.76
368.999	29.18
369.209	51.71
369.42	139.77
369.631	45.57
369.842	74.24
370.053	59.9
370.264	27.14
370.474	78.33
370.685	59.9
370.896	20.99
371.107	98.81
371.317	59.9
371.528	27.14
371.739	27.14
371.95	25.09
372.16	33.28
372.371	29.18
372.582	51.71
372.792	33.28
373.003	121.34
373.214	57.86
373.424	84.48
373.635	14.85
373.846	78.33
374.056	86.53
374.267	8.7
374.477	6.66
374.688	4.61
374.898	59.9
375.109	64
375.319	57.86
375.53	107.01
375.74	-17.92
375.951	-3.58
376.161	86.53
376.372	121.34
376.582	70.14
376.793	57.86
377.003	57.86
377.214	-30.21
377.424	66.05
377.635	51.71
377.845	8.7
378.055	29.18
378.266	31.23
378.476	8.7
378.686	102.91
378.897	57.86
379.107	41.47
379.317	2.56
379.528	53.76
379.738	53.76
379.948	4.61
380.158	49.66
380.369	27.14
380.579	84.48
380.789	4.61
380.999	37.38
381.21	20.99
381.42	100.86
381.63	35.33
381.84	45.57
382.05	66.05
382.261	-11.78
382.471	35.33
382.681	8.7
382.891	4.61
383.101	107.01
383.311	14.85
383.521	39.42
383.731	35.33
383.941	123.39
384.151	-38.4
384.361	12.8
384.571	-15.87
384.781	25.09
384.991	59.9
385.201	127.49
385.411	82.43
385.621	47.62
385.831	25.09
386.041	-32.26
386.251	107.01
386.461	8.7
386.671	35.33
386.881	25.09
387.091	-7.68
387.301	82.43
387.511	49.66
387.72	49.66
387.93	51.71
388.14	-3.58
388.35	102.91
388.56	86.53
388.769	76.29
388.979	88.57
389.189	16.9
389.399	37.38
389.609	66.05
389.818	47.62
390.028	45.57
390.238	51.71
390.447	18.94
390.657	80.38
390.867	82.43
391.076	0.51
391.286	39.42
391.496	12.8
391.705	27.14
391.915	90.62
392.125	43.52
392.334	102.91
392.544	74.24
392.753	94.72
392.963	61.95
393.172	72.19
393.382	51.71
393.591	143.87
393.801	98.81
394.01	125.44
394.22	33.28
394.429	133.63
394.639	14.85
394.848	18.94
395.058	90.62
395.267	18.94
395.477	-5.63
395.686	-32.26
395.895	107.01
396.105	111.1
396.314	119.29
396.524	125.44
396.733	100.86
396.942	98.81
397.152	29.18
397.361	82.43
397.57	86.53
397.78	123.39
397.989	86.53
398.198	107.01
398.407	131.58
398.617	51.71
398.826	76.29
399.035	109.05
399.244	82.43
399.453	43.52
399.663	74.24
399.872	90.62
400.081	90.62
400.29	117.25
400.499	49.66
400.708	57.86
400.917	68.09
401.127	115.2
401.336	92.67
401.545	152.06
401.754	141.82
401.963	98.81
402.172	127.49
402.381	45.57
402.59	115.2
402.799	121.34
403.008	158.21
403.217	104.96
403.426	88.57
403.635	57.86
403.844	84.48
404.053	127.49
404.262	45.57
404.471	209.4
404.68	150.01
404.888	156.16
405.097	98.81
405.306	221.69
405.515	145.92
405.724	143.87
405.933	100.86
406.142	213.5
406.35	180.73
406.559	68.09
406.768	209.4
406.977	209.4
407.185	182.78
407.394	207.36
407.603	111.1
407.812	287.23
408.02	248.32
408.229	131.58
408.438	203.26
408.646	254.46
408.855	221.69
409.064	193.02
409.272	252.41
409.481	258.56
409.69	250.36
409.898	244.22
410.107	279.04
410.315	291.32
410.524	254.46
410.733	330.23
410.941	309.76
411.15	297.47
411.358	352.76
411.567	393.72
411.775	391.67
411.984	340.47
412.192	369.15
412.401	410.11
412.609	430.59
412.818	338.43
413.026	451.07
413.234	469.5
413.443	459.26
413.651	467.45
413.86	524.79
414.068	610.81
414.276	551.42
414.485	610.81
414.693	559.61
414.901	614.9
415.11	573.94
415.318	621.05
415.526	619
415.734	668.15
415.943	737.78
416.151	745.97
416.359	748.02
416.567	774.64
416.776	834.04
416.984	817.65
417.192	827.89
417.4	805.36
417.608	893.43
417.817	918
418.025	983.54
418.233	1016.3
418.441	981.49
418.649	1010.16
418.857	1067.5
419.065	1214.96
419.273	1087.98
419.481	1104.37
419.689	1165.81
419.897	1337.84
420.105	1307.12
420.313	1319.4
420.521	1374.7
420.729	1399.27
420.937	1503.72
421.145	1632.74
421.353	1597.93
421.561	1745.38
421.769	1704.42
421.977	1845.73
422.185	1747.43
422.393	1802.72
422.601	2050.53
422.809	2046.43
423.017	2036.19
423.224	2171.36
423.432	2195.93
423.64	2187.74
423.848	2310.62
424.056	2331.1
424.263	2435.55
424.471	2453.98
424.679	2515.42
424.887	2654.68
425.094	2695.64
425.302	2793.94
425.51	2873.81
425.718	2943.44
425.925	2851.28
426.133	3037.65
426.341	3242.45
426.548	3424.72
426.756	3426.76
426.964	3312.08
427.171	3690.95
427.379	3811.78
427.586	3703.24
427.794	3869.12
428.001	4141.5
428.209	4354.49
428.417	4172.22
428.624	4565.43
428.832	4479.42
429.039	4438.46
429.247	4547
429.454	4934.07
429.662	5212.59
429.869	4807.09
430.076	5308.85
430.284	5089.71
430.491	5284.27
430.699	5583.27
430.906	5624.23
431.114	5695.91
431.321	5974.44
431.528	5992.87
431.736	6218.15
431.943	6549.92
432.15	6515.1
432.358	6537.63
432.565	6824.34
432.772	6916.5
432.979	7410.06
433.187	7330.19
433.394	7446.93
433.601	7803.27
433.808	7797.13
434.016	7768.46
434.223	8020.36
434.43	8860.02
434.637	8569.21
434.844	8980.85
435.052	9140.6
435.259	9218.42
435.466	9040.25
435.673	9167.22
435.88	9900.39
436.087	10262.88
436.294	10240.36
436.501	10002.79
436.708	10131.81
436.915	10711.39
437.122	11004.25
437.329	10924.38
437.537	11280.72
437.743	11534.67
437.95	11659.6
438.157	11665.74
438.364	12486.98
438.571	12536.13
438.778	12437.83
438.985	13484.34
439.192	13207.86
439.399	13224.25
439.606	12927.29
439.813	13973.8
440.02	14758.17
440.227	14461.22
440.433	14389.54
440.64	14825.76
440.847	14836
441.054	15251.74
441.261	16161.03
441.467	15829.26
441.674	16271.62
441.881	16769.28
442.088	16638.21
442.294	16441.61
442.501	17115.39
442.708	17035.52
442.914	18034.92
443.121	18718.95
443.328	18172.14
443.534	19124.44
443.741	19071.2
443.948	18858.21
444.154	20109.52
444.361	20119.76
444.568	20232.4
444.774	20148.43
444.981	20392.14
445.187	20779.2
445.394	21833.91
445.6	21694.64
445.807	23715.99
446.013	22524.07
446.22	23199.9
446.426	23838.87
446.633	24219.79
446.839	24846.47
447.046	23668.89
447.252	25182.34
447.459	25026.69
447.665	24899.72
447.871	26366.06
448.078	27406.43
448.284	26255.47
448.491	26937.44
448.697	28139.6
448.903	28452.94
449.11	28067.92
449.316	27699.29
449.522	28285.01
449.728	29370.43
449.935	29204.55
450.141	29456.45
450.347	29937.72
450.553	29122.63
450.76	28956.74
450.966	30335.03
451.172	29894.71
451.378	30947.37
451.584	30126.13
451.791	31291.43
451.997	30783.53
452.203	31395.87
452.409	31447.07
452.615	31551.52
452.821	29952.05
453.027	29904.95
453.233	31019.05
453.44	29853.75
453.646	30316.59
453.852	30490.67
454.058	31131.68
454.264	29950.01
454.47	30709.8
454.676	30036.02
454.882	31121.45
455.088	28121.17
455.294	28850.25
455.5	29098.05
455.705	29679.68
455.911	28213.33
456.117	27713.63
456.323	27363.42
456.529	26120.31
456.735	26882.15
456.941	26538.09
457.147	26144.88
457.352	25315.45
457.558	24813.7
457.764	25151.62
457.97	24670.34
458.176	23863.44
458.381	23781.53
458.587	22982.82
458.793	22802.6
458.999	21821.62
459.204	23498.91
459.41	22507.69
459.616	21287.1
459.821	21190.84
460.027	21209.28
460.233	20488.39
460.438	19646.68
460.644	19939.54
460.85	19136.73
461.055	18718.95
461.261	18526.44
461.466	17223.93
461.672	16761.09
461.878	17854.7
462.083	16578.82
462.289	16646.4
462.494	16195.85
462.7	15391
462.905	14999.84
463.111	15847.69
463.316	15653.14
463.522	15354.13
463.727	15360.28
463.932	15350.04
464.138	14975.26
464.343	15460.63
464.549	14792.99
464.754	15343.89
464.959	15331.61
465.165	15034.65
465.37	14317.86
465.575	13674.8
465.781	14717.22
465.986	14700.83
466.191	14184.74
466.397	13685.04
466.602	13082.94
466.807	13599.02
467.012	13644.08
467.218	13498.67
467.423	13394.23
467.628	13369.65
467.833	14141.74
468.038	13631.79
468.244	13216.05
