Data from USB4F104151__270__14-23-14-348.txt Node

Date: Thu Mar 13 14:23:14 EDT 2025
User: louis
Spectrometer: USB4F10415
Trigger mode: 4
Integration Time (sec): 2.000000E-2
Scans to average: 1
Electric dark correction enabled: true
Nonlinearity correction enabled: false
Boxcar width: 0
XAxis mode: Wavelengths
Number of Pixels in Spectrum: 3648
>>>>>Begin Spectral Data<<<<<
178.204	-63.66
178.424	-63.66
178.644	-63.66
178.864	-139.43
179.084	-100.52
179.304	-10.41
179.524	-28.84
179.744	-34.99
179.964	57.17
180.184	42.84
180.404	-18.6
180.624	-32.94
180.844	18.26
181.064	-47.27
181.283	1.88
181.503	10.07
181.723	42.84
181.943	32.6
182.163	89.94
182.383	34.64
182.602	1.88
182.822	73.56
183.042	20.31
183.262	-4.27
183.482	-14.51
183.701	61.27
183.921	91.99
184.141	-22.7
184.361	51.03
184.58	14.17
184.8	26.45
185.02	3.93
185.239	24.4
185.459	-16.55
185.679	-26.79
185.898	-51.37
186.118	126.8
186.338	-14.51
186.557	53.08
186.777	83.8
186.997	38.74
187.216	-8.36
187.436	59.22
187.655	-8.36
187.875	67.41
188.095	8.02
188.314	59.22
188.534	98.13
188.753	-14.51
188.973	-0.17
189.192	59.22
189.412	81.75
189.631	1.88
189.851	-30.89
190.07	26.45
190.29	26.45
190.509	16.21
190.729	18.26
190.948	73.56
191.168	202.58
191.387	75.6
191.607	-32.94
191.826	114.52
192.045	42.84
192.265	12.12
192.484	30.55
192.704	-65.71
192.923	12.12
193.142	145.24
193.362	-55.47
193.581	106.32
193.8	65.36
194.02	-4.27
194.239	18.26
194.458	32.6
194.678	24.4
194.897	32.6
195.116	32.6
195.335	28.5
195.555	57.17
195.774	77.65
195.993	16.21
196.212	-32.94
196.432	14.17
196.651	-24.75
196.87	-24.75
197.089	98.13
197.308	130.9
197.528	75.6
197.747	-6.31
197.966	36.69
198.185	81.75
198.404	57.17
198.623	-6.31
198.842	38.74
199.062	51.03
199.281	57.17
199.5	53.08
199.719	48.98
199.938	59.22
200.157	89.94
200.376	-73.9
200.595	34.64
200.814	24.4
201.033	24.4
201.252	75.6
201.471	-24.75
201.69	22.36
201.909	79.7
202.128	44.88
202.347	67.41
202.566	44.88
202.785	1.88
203.004	79.7
203.223	44.88
203.442	28.5
203.661	-39.08
203.879	65.36
204.098	81.75
204.317	-30.89
204.536	51.03
204.755	91.99
204.974	85.84
205.193	24.4
205.411	59.22
205.63	135
205.849	34.64
206.068	-0.17
206.287	26.45
206.505	87.89
206.724	16.21
206.943	40.79
207.162	98.13
207.381	48.98
207.599	20.31
207.818	18.26
208.037	59.22
208.255	16.21
208.474	73.56
208.693	-12.46
208.911	32.6
209.13	18.26
209.349	114.52
209.567	-16.55
209.786	85.84
210.005	1.88
210.223	48.98
210.442	48.98
210.661	69.46
210.879	44.88
211.098	51.03
211.316	57.17
211.535	42.84
211.753	36.69
211.972	30.55
212.191	8.02
212.409	20.31
212.628	71.51
212.846	22.36
213.065	28.5
213.283	65.36
213.502	-53.42
213.72	73.56
213.938	36.69
214.157	32.6
214.375	63.32
214.594	14.17
214.812	89.94
215.031	73.56
215.249	10.07
215.467	-0.17
215.686	24.4
215.904	-10.41
216.122	18.26
216.341	118.61
216.559	-20.65
216.778	67.41
216.996	34.64
217.214	12.12
217.432	-30.89
217.651	24.4
217.869	75.6
218.087	63.32
218.306	18.26
218.524	28.5
218.742	83.8
218.96	20.31
219.179	48.98
219.397	-0.17
219.615	98.13
219.833	-14.51
220.051	-4.27
220.27	73.56
220.488	53.08
220.706	12.12
220.924	24.4
221.142	87.89
221.36	32.6
221.578	-37.03
221.796	83.8
222.015	-45.23
222.233	-30.89
222.451	65.36
222.669	28.5
222.887	79.7
223.105	24.4
223.323	16.21
223.541	65.36
223.759	81.75
223.977	75.6
224.195	89.94
224.413	57.17
224.631	75.6
224.849	32.6
225.067	77.65
225.285	8.02
225.503	114.52
225.721	24.4
225.939	10.07
226.157	-39.08
226.375	143.19
226.592	-37.03
226.81	100.18
227.028	-0.17
227.246	57.17
227.464	12.12
227.682	94.04
227.9	63.32
228.117	89.94
228.335	77.65
228.553	10.07
228.771	24.4
228.989	26.45
229.206	89.94
229.424	65.36
229.642	18.26
229.86	12.12
230.077	18.26
230.295	-14.51
230.513	65.36
230.731	139.09
230.948	24.4
231.166	28.5
231.384	-22.7
231.601	61.27
231.819	61.27
232.037	28.5
232.254	-24.75
232.472	38.74
232.689	-14.51
232.907	24.4
233.125	22.36
233.342	94.04
233.56	-6.31
233.777	44.88
233.995	-32.94
234.213	55.12
234.43	75.6
234.648	-4.27
234.865	-18.6
235.083	91.99
235.3	16.21
235.518	44.88
235.735	61.27
235.953	75.6
236.17	65.36
236.388	-16.55
236.605	30.55
236.822	55.12
237.04	10.07
237.257	71.51
237.475	-6.31
237.692	118.61
237.909	53.08
238.127	44.88
238.344	18.26
238.562	51.03
238.779	143.19
238.996	-6.31
239.214	16.21
239.431	28.5
239.648	-0.17
239.865	98.13
240.083	-2.22
240.3	32.6
240.517	40.79
240.735	83.8
240.952	69.46
241.169	69.46
241.386	51.03
241.603	22.36
241.821	-8.36
242.038	108.37
242.255	5.97
242.472	38.74
242.689	-0.17
242.907	48.98
243.124	81.75
243.341	-65.71
243.558	67.41
243.775	16.21
243.992	1.88
244.209	32.6
244.426	73.56
244.643	36.69
244.86	16.21
245.078	65.36
245.295	34.64
245.512	77.65
245.729	-32.94
245.946	44.88
246.163	75.6
246.38	59.22
246.597	32.6
246.814	28.5
247.031	22.36
247.248	-14.51
247.464	1.88
247.681	65.36
247.898	32.6
248.115	10.07
248.332	34.64
248.549	59.22
248.766	112.47
248.983	46.93
249.2	116.56
249.417	106.32
249.633	-24.75
249.85	65.36
250.067	-12.46
250.284	48.98
250.501	65.36
250.717	51.03
250.934	26.45
251.151	124.76
251.368	44.88
251.585	65.36
251.801	89.94
252.018	24.4
252.235	48.98
252.451	28.5
252.668	24.4
252.885	57.17
253.102	8.02
253.318	67.41
253.535	-12.46
253.752	-0.17
253.968	14.17
254.185	24.4
254.401	24.4
254.618	57.17
254.835	32.6
255.051	34.64
255.268	8.02
255.484	-14.51
255.701	55.12
255.917	28.5
256.134	12.12
256.351	65.36
256.567	102.23
256.784	26.45
257	51.03
257.217	65.36
257.433	87.89
257.65	42.84
257.866	61.27
258.082	-8.36
258.299	-12.46
258.515	91.99
258.732	67.41
258.948	89.94
259.165	16.21
259.381	34.64
259.597	61.27
259.814	28.5
260.03	26.45
260.246	48.98
260.463	59.22
260.679	118.61
260.895	73.56
261.112	102.23
261.328	55.12
261.544	-4.27
261.761	53.08
261.977	26.45
262.193	38.74
262.409	18.26
262.626	51.03
262.842	48.98
263.058	-57.51
263.274	-4.27
263.49	28.5
263.707	8.02
263.923	42.84
264.139	48.98
264.355	36.69
264.571	106.32
264.787	42.84
265.004	42.84
265.22	22.36
265.436	73.56
265.652	57.17
265.868	30.55
266.084	26.45
266.3	44.88
266.516	110.42
266.732	30.55
266.948	24.4
267.164	28.5
267.38	61.27
267.596	-16.55
267.812	69.46
268.028	67.41
268.244	-20.65
268.46	40.79
268.676	61.27
268.892	51.03
269.108	44.88
269.324	89.94
269.54	-34.99
269.756	24.4
269.972	-59.56
270.188	46.93
270.403	26.45
270.619	85.84
270.835	57.17
271.051	20.31
271.267	-8.36
271.483	38.74
271.698	69.46
271.914	81.75
272.13	75.6
272.346	53.08
272.562	89.94
272.777	51.03
272.993	55.12
273.209	28.5
273.425	30.55
273.64	42.84
273.856	147.28
274.072	-37.03
274.287	30.55
274.503	32.6
274.719	51.03
274.934	-8.36
275.15	28.5
275.366	65.36
275.581	26.45
275.797	24.4
276.012	48.98
276.228	36.69
276.444	57.17
276.659	81.75
276.875	-24.75
277.09	89.94
277.306	85.84
277.521	32.6
277.737	81.75
277.952	-39.08
278.168	24.4
278.383	5.97
278.599	32.6
278.814	75.6
279.03	-8.36
279.245	24.4
279.461	94.04
279.676	5.97
279.892	44.88
280.107	61.27
280.322	36.69
280.538	91.99
280.753	-6.31
280.969	14.17
281.184	-24.75
281.399	114.52
281.615	22.36
281.83	24.4
282.045	16.21
282.26	-24.75
282.476	81.75
282.691	42.84
282.906	163.67
283.122	48.98
283.337	65.36
283.552	73.56
283.767	81.75
283.983	57.17
284.198	75.6
284.413	147.28
284.628	-12.46
284.843	-4.27
285.058	46.93
285.274	28.5
285.489	-4.27
285.704	28.5
285.919	116.56
286.134	12.12
286.349	108.37
286.564	42.84
286.779	116.56
286.995	48.98
287.21	46.93
287.425	81.75
287.64	65.36
287.855	61.27
288.07	-16.55
288.285	114.52
288.5	73.56
288.715	-6.31
288.93	18.26
289.145	16.21
289.36	57.17
289.575	3.93
289.79	94.04
290.004	16.21
290.219	32.6
290.434	44.88
290.649	18.26
290.864	-22.7
291.079	73.56
291.294	106.32
291.509	57.17
291.724	57.17
291.938	48.98
292.153	100.18
292.368	18.26
292.583	132.95
292.798	141.14
293.012	81.75
293.227	1.88
293.442	55.12
293.657	65.36
293.871	112.47
294.086	63.32
294.301	135
294.516	16.21
294.73	-51.37
294.945	-28.84
295.16	57.17
295.374	81.75
295.589	32.6
295.804	10.07
296.018	61.27
296.233	42.84
296.447	53.08
296.662	67.41
296.877	114.52
297.091	34.64
297.306	24.4
297.52	73.56
297.735	63.32
297.949	81.75
298.164	32.6
298.378	59.22
298.593	59.22
298.807	42.84
299.022	98.13
299.236	48.98
299.451	-0.17
299.665	126.8
299.88	75.6
300.094	51.03
300.309	8.02
300.523	1.88
300.737	61.27
300.952	59.22
301.166	42.84
301.381	73.56
301.595	79.7
301.809	44.88
302.024	34.64
302.238	89.94
302.452	53.08
302.667	40.79
302.881	28.5
303.095	63.32
303.309	98.13
303.524	-20.65
303.738	48.98
303.952	98.13
304.166	87.89
304.381	30.55
304.595	81.75
304.809	24.4
305.023	69.46
305.237	-18.6
305.452	48.98
305.666	59.22
305.88	-4.27
306.094	110.42
306.308	85.84
306.522	147.28
306.736	73.56
306.95	-41.13
307.164	89.94
307.379	94.04
307.593	51.03
307.807	-8.36
308.021	44.88
308.235	30.55
308.449	-16.55
308.663	40.79
308.877	98.13
309.091	26.45
309.305	89.94
309.519	-0.17
309.733	75.6
309.947	91.99
310.161	57.17
310.374	32.6
310.588	63.32
310.802	-34.99
311.016	40.79
311.23	-24.75
311.444	40.79
311.658	73.56
311.872	98.13
312.085	53.08
312.299	51.03
312.513	120.66
312.727	102.23
312.941	-0.17
313.154	102.23
313.368	-2.22
313.582	55.12
313.796	40.79
314.009	89.94
314.223	106.32
314.437	48.98
314.651	20.31
314.864	1.88
315.078	73.56
315.292	40.79
315.505	20.31
315.719	73.56
315.933	3.93
316.146	24.4
316.36	71.51
316.573	16.21
316.787	20.31
317.001	24.4
317.214	106.32
317.428	77.65
317.641	51.03
317.855	110.42
318.068	-12.46
318.282	65.36
318.495	98.13
318.709	32.6
318.922	-30.89
319.136	57.17
319.349	110.42
319.563	-63.66
319.776	77.65
319.99	-16.55
320.203	106.32
320.417	110.42
320.63	73.56
320.843	55.12
321.057	42.84
321.27	61.27
321.483	12.12
321.697	46.93
321.91	36.69
322.124	48.98
322.337	73.56
322.55	30.55
322.763	40.79
322.977	91.99
323.19	83.8
323.403	61.27
323.617	98.13
323.83	114.52
324.043	1.88
324.256	51.03
324.469	42.84
324.683	114.52
324.896	18.26
325.109	108.37
325.322	-12.46
325.535	32.6
325.748	77.65
325.962	104.28
326.175	40.79
326.388	20.31
326.601	44.88
326.814	98.13
327.027	135
327.24	91.99
327.453	34.64
327.666	75.6
327.879	5.97
328.092	77.65
328.305	32.6
328.518	16.21
328.731	-6.31
328.944	102.23
329.157	81.75
329.37	-8.36
329.583	91.99
329.796	108.37
330.009	75.6
330.222	106.32
330.435	-10.41
330.648	32.6
330.861	26.45
331.073	53.08
331.286	24.4
331.499	48.98
331.712	8.02
331.925	28.5
332.138	26.45
332.35	32.6
332.563	-53.42
332.776	98.13
332.989	18.26
333.202	81.75
333.414	40.79
333.627	75.6
333.84	67.41
334.053	-6.31
334.265	53.08
334.478	67.41
334.691	75.6
334.903	1.88
335.116	71.51
335.329	44.88
335.541	32.6
335.754	24.4
335.966	20.31
336.179	51.03
336.392	61.27
336.604	-32.94
336.817	106.32
337.029	46.93
337.242	-4.27
337.454	73.56
337.667	106.32
337.88	108.37
338.092	59.22
338.305	-10.41
338.517	30.55
338.729	77.65
338.942	24.4
339.154	73.56
339.367	65.36
339.579	91.99
339.792	10.07
340.004	57.17
340.217	34.64
340.429	26.45
340.641	28.5
340.854	89.94
341.066	87.89
341.278	44.88
341.491	96.08
341.703	51.03
341.915	16.21
342.128	91.99
342.34	104.28
342.552	36.69
342.764	79.7
342.977	67.41
343.189	40.79
343.401	38.74
343.613	16.21
343.826	-14.51
344.038	51.03
344.25	-14.51
344.462	24.4
344.674	26.45
344.886	91.99
345.099	96.08
345.311	38.74
345.523	67.41
345.735	8.02
345.947	63.32
346.159	77.65
346.371	46.93
346.583	81.75
346.795	61.27
347.007	63.32
347.219	53.08
347.431	77.65
347.643	139.09
347.855	51.03
348.067	143.19
348.279	40.79
348.491	75.6
348.703	106.32
348.915	61.27
349.127	26.45
349.339	1.88
349.551	5.97
349.763	32.6
349.975	8.02
350.187	98.13
350.399	130.9
350.61	81.75
350.822	83.8
351.034	48.98
351.246	94.04
351.458	26.45
351.669	124.76
351.881	67.41
352.093	59.22
352.305	89.94
352.517	100.18
352.728	71.51
352.94	24.4
353.152	73.56
353.363	94.04
353.575	118.61
353.787	40.79
353.999	120.66
354.21	87.89
354.422	42.84
354.633	51.03
354.845	77.65
355.057	118.61
355.268	112.47
355.48	91.99
355.692	65.36
355.903	8.02
356.115	65.36
356.326	-2.22
356.538	116.56
356.749	10.07
356.961	42.84
357.172	30.55
357.384	108.37
357.595	108.37
357.807	59.22
358.018	24.4
358.23	73.56
358.441	89.94
358.653	116.56
358.864	83.8
359.075	-12.46
359.287	18.26
359.498	46.93
359.709	53.08
359.921	28.5
360.132	114.52
360.344	16.21
360.555	83.8
360.766	73.56
360.977	59.22
361.189	130.9
361.4	69.46
361.611	51.03
361.823	57.17
362.034	65.36
362.245	28.5
362.456	94.04
362.667	94.04
362.879	48.98
363.09	44.88
363.301	73.56
363.512	24.4
363.723	77.65
363.935	57.17
364.146	102.23
364.357	67.41
364.568	73.56
364.779	-14.51
364.99	71.51
365.201	48.98
365.412	53.08
365.623	63.32
365.834	63.32
366.045	34.64
366.256	59.22
366.467	38.74
366.678	-8.36
366.889	81.75
367.1	40.79
367.311	98.13
367.522	32.6
367.733	79.7
367.944	137.04
368.155	100.18
368.366	87.89
368.577	159.57
368.788	-12.46
368.999	28.5
369.209	65.36
369.42	106.32
369.631	114.52
369.842	77.65
370.053	110.42
370.264	-2.22
370.474	59.22
370.685	26.45
370.896	108.37
371.107	118.61
371.317	110.42
371.528	-6.31
371.739	139.09
371.95	106.32
372.16	32.6
372.371	120.66
372.582	110.42
372.792	106.32
373.003	36.69
373.214	71.51
373.424	26.45
373.635	61.27
373.846	16.21
374.056	42.84
374.267	32.6
374.477	42.84
374.688	114.52
374.898	48.98
375.109	122.71
375.319	89.94
375.53	137.04
375.74	91.99
375.951	98.13
376.161	-0.17
376.372	-8.36
376.582	57.17
376.793	48.98
377.003	61.27
377.214	67.41
377.424	65.36
377.635	94.04
377.845	32.6
378.055	48.98
378.266	114.52
378.476	48.98
378.686	12.12
378.897	40.79
379.107	61.27
379.317	71.51
379.528	36.69
379.738	51.03
379.948	110.42
380.158	34.64
380.369	130.9
380.579	77.65
380.789	48.98
380.999	69.46
381.21	89.94
381.42	96.08
381.63	122.71
381.84	85.84
382.05	26.45
382.261	51.03
382.471	91.99
382.681	1.88
382.891	61.27
383.101	81.75
383.311	16.21
383.521	85.84
383.731	46.93
383.941	124.76
384.151	46.93
384.361	69.46
384.571	114.52
384.781	159.57
384.991	89.94
385.201	89.94
385.411	16.21
385.621	85.84
385.831	30.55
386.041	75.6
386.251	8.02
386.461	61.27
386.671	8.02
386.881	89.94
387.091	44.88
387.301	130.9
387.511	42.84
387.72	12.12
387.93	130.9
388.14	67.41
388.35	81.75
388.56	120.66
388.769	73.56
388.979	147.28
389.189	106.32
389.399	91.99
389.609	122.71
389.818	102.23
390.028	89.94
390.238	67.41
390.447	65.36
390.657	108.37
390.867	34.64
391.076	8.02
391.286	51.03
391.496	110.42
391.705	28.5
391.915	116.56
392.125	46.93
392.334	110.42
392.544	135
392.753	77.65
392.963	22.36
393.172	71.51
393.382	40.79
393.591	98.13
393.801	61.27
394.01	126.8
394.22	44.88
394.429	53.08
394.639	79.7
394.848	114.52
395.058	149.33
395.267	112.47
395.477	61.27
395.686	73.56
395.895	141.14
396.105	212.82
396.314	89.94
396.524	67.41
396.733	94.04
396.942	20.31
397.152	161.62
397.361	147.28
397.57	151.38
397.78	180.05
397.989	110.42
398.198	118.61
398.407	81.75
398.617	106.32
398.826	171.86
399.035	85.84
399.244	83.8
399.453	106.32
399.663	132.95
399.872	104.28
400.081	65.36
400.29	190.29
400.499	81.75
400.708	67.41
400.917	116.56
401.127	120.66
401.336	124.76
401.545	145.24
401.754	75.6
401.963	151.38
402.172	91.99
402.381	100.18
402.59	196.43
402.799	118.61
403.008	196.43
403.217	276.31
403.426	106.32
403.635	106.32
403.844	120.66
404.053	192.34
404.262	196.43
404.471	241.49
404.68	190.29
404.888	173.91
405.097	102.23
405.306	159.57
405.515	241.49
405.724	132.95
405.933	173.91
406.142	184.15
406.35	218.96
406.559	182.1
406.768	216.91
406.977	261.97
407.185	237.39
407.394	221.01
407.603	270.16
407.812	266.07
408.02	288.59
408.229	264.02
408.438	294.74
408.646	243.54
408.855	274.26
409.064	255.83
409.272	261.97
409.481	401.23
409.69	288.59
409.898	270.16
410.107	347.98
410.315	438.09
410.524	347.98
410.733	356.18
410.941	380.75
411.15	417.61
411.358	460.62
411.567	442.19
411.775	384.85
411.984	477.01
412.192	454.48
412.401	405.33
412.609	470.86
412.818	616.27
413.026	548.68
413.234	544.59
413.443	554.83
413.651	558.92
413.86	597.84
414.068	644.94
414.276	655.18
414.485	706.38
414.693	722.76
414.901	794.44
415.11	689.99
415.318	741.19
415.526	808.78
415.734	819.02
415.943	917.32
416.151	933.7
416.359	874.31
416.567	921.42
416.776	993.09
416.984	1072.96
417.192	1062.73
417.4	935.75
417.608	1064.77
417.817	974.66
418.025	1181.51
418.233	1167.17
418.441	1283.91
418.649	1249.09
418.857	1335.1
419.065	1310.53
419.273	1402.69
419.481	1468.22
419.689	1490.75
419.897	1500.99
420.105	1589.05
420.313	1638.2
420.521	1658.68
420.729	1756.99
420.937	1804.09
421.145	1810.23
421.353	1861.43
421.561	2164.53
421.769	1945.4
421.977	2080.57
422.185	1974.07
422.393	2131.76
422.601	2393.9
422.809	2350.9
423.017	2369.33
423.224	2477.87
423.432	2588.46
423.64	2588.46
423.848	2811.69
424.056	2727.72
424.263	2948.9
424.471	2989.86
424.679	2907.94
424.887	3096.36
425.094	3206.95
425.302	3161.89
425.51	3362.59
425.718	3540.77
425.925	3653.41
426.133	3680.03
426.341	3909.4
426.548	4048.66
426.756	3940.12
426.964	3968.79
427.171	4388.63
427.379	4392.72
427.586	4527.89
427.794	4624.14
428.001	4726.54
428.209	5082.89
428.417	4826.89
428.624	5168.9
428.832	5351.17
429.039	5185.29
429.247	5168.9
429.454	5828.35
429.662	6211.32
429.869	5834.49
430.076	6321.91
430.284	6004.47
430.491	6301.43
430.699	6608.62
430.906	6512.37
431.114	6676.21
431.321	6981.35
431.528	7216.87
431.736	7538.4
431.943	7941.85
432.15	7692
432.358	7593.7
432.565	8322.77
432.772	7870.17
432.979	8595.15
433.187	8546
433.394	8638.16
433.601	9350.85
433.808	9510.6
434.016	9172.68
434.223	9596.61
434.43	10100.41
434.637	9967.29
434.844	10704.56
435.052	11042.48
435.259	10827.44
435.466	10841.78
435.673	10571.44
435.88	11404.97
436.087	11998.88
436.294	12041.89
436.501	11746.98
436.708	12119.71
436.915	12367.51
437.122	12834.45
437.329	12797.59
437.537	13332.11
437.743	13584.01
437.95	13479.56
438.157	14122.62
438.364	14708.34
438.571	14548.6
438.778	14476.92
438.985	15924.83
439.192	15191.66
439.399	15930.98
439.606	15261.29
439.813	16318.04
440.02	17442.38
440.227	17307.21
440.433	17071.7
440.64	17475.15
440.847	17292.88
441.054	17944.13
441.261	19009.08
441.467	18447.93
441.674	18783.8
441.881	19705.38
442.088	19609.13
442.294	19457.58
442.501	19985.96
442.708	20436.51
442.914	21241.36
443.121	22060.55
443.328	21610
443.534	23066.1
443.741	22267.39
443.948	21902.86
444.154	23621.1
444.361	23645.68
444.568	23369.2
444.774	23621.1
444.981	23739.88
445.187	24829.4
445.394	25374.16
445.6	25251.28
445.807	27452.85
446.013	26488.26
446.22	26807.74
446.426	28054.95
446.633	28048.81
446.839	29175.19
447.046	28118.44
447.252	29590.93
447.459	29523.35
447.665	29353.37
447.871	30688.64
448.078	31540.6
448.284	30418.31
448.491	31501.68
448.697	32716.13
448.903	32890.21
449.11	33168.73
449.316	32591.2
449.522	33158.49
449.728	34231.63
449.935	34045.26
450.141	34215.24
450.347	34766.15
450.553	34209.1
450.76	34344.27
450.966	35605.81
451.172	35597.62
451.378	36281.64
451.584	35536.18
451.791	36365.61
451.997	35847.47
452.203	36762.92
452.409	36896.03
452.615	36560.17
452.821	35331.39
453.027	35097.92
453.233	36881.7
453.44	35157.31
453.646	35749.17
453.852	36293.93
454.058	36838.69
454.264	35294.52
454.47	36205.87
454.676	35218.75
454.882	36681
455.088	33260.89
455.294	33996.11
455.5	34680.13
455.705	34690.37
455.911	33486.17
456.117	32699.75
456.323	32210.28
456.529	30551.43
456.735	32163.18
456.941	31526.26
457.147	30901.63
457.352	29828.49
457.558	29699.47
457.764	29793.68
457.97	29111.71
458.176	28695.97
458.381	28360.1
458.587	26760.64
458.793	27057.59
458.999	25753.04
459.204	27426.23
459.41	26441.15
459.616	25003.48
459.821	25191.89
460.027	24958.42
460.233	24708.57
460.438	23217.65
460.644	23565.81
460.85	22758.91
461.055	22300.16
461.261	21958.15
461.466	20549.15
461.672	20180.51
461.878	21448.21
462.083	19998.24
462.289	19344.94
462.494	19172.91
462.7	18388.54
462.905	18056.77
463.111	18660.92
463.316	18757.18
463.522	18263.61
463.727	18312.77
463.932	18169.41
464.138	17999.43
464.343	18105.92
464.549	17415.76
464.754	18026.05
464.959	17942.08
465.165	17917.51
465.37	17223.25
465.575	16897.62
465.781	17413.71
465.986	17706.57
466.191	17038.93
466.397	16604.76
466.602	15769.19
466.807	16535.13
467.012	16408.15
467.218	16338.52
467.423	16223.84
467.628	15943.27
