Data from USB4F104151__283__14-23-31-542.txt Node

Date: Thu Mar 13 14:23:31 EDT 2025
User: louis
Spectrometer: USB4F10415
Trigger mode: 4
Integration Time (sec): 2.000000E-2
Scans to average: 1
Electric dark correction enabled: true
Nonlinearity correction enabled: false
Boxcar width: 0
XAxis mode: Wavelengths
Number of Pixels in Spectrum: 3648
>>>>>Begin Spectral Data<<<<<
178.204	-121.17
178.424	-121.17
178.644	-121.17
178.864	-110.93
179.084	-76.12
179.304	3.75
179.524	-39.25
179.744	11.95
179.964	-94.55
180.184	22.19
180.404	-78.16
180.624	54.95
180.844	-4.44
181.064	20.14
181.283	83.63
181.503	-14.68
181.723	34.47
181.943	-108.88
182.163	118.44
182.383	46.76
182.602	34.47
182.822	11.95
183.042	18.09
183.262	50.86
183.482	83.63
183.701	-72.02
183.921	34.47
184.141	-6.49
184.361	75.43
184.58	50.86
184.8	75.43
185.02	34.47
185.239	71.34
185.459	-4.44
185.679	85.67
185.898	-24.92
186.118	28.33
186.338	67.24
186.557	38.57
186.777	-31.06
186.997	20.14
187.216	9.9
187.436	61.1
187.655	11.95
187.875	61.1
188.095	122.54
188.314	22.19
188.534	79.53
188.753	-4.44
188.973	22.19
189.192	42.67
189.412	-31.06
189.631	54.95
189.851	85.67
190.07	75.43
190.29	-20.82
190.509	-16.73
190.729	79.53
190.948	59.05
191.168	116.39
191.387	44.71
191.607	26.28
191.826	61.1
192.045	46.76
192.265	83.63
192.484	30.38
192.704	-4.44
192.923	-8.53
193.142	26.28
193.362	18.09
193.581	95.91
193.8	28.33
194.02	46.76
194.239	61.1
194.458	-4.44
194.678	3.75
194.897	67.24
195.116	16.04
195.335	34.47
195.555	34.47
195.774	26.28
195.993	18.09
196.212	18.09
196.432	-31.06
196.651	67.24
196.87	-47.44
197.089	-0.34
197.308	7.85
197.528	18.09
197.747	-12.63
197.966	-55.64
198.185	48.81
198.404	-29.01
198.623	61.1
198.842	75.43
199.062	-6.49
199.281	108.2
199.5	20.14
199.719	36.52
199.938	20.14
200.157	34.47
200.376	-6.49
200.595	108.2
200.814	81.58
201.033	67.24
201.252	-24.92
201.471	-43.35
201.69	110.25
201.909	7.85
202.128	-14.68
202.347	20.14
202.566	-8.53
202.785	-18.77
203.004	67.24
203.223	143.02
203.442	83.63
203.661	67.24
203.879	-12.63
204.098	-20.82
204.317	71.34
204.536	42.67
204.755	73.39
204.974	54.95
205.193	59.05
205.411	165.54
205.63	114.34
205.849	85.67
206.068	3.75
206.287	83.63
206.505	-6.49
206.724	116.39
206.943	32.43
207.162	26.28
207.381	38.57
207.599	34.47
207.818	59.05
208.037	18.09
208.255	91.82
208.474	108.2
208.693	9.9
208.911	-12.63
209.13	46.76
209.349	124.58
209.567	67.24
209.786	83.63
210.005	-8.53
210.223	5.8
210.442	42.67
210.661	28.33
210.879	3.75
211.098	-22.87
211.316	42.67
211.535	38.57
211.753	50.86
211.972	34.47
212.191	-2.39
212.409	46.76
212.628	75.43
212.846	3.75
213.065	13.99
213.283	75.43
213.502	13.99
213.72	18.09
213.938	28.33
214.157	16.04
214.375	61.1
214.594	34.47
214.812	91.82
215.031	16.04
215.249	28.33
215.467	61.1
215.686	83.63
215.904	38.57
216.122	22.19
216.341	54.95
216.559	67.24
216.778	40.62
216.996	1.71
217.214	85.67
217.432	28.33
217.651	38.57
217.869	100.01
218.087	-4.44
218.306	42.67
218.524	54.95
218.742	9.9
218.96	75.43
219.179	-63.83
219.397	112.3
219.615	1.71
219.833	69.29
220.051	-22.87
220.27	83.63
220.488	34.47
220.706	9.9
220.924	44.71
221.142	-16.73
221.36	67.24
221.578	73.39
221.796	40.62
222.015	-12.63
222.233	11.95
222.451	108.2
222.669	18.09
222.887	151.21
223.105	5.8
223.323	44.71
223.541	1.71
223.759	124.58
223.977	54.95
224.195	104.11
224.413	-6.49
224.631	18.09
224.849	61.1
225.067	71.34
225.285	9.9
225.503	77.48
225.721	-4.44
225.939	1.71
226.157	69.29
226.375	65.19
226.592	18.09
226.81	59.05
227.028	65.19
227.246	93.87
227.464	-41.3
227.682	26.28
227.9	63.15
228.117	34.47
228.335	34.47
228.553	-6.49
228.771	44.71
228.989	28.33
229.206	87.72
229.424	54.95
229.642	-6.49
229.86	34.47
230.077	91.82
230.295	50.86
230.513	7.85
230.731	26.28
230.948	22.19
231.166	114.34
231.384	9.9
231.601	18.09
231.819	59.05
232.037	-14.68
232.254	22.19
232.472	108.2
232.689	1.71
232.907	89.77
233.125	34.47
233.342	22.19
233.56	83.63
233.777	69.29
233.995	73.39
234.213	77.48
234.43	54.95
234.648	20.14
234.865	83.63
235.083	20.14
235.3	34.47
235.518	36.52
235.735	28.33
235.953	102.06
236.17	52.91
236.388	75.43
236.605	50.86
236.822	63.15
237.04	57
237.257	75.43
237.475	-12.63
237.692	42.67
237.909	20.14
238.127	32.43
238.344	83.63
238.562	30.38
238.779	-20.82
238.996	20.14
239.214	-18.77
239.431	36.52
239.648	89.77
239.865	32.43
240.083	18.09
240.3	120.49
240.517	36.52
240.735	44.71
240.952	75.43
241.169	83.63
241.386	26.28
241.603	54.95
241.821	-18.77
242.038	83.63
242.255	26.28
242.472	28.33
242.689	1.71
242.907	59.05
243.124	-22.87
243.341	75.43
243.558	28.33
243.775	-10.58
243.992	40.62
244.209	9.9
244.426	93.87
244.643	79.53
244.86	-12.63
245.078	5.8
245.295	26.28
245.512	83.63
245.729	93.87
245.946	44.71
246.163	57
246.38	-2.39
246.597	50.86
246.814	63.15
247.031	50.86
247.248	42.67
247.464	-6.49
247.681	13.99
247.898	67.24
248.115	116.39
248.332	9.9
248.549	11.95
248.766	95.91
248.983	63.15
249.2	36.52
249.417	34.47
249.633	34.47
249.85	52.91
250.067	22.19
250.284	11.95
250.501	75.43
250.717	59.05
250.934	77.48
251.151	1.71
251.368	-4.44
251.585	116.39
251.801	46.76
252.018	9.9
252.235	5.8
252.451	18.09
252.668	20.14
252.885	134.82
253.102	34.47
253.318	75.43
253.535	-12.63
253.752	11.95
253.968	-6.49
254.185	-0.34
254.401	-24.92
254.618	79.53
254.835	59.05
255.051	67.24
255.268	81.58
255.484	-43.35
255.701	67.24
255.917	75.43
256.134	-12.63
256.351	54.95
256.567	-39.25
256.784	50.86
257	-26.96
257.217	93.87
257.433	71.34
257.65	42.67
257.866	7.85
258.082	-20.82
258.299	50.86
258.515	61.1
258.732	18.09
258.948	26.28
259.165	97.96
259.381	73.39
259.597	108.2
259.814	5.8
260.03	34.47
260.246	69.29
260.463	22.19
260.679	151.21
260.895	38.57
261.112	22.19
261.328	104.11
261.544	-26.96
261.761	157.35
261.977	52.91
262.193	22.19
262.409	61.1
262.626	116.39
262.842	83.63
263.058	-43.35
263.274	26.28
263.49	36.52
263.707	73.39
263.923	11.95
264.139	9.9
264.355	32.43
264.571	108.2
264.787	28.33
265.004	77.48
265.22	44.71
265.436	26.28
265.652	61.1
265.868	44.71
266.084	-22.87
266.3	75.43
266.516	-2.39
266.732	9.9
266.948	50.86
267.164	118.44
267.38	69.29
267.596	73.39
267.812	67.24
268.028	104.11
268.244	20.14
268.46	89.77
268.676	83.63
268.892	-10.58
269.108	-22.87
269.324	18.09
269.54	-41.3
269.756	120.49
269.972	-2.39
270.188	9.9
270.403	54.95
270.619	50.86
270.835	-10.58
271.051	46.76
271.267	13.99
271.483	9.9
271.698	5.8
271.914	22.19
272.13	89.77
272.346	-12.63
272.562	7.85
272.777	100.01
272.993	-39.25
273.209	106.15
273.425	71.34
273.64	50.86
273.856	42.67
274.072	50.86
274.287	9.9
274.503	50.86
274.719	112.3
274.934	18.09
275.15	-10.58
275.366	1.71
275.581	36.52
275.797	18.09
276.012	22.19
276.228	28.33
276.444	13.99
276.659	71.34
276.875	-74.07
277.09	42.67
277.306	28.33
277.521	44.71
277.737	85.67
277.952	75.43
278.168	38.57
278.383	11.95
278.599	46.76
278.814	-67.92
279.03	7.85
279.245	61.1
279.461	22.19
279.676	91.82
279.892	63.15
280.107	67.24
280.322	30.38
280.538	63.15
280.753	-10.58
280.969	-61.78
281.184	9.9
281.399	26.28
281.615	24.23
281.83	50.86
282.045	-18.77
282.26	11.95
282.476	50.86
282.691	110.25
282.906	67.24
283.122	77.48
283.337	11.95
283.552	18.09
283.767	52.91
283.983	48.81
284.198	22.19
284.413	42.67
284.628	-0.34
284.843	77.48
285.058	95.91
285.274	28.33
285.489	54.95
285.704	118.44
285.919	22.19
286.134	38.57
286.349	26.28
286.564	83.63
286.779	85.67
286.995	9.9
287.21	-29.01
287.425	59.05
287.64	-72.02
287.855	91.82
288.07	11.95
288.285	93.87
288.5	69.29
288.715	50.86
288.93	59.05
289.145	36.52
289.36	-14.68
289.575	42.67
289.79	65.19
290.004	34.47
290.219	22.19
290.434	-6.49
290.649	-22.87
290.864	59.05
291.079	61.1
291.294	83.63
291.509	61.1
291.724	54.95
291.938	20.14
292.153	18.09
292.368	9.9
292.583	75.43
292.798	20.14
293.012	11.95
293.227	26.28
293.442	83.63
293.657	42.67
293.871	26.28
294.086	69.29
294.301	91.82
294.516	36.52
294.73	18.09
294.945	-8.53
295.16	93.87
295.374	46.76
295.589	18.09
295.804	-14.68
296.018	71.34
296.233	46.76
296.447	54.95
296.662	28.33
296.877	46.76
297.091	44.71
297.306	75.43
297.52	-14.68
297.735	18.09
297.949	-6.49
298.164	9.9
298.378	-33.11
298.593	57
298.807	11.95
299.022	67.24
299.236	18.09
299.451	136.87
299.665	24.23
299.88	79.53
300.094	50.86
300.309	13.99
300.523	42.67
300.737	42.67
300.952	69.29
301.166	32.43
301.381	91.82
301.595	75.43
301.809	91.82
302.024	42.67
302.238	22.19
302.452	50.86
302.667	112.3
302.881	108.2
303.095	9.9
303.309	89.77
303.524	34.47
303.738	50.86
303.952	20.14
304.166	54.95
304.381	-61.78
304.595	61.1
304.809	28.33
305.023	59.05
305.237	-6.49
305.452	87.72
305.666	-33.11
305.88	9.9
306.094	28.33
306.308	52.91
306.522	108.2
306.736	59.05
306.95	59.05
307.164	18.09
307.379	34.47
307.593	95.91
307.807	114.34
308.021	77.48
308.235	50.86
308.449	13.99
308.663	75.43
308.877	24.23
309.091	-22.87
309.305	34.47
309.519	-14.68
309.733	95.91
309.947	-12.63
310.161	22.19
310.374	46.76
310.588	1.71
310.802	9.9
311.016	5.8
311.23	69.29
311.444	145.06
311.658	22.19
311.872	71.34
312.085	50.86
312.299	69.29
312.513	36.52
312.727	59.05
312.941	3.75
313.154	-35.16
313.368	13.99
313.582	-6.49
313.796	34.47
314.009	22.19
314.223	9.9
314.437	108.2
314.651	61.1
314.864	44.71
315.078	34.47
315.292	-26.96
315.505	28.33
315.719	61.1
315.933	116.39
316.146	36.52
316.36	-43.35
316.573	100.01
316.787	116.39
317.001	95.91
317.214	34.47
317.428	-10.58
317.641	34.47
317.855	77.48
318.068	83.63
318.282	20.14
318.495	136.87
318.709	20.14
318.922	102.06
319.136	65.19
319.349	38.57
319.563	22.19
319.776	83.63
319.99	-22.87
320.203	85.67
320.417	77.48
320.63	54.95
320.843	140.97
321.057	34.47
321.27	34.47
321.483	16.04
321.697	85.67
321.91	67.24
322.124	34.47
322.337	-41.3
322.55	52.91
322.763	44.71
322.977	24.23
323.19	34.47
323.403	87.72
323.617	75.43
323.83	93.87
324.043	22.19
324.256	42.67
324.469	75.43
324.683	124.58
324.896	11.95
325.109	59.05
325.322	-12.63
325.535	181.93
325.748	46.76
325.962	1.71
326.175	13.99
326.388	9.9
326.601	3.75
326.814	54.95
327.027	28.33
327.24	126.63
327.453	91.82
327.666	108.2
327.879	26.28
328.092	57
328.305	54.95
328.518	-29.01
328.731	61.1
328.944	79.53
329.157	18.09
329.37	1.71
329.583	30.38
329.796	145.06
330.009	42.67
330.222	1.71
330.435	87.72
330.648	100.01
330.861	61.1
331.073	85.67
331.286	63.15
331.499	34.47
331.712	16.04
331.925	52.91
332.138	32.43
332.35	134.82
332.563	38.57
332.776	44.71
332.989	77.48
333.202	34.47
333.414	32.43
333.627	46.76
333.84	59.05
334.053	116.39
334.265	57
334.478	52.91
334.691	40.62
334.903	26.28
335.116	75.43
335.329	108.2
335.541	42.67
335.754	67.24
335.966	32.43
336.179	-12.63
336.392	36.52
336.604	20.14
336.817	85.67
337.029	-20.82
337.242	71.34
337.454	38.57
337.667	40.62
337.88	52.91
338.092	28.33
338.305	93.87
338.517	13.99
338.729	1.71
338.942	95.91
339.154	32.43
339.367	18.09
339.579	11.95
339.792	-14.68
340.004	132.78
340.217	-20.82
340.429	5.8
340.641	1.71
340.854	5.8
341.066	95.91
341.278	50.86
341.491	-6.49
341.703	91.82
341.915	9.9
342.128	18.09
342.34	28.33
342.552	26.28
342.764	36.52
342.977	93.87
343.189	26.28
343.401	34.47
343.613	11.95
343.826	61.1
344.038	11.95
344.25	50.86
344.462	34.47
344.674	59.05
344.886	13.99
345.099	100.01
345.311	81.58
345.523	7.85
345.735	-6.49
345.947	50.86
346.159	-0.34
346.371	34.47
346.583	44.71
346.795	140.97
347.007	16.04
347.219	67.24
347.431	71.34
347.643	59.05
347.855	81.58
348.067	22.19
348.279	-6.49
348.491	34.47
348.703	42.67
348.915	26.28
349.127	83.63
349.339	46.76
349.551	50.86
349.763	26.28
349.975	1.71
350.187	93.87
350.399	83.63
350.61	116.39
350.822	26.28
351.034	67.24
351.246	46.76
351.458	73.39
351.669	79.53
351.881	85.67
352.093	52.91
352.305	18.09
352.517	57
352.728	143.02
352.94	110.25
353.152	52.91
353.363	61.1
353.575	54.95
353.787	83.63
353.999	1.71
354.21	120.49
354.422	75.43
354.633	-6.49
354.845	-0.34
355.057	44.71
355.268	22.19
355.48	26.28
355.692	54.95
355.903	79.53
356.115	95.91
356.326	48.81
356.538	73.39
356.749	61.1
356.961	112.3
357.172	48.81
357.384	54.95
357.595	120.49
357.807	-31.06
358.018	46.76
358.23	-2.39
358.441	118.44
358.653	59.05
358.864	-0.34
359.075	77.48
359.287	63.15
359.498	30.38
359.709	-14.68
359.921	151.21
360.132	83.63
360.344	44.71
360.555	30.38
360.766	87.72
360.977	30.38
361.189	63.15
361.4	93.87
361.611	128.68
361.823	-18.77
362.034	-2.39
362.245	1.71
362.456	-4.44
362.667	1.71
362.879	52.91
363.09	136.87
363.301	28.33
363.512	73.39
363.723	18.09
363.935	46.76
364.146	52.91
364.357	77.48
364.568	32.43
364.779	38.57
364.99	1.71
365.201	50.86
365.412	36.52
365.623	61.1
365.834	38.57
366.045	26.28
366.256	87.72
366.467	54.95
366.678	3.75
366.889	11.95
367.1	13.99
367.311	61.1
367.522	24.23
367.733	102.06
367.944	128.68
368.155	102.06
368.366	140.97
368.577	116.39
368.788	91.82
368.999	18.09
369.209	149.16
369.42	100.01
369.631	83.63
369.842	112.3
370.053	13.99
370.264	44.71
370.474	38.57
370.685	22.19
370.896	75.43
371.107	134.82
371.317	83.63
371.528	36.52
371.739	116.39
371.95	42.67
372.16	157.35
372.371	50.86
372.582	67.24
372.792	42.67
373.003	18.09
373.214	20.14
373.424	71.34
373.635	22.19
373.846	89.77
374.056	69.29
374.267	77.48
374.477	67.24
374.688	61.1
374.898	50.86
375.109	42.67
375.319	20.14
375.53	175.78
375.74	50.86
375.951	26.28
376.161	71.34
376.372	112.3
376.582	-6.49
376.793	40.62
377.003	50.86
377.214	26.28
377.424	81.58
377.635	63.15
377.845	46.76
378.055	192.17
378.266	44.71
378.476	100.01
378.686	67.24
378.897	28.33
379.107	77.48
379.317	63.15
379.528	73.39
379.738	91.82
379.948	30.38
380.158	104.11
380.369	89.77
380.579	32.43
380.789	34.47
380.999	79.53
381.21	40.62
381.42	93.87
381.63	32.43
381.84	112.3
382.05	73.39
382.261	44.71
382.471	124.58
382.681	22.19
382.891	91.82
383.101	63.15
383.311	-22.87
383.521	67.24
383.731	79.53
383.941	30.38
384.151	63.15
384.361	36.52
384.571	61.1
384.781	83.63
384.991	128.68
385.201	77.48
385.411	124.58
385.621	65.19
385.831	20.14
386.041	54.95
386.251	97.96
386.461	26.28
386.671	13.99
386.881	93.87
387.091	57
387.301	89.77
387.511	36.52
387.72	54.95
387.93	73.39
388.14	3.75
388.35	59.05
388.56	28.33
388.769	26.28
388.979	44.71
389.189	18.09
389.399	-6.49
389.609	63.15
389.818	85.67
390.028	95.91
390.238	100.01
390.447	100.01
390.657	87.72
390.867	50.86
391.076	44.71
391.286	61.1
391.496	77.48
391.705	44.71
391.915	28.33
392.125	151.21
392.334	118.44
392.544	50.86
392.753	-6.49
392.963	67.24
393.172	104.11
393.382	9.9
393.591	50.86
393.801	97.96
394.01	112.3
394.22	79.53
394.429	48.81
394.639	106.15
394.848	95.91
395.058	85.67
395.267	46.76
395.477	151.21
395.686	132.78
395.895	153.26
396.105	126.63
396.314	106.15
396.524	153.26
396.733	52.91
396.942	100.01
397.152	106.15
397.361	22.19
397.57	73.39
397.78	75.43
397.989	126.63
398.198	196.26
398.407	69.29
398.617	110.25
398.826	44.71
399.035	85.67
399.244	97.96
399.453	118.44
399.663	210.6
399.872	181.93
400.081	126.63
400.29	89.77
400.499	153.26
400.708	145.06
400.917	97.96
401.127	108.2
401.336	151.21
401.545	165.54
401.754	122.54
401.963	175.78
402.172	75.43
402.381	36.52
402.59	124.58
402.799	143.02
403.008	147.11
403.217	190.12
403.426	116.39
403.635	116.39
403.844	130.73
404.053	186.02
404.262	120.49
404.471	233.13
404.68	120.49
404.888	159.4
405.097	183.98
405.306	124.58
405.515	153.26
405.724	165.54
405.933	190.12
406.142	110.25
406.35	206.5
406.559	181.93
406.768	243.37
406.977	308.9
407.185	194.22
407.394	290.47
407.603	171.69
407.812	231.08
408.02	222.89
408.229	229.03
408.438	247.46
408.646	263.85
408.855	300.71
409.064	278.18
409.272	235.18
409.481	394.92
409.69	265.89
409.898	302.76
410.107	413.35
410.315	444.07
410.524	282.28
410.733	364.2
410.941	382.63
411.15	411.3
411.358	378.53
411.567	485.03
411.775	427.68
411.984	429.73
412.192	468.64
412.401	399.01
412.609	499.36
412.818	476.84
413.026	583.33
413.234	558.75
413.443	603.81
413.651	579.23
413.86	573.09
414.068	708.26
414.276	673.44
414.485	591.52
414.693	732.83
414.901	796.32
415.11	796.32
415.318	741.02
415.526	771.74
415.734	841.37
415.943	904.86
416.151	812.7
416.359	847.52
416.567	954.01
416.776	1007.26
416.984	1011.36
417.192	1060.51
417.4	1101.47
417.608	1066.65
417.817	1156.76
418.025	1025.69
418.233	1205.91
418.441	1150.62
418.649	1218.2
418.857	1332.89
419.065	1459.86
419.273	1418.9
419.481	1459.86
419.689	1515.16
419.897	1552.02
420.105	1584.79
420.313	1545.88
420.521	1775.25
420.729	1726.1
420.937	1863.31
421.145	1836.69
421.353	1932.94
421.561	2068.11
421.769	2004.62
421.977	2068.11
422.185	2178.7
422.393	2328.2
422.601	2338.44
422.809	2311.82
423.017	2446.98
423.224	2475.65
423.432	2555.52
423.64	2631.3
423.848	2737.79
424.056	2834.05
424.263	3057.28
424.471	2950.78
424.679	3114.62
424.887	3262.07
425.094	3174.01
425.302	3274.36
425.51	3341.94
425.718	3583.6
425.925	3597.94
426.133	3487.35
426.341	4001.39
426.548	4023.92
426.756	4066.92
426.964	4044.4
427.171	4441.7
427.379	4531.81
427.586	4515.43
427.794	4693.6
428.001	4908.64
428.209	5154.4
428.417	4951.65
428.624	5248.6
428.832	5416.54
429.039	5351
429.247	5391.96
429.454	5901.9
429.662	6407.75
429.869	5928.53
430.076	6327.88
430.284	6182.48
430.491	6250.06
430.699	6645.32
430.906	6682.18
431.114	6792.77
431.321	7165.5
431.528	7249.47
431.736	7720.5
431.943	8033.84
432.15	7775.8
432.358	7769.65
432.565	8230.45
432.772	8228.4
432.979	8670.76
433.187	8803.88
433.394	8898.08
433.601	9485.85
433.808	9481.75
434.016	9434.65
434.223	9864.72
434.43	10346
434.637	10251.79
434.844	10972.68
435.052	10882.56
435.259	11113.99
435.466	10974.72
435.673	10929.67
435.88	11558.39
436.087	12203.5
436.294	12264.94
436.501	12019.19
436.708	12348.91
436.915	12711.4
437.122	13145.57
437.329	13184.48
437.537	13737.43
437.743	13653.47
437.95	13723.1
438.157	14542.28
438.364	14996.93
438.571	14699.98
438.778	14968.26
438.985	16207.28
439.192	15746.49
439.399	16096.69
439.606	15998.39
439.813	16676.27
440.02	17827.23
440.227	17474.98
440.433	17360.29
440.64	17896.86
440.847	17835.42
441.054	18023.83
441.261	19496.32
441.467	19148.17
441.674	19312
441.881	20278.65
442.088	20325.75
442.294	19842.43
442.501	20583.79
442.708	21187.94
442.914	21818.72
443.121	22613.33
443.328	21841.25
443.534	23409.99
443.741	23100.75
443.948	22510.93
444.154	24220.99
444.361	24089.92
444.568	24149.31
444.774	24100.15
444.981	24288.57
445.187	25175.34
445.394	26365.21
445.6	25752.87
445.807	28404.99
446.013	26950.93
446.22	27727.11
446.426	28667.13
446.633	29076.72
446.839	29908.19
447.046	28802.29
447.252	30432.47
447.459	30348.51
447.665	30332.12
447.871	31827.14
448.078	33047.73
448.284	31440.07
448.491	32363.71
448.697	33295.53
448.903	34047.14
449.11	34032.8
449.316	33490.09
449.522	34016.42
449.728	35034.26
449.935	35579.02
450.141	35009.68
450.347	35992.71
450.553	34972.82
450.76	35533.96
450.966	36908.15
451.172	36099.2
451.378	37262.45
451.584	36248.71
451.791	37192.82
451.997	37131.38
452.203	38112.36
452.409	37645.42
452.615	38030.44
452.821	36148.36
453.027	36277.38
453.233	38104.17
453.44	36478.08
453.646	36891.77
453.852	36906.1
454.058	37538.93
454.264	36789.37
454.47	37440.62
454.676	36383.87
454.882	37813.35
455.088	34462.88
455.294	35200.15
455.5	35677.32
455.705	35640.46
455.911	34352.29
456.117	33983.65
456.323	33430.7
456.529	31495.37
456.735	33197.23
456.941	32416.96
457.147	31868.1
457.352	30917.84
457.558	29988.07
457.764	30702.81
457.97	29940.96
458.176	29183.21
458.381	29627.62
458.587	27849.99
458.793	28056.83
458.999	26594.58
459.204	28673.27
459.41	27467.02
459.616	26035.49
459.821	26008.86
460.027	26162.46
460.233	25453.86
460.438	24141.11
460.644	24284.47
460.85	23108.94
461.055	22850.89
461.261	22863.18
461.466	21382.5
461.672	20366.71
461.878	22041.95
462.083	20366.71
462.289	20325.75
462.494	20202.87
462.7	19039.62
462.905	18660.75
463.111	19277.19
463.316	19367.3
463.522	18730.38
463.727	18797.96
463.932	18877.83
464.138	18804.11
464.343	18482.58
464.549	18111.89
464.754	18955.66
464.959	18658.7
465.165	18533.78
465.37	17671.58
465.575	17221.03
465.781	17960.34
465.986	18224.53
466.191	17362.34
466.397	16991.66
466.602	16274.87
466.807	16723.37
467.012	16498.09
467.218	16926.12
467.423	16823.72
467.628	16608.69
