Data from USB4F104151__38__14-16-40-768.txt Node

Date: Thu Mar 13 14:16:40 EDT 2025
User: louis
Spectrometer: USB4F10415
Trigger mode: 4
Integration Time (sec): 2.000000E-2
Scans to average: 1
Electric dark correction enabled: true
Nonlinearity correction enabled: false
Boxcar width: 0
XAxis mode: Wavelengths
Number of Pixels in Spectrum: 3648
>>>>>Begin Spectral Data<<<<<
178.204	-91.48
178.424	-91.48
178.644	-91.48
178.864	-103.76
179.084	-107.86
179.304	-5.46
179.524	-50.52
179.744	-50.52
179.964	84.65
180.184	15.02
180.404	27.31
180.624	51.88
180.844	-40.28
181.064	-32.08
181.283	-13.65
181.503	-58.71
181.723	72.36
181.943	10.92
182.163	47.79
182.383	12.97
182.602	51.88
182.822	39.59
183.042	29.35
183.262	33.45
183.482	2.73
183.701	-3.41
183.921	64.17
184.141	-56.66
184.361	-19.8
184.58	45.74
184.8	-38.23
185.02	-40.28
185.239	39.59
185.459	55.98
185.679	31.4
185.898	25.26
186.118	-32.08
186.338	23.21
186.557	64.17
186.777	27.31
186.997	66.22
187.216	23.21
187.436	35.5
187.655	-23.89
187.875	55.98
188.095	-5.46
188.314	45.74
188.534	27.31
188.753	58.03
188.973	15.02
189.192	62.12
189.412	98.99
189.631	84.65
189.851	60.07
190.07	39.59
190.29	-25.94
190.509	10.92
190.729	-19.8
190.948	-13.65
191.168	101.03
191.387	121.51
191.607	-42.32
191.826	19.11
192.045	6.83
192.265	6.83
192.484	74.41
192.704	39.59
192.923	-5.46
193.142	72.36
193.362	27.31
193.581	25.26
193.8	15.02
194.02	21.16
194.239	43.69
194.458	39.59
194.678	19.11
194.897	-5.46
195.116	-54.61
195.335	-9.56
195.555	-13.65
195.774	72.36
195.993	27.31
196.212	-34.13
196.432	-1.37
196.651	39.59
196.87	51.88
197.089	103.08
197.308	39.59
197.528	105.13
197.747	-30.04
197.966	-5.46
198.185	64.17
198.404	-34.13
198.623	47.79
198.842	80.55
199.062	90.79
199.281	0.68
199.5	-17.75
199.719	86.7
199.938	121.51
200.157	49.83
200.376	25.26
200.595	35.5
200.814	64.17
201.033	64.17
201.252	103.08
201.471	-34.13
201.69	115.37
201.909	47.79
202.128	-30.04
202.347	15.02
202.566	21.16
202.785	-13.65
203.004	23.21
203.223	49.83
203.442	51.88
203.661	12.97
203.879	19.11
204.098	45.74
204.317	23.21
204.536	74.41
204.755	47.79
204.974	58.03
205.193	23.21
205.411	72.36
205.63	53.93
205.849	96.94
206.068	-83.28
206.287	-58.71
206.505	55.98
206.724	51.88
206.943	6.83
207.162	90.79
207.381	45.74
207.599	17.07
207.818	47.79
208.037	43.69
208.255	23.21
208.474	12.97
208.693	70.31
208.911	17.07
209.13	-9.56
209.349	6.83
209.567	17.07
209.786	74.41
210.005	27.31
210.223	39.59
210.442	0.68
210.661	41.64
210.879	33.45
211.098	-32.08
211.316	49.83
211.535	55.98
211.753	105.13
211.972	6.83
212.191	-3.41
212.409	68.27
212.628	6.83
212.846	-42.32
213.065	-64.85
213.283	111.27
213.502	55.98
213.72	39.59
213.938	-19.8
214.157	4.78
214.375	94.89
214.594	39.59
214.812	-11.61
215.031	25.26
215.249	12.97
215.467	47.79
215.686	-17.75
215.904	74.41
216.122	78.51
216.341	51.88
216.559	76.46
216.778	-1.37
216.996	80.55
217.214	23.21
217.432	6.83
217.651	-9.56
217.869	23.21
218.087	35.5
218.306	-21.84
218.524	88.75
218.742	15.02
218.96	10.92
219.179	8.87
219.397	-13.65
219.615	82.6
219.833	25.26
220.051	-5.46
220.27	55.98
220.488	23.21
220.706	10.92
220.924	-5.46
221.142	-9.56
221.36	94.89
221.578	8.87
221.796	80.55
222.015	-30.04
222.233	23.21
222.451	98.99
222.669	-105.81
222.887	41.64
223.105	6.83
223.323	31.4
223.541	29.35
223.759	43.69
223.977	47.79
224.195	88.75
224.413	72.36
224.631	2.73
224.849	6.83
225.067	0.68
225.285	84.65
225.503	47.79
225.721	-1.37
225.939	-7.51
226.157	58.03
226.375	31.4
226.592	35.5
226.81	53.93
227.028	78.51
227.246	23.21
227.464	-9.56
227.682	64.17
227.9	76.46
228.117	0.68
228.335	19.11
228.553	2.73
228.771	15.02
228.989	37.55
229.206	119.46
229.424	-21.84
229.642	0.68
229.86	-56.66
230.077	49.83
230.295	55.98
230.513	25.26
230.731	68.27
230.948	125.61
231.166	47.79
231.384	51.88
231.601	-34.13
231.819	88.75
232.037	-15.7
232.254	39.59
232.472	31.4
232.689	58.03
232.907	39.59
233.125	25.26
233.342	43.69
233.56	-13.65
233.777	-9.56
233.995	47.79
234.213	47.79
234.43	37.55
234.648	21.16
234.865	-21.84
235.083	47.79
235.3	23.21
235.518	72.36
235.735	47.79
235.953	98.99
236.17	-34.13
236.388	-30.04
236.605	-15.7
236.822	62.12
237.04	-13.65
237.257	23.21
237.475	55.98
237.692	37.55
237.909	-17.75
238.127	35.5
238.344	41.64
238.562	51.88
238.779	-15.7
238.996	21.16
239.214	-42.32
239.431	2.73
239.648	35.5
239.865	25.26
240.083	-1.37
240.3	10.92
240.517	15.02
240.735	33.45
240.952	-13.65
241.169	37.55
241.386	35.5
241.603	68.27
241.821	-54.61
242.038	51.88
242.255	-15.7
242.472	2.73
242.689	-1.37
242.907	45.74
243.124	-48.47
243.341	49.83
243.558	113.32
243.775	-15.7
243.992	33.45
244.209	74.41
244.426	39.59
244.643	101.03
244.86	25.26
245.078	80.55
245.295	23.21
245.512	35.5
245.729	-21.84
245.946	12.97
246.163	74.41
246.38	45.74
246.597	62.12
246.814	-34.13
247.031	-40.28
247.248	55.98
247.464	47.79
247.681	64.17
247.898	82.6
248.115	33.45
248.332	-1.37
248.549	51.88
248.766	37.55
248.983	15.02
249.2	105.13
249.417	62.12
249.633	19.11
249.85	27.31
250.067	33.45
250.284	-11.61
250.501	51.88
250.717	23.21
250.934	-1.37
251.151	45.74
251.368	31.4
251.585	0.68
251.801	-36.18
252.018	-15.7
252.235	-25.94
252.451	-23.89
252.668	23.21
252.885	29.35
253.102	15.02
253.318	23.21
253.535	19.11
253.752	35.5
253.968	-23.89
254.185	49.83
254.401	31.4
254.618	-25.94
254.835	0.68
255.051	60.07
255.268	19.11
255.484	51.88
255.701	45.74
255.917	62.12
256.134	-17.75
256.351	58.03
256.567	39.59
256.784	58.03
257	0.68
257.217	88.75
257.433	4.78
257.65	12.97
257.866	-15.7
258.082	-7.51
258.299	113.32
258.515	60.07
258.732	17.07
258.948	-21.84
259.165	-66.9
259.381	68.27
259.597	43.69
259.814	6.83
260.03	21.16
260.246	-40.28
260.463	74.41
260.679	47.79
260.895	-13.65
261.112	37.55
261.328	-38.23
261.544	27.31
261.761	43.69
261.977	6.83
262.193	4.78
262.409	53.93
262.626	43.69
262.842	58.03
263.058	51.88
263.274	74.41
263.49	-30.04
263.707	58.03
263.923	131.75
264.139	-34.13
264.355	-13.65
264.571	55.98
264.787	-19.8
265.004	58.03
265.22	88.75
265.436	-54.61
265.652	6.83
265.868	49.83
266.084	-32.08
266.3	8.87
266.516	49.83
266.732	-7.51
266.948	-17.75
267.164	-56.66
267.38	15.02
267.596	-32.08
267.812	66.22
268.028	96.94
268.244	-25.94
268.46	-25.94
268.676	41.64
268.892	76.46
269.108	15.02
269.324	6.83
269.54	82.6
269.756	90.79
269.972	21.16
270.188	35.5
270.403	-5.46
270.619	6.83
270.835	-54.61
271.051	-15.7
271.267	17.07
271.483	-13.65
271.698	82.6
271.914	10.92
272.13	80.55
272.346	35.5
272.562	-40.28
272.777	-5.46
272.993	33.45
273.209	29.35
273.425	76.46
273.64	41.64
273.856	29.35
274.072	37.55
274.287	31.4
274.503	105.13
274.719	68.27
274.934	-7.51
275.15	6.83
275.366	58.03
275.581	-21.84
275.797	-34.13
276.012	39.59
276.228	15.02
276.444	25.26
276.659	39.59
276.875	8.87
277.09	-5.46
277.306	-34.13
277.521	121.51
277.737	-3.41
277.952	31.4
278.168	47.79
278.383	64.17
278.599	55.98
278.814	47.79
279.03	96.94
279.245	76.46
279.461	101.03
279.676	68.27
279.892	-1.37
280.107	-56.66
280.322	-58.71
280.538	19.11
280.753	-42.32
280.969	35.5
281.184	101.03
281.399	66.22
281.615	-58.71
281.83	8.87
282.045	-9.56
282.26	-1.37
282.476	58.03
282.691	31.4
282.906	10.92
283.122	-34.13
283.337	-38.23
283.552	60.07
283.767	-15.7
283.983	51.88
284.198	-5.46
284.413	90.79
284.628	-30.04
284.843	47.79
285.058	45.74
285.274	31.4
285.489	15.02
285.704	37.55
285.919	-30.04
286.134	8.87
286.349	27.31
286.564	6.83
286.779	66.22
286.995	47.79
287.21	64.17
287.425	88.75
287.64	-46.42
287.855	21.16
288.07	-58.71
288.285	23.21
288.5	0.68
288.715	64.17
288.93	0.68
289.145	64.17
289.36	105.13
289.575	8.87
289.79	-34.13
290.004	88.75
290.219	88.75
290.434	-7.51
290.649	10.92
290.864	-34.13
291.079	109.23
291.294	23.21
291.509	0.68
291.724	31.4
291.938	96.94
292.153	107.18
292.368	35.5
292.583	70.31
292.798	-1.37
293.012	-3.41
293.227	-9.56
293.442	-34.13
293.657	2.73
293.871	53.93
294.086	-1.37
294.301	-1.37
294.516	-17.75
294.73	35.5
294.945	-7.51
295.16	47.79
295.374	121.51
295.589	76.46
295.804	-46.42
296.018	47.79
296.233	39.59
296.447	43.69
296.662	31.4
296.877	6.83
297.091	84.65
297.306	66.22
297.52	2.73
297.735	17.07
297.949	-9.56
298.164	58.03
298.378	37.55
298.593	21.16
298.807	-58.71
299.022	4.78
299.236	29.35
299.451	25.26
299.665	10.92
299.88	19.11
300.094	8.87
300.309	-30.04
300.523	92.84
300.737	51.88
300.952	35.5
301.166	43.69
301.381	35.5
301.595	25.26
301.809	19.11
302.024	84.65
302.238	23.21
302.452	64.17
302.667	31.4
302.881	31.4
303.095	41.64
303.309	8.87
303.524	60.07
303.738	-21.84
303.952	-44.37
304.166	51.88
304.381	19.11
304.595	60.07
304.809	53.93
305.023	90.79
305.237	6.83
305.452	121.51
305.666	139.94
305.88	47.79
306.094	86.7
306.308	47.79
306.522	-30.04
306.736	41.64
306.95	64.17
307.164	68.27
307.379	37.55
307.593	113.32
307.807	103.08
308.021	55.98
308.235	94.89
308.449	80.55
308.663	-1.37
308.877	68.27
309.091	31.4
309.305	129.7
309.519	-46.42
309.733	80.55
309.947	-1.37
310.161	49.83
310.374	19.11
310.588	33.45
310.802	-9.56
311.016	64.17
311.23	80.55
311.444	-17.75
311.658	27.31
311.872	10.92
312.085	33.45
312.299	29.35
312.513	62.12
312.727	27.31
312.941	-11.61
313.154	49.83
313.368	80.55
313.582	23.21
313.796	39.59
314.009	41.64
314.223	27.31
314.437	55.98
314.651	21.16
314.864	-32.08
315.078	35.5
315.292	-1.37
315.505	84.65
315.719	29.35
315.933	60.07
316.146	64.17
316.36	8.87
316.573	-11.61
316.787	60.07
317.001	58.03
317.214	23.21
317.428	39.59
317.641	-21.84
317.855	8.87
318.068	72.36
318.282	47.79
318.495	23.21
318.709	37.55
318.922	88.75
319.136	51.88
319.349	62.12
319.563	55.98
319.776	-52.56
319.99	29.35
320.203	33.45
320.417	35.5
320.63	39.59
320.843	55.98
321.057	60.07
321.27	66.22
321.483	76.46
321.697	55.98
321.91	84.65
322.124	33.45
322.337	41.64
322.55	58.03
322.763	113.32
322.977	88.75
323.19	27.31
323.403	47.79
323.617	-54.61
323.83	25.26
324.043	60.07
324.256	64.17
324.469	62.12
324.683	111.27
324.896	82.6
325.109	70.31
325.322	76.46
325.535	39.59
325.748	8.87
325.962	47.79
326.175	-21.84
326.388	35.5
326.601	19.11
326.814	90.79
327.027	2.73
327.24	66.22
327.453	-38.23
327.666	39.59
327.879	84.65
328.092	25.26
328.305	10.92
328.518	12.97
328.731	27.31
328.944	31.4
329.157	58.03
329.37	-73.04
329.583	64.17
329.796	70.31
330.009	-54.61
330.222	-11.61
330.435	74.41
330.648	41.64
330.861	94.89
331.073	43.69
331.286	96.94
331.499	33.45
331.712	27.31
331.925	-7.51
332.138	70.31
332.35	23.21
332.563	35.5
332.776	96.94
332.989	6.83
333.202	105.13
333.414	49.83
333.627	47.79
333.84	33.45
334.053	55.98
334.265	17.07
334.478	0.68
334.691	-7.51
334.903	55.98
335.116	-36.18
335.329	72.36
335.541	2.73
335.754	86.7
335.966	19.11
336.179	113.32
336.392	64.17
336.604	66.22
336.817	8.87
337.029	78.51
337.242	55.98
337.454	84.65
337.667	53.93
337.88	-3.41
338.092	105.13
338.305	66.22
338.517	-27.99
338.729	121.51
338.942	64.17
339.154	17.07
339.367	58.03
339.579	19.11
339.792	80.55
340.004	90.79
340.217	80.55
340.429	84.65
340.641	27.31
340.854	41.64
341.066	-3.41
341.278	17.07
341.491	70.31
341.703	96.94
341.915	115.37
342.128	25.26
342.34	82.6
342.552	129.7
342.764	47.79
342.977	80.55
343.189	55.98
343.401	98.99
343.613	15.02
343.826	66.22
344.038	17.07
344.25	8.87
344.462	-40.28
344.674	60.07
344.886	64.17
345.099	6.83
345.311	23.21
345.523	55.98
345.735	-5.46
345.947	-7.51
346.159	31.4
346.371	6.83
346.583	23.21
346.795	45.74
347.007	29.35
347.219	96.94
347.431	12.97
347.643	66.22
347.855	72.36
348.067	64.17
348.279	-11.61
348.491	55.98
348.703	66.22
348.915	31.4
349.127	60.07
349.339	156.33
349.551	-64.85
349.763	4.78
349.975	66.22
350.187	96.94
350.399	31.4
350.61	17.07
350.822	27.31
351.034	84.65
351.246	74.41
351.458	84.65
351.669	72.36
351.881	39.59
352.093	66.22
352.305	31.4
352.517	84.65
352.728	55.98
352.94	43.69
353.152	15.02
353.363	105.13
353.575	17.07
353.787	78.51
353.999	-7.51
354.21	33.45
354.422	41.64
354.633	51.88
354.845	0.68
355.057	121.51
355.268	-13.65
355.48	119.46
355.692	43.69
355.903	84.65
356.115	58.03
356.326	33.45
356.538	139.94
356.749	15.02
356.961	39.59
357.172	47.79
357.384	78.51
357.595	72.36
357.807	43.69
358.018	33.45
358.23	35.5
358.441	109.23
358.653	39.59
358.864	70.31
359.075	6.83
359.287	129.7
359.498	139.94
359.709	64.17
359.921	66.22
360.132	51.88
360.344	178.86
360.555	49.83
360.766	17.07
360.977	-17.75
361.189	76.46
361.4	105.13
361.611	129.7
361.823	60.07
362.034	31.4
362.245	17.07
362.456	96.94
362.667	15.02
362.879	49.83
363.09	88.75
363.301	55.98
363.512	35.5
363.723	53.93
363.935	72.36
364.146	8.87
364.357	6.83
364.568	72.36
364.779	19.11
364.99	45.74
365.201	19.11
365.412	148.14
365.623	-1.37
365.834	51.88
366.045	0.68
366.256	27.31
366.467	90.79
366.678	-7.51
366.889	33.45
367.1	8.87
367.311	64.17
367.522	-5.46
367.733	68.27
367.944	92.84
368.155	25.26
368.366	72.36
368.577	33.45
368.788	45.74
368.999	2.73
369.209	70.31
369.42	125.61
369.631	107.18
369.842	64.17
370.053	17.07
370.264	27.31
370.474	27.31
370.685	90.79
370.896	35.5
371.107	84.65
371.317	98.99
371.528	-23.89
371.739	125.61
371.95	64.17
372.16	121.51
372.371	60.07
372.582	86.7
372.792	49.83
373.003	146.09
373.214	60.07
373.424	103.08
373.635	43.69
373.846	51.88
374.056	6.83
374.267	84.65
374.477	6.83
374.688	-1.37
374.898	121.51
375.109	47.79
375.319	15.02
375.53	66.22
375.74	19.11
375.951	25.26
376.161	60.07
376.372	82.6
376.582	33.45
376.793	27.31
377.003	66.22
377.214	25.26
377.424	96.94
377.635	23.21
377.845	23.21
378.055	90.79
378.266	-25.94
378.476	78.51
378.686	131.75
378.897	74.41
379.107	88.75
379.317	74.41
379.528	88.75
379.738	96.94
379.948	8.87
380.158	96.94
380.369	-7.51
380.579	62.12
380.789	47.79
380.999	119.46
381.21	15.02
381.42	107.18
381.63	58.03
381.84	0.68
382.05	105.13
382.261	101.03
382.471	55.98
382.681	92.84
382.891	76.46
383.101	80.55
383.311	64.17
383.521	47.79
383.731	37.55
383.941	47.79
384.151	80.55
384.361	43.69
384.571	23.21
384.781	70.31
384.991	80.55
385.201	82.6
385.411	49.83
385.621	70.31
385.831	60.07
386.041	47.79
386.251	23.21
386.461	58.03
386.671	15.02
386.881	107.18
387.091	43.69
387.301	88.75
387.511	60.07
387.72	51.88
387.93	60.07
388.14	47.79
388.35	6.83
388.56	60.07
388.769	66.22
388.979	170.66
389.189	6.83
389.399	92.84
389.609	60.07
389.818	78.51
390.028	60.07
390.238	92.84
390.447	43.69
390.657	125.61
390.867	43.69
391.076	23.21
391.286	72.36
391.496	47.79
391.705	80.55
391.915	25.26
392.125	137.9
392.334	-19.8
392.544	144.04
392.753	51.88
392.963	33.45
393.172	64.17
393.382	23.21
393.591	109.23
393.801	88.75
394.01	148.14
394.22	113.32
394.429	47.79
394.639	15.02
394.848	72.36
395.058	25.26
395.267	133.8
395.477	84.65
395.686	105.13
395.895	107.18
396.105	76.46
396.314	154.28
396.524	156.33
396.733	94.89
396.942	180.9
397.152	113.32
397.361	94.89
397.57	105.13
397.78	148.14
397.989	90.79
398.198	109.23
398.407	187.05
398.617	156.33
398.826	88.75
399.035	113.32
399.244	129.7
399.453	123.56
399.663	137.9
399.872	133.8
400.081	170.66
400.29	154.28
400.499	43.69
400.708	215.72
400.917	64.17
401.127	115.37
401.336	117.42
401.545	174.76
401.754	174.76
401.963	187.05
402.172	180.9
402.381	158.38
402.59	180.9
402.799	185
403.008	191.14
403.217	154.28
403.426	211.62
403.635	133.8
403.844	107.18
404.053	170.66
404.262	197.29
404.471	162.47
404.68	144.04
404.888	238.25
405.097	260.77
405.306	232.1
405.515	203.43
405.724	305.83
405.933	207.53
406.142	211.62
406.35	285.35
406.559	172.71
406.768	240.3
406.977	217.77
407.185	252.58
407.394	277.16
407.603	248.49
407.812	309.93
408.02	350.89
408.229	162.47
408.438	305.83
408.646	262.82
408.855	285.35
409.064	318.12
409.272	350.89
409.481	391.84
409.69	326.31
409.898	359.08
410.107	447.14
410.315	410.28
410.524	406.18
410.733	455.33
410.941	369.32
411.15	492.2
411.358	447.14
411.567	580.26
411.775	412.32
411.984	494.24
412.192	567.97
412.401	506.53
412.609	629.41
412.818	678.56
413.026	662.18
413.234	588.45
413.443	570.02
413.651	676.51
413.86	662.18
414.068	723.62
414.276	787.1
414.485	735.9
414.693	844.45
414.901	850.59
415.11	918.17
415.318	993.95
415.526	1014.43
415.734	891.55
415.943	1036.95
416.151	1049.24
416.359	1065.63
416.567	981.66
416.776	1055.39
416.984	1241.75
417.192	1317.53
417.4	1196.7
417.608	1235.61
417.817	1372.82
418.025	1424.02
418.233	1575.57
418.441	1403.54
418.649	1516.18
418.857	1604.24
419.065	1583.76
419.273	1571.47
419.481	1645.2
419.689	1796.75
419.897	1858.19
420.105	1882.77
420.313	1964.68
420.521	2073.23
420.729	1940.11
420.937	2105.99
421.145	2286.22
421.353	2402.95
421.561	2398.85
421.769	2366.09
421.977	2550.4
422.185	2562.69
422.393	2724.48
422.601	2878.08
422.809	2835.07
423.017	2933.37
423.224	2988.67
423.432	3095.16
423.64	3193.47
423.848	3390.07
424.056	3373.69
424.263	3476.09
424.471	3541.62
424.679	3684.98
424.887	3803.76
425.094	3928.69
425.302	3926.64
425.51	4233.83
425.718	4274.79
425.925	4303.47
426.133	4280.94
426.341	4799.07
426.548	4911.71
426.756	4932.19
426.964	5044.83
427.171	5218.91
427.379	5438.04
427.586	5542.49
427.794	5610.07
428.001	5761.62
428.209	6169.16
428.417	6120.01
428.624	6390.35
428.832	6521.42
429.039	6517.32
429.247	6517.32
429.454	7094.85
429.662	7502.39
429.869	7094.85
430.076	7600.69
430.284	7305.79
430.491	7676.47
430.699	8059.44
430.906	8034.86
431.114	8155.69
431.321	8512.04
431.528	8692.26
431.736	9234.97
431.943	9675.29
432.15	9470.49
432.358	9462.3
432.565	9892.37
432.772	9896.47
432.979	10443.28
433.187	10590.73
433.394	10674.7
433.601	11391.48
433.808	11557.37
434.016	11409.92
434.223	11852.28
434.43	12534.25
434.637	12302.83
434.844	12796.39
435.052	13244.9
435.259	13128.16
435.466	13216.22
435.673	13007.33
435.88	14107.09
436.087	14737.87
436.294	14836.17
436.501	14670.28
436.708	14823.88
436.915	15208.9
437.122	15948.22
437.329	15854.01
437.537	16564.65
437.743	16566.7
437.95	16581.04
438.157	17480.1
438.364	17865.11
438.571	18004.38
438.778	18061.72
438.985	19650.94
439.192	18672.01
439.399	19587.46
439.606	19026.31
439.813	20412.79
440.02	21436.77
440.227	20810.09
440.433	21148.01
440.64	21508.45
440.847	21461.35
441.054	21766.49
441.261	23433.54
441.467	22829.39
441.674	23359.81
441.881	24226.1
442.088	24396.09
442.294	24394.04
442.501	24576.31
442.708	24973.61
442.914	25876.77
443.121	27283.72
443.328	26730.77
443.534	28279.04
443.741	27482.38
443.948	27087.12
444.154	29352.17
444.361	28856.56
444.568	29436.14
444.774	28956.91
444.981	29427.95
445.187	30331.1
445.394	31594.7
445.6	31238.35
445.807	34035.88
446.013	32594.11
446.22	33376.43
446.426	34388.13
446.633	34859.16
446.839	35666.06
447.046	34298.02
447.252	36401.28
447.459	36518.01
447.665	36530.3
447.871	37771.37
448.078	39067.73
448.284	37785.71
448.491	38422.62
448.697	40122.44
448.903	40845.37
449.11	40773.69
449.316	39911.5
449.522	40568.9
449.728	42008.62
449.935	42246.18
450.141	42006.57
450.347	43005.98
450.553	42127.4
450.76	42885.15
450.966	43425.81
451.172	43280.41
451.378	44462.08
451.584	43640.85
451.791	44623.87
451.997	44075.02
452.203	45150.2
452.409	45139.96
452.615	44695.55
452.821	43304.98
453.027	42493.99
453.233	44699.65
453.44	42901.53
453.646	43776.01
453.852	43810.83
454.058	44728.32
454.264	43184.15
454.47	44582.91
454.676	42997.79
454.882	44883.97
455.088	41062.46
455.294	40898.62
455.5	42012.71
455.705	42504.23
455.911	40804.41
456.117	39815.24
456.323	39512.14
456.529	37400.69
456.735	39825.48
456.941	37804.14
457.147	37814.38
457.352	36501.63
457.558	35897.48
457.764	35907.72
457.97	35795.08
458.176	34504.86
458.381	34853.01
458.587	33124.53
458.793	32811.19
458.999	31568.07
459.204	33753.26
459.41	32960.69
459.616	30519.51
459.821	30683.35
460.027	30757.08
460.233	29841.64
460.438	28895.47
460.644	28645.62
460.85	27119.88
461.055	26800.4
461.261	26765.59
461.466	25114.92
461.672	24439.09
461.878	26112.28
462.083	24461.62
462.289	23601.47
462.494	23363.91
462.7	22440.28
462.905	22051.16
463.111	22790.48
463.316	22692.18
463.522	22288.73
463.727	22530.39
463.932	22534.48
464.138	22036.83
464.343	21860.7
464.549	21338.47
464.754	22296.92
464.959	21930.33
465.165	21809.5
465.37	20867.44
465.575	20324.72
465.781	20914.54
465.986	21442.92
466.191	20513.14
466.397	20142.46
466.602	19071.37
466.807	20007.29
