Data from USB4F104151__42__14-16-45-267.txt Node

Date: Thu Mar 13 14:16:45 EDT 2025
User: louis
Spectrometer: USB4F10415
Trigger mode: 4
Integration Time (sec): 2.000000E-2
Scans to average: 1
Electric dark correction enabled: true
Nonlinearity correction enabled: false
Boxcar width: 0
XAxis mode: Wavelengths
Number of Pixels in Spectrum: 3648
>>>>>Begin Spectral Data<<<<<
178.204	-149.5
178.424	-149.5
178.644	-149.5
178.864	-118.78
179.084	-86.01
179.304	34.82
179.524	45.06
179.744	79.87
179.964	75.77
180.184	-61.44
180.404	16.38
180.624	14.34
180.844	-26.62
181.064	-61.44
181.283	-2.05
181.503	-118.78
181.723	4.1
181.943	10.24
182.163	57.34
182.383	71.68
182.602	28.67
182.822	63.49
183.042	172.03
183.262	61.44
183.482	47.1
183.701	51.2
183.921	47.1
184.141	26.62
184.361	88.06
184.58	51.2
184.8	63.49
185.02	28.67
185.239	47.1
185.459	8.19
185.679	53.25
185.898	18.43
186.118	-20.48
186.338	16.38
186.557	36.86
186.777	4.1
186.997	22.53
187.216	18.43
187.436	90.11
187.655	79.87
187.875	36.86
188.095	47.1
188.314	30.72
188.534	65.54
188.753	63.49
188.973	-2.05
189.192	143.36
189.412	28.67
189.631	8.19
189.851	47.1
190.07	-24.58
190.29	-18.43
190.509	65.54
190.729	20.48
190.948	135.17
191.168	133.12
191.387	81.92
191.607	28.67
191.826	61.44
192.045	-6.14
192.265	8.19
192.484	49.15
192.704	-18.43
192.923	30.72
193.142	198.65
193.362	98.3
193.581	32.77
193.8	-28.67
194.02	77.82
194.239	4.1
194.458	69.63
194.678	45.06
194.897	-57.34
195.116	88.06
195.335	14.34
195.555	8.19
195.774	28.67
195.993	24.58
196.212	61.44
196.432	30.72
196.651	47.1
196.87	10.24
197.089	77.82
197.308	77.82
197.528	69.63
197.747	16.38
197.966	24.58
198.185	102.4
198.404	14.34
198.623	49.15
198.842	36.86
199.062	47.1
199.281	30.72
199.5	8.19
199.719	81.92
199.938	45.06
200.157	141.31
200.376	79.87
200.595	0
200.814	45.06
201.033	-71.68
201.252	86.01
201.471	69.63
201.69	110.59
201.909	151.55
202.128	45.06
202.347	26.62
202.566	22.53
202.785	20.48
203.004	8.19
203.223	102.4
203.442	45.06
203.661	73.73
203.879	30.72
204.098	49.15
204.317	151.55
204.536	53.25
204.755	51.2
204.974	83.97
205.193	10.24
205.411	55.3
205.63	88.06
205.849	28.67
206.068	81.92
206.287	102.4
206.505	86.01
206.724	20.48
206.943	-2.05
207.162	26.62
207.381	110.59
207.599	24.58
207.818	75.77
208.037	20.48
208.255	-24.58
208.474	49.15
208.693	34.82
208.911	14.34
209.13	20.48
209.349	73.73
209.567	10.24
209.786	-14.34
210.005	36.86
210.223	55.3
210.442	47.1
210.661	83.97
210.879	18.43
211.098	86.01
211.316	20.48
211.535	57.34
211.753	16.38
211.972	47.1
212.191	-8.19
212.409	53.25
212.628	81.92
212.846	38.91
213.065	71.68
213.283	45.06
213.502	0
213.72	77.82
213.938	14.34
214.157	26.62
214.375	-28.67
214.594	-69.63
214.812	-16.38
215.031	47.1
215.249	-6.14
215.467	22.53
215.686	73.73
215.904	157.69
216.122	36.86
216.341	73.73
216.559	8.19
216.778	61.44
216.996	126.97
217.214	47.1
217.432	26.62
217.651	36.86
217.869	-65.53
218.087	4.1
218.306	-8.19
218.524	61.44
218.742	43.01
218.96	22.53
219.179	45.06
219.397	20.48
219.615	30.72
219.833	141.31
220.051	69.63
220.27	94.21
220.488	36.86
220.706	67.58
220.924	81.92
221.142	20.48
221.36	77.82
221.578	36.86
221.796	30.72
222.015	53.25
222.233	45.06
222.451	114.69
222.669	0
222.887	114.69
223.105	12.29
223.323	-69.63
223.541	4.1
223.759	65.54
223.977	-32.77
224.195	98.3
224.413	8.19
224.631	-8.19
224.849	26.62
225.067	59.39
225.285	22.53
225.503	53.25
225.721	-10.24
225.939	0
226.157	77.82
226.375	106.49
226.592	-6.14
226.81	24.58
227.028	36.86
227.246	47.1
227.464	-53.25
227.682	12.29
227.9	20.48
228.117	38.91
228.335	34.82
228.553	-53.25
228.771	65.54
228.989	38.91
229.206	155.65
229.424	38.91
229.642	40.96
229.86	86.01
230.077	65.54
230.295	90.11
230.513	-4.1
230.731	59.39
230.948	57.34
231.166	135.17
231.384	0
231.601	65.54
231.819	106.49
232.037	20.48
232.254	4.1
232.472	-53.25
232.689	-4.1
232.907	71.68
233.125	49.15
233.342	55.3
233.56	88.06
233.777	-69.63
233.995	73.73
234.213	69.63
234.43	94.21
234.648	-49.15
234.865	69.63
235.083	57.34
235.3	4.1
235.518	116.73
235.735	86.01
235.953	124.93
236.17	51.2
236.388	71.68
236.605	69.63
236.822	36.86
237.04	32.77
237.257	104.45
237.475	53.25
237.692	73.73
237.909	14.34
238.127	40.96
238.344	69.63
238.562	20.48
238.779	8.19
238.996	53.25
239.214	20.48
239.431	53.25
239.648	8.19
239.865	12.29
240.083	112.64
240.3	45.06
240.517	-18.43
240.735	34.82
240.952	57.34
241.169	-6.14
241.386	14.34
241.603	-10.24
241.821	36.86
242.038	53.25
242.255	88.06
242.472	32.77
242.689	40.96
242.907	92.16
243.124	57.34
243.341	24.58
243.558	43.01
243.775	34.82
243.992	-4.1
244.209	-22.53
244.426	118.78
244.643	79.87
244.86	34.82
245.078	45.06
245.295	98.3
245.512	45.06
245.729	47.1
245.946	43.01
246.163	32.77
246.38	8.19
246.597	96.25
246.814	22.53
247.031	126.97
247.248	45.06
247.464	63.49
247.681	-10.24
247.898	-12.29
248.115	73.73
248.332	-61.44
248.549	67.58
248.766	63.49
248.983	4.1
249.2	65.54
249.417	28.67
249.633	4.1
249.85	30.72
250.067	77.82
250.284	49.15
250.501	6.14
250.717	47.1
250.934	12.29
251.151	126.97
251.368	4.1
251.585	69.63
251.801	55.3
252.018	43.01
252.235	51.2
252.451	43.01
252.668	-67.58
252.885	53.25
253.102	71.68
253.318	102.4
253.535	12.29
253.752	-4.1
253.968	28.67
254.185	-24.58
254.401	86.01
254.618	32.77
254.835	59.39
255.051	67.58
255.268	36.86
255.484	79.87
255.701	49.15
255.917	69.63
256.134	-12.29
256.351	57.34
256.567	45.06
256.784	36.86
257	45.06
257.217	53.25
257.433	-16.38
257.65	63.49
257.866	0
258.082	69.63
258.299	-4.1
258.515	28.67
258.732	8.19
258.948	20.48
259.165	45.06
259.381	36.86
259.597	34.82
259.814	-45.06
260.03	53.25
260.246	110.59
260.463	26.62
260.679	90.11
260.895	57.34
261.112	49.15
261.328	104.45
261.544	22.53
261.761	141.31
261.977	14.34
262.193	22.53
262.409	-12.29
262.626	16.38
262.842	12.29
263.058	12.29
263.274	102.4
263.49	88.06
263.707	36.86
263.923	77.82
264.139	12.29
264.355	86.01
264.571	94.21
264.787	63.49
265.004	12.29
265.22	38.91
265.436	61.44
265.652	28.67
265.868	45.06
266.084	110.59
266.3	55.3
266.516	57.34
266.732	102.4
266.948	8.19
267.164	79.87
267.38	81.92
267.596	20.48
267.812	167.93
268.028	40.96
268.244	34.82
268.46	40.96
268.676	30.72
268.892	-6.14
269.108	-57.34
269.324	-16.38
269.54	90.11
269.756	45.06
269.972	-28.67
270.188	65.54
270.403	30.72
270.619	110.59
270.835	4.1
271.051	-28.67
271.267	73.73
271.483	40.96
271.698	26.62
271.914	94.21
272.13	12.29
272.346	22.53
272.562	49.15
272.777	143.36
272.993	34.82
273.209	-4.1
273.425	94.21
273.64	24.58
273.856	18.43
274.072	63.49
274.287	20.48
274.503	69.63
274.719	45.06
274.934	57.34
275.15	12.29
275.366	47.1
275.581	49.15
275.797	45.06
276.012	-32.77
276.228	71.68
276.444	57.34
276.659	67.58
276.875	90.11
277.09	36.86
277.306	-36.86
277.521	4.1
277.737	-28.67
277.952	61.44
278.168	53.25
278.383	57.34
278.599	12.29
278.814	-51.2
279.03	-20.48
279.245	55.3
279.461	40.96
279.676	22.53
279.892	10.24
280.107	0
280.322	51.2
280.538	53.25
280.753	73.73
280.969	45.06
281.184	53.25
281.399	51.2
281.615	71.68
281.83	63.49
282.045	20.48
282.26	43.01
282.476	40.96
282.691	55.3
282.906	26.62
283.122	141.31
283.337	-8.19
283.552	73.73
283.767	4.1
283.983	47.1
284.198	61.44
284.413	20.48
284.628	-28.67
284.843	26.62
285.058	36.86
285.274	51.2
285.489	65.54
285.704	51.2
285.919	-4.1
286.134	8.19
286.349	55.3
286.564	24.58
286.779	135.17
286.995	96.25
287.21	24.58
287.425	57.34
287.64	6.14
287.855	94.21
288.07	47.1
288.285	36.86
288.5	71.68
288.715	98.3
288.93	57.34
289.145	73.73
289.36	53.25
289.575	51.2
289.79	65.54
290.004	24.58
290.219	86.01
290.434	63.49
290.649	12.29
290.864	94.21
291.079	22.53
291.294	81.92
291.509	4.1
291.724	26.62
291.938	59.39
292.153	147.45
292.368	63.49
292.583	81.92
292.798	22.53
293.012	65.54
293.227	59.39
293.442	63.49
293.657	59.39
293.871	45.06
294.086	77.82
294.301	14.34
294.516	57.34
294.73	-6.14
294.945	-18.43
295.16	2.05
295.374	126.97
295.589	106.49
295.804	69.63
296.018	47.1
296.233	90.11
296.447	36.86
296.662	4.1
296.877	38.91
297.091	38.91
297.306	30.72
297.52	32.77
297.735	51.2
297.949	69.63
298.164	79.87
298.378	-8.19
298.593	8.19
298.807	0
299.022	6.14
299.236	67.58
299.451	155.65
299.665	73.73
299.88	77.82
300.094	40.96
300.309	16.38
300.523	40.96
300.737	14.34
300.952	38.91
301.166	86.01
301.381	34.82
301.595	16.38
301.809	94.21
302.024	86.01
302.238	-2.05
302.452	90.11
302.667	32.77
302.881	86.01
303.095	106.49
303.309	77.82
303.524	73.73
303.738	92.16
303.952	-38.91
304.166	61.44
304.381	10.24
304.595	24.58
304.809	30.72
305.023	12.29
305.237	18.43
305.452	69.63
305.666	112.64
305.88	-12.29
306.094	-20.48
306.308	40.96
306.522	38.91
306.736	77.82
306.95	63.49
307.164	53.25
307.379	20.48
307.593	135.17
307.807	22.53
308.021	79.87
308.235	-38.91
308.449	30.72
308.663	30.72
308.877	53.25
309.091	112.64
309.305	79.87
309.519	4.1
309.733	94.21
309.947	2.05
310.161	24.58
310.374	94.21
310.588	94.21
310.802	-28.67
311.016	-4.1
311.23	53.25
311.444	0
311.658	10.24
311.872	69.63
312.085	108.54
312.299	86.01
312.513	55.3
312.727	61.44
312.941	22.53
313.154	32.77
313.368	12.29
313.582	16.38
313.796	38.91
314.009	108.54
314.223	0
314.437	90.11
314.651	86.01
314.864	36.86
315.078	22.53
315.292	47.1
315.505	43.01
315.719	53.25
315.933	63.49
316.146	26.62
316.36	22.53
316.573	102.4
316.787	40.96
317.001	45.06
317.214	24.58
317.428	116.73
317.641	36.86
317.855	0
318.068	63.49
318.282	-18.43
318.495	61.44
318.709	45.06
318.922	-36.86
319.136	79.87
319.349	81.92
319.563	2.05
319.776	51.2
319.99	24.58
320.203	102.4
320.417	73.73
320.63	61.44
320.843	126.97
321.057	129.02
321.27	133.12
321.483	118.78
321.697	110.59
321.91	36.86
322.124	83.97
322.337	110.59
322.55	73.73
322.763	30.72
322.977	-2.05
323.19	83.97
323.403	69.63
323.617	102.4
323.83	24.58
324.043	18.43
324.256	-6.14
324.469	102.4
324.683	106.49
324.896	63.49
325.109	38.91
325.322	-28.67
325.535	106.49
325.748	43.01
325.962	36.86
326.175	53.25
326.388	63.49
326.601	63.49
326.814	86.01
327.027	43.01
327.24	98.3
327.453	47.1
327.666	102.4
327.879	24.58
328.092	102.4
328.305	71.68
328.518	71.68
328.731	108.54
328.944	53.25
329.157	63.49
329.37	38.91
329.583	38.91
329.796	143.36
330.009	69.63
330.222	65.54
330.435	20.48
330.648	61.44
330.861	45.06
331.073	110.59
331.286	-14.34
331.499	67.58
331.712	79.87
331.925	30.72
332.138	-4.1
332.35	67.58
332.563	53.25
332.776	61.44
332.989	8.19
333.202	61.44
333.414	63.49
333.627	106.49
333.84	86.01
334.053	45.06
334.265	18.43
334.478	18.43
334.691	-2.05
334.903	28.67
335.116	118.78
335.329	47.1
335.541	30.72
335.754	36.86
335.966	73.73
336.179	69.63
336.392	28.67
336.604	30.72
336.817	55.3
337.029	77.82
337.242	77.82
337.454	61.44
337.667	-20.48
337.88	38.91
338.092	69.63
338.305	86.01
338.517	-2.05
338.729	112.64
338.942	67.58
339.154	16.38
339.367	-30.72
339.579	100.35
339.792	-6.14
340.004	45.06
340.217	30.72
340.429	0
340.641	51.2
340.854	71.68
341.066	32.77
341.278	102.4
341.491	141.31
341.703	114.69
341.915	-12.29
342.128	102.4
342.34	-8.19
342.552	10.24
342.764	-4.1
342.977	34.82
343.189	30.72
343.401	43.01
343.613	-69.63
343.826	49.15
344.038	-6.14
344.25	14.34
344.462	-14.34
344.674	90.11
344.886	45.06
345.099	135.17
345.311	59.39
345.523	20.48
345.735	-2.05
345.947	139.26
346.159	81.92
346.371	-4.1
346.583	-6.14
346.795	77.82
347.007	57.34
347.219	71.68
347.431	-49.15
347.643	126.97
347.855	-59.39
348.067	61.44
348.279	73.73
348.491	53.25
348.703	-4.1
348.915	94.21
349.127	86.01
349.339	79.87
349.551	59.39
349.763	26.62
349.975	75.77
350.187	110.59
350.399	129.02
350.61	61.44
350.822	59.39
351.034	57.34
351.246	28.67
351.458	126.97
351.669	77.82
351.881	88.06
352.093	-8.19
352.305	73.73
352.517	106.49
352.728	131.07
352.94	38.91
353.152	86.01
353.363	104.45
353.575	51.2
353.787	102.4
353.999	55.3
354.21	36.86
354.422	88.06
354.633	71.68
354.845	90.11
355.057	63.49
355.268	98.3
355.48	38.91
355.692	47.1
355.903	-4.1
356.115	61.44
356.326	32.77
356.538	110.59
356.749	114.69
356.961	79.87
357.172	114.69
357.384	14.34
357.595	153.6
357.807	28.67
358.018	45.06
358.23	61.44
358.441	135.17
358.653	137.21
358.864	53.25
359.075	38.91
359.287	100.35
359.498	98.3
359.709	100.35
359.921	69.63
360.132	106.49
360.344	53.25
360.555	4.1
360.766	53.25
360.977	88.06
361.189	6.14
361.4	26.62
361.611	143.36
361.823	65.54
362.034	110.59
362.245	65.54
362.456	20.48
362.667	30.72
362.879	45.06
363.09	61.44
363.301	135.17
363.512	-6.14
363.723	14.34
363.935	83.97
364.146	73.73
364.357	32.77
364.568	96.25
364.779	28.67
364.99	71.68
365.201	79.87
365.412	98.3
365.623	24.58
365.834	43.01
366.045	-12.29
366.256	45.06
366.467	63.49
366.678	71.68
366.889	22.53
367.1	4.1
367.311	77.82
367.522	129.02
367.733	77.82
367.944	98.3
368.155	-28.67
368.366	118.78
368.577	57.34
368.788	59.39
368.999	45.06
369.209	61.44
369.42	155.65
369.631	69.63
369.842	45.06
370.053	8.19
370.264	8.19
370.474	-22.53
370.685	96.25
370.896	96.25
371.107	81.92
371.317	55.3
371.528	65.54
371.739	108.54
371.95	49.15
372.16	96.25
372.371	69.63
372.582	-22.53
372.792	104.45
373.003	45.06
373.214	28.67
373.424	118.78
373.635	79.87
373.846	36.86
374.056	53.25
374.267	61.44
374.477	63.49
374.688	12.29
374.898	135.17
375.109	65.54
375.319	47.1
375.53	79.87
375.74	53.25
375.951	63.49
376.161	120.83
376.372	96.25
376.582	77.82
376.793	96.25
377.003	40.96
377.214	81.92
377.424	57.34
377.635	30.72
377.845	38.91
378.055	94.21
378.266	-22.53
378.476	32.77
378.686	32.77
378.897	94.21
379.107	20.48
379.317	79.87
379.528	86.01
379.738	79.87
379.948	49.15
380.158	55.3
380.369	40.96
380.579	69.63
380.789	53.25
380.999	124.93
381.21	96.25
381.42	188.41
381.63	28.67
381.84	112.64
382.05	-16.38
382.261	69.63
382.471	65.54
382.681	55.3
382.891	73.73
383.101	92.16
383.311	36.86
383.521	59.39
383.731	90.11
383.941	120.83
384.151	43.01
384.361	71.68
384.571	40.96
384.781	96.25
384.991	167.93
385.201	47.1
385.411	98.3
385.621	81.92
385.831	47.1
386.041	40.96
386.251	-18.43
386.461	71.68
386.671	65.54
386.881	110.59
387.091	79.87
387.301	112.64
387.511	20.48
387.72	90.11
387.93	157.69
388.14	28.67
388.35	86.01
388.56	28.67
388.769	12.29
388.979	65.54
389.189	155.65
389.399	81.92
389.609	73.73
389.818	86.01
390.028	71.68
390.238	210.94
390.447	45.06
390.657	129.02
390.867	36.86
391.076	4.1
391.286	57.34
391.496	28.67
391.705	94.21
391.915	196.61
392.125	-4.1
392.334	61.44
392.544	92.16
392.753	98.3
392.963	98.3
393.172	135.17
393.382	120.83
393.591	114.69
393.801	65.54
394.01	98.3
394.22	61.44
394.429	55.3
394.639	81.92
394.848	184.32
395.058	20.48
395.267	94.21
395.477	188.41
395.686	110.59
395.895	153.6
396.105	172.03
396.314	151.55
396.524	59.39
396.733	149.5
396.942	147.45
397.152	169.98
397.361	139.26
397.57	55.3
397.78	94.21
397.989	45.06
398.198	167.93
398.407	57.34
398.617	221.18
398.826	133.12
399.035	57.34
399.244	137.21
399.453	163.84
399.663	110.59
399.872	143.36
400.081	143.36
400.29	176.13
400.499	133.12
400.708	147.45
400.917	129.02
401.127	153.6
401.336	143.36
401.545	184.32
401.754	129.02
401.963	129.02
402.172	114.69
402.381	153.6
402.59	135.17
402.799	159.74
403.008	202.75
403.217	219.13
403.426	118.78
403.635	129.02
403.844	167.93
404.053	184.32
404.262	122.88
404.471	219.13
404.68	194.56
404.888	178.17
405.097	221.18
405.306	145.41
405.515	229.37
405.724	141.31
405.933	192.51
406.142	210.94
406.35	266.24
406.559	225.28
406.768	249.85
406.977	286.72
407.185	260.09
407.394	290.81
407.603	219.13
407.812	311.29
408.02	282.62
408.229	282.62
408.438	233.47
408.646	251.9
408.855	335.87
409.064	372.73
409.272	366.59
409.481	421.88
409.69	307.2
409.898	356.35
410.107	339.96
410.315	360.44
410.524	382.97
410.733	382.97
410.941	350.2
411.15	464.89
411.358	503.8
411.567	516.09
411.775	520.18
411.984	565.24
412.192	542.71
412.401	485.37
412.609	536.57
412.818	651.25
413.026	620.53
413.234	604.15
413.443	659.45
413.651	632.82
413.86	700.41
414.068	765.94
414.276	749.56
414.485	761.84
414.693	794.61
414.901	851.96
415.11	827.38
415.318	882.67
415.526	874.48
415.734	905.2
415.943	933.87
416.151	1026.03
416.359	972.79
416.567	1017.84
416.776	1054.7
416.984	1284.08
417.192	1116.14
417.4	1234.93
417.608	1157.1
417.817	1288.17
418.025	1353.71
418.233	1331.18
418.441	1310.7
418.649	1546.22
418.857	1513.45
419.065	1458.15
419.273	1511.4
419.481	1636.33
419.689	1718.25
419.897	1802.21
420.105	1814.5
420.313	1773.54
420.521	1886.18
420.729	1955.81
420.937	2095.07
421.145	2201.57
421.353	2193.37
421.561	2230.24
421.769	2301.92
421.977	2387.93
422.185	2461.66
422.393	2531.29
422.601	2930.64
422.809	2660.31
423.017	2748.37
423.224	2756.57
423.432	2908.12
423.64	2887.64
423.848	3223.5
424.056	2994.13
424.263	3424.2
424.471	3477.45
424.679	3555.27
424.887	3743.69
425.094	3631.05
425.302	3764.17
425.51	3887.04
425.718	4167.62
425.925	4042.69
426.133	4194.24
426.341	4431.8
426.548	4689.85
426.756	4620.22
426.964	4763.58
427.171	4945.84
427.379	5003.19
427.586	5148.59
427.794	5289.9
428.001	5447.6
428.209	5734.31
428.417	5679.02
428.624	6008.74
428.832	6143.91
429.039	6135.71
429.247	6068.13
429.454	6614.94
429.662	6959
429.869	6561.69
430.076	7104.4
430.284	7049.11
430.491	7358.35
430.699	7524.24
430.906	7630.73
431.114	7540.62
431.321	7958.41
431.528	8075.14
431.736	8499.07
431.943	9045.88
432.15	8824.7
432.358	8791.93
432.565	9203.57
432.772	9185.14
432.979	9860.97
433.187	9973.61
433.394	9965.42
433.601	10579.81
433.808	10710.88
434.016	10620.77
434.223	11046.74
434.43	11691.85
434.637	11507.54
434.844	12277.57
435.052	12709.69
435.259	12416.83
435.466	12472.13
435.673	12361.54
435.88	13133.62
436.087	13719.34
436.294	13827.88
436.501	13322.04
436.708	14079.79
436.915	14374.69
437.122	14888.73
437.329	14901.02
437.537	15519.51
437.743	15562.51
437.95	15320.85
438.157	16527.11
438.364	16731.9
438.571	16852.73
438.778	17010.43
438.985	18280.17
439.192	17594.1
439.399	18274.03
439.606	17764.08
439.813	18800.35
440.02	19787.47
440.227	19484.37
440.433	19492.57
440.64	20149.96
440.847	19928.78
441.054	20385.48
441.261	21876.4
441.467	21563.06
441.674	22027.95
441.881	22681.25
442.088	22501.03
442.294	22458.03
442.501	22853.28
442.708	23416.47
442.914	24172.18
443.121	25538.17
443.328	24579.72
443.534	26504.81
443.741	25628.28
443.948	25521.79
444.154	26986.08
444.361	27246.18
444.568	27252.32
444.774	26998.37
444.981	27448.93
445.187	28122.71
445.394	29296.19
445.6	28991.05
445.807	31862.3
446.013	30770.73
446.22	31215.14
446.426	32517.65
446.633	32497.17
446.839	33707.52
447.046	32220.69
447.252	34166.26
447.459	34055.67
447.665	33922.55
447.871	35470.82
448.078	36570.58
448.284	35018.22
448.491	36259.29
448.697	37393.86
448.903	38176.19
449.11	38163.9
449.316	37809.6
449.522	38188.47
449.728	39222.7
449.935	39724.45
450.141	39615.91
450.347	40623.51
450.553	39038.38
450.76	40064.41
450.966	41067.92
451.172	40455.57
451.378	41608.58
451.584	40791.44
451.791	41796.99
451.997	42032.51
452.203	42263.93
452.409	42489.21
452.615	42231.16
452.821	40717.71
453.027	40344.98
453.233	42196.35
453.44	40762.77
453.646	40992.14
453.852	41651.59
454.058	41999.74
454.264	40498.58
454.47	41692.55
454.676	40367.51
454.882	42044.8
455.088	38266.3
455.294	38825.39
455.5	39605.67
455.705	39843.23
455.911	38448.57
456.117	37864.89
456.323	37156.3
456.529	35519.97
456.735	37135.82
456.941	35694.05
457.147	35155.43
457.352	34303.48
457.558	33672.7
457.764	33881.6
457.97	33299.97
458.176	32542.22
458.381	32687.63
458.587	30985.77
458.793	31006.25
458.999	29331.01
459.204	31604.25
459.41	30549.55
459.616	28794.44
459.821	28882.5
460.027	28894.79
460.233	28079.7
460.438	27086.43
460.644	27031.14
460.85	25712.25
461.055	25022.08
461.261	25435.77
461.466	23379.61
461.672	22959.78
461.878	24225.42
462.083	22595.24
462.289	22566.57
462.494	21835.44
462.7	21294.78
462.905	20526.79
463.111	21315.26
463.316	21210.81
463.522	20866.75
463.727	20995.78
463.932	21188.28
464.138	20618.95
464.343	20539.08
464.549	20125.39
464.754	20743.88
464.959	20721.35
465.165	19982.03
465.37	19728.08
465.575	18763.49
465.781	19873.49
465.986	19949.26
466.191	19230.43
466.397	18876.13
466.602	17870.58
466.807	18665.19
467.012	18548.45
467.218	18521.83
467.423	18233.07
467.628	18304.74
467.833	19068.64
