Data from USB4F104151__293__14-23-53-114.txt Node

Date: Thu Mar 13 14:23:53 EDT 2025
User: louis
Spectrometer: USB4F10415
Trigger mode: 4
Integration Time (sec): 2.000000E-2
Scans to average: 1
Electric dark correction enabled: true
Nonlinearity correction enabled: false
Boxcar width: 0
XAxis mode: Wavelengths
Number of Pixels in Spectrum: 3648
>>>>>Begin Spectral Data<<<<<
178.204	-70.83
178.424	-70.83
178.644	-70.83
178.864	-117.93
179.084	-13.48
179.304	-25.77
179.524	15.19
179.744	27.48
179.964	43.86
180.184	-52.39
180.404	-25.77
180.624	0.85
180.844	-3.24
181.064	4.95
181.283	2.9
181.503	23.38
181.723	-11.43
181.943	-87.21
182.163	82.77
182.383	-11.43
182.602	47.96
182.822	52.05
183.042	95.06
183.262	-3.24
183.482	43.86
183.701	27.48
183.921	95.06
184.141	27.48
184.361	97.11
184.58	62.29
184.8	19.29
185.02	54.1
185.239	125.78
185.459	56.15
185.679	97.11
185.898	-52.39
186.118	11.09
186.338	-46.25
186.557	-1.19
186.777	-52.39
186.997	47.96
187.216	23.38
187.436	11.09
187.655	56.15
187.875	2.9
188.095	25.43
188.314	62.29
188.534	39.76
188.753	-11.43
188.973	84.82
189.192	-1.19
189.412	-3.24
189.631	11.09
189.851	-19.63
190.07	84.82
190.29	4.95
190.509	74.58
190.729	-15.53
190.948	54.1
191.168	142.16
191.387	93.01
191.607	-21.67
191.826	64.34
192.045	13.14
192.265	101.2
192.484	4.95
192.704	-33.96
192.923	15.19
193.142	56.15
193.362	84.82
193.581	64.34
193.8	-21.67
194.02	78.68
194.239	68.44
194.458	52.05
194.678	52.05
194.897	68.44
195.116	-9.39
195.335	68.44
195.555	11.09
195.774	21.33
195.993	21.33
196.212	52.05
196.432	50
196.651	37.72
196.87	29.52
197.089	103.25
197.308	23.38
197.528	88.92
197.747	25.43
197.966	52.05
198.185	90.96
198.404	35.67
198.623	-11.43
198.842	-3.24
199.062	37.72
199.281	-13.48
199.5	29.52
199.719	68.44
199.938	70.48
200.157	35.67
200.376	19.29
200.595	111.44
200.814	7
201.033	19.29
201.252	125.78
201.471	-60.59
201.69	50
201.909	43.86
202.128	23.38
202.347	27.48
202.566	103.25
202.785	13.14
203.004	27.48
203.223	113.49
203.442	17.24
203.661	-19.63
203.879	2.9
204.098	76.63
204.317	2.9
204.536	101.2
204.755	64.34
204.974	54.1
205.193	84.82
205.411	101.2
205.63	2.9
205.849	27.48
206.068	-50.35
206.287	21.33
206.505	2.9
206.724	39.76
206.943	66.39
207.162	-1.19
207.381	37.72
207.599	25.43
207.818	35.67
208.037	31.57
208.255	-13.48
208.474	-36.01
208.693	37.72
208.911	66.39
209.13	23.38
209.349	-33.96
209.567	72.53
209.786	7
210.005	74.58
210.223	72.53
210.442	-13.48
210.661	43.86
210.879	-21.67
211.098	19.29
211.316	-1.19
211.535	45.91
211.753	-3.24
211.972	50
212.191	84.82
212.409	-62.63
212.628	68.44
212.846	-5.29
213.065	27.48
213.283	90.96
213.502	43.86
213.72	80.72
213.938	93.01
214.157	43.86
214.375	43.86
214.594	-3.24
214.812	-33.96
215.031	43.86
215.249	-11.43
215.467	-15.53
215.686	-29.87
215.904	47.96
216.122	35.67
216.341	64.34
216.559	-5.29
216.778	13.14
216.996	50
217.214	29.52
217.432	29.52
217.651	29.52
217.869	101.2
218.087	-17.58
218.306	66.39
218.524	140.12
218.742	-5.29
218.96	31.57
219.179	52.05
219.397	52.05
219.615	125.78
219.833	54.1
220.051	54.1
220.27	66.39
220.488	43.86
220.706	93.01
220.924	15.19
221.142	-3.24
221.36	72.53
221.578	62.29
221.796	21.33
222.015	-21.67
222.233	43.86
222.451	64.34
222.669	-13.48
222.887	60.24
223.105	19.29
223.323	31.57
223.541	-13.48
223.759	43.86
223.977	2.9
224.195	88.92
224.413	88.92
224.631	93.01
224.849	17.24
225.067	43.86
225.285	27.48
225.503	4.95
225.721	-58.54
225.939	76.63
226.157	-19.63
226.375	136.02
226.592	-46.25
226.81	11.09
227.028	21.33
227.246	27.48
227.464	43.86
227.682	50
227.9	70.48
228.117	0.85
228.335	27.48
228.553	-27.82
228.771	35.67
228.989	-21.67
229.206	23.38
229.424	-11.43
229.642	60.24
229.86	21.33
230.077	74.58
230.295	43.86
230.513	56.15
230.731	35.67
230.948	88.92
231.166	11.09
231.384	-64.68
231.601	7
231.819	93.01
232.037	41.81
232.254	78.68
232.472	27.48
232.689	56.15
232.907	64.34
233.125	31.57
233.342	-19.63
233.56	-36.01
233.777	47.96
233.995	39.76
234.213	80.72
234.43	39.76
234.648	62.29
234.865	27.48
235.083	62.29
235.3	19.29
235.518	9.05
235.735	68.44
235.953	54.1
236.17	-40.11
236.388	31.57
236.605	60.24
236.822	45.91
237.04	119.64
237.257	107.35
237.475	-7.34
237.692	150.36
237.909	70.48
238.127	-21.67
238.344	21.33
238.562	15.19
238.779	-1.19
238.996	2.9
239.214	-21.67
239.431	117.59
239.648	27.48
239.865	27.48
240.083	19.29
240.3	15.19
240.517	-54.44
240.735	74.58
240.952	52.05
241.169	35.67
241.386	56.15
241.603	35.67
241.821	54.1
242.038	60.24
242.255	7
242.472	80.72
242.689	47.96
242.907	95.06
243.124	47.96
243.341	15.19
243.558	13.14
243.775	29.52
243.992	-79.02
244.209	27.48
244.426	84.82
244.643	54.1
244.86	-21.67
245.078	19.29
245.295	-19.63
245.512	11.09
245.729	-29.87
245.946	13.14
246.163	66.39
246.38	45.91
246.597	19.29
246.814	64.34
247.031	35.67
247.248	84.82
247.464	31.57
247.681	64.34
247.898	19.29
248.115	101.2
248.332	2.9
248.549	113.49
248.766	52.05
248.983	101.2
249.2	41.81
249.417	45.91
249.633	13.14
249.85	31.57
250.067	127.83
250.284	19.29
250.501	93.01
250.717	70.48
250.934	-5.29
251.151	4.95
251.368	-89.26
251.585	90.96
251.801	76.63
252.018	13.14
252.235	31.57
252.451	15.19
252.668	-7.34
252.885	70.48
253.102	72.53
253.318	11.09
253.535	4.95
253.752	21.33
253.968	-29.87
254.185	29.52
254.401	35.67
254.618	93.01
254.835	-27.82
255.051	101.2
255.268	80.72
255.484	-3.24
255.701	-50.35
255.917	-5.29
256.134	64.34
256.351	15.19
256.567	35.67
256.784	50
257	-5.29
257.217	68.44
257.433	41.81
257.65	-17.58
257.866	47.96
258.082	19.29
258.299	31.57
258.515	56.15
258.732	4.95
258.948	56.15
259.165	35.67
259.381	62.29
259.597	-5.29
259.814	-1.19
260.03	105.3
260.246	-13.48
260.463	-5.29
260.679	80.72
260.895	-21.67
261.112	62.29
261.328	43.86
261.544	11.09
261.761	62.29
261.977	-3.24
262.193	84.82
262.409	93.01
262.626	60.24
262.842	68.44
263.058	-17.58
263.274	-7.34
263.49	54.1
263.707	52.05
263.923	47.96
264.139	27.48
264.355	15.19
264.571	23.38
264.787	52.05
265.004	86.87
265.22	-5.29
265.436	109.4
265.652	-13.48
265.868	-56.49
266.084	64.34
266.3	39.76
266.516	60.24
266.732	-1.19
266.948	4.95
267.164	4.95
267.38	21.33
267.596	88.92
267.812	88.92
268.028	43.86
268.244	23.38
268.46	43.86
268.676	111.44
268.892	23.38
269.108	2.9
269.324	70.48
269.54	11.09
269.756	19.29
269.972	-36.01
270.188	54.1
270.403	70.48
270.619	-5.29
270.835	27.48
271.051	72.53
271.267	15.19
271.483	54.1
271.698	45.91
271.914	9.05
272.13	64.34
272.346	-11.43
272.562	7
272.777	43.86
272.993	23.38
273.209	-13.48
273.425	93.01
273.64	15.19
273.856	84.82
274.072	52.05
274.287	19.29
274.503	70.48
274.719	23.38
274.934	7
275.15	-44.2
275.366	50
275.581	2.9
275.797	76.63
276.012	-29.87
276.228	17.24
276.444	84.82
276.659	11.09
276.875	56.15
277.09	56.15
277.306	-27.82
277.521	13.14
277.737	7
277.952	47.96
278.168	21.33
278.383	-27.82
278.599	72.53
278.814	47.96
279.03	52.05
279.245	52.05
279.461	29.52
279.676	35.67
279.892	2.9
280.107	56.15
280.322	-66.73
280.538	54.1
280.753	-38.06
280.969	54.1
281.184	27.48
281.399	31.57
281.615	37.72
281.83	37.72
282.045	23.38
282.26	11.09
282.476	9.05
282.691	62.29
282.906	23.38
283.122	2.9
283.337	31.57
283.552	21.33
283.767	0.85
283.983	43.86
284.198	45.91
284.413	-11.43
284.628	-21.67
284.843	23.38
285.058	72.53
285.274	101.2
285.489	97.11
285.704	-21.67
285.919	11.09
286.134	11.09
286.349	7
286.564	13.14
286.779	54.1
286.995	-44.2
287.21	-19.63
287.425	7
287.64	-62.63
287.855	70.48
288.07	52.05
288.285	76.63
288.5	27.48
288.715	82.77
288.93	60.24
289.145	29.52
289.36	33.62
289.575	15.19
289.79	15.19
290.004	13.14
290.219	21.33
290.434	-5.29
290.649	7
290.864	4.95
291.079	27.48
291.294	27.48
291.509	-1.19
291.724	25.43
291.938	21.33
292.153	93.01
292.368	33.62
292.583	31.57
292.798	-15.53
293.012	15.19
293.227	43.86
293.442	19.29
293.657	23.38
293.871	45.91
294.086	45.91
294.301	64.34
294.516	105.3
294.73	-11.43
294.945	52.05
295.16	11.09
295.374	133.97
295.589	88.92
295.804	21.33
296.018	119.64
296.233	47.96
296.447	133.97
296.662	-38.06
296.877	90.96
297.091	-3.24
297.306	31.57
297.52	11.09
297.735	60.24
297.949	80.72
298.164	117.59
298.378	60.24
298.593	-3.24
298.807	13.14
299.022	52.05
299.236	66.39
299.451	82.77
299.665	13.14
299.88	78.68
300.094	7
300.309	95.06
300.523	84.82
300.737	21.33
300.952	39.76
301.166	39.76
301.381	-17.58
301.595	-1.19
301.809	25.43
302.024	15.19
302.238	27.48
302.452	19.29
302.667	19.29
302.881	60.24
303.095	43.86
303.309	2.9
303.524	52.05
303.738	35.67
303.952	54.1
304.166	115.54
304.381	-87.21
304.595	86.87
304.809	4.95
305.023	117.59
305.237	2.9
305.452	-9.39
305.666	41.81
305.88	35.67
306.094	43.86
306.308	15.19
306.522	84.82
306.736	27.48
306.95	-52.39
307.164	47.96
307.379	15.19
307.593	66.39
307.807	109.4
308.021	33.62
308.235	45.91
308.449	-5.29
308.663	7
308.877	62.29
309.091	25.43
309.305	37.72
309.519	-11.43
309.733	62.29
309.947	-13.48
310.161	74.58
310.374	17.24
310.588	37.72
310.802	2.9
311.016	88.92
311.23	84.82
311.444	4.95
311.658	35.67
311.872	109.4
312.085	84.82
312.299	115.54
312.513	-25.77
312.727	109.4
312.941	4.95
313.154	52.05
313.368	45.91
313.582	-19.63
313.796	62.29
314.009	64.34
314.223	62.29
314.437	45.91
314.651	70.48
314.864	35.67
315.078	-33.96
315.292	52.05
315.505	72.53
315.719	-13.48
315.933	70.48
316.146	19.29
316.36	35.67
316.573	76.63
316.787	43.86
317.001	80.72
317.214	-11.43
317.428	21.33
317.641	7
317.855	37.72
318.068	76.63
318.282	47.96
318.495	47.96
318.709	80.72
318.922	88.92
319.136	97.11
319.349	29.52
319.563	15.19
319.776	9.05
319.99	-17.58
320.203	119.64
320.417	70.48
320.63	-52.39
320.843	54.1
321.057	-36.01
321.27	52.05
321.483	82.77
321.697	80.72
321.91	105.3
322.124	-21.67
322.337	-25.77
322.55	54.1
322.763	19.29
322.977	60.24
323.19	-11.43
323.403	37.72
323.617	33.62
323.83	45.91
324.043	35.67
324.256	27.48
324.469	68.44
324.683	72.53
324.896	64.34
325.109	43.86
325.322	2.9
325.535	43.86
325.748	58.2
325.962	101.2
326.175	64.34
326.388	27.48
326.601	86.87
326.814	95.06
327.027	78.68
327.24	33.62
327.453	-21.67
327.666	86.87
327.879	23.38
328.092	45.91
328.305	11.09
328.518	45.91
328.731	-29.87
328.944	17.24
329.157	45.91
329.37	80.72
329.583	56.15
329.796	45.91
330.009	-40.11
330.222	43.86
330.435	54.1
330.648	-40.11
330.861	35.67
331.073	35.67
331.286	47.96
331.499	54.1
331.712	35.67
331.925	35.67
332.138	70.48
332.35	95.06
332.563	74.58
332.776	60.24
332.989	-9.39
333.202	84.82
333.414	-13.48
333.627	-17.58
333.84	62.29
334.053	23.38
334.265	19.29
334.478	47.96
334.691	60.24
334.903	21.33
335.116	-17.58
335.329	23.38
335.541	21.33
335.754	150.36
335.966	21.33
336.179	27.48
336.392	35.67
336.604	17.24
336.817	0.85
337.029	43.86
337.242	-29.87
337.454	21.33
337.667	76.63
337.88	11.09
338.092	-19.63
338.305	0.85
338.517	-54.44
338.729	133.97
338.942	39.76
339.154	23.38
339.367	33.62
339.579	9.05
339.792	29.52
340.004	7
340.217	19.29
340.429	64.34
340.641	-54.44
340.854	11.09
341.066	11.09
341.278	62.29
341.491	146.26
341.703	97.11
341.915	11.09
342.128	25.43
342.34	52.05
342.552	60.24
342.764	52.05
342.977	37.72
343.189	19.29
343.401	70.48
343.613	-13.48
343.826	21.33
344.038	7
344.25	54.1
344.462	-46.25
344.674	27.48
344.886	68.44
345.099	21.33
345.311	101.2
345.523	86.87
345.735	-72.87
345.947	66.39
346.159	4.95
346.371	52.05
346.583	60.24
346.795	84.82
347.007	41.81
347.219	45.91
347.431	-3.24
347.643	29.52
347.855	101.2
348.067	84.82
348.279	68.44
348.491	-3.24
348.703	74.58
348.915	64.34
349.127	37.72
349.339	2.9
349.551	52.05
349.763	35.67
349.975	97.11
350.187	62.29
350.399	58.2
350.61	11.09
350.822	29.52
351.034	78.68
351.246	66.39
351.458	-5.29
351.669	78.68
351.881	68.44
352.093	23.38
352.305	13.14
352.517	41.81
352.728	140.12
352.94	101.2
353.152	109.4
353.363	15.19
353.575	15.19
353.787	27.48
353.999	84.82
354.21	107.35
354.422	23.38
354.633	11.09
354.845	35.67
355.057	93.01
355.268	-11.43
355.48	62.29
355.692	-13.48
355.903	64.34
356.115	45.91
356.326	15.19
356.538	84.82
356.749	60.24
356.961	97.11
357.172	4.95
357.384	50
357.595	99.16
357.807	-50.35
358.018	52.05
358.23	-21.67
358.441	86.87
358.653	111.44
358.864	70.48
359.075	82.77
359.287	35.67
359.498	86.87
359.709	29.52
359.921	117.59
360.132	86.87
360.344	125.78
360.555	52.05
360.766	4.95
360.977	66.39
361.189	109.4
361.4	68.44
361.611	52.05
361.823	58.2
362.034	52.05
362.245	84.82
362.456	47.96
362.667	52.05
362.879	31.57
363.09	62.29
363.301	111.44
363.512	56.15
363.723	27.48
363.935	45.91
364.146	60.24
364.357	-9.39
364.568	35.67
364.779	19.29
364.99	60.24
365.201	19.29
365.412	133.97
365.623	37.72
365.834	86.87
366.045	76.63
366.256	117.59
366.467	23.38
366.678	109.4
366.889	-21.67
367.1	37.72
367.311	70.48
367.522	-46.25
367.733	95.06
367.944	41.81
368.155	37.72
368.366	142.16
368.577	9.05
368.788	7
368.999	7
369.209	52.05
369.42	109.4
369.631	152.4
369.842	95.06
370.053	43.86
370.264	125.78
370.474	29.52
370.685	47.96
370.896	-19.63
371.107	70.48
371.317	54.1
371.528	131.92
371.739	97.11
371.95	27.48
372.16	84.82
372.371	54.1
372.582	95.06
372.792	54.1
373.003	84.82
373.214	76.63
373.424	21.33
373.635	27.48
373.846	90.96
374.056	-13.48
374.267	19.29
374.477	7
374.688	35.67
374.898	93.01
375.109	113.49
375.319	88.92
375.53	43.86
375.74	88.92
375.951	86.87
376.161	-7.34
376.372	76.63
376.582	37.72
376.793	35.67
377.003	39.76
377.214	43.86
377.424	84.82
377.635	37.72
377.845	93.01
378.055	50
378.266	-68.78
378.476	31.57
378.686	19.29
378.897	93.01
379.107	62.29
379.317	103.25
379.528	43.86
379.738	19.29
379.948	35.67
380.158	31.57
380.369	54.1
380.579	113.49
380.789	76.63
380.999	27.48
381.21	39.76
381.42	56.15
381.63	33.62
381.84	76.63
382.05	19.29
382.261	84.82
382.471	31.57
382.681	29.52
382.891	45.91
383.101	62.29
383.311	117.59
383.521	-3.24
383.731	60.24
383.941	19.29
384.151	47.96
384.361	13.14
384.571	29.52
384.781	47.96
384.991	88.92
385.201	125.78
385.411	62.29
385.621	103.25
385.831	70.48
386.041	90.96
386.251	68.44
386.461	62.29
386.671	17.24
386.881	58.2
387.091	93.01
387.301	56.15
387.511	119.64
387.72	88.92
387.93	88.92
388.14	13.14
388.35	101.2
388.56	84.82
388.769	23.38
388.979	-11.43
389.189	-9.39
389.399	93.01
389.609	86.87
389.818	121.68
390.028	84.82
390.238	101.2
390.447	37.72
390.657	101.2
390.867	101.2
391.076	2.9
391.286	13.14
391.496	31.57
391.705	29.52
391.915	101.2
392.125	2.9
392.334	60.24
392.544	52.05
392.753	35.67
392.963	37.72
393.172	103.25
393.382	45.91
393.591	111.44
393.801	19.29
394.01	99.16
394.22	84.82
394.429	123.73
394.639	78.68
394.848	11.09
395.058	136.02
395.267	54.1
395.477	27.48
395.686	109.4
395.895	95.06
396.105	170.83
396.314	142.16
396.524	56.15
396.733	39.76
396.942	93.01
397.152	95.06
397.361	86.87
397.57	80.72
397.78	101.2
397.989	105.3
398.198	127.83
398.407	136.02
398.617	97.11
398.826	68.44
399.035	150.36
399.244	127.83
399.453	136.02
399.663	74.58
399.872	158.55
400.081	88.92
400.29	199.51
400.499	88.92
400.708	117.59
400.917	142.16
401.127	111.44
401.336	101.2
401.545	183.12
401.754	148.31
401.963	136.02
402.172	121.68
402.381	152.4
402.59	113.49
402.799	117.59
403.008	160.59
403.217	142.16
403.426	179.03
403.635	99.16
403.844	146.26
404.053	142.16
404.262	99.16
404.471	131.92
404.68	152.4
404.888	103.25
405.097	146.26
405.306	174.93
405.515	168.79
405.724	189.27
405.933	201.55
406.142	193.36
406.35	222.03
406.559	224.08
406.768	166.74
406.977	252.75
407.185	242.51
407.394	195.41
407.603	224.08
407.812	277.33
408.02	273.23
408.229	168.79
408.438	215.89
408.646	224.08
408.855	199.51
409.064	269.14
409.272	346.96
409.481	338.77
409.69	273.23
409.898	285.52
410.107	306
410.315	396.11
410.524	291.66
410.733	414.54
410.941	328.53
411.15	326.48
411.358	482.13
411.567	379.73
411.775	396.11
411.984	396.11
412.192	428.88
412.401	404.3
412.609	502.61
412.818	502.61
413.026	539.47
413.234	514.89
413.443	514.89
413.651	586.57
413.86	643.92
414.068	633.68
414.276	662.35
414.485	676.68
414.693	697.16
414.901	699.21
415.11	680.78
415.318	699.21
415.526	795.47
415.734	813.9
415.943	830.28
416.151	887.62
416.359	889.67
416.567	895.82
416.776	916.3
416.984	893.77
417.192	967.49
417.4	1028.93
417.608	1035.08
417.817	1100.61
418.025	1157.96
418.233	1192.77
418.441	1141.57
418.649	1229.63
418.857	1356.61
419.065	1329.99
419.273	1334.08
419.481	1428.29
419.689	1481.53
419.897	1530.69
420.105	1575.74
420.313	1635.13
420.521	1614.65
420.729	1635.13
420.937	1784.63
421.145	1866.55
421.353	1874.74
421.561	1962.81
421.769	2046.77
421.977	2194.23
422.185	2145.08
422.393	2218.8
422.601	2353.97
422.809	2341.68
423.017	2411.31
423.224	2329.39
423.432	2517.81
423.64	2677.55
423.848	2861.87
424.056	2722.6
424.263	2945.83
424.471	2886.44
424.679	3128.1
424.887	3257.12
425.094	3318.56
425.302	3349.28
425.51	3291.94
425.718	3517.22
425.925	3568.41
426.133	3588.89
426.341	3877.66
426.548	4037.4
426.756	3928.86
426.964	4006.68
427.171	4334.36
427.379	4346.64
427.586	4518.67
427.794	4582.16
428.001	4885.26
428.209	4934.41
428.417	4844.3
428.624	5294.85
428.832	5305.09
429.039	5210.89
429.247	5296.9
429.454	5753.6
429.662	6238.97
429.869	5780.22
430.076	5962.49
430.284	5890.81
430.491	6124.28
430.699	6566.64
430.906	6578.93
431.114	6564.59
431.321	6988.52
431.528	7074.54
431.736	7408.36
431.943	7754.46
432.15	7547.62
432.358	7625.44
432.565	8129.24
432.772	8108.76
432.979	8317.65
433.187	8772.3
433.394	8714.96
433.601	9280.2
433.808	9353.93
434.016	9358.02
434.223	9603.78
434.43	10275.51
434.637	9972.41
434.844	10668.72
435.052	10744.5
435.259	10953.39
435.466	10932.91
435.673	10644.15
435.88	11430.57
436.087	12047.01
436.294	11969.18
436.501	11725.47
436.708	11872.93
436.915	12419.74
437.122	12980.88
437.329	12847.76
437.537	13290.12
437.743	13486.73
437.95	13378.19
438.157	14039.68
438.364	14594.68
438.571	14666.36
438.778	14744.18
438.985	15977.06
439.192	15315.56
439.399	15839.84
439.606	15184.49
439.813	16398.94
440.02	17357.39
440.227	17109.58
440.433	16781.91
440.64	17164.88
440.847	17261.13
441.054	17832.52
441.261	18805.3
441.467	18643.51
441.674	19202.61
441.881	19753.51
442.088	19419.69
442.294	19028.53
442.501	19929.64
442.708	20269.6
442.914	21078.55
443.121	22004.23
443.328	21254.67
443.534	22675.96
443.741	22254.08
443.948	21887.5
444.154	23370.22
444.361	23359.98
444.568	23484.91
444.774	23556.59
444.981	23843.31
445.187	24381.92
445.394	25479.63
445.6	25139.67
445.807	27648.43
446.013	26198.47
446.22	26796.48
446.426	27750.83
446.633	28076.46
446.839	29165.98
447.046	28027.31
447.252	29311.38
447.459	29335.96
447.665	29473.17
447.871	30642.56
448.078	31943.02
448.284	30144.91
448.491	31215.99
448.697	32606.56
448.903	32930.14
449.11	32932.19
449.316	32467.3
449.522	32899.42
449.728	34181.45
449.935	33968.46
450.141	34171.21
450.347	35017.02
450.553	33708.37
450.76	34113.87
450.966	35664.18
451.172	35250.49
451.378	35787.06
451.584	35289.4
451.791	35811.63
451.997	35862.83
452.203	36569.38
452.409	36340.01
452.615	36667.69
452.821	34984.26
453.027	34777.41
453.233	36706.6
453.44	35215.68
453.646	35643.7
453.852	35688.76
454.058	36458.79
454.264	35658.04
454.47	36352.3
454.676	35144
454.882	36305.2
455.088	33448.28
455.294	33653.08
455.5	34679.11
455.705	34515.27
455.911	33481.05
456.117	32733.54
456.323	32137.58
456.529	30214.54
456.735	32168.3
456.941	31027.58
457.147	30806.4
457.352	29960.59
457.558	29485.46
457.764	29571.47
457.97	29163.93
458.176	28295.59
458.381	28780.96
458.587	27072.95
458.793	27152.82
458.999	25559.5
459.204	27742.64
459.41	26917.31
459.616	25168.34
459.821	25192.92
460.027	25272.79
460.233	24461.79
460.438	23505.39
460.644	23558.64
460.85	22391.3
461.055	22432.26
461.261	22149.64
461.466	20658.71
461.672	19751.46
461.878	21328.4
462.083	19894.82
462.289	19368.49
462.494	19331.63
462.7	18502.2
462.905	18031.17
463.111	18594.36
463.316	18483.77
463.522	18274.88
463.727	18055.75
463.932	18111.04
464.138	18135.62
464.343	18037.31
464.549	17586.76
464.754	18092.61
464.959	18108.99
465.165	17908.29
465.37	17189.46
465.575	16865.88
465.781	17275.47
465.986	17664.58
466.191	16802.39
466.397	16400.99
466.602	15546.98
466.807	16087.65
467.012	16018.02
467.218	16083.55
467.423	15723.11
467.628	16175.71
467.833	16908.88
468.038	16214.62
468.244	15630.95
