Data from USB4F104151__67__14-17-18-715.txt Node

Date: Thu Mar 13 14:17:18 EDT 2025
User: louis
Spectrometer: USB4F10415
Trigger mode: 4
Integration Time (sec): 2.000000E-2
Scans to average: 1
Electric dark correction enabled: true
Nonlinearity correction enabled: false
Boxcar width: 0
XAxis mode: Wavelengths
Number of Pixels in Spectrum: 3648
>>>>>Begin Spectral Data<<<<<
178.204	-95.23
178.424	-95.23
178.644	-95.23
178.864	-99.33
179.084	-72.7
179.304	-11.26
179.524	-41.98
179.744	35.84
179.964	25.6
180.184	3.07
180.404	-23.55
180.624	-29.7
180.844	-3.07
181.064	21.5
181.283	-7.17
181.503	50.18
181.723	-19.46
181.943	-19.46
182.163	60.42
182.383	35.84
182.602	101.37
182.822	74.75
183.042	99.33
183.262	-21.5
183.482	3.07
183.701	72.7
183.921	23.55
184.141	21.5
184.361	21.5
184.58	82.94
184.8	64.51
185.02	58.37
185.239	87.04
185.459	9.22
185.679	132.09
185.898	-27.65
186.118	-5.12
186.338	91.13
186.557	52.22
186.777	9.22
186.997	-27.65
187.216	105.47
187.436	140.29
187.655	27.65
187.875	33.79
188.095	64.51
188.314	48.13
188.534	82.94
188.753	84.99
188.973	62.46
189.192	58.37
189.412	101.37
189.631	41.98
189.851	64.51
190.07	76.8
190.29	99.33
190.509	44.03
190.729	-7.17
190.948	87.04
191.168	117.76
191.387	103.42
191.607	13.31
191.826	62.46
192.045	9.22
192.265	70.65
192.484	66.56
192.704	74.75
192.923	-1.02
193.142	175.1
193.362	50.18
193.581	95.23
193.8	50.18
194.02	37.89
194.239	39.94
194.458	54.27
194.678	103.42
194.897	66.56
195.116	9.22
195.335	5.12
195.555	44.03
195.774	58.37
195.993	95.23
196.212	-15.36
196.432	111.61
196.651	39.94
196.87	31.74
197.089	84.99
197.308	107.52
197.528	50.18
197.747	29.7
197.966	29.7
198.185	76.8
198.404	33.79
198.623	93.18
198.842	52.22
199.062	99.33
199.281	84.99
199.5	50.18
199.719	97.28
199.938	97.28
200.157	115.71
200.376	17.41
200.595	68.61
200.814	17.41
201.033	84.99
201.252	60.42
201.471	60.42
201.69	15.36
201.909	60.42
202.128	54.27
202.347	78.85
202.566	52.22
202.785	52.22
203.004	68.61
203.223	140.29
203.442	76.8
203.661	64.51
203.879	58.37
204.098	50.18
204.317	-31.74
204.536	109.57
204.755	-9.22
204.974	87.04
205.193	44.03
205.411	54.27
205.63	68.61
205.849	50.18
206.068	-23.55
206.287	25.6
206.505	109.57
206.724	132.09
206.943	44.03
207.162	29.7
207.381	82.94
207.599	60.42
207.818	1.02
208.037	1.02
208.255	29.7
208.474	95.23
208.693	64.51
208.911	50.18
209.13	142.33
209.349	35.84
209.567	41.98
209.786	84.99
210.005	-3.07
210.223	70.65
210.442	35.84
210.661	48.13
210.879	64.51
211.098	21.5
211.316	1.02
211.535	82.94
211.753	25.6
211.972	164.86
212.191	103.42
212.409	66.56
212.628	-11.26
212.846	35.84
213.065	103.42
213.283	50.18
213.502	78.85
213.72	-19.46
213.938	84.99
214.157	66.56
214.375	41.98
214.594	-48.13
214.812	107.52
215.031	11.26
215.249	46.08
215.467	84.99
215.686	78.85
215.904	82.94
216.122	-3.07
216.341	156.67
216.559	101.37
216.778	107.52
216.996	21.5
217.214	87.04
217.432	-3.07
217.651	27.65
217.869	74.75
218.087	15.36
218.306	29.7
218.524	66.56
218.742	74.75
218.96	115.71
219.179	117.76
219.397	76.8
219.615	101.37
219.833	70.65
220.051	52.22
220.27	84.99
220.488	117.76
220.706	58.37
220.924	27.65
221.142	74.75
221.36	23.55
221.578	95.23
221.796	25.6
222.015	58.37
222.233	91.13
222.451	39.94
222.669	33.79
222.887	25.6
223.105	48.13
223.323	-5.12
223.541	52.22
223.759	76.8
223.977	50.18
224.195	37.89
224.413	66.56
224.631	115.71
224.849	70.65
225.067	119.81
225.285	-50.18
225.503	70.65
225.721	-31.74
225.939	3.07
226.157	82.94
226.375	66.56
226.592	-15.36
226.81	64.51
227.028	107.52
227.246	123.9
227.464	70.65
227.682	109.57
227.9	48.13
228.117	58.37
228.335	95.23
228.553	56.32
228.771	17.41
228.989	44.03
229.206	107.52
229.424	33.79
229.642	21.5
229.86	-15.36
230.077	101.37
230.295	99.33
230.513	91.13
230.731	91.13
230.948	121.85
231.166	82.94
231.384	44.03
231.601	66.56
231.819	11.26
232.037	39.94
232.254	109.57
232.472	25.6
232.689	21.5
232.907	91.13
233.125	37.89
233.342	123.9
233.56	117.76
233.777	33.79
233.995	103.42
234.213	82.94
234.43	89.09
234.648	60.42
234.865	91.13
235.083	41.98
235.3	91.13
235.518	66.56
235.735	87.04
235.953	99.33
236.17	35.84
236.388	33.79
236.605	76.8
236.822	50.18
237.04	66.56
237.257	17.41
237.475	91.13
237.692	25.6
237.909	117.76
238.127	25.6
238.344	35.84
238.562	80.89
238.779	39.94
238.996	82.94
239.214	35.84
239.431	101.37
239.648	50.18
239.865	128
240.083	66.56
240.3	21.5
240.517	41.98
240.735	87.04
240.952	84.99
241.169	111.61
241.386	66.56
241.603	9.22
241.821	41.98
242.038	132.09
242.255	107.52
242.472	-13.31
242.689	41.98
242.907	78.85
243.124	11.26
243.341	136.19
243.558	82.94
243.775	41.98
243.992	19.46
244.209	84.99
244.426	101.37
244.643	58.37
244.86	29.7
245.078	58.37
245.295	-5.12
245.512	107.52
245.729	80.89
245.946	44.03
246.163	35.84
246.38	87.04
246.597	58.37
246.814	13.31
247.031	142.33
247.248	123.9
247.464	13.31
247.681	123.9
247.898	33.79
248.115	107.52
248.332	13.31
248.549	87.04
248.766	35.84
248.983	117.76
249.2	82.94
249.417	66.56
249.633	64.51
249.85	91.13
250.067	50.18
250.284	23.55
250.501	33.79
250.717	70.65
250.934	72.7
251.151	111.61
251.368	41.98
251.585	52.22
251.801	-37.89
252.018	13.31
252.235	91.13
252.451	27.65
252.668	91.13
252.885	138.24
253.102	103.42
253.318	76.8
253.535	7.17
253.752	48.13
253.968	84.99
254.185	41.98
254.401	64.51
254.618	82.94
254.835	99.33
255.051	142.33
255.268	68.61
255.484	23.55
255.701	66.56
255.917	123.9
256.134	66.56
256.351	39.94
256.567	95.23
256.784	128
257	56.32
257.217	17.41
257.433	70.65
257.65	82.94
257.866	132.09
258.082	11.26
258.299	13.31
258.515	64.51
258.732	64.51
258.948	1.02
259.165	58.37
259.381	82.94
259.597	11.26
259.814	21.5
260.03	-7.17
260.246	52.22
260.463	66.56
260.679	177.15
260.895	27.65
261.112	52.22
261.328	46.08
261.544	62.46
261.761	117.76
261.977	74.75
262.193	70.65
262.409	35.84
262.626	74.75
262.842	58.37
263.058	11.26
263.274	173.05
263.49	56.32
263.707	177.15
263.923	82.94
264.139	25.6
264.355	76.8
264.571	74.75
264.787	52.22
265.004	41.98
265.22	9.22
265.436	44.03
265.652	35.84
265.868	58.37
266.084	46.08
266.3	80.89
266.516	52.22
266.732	54.27
266.948	115.71
267.164	82.94
267.38	91.13
267.596	62.46
267.812	101.37
268.028	68.61
268.244	48.13
268.46	64.51
268.676	27.65
268.892	123.9
269.108	78.85
269.324	29.7
269.54	66.56
269.756	68.61
269.972	-7.17
270.188	91.13
270.403	-19.46
270.619	54.27
270.835	25.6
271.051	1.02
271.267	29.7
271.483	25.6
271.698	105.47
271.914	-1.02
272.13	74.75
272.346	50.18
272.562	9.22
272.777	37.89
272.993	-19.46
273.209	23.55
273.425	25.6
273.64	35.84
273.856	35.84
274.072	39.94
274.287	1.02
274.503	68.61
274.719	50.18
274.934	82.94
275.15	-29.7
275.366	11.26
275.581	62.46
275.797	128
276.012	140.29
276.228	11.26
276.444	-19.46
276.659	107.52
276.875	66.56
277.09	58.37
277.306	17.41
277.521	82.94
277.737	-15.36
277.952	41.98
278.168	41.98
278.383	68.61
278.599	84.99
278.814	48.13
279.03	107.52
279.245	62.46
279.461	66.56
279.676	93.18
279.892	123.9
280.107	74.75
280.322	74.75
280.538	33.79
280.753	109.57
280.969	9.22
281.184	70.65
281.399	103.42
281.615	52.22
281.83	35.84
282.045	66.56
282.26	37.89
282.476	76.8
282.691	74.75
282.906	56.32
283.122	-3.07
283.337	35.84
283.552	74.75
283.767	60.42
283.983	35.84
284.198	54.27
284.413	1.02
284.628	33.79
284.843	64.51
285.058	82.94
285.274	50.18
285.489	-23.55
285.704	37.89
285.919	76.8
286.134	33.79
286.349	48.13
286.564	52.22
286.779	82.94
286.995	82.94
287.21	19.46
287.425	123.9
287.64	25.6
287.855	173.05
288.07	48.13
288.285	21.5
288.5	142.33
288.715	72.7
288.93	50.18
289.145	66.56
289.36	60.42
289.575	54.27
289.79	76.8
290.004	82.94
290.219	99.33
290.434	62.46
290.649	70.65
290.864	62.46
291.079	50.18
291.294	74.75
291.509	99.33
291.724	-15.36
291.938	-3.07
292.153	9.22
292.368	35.84
292.583	44.03
292.798	82.94
293.012	142.33
293.227	35.84
293.442	-7.17
293.657	17.41
293.871	58.37
294.086	35.84
294.301	160.77
294.516	82.94
294.73	99.33
294.945	33.79
295.16	9.22
295.374	48.13
295.589	66.56
295.804	56.32
296.018	58.37
296.233	109.57
296.447	109.57
296.662	66.56
296.877	27.65
297.091	89.09
297.306	99.33
297.52	33.79
297.735	66.56
297.949	64.51
298.164	60.42
298.378	35.84
298.593	66.56
298.807	107.52
299.022	66.56
299.236	89.09
299.451	93.18
299.665	29.7
299.88	-25.6
300.094	74.75
300.309	41.98
300.523	13.31
300.737	117.76
300.952	44.03
301.166	5.12
301.381	27.65
301.595	-25.6
301.809	23.55
302.024	37.89
302.238	76.8
302.452	105.47
302.667	82.94
302.881	91.13
303.095	89.09
303.309	37.89
303.524	68.61
303.738	41.98
303.952	58.37
304.166	93.18
304.381	33.79
304.595	154.62
304.809	13.31
305.023	103.42
305.237	56.32
305.452	50.18
305.666	-27.65
305.88	76.8
306.094	-11.26
306.308	125.95
306.522	5.12
306.736	99.33
306.95	21.5
307.164	107.52
307.379	37.89
307.593	41.98
307.807	35.84
308.021	121.85
308.235	17.41
308.449	33.79
308.663	9.22
308.877	109.57
309.091	-15.36
309.305	25.6
309.519	9.22
309.733	136.19
309.947	72.7
310.161	103.42
310.374	136.19
310.588	99.33
310.802	31.74
311.016	11.26
311.23	76.8
311.444	35.84
311.658	64.51
311.872	95.23
312.085	136.19
312.299	64.51
312.513	115.71
312.727	50.18
312.941	-11.26
313.154	50.18
313.368	41.98
313.582	48.13
313.796	13.31
314.009	76.8
314.223	29.7
314.437	56.32
314.651	52.22
314.864	48.13
315.078	68.61
315.292	76.8
315.505	68.61
315.719	62.46
315.933	82.94
316.146	64.51
316.36	44.03
316.573	82.94
316.787	60.42
317.001	70.65
317.214	-23.55
317.428	19.46
317.641	52.22
317.855	37.89
318.068	84.99
318.282	44.03
318.495	66.56
318.709	80.89
318.922	50.18
319.136	52.22
319.349	60.42
319.563	70.65
319.776	121.85
319.99	68.61
320.203	70.65
320.417	99.33
320.63	93.18
320.843	138.24
321.057	115.71
321.27	70.65
321.483	31.74
321.697	50.18
321.91	25.6
322.124	64.51
322.337	72.7
322.55	21.5
322.763	74.75
322.977	25.6
323.19	136.19
323.403	37.89
323.617	76.8
323.83	46.08
324.043	41.98
324.256	13.31
324.469	74.75
324.683	5.12
324.896	60.42
325.109	23.55
325.322	15.36
325.535	72.7
325.748	132.09
325.962	72.7
326.175	11.26
326.388	66.56
326.601	148.48
326.814	103.42
327.027	62.46
327.24	87.04
327.453	-39.94
327.666	91.13
327.879	84.99
328.092	115.71
328.305	21.5
328.518	152.57
328.731	66.56
328.944	54.27
329.157	50.18
329.37	9.22
329.583	78.85
329.796	74.75
330.009	-15.36
330.222	74.75
330.435	76.8
330.648	105.47
330.861	119.81
331.073	50.18
331.286	78.85
331.499	87.04
331.712	33.79
331.925	103.42
332.138	80.89
332.35	62.46
332.563	52.22
332.776	99.33
332.989	66.56
333.202	3.07
333.414	11.26
333.627	68.61
333.84	-23.55
334.053	87.04
334.265	70.65
334.478	109.57
334.691	117.76
334.903	52.22
335.116	111.61
335.329	123.9
335.541	3.07
335.754	50.18
335.966	56.32
336.179	60.42
336.392	111.61
336.604	17.41
336.817	39.94
337.029	52.22
337.242	21.5
337.454	115.71
337.667	-3.07
337.88	78.85
338.092	87.04
338.305	91.13
338.517	117.76
338.729	132.09
338.942	91.13
339.154	41.98
339.367	74.75
339.579	101.37
339.792	117.76
340.004	99.33
340.217	99.33
340.429	113.66
340.641	25.6
340.854	-7.17
341.066	46.08
341.278	93.18
341.491	144.38
341.703	78.85
341.915	41.98
342.128	125.95
342.34	171.01
342.552	76.8
342.764	19.46
342.977	-11.26
343.189	11.26
343.401	89.09
343.613	19.46
343.826	23.55
344.038	33.79
344.25	123.9
344.462	93.18
344.674	66.56
344.886	46.08
345.099	-23.55
345.311	128
345.523	11.26
345.735	66.56
345.947	99.33
346.159	58.37
346.371	58.37
346.583	39.94
346.795	76.8
347.007	60.42
347.219	60.42
347.431	54.27
347.643	91.13
347.855	21.5
348.067	150.53
348.279	107.52
348.491	89.09
348.703	76.8
348.915	15.36
349.127	58.37
349.339	99.33
349.551	125.95
349.763	82.94
349.975	44.03
350.187	109.57
350.399	132.09
350.61	60.42
350.822	15.36
351.034	82.94
351.246	107.52
351.458	33.79
351.669	82.94
351.881	60.42
352.093	44.03
352.305	54.27
352.517	39.94
352.728	50.18
352.94	87.04
353.152	54.27
353.363	37.89
353.575	78.85
353.787	95.23
353.999	91.13
354.21	111.61
354.422	84.99
354.633	9.22
354.845	99.33
355.057	74.75
355.268	17.41
355.48	44.03
355.692	115.71
355.903	56.32
356.115	3.07
356.326	-37.89
356.538	84.99
356.749	156.67
356.961	107.52
357.172	17.41
357.384	48.13
357.595	68.61
357.807	54.27
358.018	50.18
358.23	21.5
358.441	93.18
358.653	164.86
358.864	41.98
359.075	27.65
359.287	50.18
359.498	17.41
359.709	95.23
359.921	78.85
360.132	140.29
360.344	58.37
360.555	60.42
360.766	84.99
360.977	95.23
361.189	62.46
361.4	3.07
361.611	109.57
361.823	46.08
362.034	93.18
362.245	93.18
362.456	50.18
362.667	44.03
362.879	115.71
363.09	103.42
363.301	125.95
363.512	91.13
363.723	21.5
363.935	37.89
364.146	99.33
364.357	31.74
364.568	99.33
364.779	-15.36
364.99	60.42
365.201	11.26
365.412	154.62
365.623	9.22
365.834	125.95
366.045	91.13
366.256	68.61
366.467	97.28
366.678	95.23
366.889	91.13
367.1	152.57
367.311	136.19
367.522	66.56
367.733	66.56
367.944	80.89
368.155	84.99
368.366	103.42
368.577	58.37
368.788	125.95
368.999	111.61
369.209	56.32
369.42	117.76
369.631	123.9
369.842	95.23
370.053	125.95
370.264	136.19
370.474	70.65
370.685	11.26
370.896	140.29
371.107	144.38
371.317	-1.02
371.528	66.56
371.739	107.52
371.95	52.22
372.16	125.95
372.371	56.32
372.582	101.37
372.792	21.5
373.003	115.71
373.214	99.33
373.424	66.56
373.635	62.46
373.846	95.23
374.056	109.57
374.267	35.84
374.477	70.65
374.688	17.41
374.898	-3.07
375.109	17.41
375.319	107.52
375.53	130.05
375.74	87.04
375.951	35.84
376.161	-7.17
376.372	76.8
376.582	150.53
376.793	66.56
377.003	17.41
377.214	68.61
377.424	115.71
377.635	121.85
377.845	78.85
378.055	74.75
378.266	-11.26
378.476	93.18
378.686	-29.7
378.897	54.27
379.107	84.99
379.317	52.22
379.528	72.7
379.738	107.52
379.948	21.5
380.158	9.22
380.369	107.52
380.579	103.42
380.789	37.89
380.999	101.37
381.21	99.33
381.42	125.95
381.63	35.84
381.84	125.95
382.05	101.37
382.261	80.89
382.471	84.99
382.681	93.18
382.891	107.52
383.101	70.65
383.311	56.32
383.521	50.18
383.731	13.31
383.941	134.14
384.151	66.56
384.361	62.46
384.571	130.05
384.781	132.09
384.991	56.32
385.201	58.37
385.411	91.13
385.621	29.7
385.831	123.9
386.041	64.51
386.251	82.94
386.461	78.85
386.671	-3.07
386.881	64.51
387.091	50.18
387.301	123.9
387.511	54.27
387.72	62.46
387.93	50.18
388.14	76.8
388.35	25.6
388.56	128
388.769	101.37
388.979	107.52
389.189	50.18
389.399	128
389.609	64.51
389.818	99.33
390.028	39.94
390.238	95.23
390.447	91.13
390.657	35.84
390.867	111.61
391.076	115.71
391.286	132.09
391.496	134.14
391.705	115.71
391.915	132.09
392.125	171.01
392.334	-5.12
392.544	119.81
392.753	109.57
392.963	84.99
393.172	84.99
393.382	99.33
393.591	107.52
393.801	70.65
394.01	148.48
394.22	68.61
394.429	113.66
394.639	132.09
394.848	91.13
395.058	76.8
395.267	134.14
395.477	97.28
395.686	132.09
395.895	177.15
396.105	171.01
396.314	209.92
396.524	41.98
396.733	107.52
396.942	175.1
397.152	168.96
397.361	41.98
397.57	117.76
397.78	197.63
397.989	123.9
398.198	103.42
398.407	154.62
398.617	136.19
398.826	132.09
399.035	181.25
399.244	121.85
399.453	78.85
399.663	154.62
399.872	189.44
400.081	115.71
400.29	123.9
400.499	123.9
400.708	109.57
400.917	93.18
401.127	156.67
401.336	56.32
401.545	222.2
401.754	142.33
401.963	168.96
402.172	158.72
402.381	76.8
402.59	115.71
402.799	211.96
403.008	185.34
403.217	146.43
403.426	193.53
403.635	168.96
403.844	162.81
404.053	123.9
404.262	93.18
404.471	222.2
404.68	195.58
404.888	254.97
405.097	171.01
405.306	201.72
405.515	246.78
405.724	76.8
405.933	183.29
406.142	156.67
406.35	224.25
406.559	193.53
406.768	205.82
406.977	218.11
407.185	148.48
407.394	218.11
407.603	250.88
407.812	267.26
408.02	230.4
408.229	324.6
408.438	242.68
408.646	248.83
408.855	246.78
409.064	281.6
409.272	304.12
409.481	410.62
409.69	261.12
409.898	287.74
410.107	336.89
410.315	363.51
410.524	404.47
410.733	365.56
410.941	398.33
411.15	416.76
411.358	427
411.567	408.57
411.775	418.81
411.984	406.52
412.192	412.67
412.401	531.45
412.609	504.82
412.818	470.01
413.026	527.35
413.234	549.88
413.443	562.17
413.651	594.93
413.86	601.08
414.068	611.32
414.276	676.85
414.485	625.65
414.693	750.58
414.901	748.53
415.11	709.62
415.318	762.87
415.526	775.16
415.734	803.83
415.943	752.63
416.151	961.52
416.359	943.09
416.567	812.02
416.776	975.86
416.984	1057.78
417.192	1033.2
417.4	977.91
417.608	936.95
417.817	1104.88
418.025	1147.89
418.233	1213.42
418.441	1102.83
418.649	1321.96
418.857	1381.35
419.065	1348.59
419.273	1297.39
419.481	1459.18
419.689	1463.27
419.897	1539.05
420.105	1524.71
420.313	1598.44
420.521	1663.97
420.729	1688.55
420.937	1795.04
421.145	1852.39
421.353	1762.28
421.561	1979.36
421.769	2094.05
421.977	2032.61
422.185	2053.09
422.393	2188.25
422.601	2331.61
422.809	2337.76
423.017	2323.42
423.224	2462.68
423.432	2462.68
423.64	2587.61
423.848	2837.46
424.056	2692.05
424.263	2847.7
424.471	2862.04
424.679	3097.55
424.887	3195.86
425.094	3179.47
425.302	3181.52
425.51	3308.49
425.718	3564.49
425.925	3429.32
426.133	3539.91
426.341	3863.49
426.548	3986.37
426.756	3965.89
426.964	4142.02
427.171	4268.99
427.379	4400.06
427.586	4420.54
427.794	4631.48
428.001	4713.4
428.209	5039.03
428.417	5008.31
428.624	5280.69
428.832	5186.48
429.039	5190.58
429.247	5311.41
429.454	5784.49
429.662	6087.59
429.869	5661.61
430.076	6167.46
430.284	5985.19
430.491	6169.51
430.699	6603.68
430.906	6534.04
431.114	6515.61
431.321	6851.48
431.528	7005.08
431.736	7394.19
431.943	7648.14
432.15	7553.93
432.358	7644.04
432.565	8078.21
432.772	8115.08
432.979	8403.84
433.187	8569.73
433.394	8407.94
433.601	9126.77
433.808	9243.51
434.016	9272.18
434.223	9536.37
434.43	9972.58
434.637	9956.2
434.844	10572.64
435.052	10767.2
435.259	10765.15
435.466	10652.51
435.673	10658.65
435.88	11535.18
436.087	11928.39
436.294	11854.67
436.501	11635.53
436.708	11963.21
436.915	12430.15
437.122	12849.98
437.329	12892.99
437.537	13054.78
437.743	13425.46
437.95	13589.3
438.157	14201.64
438.364	14469.92
438.571	14416.68
438.778	14439.2
438.985	15880.97
439.192	15098.65
439.399	15823.63
439.606	15352.6
439.813	16120.59
440.02	17335.03
440.227	16954.11
440.433	16714.5
440.64	17433.33
440.847	17306.36
441.054	17720.05
441.261	18709.22
441.467	18594.53
441.674	18819.81
441.881	19548.89
442.088	19548.89
442.294	19471.06
442.501	19942.1
442.708	20308.68
442.914	21162.69
443.121	21727.92
443.328	21332.67
443.534	22811.3
443.741	22145.71
443.948	22020.78
444.154	23687.83
444.361	23450.27
444.568	23605.91
444.774	23669.4
444.981	23837.33
445.187	24558.22
445.394	25553.53
445.6	25084.55
445.807	27578.97
446.013	26255.98
446.22	26907.24
446.426	27779.67
446.633	28230.23
446.839	28815.94
447.046	27714.14
447.252	29377.09
447.459	29395.52
447.665	29504.06
447.871	30405.17
448.078	31795.74
448.284	30366.26
448.491	31072.81
448.697	32381.46
448.903	32930.31
449.11	32793.1
449.316	32289.3
449.522	33309.19
449.728	34077.18
449.935	34314.74
450.141	34220.53
450.347	35027.43
450.553	34152.95
450.76	34531.83
450.966	35504.61
451.172	35107.3
451.378	36063.71
451.584	35553.76
451.791	35975.64
451.997	35854.81
452.203	36559.31
452.409	36458.96
452.615	36825.55
452.821	34769.39
453.027	34660.85
453.233	36295.13
453.44	35252.71
453.646	35668.45
453.852	35588.58
454.058	36438.48
454.264	35021.29
454.47	36106.71
454.676	35103.21
454.882	36712.91
455.088	33546.75
455.294	34013.69
455.5	34466.29
455.705	34621.94
455.911	33335.81
456.117	32786.96
456.323	32569.87
456.529	30896.68
456.735	31973.91
456.941	31081
457.147	30493.23
457.352	29487.68
457.558	29571.64
457.764	29766.2
457.97	28990.02
458.176	28684.87
458.381	28445.26
458.587	26884.71
458.793	27144.8
458.999	26098.29
459.204	27488.86
459.41	26255.98
459.616	24642.18
459.821	24744.58
460.027	24797.83
460.233	23982.74
460.438	23016.1
460.644	23528.09
460.85	22131.37
461.055	22082.22
461.261	21856.95
461.466	20347.59
461.672	19858.13
461.878	20814.53
462.083	19878.61
462.289	19487.45
462.494	19210.97
462.7	18430.69
462.905	18113.26
463.111	18744.03
463.316	18465.51
463.522	17853.17
463.727	18113.26
463.932	18307.82
464.138	17902.32
464.343	18017.01
464.549	17210.11
464.754	18336.49
464.959	17861.36
465.165	17756.91
465.37	16988.92
465.575	16605.95
465.781	17359.61
465.986	17081.08
466.191	16640.77
466.397	16151.31
466.602	15846.16
466.807	16229.13
