Data from USB4F104151__202__14-20-37-844.txt Node

Date: Thu Mar 13 14:20:37 EDT 2025
User: louis
Spectrometer: USB4F10415
Trigger mode: 4
Integration Time (sec): 2.000000E-2
Scans to average: 1
Electric dark correction enabled: true
Nonlinearity correction enabled: false
Boxcar width: 0
XAxis mode: Wavelengths
Number of Pixels in Spectrum: 3648
>>>>>Begin Spectral Data<<<<<
178.204	-122.54
178.424	-122.54
178.644	-122.54
178.864	-155.3
179.084	-73.39
179.304	18.77
179.524	18.77
179.744	-57
179.964	51.54
180.184	18.77
180.404	-7.85
180.624	6.49
180.844	-61.1
181.064	-36.52
181.283	10.58
181.503	-3.75
181.723	41.3
181.943	-16.04
182.163	102.74
182.383	59.73
182.602	-22.19
182.822	20.82
183.042	74.07
183.262	-1.71
183.482	33.11
183.701	26.96
183.921	65.88
184.141	4.44
184.361	115.03
184.58	29.01
184.8	-32.43
185.02	-1.71
185.239	24.92
185.459	39.25
185.679	-5.8
185.898	0.34
186.118	51.54
186.338	12.63
186.557	35.16
186.777	6.49
186.997	-5.8
187.216	-52.91
187.436	90.45
187.655	133.46
187.875	65.88
188.095	-69.29
188.314	78.16
188.534	88.4
188.753	29.01
188.973	18.77
189.192	33.11
189.412	10.58
189.631	57.68
189.851	94.55
190.07	149.84
190.29	29.01
190.509	-16.04
190.729	-38.57
190.948	0.34
191.168	115.03
191.387	-16.04
191.607	0.34
191.826	26.96
192.045	-18.09
192.265	69.97
192.484	24.92
192.704	33.11
192.923	37.2
193.142	53.59
193.362	-1.71
193.581	37.2
193.8	-30.38
194.02	51.54
194.239	53.59
194.458	10.58
194.678	102.74
194.897	22.87
195.116	10.58
195.335	51.54
195.555	0.34
195.774	18.77
195.993	78.16
196.212	69.97
196.432	6.49
196.651	26.96
196.87	59.73
197.089	65.88
197.308	14.68
197.528	92.5
197.747	0.34
197.966	2.39
198.185	-3.75
198.404	57.68
198.623	-38.57
198.842	115.03
199.062	59.73
199.281	33.11
199.5	-5.8
199.719	26.96
199.938	53.59
200.157	16.73
200.376	88.4
200.595	43.35
200.814	0.34
201.033	14.68
201.252	55.64
201.471	69.97
201.69	53.59
201.909	24.92
202.128	8.53
202.347	65.88
202.566	61.78
202.785	59.73
203.004	22.87
203.223	26.96
203.442	127.32
203.661	-40.62
203.879	4.44
204.098	0.34
204.317	90.45
204.536	59.73
204.755	33.11
204.974	24.92
205.193	-16.04
205.411	78.16
205.63	106.84
205.849	72.02
206.068	57.68
206.287	41.3
206.505	41.3
206.724	26.96
206.943	-13.99
207.162	61.78
207.381	-7.85
207.599	43.35
207.818	61.78
208.037	86.36
208.255	12.63
208.474	84.31
208.693	-13.99
208.911	76.12
209.13	10.58
209.349	112.98
209.567	67.92
209.786	33.11
210.005	-5.8
210.223	90.45
210.442	59.73
210.661	22.87
210.879	41.3
211.098	63.83
211.316	45.4
211.535	74.07
211.753	20.82
211.972	49.49
212.191	33.11
212.409	26.96
212.628	90.45
212.846	41.3
213.065	41.3
213.283	41.3
213.502	2.39
213.72	-20.14
213.938	74.07
214.157	41.3
214.375	57.68
214.594	67.92
214.812	53.59
215.031	16.73
215.249	10.58
215.467	69.97
215.686	0.34
215.904	69.97
216.122	-42.67
216.341	74.07
216.559	-40.62
216.778	76.12
216.996	80.21
217.214	18.77
217.432	39.25
217.651	12.63
217.869	49.49
218.087	84.31
218.306	51.54
218.524	24.92
218.742	45.4
218.96	16.73
219.179	86.36
219.397	29.01
219.615	82.26
219.833	92.5
220.051	57.68
220.27	0.34
220.488	41.3
220.706	63.83
220.924	4.44
221.142	4.44
221.36	22.87
221.578	45.4
221.796	33.11
222.015	84.31
222.233	51.54
222.451	129.36
222.669	39.25
222.887	106.84
223.105	-38.57
223.323	61.78
223.541	4.44
223.759	41.3
223.977	26.96
224.195	74.07
224.413	43.35
224.631	78.16
224.849	106.84
225.067	147.8
225.285	4.44
225.503	57.68
225.721	2.39
225.939	82.26
226.157	41.3
226.375	78.16
226.592	31.06
226.81	65.88
227.028	65.88
227.246	115.03
227.464	-3.75
227.682	35.16
227.9	45.4
228.117	82.26
228.335	45.4
228.553	76.12
228.771	39.25
228.989	65.88
229.206	49.49
229.424	29.01
229.642	0.34
229.86	88.4
230.077	33.11
230.295	45.4
230.513	164.18
230.731	78.16
230.948	-7.85
231.166	166.23
231.384	0.34
231.601	45.4
231.819	2.39
232.037	2.39
232.254	-30.38
232.472	59.73
232.689	-9.9
232.907	98.64
233.125	33.11
233.342	16.73
233.56	16.73
233.777	41.3
233.995	45.4
234.213	53.59
234.43	51.54
234.648	-13.99
234.865	16.73
235.083	78.16
235.3	2.39
235.518	-3.75
235.735	86.36
235.953	88.4
236.17	43.35
236.388	29.01
236.605	-3.75
236.822	45.4
237.04	82.26
237.257	-20.14
237.475	20.82
237.692	41.3
237.909	74.07
238.127	29.01
238.344	49.49
238.562	90.45
238.779	6.49
238.996	26.96
239.214	-24.23
239.431	82.26
239.648	72.02
239.865	49.49
240.083	84.31
240.3	-11.95
240.517	-3.75
240.735	74.07
240.952	61.78
241.169	115.03
241.386	37.2
241.603	24.92
241.821	18.77
242.038	29.01
242.255	106.84
242.472	0.34
242.689	31.06
242.907	24.92
243.124	-32.43
243.341	80.21
243.558	67.92
243.775	57.68
243.992	-24.23
244.209	16.73
244.426	41.3
244.643	102.74
244.86	49.49
245.078	-40.62
245.295	-7.85
245.512	98.64
245.729	22.87
245.946	18.77
246.163	18.77
246.38	49.49
246.597	69.97
246.814	78.16
247.031	78.16
247.248	106.84
247.464	-13.99
247.681	117.08
247.898	51.54
248.115	65.88
248.332	76.12
248.549	106.84
248.766	106.84
248.983	84.31
249.2	2.39
249.417	-3.75
249.633	4.44
249.85	49.49
250.067	82.26
250.284	2.39
250.501	24.92
250.717	43.35
250.934	-5.8
251.151	39.25
251.368	74.07
251.585	33.11
251.801	47.44
252.018	6.49
252.235	61.78
252.451	18.77
252.668	10.58
252.885	106.84
253.102	-11.95
253.318	31.06
253.535	37.2
253.752	41.3
253.968	14.68
254.185	-7.85
254.401	78.16
254.618	92.5
254.835	59.73
255.051	35.16
255.268	82.26
255.484	63.83
255.701	31.06
255.917	16.73
256.134	-32.43
256.351	37.2
256.567	37.2
256.784	2.39
257	16.73
257.217	51.54
257.433	43.35
257.65	26.96
257.866	57.68
258.082	-40.62
258.299	35.16
258.515	67.92
258.732	0.34
258.948	31.06
259.165	57.68
259.381	33.11
259.597	-20.14
259.814	35.16
260.03	41.3
260.246	22.87
260.463	127.32
260.679	117.08
260.895	69.97
261.112	43.35
261.328	14.68
261.544	82.26
261.761	147.8
261.977	22.87
262.193	12.63
262.409	10.58
262.626	33.11
262.842	72.02
263.058	16.73
263.274	33.11
263.49	67.92
263.707	4.44
263.923	45.4
264.139	8.53
264.355	14.68
264.571	115.03
264.787	35.16
265.004	108.88
265.22	-26.28
265.436	26.96
265.652	8.53
265.868	24.92
266.084	2.39
266.3	6.49
266.516	18.77
266.732	41.3
266.948	45.4
267.164	45.4
267.38	-24.23
267.596	41.3
267.812	43.35
268.028	67.92
268.244	65.88
268.46	78.16
268.676	41.3
268.892	14.68
269.108	59.73
269.324	-38.57
269.54	33.11
269.756	102.74
269.972	35.16
270.188	65.88
270.403	67.92
270.619	82.26
270.835	45.4
271.051	37.2
271.267	45.4
271.483	84.31
271.698	90.45
271.914	45.4
272.13	37.2
272.346	106.84
272.562	59.73
272.777	69.97
272.993	12.63
273.209	12.63
273.425	-57
273.64	10.58
273.856	-1.71
274.072	59.73
274.287	-9.9
274.503	-71.34
274.719	33.11
274.934	92.5
275.15	90.45
275.366	51.54
275.581	26.96
275.797	74.07
276.012	8.53
276.228	24.92
276.444	43.35
276.659	86.36
276.875	-7.85
277.09	45.4
277.306	16.73
277.521	45.4
277.737	0.34
277.952	90.45
278.168	18.77
278.383	53.59
278.599	106.84
278.814	57.68
279.03	82.26
279.245	106.84
279.461	74.07
279.676	69.97
279.892	16.73
280.107	0.34
280.322	10.58
280.538	45.4
280.753	0.34
280.969	164.18
281.184	65.88
281.399	57.68
281.615	94.55
281.83	94.55
282.045	-24.23
282.26	29.01
282.476	74.07
282.691	61.78
282.906	41.3
283.122	59.73
283.337	-5.8
283.552	135.51
283.767	-9.9
283.983	100.69
284.198	-5.8
284.413	-11.95
284.628	67.92
284.843	123.22
285.058	74.07
285.274	100.69
285.489	-22.19
285.704	31.06
285.919	65.88
286.134	74.07
286.349	98.64
286.564	14.68
286.779	135.51
286.995	10.58
287.21	18.77
287.425	108.88
287.64	12.63
287.855	74.07
288.07	-22.19
288.285	43.35
288.5	84.31
288.715	98.64
288.93	-3.75
289.145	74.07
289.36	115.03
289.575	-16.04
289.79	26.96
290.004	24.92
290.219	59.73
290.434	0.34
290.649	74.07
290.864	2.39
291.079	41.3
291.294	49.49
291.509	12.63
291.724	-22.19
291.938	-16.04
292.153	49.49
292.368	-3.75
292.583	-7.85
292.798	24.92
293.012	82.26
293.227	49.49
293.442	51.54
293.657	74.07
293.871	57.68
294.086	98.64
294.301	51.54
294.516	53.59
294.73	76.12
294.945	33.11
295.16	45.4
295.374	39.25
295.589	115.03
295.804	33.11
296.018	102.74
296.233	90.45
296.447	94.55
296.662	43.35
296.877	78.16
297.091	43.35
297.306	55.64
297.52	-52.91
297.735	65.88
297.949	20.82
298.164	-13.99
298.378	67.92
298.593	45.4
298.807	18.77
299.022	76.12
299.236	67.92
299.451	80.21
299.665	-44.71
299.88	24.92
300.094	67.92
300.309	78.16
300.523	-16.04
300.737	10.58
300.952	39.25
301.166	8.53
301.381	80.21
301.595	96.6
301.809	82.26
302.024	84.31
302.238	18.77
302.452	123.22
302.667	-32.43
302.881	76.12
303.095	88.4
303.309	49.49
303.524	8.53
303.738	12.63
303.952	53.59
304.166	67.92
304.381	24.92
304.595	104.79
304.809	22.87
305.023	61.78
305.237	74.07
305.452	47.44
305.666	82.26
305.88	49.49
306.094	90.45
306.308	74.07
306.522	84.31
306.736	33.11
306.95	45.4
307.164	74.07
307.379	47.44
307.593	131.41
307.807	43.35
308.021	45.4
308.235	29.01
308.449	-3.75
308.663	41.3
308.877	57.68
309.091	115.03
309.305	127.32
309.519	8.53
309.733	22.87
309.947	61.78
310.161	0.34
310.374	49.49
310.588	98.64
310.802	51.54
311.016	86.36
311.23	94.55
311.444	-26.28
311.658	57.68
311.872	90.45
312.085	67.92
312.299	49.49
312.513	63.83
312.727	49.49
312.941	24.92
313.154	39.25
313.368	8.53
313.582	84.31
313.796	53.59
314.009	78.16
314.223	72.02
314.437	82.26
314.651	84.31
314.864	33.11
315.078	-1.71
315.292	45.4
315.505	35.16
315.719	43.35
315.933	55.64
316.146	63.83
316.36	51.54
316.573	94.55
316.787	86.36
317.001	0.34
317.214	39.25
317.428	-30.38
317.641	45.4
317.855	41.3
318.068	53.59
318.282	55.64
318.495	98.64
318.709	69.97
318.922	43.35
319.136	123.22
319.349	41.3
319.563	84.31
319.776	57.68
319.99	57.68
320.203	26.96
320.417	53.59
320.63	59.73
320.843	131.41
321.057	102.74
321.27	24.92
321.483	43.35
321.697	74.07
321.91	33.11
322.124	106.84
322.337	53.59
322.55	59.73
322.763	16.73
322.977	82.26
323.19	45.4
323.403	80.21
323.617	84.31
323.83	104.79
324.043	16.73
324.256	92.5
324.469	24.92
324.683	74.07
324.896	16.73
325.109	-7.85
325.322	16.73
325.535	92.5
325.748	96.6
325.962	41.3
326.175	-36.52
326.388	33.11
326.601	65.88
326.814	94.55
327.027	92.5
327.24	-16.04
327.453	20.82
327.666	119.12
327.879	110.93
328.092	26.96
328.305	31.06
328.518	14.68
328.731	8.53
328.944	98.64
329.157	45.4
329.37	22.87
329.583	69.97
329.796	24.92
330.009	12.63
330.222	51.54
330.435	0.34
330.648	41.3
330.861	57.68
331.073	67.92
331.286	49.49
331.499	74.07
331.712	22.87
331.925	57.68
332.138	67.92
332.35	31.06
332.563	108.88
332.776	69.97
332.989	24.92
333.202	53.59
333.414	8.53
333.627	115.03
333.84	53.59
334.053	82.26
334.265	84.31
334.478	39.25
334.691	67.92
334.903	61.78
335.116	45.4
335.329	53.59
335.541	78.16
335.754	100.69
335.966	98.64
336.179	78.16
336.392	16.73
336.604	51.54
336.817	110.93
337.029	65.88
337.242	69.97
337.454	55.64
337.667	45.4
337.88	51.54
338.092	29.01
338.305	29.01
338.517	-5.8
338.729	24.92
338.942	16.73
339.154	24.92
339.367	78.16
339.579	69.97
339.792	37.2
340.004	108.88
340.217	14.68
340.429	26.96
340.641	82.26
340.854	10.58
341.066	35.16
341.278	106.84
341.491	59.73
341.703	123.22
341.915	41.3
342.128	86.36
342.34	49.49
342.552	-11.95
342.764	84.31
342.977	24.92
343.189	94.55
343.401	90.45
343.613	69.97
343.826	65.88
344.038	67.92
344.25	74.07
344.462	49.49
344.674	106.84
344.886	49.49
345.099	31.06
345.311	-11.95
345.523	57.68
345.735	-1.71
345.947	24.92
346.159	63.83
346.371	69.97
346.583	90.45
346.795	192.85
347.007	10.58
347.219	78.16
347.431	86.36
347.643	90.45
347.855	33.11
348.067	123.22
348.279	63.83
348.491	112.98
348.703	47.44
348.915	45.4
349.127	-9.9
349.339	16.73
349.551	96.6
349.763	92.5
349.975	41.3
350.187	14.68
350.399	84.31
350.61	82.26
350.822	88.4
351.034	33.11
351.246	45.4
351.458	69.97
351.669	196.95
351.881	82.26
352.093	86.36
352.305	59.73
352.517	45.4
352.728	94.55
352.94	43.35
353.152	37.2
353.363	63.83
353.575	166.23
353.787	24.92
353.999	82.26
354.21	115.03
354.422	69.97
354.633	37.2
354.845	18.77
355.057	86.36
355.268	29.01
355.48	94.55
355.692	59.73
355.903	69.97
356.115	61.78
356.326	-7.85
356.538	112.98
356.749	147.8
356.961	76.12
357.172	82.26
357.384	59.73
357.595	117.08
357.807	82.26
358.018	20.82
358.23	74.07
358.441	135.51
358.653	51.54
358.864	69.97
359.075	102.74
359.287	29.01
359.498	141.65
359.709	90.45
359.921	80.21
360.132	12.63
360.344	51.54
360.555	33.11
360.766	26.96
360.977	104.79
361.189	123.22
361.4	51.54
361.611	49.49
361.823	57.68
362.034	90.45
362.245	-13.99
362.456	131.41
362.667	123.22
362.879	102.74
363.09	35.16
363.301	106.84
363.512	106.84
363.723	141.65
363.935	-30.38
364.146	24.92
364.357	20.82
364.568	69.97
364.779	10.58
364.99	51.54
365.201	14.68
365.412	127.32
365.623	49.49
365.834	59.73
366.045	51.54
366.256	90.45
366.467	76.12
366.678	108.88
366.889	33.11
367.1	-16.04
367.311	20.82
367.522	10.58
367.733	76.12
367.944	65.88
368.155	76.12
368.366	108.88
368.577	86.36
368.788	131.41
368.999	49.49
369.209	86.36
369.42	102.74
369.631	137.56
369.842	59.73
370.053	74.07
370.264	41.3
370.474	63.83
370.685	74.07
370.896	0.34
371.107	98.64
371.317	82.26
371.528	94.55
371.739	16.73
371.95	115.03
372.16	94.55
372.371	37.2
372.582	76.12
372.792	67.92
373.003	63.83
373.214	67.92
373.424	35.16
373.635	45.4
373.846	133.46
374.056	2.39
374.267	119.12
374.477	76.12
374.688	65.88
374.898	115.03
375.109	33.11
375.319	12.63
375.53	78.16
375.74	98.64
375.951	53.59
376.161	115.03
376.372	94.55
376.582	55.64
376.793	76.12
377.003	67.92
377.214	33.11
377.424	65.88
377.635	115.03
377.845	72.02
378.055	86.36
378.266	16.73
378.476	108.88
378.686	-63.15
378.897	143.7
379.107	102.74
379.317	16.73
379.528	20.82
379.738	92.5
379.948	53.59
380.158	53.59
380.369	80.21
380.579	151.89
380.789	39.25
380.999	90.45
381.21	61.78
381.42	123.22
381.63	26.96
381.84	90.45
382.05	49.49
382.261	147.8
382.471	53.59
382.681	98.64
382.891	139.6
383.101	174.42
383.311	90.45
383.521	125.27
383.731	135.51
383.941	125.27
384.151	74.07
384.361	149.84
384.571	67.92
384.781	141.65
384.991	57.68
385.201	125.27
385.411	115.03
385.621	143.7
385.831	76.12
386.041	59.73
386.251	41.3
386.461	74.07
386.671	4.44
386.881	123.22
387.091	24.92
387.301	115.03
387.511	31.06
387.72	115.03
387.93	92.5
388.14	106.84
388.35	35.16
388.56	131.41
388.769	57.68
388.979	80.21
389.189	55.64
389.399	78.16
389.609	182.61
389.818	135.51
390.028	-7.85
390.238	106.84
390.447	102.74
390.657	98.64
390.867	-9.9
391.076	33.11
391.286	98.64
391.496	119.12
391.705	90.45
391.915	82.26
392.125	112.98
392.334	76.12
392.544	129.36
392.753	104.79
392.963	123.22
393.172	170.32
393.382	59.73
393.591	131.41
393.801	139.6
394.01	176.47
394.22	141.65
394.429	131.41
394.639	90.45
394.848	164.18
395.058	131.41
395.267	115.03
395.477	51.54
395.686	155.99
395.895	172.37
396.105	166.23
396.314	98.64
396.524	94.55
396.733	127.32
396.942	110.93
397.152	110.93
397.361	155.99
397.57	123.22
397.78	100.69
397.989	133.46
398.198	158.03
398.407	84.31
398.617	69.97
398.826	131.41
399.035	108.88
399.244	207.19
399.453	203.09
399.663	115.03
399.872	196.95
400.081	145.75
400.29	137.56
400.499	100.69
400.708	180.56
400.917	108.88
401.127	164.18
401.336	102.74
401.545	198.99
401.754	160.08
401.963	231.76
402.172	106.84
402.381	198.99
402.59	119.12
402.799	166.23
403.008	180.56
403.217	166.23
403.426	149.84
403.635	143.7
403.844	115.03
404.053	121.17
404.262	178.51
404.471	217.43
404.68	160.08
404.888	211.28
405.097	96.6
405.306	201.04
405.515	176.47
405.724	201.04
405.933	291.15
406.142	145.75
406.35	211.28
406.559	153.94
406.768	205.14
406.977	323.92
407.185	342.35
407.394	299.34
407.603	246.1
407.812	272.72
408.02	338.26
408.229	325.97
408.438	348.5
408.646	266.58
408.855	344.4
409.064	389.46
409.272	364.88
409.481	393.55
409.69	352.59
409.898	246.1
410.107	432.46
410.315	467.28
410.524	495.95
410.733	516.43
410.941	387.41
411.15	444.75
411.358	532.81
411.567	528.72
411.775	498
411.984	592.2
412.192	586.06
412.401	541.01
412.609	643.4
412.818	590.16
413.026	647.5
413.234	606.54
413.443	663.88
413.651	696.65
413.86	663.88
414.068	745.8
414.276	766.28
414.485	876.87
414.693	852.3
414.901	926.02
415.11	911.69
415.318	909.64
415.526	909.64
415.734	952.65
415.943	1012.04
416.151	1083.72
416.359	1044.81
416.567	1171.78
416.776	1194.31
416.984	1237.31
417.192	1302.85
417.4	1331.52
417.608	1255.75
417.817	1343.81
418.025	1337.66
418.233	1556.8
418.441	1409.34
418.649	1550.65
418.857	1608
419.065	1673.53
419.273	1665.34
419.481	1777.98
419.689	1927.48
419.897	1917.24
420.105	1925.43
420.313	1997.11
420.521	2066.74
420.729	2126.13
420.937	2214.2
421.145	2279.73
421.353	2418.99
421.561	2343.22
421.769	2445.62
421.977	2679.08
422.185	2588.97
422.393	2689.32
422.601	2920.74
422.809	3025.19
423.017	2978.09
423.224	3137.83
423.432	3150.12
423.64	3303.71
423.848	3494.18
424.056	3434.78
424.263	3617.05
424.471	3565.85
424.679	3715.36
424.887	4047.13
425.094	4086.04
425.302	3997.98
425.51	4083.99
425.718	4309.27
425.925	4460.82
426.133	4540.69
426.341	4720.91
426.548	5032.2
426.756	4956.43
426.964	5097.74
427.171	5472.51
427.379	5482.75
427.586	5609.73
427.794	5914.88
428.001	5941.5
428.209	6338.8
428.417	6177.02
428.624	6783.21
428.832	6582.51
429.039	6666.48
429.247	6693.1
429.454	7426.28
429.662	7735.52
429.869	7219.43
430.076	7876.83
430.284	7477.48
430.491	7807.2
430.699	8317.14
430.906	8237.27
431.114	8487.12
431.321	8669.39
431.528	8814.8
431.736	9437.38
431.943	9844.93
432.15	9625.79
432.358	9408.71
432.565	10461.37
432.772	10272.95
432.979	10662.07
433.187	10856.62
433.394	11026.61
433.601	11737.25
433.808	11649.19
434.016	11438.25
434.223	12017.82
434.43	12951.7
434.637	12591.25
434.844	13334.67
435.052	13473.93
435.259	13478.02
435.466	13549.7
435.673	13418.63
435.88	14327.93
436.087	15061.1
436.294	15198.32
436.501	14727.28
436.708	14983.28
436.915	15509.61
437.122	16476.25
437.329	16197.73
437.537	16734.29
437.743	16818.26
437.95	16971.86
438.157	17614.92
438.364	18364.48
438.571	18282.56
438.778	18360.38
438.985	20084.77
439.192	19421.23
439.399	19976.23
439.606	19454
439.813	20596.76
440.02	22147.08
440.227	21418
440.433	21221.39
440.64	21917.7
440.847	21821.45
441.054	22243.33
441.261	23871.47
441.467	23693.29
441.674	23758.83
441.881	24840.15
442.088	24727.52
442.294	24451.04
442.501	25128.92
442.708	25552.85
442.914	26531.78
443.121	27471.79
443.328	27199.41
443.534	28966.81
443.741	28022.7
443.948	27400.12
444.154	29487
444.361	29540.24
444.568	29597.59
444.774	29462.42
444.981	29767.57
445.187	30863.23
445.394	31901.55
445.6	31829.87
445.807	34395.98
446.013	33087.32
446.22	33619.8
446.426	35006.27
446.633	35370.81
446.839	36247.34
447.046	34899.78
447.252	36818.72
447.459	36831.01
447.665	37064.48
447.871	38397.71
448.078	39780.09
448.284	38020.88
448.491	39108.35
448.697	40417
448.903	41445.08
449.11	41416.41
449.316	40619.75
449.522	41584.35
449.728	42157.78
449.935	43028.16
450.141	42774.22
450.347	43585.21
450.553	42428.11
450.76	42979.01
450.966	44320.43
451.172	43828.92
451.378	44867.24
451.584	43970.23
451.791	45057.7
451.997	44832.43
452.203	45442.72
452.409	45952.66
452.615	45639.32
452.821	43814.58
453.027	43259.59
453.233	45719.2
453.44	44013.24
453.646	44287.67
453.852	44734.12
454.058	45207.2
454.264	43968.18
454.47	45151.91
454.676	43161.28
454.882	45094.57
455.088	41381.6
455.294	41993.94
455.5	42444.49
455.705	42895.05
455.911	41144.03
456.117	40664.81
456.323	40050.42
456.529	37857.04
456.735	39679.74
456.941	38604.55
457.147	37809.94
457.352	37228.32
457.558	36462.38
457.764	36312.88
457.97	35860.27
458.176	35239.74
458.381	34948.93
458.587	33535.83
458.793	33382.23
458.999	31412.09
459.204	33826.64
459.41	33058.65
459.616	30914.43
459.821	30893.95
460.027	30951.29
460.233	30248.84
460.438	28659.62
460.644	29251.48
460.85	27594.67
461.055	27123.64
461.261	27097.02
461.466	25075.67
461.672	24639.45
461.878	26429.38
462.083	24661.98
462.289	24201.19
462.494	23728.11
462.7	22898.68
462.905	22003.72
463.111	22947.83
463.316	22669.31
463.522	22437.89
463.727	22519.81
463.932	22609.92
464.138	22220.8
464.343	22179.84
464.549	21807.11
464.754	22304.77
464.959	22165.51
465.165	22042.63
465.37	21012.5
465.575	20355.1
465.781	21723.15
465.986	21549.07
466.191	20432.93
466.397	20213.79
466.602	19312.69
466.807	20088.87
467.012	19906.6
467.218	20080.67
467.423	19791.91
