Data from USB4F104151__231__14-21-50-618.txt Node

Date: Thu Mar 13 14:21:50 EDT 2025
User: louis
Spectrometer: USB4F10415
Trigger mode: 4
Integration Time (sec): 2.000000E-2
Scans to average: 1
Electric dark correction enabled: true
Nonlinearity correction enabled: false
Boxcar width: 0
XAxis mode: Wavelengths
Number of Pixels in Spectrum: 3648
>>>>>Begin Spectral Data<<<<<
178.204	-106.67
178.424	-106.67
178.644	-106.67
178.864	-77.99
179.084	-80.04
179.304	-37.03
179.524	32.6
179.744	-45.23
179.964	5.97
180.184	-2.22
180.404	65.36
180.624	-0.17
180.844	38.74
181.064	-14.51
181.283	-2.22
181.503	-37.03
181.723	-4.27
181.943	-4.27
182.163	63.32
182.383	38.74
182.602	112.47
182.822	-30.89
183.042	57.17
183.262	34.64
183.482	85.84
183.701	32.6
183.921	28.5
184.141	-37.03
184.361	20.31
184.58	57.17
184.8	110.42
185.02	32.6
185.239	135
185.459	16.21
185.679	42.84
185.898	5.97
186.118	85.84
186.338	24.4
186.557	100.18
186.777	16.21
186.997	48.98
187.216	28.5
187.436	149.33
187.655	-6.31
187.875	89.94
188.095	81.75
188.314	20.31
188.534	155.47
188.753	77.65
188.973	106.32
189.192	94.04
189.412	63.32
189.631	36.69
189.851	3.93
190.07	116.56
190.29	-12.46
190.509	-4.27
190.729	20.31
190.948	30.55
191.168	102.23
191.387	38.74
191.607	18.26
191.826	100.18
192.045	118.61
192.265	36.69
192.484	38.74
192.704	81.75
192.923	-45.23
193.142	114.52
193.362	-0.17
193.581	85.84
193.8	28.5
194.02	63.32
194.239	-4.27
194.458	57.17
194.678	81.75
194.897	16.21
195.116	-10.41
195.335	18.26
195.555	69.46
195.774	65.36
195.993	94.04
196.212	-18.6
196.432	53.08
196.651	20.31
196.87	42.84
197.089	61.27
197.308	110.42
197.528	61.27
197.747	-0.17
197.966	36.69
198.185	118.61
198.404	22.36
198.623	3.93
198.842	94.04
199.062	120.66
199.281	85.84
199.5	28.5
199.719	71.51
199.938	48.98
200.157	77.65
200.376	46.93
200.595	46.93
200.814	12.12
201.033	104.28
201.252	34.64
201.471	98.13
201.69	36.69
201.909	55.12
202.128	118.61
202.347	71.51
202.566	149.33
202.785	36.69
203.004	26.45
203.223	102.23
203.442	85.84
203.661	40.79
203.879	73.56
204.098	106.32
204.317	18.26
204.536	53.08
204.755	69.46
204.974	34.64
205.193	14.17
205.411	132.95
205.63	44.88
205.849	36.69
206.068	71.51
206.287	38.74
206.505	53.08
206.724	-43.18
206.943	61.27
207.162	71.51
207.381	32.6
207.599	24.4
207.818	34.64
208.037	73.56
208.255	3.93
208.474	57.17
208.693	67.41
208.911	79.7
209.13	69.46
209.349	-12.46
209.567	42.84
209.786	55.12
210.005	16.21
210.223	63.32
210.442	-53.42
210.661	77.65
210.879	40.79
211.098	36.69
211.316	75.6
211.535	34.64
211.753	-28.84
211.972	38.74
212.191	-8.36
212.409	85.84
212.628	63.32
212.846	36.69
213.065	36.69
213.283	122.71
213.502	61.27
213.72	46.93
213.938	118.61
214.157	73.56
214.375	61.27
214.594	61.27
214.812	12.12
215.031	46.93
215.249	28.5
215.467	77.65
215.686	36.69
215.904	59.22
216.122	8.02
216.341	120.66
216.559	94.04
216.778	71.51
216.996	-0.17
217.214	1.88
217.432	89.94
217.651	16.21
217.869	143.19
218.087	44.88
218.306	3.93
218.524	94.04
218.742	22.36
218.96	128.85
219.179	32.6
219.397	98.13
219.615	79.7
219.833	110.42
220.051	83.8
220.27	18.26
220.488	51.03
220.706	79.7
220.924	-14.51
221.142	22.36
221.36	114.52
221.578	96.08
221.796	12.12
222.015	36.69
222.233	63.32
222.451	124.76
222.669	14.17
222.887	55.12
223.105	53.08
223.323	108.37
223.541	-16.55
223.759	104.28
223.977	48.98
224.195	57.17
224.413	30.55
224.631	77.65
224.849	48.98
225.067	120.66
225.285	16.21
225.503	-0.17
225.721	48.98
225.939	63.32
226.157	96.08
226.375	171.86
226.592	-0.17
226.81	98.13
227.028	71.51
227.246	91.99
227.464	26.45
227.682	81.75
227.9	26.45
228.117	-14.51
228.335	79.7
228.553	44.88
228.771	48.98
228.989	94.04
229.206	81.75
229.424	48.98
229.642	36.69
229.86	69.46
230.077	89.94
230.295	81.75
230.513	87.89
230.731	114.52
230.948	89.94
231.166	85.84
231.384	32.6
231.601	44.88
231.819	73.56
232.037	71.51
232.254	32.6
232.472	28.5
232.689	18.26
232.907	67.41
233.125	83.8
233.342	79.7
233.56	46.93
233.777	106.32
233.995	30.55
234.213	36.69
234.43	36.69
234.648	44.88
234.865	120.66
235.083	5.97
235.3	36.69
235.518	83.8
235.735	112.47
235.953	102.23
236.17	28.5
236.388	26.45
236.605	94.04
236.822	110.42
237.04	32.6
237.257	120.66
237.475	100.18
237.692	55.12
237.909	61.27
238.127	22.36
238.344	114.52
238.562	118.61
238.779	-10.41
238.996	22.36
239.214	94.04
239.431	85.84
239.648	42.84
239.865	57.17
240.083	81.75
240.3	5.97
240.517	75.6
240.735	104.28
240.952	102.23
241.169	5.97
241.386	55.12
241.603	48.98
241.821	46.93
242.038	32.6
242.255	57.17
242.472	24.4
242.689	122.71
242.907	18.26
243.124	18.26
243.341	65.36
243.558	85.84
243.775	55.12
243.992	36.69
244.209	28.5
244.426	73.56
244.643	108.37
244.86	20.31
245.078	55.12
245.295	87.89
245.512	135
245.729	24.4
245.946	-0.17
246.163	163.67
246.38	61.27
246.597	48.98
246.814	20.31
247.031	137.04
247.248	65.36
247.464	48.98
247.681	143.19
247.898	89.94
248.115	106.32
248.332	69.46
248.549	153.43
248.766	143.19
248.983	53.08
249.2	81.75
249.417	53.08
249.633	79.7
249.85	61.27
250.067	59.22
250.284	96.08
250.501	61.27
250.717	96.08
250.934	42.84
251.151	65.36
251.368	98.13
251.585	40.79
251.801	69.46
252.018	24.4
252.235	14.17
252.451	61.27
252.668	110.42
252.885	128.85
253.102	77.65
253.318	143.19
253.535	-18.6
253.752	59.22
253.968	55.12
254.185	141.14
254.401	120.66
254.618	12.12
254.835	147.28
255.051	96.08
255.268	186.19
255.484	81.75
255.701	61.27
255.917	36.69
256.134	5.97
256.351	40.79
256.567	-2.22
256.784	24.4
257	18.26
257.217	122.71
257.433	57.17
257.65	128.85
257.866	79.7
258.082	-12.46
258.299	65.36
258.515	53.08
258.732	61.27
258.948	53.08
259.165	55.12
259.381	5.97
259.597	36.69
259.814	81.75
260.03	18.26
260.246	77.65
260.463	159.57
260.679	71.51
260.895	120.66
261.112	108.37
261.328	36.69
261.544	28.5
261.761	112.47
261.977	42.84
262.193	-8.36
262.409	108.37
262.626	98.13
262.842	-4.27
263.058	38.74
263.274	63.32
263.49	73.56
263.707	118.61
263.923	94.04
264.139	53.08
264.355	14.17
264.571	36.69
264.787	87.89
265.004	79.7
265.22	46.93
265.436	79.7
265.652	24.4
265.868	36.69
266.084	71.51
266.3	69.46
266.516	77.65
266.732	44.88
266.948	112.47
267.164	36.69
267.38	77.65
267.596	69.46
267.812	159.57
268.028	94.04
268.244	55.12
268.46	42.84
268.676	44.88
268.892	77.65
269.108	73.56
269.324	-18.6
269.54	65.36
269.756	120.66
269.972	57.17
270.188	57.17
270.403	85.84
270.619	69.46
270.835	57.17
271.051	40.79
271.267	69.46
271.483	20.31
271.698	87.89
271.914	63.32
272.13	102.23
272.346	110.42
272.562	53.08
272.777	98.13
272.993	28.5
273.209	69.46
273.425	71.51
273.64	42.84
273.856	28.5
274.072	32.6
274.287	69.46
274.503	94.04
274.719	85.84
274.934	-28.84
275.15	53.08
275.366	71.51
275.581	55.12
275.797	14.17
276.012	112.47
276.228	22.36
276.444	69.46
276.659	118.61
276.875	24.4
277.09	53.08
277.306	46.93
277.521	96.08
277.737	79.7
277.952	104.28
278.168	89.94
278.383	118.61
278.599	3.93
278.814	114.52
279.03	5.97
279.245	116.56
279.461	71.51
279.676	116.56
279.892	5.97
280.107	24.4
280.322	75.6
280.538	81.75
280.753	96.08
280.969	48.98
281.184	-30.89
281.399	77.65
281.615	42.84
281.83	20.31
282.045	102.23
282.26	112.47
282.476	71.51
282.691	53.08
282.906	-4.27
283.122	46.93
283.337	-6.31
283.552	108.37
283.767	28.5
283.983	118.61
284.198	44.88
284.413	63.32
284.628	16.21
284.843	110.42
285.058	16.21
285.274	63.32
285.489	63.32
285.704	98.13
285.919	81.75
286.134	102.23
286.349	77.65
286.564	53.08
286.779	132.95
286.995	44.88
287.21	38.74
287.425	63.32
287.64	100.18
287.855	65.36
288.07	53.08
288.285	110.42
288.5	12.12
288.715	104.28
288.93	102.23
289.145	18.26
289.36	55.12
289.575	59.22
289.79	77.65
290.004	-16.55
290.219	63.32
290.434	87.89
290.649	34.64
290.864	8.02
291.079	30.55
291.294	28.5
291.509	48.98
291.724	61.27
291.938	-16.55
292.153	71.51
292.368	98.13
292.583	55.12
292.798	24.4
293.012	48.98
293.227	14.17
293.442	3.93
293.657	69.46
293.871	155.47
294.086	20.31
294.301	73.56
294.516	126.8
294.73	65.36
294.945	14.17
295.16	143.19
295.374	87.89
295.589	73.56
295.804	34.64
296.018	61.27
296.233	55.12
296.447	94.04
296.662	55.12
296.877	128.85
297.091	69.46
297.306	51.03
297.52	61.27
297.735	128.85
297.949	36.69
298.164	83.8
298.378	73.56
298.593	77.65
298.807	3.93
299.022	100.18
299.236	73.56
299.451	110.42
299.665	69.46
299.88	71.51
300.094	108.37
300.309	63.32
300.523	53.08
300.737	102.23
300.952	65.36
301.166	69.46
301.381	-4.27
301.595	77.65
301.809	14.17
302.024	48.98
302.238	34.64
302.452	151.38
302.667	26.45
302.881	102.23
303.095	96.08
303.309	110.42
303.524	44.88
303.738	77.65
303.952	28.5
304.166	77.65
304.381	44.88
304.595	77.65
304.809	85.84
305.023	65.36
305.237	42.84
305.452	20.31
305.666	85.84
305.88	53.08
306.094	44.88
306.308	-4.27
306.522	135
306.736	81.75
306.95	118.61
307.164	91.99
307.379	48.98
307.593	94.04
307.807	24.4
308.021	48.98
308.235	102.23
308.449	69.46
308.663	20.31
308.877	155.47
309.091	81.75
309.305	61.27
309.519	30.55
309.733	46.93
309.947	-12.46
310.161	30.55
310.374	128.85
310.588	61.27
310.802	57.17
311.016	20.31
311.23	77.65
311.444	120.66
311.658	126.8
311.872	120.66
312.085	85.84
312.299	73.56
312.513	55.12
312.727	79.7
312.941	94.04
313.154	94.04
313.368	69.46
313.582	18.26
313.796	38.74
314.009	104.28
314.223	137.04
314.437	100.18
314.651	69.46
314.864	81.75
315.078	48.98
315.292	24.4
315.505	14.17
315.719	135
315.933	55.12
316.146	36.69
316.36	26.45
316.573	44.88
316.787	85.84
317.001	22.36
317.214	5.97
317.428	94.04
317.641	16.21
317.855	53.08
318.068	98.13
318.282	44.88
318.495	77.65
318.709	81.75
318.922	51.03
319.136	87.89
319.349	59.22
319.563	71.51
319.776	139.09
319.99	87.89
320.203	63.32
320.417	57.17
320.63	112.47
320.843	122.71
321.057	10.07
321.27	28.5
321.483	137.04
321.697	83.8
321.91	79.7
322.124	124.76
322.337	65.36
322.55	-20.65
322.763	98.13
322.977	122.71
323.19	28.5
323.403	46.93
323.617	38.74
323.83	65.36
324.043	5.97
324.256	96.08
324.469	-8.36
324.683	36.69
324.896	73.56
325.109	40.79
325.322	94.04
325.535	28.5
325.748	61.27
325.962	63.32
326.175	65.36
326.388	14.17
326.601	91.99
326.814	28.5
327.027	44.88
327.24	159.57
327.453	-16.55
327.666	22.36
327.879	53.08
328.092	145.24
328.305	55.12
328.518	-4.27
328.731	-18.6
328.944	34.64
329.157	94.04
329.37	112.47
329.583	108.37
329.796	135
330.009	85.84
330.222	38.74
330.435	85.84
330.648	48.98
330.861	59.22
331.073	141.14
331.286	67.41
331.499	38.74
331.712	69.46
331.925	24.4
332.138	38.74
332.35	83.8
332.563	-53.42
332.776	81.75
332.989	96.08
333.202	34.64
333.414	118.61
333.627	81.75
333.84	-26.79
334.053	96.08
334.265	77.65
334.478	104.28
334.691	81.75
334.903	81.75
335.116	-20.65
335.329	128.85
335.541	44.88
335.754	135
335.966	32.6
336.179	36.69
336.392	42.84
336.604	85.84
336.817	143.19
337.029	79.7
337.242	22.36
337.454	73.56
337.667	126.8
337.88	83.8
338.092	5.97
338.305	130.9
338.517	53.08
338.729	48.98
338.942	67.41
339.154	98.13
339.367	53.08
339.579	55.12
339.792	-43.18
340.004	69.46
340.217	40.79
340.429	59.22
340.641	71.51
340.854	77.65
341.066	89.94
341.278	100.18
341.491	106.32
341.703	20.31
341.915	20.31
342.128	110.42
342.34	96.08
342.552	79.7
342.764	34.64
342.977	44.88
343.189	53.08
343.401	167.76
343.613	36.69
343.826	-6.31
344.038	22.36
344.25	79.7
344.462	77.65
344.674	114.52
344.886	69.46
345.099	79.7
345.311	65.36
345.523	61.27
345.735	44.88
345.947	55.12
346.159	73.56
346.371	98.13
346.583	96.08
346.795	157.52
347.007	85.84
347.219	51.03
347.431	108.37
347.643	55.12
347.855	40.79
348.067	120.66
348.279	69.46
348.491	79.7
348.703	46.93
348.915	71.51
349.127	20.31
349.339	28.5
349.551	73.56
349.763	44.88
349.975	73.56
350.187	85.84
350.399	161.62
350.61	53.08
350.822	30.55
351.034	28.5
351.246	44.88
351.458	55.12
351.669	122.71
351.881	20.31
352.093	42.84
352.305	57.17
352.517	124.76
352.728	132.95
352.94	38.74
353.152	57.17
353.363	94.04
353.575	141.14
353.787	55.12
353.999	104.28
354.21	81.75
354.422	79.7
354.633	16.21
354.845	44.88
355.057	135
355.268	161.62
355.48	24.4
355.692	34.64
355.903	100.18
356.115	85.84
356.326	12.12
356.538	91.99
356.749	128.85
356.961	73.56
357.172	63.32
357.384	94.04
357.595	114.52
357.807	-4.27
358.018	36.69
358.23	135
358.441	141.14
358.653	218.96
358.864	69.46
359.075	77.65
359.287	65.36
359.498	163.67
359.709	106.32
359.921	110.42
360.132	87.89
360.344	135
360.555	48.98
360.766	69.46
360.977	44.88
361.189	96.08
361.4	94.04
361.611	118.61
361.823	128.85
362.034	110.42
362.245	104.28
362.456	44.88
362.667	106.32
362.879	98.13
363.09	12.12
363.301	53.08
363.512	118.61
363.723	38.74
363.935	126.8
364.146	102.23
364.357	85.84
364.568	59.22
364.779	-0.17
364.99	186.19
365.201	87.89
365.412	94.04
365.623	40.79
365.834	102.23
366.045	104.28
366.256	145.24
366.467	-8.36
366.678	118.61
366.889	20.31
367.1	57.17
367.311	79.7
367.522	79.7
367.733	20.31
367.944	71.51
368.155	22.36
368.366	118.61
368.577	104.28
368.788	83.8
368.999	77.65
369.209	173.91
369.42	110.42
369.631	171.86
369.842	98.13
370.053	44.88
370.264	102.23
370.474	85.84
370.685	128.85
370.896	79.7
371.107	73.56
371.317	151.38
371.528	118.61
371.739	114.52
371.95	44.88
372.16	51.03
372.371	42.84
372.582	106.32
372.792	135
373.003	61.27
373.214	-41.13
373.424	69.46
373.635	180.05
373.846	96.08
374.056	77.65
374.267	139.09
374.477	69.46
374.688	114.52
374.898	71.51
375.109	143.19
375.319	44.88
375.53	106.32
375.74	118.61
375.951	32.6
376.161	120.66
376.372	79.7
376.582	102.23
376.793	135
377.003	73.56
377.214	89.94
377.424	53.08
377.635	34.64
377.845	-8.36
378.055	57.17
378.266	147.28
378.476	85.84
378.686	44.88
378.897	48.98
379.107	89.94
379.317	83.8
379.528	53.08
379.738	77.65
379.948	-16.55
380.158	87.89
380.369	69.46
380.579	135
380.789	112.47
380.999	175.95
381.21	153.43
381.42	98.13
381.63	3.93
381.84	106.32
382.05	67.41
382.261	126.8
382.471	106.32
382.681	85.84
382.891	155.47
383.101	75.6
383.311	102.23
383.521	69.46
383.731	94.04
383.941	85.84
384.151	51.03
384.361	151.38
384.571	112.47
384.781	104.28
384.991	98.13
385.201	157.52
385.411	98.13
385.621	102.23
385.831	67.41
386.041	77.65
386.251	126.8
386.461	102.23
386.671	118.61
386.881	110.42
387.091	38.74
387.301	112.47
387.511	100.18
387.72	126.8
387.93	85.84
388.14	87.89
388.35	81.75
388.56	122.71
388.769	73.56
388.979	130.9
389.189	-4.27
389.399	51.03
389.609	79.7
389.818	22.36
390.028	118.61
390.238	-4.27
390.447	55.12
390.657	3.93
390.867	28.5
391.076	32.6
391.286	42.84
391.496	94.04
391.705	-37.03
391.915	161.62
392.125	89.94
392.334	69.46
392.544	118.61
392.753	147.28
392.963	100.18
393.172	139.09
393.382	112.47
393.591	147.28
393.801	53.08
394.01	157.52
394.22	163.67
394.429	30.55
394.639	159.57
394.848	71.51
395.058	120.66
395.267	124.76
395.477	83.8
395.686	98.13
395.895	173.91
396.105	241.49
396.314	135
396.524	155.47
396.733	71.51
396.942	120.66
397.152	151.38
397.361	139.09
397.57	89.94
397.78	87.89
397.989	128.85
398.198	165.71
398.407	94.04
398.617	169.81
398.826	139.09
399.035	194.39
399.244	167.76
399.453	81.75
399.663	149.33
399.872	137.04
400.081	108.37
400.29	184.15
400.499	73.56
400.708	159.57
400.917	165.71
401.127	135
401.336	137.04
401.545	204.63
401.754	104.28
401.963	186.19
402.172	61.27
402.381	112.47
402.59	171.86
402.799	110.42
403.008	85.84
403.217	163.67
403.426	151.38
403.635	61.27
403.844	98.13
404.053	106.32
404.262	186.19
404.471	135
404.68	161.62
404.888	81.75
405.097	200.53
405.306	204.63
405.515	167.76
405.724	89.94
405.933	159.57
406.142	257.87
406.35	229.2
406.559	225.11
406.768	163.67
406.977	335.7
407.185	245.59
407.394	261.97
407.603	270.16
407.812	233.3
408.02	356.18
408.229	268.11
408.438	313.17
408.646	339.79
408.855	368.46
409.064	274.26
409.272	315.22
409.481	266.07
409.69	278.35
409.898	266.07
410.107	370.51
410.315	350.03
410.524	319.31
410.733	360.27
410.941	403.28
411.15	376.66
411.358	407.38
411.567	421.71
411.775	470.86
411.984	425.81
412.192	481.1
412.401	454.48
412.609	626.51
412.818	497.49
413.026	593.74
413.234	530.25
413.443	581.45
413.651	513.87
413.86	653.13
414.068	669.52
414.276	661.32
414.485	536.4
414.693	687.95
414.901	782.15
415.11	638.8
415.318	743.24
415.526	712.52
415.734	802.63
415.943	790.35
416.151	907.08
416.359	888.65
416.567	827.21
416.776	847.69
416.984	974.66
417.192	1027.91
417.4	991.05
417.608	1064.77
417.817	1023.81
418.025	1097.54
418.233	1244.99
418.441	1115.97
418.649	1134.4
418.857	1412.93
419.065	1421.12
419.273	1300.29
419.481	1453.89
419.689	1302.34
419.897	1521.47
420.105	1533.76
420.313	1666.88
420.521	1609.53
420.729	1636.16
420.937	1675.07
421.145	1843
421.353	1912.63
421.561	1986.36
421.769	1916.73
421.977	2180.92
422.185	2053.94
422.393	2182.96
422.601	2371.38
422.809	2289.46
423.017	2246.45
423.224	2506.54
423.432	2518.83
423.64	2613.04
423.848	2731.82
424.056	2613.04
424.263	2926.38
424.471	2977.58
424.679	2961.19
424.887	3221.28
425.094	3165.99
425.302	3229.48
425.51	3264.29
425.718	3471.14
425.925	3383.07
426.133	3624.73
426.341	3893.02
426.548	3864.35
426.756	3829.53
426.964	3991.32
427.171	4030.23
427.379	4325.14
427.586	4445.97
427.794	4574.99
428.001	4566.8
428.209	4904.71
428.417	4781.84
428.624	5144.33
428.832	5009.16
429.039	5074.7
429.247	5074.7
429.454	5648.13
429.662	6063.86
429.869	5637.89
430.076	6164.22
430.284	5738.24
430.491	6033.15
430.699	6352.63
430.906	6659.82
431.114	6532.85
431.321	6870.76
431.528	6870.76
431.736	7395.04
431.943	7485.16
432.15	7562.98
432.358	7671.52
432.565	7958.24
432.772	7933.66
432.979	8095.45
433.187	8515.28
433.394	8449.75
433.601	8928.97
433.808	9154.25
434.016	9277.13
434.223	9387.72
434.43	9860.8
434.637	9942.72
434.844	10317.5
435.052	10598.07
435.259	10573.49
435.466	10804.91
435.673	10481.33
435.88	11118.25
436.087	11701.92
436.294	11783.84
436.501	11351.72
436.708	11542.18
436.915	12082.84
437.122	12588.69
437.329	12643.99
437.537	13057.68
437.743	13160.08
437.95	13069.97
438.157	13977.22
438.364	14149.25
438.571	14356.09
438.778	14300.8
438.985	15717.99
439.192	15111.79
439.399	15414.89
439.606	15183.47
439.813	16150.11
440.02	17135.18
440.227	16805.46
440.433	16795.22
440.64	16914
440.847	17157.71
441.054	17503.82
441.261	18685.5
441.467	18169.41
441.674	18841.14
441.881	19181.1
442.088	19504.68
442.294	19041.84
442.501	19310.13
442.708	19947.04
442.914	20659.74
443.121	21745.16
443.328	20995.6
443.534	22619.64
443.741	21878.28
443.948	21382.67
444.154	23086.58
444.361	23160.31
444.568	23162.36
444.774	23139.83
444.981	23264.75
445.187	23981.54
445.394	25179.61
445.6	24804.83
445.807	27192.76
446.013	25830.86
446.22	26033.61
446.426	27590.06
446.633	27764.14
446.839	28704.16
447.046	27518.39
447.252	28851.61
447.459	29183.38
447.665	28886.43
447.871	29898.13
448.078	31462.77
448.284	30012.81
448.491	30856.57
448.697	31479.16
448.903	32437.61
449.11	32449.89
449.316	32099.69
449.522	32417.13
449.728	33303.9
449.935	33809.75
450.141	33754.45
450.347	34614.6
450.553	33459.54
450.76	33828.18
450.966	34848.07
451.172	34551.11
451.378	35208.51
451.584	34512.2
451.791	35675.44
451.997	35390.78
452.203	36224.3
452.409	36394.28
452.615	35851.57
452.821	34342.22
453.027	34461
453.233	36396.33
453.44	34868.55
453.646	35038.53
453.852	35343.67
454.058	36050.22
454.264	34700.61
454.47	35732.79
454.676	34678.08
454.882	36066.61
455.088	32685.41
455.294	33086.81
455.5	33830.23
455.705	33785.17
455.911	32589.16
456.117	32083.31
456.323	31638.9
456.529	30027.15
456.735	31315.32
456.941	30825.85
457.147	29957.52
457.352	29181.34
457.558	28624.29
457.764	29175.19
457.97	28431.78
458.176	27891.12
458.381	27848.11
458.587	26316.23
458.793	26641.85
458.999	25273.81
459.204	27096.5
459.41	26226.12
459.616	24509.92
459.821	24372.71
460.027	24577.5
460.233	23938.54
460.438	23039.48
460.644	23281.14
460.85	22111.75
461.055	21906.95
461.261	21657.1
461.466	19932.71
461.672	19582.51
461.878	20794.9
462.083	19392.05
462.289	19162.67
462.494	18767.41
462.7	17968.71
462.905	17380.94
463.111	18257.47
463.316	18353.73
463.522	17747.53
463.727	17915.46
463.932	17833.54
464.138	17622.6
464.343	17901.12
464.549	17061.46
464.754	17876.55
464.959	17657.42
465.165	17290.83
465.37	16655.96
465.575	16234.08
465.781	16928.34
465.986	17075.79
466.191	16324.19
466.397	16215.65
466.602	15251.05
