Data from USB4F104151__164__14-19-43-363.txt Node

Date: Thu Mar 13 14:19:43 EDT 2025
User: louis
Spectrometer: USB4F10415
Trigger mode: 4
Integration Time (sec): 2.000000E-2
Scans to average: 1
Electric dark correction enabled: true
Nonlinearity correction enabled: false
Boxcar width: 0
XAxis mode: Wavelengths
Number of Pixels in Spectrum: 3648
>>>>>Begin Spectral Data<<<<<
178.204	-82.43
178.424	-82.43
178.644	-82.43
178.864	-88.57
179.084	-43.52
179.304	-64
179.524	-84.48
179.744	1.54
179.964	62.98
180.184	-14.85
180.404	3.58
180.624	48.64
180.844	11.78
181.064	-70.14
181.283	81.41
181.503	19.97
181.723	3.58
181.943	-45.57
182.163	65.02
182.383	44.54
182.602	15.87
182.822	56.83
183.042	38.4
183.262	-49.66
183.482	3.58
183.701	-2.56
183.921	9.73
184.141	13.82
184.361	58.88
184.58	60.93
184.8	1.54
185.02	-45.57
185.239	62.98
185.459	-8.7
185.679	11.78
185.898	-18.94
186.118	99.84
186.338	65.02
186.557	19.97
186.777	-66.05
186.997	15.87
187.216	-6.66
187.436	38.4
187.655	40.45
187.875	24.06
188.095	-4.61
188.314	-16.9
188.534	32.26
188.753	7.68
188.973	38.4
189.192	24.06
189.412	7.68
189.631	116.22
189.851	-6.66
190.07	-10.75
190.29	-61.95
190.509	58.88
190.729	77.31
190.948	58.88
191.168	87.55
191.387	50.69
191.607	15.87
191.826	15.87
192.045	-47.62
192.265	56.83
192.484	15.87
192.704	3.58
192.923	-12.8
193.142	36.35
193.362	116.22
193.581	15.87
193.8	-14.85
194.02	56.83
194.239	-23.04
194.458	48.64
194.678	48.64
194.897	-6.66
195.116	40.45
195.335	-41.47
195.555	-4.61
195.774	24.06
195.993	54.78
196.212	-4.61
196.432	11.78
196.651	17.92
196.87	65.02
197.089	50.69
197.308	15.87
197.528	-39.42
197.747	15.87
197.966	11.78
198.185	24.06
198.404	34.3
198.623	-8.7
198.842	-8.7
199.062	62.98
199.281	30.21
199.5	-66.05
199.719	-53.76
199.938	-61.95
200.157	73.21
200.376	-0.51
200.595	3.58
200.814	-14.85
201.033	36.35
201.252	75.26
201.471	15.87
201.69	-10.75
201.909	85.5
202.128	32.26
202.347	40.45
202.566	19.97
202.785	-41.47
203.004	-12.8
203.223	32.26
203.442	71.17
203.661	11.78
203.879	13.82
204.098	-16.9
204.317	-37.38
204.536	-4.61
204.755	36.35
204.974	81.41
205.193	30.21
205.411	24.06
205.63	-74.24
205.849	32.26
206.068	-51.71
206.287	1.54
206.505	46.59
206.724	40.45
206.943	22.02
207.162	-20.99
207.381	5.63
207.599	40.45
207.818	15.87
208.037	26.11
208.255	48.64
208.474	50.69
208.693	75.26
208.911	-20.99
209.13	50.69
209.349	81.41
209.567	38.4
209.786	89.6
210.005	65.02
210.223	19.97
210.442	-6.66
210.661	-2.56
210.879	40.45
211.098	-6.66
211.316	-0.51
211.535	36.35
211.753	-70.14
211.972	58.88
212.191	-0.51
212.409	52.74
212.628	-39.42
212.846	-14.85
213.065	36.35
213.283	75.26
213.502	24.06
213.72	-25.09
213.938	60.93
214.157	7.68
214.375	93.69
214.594	-8.7
214.812	24.06
215.031	15.87
215.249	-55.81
215.467	-20.99
215.686	22.02
215.904	9.73
216.122	-12.8
216.341	15.87
216.559	-27.14
216.778	24.06
216.996	32.26
217.214	-33.28
217.432	-8.7
217.651	-6.66
217.869	-12.8
218.087	-23.04
218.306	-16.9
218.524	15.87
218.742	-8.7
218.96	62.98
219.179	-41.47
219.397	-6.66
219.615	101.89
219.833	46.59
220.051	34.3
220.27	85.5
220.488	32.26
220.706	11.78
220.924	-12.8
221.142	71.17
221.36	42.5
221.578	-14.85
221.796	85.5
222.015	95.74
222.233	48.64
222.451	67.07
222.669	28.16
222.887	26.11
223.105	130.56
223.323	52.74
223.541	-82.43
223.759	118.27
223.977	3.58
224.195	40.45
224.413	30.21
224.631	26.11
224.849	42.5
225.067	11.78
225.285	-16.9
225.503	11.78
225.721	11.78
225.939	42.5
226.157	9.73
226.375	52.74
226.592	11.78
226.81	44.54
227.028	-10.75
227.246	65.02
227.464	-41.47
227.682	22.02
227.9	40.45
228.117	81.41
228.335	36.35
228.553	7.68
228.771	24.06
228.989	40.45
229.206	75.26
229.424	-43.52
229.642	17.92
229.86	42.5
230.077	15.87
230.295	-2.56
230.513	50.69
230.731	32.26
230.948	73.21
231.166	40.45
231.384	-49.66
231.601	-20.99
231.819	40.45
232.037	-6.66
232.254	26.11
232.472	13.82
232.689	5.63
232.907	5.63
233.125	-47.62
233.342	77.31
233.56	-14.85
233.777	97.79
233.995	32.26
234.213	26.11
234.43	46.59
234.648	32.26
234.865	69.12
235.083	65.02
235.3	15.87
235.518	65.02
235.735	52.74
235.953	32.26
236.17	34.3
236.388	1.54
236.605	17.92
236.822	-0.51
237.04	15.87
237.257	67.07
237.475	-18.94
237.692	50.69
237.909	40.45
238.127	146.94
238.344	42.5
238.562	-45.57
238.779	-43.52
238.996	-49.66
239.214	-31.23
239.431	118.27
239.648	48.64
239.865	42.5
240.083	60.93
240.3	-27.14
240.517	-8.7
240.735	-0.51
240.952	32.26
241.169	48.64
241.386	40.45
241.603	-33.28
241.821	-0.51
242.038	46.59
242.255	22.02
242.472	81.41
242.689	67.07
242.907	65.02
243.124	36.35
243.341	34.3
243.558	1.54
243.775	-27.14
243.992	-29.18
244.209	26.11
244.426	93.69
244.643	50.69
244.86	-4.61
245.078	28.16
245.295	30.21
245.512	-0.51
245.729	26.11
245.946	83.45
246.163	24.06
246.38	67.07
246.597	-35.33
246.814	24.06
247.031	-25.09
247.248	89.6
247.464	-39.42
247.681	62.98
247.898	15.87
248.115	48.64
248.332	40.45
248.549	103.93
248.766	56.83
248.983	-2.56
249.2	-8.7
249.417	50.69
249.633	-29.18
249.85	15.87
250.067	3.58
250.284	24.06
250.501	7.68
250.717	40.45
250.934	-25.09
251.151	54.78
251.368	30.21
251.585	40.45
251.801	-12.8
252.018	-2.56
252.235	-12.8
252.451	11.78
252.668	26.11
252.885	40.45
253.102	50.69
253.318	-29.18
253.535	52.74
253.752	50.69
253.968	32.26
254.185	7.68
254.401	-0.51
254.618	75.26
254.835	17.92
255.051	56.83
255.268	32.26
255.484	9.73
255.701	24.06
255.917	11.78
256.134	-8.7
256.351	44.54
256.567	26.11
256.784	-70.14
257	42.5
257.217	67.07
257.433	-23.04
257.65	-23.04
257.866	75.26
258.082	-53.76
258.299	-6.66
258.515	-0.51
258.732	83.45
258.948	13.82
259.165	44.54
259.381	-10.75
259.597	-25.09
259.814	-45.57
260.03	32.26
260.246	-4.61
260.463	-14.85
260.679	75.26
260.895	52.74
261.112	56.83
261.328	-27.14
261.544	48.64
261.761	126.46
261.977	-0.51
262.193	15.87
262.409	7.68
262.626	-16.9
262.842	1.54
263.058	71.17
263.274	-47.62
263.49	46.59
263.707	75.26
263.923	7.68
264.139	48.64
264.355	38.4
264.571	93.69
264.787	32.26
265.004	19.97
265.22	36.35
265.436	7.68
265.652	-37.38
265.868	28.16
266.084	65.02
266.3	1.54
266.516	34.3
266.732	19.97
266.948	11.78
267.164	38.4
267.38	24.06
267.596	-8.7
267.812	81.41
268.028	56.83
268.244	32.26
268.46	40.45
268.676	17.92
268.892	-33.28
269.108	26.11
269.324	-31.23
269.54	-47.62
269.756	140.8
269.972	17.92
270.188	-6.66
270.403	60.93
270.619	30.21
270.835	48.64
271.051	-4.61
271.267	-4.61
271.483	24.06
271.698	36.35
271.914	48.64
272.13	60.93
272.346	15.87
272.562	-66.05
272.777	77.31
272.993	-8.7
273.209	17.92
273.425	69.12
273.64	-74.24
273.856	124.41
274.072	1.54
274.287	13.82
274.503	87.55
274.719	-14.85
274.934	3.58
275.15	40.45
275.366	65.02
275.581	-23.04
275.797	81.41
276.012	32.26
276.228	32.26
276.444	-29.18
276.659	38.4
276.875	-14.85
277.09	56.83
277.306	15.87
277.521	-27.14
277.737	-47.62
277.952	65.02
278.168	17.92
278.383	9.73
278.599	79.36
278.814	58.88
279.03	28.16
279.245	73.21
279.461	-23.04
279.676	-37.38
279.892	-20.99
280.107	48.64
280.322	17.92
280.538	9.73
280.753	-8.7
280.969	42.5
281.184	17.92
281.399	19.97
281.615	48.64
281.83	-55.81
282.045	-39.42
282.26	32.26
282.476	11.78
282.691	58.88
282.906	9.73
283.122	65.02
283.337	-94.72
283.552	28.16
283.767	26.11
283.983	-23.04
284.198	62.98
284.413	48.64
284.628	-41.47
284.843	65.02
285.058	24.06
285.274	40.45
285.489	48.64
285.704	34.3
285.919	26.11
286.134	46.59
286.349	89.6
286.564	-29.18
286.779	-6.66
286.995	24.06
287.21	-18.94
287.425	1.54
287.64	22.02
287.855	56.83
288.07	-29.18
288.285	19.97
288.5	-0.51
288.715	65.02
288.93	7.68
289.145	62.98
289.36	50.69
289.575	-33.28
289.79	-6.66
290.004	65.02
290.219	-16.9
290.434	-27.14
290.649	30.21
290.864	-33.28
291.079	32.26
291.294	-2.56
291.509	58.88
291.724	-0.51
291.938	75.26
292.153	67.07
292.368	17.92
292.583	58.88
292.798	32.26
293.012	77.31
293.227	91.65
293.442	-2.56
293.657	56.83
293.871	83.45
294.086	60.93
294.301	58.88
294.516	19.97
294.73	24.06
294.945	46.59
295.16	1.54
295.374	81.41
295.589	67.07
295.804	-8.7
296.018	28.16
296.233	9.73
296.447	-8.7
296.662	1.54
296.877	73.21
297.091	34.3
297.306	7.68
297.52	54.78
297.735	30.21
297.949	-8.7
298.164	11.78
298.378	58.88
298.593	9.73
298.807	52.74
299.022	34.3
299.236	114.17
299.451	1.54
299.665	50.69
299.88	26.11
300.094	58.88
300.309	-57.86
300.523	54.78
300.737	60.93
300.952	-2.56
301.166	17.92
301.381	-0.51
301.595	34.3
301.809	54.78
302.024	40.45
302.238	-0.51
302.452	134.65
302.667	19.97
302.881	48.64
303.095	24.06
303.309	-25.09
303.524	48.64
303.738	-4.61
303.952	-6.66
304.166	32.26
304.381	15.87
304.595	38.4
304.809	-18.94
305.023	1.54
305.237	50.69
305.452	85.5
305.666	69.12
305.88	71.17
306.094	69.12
306.308	34.3
306.522	-16.9
306.736	54.78
306.95	32.26
307.164	69.12
307.379	75.26
307.593	124.41
307.807	50.69
308.021	52.74
308.235	-47.62
308.449	-98.81
308.663	7.68
308.877	136.7
309.091	62.98
309.305	89.6
309.519	83.45
309.733	56.83
309.947	-45.57
310.161	5.63
310.374	48.64
310.588	120.32
310.802	46.59
311.016	5.63
311.23	-55.81
311.444	11.78
311.658	50.69
311.872	32.26
312.085	95.74
312.299	42.5
312.513	89.6
312.727	62.98
312.941	110.08
313.154	42.5
313.368	26.11
313.582	60.93
313.796	11.78
314.009	7.68
314.223	87.55
314.437	-2.56
314.651	24.06
314.864	38.4
315.078	11.78
315.292	77.31
315.505	38.4
315.719	44.54
315.933	1.54
316.146	-43.52
316.36	36.35
316.573	67.07
316.787	38.4
317.001	3.58
317.214	-39.42
317.428	26.11
317.641	-16.9
317.855	-35.33
318.068	-12.8
318.282	65.02
318.495	60.93
318.709	81.41
318.922	103.93
319.136	46.59
319.349	32.26
319.563	-6.66
319.776	60.93
319.99	1.54
320.203	146.94
320.417	73.21
320.63	-12.8
320.843	89.6
321.057	15.87
321.27	1.54
321.483	81.41
321.697	83.45
321.91	19.97
322.124	48.64
322.337	97.79
322.55	48.64
322.763	73.21
322.977	75.26
323.19	15.87
323.403	40.45
323.617	83.45
323.83	42.5
324.043	40.45
324.256	52.74
324.469	32.26
324.683	73.21
324.896	-33.28
325.109	65.02
325.322	-86.53
325.535	105.98
325.748	-37.38
325.962	1.54
326.175	-6.66
326.388	7.68
326.601	15.87
326.814	-2.56
327.027	69.12
327.24	83.45
327.453	-39.42
327.666	67.07
327.879	91.65
328.092	69.12
328.305	-0.51
328.518	38.4
328.731	81.41
328.944	3.58
329.157	-29.18
329.37	3.58
329.583	40.45
329.796	97.79
330.009	-35.33
330.222	91.65
330.435	15.87
330.648	15.87
330.861	50.69
331.073	-6.66
331.286	34.3
331.499	11.78
331.712	-6.66
331.925	32.26
332.138	42.5
332.35	26.11
332.563	-0.51
332.776	19.97
332.989	-0.51
333.202	56.83
333.414	50.69
333.627	-31.23
333.84	7.68
334.053	56.83
334.265	19.97
334.478	50.69
334.691	42.5
334.903	77.31
335.116	93.69
335.329	17.92
335.541	-14.85
335.754	67.07
335.966	-25.09
336.179	-20.99
336.392	15.87
336.604	67.07
336.817	-4.61
337.029	87.55
337.242	5.63
337.454	58.88
337.667	48.64
337.88	60.93
338.092	36.35
338.305	24.06
338.517	-16.9
338.729	48.64
338.942	83.45
339.154	15.87
339.367	36.35
339.579	60.93
339.792	32.26
340.004	101.89
340.217	40.45
340.429	44.54
340.641	83.45
340.854	34.3
341.066	28.16
341.278	56.83
341.491	56.83
341.703	67.07
341.915	22.02
342.128	38.4
342.34	42.5
342.552	69.12
342.764	48.64
342.977	40.45
343.189	93.69
343.401	40.45
343.613	-0.51
343.826	-23.04
344.038	5.63
344.25	28.16
344.462	19.97
344.674	30.21
344.886	3.58
345.099	28.16
345.311	99.84
345.523	-10.75
345.735	9.73
345.947	15.87
346.159	1.54
346.371	52.74
346.583	71.17
346.795	65.02
347.007	11.78
347.219	85.5
347.431	7.68
347.643	32.26
347.855	30.21
348.067	75.26
348.279	40.45
348.491	40.45
348.703	40.45
348.915	24.06
349.127	28.16
349.339	42.5
349.551	34.3
349.763	15.87
349.975	-12.8
350.187	40.45
350.399	44.54
350.61	91.65
350.822	7.68
351.034	48.64
351.246	-23.04
351.458	75.26
351.669	-41.47
351.881	91.65
352.093	93.69
352.305	-8.7
352.517	52.74
352.728	142.85
352.94	112.13
353.152	-31.23
353.363	15.87
353.575	73.21
353.787	17.92
353.999	-23.04
354.21	108.03
354.422	42.5
354.633	15.87
354.845	67.07
355.057	38.4
355.268	48.64
355.48	128.51
355.692	11.78
355.903	60.93
356.115	7.68
356.326	-47.62
356.538	120.32
356.749	-20.99
356.961	50.69
357.172	13.82
357.384	42.5
357.595	93.69
357.807	105.98
358.018	89.6
358.23	48.64
358.441	101.89
358.653	114.17
358.864	24.06
359.075	83.45
359.287	48.64
359.498	89.6
359.709	67.07
359.921	28.16
360.132	-6.66
360.344	52.74
360.555	71.17
360.766	42.5
360.977	7.68
361.189	42.5
361.4	5.63
361.611	15.87
361.823	138.75
362.034	112.13
362.245	-8.7
362.456	81.41
362.667	79.36
362.879	11.78
363.09	65.02
363.301	65.02
363.512	32.26
363.723	-74.24
363.935	-8.7
364.146	17.92
364.357	97.79
364.568	15.87
364.779	34.3
364.99	105.98
365.201	7.68
365.412	7.68
365.623	40.45
365.834	1.54
366.045	19.97
366.256	122.37
366.467	81.41
366.678	15.87
366.889	-23.04
367.1	105.98
367.311	32.26
367.522	89.6
367.733	-8.7
367.944	42.5
368.155	69.12
368.366	73.21
368.577	81.41
368.788	-10.75
368.999	22.02
369.209	42.5
369.42	93.69
369.631	19.97
369.842	42.5
370.053	62.98
370.264	58.88
370.474	56.83
370.685	52.74
370.896	81.41
371.107	40.45
371.317	62.98
371.528	36.35
371.739	56.83
371.95	60.93
372.16	22.02
372.371	28.16
372.582	9.73
372.792	11.78
373.003	-16.9
373.214	91.65
373.424	67.07
373.635	38.4
373.846	97.79
374.056	83.45
374.267	97.79
374.477	95.74
374.688	50.69
374.898	81.41
375.109	38.4
375.319	58.88
375.53	52.74
375.74	99.84
375.951	32.26
376.161	67.07
376.372	58.88
376.582	-8.7
376.793	9.73
377.003	-6.66
377.214	-10.75
377.424	105.98
377.635	93.69
377.845	40.45
378.055	87.55
378.266	40.45
378.476	89.6
378.686	44.54
378.897	85.5
379.107	26.11
379.317	32.26
379.528	89.6
379.738	15.87
379.948	22.02
380.158	48.64
380.369	7.68
380.579	112.13
380.789	5.63
380.999	99.84
381.21	126.46
381.42	103.93
381.63	89.6
381.84	34.3
382.05	42.5
382.261	118.27
382.471	58.88
382.681	1.54
382.891	77.31
383.101	30.21
383.311	50.69
383.521	-20.99
383.731	97.79
383.941	19.97
384.151	7.68
384.361	120.32
384.571	87.55
384.781	40.45
384.991	44.54
385.201	114.17
385.411	85.5
385.621	75.26
385.831	73.21
386.041	75.26
386.251	60.93
386.461	58.88
386.671	71.17
386.881	50.69
387.091	24.06
387.301	50.69
387.511	110.08
387.72	95.74
387.93	65.02
388.14	44.54
388.35	-8.7
388.56	177.66
388.769	97.79
388.979	32.26
389.189	93.69
389.399	40.45
389.609	34.3
389.818	3.58
390.028	108.03
390.238	69.12
390.447	56.83
390.657	42.5
390.867	101.89
391.076	65.02
391.286	9.73
391.496	83.45
391.705	7.68
391.915	89.6
392.125	95.74
392.334	105.98
392.544	159.23
392.753	73.21
392.963	28.16
393.172	81.41
393.382	75.26
393.591	183.81
393.801	101.89
394.01	112.13
394.22	93.69
394.429	67.07
394.639	93.69
394.848	73.21
395.058	118.27
395.267	9.73
395.477	108.03
395.686	101.89
395.895	157.18
396.105	69.12
396.314	28.16
396.524	58.88
396.733	26.11
396.942	108.03
397.152	148.99
397.361	56.83
397.57	93.69
397.78	179.71
397.989	122.37
398.198	173.57
398.407	146.94
398.617	122.37
398.826	169.47
399.035	85.5
399.244	124.41
399.453	136.7
399.663	140.8
399.872	159.23
400.081	112.13
400.29	163.33
400.499	93.69
400.708	165.37
400.917	130.56
401.127	60.93
401.336	163.33
401.545	280.06
401.754	105.98
401.963	192
402.172	116.22
402.381	85.5
402.59	105.98
402.799	196.09
403.008	171.52
403.217	171.52
403.426	187.9
403.635	122.37
403.844	179.71
404.053	60.93
404.262	148.99
404.471	216.57
404.68	212.48
404.888	206.33
405.097	130.56
405.306	284.16
405.515	187.9
405.724	198.14
405.933	204.28
406.142	253.44
406.35	269.82
406.559	269.82
406.768	275.96
406.977	318.97
407.185	222.72
407.394	230.91
407.603	267.77
407.812	212.48
408.02	263.68
408.229	388.6
408.438	310.78
408.646	310.78
408.855	347.64
409.064	278.01
409.272	345.59
409.481	437.75
409.69	318.97
409.898	359.93
410.107	380.41
410.315	429.56
410.524	427.51
410.733	536.06
410.941	466.42
411.15	525.82
411.358	564.73
411.567	552.44
411.775	546.3
411.984	570.87
412.192	556.54
412.401	568.82
412.609	732.66
412.818	679.41
413.026	691.7
413.234	703.99
413.443	744.95
413.651	753.14
413.86	771.57
414.068	828.92
414.276	853.49
414.485	810.48
414.693	794.1
414.901	931.31
415.11	880.11
415.318	994.8
415.526	986.61
415.734	1068.53
415.943	1068.53
416.151	1080.82
416.359	1177.07
416.567	1246.7
416.776	1277.42
416.984	1299.95
417.192	1269.23
417.4	1312.24
417.608	1310.19
417.817	1478.12
418.025	1560.04
418.233	1652.2
418.441	1670.63
418.649	1668.58
418.857	1725.93
419.065	1914.34
419.273	1850.85
419.481	1922.53
419.689	1959.39
419.897	2067.94
420.105	2129.38
420.313	2229.73
420.521	2330.08
420.729	2401.76
420.937	2348.51
421.145	2483.67
421.353	2620.89
421.561	2708.95
421.769	2780.63
421.977	3069.39
422.185	2739.67
422.393	3104.21
422.601	3261.9
422.809	3331.53
423.017	3130.83
423.224	3415.5
423.432	3472.84
423.64	3669.45
423.848	3898.82
424.056	3702.22
424.263	4089.28
424.471	3933.64
424.679	3943.88
424.887	4287.93
425.094	4341.18
425.302	4505.02
425.51	4539.83
425.718	4818.36
425.925	4849.08
426.133	4992.44
426.341	5246.38
426.548	5447.08
426.756	5520.81
426.964	5537.2
427.171	5895.59
427.379	6094.24
427.586	6118.82
427.794	6395.29
428.001	6462.88
428.209	6864.28
428.417	6743.45
428.624	7355.79
428.832	7194
429.039	7185.81
429.247	7351.7
429.454	8048.01
429.662	8326.53
429.869	7898.5
430.076	8242.56
430.284	8125.83
430.491	8609.15
430.699	9026.93
430.906	8916.34
431.114	9090.42
431.321	9418.1
431.528	9639.28
431.736	10071.4
431.943	10728.8
432.15	10460.51
432.358	10679.65
432.565	10945.88
432.772	11134.29
432.979	11605.33
433.187	11713.87
433.394	11779.4
433.601	12682.56
433.808	12647.74
434.016	12457.28
434.223	13139.26
434.43	14177.58
434.637	13579.57
434.844	14597.41
435.052	14757.15
435.259	14943.52
435.466	14791.97
435.673	14806.3
435.88	15265.05
436.087	16360.71
436.294	16387.33
436.501	16178.44
436.708	16538.88
436.915	17075.45
437.122	17720.56
437.329	17714.42
437.537	18330.86
437.743	18709.73
437.95	18283.75
438.157	19191
438.364	19625.17
438.571	19825.87
438.778	19971.28
438.985	21716.15
439.192	20872.39
439.399	21836.98
439.606	21312.7
439.813	22381.74
440.02	23747.73
440.227	23198.88
440.433	22680.74
440.64	23911.57
440.847	23379.1
441.054	24251.53
441.261	25889.91
441.467	25554.04
441.674	26016.88
441.881	27012.2
442.088	26748.01
442.294	26573.93
442.501	27167.84
442.708	27812.95
442.914	28771.4
443.121	30006.33
443.328	28914.76
443.534	31261.73
443.741	30331.95
443.948	30180.4
444.154	32099.35
444.361	31730.72
444.568	32060.44
444.774	32236.56
444.981	32338.96
445.187	33254.4
445.394	34591.73
445.6	34499.57
445.807	37489.6
446.013	35677.15
446.22	36834.25
446.426	37598.15
446.633	38243.26
446.839	39359.4
447.046	37950.4
447.252	40004.51
447.459	40008.61
447.665	39908.26
447.871	41593.73
448.078	42959.73
448.284	40960.91
448.491	42371.96
448.697	43697
448.903	44731.22
449.11	45026.13
449.316	44120.93
449.522	45040.46
449.728	45728.58
449.935	46134.08
450.141	46265.15
450.347	47328.05
450.553	45378.38
450.76	46422.84
450.966	47942.44
451.172	47448.88
451.378	48769.82
451.584	47313.71
451.791	48988.95
451.997	48556.83
452.203	49277.71
452.409	48950.04
452.615	49130.26
452.821	47334.19
453.027	47041.33
453.233	49292.05
453.44	47346.48
453.646	48175.9
453.852	48331.55
454.058	49087.25
454.264	47764.26
454.47	48554.78
454.676	47342.38
454.882	48962.32
455.088	44821.33
455.294	45679.43
455.5	45964.1
455.705	46863.16
455.911	44569.43
456.117	43959.14
456.323	42920.82
456.529	41530.25
456.735	42853.23
456.941	41880.45
457.147	41186.19
457.352	39699.36
457.558	39605.16
457.764	39467.94
457.97	38624.18
458.176	37798.85
458.381	38636.47
458.587	36135.9
458.793	36449.24
458.999	34401.27
459.204	36940.75
459.41	35711.97
459.616	33512.45
459.821	34169.85
460.027	33283.08
460.233	32726.03
460.438	31409.18
460.644	31820.83
460.85	30137.4
461.055	29774.91
461.261	29606.97
461.466	27348.06
461.672	26645.61
461.878	28529.74
462.083	26637.42
462.289	26053.75
462.494	25777.27
462.7	24876.16
462.905	23852.18
463.111	25001.09
463.316	24919.17
463.522	24186
463.727	24210.57
463.932	24001.68
464.138	24108.18
464.343	23977.11
464.549	23166.11
464.754	24554.63
464.959	24034.45
465.165	23778.45
465.37	22973.6
465.575	22348.97
465.781	23579.8
465.986	23338.14
466.191	22297.77
466.397	21742.77
466.602	20978.88
466.807	21642.42
467.012	21535.93
467.218	21650.61
467.423	21558.46
467.628	21367.99
