Data from USB4F104151__97__14-18-01-300.txt Node

Date: Thu Mar 13 14:18:01 EDT 2025
User: louis
Spectrometer: USB4F10415
Trigger mode: 4
Integration Time (sec): 2.000000E-2
Scans to average: 1
Electric dark correction enabled: true
Nonlinearity correction enabled: false
Boxcar width: 0
XAxis mode: Wavelengths
Number of Pixels in Spectrum: 3648
>>>>>Begin Spectral Data<<<<<
178.204	-135.17
178.424	-135.17
178.644	-135.17
178.864	-65.54
179.084	-161.79
179.304	-12.29
179.524	10.24
179.744	-79.87
179.964	71.68
180.184	-6.14
180.404	-14.34
180.624	18.43
180.844	38.91
181.064	-53.25
181.283	26.62
181.503	-22.53
181.723	22.53
181.943	-8.19
182.163	94.21
182.383	51.2
182.602	69.63
182.822	2.05
183.042	51.2
183.262	24.58
183.482	71.68
183.701	-36.86
183.921	10.24
184.141	65.53
184.361	-30.72
184.58	26.62
184.8	73.73
185.02	-14.34
185.239	83.97
185.459	30.72
185.679	-47.1
185.898	-14.34
186.118	75.77
186.338	10.24
186.557	18.43
186.777	-28.67
186.997	-14.34
187.216	-45.06
187.436	98.3
187.655	10.24
187.875	14.34
188.095	2.05
188.314	-22.53
188.534	-22.53
188.753	8.19
188.973	6.14
189.192	14.34
189.412	79.87
189.631	28.67
189.851	-26.62
190.07	26.62
190.29	-2.05
190.509	2.05
190.729	-10.24
190.948	26.62
191.168	108.54
191.387	-22.53
191.607	10.24
191.826	-18.43
192.045	26.62
192.265	45.06
192.484	12.29
192.704	-61.44
192.923	40.96
193.142	51.2
193.362	30.72
193.581	59.39
193.8	100.35
194.02	-2.05
194.239	73.73
194.458	-8.19
194.678	67.58
194.897	-6.14
195.116	12.29
195.335	43.01
195.555	45.06
195.774	-12.29
195.993	55.3
196.212	-20.48
196.432	-4.1
196.651	38.91
196.87	-36.86
197.089	67.58
197.308	20.48
197.528	59.39
197.747	-14.34
197.966	-22.53
198.185	51.2
198.404	67.58
198.623	18.43
198.842	67.58
199.062	34.82
199.281	4.1
199.5	22.53
199.719	4.1
199.938	-43.01
200.157	75.77
200.376	-6.14
200.595	43.01
200.814	47.1
201.033	45.06
201.252	26.62
201.471	57.34
201.69	102.4
201.909	30.72
202.128	28.67
202.347	26.62
202.566	-51.2
202.785	-30.72
203.004	-10.24
203.223	92.16
203.442	20.48
203.661	-32.77
203.879	69.63
204.098	49.15
204.317	61.44
204.536	75.77
204.755	-34.82
204.974	83.97
205.193	77.82
205.411	59.39
205.63	55.3
205.849	-4.1
206.068	-24.58
206.287	36.86
206.505	75.77
206.724	51.2
206.943	-38.91
207.162	43.01
207.381	40.96
207.599	-6.14
207.818	61.44
208.037	-36.86
208.255	6.14
208.474	20.48
208.693	28.67
208.911	4.1
209.13	10.24
209.349	-14.34
209.567	55.3
209.786	-0
210.005	-47.1
210.223	114.69
210.442	-45.06
210.661	12.29
210.879	45.06
211.098	-2.05
211.316	36.86
211.535	45.06
211.753	20.48
211.972	49.15
212.191	-38.91
212.409	4.1
212.628	77.82
212.846	36.86
213.065	28.67
213.283	77.82
213.502	63.49
213.72	26.62
213.938	63.49
214.157	38.91
214.375	24.58
214.594	-0
214.812	67.58
215.031	38.91
215.249	43.01
215.467	38.91
215.686	-10.24
215.904	26.62
216.122	10.24
216.341	145.41
216.559	-6.14
216.778	34.82
216.996	57.34
217.214	20.48
217.432	30.72
217.651	-0
217.869	30.72
218.087	36.86
218.306	2.05
218.524	14.34
218.742	-4.1
218.96	18.43
219.179	51.2
219.397	4.1
219.615	133.12
219.833	32.77
220.051	10.24
220.27	47.1
220.488	59.39
220.706	43.01
220.924	-6.14
221.142	-38.91
221.36	67.58
221.578	59.39
221.796	10.24
222.015	-53.25
222.233	20.48
222.451	124.93
222.669	34.82
222.887	83.97
223.105	2.05
223.323	-40.96
223.541	12.29
223.759	-20.48
223.977	-6.14
224.195	-6.14
224.413	43.01
224.631	20.48
224.849	-8.19
225.067	112.64
225.285	26.62
225.503	18.43
225.721	-18.43
225.939	-12.29
226.157	69.63
226.375	161.79
226.592	-40.96
226.81	38.91
227.028	63.49
227.246	22.53
227.464	-2.05
227.682	-30.72
227.9	51.2
228.117	38.91
228.335	75.77
228.553	30.72
228.771	40.96
228.989	-14.34
229.206	32.77
229.424	36.86
229.642	49.15
229.86	53.25
230.077	83.97
230.295	43.01
230.513	36.86
230.731	67.58
230.948	53.25
231.166	34.82
231.384	75.77
231.601	116.73
231.819	75.77
232.037	34.82
232.254	10.24
232.472	10.24
232.689	43.01
232.907	102.4
233.125	22.53
233.342	-2.05
233.56	75.77
233.777	75.77
233.995	26.62
234.213	90.11
234.43	-16.38
234.648	-2.05
234.865	-16.38
235.083	34.82
235.3	-0
235.518	71.68
235.735	96.25
235.953	34.82
236.17	-2.05
236.388	-20.48
236.605	110.59
236.822	4.1
237.04	92.16
237.257	2.05
237.475	-0
237.692	104.45
237.909	47.1
238.127	6.14
238.344	2.05
238.562	-0
238.779	-20.48
238.996	18.43
239.214	22.53
239.431	36.86
239.648	-55.3
239.865	20.48
240.083	28.67
240.3	22.53
240.517	10.24
240.735	-40.96
240.952	118.78
241.169	100.35
241.386	-12.29
241.603	10.24
241.821	-4.1
242.038	45.06
242.255	71.68
242.472	-38.91
242.689	4.1
242.907	133.12
243.124	26.62
243.341	2.05
243.558	34.82
243.775	-20.48
243.992	-55.3
244.209	22.53
244.426	96.25
244.643	69.63
244.86	36.86
245.078	40.96
245.295	-10.24
245.512	28.67
245.729	32.77
245.946	14.34
246.163	-57.34
246.38	10.24
246.597	-6.14
246.814	-24.58
247.031	22.53
247.248	51.2
247.464	75.77
247.681	61.44
247.898	28.67
248.115	-22.53
248.332	2.05
248.549	34.82
248.766	30.72
248.983	79.87
249.2	-12.29
249.417	12.29
249.633	-43.01
249.85	20.48
250.067	4.1
250.284	-10.24
250.501	10.24
250.717	53.25
250.934	18.43
251.151	26.62
251.368	-6.14
251.585	79.87
251.801	43.01
252.018	-22.53
252.235	26.62
252.451	-24.58
252.668	24.58
252.885	149.5
253.102	53.25
253.318	12.29
253.535	-10.24
253.752	55.3
253.968	2.05
254.185	28.67
254.401	71.68
254.618	94.21
254.835	-32.77
255.051	67.58
255.268	-22.53
255.484	69.63
255.701	102.4
255.917	18.43
256.134	92.16
256.351	10.24
256.567	45.06
256.784	53.25
257	22.53
257.217	-4.1
257.433	110.59
257.65	86.01
257.866	110.59
258.082	-14.34
258.299	-14.34
258.515	-40.96
258.732	-38.91
258.948	-14.34
259.165	30.72
259.381	-12.29
259.597	86.01
259.814	63.49
260.03	-30.72
260.246	-45.06
260.463	4.1
260.679	43.01
260.895	-20.48
261.112	61.44
261.328	18.43
261.544	-14.34
261.761	75.77
261.977	38.91
262.193	-47.1
262.409	55.3
262.626	55.3
262.842	43.01
263.058	-28.67
263.274	30.72
263.49	81.92
263.707	20.48
263.923	12.29
264.139	-14.34
264.355	59.39
264.571	59.39
264.787	53.25
265.004	28.67
265.22	12.29
265.436	36.86
265.652	34.82
265.868	30.72
266.084	10.24
266.3	24.58
266.516	-26.62
266.732	-32.77
266.948	-14.34
267.164	36.86
267.38	24.58
267.596	34.82
267.812	38.91
268.028	26.62
268.244	55.3
268.46	38.91
268.676	34.82
268.892	30.72
269.108	-12.29
269.324	16.38
269.54	22.53
269.756	55.3
269.972	-45.06
270.188	2.05
270.403	30.72
270.619	36.86
270.835	-14.34
271.051	38.91
271.267	6.14
271.483	26.62
271.698	14.34
271.914	-32.77
272.13	69.63
272.346	51.2
272.562	-30.72
272.777	2.05
272.993	67.58
273.209	-51.2
273.425	83.97
273.64	2.05
273.856	12.29
274.072	57.34
274.287	-18.43
274.503	49.15
274.719	10.24
274.934	51.2
275.15	2.05
275.366	61.44
275.581	47.1
275.797	14.34
276.012	2.05
276.228	-0
276.444	55.3
276.659	-0
276.875	45.06
277.09	69.63
277.306	47.1
277.521	90.11
277.737	-4.1
277.952	-43.01
278.168	77.82
278.383	26.62
278.599	12.29
278.814	59.39
279.03	61.44
279.245	30.72
279.461	-2.05
279.676	126.97
279.892	30.72
280.107	-43.01
280.322	59.39
280.538	38.91
280.753	-38.91
280.969	-14.34
281.184	63.49
281.399	12.29
281.615	10.24
281.83	-55.3
282.045	-92.16
282.26	10.24
282.476	-14.34
282.691	51.2
282.906	-4.1
283.122	67.58
283.337	-20.48
283.552	124.93
283.767	110.59
283.983	67.58
284.198	-36.86
284.413	2.05
284.628	-61.44
284.843	12.29
285.058	-8.19
285.274	61.44
285.489	67.58
285.704	79.87
285.919	12.29
286.134	77.82
286.349	108.54
286.564	-10.24
286.779	2.05
286.995	18.43
287.21	22.53
287.425	73.73
287.64	36.86
287.855	86.01
288.07	-20.48
288.285	20.48
288.5	2.05
288.715	96.25
288.93	79.87
289.145	-6.14
289.36	83.97
289.575	26.62
289.79	6.14
290.004	20.48
290.219	108.54
290.434	22.53
290.649	57.34
290.864	71.68
291.079	10.24
291.294	14.34
291.509	55.3
291.724	38.91
291.938	-34.82
292.153	10.24
292.368	28.67
292.583	30.72
292.798	90.11
293.012	18.43
293.227	75.77
293.442	2.05
293.657	34.82
293.871	104.45
294.086	59.39
294.301	28.67
294.516	22.53
294.73	-12.29
294.945	14.34
295.16	53.25
295.374	59.39
295.589	61.44
295.804	18.43
296.018	36.86
296.233	18.43
296.447	77.82
296.662	-71.68
296.877	43.01
297.091	-47.1
297.306	45.06
297.52	-22.53
297.735	6.14
297.949	26.62
298.164	22.53
298.378	18.43
298.593	-24.58
298.807	-18.43
299.022	26.62
299.236	38.91
299.451	-79.87
299.665	2.05
299.88	53.25
300.094	59.39
300.309	-18.43
300.523	4.1
300.737	75.77
300.952	47.1
301.166	38.91
301.381	24.58
301.595	92.16
301.809	8.19
302.024	32.77
302.238	10.24
302.452	83.97
302.667	4.1
302.881	81.92
303.095	57.34
303.309	26.62
303.524	-2.05
303.738	12.29
303.952	79.87
304.166	47.1
304.381	-26.62
304.595	4.1
304.809	55.3
305.023	65.53
305.237	26.62
305.452	-47.1
305.666	26.62
305.88	45.06
306.094	55.3
306.308	63.49
306.522	77.82
306.736	18.43
306.95	61.44
307.164	-6.14
307.379	24.58
307.593	47.1
307.807	22.53
308.021	-14.34
308.235	14.34
308.449	-36.86
308.663	51.2
308.877	116.73
309.091	-18.43
309.305	18.43
309.519	36.86
309.733	18.43
309.947	36.86
310.161	24.58
310.374	-6.14
310.588	55.3
310.802	4.1
311.016	49.15
311.23	-18.43
311.444	2.05
311.658	59.39
311.872	73.73
312.085	53.25
312.299	83.97
312.513	30.72
312.727	26.62
312.941	24.58
313.154	63.49
313.368	79.87
313.582	-18.43
313.796	45.06
314.009	30.72
314.223	75.77
314.437	83.97
314.651	10.24
314.864	12.29
315.078	55.3
315.292	34.82
315.505	36.86
315.719	83.97
315.933	32.77
316.146	26.62
316.36	4.1
316.573	-0
316.787	28.67
317.001	43.01
317.214	-38.91
317.428	73.73
317.641	38.91
317.855	40.96
318.068	10.24
318.282	32.77
318.495	2.05
318.709	28.67
318.922	6.14
319.136	34.82
319.349	45.06
319.563	51.2
319.776	2.05
319.99	-12.29
320.203	10.24
320.417	38.91
320.63	34.82
320.843	100.35
321.057	-0
321.27	38.91
321.483	81.92
321.697	90.11
321.91	49.15
322.124	59.39
322.337	92.16
322.55	45.06
322.763	43.01
322.977	-4.1
323.19	-55.3
323.403	26.62
323.617	49.15
323.83	88.06
324.043	61.44
324.256	30.72
324.469	4.1
324.683	77.82
324.896	4.1
325.109	-0
325.322	6.14
325.535	92.16
325.748	98.3
325.962	10.24
326.175	12.29
326.388	51.2
326.601	-18.43
326.814	61.44
327.027	102.4
327.24	116.73
327.453	-28.67
327.666	55.3
327.879	-24.58
328.092	55.3
328.305	-14.34
328.518	26.62
328.731	10.24
328.944	10.24
329.157	12.29
329.37	18.43
329.583	96.25
329.796	59.39
330.009	10.24
330.222	75.77
330.435	51.2
330.648	71.68
330.861	79.87
331.073	45.06
331.286	22.53
331.499	55.3
331.712	26.62
331.925	67.58
332.138	8.19
332.35	51.2
332.563	-10.24
332.776	94.21
332.989	2.05
333.202	-71.68
333.414	-4.1
333.627	-67.58
333.84	49.15
334.053	4.1
334.265	40.96
334.478	83.97
334.691	-4.1
334.903	55.3
335.116	-12.29
335.329	34.82
335.541	102.4
335.754	36.86
335.966	24.58
336.179	38.91
336.392	92.16
336.604	-45.06
336.817	83.97
337.029	157.69
337.242	34.82
337.454	18.43
337.667	36.86
337.88	110.59
338.092	110.59
338.305	55.3
338.517	55.3
338.729	94.21
338.942	38.91
339.154	10.24
339.367	36.86
339.579	6.14
339.792	24.58
340.004	-14.34
340.217	-0
340.429	75.77
340.641	-4.1
340.854	61.44
341.066	26.62
341.278	94.21
341.491	135.17
341.703	100.35
341.915	43.01
342.128	92.16
342.34	53.25
342.552	-6.14
342.764	26.62
342.977	18.43
343.189	38.91
343.401	61.44
343.613	6.14
343.826	-10.24
344.038	118.78
344.25	12.29
344.462	-2.05
344.674	57.34
344.886	63.49
345.099	45.06
345.311	96.25
345.523	102.4
345.735	18.43
345.947	59.39
346.159	-16.38
346.371	26.62
346.583	34.82
346.795	116.73
347.007	43.01
347.219	59.39
347.431	67.58
347.643	53.25
347.855	45.06
348.067	86.01
348.279	22.53
348.491	28.67
348.703	28.67
348.915	43.01
349.127	73.73
349.339	10.24
349.551	-2.05
349.763	-2.05
349.975	61.44
350.187	8.19
350.399	47.1
350.61	57.34
350.822	18.43
351.034	67.58
351.246	77.82
351.458	88.06
351.669	22.53
351.881	81.92
352.093	30.72
352.305	65.53
352.517	102.4
352.728	12.29
352.94	51.2
353.152	59.39
353.363	18.43
353.575	22.53
353.787	45.06
353.999	14.34
354.21	75.77
354.422	36.86
354.633	92.16
354.845	100.35
355.057	14.34
355.268	26.62
355.48	47.1
355.692	30.72
355.903	2.05
356.115	61.44
356.326	26.62
356.538	34.82
356.749	43.01
356.961	34.82
357.172	96.25
357.384	40.96
357.595	26.62
357.807	-71.68
358.018	10.24
358.23	32.77
358.441	51.2
358.653	71.68
358.864	53.25
359.075	43.01
359.287	22.53
359.498	75.77
359.709	59.39
359.921	96.25
360.132	28.67
360.344	10.24
360.555	26.62
360.766	108.54
360.977	-53.25
361.189	43.01
361.4	96.25
361.611	20.48
361.823	63.49
362.034	131.07
362.245	10.24
362.456	47.1
362.667	112.64
362.879	86.01
363.09	43.01
363.301	61.44
363.512	38.91
363.723	83.97
363.935	108.54
364.146	40.96
364.357	34.82
364.568	133.12
364.779	-6.14
364.99	92.16
365.201	61.44
365.412	108.54
365.623	6.14
365.834	4.1
366.045	4.1
366.256	108.54
366.467	18.43
366.678	65.53
366.889	-8.19
367.1	14.34
367.311	47.1
367.522	59.39
367.733	12.29
367.944	59.39
368.155	43.01
368.366	55.3
368.577	83.97
368.788	104.45
368.999	59.39
369.209	51.2
369.42	10.24
369.631	47.1
369.842	22.53
370.053	98.3
370.264	75.77
370.474	26.62
370.685	51.2
370.896	30.72
371.107	83.97
371.317	40.96
371.528	-43.01
371.739	124.93
371.95	63.49
372.16	90.11
372.371	22.53
372.582	30.72
372.792	34.82
373.003	116.73
373.214	120.83
373.424	124.93
373.635	10.24
373.846	83.97
374.056	34.82
374.267	102.4
374.477	55.3
374.688	-14.34
374.898	20.48
375.109	75.77
375.319	-12.29
375.53	53.25
375.74	94.21
375.951	59.39
376.161	-20.48
376.372	69.63
376.582	100.35
376.793	45.06
377.003	-10.24
377.214	38.91
377.424	18.43
377.635	-59.39
377.845	20.48
378.055	67.58
378.266	16.38
378.476	69.63
378.686	43.01
378.897	104.45
379.107	63.49
379.317	-16.38
379.528	12.29
379.738	83.97
379.948	55.3
380.158	53.25
380.369	38.91
380.579	47.1
380.789	43.01
380.999	10.24
381.21	67.58
381.42	94.21
381.63	83.97
381.84	51.2
382.05	61.44
382.261	75.77
382.471	49.15
382.681	79.87
382.891	106.49
383.101	83.97
383.311	-14.34
383.521	-20.48
383.731	75.77
383.941	53.25
384.151	67.58
384.361	18.43
384.571	100.35
384.781	92.16
384.991	149.5
385.201	38.91
385.411	53.25
385.621	98.3
385.831	53.25
386.041	92.16
386.251	96.25
386.461	79.87
386.671	30.72
386.881	100.35
387.091	67.58
387.301	51.2
387.511	69.63
387.72	73.73
387.93	116.73
388.14	98.3
388.35	4.1
388.56	43.01
388.769	120.83
388.979	22.53
389.189	67.58
389.399	38.91
389.609	116.73
389.818	88.06
390.028	108.54
390.238	86.01
390.447	92.16
390.657	118.78
390.867	2.05
391.076	18.43
391.286	49.15
391.496	108.54
391.705	81.92
391.915	83.97
392.125	10.24
392.334	110.59
392.544	36.86
392.753	100.35
392.963	-2.05
393.172	61.44
393.382	67.58
393.591	124.93
393.801	34.82
394.01	43.01
394.22	149.5
394.429	71.68
394.639	26.62
394.848	30.72
395.058	71.68
395.267	71.68
395.477	100.35
395.686	53.25
395.895	159.74
396.105	190.46
396.314	143.36
396.524	67.58
396.733	-20.48
396.942	135.17
397.152	83.97
397.361	215.04
397.57	55.3
397.78	120.83
397.989	81.92
398.198	147.45
398.407	59.39
398.617	129.02
398.826	124.93
399.035	63.49
399.244	108.54
399.453	106.49
399.663	102.4
399.872	231.42
400.081	112.64
400.29	77.82
400.499	75.77
400.708	124.93
400.917	69.63
401.127	118.78
401.336	186.37
401.545	206.84
401.754	131.07
401.963	157.69
402.172	83.97
402.381	71.68
402.59	124.93
402.799	126.97
403.008	188.41
403.217	133.12
403.426	102.4
403.635	133.12
403.844	53.25
404.053	161.79
404.262	69.63
404.471	159.74
404.68	153.6
404.888	208.89
405.097	153.6
405.306	143.36
405.515	223.23
405.724	112.64
405.933	210.94
406.142	159.74
406.35	241.66
406.559	247.8
406.768	288.76
406.977	288.76
407.185	124.93
407.394	260.09
407.603	200.7
407.812	227.32
408.02	266.24
408.229	225.28
408.438	174.08
408.646	235.52
408.855	247.8
409.064	305.15
409.272	313.34
409.481	403.45
409.69	309.24
409.898	337.91
410.107	288.76
410.315	385.02
410.524	448.51
410.733	440.31
410.941	415.74
411.15	491.51
411.358	389.11
411.567	505.85
411.775	448.51
411.984	522.23
412.192	573.43
412.401	483.32
412.609	548.86
412.818	520.18
413.026	608.25
413.234	616.44
413.443	598.01
413.651	673.78
413.86	692.21
414.068	788.47
414.276	735.22
414.485	763.89
414.693	751.6
414.901	706.55
415.11	915.44
415.318	821.24
415.526	854
415.734	964.59
415.943	903.15
416.151	903.15
416.359	999.41
416.567	919.54
416.776	1099.76
416.984	1146.86
417.192	1136.62
417.4	1107.95
417.608	1103.86
417.817	1153.01
418.025	1263.6
418.233	1296.36
418.441	1361.9
418.649	1441.77
418.857	1466.35
419.065	1564.65
419.273	1476.59
419.481	1615.85
419.689	1687.53
419.897	1869.8
420.105	1832.93
420.313	1865.7
420.521	1896.42
420.729	1861.6
420.937	2123.74
421.145	2205.66
421.353	2164.7
421.561	2162.65
421.769	2295.77
421.977	2480.09
422.185	2394.08
422.393	2650.07
422.601	2697.17
422.809	2631.64
423.017	2764.76
423.224	2832.34
423.432	2881.49
423.64	2979.79
423.848	3215.31
424.056	3123.15
424.263	3360.72
424.471	3465.16
424.679	3387.34
424.887	3631.05
425.094	3700.68
425.302	3606.47
425.51	3876.8
425.718	4024.26
425.925	3872.71
426.133	4237.25
426.341	4306.88
426.548	4681.66
426.756	4650.94
426.964	4718.52
427.171	4980.66
427.379	5095.35
427.586	5066.67
427.794	5287.86
428.001	5607.34
428.209	5896.1
428.417	5719.98
428.624	6156.19
428.832	6145.95
429.039	6170.53
429.247	6137.76
429.454	6657.95
429.662	7006.1
429.869	6498.2
430.076	7165.84
430.284	7071.64
430.491	7165.84
430.699	7495.57
430.906	7761.8
431.114	7661.45
431.321	7956.36
431.528	8120.2
431.736	8736.63
431.943	9095.03
432.15	9029.49
432.358	8808.31
432.565	9578.35
432.772	9289.59
432.979	9779.05
433.187	10008.42
433.394	9934.7
433.601	10827.61
433.808	10874.71
434.016	10803.04
434.223	11163.48
434.43	11732.81
434.637	11601.74
434.844	12224.33
435.052	12441.41
435.259	12390.21
435.466	12533.57
435.673	12382.02
435.88	12957.5
436.087	13913.9
436.294	13854.51
436.501	13555.51
436.708	13612.85
436.915	14296.87
437.122	14976.8
437.329	14806.81
437.537	15167.26
437.743	15648.53
437.95	15501.08
438.157	16385.8
438.364	16932.61
438.571	16746.24
438.778	16746.24
438.985	18439.91
439.192	17817.33
439.399	18261.74
439.606	18030.32
439.813	19011.29
440.02	20123.34
440.227	19734.23
440.433	19549.91
440.64	20391.62
440.847	20139.72
441.054	20700.87
441.261	21843.63
441.467	21448.38
441.674	22120.11
441.881	22720.17
442.088	22601.38
442.294	22433.45
442.501	23140
442.708	23486.11
442.914	24403.6
443.121	25362.04
443.328	24614.54
443.534	26289.77
443.741	25659
443.948	25181.82
444.154	27055.72
444.361	26938.98
444.568	27280.99
444.774	27338.33
444.981	27690.59
445.187	28214.87
445.394	29562.43
445.6	29105.73
445.807	31630.88
446.013	30586.41
446.22	30858.79
446.426	32054.81
446.633	32845.32
446.839	33709.57
447.046	32601.61
447.252	34162.17
447.459	34160.12
447.665	33840.64
447.871	35132.9
448.078	36847.05
448.284	35257.83
448.491	35958.24
448.697	37459.4
448.903	38079.93
449.11	38102.46
449.316	37979.58
449.522	38184.38
449.728	39421.35
449.935	39353.77
450.141	39251.37
450.347	40238.49
450.553	38892.97
450.76	39957.92
450.966	40656.28
451.172	40418.71
451.378	41770.37
451.584	40672.66
451.791	41801.09
451.997	41497.99
452.203	42255.74
452.409	42343.8
452.615	41987.46
452.821	40275.35
453.027	40078.75
453.233	42055.04
453.44	40883.6
453.646	41108.88
453.852	41100.68
454.058	41835.91
454.264	40328.6
454.47	41835.91
454.676	40144.28
454.882	41733.51
455.088	38084.03
455.294	38858.16
455.5	39613.86
455.705	39464.36
455.911	38059.45
456.117	37592.51
456.323	36875.73
456.529	35198.44
456.735	36662.74
456.941	35732.96
457.147	34983.4
457.352	33945.08
457.558	33517.06
457.764	33830.4
457.97	33230.34
458.176	32544.27
458.381	32574.99
458.587	30682.67
458.793	31153.7
458.999	29363.78
459.204	31260.19
459.41	30924.33
459.616	28606.03
459.821	28587.6
460.027	28218.96
460.233	28001.88
460.438	26803.81
460.644	26922.6
460.85	25802.36
461.055	25249.41
461.261	25056.9
461.466	23529.11
461.672	22664.87
461.878	24403.6
462.083	22521.51
462.289	22068.91
462.494	21907.12
462.7	21257.92
462.905	20485.83
463.111	21137.09
463.316	21319.35
463.522	20567.75
463.727	20911.81
463.932	20807.36
464.138	20709.06
464.343	20494.02
464.549	20117.2
464.754	20911.81
464.959	20371.15
465.165	20367.05
465.37	19496.66
465.575	18956
465.781	19990.22
465.986	19904.21
466.191	18947.81
466.397	18863.84
466.602	17944.3
466.807	18642.66
467.012	18941.66
467.218	18452.2
467.423	18212.59
467.628	18269.93
467.833	19252.95
