Data from USB4F104151__287__14-23-33-521.txt Node

Date: Thu Mar 13 14:23:33 EDT 2025
User: louis
Spectrometer: USB4F10415
Trigger mode: 4
Integration Time (sec): 2.000000E-2
Scans to average: 1
Electric dark correction enabled: true
Nonlinearity correction enabled: false
Boxcar width: 0
XAxis mode: Wavelengths
Number of Pixels in Spectrum: 3648
>>>>>Begin Spectral Data<<<<<
178.204	-42.67
178.424	-42.67
178.644	-42.67
178.864	-69.29
179.084	-126.63
179.304	-22.19
179.524	-3.75
179.744	24.92
179.964	61.78
180.184	-36.52
180.404	55.64
180.624	-20.14
180.844	49.49
181.064	-50.86
181.283	18.77
181.503	-77.48
181.723	0.34
181.943	-48.81
182.163	78.16
182.383	41.3
182.602	96.6
182.822	90.45
183.042	53.59
183.262	31.06
183.482	4.44
183.701	4.44
183.921	6.49
184.141	45.4
184.361	20.82
184.58	-16.04
184.8	35.16
185.02	47.44
185.239	88.4
185.459	53.59
185.679	-7.85
185.898	31.06
186.118	51.54
186.338	20.82
186.557	63.83
186.777	-3.75
186.997	43.35
187.216	33.11
187.436	24.92
187.655	82.26
187.875	-11.95
188.095	57.68
188.314	-3.75
188.534	20.82
188.753	-7.85
188.973	41.3
189.192	92.5
189.412	6.49
189.631	57.68
189.851	2.39
190.07	55.64
190.29	24.92
190.509	-18.09
190.729	61.78
190.948	35.16
191.168	102.74
191.387	102.74
191.607	72.02
191.826	43.35
192.045	59.73
192.265	57.68
192.484	-1.71
192.704	49.49
192.923	29.01
193.142	102.74
193.362	10.58
193.581	94.55
193.8	-3.75
194.02	45.4
194.239	2.39
194.458	37.2
194.678	61.78
194.897	14.68
195.116	4.44
195.335	63.83
195.555	-3.75
195.774	29.01
195.993	37.2
196.212	22.87
196.432	-3.75
196.651	-11.95
196.87	45.4
197.089	112.98
197.308	112.98
197.528	35.16
197.747	-50.86
197.966	-7.85
198.185	94.55
198.404	-9.9
198.623	8.53
198.842	98.64
199.062	119.12
199.281	139.6
199.5	47.44
199.719	131.41
199.938	63.83
200.157	110.93
200.376	61.78
200.595	86.36
200.814	-5.8
201.033	-7.85
201.252	86.36
201.471	-22.19
201.69	86.36
201.909	-28.33
202.128	69.97
202.347	-3.75
202.566	45.4
202.785	-11.95
203.004	-32.43
203.223	131.41
203.442	98.64
203.661	24.92
203.879	-3.75
204.098	-11.95
204.317	14.68
204.536	63.83
204.755	16.73
204.974	45.4
205.193	4.44
205.411	139.6
205.63	59.73
205.849	-36.52
206.068	-11.95
206.287	57.68
206.505	31.06
206.724	-7.85
206.943	29.01
207.162	18.77
207.381	49.49
207.599	74.07
207.818	39.25
208.037	119.12
208.255	31.06
208.474	45.4
208.693	-87.72
208.911	72.02
209.13	12.63
209.349	47.44
209.567	41.3
209.786	102.74
210.005	61.78
210.223	-18.09
210.442	-18.09
210.661	4.44
210.879	39.25
211.098	57.68
211.316	29.01
211.535	12.63
211.753	24.92
211.972	16.73
212.191	29.01
212.409	31.06
212.628	31.06
212.846	6.49
213.065	33.11
213.283	127.32
213.502	31.06
213.72	22.87
213.938	29.01
214.157	-28.33
214.375	63.83
214.594	-9.9
214.812	39.25
215.031	31.06
215.249	49.49
215.467	37.2
215.686	-16.04
215.904	102.74
216.122	8.53
216.341	127.32
216.559	45.4
216.778	29.01
216.996	33.11
217.214	72.02
217.432	47.44
217.651	-3.75
217.869	86.36
218.087	31.06
218.306	14.68
218.524	55.64
218.742	24.92
218.96	98.64
219.179	45.4
219.397	12.63
219.615	45.4
219.833	20.82
220.051	29.01
220.27	72.02
220.488	115.03
220.706	53.59
220.924	4.44
221.142	26.96
221.36	12.63
221.578	22.87
221.796	78.16
222.015	47.44
222.233	100.69
222.451	37.2
222.669	10.58
222.887	74.07
223.105	24.92
223.323	14.68
223.541	4.44
223.759	57.68
223.977	14.68
224.195	96.6
224.413	92.5
224.631	100.69
224.849	37.2
225.067	72.02
225.285	20.82
225.503	94.55
225.721	16.73
225.939	65.88
226.157	96.6
226.375	61.78
226.592	51.54
226.81	-9.9
227.028	80.21
227.246	127.32
227.464	31.06
227.682	112.98
227.9	67.92
228.117	104.79
228.335	-3.75
228.553	31.06
228.771	41.3
228.989	-1.71
229.206	-7.85
229.424	29.01
229.642	4.44
229.86	4.44
230.077	78.16
230.295	22.87
230.513	102.74
230.731	119.12
230.948	69.97
231.166	57.68
231.384	78.16
231.601	33.11
231.819	102.74
232.037	-28.33
232.254	-1.71
232.472	33.11
232.689	-20.14
232.907	117.08
233.125	-11.95
233.342	-28.33
233.56	80.21
233.777	86.36
233.995	-26.28
234.213	69.97
234.43	57.68
234.648	8.53
234.865	82.26
235.083	94.55
235.3	67.92
235.518	-34.47
235.735	135.51
235.953	129.36
236.17	2.39
236.388	119.12
236.605	45.4
236.822	63.83
237.04	43.35
237.257	53.59
237.475	37.2
237.692	53.59
237.909	16.73
238.127	22.87
238.344	74.07
238.562	41.3
238.779	49.49
238.996	6.49
239.214	-67.24
239.431	4.44
239.648	69.97
239.865	61.78
240.083	61.78
240.3	84.31
240.517	8.53
240.735	-40.62
240.952	61.78
241.169	51.54
241.386	69.97
241.603	41.3
241.821	119.12
242.038	90.45
242.255	33.11
242.472	39.25
242.689	69.97
242.907	74.07
243.124	53.59
243.341	110.93
243.558	37.2
243.775	45.4
243.992	-65.19
244.209	45.4
244.426	72.02
244.643	106.84
244.86	72.02
245.078	10.58
245.295	55.64
245.512	31.06
245.729	-20.14
245.946	20.82
246.163	94.55
246.38	115.03
246.597	-65.19
246.814	-24.23
247.031	69.97
247.248	100.69
247.464	-24.23
247.681	57.68
247.898	84.31
248.115	57.68
248.332	-42.67
248.549	61.78
248.766	63.83
248.983	96.6
249.2	74.07
249.417	53.59
249.633	59.73
249.85	61.78
250.067	80.21
250.284	4.44
250.501	67.92
250.717	37.2
250.934	29.01
251.151	24.92
251.368	31.06
251.585	39.25
251.801	43.35
252.018	-1.71
252.235	78.16
252.451	16.73
252.668	18.77
252.885	47.44
253.102	33.11
253.318	78.16
253.535	-16.04
253.752	63.83
253.968	-11.95
254.185	8.53
254.401	43.35
254.618	31.06
254.835	-18.09
255.051	69.97
255.268	12.63
255.484	29.01
255.701	53.59
255.917	137.56
256.134	41.3
256.351	2.39
256.567	55.64
256.784	47.44
257	-36.52
257.217	39.25
257.433	18.77
257.65	45.4
257.866	76.12
258.082	76.12
258.299	104.79
258.515	47.44
258.732	8.53
258.948	12.63
259.165	90.45
259.381	12.63
259.597	61.78
259.814	39.25
260.03	24.92
260.246	37.2
260.463	18.77
260.679	57.68
260.895	22.87
261.112	86.36
261.328	8.53
261.544	31.06
261.761	151.89
261.977	33.11
262.193	65.88
262.409	49.49
262.626	61.78
262.842	35.16
263.058	33.11
263.274	20.82
263.49	-50.86
263.707	121.17
263.923	55.64
264.139	8.53
264.355	45.4
264.571	86.36
264.787	37.2
265.004	80.21
265.22	37.2
265.436	92.5
265.652	43.35
265.868	74.07
266.084	37.2
266.3	72.02
266.516	20.82
266.732	61.78
266.948	69.97
267.164	47.44
267.38	-11.95
267.596	45.4
267.812	78.16
268.028	45.4
268.244	24.92
268.46	106.84
268.676	72.02
268.892	69.97
269.108	-3.75
269.324	-20.14
269.54	20.82
269.756	61.78
269.972	-34.47
270.188	47.44
270.403	2.39
270.619	20.82
270.835	90.45
271.051	-9.9
271.267	37.2
271.483	31.06
271.698	33.11
271.914	41.3
272.13	29.01
272.346	55.64
272.562	37.2
272.777	37.2
272.993	-16.04
273.209	37.2
273.425	47.44
273.64	29.01
273.856	-5.8
274.072	53.59
274.287	-18.09
274.503	102.74
274.719	69.97
274.934	24.92
275.15	-16.04
275.366	57.68
275.581	29.01
275.797	49.49
276.012	37.2
276.228	-11.95
276.444	37.2
276.659	90.45
276.875	10.58
277.09	88.4
277.306	-28.33
277.521	22.87
277.737	61.78
277.952	72.02
278.168	33.11
278.383	-28.33
278.599	51.54
278.814	41.3
279.03	53.59
279.245	74.07
279.461	8.53
279.676	69.97
279.892	16.73
280.107	-18.09
280.322	-5.8
280.538	-1.71
280.753	41.3
280.969	47.44
281.184	61.78
281.399	119.12
281.615	39.25
281.83	45.4
282.045	49.49
282.26	55.64
282.476	-7.85
282.691	14.68
282.906	86.36
283.122	16.73
283.337	4.44
283.552	104.79
283.767	29.01
283.983	69.97
284.198	29.01
284.413	78.16
284.628	29.01
284.843	94.55
285.058	117.08
285.274	49.49
285.489	-3.75
285.704	55.64
285.919	12.63
286.134	119.12
286.349	22.87
286.564	-11.95
286.779	88.4
286.995	59.73
287.21	-3.75
287.425	94.55
287.64	20.82
287.855	76.12
288.07	14.68
288.285	98.64
288.5	41.3
288.715	8.53
288.93	69.97
289.145	33.11
289.36	135.51
289.575	-42.67
289.79	18.77
290.004	43.35
290.219	45.4
290.434	96.6
290.649	57.68
290.864	53.59
291.079	39.25
291.294	35.16
291.509	-28.33
291.724	47.44
291.938	-44.71
292.153	78.16
292.368	20.82
292.583	74.07
292.798	39.25
293.012	86.36
293.227	43.35
293.442	90.45
293.657	86.36
293.871	37.2
294.086	-24.23
294.301	96.6
294.516	98.64
294.73	78.16
294.945	33.11
295.16	-1.71
295.374	63.83
295.589	49.49
295.804	69.97
296.018	22.87
296.233	65.88
296.447	82.26
296.662	63.83
296.877	135.51
297.091	16.73
297.306	51.54
297.52	55.64
297.735	24.92
297.949	49.49
298.164	82.26
298.378	115.03
298.593	57.68
298.807	-1.71
299.022	90.45
299.236	29.01
299.451	-16.04
299.665	51.54
299.88	22.87
300.094	72.02
300.309	49.49
300.523	43.35
300.737	-28.33
300.952	61.78
301.166	96.6
301.381	127.32
301.595	37.2
301.809	-11.95
302.024	86.36
302.238	61.78
302.452	110.93
302.667	100.69
302.881	88.4
303.095	69.97
303.309	69.97
303.524	41.3
303.738	65.88
303.952	24.92
304.166	82.26
304.381	41.3
304.595	41.3
304.809	39.25
305.023	61.78
305.237	76.12
305.452	49.49
305.666	110.93
305.88	86.36
306.094	106.84
306.308	12.63
306.522	61.78
306.736	41.3
306.95	-24.23
307.164	53.59
307.379	-7.85
307.593	117.08
307.807	90.45
308.021	98.64
308.235	29.01
308.449	29.01
308.663	86.36
308.877	94.55
309.091	74.07
309.305	47.44
309.519	39.25
309.733	53.59
309.947	39.25
310.161	20.82
310.374	41.3
310.588	-42.67
310.802	86.36
311.016	29.01
311.23	78.16
311.444	33.11
311.658	86.36
311.872	10.58
312.085	47.44
312.299	55.64
312.513	84.31
312.727	12.63
312.941	35.16
313.154	45.4
313.368	96.6
313.582	86.36
313.796	49.49
314.009	20.82
314.223	29.01
314.437	39.25
314.651	88.4
314.864	53.59
315.078	49.49
315.292	31.06
315.505	33.11
315.719	24.92
315.933	43.35
316.146	22.87
316.36	49.49
316.573	90.45
316.787	129.36
317.001	0.34
317.214	12.63
317.428	69.97
317.641	-3.75
317.855	41.3
318.068	35.16
318.282	104.79
318.495	90.45
318.709	43.35
318.922	57.68
319.136	94.55
319.349	119.12
319.563	135.51
319.776	45.4
319.99	0.34
320.203	63.83
320.417	88.4
320.63	37.2
320.843	108.88
321.057	51.54
321.27	53.59
321.483	6.49
321.697	55.64
321.91	45.4
322.124	90.45
322.337	14.68
322.55	14.68
322.763	43.35
322.977	74.07
323.19	26.96
323.403	69.97
323.617	33.11
323.83	16.73
324.043	102.74
324.256	57.68
324.469	45.4
324.683	31.06
324.896	53.59
325.109	96.6
325.322	26.96
325.535	53.59
325.748	86.36
325.962	14.68
326.175	-16.04
326.388	65.88
326.601	41.3
326.814	72.02
327.027	74.07
327.24	155.99
327.453	53.59
327.666	72.02
327.879	24.92
328.092	63.83
328.305	4.44
328.518	22.87
328.731	37.2
328.944	84.31
329.157	69.97
329.37	29.01
329.583	78.16
329.796	110.93
330.009	-16.04
330.222	53.59
330.435	31.06
330.648	53.59
330.861	33.11
331.073	55.64
331.286	137.56
331.499	78.16
331.712	-3.75
331.925	39.25
332.138	69.97
332.35	102.74
332.563	-16.04
332.776	96.6
332.989	47.44
333.202	45.4
333.414	31.06
333.627	0.34
333.84	-22.19
334.053	65.88
334.265	108.88
334.478	8.53
334.691	31.06
334.903	-3.75
335.116	-22.19
335.329	129.36
335.541	14.68
335.754	-5.8
335.966	53.59
336.179	82.26
336.392	47.44
336.604	72.02
336.817	65.88
337.029	20.82
337.242	20.82
337.454	45.4
337.667	69.97
337.88	35.16
338.092	96.6
338.305	80.21
338.517	20.82
338.729	53.59
338.942	53.59
339.154	16.73
339.367	69.97
339.579	63.83
339.792	14.68
340.004	-18.09
340.217	45.4
340.429	45.4
340.641	74.07
340.854	86.36
341.066	69.97
341.278	55.64
341.491	53.59
341.703	82.26
341.915	84.31
342.128	12.63
342.34	57.68
342.552	45.4
342.764	57.68
342.977	57.68
343.189	20.82
343.401	82.26
343.613	49.49
343.826	76.12
344.038	20.82
344.25	53.59
344.462	29.01
344.674	119.12
344.886	29.01
345.099	98.64
345.311	63.83
345.523	-32.43
345.735	6.49
345.947	72.02
346.159	78.16
346.371	55.64
346.583	84.31
346.795	65.88
347.007	14.68
347.219	59.73
347.431	45.4
347.643	18.77
347.855	61.78
348.067	119.12
348.279	94.55
348.491	86.36
348.703	45.4
348.915	61.78
349.127	115.03
349.339	47.44
349.551	6.49
349.763	98.64
349.975	102.74
350.187	61.78
350.399	90.45
350.61	104.79
350.822	-18.09
351.034	41.3
351.246	-13.99
351.458	59.73
351.669	80.21
351.881	53.59
352.093	12.63
352.305	78.16
352.517	41.3
352.728	63.83
352.94	98.64
353.152	72.02
353.363	45.4
353.575	133.46
353.787	61.78
353.999	53.59
354.21	53.59
354.422	37.2
354.633	29.01
354.845	78.16
355.057	57.68
355.268	24.92
355.48	88.4
355.692	33.11
355.903	14.68
356.115	55.64
356.326	-18.09
356.538	90.45
356.749	80.21
356.961	61.78
357.172	4.44
357.384	22.87
357.595	119.12
357.807	4.44
358.018	45.4
358.23	55.64
358.441	53.59
358.653	92.5
358.864	16.73
359.075	20.82
359.287	24.92
359.498	82.26
359.709	31.06
359.921	45.4
360.132	72.02
360.344	129.36
360.555	6.49
360.766	69.97
360.977	82.26
361.189	80.21
361.4	69.97
361.611	96.6
361.823	110.93
362.034	55.64
362.245	72.02
362.456	-3.75
362.667	94.55
362.879	80.21
363.09	86.36
363.301	12.63
363.512	106.84
363.723	10.58
363.935	-20.14
364.146	74.07
364.357	-11.95
364.568	47.44
364.779	18.77
364.99	96.6
365.201	69.97
365.412	57.68
365.623	37.2
365.834	20.82
366.045	80.21
366.256	65.88
366.467	4.44
366.678	86.36
366.889	98.64
367.1	110.93
367.311	69.97
367.522	31.06
367.733	110.93
367.944	100.69
368.155	14.68
368.366	29.01
368.577	41.3
368.788	55.64
368.999	33.11
369.209	0.34
369.42	108.88
369.631	127.32
369.842	65.88
370.053	110.93
370.264	20.82
370.474	80.21
370.685	61.78
370.896	123.22
371.107	90.45
371.317	80.21
371.528	123.22
371.739	8.53
371.95	135.51
372.16	102.74
372.371	29.01
372.582	47.44
372.792	24.92
373.003	96.6
373.214	37.2
373.424	43.35
373.635	78.16
373.846	84.31
374.056	20.82
374.267	153.94
374.477	59.73
374.688	47.44
374.898	24.92
375.109	39.25
375.319	88.4
375.53	57.68
375.74	65.88
375.951	45.4
376.161	106.84
376.372	119.12
376.582	90.45
376.793	12.63
377.003	-1.71
377.214	45.4
377.424	104.79
377.635	143.7
377.845	16.73
378.055	53.59
378.266	-11.95
378.476	168.27
378.686	63.83
378.897	39.25
379.107	104.79
379.317	4.44
379.528	41.3
379.738	69.97
379.948	61.78
380.158	22.87
380.369	127.32
380.579	67.92
380.789	106.84
380.999	104.79
381.21	53.59
381.42	104.79
381.63	39.25
381.84	61.78
382.05	94.55
382.261	102.74
382.471	22.87
382.681	-3.75
382.891	110.93
383.101	49.49
383.311	51.54
383.521	-42.67
383.731	106.84
383.941	117.08
384.151	72.02
384.361	41.3
384.571	92.5
384.781	-20.14
384.991	115.03
385.201	72.02
385.411	135.51
385.621	35.16
385.831	69.97
386.041	61.78
386.251	67.92
386.461	69.97
386.671	61.78
386.881	72.02
387.091	61.78
387.301	153.94
387.511	20.82
387.72	92.5
387.93	100.69
388.14	33.11
388.35	65.88
388.56	106.84
388.769	108.88
388.979	51.54
389.189	-11.95
389.399	49.49
389.609	119.12
389.818	88.4
390.028	131.41
390.238	59.73
390.447	63.83
390.657	33.11
390.867	90.45
391.076	78.16
391.286	166.23
391.496	72.02
391.705	22.87
391.915	143.7
392.125	143.7
392.334	94.55
392.544	63.83
392.753	53.59
392.963	24.92
393.172	108.88
393.382	53.59
393.591	141.65
393.801	35.16
394.01	78.16
394.22	57.68
394.429	74.07
394.639	4.44
394.848	86.36
395.058	94.55
395.267	98.64
395.477	121.17
395.686	45.4
395.895	131.41
396.105	102.74
396.314	96.6
396.524	82.26
396.733	90.45
396.942	127.32
397.152	127.32
397.361	211.28
397.57	127.32
397.78	115.03
397.989	65.88
398.198	78.16
398.407	61.78
398.617	129.36
398.826	192.85
399.035	119.12
399.244	117.08
399.453	104.79
399.663	145.75
399.872	170.32
400.081	29.01
400.29	137.56
400.499	168.27
400.708	151.89
400.917	174.42
401.127	102.74
401.336	139.6
401.545	127.32
401.754	127.32
401.963	133.46
402.172	155.99
402.381	106.84
402.59	98.64
402.799	180.56
403.008	112.98
403.217	129.36
403.426	143.7
403.635	135.51
403.844	110.93
404.053	162.13
404.262	112.98
404.471	184.66
404.68	102.74
404.888	153.94
405.097	168.27
405.306	151.89
405.515	274.77
405.724	209.23
405.933	160.08
406.142	209.23
406.35	289.1
406.559	221.52
406.768	237.91
406.977	235.86
407.185	258.39
407.394	225.62
407.603	211.28
407.812	246.1
408.02	262.48
408.229	242
408.438	170.32
408.646	260.43
408.855	244.05
409.064	262.48
409.272	336.21
409.481	295.25
409.69	264.53
409.898	319.82
410.107	330.06
410.315	356.69
410.524	293.2
410.733	416.08
410.941	397.65
411.15	428.37
411.358	397.65
411.567	395.6
411.775	450.89
411.984	448.85
412.192	446.8
412.401	424.27
412.609	504.14
412.818	483.66
413.026	536.91
413.234	512.33
413.443	506.19
413.651	543.05
413.86	594.25
414.068	604.49
414.276	651.6
414.485	686.41
414.693	667.98
414.901	708.94
415.11	803.15
415.318	813.38
415.526	727.37
415.734	889.16
415.943	876.87
416.151	934.22
416.359	958.79
416.567	901.45
416.776	893.26
416.984	1020.23
417.192	948.55
417.4	1036.61
417.608	1059.14
417.817	1071.43
418.025	1163.59
418.233	1216.83
418.441	1130.82
418.649	1233.22
418.857	1251.65
419.065	1501.5
419.273	1233.22
419.481	1417.54
419.689	1524.03
419.897	1564.99
420.105	1511.74
420.313	1567.04
420.521	1630.52
420.729	1741.11
420.937	1726.78
421.145	1823.03
421.353	1937.72
421.561	1947.96
421.769	2013.49
421.977	2119.99
422.185	2089.27
422.393	2275.63
422.601	2298.16
422.809	2261.3
423.017	2433.33
423.224	2462
423.432	2541.87
423.64	2597.17
423.848	2863.4
424.056	2691.37
424.263	2924.84
424.471	2851.11
424.679	3053.86
424.887	3268.9
425.094	3207.46
425.302	3264.8
425.51	3303.71
425.718	3518.75
425.925	3578.14
426.133	3576.09
426.341	3840.28
426.548	3985.69
426.756	3903.77
426.964	4086.04
427.171	4321.56
427.379	4286.74
427.586	4411.67
427.794	4630.8
428.001	4751.63
428.209	5083.4
428.417	4788.49
428.624	5452.03
428.832	5439.75
429.039	5290.24
429.247	5210.37
429.454	5839.1
429.662	6070.52
429.869	5722.37
430.076	6228.21
430.284	5779.71
430.491	6250.74
430.699	6615.28
430.906	6392.05
431.114	6641.9
431.321	6873.32
431.528	6965.48
431.736	7475.43
431.943	7936.22
432.15	7573.73
432.358	7534.82
432.565	8124.63
432.772	8190.17
432.979	8698.06
433.187	8542.42
433.394	8673.49
433.601	9185.48
433.808	9263.3
434.016	9285.83
434.223	9564.36
434.43	10252.47
434.637	9943.23
434.844	10621.11
435.052	10997.93
435.259	10907.82
435.466	10778.8
435.673	10801.33
435.88	11397.29
436.087	12056.73
436.294	12021.92
436.501	11841.7
436.708	12101.79
436.915	12456.09
437.122	12908.69
437.329	12923.02
437.537	13357.19
437.743	13508.74
437.95	13473.93
438.157	14278.78
438.364	14585.97
438.571	14686.33
438.778	14655.61
438.985	16083.04
439.192	15536.23
439.399	15849.57
439.606	15368.3
439.813	16167.01
440.02	17236.05
440.227	17260.62
440.433	16775.25
440.64	17354.83
440.847	17385.55
441.054	17848.39
441.261	18825.27
441.467	18749.5
441.674	19165.23
441.881	19882.02
442.088	19886.12
442.294	19626.03
442.501	20187.17
442.708	20584.48
442.914	21317.65
443.121	22177.79
443.328	21635.08
443.534	22904.82
443.741	22407.17
443.948	22087.68
444.154	23885.8
444.361	23672.81
444.568	23926.76
444.774	23504.88
444.981	24170.47
445.187	24676.32
445.394	25563.09
445.6	25454.54
445.807	27586.48
446.013	26595.26
446.22	27215.8
446.426	28018.6
446.633	28360.61
446.839	29167.51
447.046	28202.92
447.252	29693.84
447.459	29794.19
447.665	29816.72
447.871	31350.65
448.078	32259.95
448.284	30601.09
448.491	31711.09
448.697	32884.58
448.903	33449.81
449.11	33290.07
449.316	32900.96
449.522	33703.76
449.728	34479.94
449.935	34656.07
450.141	34608.97
450.347	35123.01
450.553	33994.57
450.76	34811.71
450.966	35989.3
451.172	35473.21
451.378	36693.8
451.584	35536.7
451.791	36622.12
451.997	36671.27
452.203	37058.34
452.409	37150.49
452.615	37076.77
452.821	35493.69
453.027	35295.03
453.233	37068.58
453.44	35755.83
453.646	35934
453.852	36388.65
454.058	36865.83
454.264	35956.53
454.47	36505.38
454.676	35671.86
454.882	37105.44
455.088	33849.17
455.294	34221.9
455.5	34795.33
455.705	35184.44
455.911	33785.68
456.117	33150.81
456.323	32841.57
456.529	31305.59
456.735	32425.83
456.941	31723.38
457.147	31305.59
457.352	30367.62
457.558	30005.13
457.764	30142.35
457.97	29704.08
458.176	28737.44
458.381	29224.86
458.587	27508.66
458.793	27850.67
458.999	26193.86
459.204	27893.68
459.41	27494.32
459.616	25468.88
459.821	25208.79
460.027	25176.02
460.233	24840.15
460.438	23836.65
460.644	24217.57
460.85	22855.67
461.055	22159.36
461.261	22372.35
461.466	20832.28
461.672	20109.35
461.878	21612.56
462.083	20279.33
462.289	19877.93
462.494	19607.59
462.7	18755.64
462.905	18288.7
463.111	19128.37
463.316	18858.04
463.522	18505.79
463.727	18620.47
463.932	18624.57
464.138	18344
464.343	18364.48
464.549	17924.16
464.754	18323.52
464.959	18501.69
465.165	18090.05
465.37	17332.3
465.575	17100.88
465.781	17774.66
465.986	17748.04
466.191	17174.61
466.397	16695.38
466.602	15872.1
466.807	16488.54
467.012	16597.08
467.218	16322.65
467.423	16113.76
467.628	16629.85
