Data from USB4F104151__170__14-19-53-499.txt Node

Date: Thu Mar 13 14:19:53 EDT 2025
User: louis
Spectrometer: USB4F10415
Trigger mode: 4
Integration Time (sec): 2.000000E-2
Scans to average: 1
Electric dark correction enabled: true
Nonlinearity correction enabled: false
Boxcar width: 0
XAxis mode: Wavelengths
Number of Pixels in Spectrum: 3648
>>>>>Begin Spectral Data<<<<<
178.204	-93.18
178.424	-93.18
178.644	-93.18
178.864	-101.37
179.084	-76.8
179.304	-7.17
179.524	-29.7
179.744	-7.17
179.964	29.7
180.184	9.22
180.404	-27.65
180.624	-19.46
180.844	13.31
181.064	-39.94
181.283	3.07
181.503	-9.22
181.723	84.99
181.943	-97.28
182.163	-44.03
182.383	62.46
182.602	23.55
182.822	54.27
183.042	-33.79
183.262	17.41
183.482	19.46
183.701	-37.89
183.921	-9.22
184.141	-33.79
184.361	91.13
184.58	5.12
184.8	5.12
185.02	-27.65
185.239	78.85
185.459	-35.84
185.679	21.5
185.898	-78.85
186.118	97.28
186.338	11.26
186.557	17.41
186.777	37.89
186.997	-25.6
187.216	21.5
187.436	95.23
187.655	-3.07
187.875	3.07
188.095	17.41
188.314	56.32
188.534	46.08
188.753	-7.17
188.973	-25.6
189.192	5.12
189.412	56.32
189.631	1.02
189.851	-101.37
190.07	78.85
190.29	9.22
190.509	13.31
190.729	9.22
190.948	29.7
191.168	144.38
191.387	95.23
191.607	15.36
191.826	21.5
192.045	11.26
192.265	9.22
192.484	68.61
192.704	-11.26
192.923	-15.36
193.142	103.42
193.362	37.89
193.581	19.46
193.8	-25.6
194.02	46.08
194.239	31.74
194.458	-27.65
194.678	-48.13
194.897	50.18
195.116	-7.17
195.335	19.46
195.555	-39.94
195.774	23.55
195.993	54.27
196.212	17.41
196.432	-35.84
196.651	-35.84
196.87	50.18
197.089	41.98
197.308	37.89
197.528	23.55
197.747	-3.07
197.966	17.41
198.185	29.7
198.404	37.89
198.623	60.42
198.842	21.5
199.062	-7.17
199.281	50.18
199.5	-15.36
199.719	87.04
199.938	44.03
200.157	17.41
200.376	15.36
200.595	95.23
200.814	11.26
201.033	29.7
201.252	33.79
201.471	46.08
201.69	17.41
201.909	-31.74
202.128	19.46
202.347	-5.12
202.566	56.32
202.785	-1.02
203.004	-23.55
203.223	64.51
203.442	95.23
203.661	19.46
203.879	33.79
204.098	78.85
204.317	-17.41
204.536	25.6
204.755	-33.79
204.974	25.6
205.193	25.6
205.411	52.22
205.63	58.37
205.849	103.42
206.068	13.31
206.287	-21.5
206.505	50.18
206.724	-3.07
206.943	60.42
207.162	11.26
207.381	-46.08
207.599	-27.65
207.818	-9.22
208.037	-11.26
208.255	25.6
208.474	21.5
208.693	-13.31
208.911	54.27
209.13	-19.46
209.349	-15.36
209.567	78.85
209.786	33.79
210.005	1.02
210.223	-27.65
210.442	-44.03
210.661	-27.65
210.879	41.98
211.098	29.7
211.316	-9.22
211.535	-27.65
211.753	31.74
211.972	15.36
212.191	-64.51
212.409	1.02
212.628	-17.41
212.846	19.46
213.065	31.74
213.283	68.61
213.502	50.18
213.72	13.31
213.938	29.7
214.157	11.26
214.375	-5.12
214.594	113.66
214.812	29.7
215.031	-23.55
215.249	15.36
215.467	-15.36
215.686	-46.08
215.904	37.89
216.122	48.13
216.341	103.42
216.559	-9.22
216.778	99.33
216.996	17.41
217.214	-19.46
217.432	35.84
217.651	19.46
217.869	17.41
218.087	-25.6
218.306	-11.26
218.524	15.36
218.742	-13.31
218.96	17.41
219.179	74.75
219.397	62.46
219.615	115.71
219.833	-58.37
220.051	54.27
220.27	-5.12
220.488	-7.17
220.706	21.5
220.924	-11.26
221.142	3.07
221.36	27.65
221.578	-25.6
221.796	-50.18
222.015	37.89
222.233	52.22
222.451	52.22
222.669	33.79
222.887	46.08
223.105	60.42
223.323	-11.26
223.541	23.55
223.759	5.12
223.977	5.12
224.195	33.79
224.413	21.5
224.631	70.65
224.849	74.75
225.067	113.66
225.285	-3.07
225.503	-25.6
225.721	-48.13
225.939	37.89
226.157	9.22
226.375	97.28
226.592	-23.55
226.81	37.89
227.028	17.41
227.246	87.04
227.464	-1.02
227.682	123.9
227.9	41.98
228.117	50.18
228.335	-31.74
228.553	23.55
228.771	11.26
228.989	78.85
229.206	37.89
229.424	-17.41
229.642	48.13
229.86	-37.89
230.077	72.7
230.295	44.03
230.513	84.99
230.731	95.23
230.948	29.7
231.166	64.51
231.384	56.32
231.601	15.36
231.819	13.31
232.037	9.22
232.254	64.51
232.472	89.09
232.689	-66.56
232.907	91.13
233.125	21.5
233.342	1.02
233.56	-7.17
233.777	-15.36
233.995	54.27
234.213	80.89
234.43	17.41
234.648	23.55
234.865	31.74
235.083	39.94
235.3	70.65
235.518	41.98
235.735	70.65
235.953	70.65
236.17	5.12
236.388	39.94
236.605	-19.46
236.822	29.7
237.04	15.36
237.257	7.17
237.475	-78.85
237.692	46.08
237.909	62.46
238.127	-62.46
238.344	21.5
238.562	84.99
238.779	-35.84
238.996	-17.41
239.214	23.55
239.431	-3.07
239.648	-27.65
239.865	-3.07
240.083	19.46
240.3	21.5
240.517	-1.02
240.735	21.5
240.952	11.26
241.169	29.7
241.386	-5.12
241.603	52.22
241.821	-35.84
242.038	17.41
242.255	13.31
242.472	-9.22
242.689	50.18
242.907	111.61
243.124	62.46
243.341	5.12
243.558	50.18
243.775	-3.07
243.992	72.7
244.209	21.5
244.426	91.13
244.643	93.18
244.86	-27.65
245.078	48.13
245.295	5.12
245.512	21.5
245.729	13.31
245.946	56.32
246.163	-11.26
246.38	29.7
246.597	11.26
246.814	82.94
247.031	-13.31
247.248	25.6
247.464	25.6
247.681	58.37
247.898	33.79
248.115	46.08
248.332	5.12
248.549	37.89
248.766	70.65
248.983	50.18
249.2	54.27
249.417	23.55
249.633	39.94
249.85	13.31
250.067	-101.37
250.284	60.42
250.501	97.28
250.717	84.99
250.934	-3.07
251.151	54.27
251.368	5.12
251.585	33.79
251.801	5.12
252.018	-11.26
252.235	23.55
252.451	39.94
252.668	39.94
252.885	23.55
253.102	-15.36
253.318	-39.94
253.535	95.23
253.752	-68.61
253.968	-33.79
254.185	5.12
254.401	41.98
254.618	101.37
254.835	66.56
255.051	62.46
255.268	66.56
255.484	70.65
255.701	37.89
255.917	78.85
256.134	-9.22
256.351	35.84
256.567	56.32
256.784	15.36
257	-15.36
257.217	-3.07
257.433	5.12
257.65	54.27
257.866	39.94
258.082	29.7
258.299	-31.74
258.515	46.08
258.732	17.41
258.948	-17.41
259.165	-41.98
259.381	39.94
259.597	21.5
259.814	-31.74
260.03	66.56
260.246	29.7
260.463	74.75
260.679	105.47
260.895	31.74
261.112	41.98
261.328	7.17
261.544	-11.26
261.761	50.18
261.977	48.13
262.193	-1.02
262.409	95.23
262.626	31.74
262.842	-29.7
263.058	-27.65
263.274	-3.07
263.49	5.12
263.707	54.27
263.923	56.32
264.139	-50.18
264.355	17.41
264.571	113.66
264.787	58.37
265.004	64.51
265.22	29.7
265.436	13.31
265.652	-1.02
265.868	50.18
266.084	66.56
266.3	46.08
266.516	5.12
266.732	54.27
266.948	1.02
267.164	15.36
267.38	35.84
267.596	48.13
267.812	50.18
268.028	109.57
268.244	37.89
268.46	-7.17
268.676	82.94
268.892	39.94
269.108	5.12
269.324	48.13
269.54	37.89
269.756	41.98
269.972	-23.55
270.188	-27.65
270.403	52.22
270.619	7.17
270.835	25.6
271.051	5.12
271.267	-33.79
271.483	19.46
271.698	93.18
271.914	58.37
272.13	9.22
272.346	-13.31
272.562	74.75
272.777	-33.79
272.993	21.5
273.209	54.27
273.425	41.98
273.64	-9.22
273.856	29.7
274.072	-68.61
274.287	-25.6
274.503	52.22
274.719	97.28
274.934	31.74
275.15	-9.22
275.366	-9.22
275.581	62.46
275.797	25.6
276.012	-3.07
276.228	-25.6
276.444	-27.65
276.659	21.5
276.875	-74.75
277.09	87.04
277.306	-25.6
277.521	21.5
277.737	52.22
277.952	144.38
278.168	-19.46
278.383	7.17
278.599	-39.94
278.814	-31.74
279.03	-31.74
279.245	-9.22
279.461	-15.36
279.676	89.09
279.892	39.94
280.107	35.84
280.322	-33.79
280.538	52.22
280.753	72.7
280.969	35.84
281.184	-44.03
281.399	27.65
281.615	60.42
281.83	74.75
282.045	52.22
282.26	-3.07
282.476	13.31
282.691	70.65
282.906	37.89
283.122	15.36
283.337	-56.32
283.552	23.55
283.767	29.7
283.983	68.61
284.198	95.23
284.413	37.89
284.628	-15.36
284.843	62.46
285.058	29.7
285.274	-31.74
285.489	-1.02
285.704	62.46
285.919	-15.36
286.134	7.17
286.349	7.17
286.564	21.5
286.779	134.14
286.995	9.22
287.21	54.27
287.425	7.17
287.64	-11.26
287.855	123.9
288.07	-1.02
288.285	74.75
288.5	13.31
288.715	78.85
288.93	-17.41
289.145	52.22
289.36	37.89
289.575	13.31
289.79	103.42
290.004	74.75
290.219	-1.02
290.434	7.17
290.649	-52.22
290.864	21.5
291.079	-39.94
291.294	54.27
291.509	3.07
291.724	-60.42
291.938	-11.26
292.153	19.46
292.368	17.41
292.583	-7.17
292.798	37.89
293.012	84.99
293.227	31.74
293.442	-11.26
293.657	19.46
293.871	91.13
294.086	25.6
294.301	66.56
294.516	56.32
294.73	25.6
294.945	-1.02
295.16	3.07
295.374	54.27
295.589	70.65
295.804	7.17
296.018	54.27
296.233	70.65
296.447	17.41
296.662	-1.02
296.877	-15.36
297.091	1.02
297.306	25.6
297.52	62.46
297.735	119.81
297.949	1.02
298.164	46.08
298.378	70.65
298.593	70.65
298.807	-66.56
299.022	11.26
299.236	44.03
299.451	27.65
299.665	-13.31
299.88	58.37
300.094	17.41
300.309	5.12
300.523	64.51
300.737	-41.98
300.952	-11.26
301.166	-27.65
301.381	66.56
301.595	-3.07
301.809	31.74
302.024	58.37
302.238	-29.7
302.452	13.31
302.667	29.7
302.881	13.31
303.095	-9.22
303.309	25.6
303.524	5.12
303.738	13.31
303.952	-48.13
304.166	62.46
304.381	-74.75
304.595	-21.5
304.809	29.7
305.023	64.51
305.237	29.7
305.452	33.79
305.666	5.12
305.88	66.56
306.094	-17.41
306.308	-50.18
306.522	17.41
306.736	21.5
306.95	21.5
307.164	21.5
307.379	-27.65
307.593	13.31
307.807	87.04
308.021	13.31
308.235	64.51
308.449	5.12
308.663	19.46
308.877	64.51
309.091	37.89
309.305	93.18
309.519	-3.07
309.733	80.89
309.947	-3.07
310.161	5.12
310.374	84.99
310.588	-3.07
310.802	3.07
311.016	-35.84
311.23	25.6
311.444	39.94
311.658	62.46
311.872	-44.03
312.085	33.79
312.299	-52.22
312.513	56.32
312.727	70.65
312.941	17.41
313.154	-27.65
313.368	13.31
313.582	17.41
313.796	37.89
314.009	29.7
314.223	7.17
314.437	21.5
314.651	25.6
314.864	48.13
315.078	-19.46
315.292	-11.26
315.505	-60.42
315.719	-9.22
315.933	-3.07
316.146	29.7
316.36	-35.84
316.573	33.79
316.787	33.79
317.001	58.37
317.214	21.5
317.428	1.02
317.641	-1.02
317.855	1.02
318.068	37.89
318.282	64.51
318.495	29.7
318.709	-58.37
318.922	13.31
319.136	111.61
319.349	25.6
319.563	35.84
319.776	21.5
319.99	-11.26
320.203	15.36
320.417	29.7
320.63	-23.55
320.843	39.94
321.057	56.32
321.27	91.13
321.483	15.36
321.697	103.42
321.91	46.08
322.124	87.04
322.337	37.89
322.55	-19.46
322.763	1.02
322.977	74.75
323.19	-1.02
323.403	-7.17
323.617	62.46
323.83	-25.6
324.043	-21.5
324.256	-5.12
324.469	41.98
324.683	76.8
324.896	29.7
325.109	13.31
325.322	-33.79
325.535	11.26
325.748	54.27
325.962	-11.26
326.175	-27.65
326.388	82.94
326.601	62.46
326.814	5.12
327.027	-13.31
327.24	72.7
327.453	-13.31
327.666	68.61
327.879	62.46
328.092	3.07
328.305	-7.17
328.518	33.79
328.731	31.74
328.944	50.18
329.157	23.55
329.37	70.65
329.583	78.85
329.796	111.61
330.009	-60.42
330.222	37.89
330.435	95.23
330.648	-15.36
330.861	5.12
331.073	29.7
331.286	54.27
331.499	66.56
331.712	23.55
331.925	62.46
332.138	19.46
332.35	56.32
332.563	-37.89
332.776	5.12
332.989	5.12
333.202	-19.46
333.414	-58.37
333.627	41.98
333.84	37.89
334.053	48.13
334.265	5.12
334.478	54.27
334.691	31.74
334.903	66.56
335.116	27.65
335.329	-1.02
335.541	50.18
335.754	48.13
335.966	46.08
336.179	62.46
336.392	-9.22
336.604	50.18
336.817	46.08
337.029	56.32
337.242	3.07
337.454	130.05
337.667	21.5
337.88	-11.26
338.092	5.12
338.305	37.89
338.517	23.55
338.729	70.65
338.942	128
339.154	54.27
339.367	-23.55
339.579	33.79
339.792	-50.18
340.004	13.31
340.217	82.94
340.429	62.46
340.641	41.98
340.854	23.55
341.066	-52.22
341.278	50.18
341.491	113.66
341.703	48.13
341.915	-27.65
342.128	25.6
342.34	70.65
342.552	-3.07
342.764	13.31
342.977	-3.07
343.189	78.85
343.401	25.6
343.613	-52.22
343.826	54.27
344.038	-3.07
344.25	50.18
344.462	-23.55
344.674	-5.12
344.886	-41.98
345.099	-21.5
345.311	1.02
345.523	54.27
345.735	33.79
345.947	87.04
346.159	-7.17
346.371	-17.41
346.583	-3.07
346.795	115.71
347.007	23.55
347.219	48.13
347.431	19.46
347.643	-11.26
347.855	39.94
348.067	29.7
348.279	-60.42
348.491	31.74
348.703	-19.46
348.915	62.46
349.127	-76.8
349.339	41.98
349.551	37.89
349.763	119.81
349.975	46.08
350.187	44.03
350.399	48.13
350.61	54.27
350.822	29.7
351.034	50.18
351.246	37.89
351.458	103.42
351.669	54.27
351.881	7.17
352.093	138.24
352.305	95.23
352.517	72.7
352.728	13.31
352.94	44.03
353.152	9.22
353.363	54.27
353.575	113.66
353.787	66.56
353.999	31.74
354.21	56.32
354.422	21.5
354.633	46.08
354.845	17.41
355.057	-17.41
355.268	48.13
355.48	37.89
355.692	27.65
355.903	23.55
356.115	31.74
356.326	-11.26
356.538	89.09
356.749	5.12
356.961	41.98
357.172	-19.46
357.384	-27.65
357.595	70.65
357.807	-54.27
358.018	37.89
358.23	21.5
358.441	13.31
358.653	87.04
358.864	23.55
359.075	-1.02
359.287	113.66
359.498	70.65
359.709	80.89
359.921	103.42
360.132	87.04
360.344	29.7
360.555	41.98
360.766	15.36
360.977	62.46
361.189	35.84
361.4	27.65
361.611	46.08
361.823	66.56
362.034	13.31
362.245	9.22
362.456	52.22
362.667	87.04
362.879	-19.46
363.09	-21.5
363.301	54.27
363.512	5.12
363.723	9.22
363.935	80.89
364.146	103.42
364.357	70.65
364.568	37.89
364.779	-13.31
364.99	48.13
365.201	13.31
365.412	48.13
365.623	-33.79
365.834	56.32
366.045	-9.22
366.256	56.32
366.467	56.32
366.678	21.5
366.889	17.41
367.1	35.84
367.311	48.13
367.522	17.41
367.733	13.31
367.944	29.7
368.155	29.7
368.366	15.36
368.577	17.41
368.788	109.57
368.999	97.28
369.209	29.7
369.42	62.46
369.631	89.09
369.842	52.22
370.053	21.5
370.264	95.23
370.474	41.98
370.685	46.08
370.896	89.09
371.107	87.04
371.317	171.01
371.528	64.51
371.739	121.85
371.95	-15.36
372.16	50.18
372.371	89.09
372.582	15.36
372.792	41.98
373.003	23.55
373.214	-5.12
373.424	97.28
373.635	31.74
373.846	-19.46
374.056	1.02
374.267	5.12
374.477	21.5
374.688	74.75
374.898	54.27
375.109	54.27
375.319	54.27
375.53	33.79
375.74	64.51
375.951	19.46
376.161	128
376.372	17.41
376.582	13.31
376.793	-7.17
377.003	-11.26
377.214	52.22
377.424	119.81
377.635	103.42
377.845	-11.26
378.055	66.56
378.266	74.75
378.476	-82.94
378.686	62.46
378.897	11.26
379.107	58.37
379.317	87.04
379.528	54.27
379.738	87.04
379.948	9.22
380.158	95.23
380.369	-35.84
380.579	56.32
380.789	15.36
380.999	54.27
381.21	-5.12
381.42	74.75
381.63	76.8
381.84	68.61
382.05	62.46
382.261	46.08
382.471	9.22
382.681	-23.55
382.891	93.18
383.101	29.7
383.311	70.65
383.521	21.5
383.731	87.04
383.941	107.52
384.151	23.55
384.361	17.41
384.571	-19.46
384.781	84.99
384.991	72.7
385.201	146.43
385.411	58.37
385.621	119.81
385.831	9.22
386.041	62.46
386.251	84.99
386.461	84.99
386.671	-99.33
386.881	121.85
387.091	95.23
387.301	121.85
387.511	-9.22
387.72	103.42
387.93	35.84
388.14	58.37
388.35	70.65
388.56	101.37
388.769	5.12
388.979	29.7
389.189	-7.17
389.399	19.46
389.609	105.47
389.818	64.51
390.028	46.08
390.238	70.65
390.447	64.51
390.657	48.13
390.867	48.13
391.076	21.5
391.286	-11.26
391.496	128
391.705	9.22
391.915	48.13
392.125	97.28
392.334	-19.46
392.544	128
392.753	39.94
392.963	41.98
393.172	-15.36
393.382	128
393.591	121.85
393.801	3.07
394.01	99.33
394.22	58.37
394.429	37.89
394.639	66.56
394.848	101.37
395.058	46.08
395.267	80.89
395.477	60.42
395.686	93.18
395.895	78.85
396.105	107.52
396.314	54.27
396.524	105.47
396.733	29.7
396.942	160.77
397.152	72.7
397.361	111.61
397.57	80.89
397.78	132.09
397.989	91.13
398.198	134.14
398.407	111.61
398.617	89.09
398.826	87.04
399.035	44.03
399.244	123.9
399.453	144.38
399.663	48.13
399.872	13.31
400.081	48.13
400.29	56.32
400.499	35.84
400.708	103.42
400.917	185.34
401.127	132.09
401.336	103.42
401.545	211.96
401.754	70.65
401.963	89.09
402.172	60.42
402.381	105.47
402.59	103.42
402.799	136.19
403.008	103.42
403.217	134.14
403.426	199.68
403.635	84.99
403.844	128
404.053	72.7
404.262	41.98
404.471	91.13
404.68	160.77
404.888	64.51
405.097	107.52
405.306	119.81
405.515	152.57
405.724	148.48
405.933	136.19
406.142	177.15
406.35	201.72
406.559	171.01
406.768	211.96
406.977	201.72
407.185	177.15
407.394	154.62
407.603	140.29
407.812	226.3
408.02	236.54
408.229	218.11
408.438	193.53
408.646	220.16
408.855	183.29
409.064	238.59
409.272	271.36
409.481	244.73
409.69	275.45
409.898	250.88
410.107	261.12
410.315	263.16
410.524	287.74
410.733	291.84
410.941	267.26
411.15	246.78
411.358	353.27
411.567	398.33
411.775	320.51
411.984	363.51
412.192	357.37
412.401	424.95
412.609	486.39
412.818	457.72
413.026	390.14
413.234	433.15
413.443	506.87
413.651	429.05
413.86	504.82
414.068	457.72
414.276	513.02
414.485	490.49
414.693	578.55
414.901	609.27
415.11	582.65
415.318	543.74
415.526	584.7
415.734	820.21
415.943	777.2
416.151	701.43
416.359	789.49
416.567	742.39
416.776	721.91
416.984	787.44
417.192	836.6
417.4	832.5
417.608	859.12
417.817	818.16
418.025	922.61
418.233	1000.43
418.441	957.43
418.649	1004.53
418.857	1111.02
419.065	1248.24
419.273	1178.61
419.481	1154.03
419.689	1184.75
419.897	1315.82
420.105	1287.15
420.313	1455.08
420.521	1328.11
420.729	1418.22
420.937	1405.93
421.145	1537
421.353	1569.77
421.561	1637.35
421.769	1723.37
421.977	1747.94
422.185	1711.08
422.393	1797.09
422.601	1987.55
422.809	1934.31
423.017	2012.13
423.224	2106.34
423.432	2124.77
423.64	2171.87
423.848	2327.52
424.056	2218.97
424.263	2380.76
424.471	2458.59
424.679	2552.79
424.887	2722.77
425.094	2798.55
425.302	2808.79
425.51	2823.12
425.718	3044.31
425.925	2913.24
426.133	3120.08
426.341	3335.12
426.548	3380.17
426.756	3466.19
426.964	3326.93
427.171	3668.94
427.379	3759.05
427.586	3759.05
427.794	3990.47
428.001	4021.19
428.209	4154.3
428.417	4158.4
428.624	4395.96
428.832	4434.88
429.039	4475.84
429.247	4336.57
429.454	4867
429.662	5180.34
429.869	4901.81
430.076	5143.47
430.284	5118.9
430.491	5323.69
430.699	5628.84
430.906	5743.53
431.114	5612.46
431.321	5796.78
431.528	5942.18
431.736	6427.55
431.943	6699.93
432.15	6482.85
432.358	6480.8
432.565	7019.41
432.772	6978.45
432.979	7324.56
433.187	7349.14
433.394	7349.14
433.601	7721.87
433.808	7891.85
434.016	8065.92
434.223	8215.43
434.43	8678.27
434.637	8565.63
434.844	9028.47
435.052	9024.37
435.259	9089.91
435.466	9229.17
435.673	8989.56
435.88	9837.42
436.087	10328.93
436.294	10261.35
436.501	9997.16
436.708	10320.74
436.915	10462.05
437.122	10947.42
437.329	10879.83
437.537	11033.43
437.743	11455.31
437.95	11326.29
438.157	12133.19
438.364	12354.37
438.571	12491.59
438.778	12567.36
438.985	13579.06
439.192	13189.94
439.399	13517.62
439.606	12948.28
439.813	13884.2
440.02	14766.88
440.227	14500.64
440.433	14496.55
440.64	14646.05
440.847	14752.54
441.054	14955.29
441.261	16048.91
441.467	15936.27
441.674	16042.76
441.881	16548.61
442.088	16775.94
442.294	16655.11
442.501	17072.89
442.708	17240.82
442.914	17838.83
443.121	18711.27
443.328	18465.51
443.534	19569.37
443.741	18924.26
443.948	18578.15
444.154	20007.63
444.361	19976.91
444.568	20110.03
444.774	20292.3
444.981	20142.8
445.187	20574.92
445.394	21689.01
445.6	21490.36
445.807	23351.96
446.013	22452.91
446.22	22995.62
446.426	23945.87
446.633	23866
446.839	24928.9
447.046	23452.31
447.252	25019.01
447.459	25121.41
447.665	25217.66
447.871	26047.09
448.078	27462.24
448.284	26126.96
448.491	26677.86
448.697	27968.09
448.903	28101.2
449.11	28027.48
449.316	27628.12
449.522	28385.87
449.728	29223.49
449.935	29401.66
450.141	29057.6
450.347	29874.74
450.553	29063.75
450.76	29557.31
450.966	30161.46
451.172	29837.88
451.378	30958.12
451.584	30321.2
451.791	31318.56
451.997	30777.9
452.203	31119.91
452.409	31494.69
452.615	31105.57
452.821	29882.94
453.027	29588.03
453.233	31083.05
453.44	30147.12
453.646	30327.35
453.852	30886.44
454.058	30761.51
454.264	29942.33
454.47	30884.39
454.676	29819.45
454.882	30919.21
455.088	28428.88
455.294	28904.01
455.5	29393.47
455.705	29286.98
455.911	28443.21
456.117	27703.9
456.323	27443.81
456.529	25985.65
456.735	27083.36
456.941	26530.41
457.147	26055.28
457.352	25164.42
457.558	24875.65
457.764	24646.28
457.97	24810.12
458.176	24177.3
458.381	24187.53
458.587	22913.7
458.793	23030.43
458.999	21580.47
459.204	23138.97
459.41	22680.23
459.616	21115.58
459.821	21463.74
460.027	21160.64
460.233	20521.67
460.438	19813.07
460.644	20026.06
460.85	19075.8
461.055	18668.26
461.261	18483.94
461.466	17216.25
461.672	16855.81
461.878	17656.56
462.083	16782.08
462.289	16425.73
462.494	16280.33
462.7	15364.89
462.905	15223.58
463.111	15667.98
463.316	15731.47
463.522	15315.73
463.727	15399.7
463.932	15342.36
464.138	15311.64
464.343	15098.65
464.549	14709.54
464.754	15297.3
464.959	15209.24
465.165	14961.44
465.37	14590.75
465.575	13900.59
465.781	14830.37
465.986	14867.23
466.191	14361.38
466.397	13765.42
466.602	13345.59
466.807	13706.03
467.012	13531.95
467.218	13714.22
467.423	13390.64
467.628	13634.35
