Data from USB4F104151__223__14-21-36-922.txt Node

Date: Thu Mar 13 14:21:36 EDT 2025
User: louis
Spectrometer: USB4F10415
Trigger mode: 4
Integration Time (sec): 2.000000E-2
Scans to average: 1
Electric dark correction enabled: true
Nonlinearity correction enabled: false
Boxcar width: 0
XAxis mode: Wavelengths
Number of Pixels in Spectrum: 3648
>>>>>Begin Spectral Data<<<<<
178.204	-158.72
178.424	-158.72
178.644	-158.72
178.864	-179.2
179.084	-105.47
179.304	-66.56
179.524	-23.55
179.744	-60.42
179.964	115.71
180.184	27.65
180.404	50.18
180.624	-37.89
180.844	-23.55
181.064	-17.41
181.283	-7.17
181.503	-7.17
181.723	50.18
181.943	-64.51
182.163	50.18
182.383	-31.74
182.602	-1.02
182.822	-7.17
183.042	-54.27
183.262	-56.32
183.482	-29.7
183.701	-23.55
183.921	3.07
184.141	13.31
184.361	35.84
184.58	-5.12
184.8	35.84
185.02	17.41
185.239	21.5
185.459	-15.36
185.679	46.08
185.898	3.07
186.118	76.8
186.338	89.09
186.557	29.7
186.777	9.22
186.997	-11.26
187.216	-19.46
187.436	95.23
187.655	-3.07
187.875	13.31
188.095	11.26
188.314	37.89
188.534	56.32
188.753	25.6
188.973	50.18
189.192	13.31
189.412	107.52
189.631	50.18
189.851	29.7
190.07	52.22
190.29	-54.27
190.509	-33.79
190.729	44.03
190.948	-7.17
191.168	58.37
191.387	54.27
191.607	-5.12
191.826	27.65
192.045	33.79
192.265	3.07
192.484	-44.03
192.704	-15.36
192.923	-136.19
193.142	-15.36
193.362	48.13
193.581	50.18
193.8	-44.03
194.02	54.27
194.239	33.79
194.458	80.89
194.678	-23.55
194.897	31.74
195.116	-13.31
195.335	27.65
195.555	80.89
195.774	-82.94
195.993	99.33
196.212	-89.09
196.432	-21.5
196.651	17.41
196.87	5.12
197.089	60.42
197.308	21.5
197.528	64.51
197.747	-41.98
197.966	27.65
198.185	97.28
198.404	-64.51
198.623	-33.79
198.842	109.57
199.062	33.79
199.281	11.26
199.5	-7.17
199.719	64.51
199.938	50.18
200.157	46.08
200.376	-58.37
200.595	-27.65
200.814	-11.26
201.033	62.46
201.252	-9.22
201.471	87.04
201.69	58.37
201.909	9.22
202.128	15.36
202.347	52.22
202.566	-48.13
202.785	66.56
203.004	-5.12
203.223	58.37
203.442	11.26
203.661	-29.7
203.879	-7.17
204.098	-21.5
204.317	19.46
204.536	52.22
204.755	54.27
204.974	19.46
205.193	-58.37
205.411	91.13
205.63	-64.51
205.849	19.46
206.068	7.17
206.287	-23.55
206.505	54.27
206.724	29.7
206.943	-29.7
207.162	-1.02
207.381	21.5
207.599	9.22
207.818	3.07
208.037	3.07
208.255	21.5
208.474	17.41
208.693	68.61
208.911	-29.7
209.13	41.98
209.349	21.5
209.567	50.18
209.786	-5.12
210.005	5.12
210.223	27.65
210.442	15.36
210.661	17.41
210.879	27.65
211.098	41.98
211.316	44.03
211.535	66.56
211.753	-7.17
211.972	60.42
212.191	9.22
212.409	-27.65
212.628	119.81
212.846	-21.5
213.065	48.13
213.283	58.37
213.502	7.17
213.72	13.31
213.938	93.18
214.157	-84.99
214.375	115.71
214.594	29.7
214.812	11.26
215.031	-54.27
215.249	-11.26
215.467	-1.02
215.686	-13.31
215.904	1.02
216.122	5.12
216.341	-44.03
216.559	-15.36
216.778	35.84
216.996	-48.13
217.214	-27.65
217.432	50.18
217.651	-48.13
217.869	-35.84
218.087	9.22
218.306	50.18
218.524	5.12
218.742	54.27
218.96	78.85
219.179	-17.41
219.397	-39.94
219.615	9.22
219.833	11.26
220.051	-39.94
220.27	7.17
220.488	25.6
220.706	17.41
220.924	-17.41
221.142	-23.55
221.36	11.26
221.578	37.89
221.796	48.13
222.015	33.79
222.233	-64.51
222.451	156.67
222.669	9.22
222.887	66.56
223.105	58.37
223.323	35.84
223.541	17.41
223.759	-23.55
223.977	-19.46
224.195	93.18
224.413	27.65
224.631	-19.46
224.849	29.7
225.067	121.85
225.285	17.41
225.503	17.41
225.721	-31.74
225.939	44.03
226.157	7.17
226.375	132.09
226.592	9.22
226.81	-3.07
227.028	78.85
227.246	103.42
227.464	23.55
227.682	31.74
227.9	-44.03
228.117	-23.55
228.335	84.99
228.553	37.89
228.771	-46.08
228.989	35.84
229.206	19.46
229.424	-39.94
229.642	-39.94
229.86	-17.41
230.077	27.65
230.295	-25.6
230.513	41.98
230.731	23.55
230.948	33.79
231.166	50.18
231.384	-3.07
231.601	-21.5
231.819	60.42
232.037	-60.42
232.254	-23.55
232.472	-13.31
232.689	15.36
232.907	78.85
233.125	9.22
233.342	-29.7
233.56	-54.27
233.777	33.79
233.995	-74.75
234.213	66.56
234.43	74.75
234.648	1.02
234.865	9.22
235.083	11.26
235.3	11.26
235.518	3.07
235.735	37.89
235.953	-5.12
236.17	-3.07
236.388	-99.33
236.605	-37.89
236.822	113.66
237.04	109.57
237.257	25.6
237.475	3.07
237.692	17.41
237.909	-1.02
238.127	-13.31
238.344	-3.07
238.562	-29.7
238.779	-41.98
238.996	-80.89
239.214	99.33
239.431	-39.94
239.648	-15.36
239.865	27.65
240.083	-19.46
240.3	70.65
240.517	17.41
240.735	33.79
240.952	111.61
241.169	50.18
241.386	-23.55
241.603	66.56
241.821	-11.26
242.038	50.18
242.255	91.13
242.472	17.41
242.689	33.79
242.907	93.18
243.124	-5.12
243.341	-15.36
243.558	-23.55
243.775	-7.17
243.992	50.18
244.209	19.46
244.426	91.13
244.643	50.18
244.86	-1.02
245.078	-7.17
245.295	-3.07
245.512	35.84
245.729	33.79
245.946	-11.26
246.163	-5.12
246.38	25.6
246.597	15.36
246.814	41.98
247.031	-23.55
247.248	50.18
247.464	41.98
247.681	27.65
247.898	-3.07
248.115	62.46
248.332	-3.07
248.549	31.74
248.766	58.37
248.983	-11.26
249.2	-15.36
249.417	17.41
249.633	3.07
249.85	-17.41
250.067	29.7
250.284	58.37
250.501	58.37
250.717	80.89
250.934	5.12
251.151	48.13
251.368	-27.65
251.585	74.75
251.801	-56.32
252.018	25.6
252.235	25.6
252.451	3.07
252.668	-11.26
252.885	54.27
253.102	5.12
253.318	-15.36
253.535	31.74
253.752	123.9
253.968	-5.12
254.185	-37.89
254.401	5.12
254.618	70.65
254.835	-54.27
255.051	33.79
255.268	21.5
255.484	33.79
255.701	25.6
255.917	31.74
256.134	13.31
256.351	5.12
256.567	-29.7
256.784	-3.07
257	27.65
257.217	27.65
257.433	46.08
257.65	-15.36
257.866	25.6
258.082	35.84
258.299	-35.84
258.515	87.04
258.732	78.85
258.948	-35.84
259.165	9.22
259.381	17.41
259.597	46.08
259.814	-9.22
260.03	-19.46
260.246	5.12
260.463	33.79
260.679	17.41
260.895	82.94
261.112	44.03
261.328	37.89
261.544	50.18
261.761	82.94
261.977	-19.46
262.193	-50.18
262.409	111.61
262.626	99.33
262.842	33.79
263.058	27.65
263.274	33.79
263.49	21.5
263.707	72.7
263.923	27.65
264.139	7.17
264.355	-17.41
264.571	19.46
264.787	-7.17
265.004	9.22
265.22	-19.46
265.436	39.94
265.652	27.65
265.868	17.41
266.084	-5.12
266.3	-7.17
266.516	-39.94
266.732	-25.6
266.948	25.6
267.164	82.94
267.38	27.65
267.596	52.22
267.812	91.13
268.028	50.18
268.244	-31.74
268.46	-23.55
268.676	50.18
268.892	68.61
269.108	37.89
269.324	-25.6
269.54	21.5
269.756	33.79
269.972	9.22
270.188	17.41
270.403	11.26
270.619	-84.99
270.835	27.65
271.051	-3.07
271.267	17.41
271.483	95.23
271.698	17.41
271.914	-64.51
272.13	-5.12
272.346	-11.26
272.562	44.03
272.777	50.18
272.993	-48.13
273.209	11.26
273.425	-13.31
273.64	41.98
273.856	21.5
274.072	29.7
274.287	41.98
274.503	23.55
274.719	5.12
274.934	60.42
275.15	48.13
275.366	115.71
275.581	-44.03
275.797	66.56
276.012	39.94
276.228	27.65
276.444	35.84
276.659	91.13
276.875	5.12
277.09	1.02
277.306	-27.65
277.521	80.89
277.737	41.98
277.952	-11.26
278.168	29.7
278.383	5.12
278.599	-7.17
278.814	-13.31
279.03	84.99
279.245	101.37
279.461	74.75
279.676	29.7
279.892	11.26
280.107	9.22
280.322	-31.74
280.538	21.5
280.753	3.07
280.969	-23.55
281.184	-7.17
281.399	15.36
281.615	-9.22
281.83	-23.55
282.045	-68.61
282.26	-11.26
282.476	-15.36
282.691	11.26
282.906	11.26
283.122	37.89
283.337	52.22
283.552	5.12
283.767	-35.84
283.983	13.31
284.198	70.65
284.413	52.22
284.628	17.41
284.843	9.22
285.058	-35.84
285.274	-39.94
285.489	58.37
285.704	54.27
285.919	-56.32
286.134	-7.17
286.349	-15.36
286.564	44.03
286.779	66.56
286.995	-21.5
287.21	-52.22
287.425	72.7
287.64	-70.65
287.855	50.18
288.07	-48.13
288.285	27.65
288.5	74.75
288.715	78.85
288.93	-13.31
289.145	3.07
289.36	29.7
289.575	5.12
289.79	99.33
290.004	-7.17
290.219	35.84
290.434	50.18
290.649	9.22
290.864	13.31
291.079	1.02
291.294	-21.5
291.509	74.75
291.724	23.55
291.938	9.22
292.153	80.89
292.368	25.6
292.583	27.65
292.798	54.27
293.012	9.22
293.227	-7.17
293.442	1.02
293.657	-3.07
293.871	66.56
294.086	76.8
294.301	23.55
294.516	54.27
294.73	-3.07
294.945	44.03
295.16	37.89
295.374	78.85
295.589	-9.22
295.804	-25.6
296.018	-13.31
296.233	17.41
296.447	-9.22
296.662	52.22
296.877	50.18
297.091	41.98
297.306	9.22
297.52	33.79
297.735	17.41
297.949	54.27
298.164	11.26
298.378	21.5
298.593	-3.07
298.807	9.22
299.022	58.37
299.236	-7.17
299.451	19.46
299.665	29.7
299.88	41.98
300.094	17.41
300.309	70.65
300.523	19.46
300.737	-39.94
300.952	50.18
301.166	68.61
301.381	23.55
301.595	25.6
301.809	-39.94
302.024	-13.31
302.238	-21.5
302.452	54.27
302.667	-13.31
302.881	44.03
303.095	-48.13
303.309	-31.74
303.524	-21.5
303.738	62.46
303.952	-5.12
304.166	-9.22
304.381	-15.36
304.595	74.75
304.809	17.41
305.023	37.89
305.237	-5.12
305.452	19.46
305.666	80.89
305.88	11.26
306.094	74.75
306.308	37.89
306.522	21.5
306.736	-39.94
306.95	39.94
307.164	17.41
307.379	27.65
307.593	52.22
307.807	-5.12
308.021	9.22
308.235	-1.02
308.449	54.27
308.663	25.6
308.877	70.65
309.091	1.02
309.305	17.41
309.519	-48.13
309.733	13.31
309.947	39.94
310.161	3.07
310.374	1.02
310.588	70.65
310.802	-70.65
311.016	5.12
311.23	1.02
311.444	23.55
311.658	41.98
311.872	-52.22
312.085	60.42
312.299	46.08
312.513	44.03
312.727	48.13
312.941	-1.02
313.154	76.8
313.368	27.65
313.582	27.65
313.796	82.94
314.009	33.79
314.223	52.22
314.437	27.65
314.651	-87.04
314.864	27.65
315.078	25.6
315.292	-9.22
315.505	29.7
315.719	54.27
315.933	39.94
316.146	41.98
316.36	-29.7
316.573	-5.12
316.787	27.65
317.001	62.46
317.214	50.18
317.428	-9.22
317.641	-31.74
317.855	1.02
318.068	-39.94
318.282	33.79
318.495	60.42
318.709	80.89
318.922	9.22
319.136	91.13
319.349	41.98
319.563	17.41
319.776	11.26
319.99	29.7
320.203	1.02
320.417	78.85
320.63	-7.17
320.843	25.6
321.057	97.28
321.27	13.31
321.483	-56.32
321.697	23.55
321.91	37.89
322.124	66.56
322.337	80.89
322.55	21.5
322.763	1.02
322.977	13.31
323.19	78.85
323.403	19.46
323.617	-23.55
323.83	35.84
324.043	33.79
324.256	60.42
324.469	-27.65
324.683	7.17
324.896	-54.27
325.109	19.46
325.322	39.94
325.535	17.41
325.748	27.65
325.962	21.5
326.175	17.41
326.388	37.89
326.601	93.18
326.814	3.07
327.027	74.75
327.24	58.37
327.453	5.12
327.666	82.94
327.879	27.65
328.092	-13.31
328.305	17.41
328.518	-33.79
328.731	-13.31
328.944	29.7
329.157	82.94
329.37	-54.27
329.583	109.57
329.796	82.94
330.009	-27.65
330.222	91.13
330.435	58.37
330.648	128
330.861	74.75
331.073	41.98
331.286	25.6
331.499	41.98
331.712	41.98
331.925	-46.08
332.138	82.94
332.35	44.03
332.563	25.6
332.776	25.6
332.989	-5.12
333.202	-13.31
333.414	-3.07
333.627	33.79
333.84	5.12
334.053	66.56
334.265	-15.36
334.478	25.6
334.691	76.8
334.903	17.41
335.116	-17.41
335.329	19.46
335.541	-23.55
335.754	19.46
335.966	5.12
336.179	-11.26
336.392	13.31
336.604	46.08
336.817	87.04
337.029	13.31
337.242	25.6
337.454	89.09
337.667	13.31
337.88	60.42
338.092	19.46
338.305	58.37
338.517	68.61
338.729	33.79
338.942	29.7
339.154	-11.26
339.367	-17.41
339.579	17.41
339.792	-72.7
340.004	-41.98
340.217	-9.22
340.429	99.33
340.641	-7.17
340.854	25.6
341.066	46.08
341.278	56.32
341.491	41.98
341.703	9.22
341.915	52.22
342.128	46.08
342.34	-1.02
342.552	19.46
342.764	44.03
342.977	17.41
343.189	60.42
343.401	-56.32
343.613	-15.36
343.826	41.98
344.038	50.18
344.25	41.98
344.462	-27.65
344.674	66.56
344.886	21.5
345.099	91.13
345.311	-52.22
345.523	13.31
345.735	46.08
345.947	41.98
346.159	-13.31
346.371	74.75
346.583	105.47
346.795	101.37
347.007	35.84
347.219	-7.17
347.431	17.41
347.643	-11.26
347.855	54.27
348.067	52.22
348.279	58.37
348.491	1.02
348.703	-1.02
348.915	74.75
349.127	25.6
349.339	101.37
349.551	-19.46
349.763	70.65
349.975	93.18
350.187	56.32
350.399	99.33
350.61	3.07
350.822	-37.89
351.034	58.37
351.246	13.31
351.458	74.75
351.669	74.75
351.881	70.65
352.093	56.32
352.305	148.48
352.517	64.51
352.728	50.18
352.94	58.37
353.152	44.03
353.363	-5.12
353.575	41.98
353.787	76.8
353.999	3.07
354.21	93.18
354.422	74.75
354.633	50.18
354.845	66.56
355.057	50.18
355.268	27.65
355.48	25.6
355.692	-15.36
355.903	-33.79
356.115	111.61
356.326	-31.74
356.538	142.33
356.749	78.85
356.961	50.18
357.172	119.81
357.384	-64.51
357.595	84.99
357.807	19.46
358.018	-5.12
358.23	9.22
358.441	87.04
358.653	21.5
358.864	27.65
359.075	-9.22
359.287	-21.5
359.498	-7.17
359.709	-54.27
359.921	41.98
360.132	-7.17
360.344	56.32
360.555	35.84
360.766	-13.31
360.977	-46.08
361.189	66.56
361.4	-13.31
361.611	21.5
361.823	93.18
362.034	70.65
362.245	-48.13
362.456	19.46
362.667	21.5
362.879	-44.03
363.09	-7.17
363.301	99.33
363.512	25.6
363.723	50.18
363.935	-39.94
364.146	25.6
364.357	74.75
364.568	27.65
364.779	31.74
364.99	41.98
365.201	-3.07
365.412	60.42
365.623	-23.55
365.834	46.08
366.045	97.28
366.256	37.89
366.467	56.32
366.678	62.46
366.889	82.94
367.1	44.03
367.311	95.23
367.522	44.03
367.733	109.57
367.944	41.98
368.155	74.75
368.366	44.03
368.577	76.8
368.788	74.75
368.999	27.65
369.209	48.13
369.42	121.85
369.631	41.98
369.842	31.74
370.053	3.07
370.264	58.37
370.474	62.46
370.685	-15.36
370.896	58.37
371.107	93.18
371.317	54.27
371.528	37.89
371.739	25.6
371.95	123.9
372.16	27.65
372.371	7.17
372.582	50.18
372.792	50.18
373.003	99.33
373.214	44.03
373.424	33.79
373.635	7.17
373.846	84.99
374.056	-21.5
374.267	87.04
374.477	62.46
374.688	25.6
374.898	23.55
375.109	25.6
375.319	31.74
375.53	82.94
375.74	23.55
375.951	103.42
376.161	107.52
376.372	76.8
376.582	35.84
376.793	23.55
377.003	56.32
377.214	25.6
377.424	29.7
377.635	41.98
377.845	107.52
378.055	95.23
378.266	7.17
378.476	99.33
378.686	50.18
378.897	29.7
379.107	-21.5
379.317	84.99
379.528	-11.26
379.738	46.08
379.948	-5.12
380.158	46.08
380.369	58.37
380.579	-5.12
380.789	17.41
380.999	76.8
381.21	74.75
381.42	74.75
381.63	68.61
381.84	158.72
382.05	111.61
382.261	84.99
382.471	-3.07
382.681	-13.31
382.891	58.37
383.101	113.66
383.311	-48.13
383.521	56.32
383.731	78.85
383.941	3.07
384.151	87.04
384.361	-7.17
384.571	60.42
384.781	78.85
384.991	74.75
385.201	41.98
385.411	17.41
385.621	-35.84
385.831	35.84
386.041	35.84
386.251	54.27
386.461	111.61
386.671	115.71
386.881	93.18
387.091	58.37
387.301	46.08
387.511	11.26
387.72	113.66
387.93	66.56
388.14	50.18
388.35	87.04
388.56	62.46
388.769	37.89
388.979	70.65
389.189	-3.07
389.399	-13.31
389.609	91.13
389.818	132.09
390.028	39.94
390.238	80.89
390.447	-23.55
390.657	3.07
390.867	50.18
391.076	-19.46
391.286	76.8
391.496	72.7
391.705	84.99
391.915	91.13
392.125	58.37
392.334	17.41
392.544	46.08
392.753	91.13
392.963	91.13
393.172	29.7
393.382	15.36
393.591	66.56
393.801	41.98
394.01	160.77
394.22	9.22
394.429	82.94
394.639	82.94
394.848	123.9
395.058	29.7
395.267	58.37
395.477	113.66
395.686	84.99
395.895	91.13
396.105	140.29
396.314	70.65
396.524	111.61
396.733	-35.84
396.942	152.57
397.152	70.65
397.361	144.38
397.57	142.33
397.78	84.99
397.989	80.89
398.198	146.43
398.407	74.75
398.617	50.18
398.826	115.71
399.035	68.61
399.244	142.33
399.453	89.09
399.663	76.8
399.872	84.99
400.081	46.08
400.29	115.71
400.499	87.04
400.708	144.38
400.917	181.25
401.127	95.23
401.336	74.75
401.545	125.95
401.754	111.61
401.963	91.13
402.172	89.09
402.381	84.99
402.59	115.71
402.799	103.42
403.008	146.43
403.217	82.94
403.426	162.81
403.635	123.9
403.844	128
404.053	154.62
404.262	142.33
404.471	175.1
404.68	115.71
404.888	173.05
405.097	101.37
405.306	189.44
405.515	259.07
405.724	93.18
405.933	158.72
406.142	185.34
406.35	191.49
406.559	181.25
406.768	201.72
406.977	308.22
407.185	261.12
407.394	173.05
407.603	232.44
407.812	254.97
408.02	226.3
408.229	197.63
408.438	193.53
408.646	261.12
408.855	312.32
409.064	361.47
409.272	267.26
409.481	367.61
409.69	254.97
409.898	259.07
410.107	361.47
410.315	369.66
410.524	328.7
410.733	394.23
410.941	386.04
411.15	394.23
411.358	418.81
411.567	447.48
411.775	410.62
411.984	461.82
412.192	394.23
412.401	494.58
412.609	529.4
412.818	504.82
413.026	560.12
413.234	576.5
413.443	586.74
413.651	513.02
413.86	578.55
414.068	658.42
414.276	680.95
414.485	654.33
414.693	707.57
414.901	799.73
415.11	746.48
415.318	734.2
415.526	852.98
415.734	883.7
415.943	865.27
416.151	941.04
416.359	969.71
416.567	918.51
416.776	1008.62
416.984	1037.3
417.192	1133.55
417.4	1088.5
417.608	1176.56
417.817	1188.85
418.025	1166.32
418.233	1287.15
418.441	1182.7
418.649	1385.45
418.857	1401.83
419.065	1481.71
419.273	1438.7
419.481	1516.52
419.689	1471.47
419.897	1682.41
420.105	1659.88
420.313	1704.93
420.521	1823.72
420.729	1901.54
420.937	1801.19
421.145	1991.65
421.353	2032.61
421.561	2188.25
421.769	2190.3
421.977	2345.95
422.185	2280.41
422.393	2397.15
422.601	2591.7
422.809	2601.94
423.017	2534.36
423.224	2718.68
423.432	2733.01
423.64	2763.73
423.848	3066.83
424.056	2943.96
424.263	3245.01
424.471	3245.01
424.679	3208.14
424.887	3541.96
425.094	3470.28
425.302	3623.88
425.51	3638.22
425.718	3814.34
425.925	3883.97
426.133	4008.9
426.341	4064.19
426.548	4320.19
426.756	4445.12
426.964	4588.47
427.171	4801.46
427.379	4801.46
427.586	4879.29
427.794	5057.46
428.001	5465
428.209	5551.02
428.417	5434.29
428.624	5766.06
428.832	5899.17
429.039	5800.87
429.247	5751.72
429.454	6460.32
429.662	6814.62
429.869	6343.58
430.076	6796.18
430.284	6595.48
430.491	6988.69
430.699	7277.46
430.906	7097.24
431.114	7381.9
431.321	7754.63
431.528	7723.91
431.736	8364.93
431.943	8661.88
432.15	8383.36
432.358	8328.06
432.565	8964.98
432.772	8807.29
432.979	9360.24
433.187	9421.68
433.394	9649
433.601	10257.25
433.808	10431.33
434.016	10183.52
434.223	10605.41
434.43	11240.28
434.637	11010.9
434.844	11627.34
435.052	11871.05
435.259	11948.87
435.466	11946.83
435.673	11903.82
435.88	12524.35
436.087	13271.86
436.294	13284.15
436.501	13050.68
436.708	13130.55
436.915	13894.44
437.122	14205.74
437.329	14500.64
437.537	14764.83
437.743	14965.53
437.95	14717.73
438.157	15563.54
438.364	16143.11
438.571	15969.04
438.778	16282.38
438.985	17601.27
439.192	17076.99
439.399	17470.2
439.606	17203.96
439.813	18154.22
440.02	19112.67
440.227	18897.63
440.433	18733.79
440.64	19337.94
440.847	19200.73
441.054	19745.49
441.261	20972.22
441.467	20798.15
441.674	20888.26
441.881	21957.3
442.088	21856.95
442.294	21490.36
442.501	22151.85
442.708	22672.04
442.914	23304.86
443.121	24543.88
443.328	23616.15
443.534	25383.55
443.741	24584.84
443.948	24355.47
444.154	26163.82
444.361	25987.7
444.568	26475.12
444.774	25870.97
444.981	26448.49
445.187	26837.61
445.394	27978.33
445.6	27869.78
445.807	30689.84
446.013	29315.65
446.22	29897.27
446.426	30786.09
446.633	31136.29
446.839	32373.27
447.046	31117.86
447.252	32682.51
447.459	32569.87
447.665	32678.41
447.871	33880.57
448.078	35639.78
448.284	33595.9
448.491	34638.32
448.697	35836.38
448.903	36481.49
449.11	36823.5
449.316	35926.49
449.522	36362.71
449.728	37659.07
449.935	38103.48
450.141	38025.66
450.347	38812.08
450.553	37796.29
450.76	37982.65
450.966	39541.16
451.172	38658.48
451.378	39834.02
451.584	39059.88
451.791	40112.54
451.997	39963.04
452.203	40450.45
452.409	40155.55
452.615	40532.37
452.821	39184.81
453.027	38345.14
453.233	40335.77
453.44	38670.77
453.646	39983.52
453.852	39352.74
454.058	40081.82
454.264	38898.09
454.47	39936.41
454.676	39018.92
454.882	40237.47
455.088	36815.31
455.294	36981.2
455.5	37943.74
455.705	38162.87
455.911	36669.9
456.117	35834.33
456.323	35256.81
456.529	33565.18
456.735	35310.05
456.941	34265.59
457.147	33718.78
457.352	32606.73
457.558	32354.83
457.764	32471.57
457.97	31547.93
458.176	31121.96
458.381	31336.99
458.587	29901.37
458.793	29747.77
458.999	27949.65
459.204	30282.29
459.41	29428.29
459.616	27472.48
459.821	27314.78
460.027	27456.09
460.233	26784.36
460.438	25795.19
460.644	26002.04
460.85	24547.98
461.055	24230.54
461.261	24222.35
461.466	22463.15
461.672	21947.06
461.878	23345.82
462.083	21684.92
462.289	21242.56
462.494	20972.22
462.7	19927.76
462.905	19682
463.111	20482.76
463.316	20458.18
463.522	20124.36
463.727	20155.08
463.932	19884.75
464.138	19860.18
464.343	20038.35
464.549	19204.83
464.754	19985.1
464.959	19706.58
465.165	19567.32
465.37	18795.23
465.575	18289.38
465.781	18860.77
465.986	19159.77
466.191	18311.91
466.397	18031.34
466.602	17310.46
466.807	18076.4
467.012	17922.8
