Data from USB4F104151__133__14-19-07-016.txt Node

Date: Thu Mar 13 14:19:07 EDT 2025
User: louis
Spectrometer: USB4F10415
Trigger mode: 4
Integration Time (sec): 2.000000E-2
Scans to average: 1
Electric dark correction enabled: true
Nonlinearity correction enabled: false
Boxcar width: 0
XAxis mode: Wavelengths
Number of Pixels in Spectrum: 3648
>>>>>Begin Spectral Data<<<<<
178.204	-100.86
178.424	-100.86
178.644	-100.86
178.864	-88.57
179.084	-82.43
179.304	-98.81
179.524	32.26
179.744	15.87
179.964	67.07
180.184	19.97
180.404	-64
180.624	32.26
180.844	-12.8
181.064	17.92
181.283	-6.66
181.503	36.35
181.723	-39.42
181.943	7.68
182.163	69.12
182.383	17.92
182.602	75.26
182.822	42.5
183.042	9.73
183.262	24.06
183.482	36.35
183.701	69.12
183.921	69.12
184.141	73.21
184.361	62.98
184.58	40.45
184.8	11.78
185.02	-12.8
185.239	60.93
185.459	60.93
185.679	26.11
185.898	17.92
186.118	24.06
186.338	48.64
186.557	46.59
186.777	28.16
186.997	-41.47
187.216	-12.8
187.436	93.69
187.655	22.02
187.875	85.5
188.095	52.74
188.314	32.26
188.534	75.26
188.753	50.69
188.973	30.21
189.192	69.12
189.412	32.26
189.631	42.5
189.851	36.35
190.07	44.54
190.29	75.26
190.509	15.87
190.729	-10.75
190.948	60.93
191.168	73.21
191.387	77.31
191.607	-74.24
191.826	-23.04
192.045	-6.66
192.265	36.35
192.484	48.64
192.704	-16.9
192.923	-6.66
193.142	97.79
193.362	17.92
193.581	58.88
193.8	73.21
194.02	42.5
194.239	-0.51
194.458	65.02
194.678	83.45
194.897	50.69
195.116	50.69
195.335	97.79
195.555	19.97
195.774	15.87
195.993	52.74
196.212	56.83
196.432	11.78
196.651	7.68
196.87	13.82
197.089	26.11
197.308	52.74
197.528	52.74
197.747	114.17
197.966	24.06
198.185	77.31
198.404	60.93
198.623	48.64
198.842	26.11
199.062	32.26
199.281	114.17
199.5	15.87
199.719	13.82
199.938	77.31
200.157	46.59
200.376	1.54
200.595	42.5
200.814	32.26
201.033	26.11
201.252	40.45
201.471	-16.9
201.69	50.69
201.909	-0.51
202.128	30.21
202.347	48.64
202.566	15.87
202.785	40.45
203.004	52.74
203.223	118.27
203.442	118.27
203.661	32.26
203.879	17.92
204.098	24.06
204.317	-25.09
204.536	5.63
204.755	60.93
204.974	114.17
205.193	3.58
205.411	122.37
205.63	34.3
205.849	75.26
206.068	62.98
206.287	34.3
206.505	24.06
206.724	103.93
206.943	3.58
207.162	26.11
207.381	32.26
207.599	-41.47
207.818	50.69
208.037	50.69
208.255	-16.9
208.474	58.88
208.693	-2.56
208.911	30.21
209.13	56.83
209.349	24.06
209.567	-35.33
209.786	42.5
210.005	19.97
210.223	48.64
210.442	-25.09
210.661	42.5
210.879	50.69
211.098	7.68
211.316	54.78
211.535	108.03
211.753	32.26
211.972	15.87
212.191	-25.09
212.409	17.92
212.628	65.02
212.846	32.26
213.065	112.13
213.283	26.11
213.502	24.06
213.72	7.68
213.938	15.87
214.157	28.16
214.375	3.58
214.594	24.06
214.812	79.36
215.031	28.16
215.249	28.16
215.467	60.93
215.686	77.31
215.904	54.78
216.122	7.68
216.341	3.58
216.559	73.21
216.778	112.13
216.996	42.5
217.214	24.06
217.432	-8.7
217.651	50.69
217.869	73.21
218.087	81.41
218.306	15.87
218.524	48.64
218.742	110.08
218.96	65.02
219.179	60.93
219.397	-53.76
219.615	124.41
219.833	44.54
220.051	48.64
220.27	48.64
220.488	69.12
220.706	73.21
220.924	-0.51
221.142	32.26
221.36	97.79
221.578	3.58
221.796	48.64
222.015	116.22
222.233	62.98
222.451	34.3
222.669	77.31
222.887	-33.28
223.105	93.69
223.323	24.06
223.541	-16.9
223.759	1.54
223.977	-14.85
224.195	112.13
224.413	89.6
224.631	3.58
224.849	26.11
225.067	89.6
225.285	42.5
225.503	-8.7
225.721	15.87
225.939	-8.7
226.157	5.63
226.375	108.03
226.592	-74.24
226.81	-31.23
227.028	58.88
227.246	155.13
227.464	34.3
227.682	75.26
227.9	75.26
228.117	-23.04
228.335	-8.7
228.553	30.21
228.771	48.64
228.989	83.45
229.206	114.17
229.424	79.36
229.642	38.4
229.86	30.21
230.077	-33.28
230.295	101.89
230.513	32.26
230.731	81.41
230.948	48.64
231.166	60.93
231.384	11.78
231.601	-4.61
231.819	85.5
232.037	17.92
232.254	48.64
232.472	24.06
232.689	-0.51
232.907	44.54
233.125	7.68
233.342	-0.51
233.56	11.78
233.777	15.87
233.995	50.69
234.213	77.31
234.43	97.79
234.648	11.78
234.865	13.82
235.083	136.7
235.3	56.83
235.518	58.88
235.735	48.64
235.953	-8.7
236.17	32.26
236.388	17.92
236.605	60.93
236.822	91.65
237.04	32.26
237.257	1.54
237.475	-27.14
237.692	-0.51
237.909	-31.23
238.127	-64
238.344	-61.95
238.562	50.69
238.779	24.06
238.996	3.58
239.214	28.16
239.431	75.26
239.648	1.54
239.865	7.68
240.083	17.92
240.3	3.58
240.517	67.07
240.735	40.45
240.952	75.26
241.169	65.02
241.386	32.26
241.603	40.45
241.821	75.26
242.038	81.41
242.255	67.07
242.472	42.5
242.689	50.69
242.907	42.5
243.124	-6.66
243.341	38.4
243.558	19.97
243.775	65.02
243.992	-6.66
244.209	81.41
244.426	32.26
244.643	81.41
244.86	28.16
245.078	-74.24
245.295	81.41
245.512	50.69
245.729	1.54
245.946	24.06
246.163	7.68
246.38	9.73
246.597	-25.09
246.814	85.5
247.031	44.54
247.248	3.58
247.464	73.21
247.681	26.11
247.898	19.97
248.115	60.93
248.332	-8.7
248.549	36.35
248.766	89.6
248.983	58.88
249.2	81.41
249.417	-8.7
249.633	-16.9
249.85	26.11
250.067	-35.33
250.284	17.92
250.501	32.26
250.717	58.88
250.934	24.06
251.151	65.02
251.368	67.07
251.585	40.45
251.801	7.68
252.018	-33.28
252.235	13.82
252.451	-6.66
252.668	5.63
252.885	81.41
253.102	60.93
253.318	-6.66
253.535	36.35
253.752	65.02
253.968	-39.42
254.185	28.16
254.401	-0.51
254.618	34.3
254.835	67.07
255.051	24.06
255.268	50.69
255.484	24.06
255.701	56.83
255.917	65.02
256.134	44.54
256.351	81.41
256.567	-27.14
256.784	-31.23
257	7.68
257.217	108.03
257.433	48.64
257.65	42.5
257.866	48.64
258.082	-47.62
258.299	67.07
258.515	110.08
258.732	7.68
258.948	34.3
259.165	42.5
259.381	1.54
259.597	24.06
259.814	22.02
260.03	91.65
260.246	105.98
260.463	97.79
260.679	89.6
260.895	-14.85
261.112	58.88
261.328	-18.94
261.544	-6.66
261.761	24.06
261.977	-4.61
262.193	-4.61
262.409	24.06
262.626	50.69
262.842	-23.04
263.058	44.54
263.274	95.74
263.49	48.64
263.707	81.41
263.923	-8.7
264.139	36.35
264.355	73.21
264.571	97.79
264.787	62.98
265.004	62.98
265.22	3.58
265.436	83.45
265.652	-14.85
265.868	85.5
266.084	50.69
266.3	36.35
266.516	-16.9
266.732	-16.9
266.948	13.82
267.164	-10.75
267.38	103.93
267.596	15.87
267.812	44.54
268.028	65.02
268.244	7.68
268.46	58.88
268.676	30.21
268.892	81.41
269.108	67.07
269.324	71.17
269.54	-41.47
269.756	91.65
269.972	-6.66
270.188	60.93
270.403	36.35
270.619	120.32
270.835	83.45
271.051	-4.61
271.267	24.06
271.483	17.92
271.698	40.45
271.914	-8.7
272.13	32.26
272.346	122.37
272.562	50.69
272.777	38.4
272.993	-4.61
273.209	110.08
273.425	15.87
273.64	24.06
273.856	120.32
274.072	50.69
274.287	28.16
274.503	28.16
274.719	30.21
274.934	60.93
275.15	9.73
275.366	65.02
275.581	42.5
275.797	-41.47
276.012	40.45
276.228	3.58
276.444	38.4
276.659	48.64
276.875	40.45
277.09	-25.09
277.306	15.87
277.521	79.36
277.737	46.59
277.952	-12.8
278.168	60.93
278.383	46.59
278.599	44.54
278.814	1.54
279.03	-8.7
279.245	36.35
279.461	77.31
279.676	24.06
279.892	3.58
280.107	48.64
280.322	17.92
280.538	89.6
280.753	9.73
280.969	48.64
281.184	26.11
281.399	52.74
281.615	40.45
281.83	69.12
282.045	-25.09
282.26	50.69
282.476	34.3
282.691	95.74
282.906	93.69
283.122	24.06
283.337	75.26
283.552	91.65
283.767	-39.42
283.983	83.45
284.198	50.69
284.413	-4.61
284.628	1.54
284.843	28.16
285.058	85.5
285.274	36.35
285.489	-8.7
285.704	7.68
285.919	-20.99
286.134	67.07
286.349	44.54
286.564	-23.04
286.779	3.58
286.995	19.97
287.21	-80.38
287.425	22.02
287.64	3.58
287.855	48.64
288.07	-23.04
288.285	103.93
288.5	81.41
288.715	99.84
288.93	17.92
289.145	-39.42
289.36	56.83
289.575	7.68
289.79	71.17
290.004	-39.42
290.219	65.02
290.434	50.69
290.649	36.35
290.864	19.97
291.079	52.74
291.294	108.03
291.509	52.74
291.724	48.64
291.938	26.11
292.153	56.83
292.368	56.83
292.583	26.11
292.798	110.08
293.012	42.5
293.227	-90.62
293.442	40.45
293.657	65.02
293.871	32.26
294.086	26.11
294.301	56.83
294.516	32.26
294.73	22.02
294.945	58.88
295.16	7.68
295.374	48.64
295.589	67.07
295.804	-2.56
296.018	7.68
296.233	83.45
296.447	138.75
296.662	3.58
296.877	52.74
297.091	9.73
297.306	5.63
297.52	44.54
297.735	-8.7
297.949	-6.66
298.164	34.3
298.378	-0.51
298.593	56.83
298.807	-2.56
299.022	52.74
299.236	56.83
299.451	32.26
299.665	-41.47
299.88	30.21
300.094	81.41
300.309	93.69
300.523	38.4
300.737	56.83
300.952	44.54
301.166	56.83
301.381	83.45
301.595	56.83
301.809	48.64
302.024	3.58
302.238	40.45
302.452	40.45
302.667	69.12
302.881	81.41
303.095	114.17
303.309	9.73
303.524	34.3
303.738	48.64
303.952	38.4
304.166	40.45
304.381	11.78
304.595	122.37
304.809	32.26
305.023	73.21
305.237	-25.09
305.452	65.02
305.666	58.88
305.88	48.64
306.094	1.54
306.308	58.88
306.522	118.27
306.736	34.3
306.95	79.36
307.164	69.12
307.379	116.22
307.593	83.45
307.807	85.5
308.021	69.12
308.235	15.87
308.449	42.5
308.663	22.02
308.877	81.41
309.091	-16.9
309.305	42.5
309.519	-16.9
309.733	44.54
309.947	-61.95
310.161	36.35
310.374	124.41
310.588	75.26
310.802	7.68
311.016	99.84
311.23	24.06
311.444	-6.66
311.658	24.06
311.872	83.45
312.085	116.22
312.299	77.31
312.513	56.83
312.727	-23.04
312.941	71.17
313.154	62.98
313.368	71.17
313.582	19.97
313.796	65.02
314.009	40.45
314.223	71.17
314.437	36.35
314.651	44.54
314.864	40.45
315.078	24.06
315.292	22.02
315.505	46.59
315.719	97.79
315.933	73.21
316.146	24.06
316.36	60.93
316.573	73.21
316.787	42.5
317.001	-6.66
317.214	69.12
317.428	48.64
317.641	-18.94
317.855	83.45
318.068	22.02
318.282	19.97
318.495	89.6
318.709	-8.7
318.922	118.27
319.136	118.27
319.349	97.79
319.563	-16.9
319.776	132.61
319.99	-23.04
320.203	83.45
320.417	105.98
320.63	3.58
320.843	122.37
321.057	28.16
321.27	34.3
321.483	56.83
321.697	-2.56
321.91	34.3
322.124	15.87
322.337	30.21
322.55	75.26
322.763	81.41
322.977	108.03
323.19	17.92
323.403	32.26
323.617	48.64
323.83	34.3
324.043	67.07
324.256	99.84
324.469	67.07
324.683	36.35
324.896	52.74
325.109	40.45
325.322	54.78
325.535	58.88
325.748	95.74
325.962	-29.18
326.175	1.54
326.388	65.02
326.601	17.92
326.814	-74.24
327.027	-2.56
327.24	32.26
327.453	40.45
327.666	83.45
327.879	95.74
328.092	19.97
328.305	81.41
328.518	50.69
328.731	-6.66
328.944	46.59
329.157	85.5
329.37	132.61
329.583	44.54
329.796	-47.62
330.009	58.88
330.222	1.54
330.435	83.45
330.648	22.02
330.861	-10.75
331.073	32.26
331.286	67.07
331.499	75.26
331.712	75.26
331.925	138.75
332.138	89.6
332.35	77.31
332.563	91.65
332.776	60.93
332.989	17.92
333.202	81.41
333.414	15.87
333.627	11.78
333.84	56.83
334.053	48.64
334.265	-4.61
334.478	105.98
334.691	17.92
334.903	19.97
335.116	9.73
335.329	15.87
335.541	26.11
335.754	132.61
335.966	3.58
336.179	89.6
336.392	28.16
336.604	40.45
336.817	105.98
337.029	-27.14
337.242	7.68
337.454	42.5
337.667	77.31
337.88	91.65
338.092	99.84
338.305	7.68
338.517	73.21
338.729	48.64
338.942	77.31
339.154	46.59
339.367	48.64
339.579	97.79
339.792	32.26
340.004	40.45
340.217	9.73
340.429	62.98
340.641	44.54
340.854	24.06
341.066	19.97
341.278	-0.51
341.491	73.21
341.703	77.31
341.915	67.07
342.128	77.31
342.34	54.78
342.552	50.69
342.764	77.31
342.977	73.21
343.189	40.45
343.401	15.87
343.613	9.73
343.826	22.02
344.038	11.78
344.25	65.02
344.462	26.11
344.674	99.84
344.886	9.73
345.099	42.5
345.311	65.02
345.523	48.64
345.735	17.92
345.947	34.3
346.159	-23.04
346.371	116.22
346.583	140.8
346.795	114.17
347.007	-14.85
347.219	110.08
347.431	26.11
347.643	105.98
347.855	5.63
348.067	81.41
348.279	9.73
348.491	24.06
348.703	124.41
348.915	44.54
349.127	93.69
349.339	32.26
349.551	34.3
349.763	40.45
349.975	97.79
350.187	32.26
350.399	85.5
350.61	58.88
350.822	-49.66
351.034	146.94
351.246	48.64
351.458	-0.51
351.669	9.73
351.881	3.58
352.093	81.41
352.305	-45.57
352.517	-45.57
352.728	118.27
352.94	-6.66
353.152	142.85
353.363	44.54
353.575	30.21
353.787	83.45
353.999	36.35
354.21	105.98
354.422	77.31
354.633	-74.24
354.845	40.45
355.057	44.54
355.268	28.16
355.48	46.59
355.692	48.64
355.903	19.97
356.115	56.83
356.326	99.84
356.538	65.02
356.749	-29.18
356.961	77.31
357.172	-0.51
357.384	44.54
357.595	65.02
357.807	7.68
358.018	75.26
358.23	87.55
358.441	138.75
358.653	73.21
358.864	26.11
359.075	7.68
359.287	91.65
359.498	116.22
359.709	56.83
359.921	38.4
360.132	40.45
360.344	56.83
360.555	60.93
360.766	101.89
360.977	48.64
361.189	42.5
361.4	15.87
361.611	101.89
361.823	126.46
362.034	56.83
362.245	101.89
362.456	40.45
362.667	56.83
362.879	9.73
363.09	24.06
363.301	134.65
363.512	42.5
363.723	28.16
363.935	67.07
364.146	73.21
364.357	83.45
364.568	126.46
364.779	38.4
364.99	204.28
365.201	15.87
365.412	48.64
365.623	48.64
365.834	42.5
366.045	71.17
366.256	112.13
366.467	126.46
366.678	85.5
366.889	52.74
367.1	58.88
367.311	97.79
367.522	60.93
367.733	89.6
367.944	75.26
368.155	69.12
368.366	48.64
368.577	138.75
368.788	97.79
368.999	24.06
369.209	60.93
369.42	99.84
369.631	81.41
369.842	-35.33
370.053	32.26
370.264	120.32
370.474	42.5
370.685	65.02
370.896	97.79
371.107	153.09
371.317	42.5
371.528	81.41
371.739	75.26
371.95	73.21
372.16	75.26
372.371	24.06
372.582	-4.61
372.792	75.26
373.003	97.79
373.214	95.74
373.424	48.64
373.635	89.6
373.846	97.79
374.056	9.73
374.267	73.21
374.477	130.56
374.688	89.6
374.898	11.78
375.109	-70.14
375.319	-4.61
375.53	77.31
375.74	-66.05
375.951	75.26
376.161	42.5
376.372	85.5
376.582	58.88
376.793	95.74
377.003	15.87
377.214	124.41
377.424	42.5
377.635	-14.85
377.845	32.26
378.055	112.13
378.266	73.21
378.476	146.94
378.686	73.21
378.897	50.69
379.107	77.31
379.317	9.73
379.528	60.93
379.738	99.84
379.948	7.68
380.158	71.17
380.369	11.78
380.579	124.41
380.789	17.92
380.999	99.84
381.21	83.45
381.42	44.54
381.63	24.06
381.84	97.79
382.05	75.26
382.261	97.79
382.471	69.12
382.681	7.68
382.891	91.65
383.101	36.35
383.311	56.83
383.521	34.3
383.731	34.3
383.941	118.27
384.151	101.89
384.361	40.45
384.571	52.74
384.781	126.46
384.991	138.75
385.201	28.16
385.411	81.41
385.621	108.03
385.831	-31.23
386.041	138.75
386.251	56.83
386.461	91.65
386.671	65.02
386.881	42.5
387.091	1.54
387.301	38.4
387.511	99.84
387.72	60.93
387.93	48.64
388.14	52.74
388.35	11.78
388.56	50.69
388.769	91.65
388.979	-18.94
389.189	77.31
389.399	15.87
389.609	110.08
389.818	148.99
390.028	42.5
390.238	40.45
390.447	58.88
390.657	134.65
390.867	42.5
391.076	32.26
391.286	56.83
391.496	101.89
391.705	42.5
391.915	79.36
392.125	34.3
392.334	81.41
392.544	89.6
392.753	136.7
392.963	60.93
393.172	60.93
393.382	24.06
393.591	101.89
393.801	116.22
394.01	153.09
394.22	101.89
394.429	56.83
394.639	17.92
394.848	155.13
395.058	77.31
395.267	32.26
395.477	69.12
395.686	9.73
395.895	89.6
396.105	165.37
396.314	99.84
396.524	52.74
396.733	50.69
396.942	65.02
397.152	62.98
397.361	52.74
397.57	15.87
397.78	114.17
397.989	108.03
398.198	181.76
398.407	105.98
398.617	93.69
398.826	93.69
399.035	138.75
399.244	87.55
399.453	130.56
399.663	112.13
399.872	46.59
400.081	83.45
400.29	114.17
400.499	140.8
400.708	89.6
400.917	62.98
401.127	155.13
401.336	24.06
401.545	146.94
401.754	89.6
401.963	134.65
402.172	124.41
402.381	132.61
402.59	140.8
402.799	157.18
403.008	89.6
403.217	130.56
403.426	189.95
403.635	130.56
403.844	163.33
404.053	171.52
404.262	60.93
404.471	73.21
404.68	163.33
404.888	110.08
405.097	56.83
405.306	187.9
405.515	140.8
405.724	91.65
405.933	155.13
406.142	198.14
406.35	224.76
406.559	155.13
406.768	239.1
406.977	157.18
407.185	185.85
407.394	208.38
407.603	122.37
407.812	222.72
408.02	259.58
408.229	212.48
408.438	196.09
408.646	196.09
408.855	282.11
409.064	224.76
409.272	259.58
409.481	318.97
409.69	257.53
409.898	314.88
410.107	290.3
410.315	376.31
410.524	253.44
410.733	386.55
410.941	288.25
411.15	345.59
411.358	294.4
411.567	425.47
411.775	372.22
411.984	392.7
412.192	452.09
412.401	417.27
412.609	443.9
412.818	439.8
413.026	409.08
413.234	568.82
413.443	542.2
413.651	503.29
413.86	529.91
414.068	583.16
414.276	583.16
414.485	583.16
414.693	599.54
414.901	650.74
415.11	720.37
415.318	716.28
415.526	689.65
415.734	658.93
415.943	679.41
416.151	730.61
416.359	806.39
416.567	790
416.776	814.58
416.984	878.07
417.192	955.89
417.4	826.87
417.608	871.92
417.817	947.7
418.025	1052.14
418.233	1101.3
418.441	998.9
418.649	1127.92
418.857	1134.06
419.065	1172.97
419.273	1146.35
419.481	1234.41
419.689	1308.14
419.897	1381.87
420.105	1322.48
420.313	1408.49
420.521	1469.93
420.729	1465.83
420.937	1598.95
421.145	1582.57
421.353	1695.21
421.561	1805.8
421.769	1838.56
421.977	1877.48
422.185	1932.77
422.393	1981.92
422.601	2080.22
422.809	2043.36
423.017	2139.62
423.224	2235.87
423.432	2295.26
423.64	2366.94
423.848	2420.19
424.056	2436.57
424.263	2581.98
424.471	2526.68
424.679	2651.61
424.887	2711
425.094	2962.9
425.302	2840.02
425.51	2944.47
425.718	3206.61
425.925	3139.02
426.133	3243.47
426.341	3403.21
426.548	3474.89
426.756	3464.65
426.964	3767.75
427.171	3685.83
427.379	4046.27
427.586	3874.24
427.794	4103.62
428.001	4079.04
428.209	4392.38
428.417	4349.37
428.624	4709.82
428.832	4695.48
429.039	4648.38
429.247	4701.62
429.454	4824.5
429.662	5375.41
429.869	5064.11
430.076	5502.38
430.284	5066.16
430.491	5434.8
430.699	5924.26
430.906	5666.22
431.114	5938.6
431.321	6153.63
431.528	6188.45
431.736	6534.56
431.943	6972.82
432.15	6684.06
432.358	6888.85
432.565	7130.52
432.772	7171.47
432.979	7323.02
433.187	7581.07
433.394	7701.9
433.601	8019.33
433.808	8265.09
434.016	8338.82
434.223	8623.48
434.43	8938.87
434.637	8760.7
434.844	9416.05
435.052	9493.87
435.259	9518.45
435.466	9545.07
435.673	9495.92
435.88	10128.74
436.087	10788.19
436.294	10577.25
436.501	10345.83
436.708	10689.88
436.915	11021.66
437.122	11541.84
437.329	11443.54
437.537	11732.3
437.743	11851.08
437.95	11840.84
438.157	12397.89
438.364	12862.78
438.571	12864.83
438.778	12801.34
438.985	14345.51
439.192	13665.58
439.399	14269.73
439.606	13583.66
439.813	14566.69
440.02	15146.26
440.227	14943.52
440.433	14748.96
440.64	15418.64
440.847	15351.06
441.054	15619.35
441.261	16833.79
441.467	16471.3
441.674	16715.01
441.881	17374.45
442.088	17263.86
442.294	16977.15
442.501	17808.62
442.708	18097.39
442.914	18547.94
443.121	19512.53
443.328	18978.01
443.534	20380.87
443.741	19676.37
443.948	19274.97
444.154	20559.05
444.361	20440.26
444.568	20661.44
444.774	21081.28
444.981	21107.9
445.187	21916.85
445.394	22363.31
445.6	22125.74
445.807	24523.91
446.013	23096.48
446.22	23712.92
446.426	24679.56
446.633	24835.21
446.839	25896.05
447.046	24470.67
447.252	26438.76
447.459	25955.44
447.665	26049.65
447.871	27288.67
448.078	28413.01
448.284	27100.26
448.491	27524.19
448.697	28777.54
448.903	29467.71
449.11	29719.61
449.316	28865.61
449.522	29398.08
449.728	30084.15
449.935	30524.46
450.141	30667.82
450.347	31153.19
450.553	30368.82
450.76	30520.37
450.966	31599.65
451.172	31540.25
451.378	32080.92
451.584	31122.47
451.791	31888.41
451.997	32304.15
452.203	32648.21
452.409	32984.07
452.615	32218.13
452.821	31556.64
453.027	31061.03
453.233	32314.39
453.44	31362.08
453.646	31661.08
453.852	31872.03
454.058	32513.04
454.264	31507.49
454.47	32236.56
454.676	31470.62
454.882	32537.62
455.088	29758.52
455.294	29936.7
455.5	30561.33
455.705	30987.3
455.911	29697.08
456.117	29129.8
456.323	28564.56
456.529	27634.78
456.735	28554.32
456.941	27681.88
457.147	27497.56
457.352	26385.52
457.558	25967.73
457.764	26246.26
457.97	25631.86
458.176	25033.86
458.381	25246.85
458.587	24140.94
458.793	24159.38
458.999	22787.24
459.204	24474.76
459.41	23856.28
459.616	22211.76
459.821	21961.9
460.027	22222
460.233	21802.16
460.438	20696.26
460.644	20921.54
460.85	19963.09
461.055	19608.79
461.261	19713.24
461.466	17845.49
461.672	17755.38
461.878	18830.56
462.083	17560.82
462.289	17153.27
462.494	17241.34
462.7	16491.78
462.905	15842.57
463.111	16444.68
463.316	16467.2
463.522	16112.91
463.727	16100.62
463.932	15971.6
464.138	15772.94
464.343	16080.14
464.549	15652.11
464.754	16170.25
464.959	15826.19
465.165	15713.55
465.37	15101.21
465.575	14605.6
465.781	15228.18
465.986	15179.03
466.191	14853.41
466.397	14572.83
466.602	13841.71
466.807	14445.86
467.012	14241.06
467.218	14308.65
467.423	14007.59
467.628	14148.9
467.833	14468.39
468.038	14126.38
468.244	13788.46
