Data from USB4F104151__140__14-19-13-413.txt Node

Date: Thu Mar 13 14:19:13 EDT 2025
User: louis
Spectrometer: USB4F10415
Trigger mode: 4
Integration Time (sec): 2.000000E-2
Scans to average: 1
Electric dark correction enabled: true
Nonlinearity correction enabled: false
Boxcar width: 0
XAxis mode: Wavelengths
Number of Pixels in Spectrum: 3648
>>>>>Begin Spectral Data<<<<<
178.204	-141.82
178.424	-141.82
178.644	-141.82
178.864	-129.53
179.084	-98.81
179.304	-16.9
179.524	50.69
179.744	-16.9
179.964	73.21
180.184	-45.57
180.404	36.35
180.624	-53.76
180.844	28.16
181.064	-90.62
181.283	116.22
181.503	-64
181.723	-16.9
181.943	40.45
182.163	9.73
182.383	5.63
182.602	81.41
182.822	81.41
183.042	50.69
183.262	42.5
183.482	-16.9
183.701	44.54
183.921	50.69
184.141	-45.57
184.361	26.11
184.58	7.68
184.8	26.11
185.02	97.79
185.239	42.5
185.459	75.26
185.679	75.26
185.898	-45.57
186.118	7.68
186.338	3.58
186.557	48.64
186.777	1.54
186.997	110.08
187.216	24.06
187.436	50.69
187.655	-8.7
187.875	40.45
188.095	15.87
188.314	75.26
188.534	15.87
188.753	17.92
188.973	-4.61
189.192	9.73
189.412	48.64
189.631	22.02
189.851	9.73
190.07	44.54
190.29	-49.66
190.509	40.45
190.729	7.68
190.948	56.83
191.168	108.03
191.387	40.45
191.607	-18.94
191.826	30.21
192.045	58.88
192.265	24.06
192.484	32.26
192.704	75.26
192.923	7.68
193.142	118.27
193.362	44.54
193.581	42.5
193.8	7.68
194.02	65.02
194.239	40.45
194.458	-12.8
194.678	-43.52
194.897	3.58
195.116	3.58
195.335	-8.7
195.555	40.45
195.774	36.35
195.993	56.83
196.212	73.21
196.432	15.87
196.651	50.69
196.87	-25.09
197.089	173.57
197.308	7.68
197.528	9.73
197.747	-14.85
197.966	1.54
198.185	87.55
198.404	-8.7
198.623	24.06
198.842	-14.85
199.062	40.45
199.281	73.21
199.5	9.73
199.719	105.98
199.938	-43.52
200.157	1.54
200.376	-33.28
200.595	89.6
200.814	-4.61
201.033	65.02
201.252	60.93
201.471	-8.7
201.69	44.54
201.909	-33.28
202.128	36.35
202.347	26.11
202.566	5.63
202.785	-0.51
203.004	-23.04
203.223	-41.47
203.442	-0.51
203.661	19.97
203.879	-39.42
204.098	30.21
204.317	-8.7
204.536	56.83
204.755	56.83
204.974	77.31
205.193	-8.7
205.411	42.5
205.63	-4.61
205.849	-49.66
206.068	28.16
206.287	15.87
206.505	19.97
206.724	91.65
206.943	3.58
207.162	42.5
207.381	-20.99
207.599	28.16
207.818	36.35
208.037	-49.66
208.255	52.74
208.474	-6.66
208.693	19.97
208.911	81.41
209.13	99.84
209.349	26.11
209.567	65.02
209.786	42.5
210.005	9.73
210.223	-4.61
210.442	32.26
210.661	-0.51
210.879	1.54
211.098	9.73
211.316	-16.9
211.535	114.17
211.753	30.21
211.972	3.58
212.191	-20.99
212.409	54.78
212.628	44.54
212.846	-35.33
213.065	13.82
213.283	81.41
213.502	65.02
213.72	17.92
213.938	40.45
214.157	-0.51
214.375	97.79
214.594	48.64
214.812	11.78
215.031	-6.66
215.249	-0.51
215.467	-14.85
215.686	28.16
215.904	73.21
216.122	-4.61
216.341	108.03
216.559	24.06
216.778	83.45
216.996	62.98
217.214	-8.7
217.432	3.58
217.651	26.11
217.869	22.02
218.087	11.78
218.306	-45.57
218.524	67.07
218.742	28.16
218.96	42.5
219.179	-12.8
219.397	13.82
219.615	85.5
219.833	3.58
220.051	-102.91
220.27	97.79
220.488	-6.66
220.706	56.83
220.924	-45.57
221.142	-0.51
221.36	34.3
221.578	1.54
221.796	-4.61
222.015	44.54
222.233	-23.04
222.451	151.04
222.669	-16.9
222.887	32.26
223.105	56.83
223.323	-68.09
223.541	44.54
223.759	11.78
223.977	36.35
224.195	42.5
224.413	15.87
224.631	95.74
224.849	-8.7
225.067	81.41
225.285	32.26
225.503	-33.28
225.721	19.97
225.939	83.45
226.157	-33.28
226.375	40.45
226.592	34.3
226.81	24.06
227.028	34.3
227.246	40.45
227.464	-55.81
227.682	40.45
227.9	38.4
228.117	30.21
228.335	52.74
228.553	34.3
228.771	26.11
228.989	71.17
229.206	-10.75
229.424	-14.85
229.642	-0.51
229.86	42.5
230.077	40.45
230.295	-4.61
230.513	-0.51
230.731	50.69
230.948	-0.51
231.166	50.69
231.384	85.5
231.601	26.11
231.819	89.6
232.037	118.27
232.254	-98.81
232.472	40.45
232.689	50.69
232.907	146.94
233.125	-16.9
233.342	56.83
233.56	-0.51
233.777	122.37
233.995	87.55
234.213	77.31
234.43	99.84
234.648	44.54
234.865	-49.66
235.083	11.78
235.3	-16.9
235.518	15.87
235.735	52.74
235.953	34.3
236.17	81.41
236.388	-0.51
236.605	17.92
236.822	73.21
237.04	24.06
237.257	65.02
237.475	19.97
237.692	38.4
237.909	85.5
238.127	1.54
238.344	60.93
238.562	36.35
238.779	-14.85
238.996	15.87
239.214	-20.99
239.431	58.88
239.648	-47.62
239.865	44.54
240.083	3.58
240.3	56.83
240.517	-33.28
240.735	3.58
240.952	75.26
241.169	77.31
241.386	-31.23
241.603	40.45
241.821	-55.81
242.038	24.06
242.255	-31.23
242.472	75.26
242.689	69.12
242.907	15.87
243.124	15.87
243.341	60.93
243.558	48.64
243.775	-39.42
243.992	67.07
244.209	93.69
244.426	85.5
244.643	30.21
244.86	-18.94
245.078	1.54
245.295	73.21
245.512	112.13
245.729	-12.8
245.946	-16.9
246.163	48.64
246.38	50.69
246.597	-41.47
246.814	77.31
247.031	-2.56
247.248	-23.04
247.464	50.69
247.681	32.26
247.898	34.3
248.115	50.69
248.332	-16.9
248.549	79.36
248.766	44.54
248.983	73.21
249.2	-16.9
249.417	91.65
249.633	-0.51
249.85	24.06
250.067	-0.51
250.284	54.78
250.501	-0.51
250.717	101.89
250.934	-4.61
251.151	-0.51
251.368	56.83
251.585	58.88
251.801	36.35
252.018	-39.42
252.235	34.3
252.451	-2.56
252.668	-6.66
252.885	48.64
253.102	26.11
253.318	65.02
253.535	28.16
253.752	-4.61
253.968	73.21
254.185	36.35
254.401	17.92
254.618	103.93
254.835	17.92
255.051	17.92
255.268	42.5
255.484	-16.9
255.701	46.59
255.917	44.54
256.134	-33.28
256.351	9.73
256.567	3.58
256.784	-0.51
257	-41.47
257.217	36.35
257.433	30.21
257.65	26.11
257.866	-12.8
258.082	48.64
258.299	32.26
258.515	17.92
258.732	24.06
258.948	7.68
259.165	-31.23
259.381	-78.33
259.597	17.92
259.814	-8.7
260.03	-14.85
260.246	30.21
260.463	50.69
260.679	19.97
260.895	34.3
261.112	36.35
261.328	-6.66
261.544	-43.52
261.761	85.5
261.977	7.68
262.193	1.54
262.409	52.74
262.626	42.5
262.842	46.59
263.058	30.21
263.274	46.59
263.49	-33.28
263.707	32.26
263.923	67.07
264.139	22.02
264.355	34.3
264.571	77.31
264.787	46.59
265.004	85.5
265.22	15.87
265.436	-49.66
265.652	-16.9
265.868	26.11
266.084	24.06
266.3	40.45
266.516	22.02
266.732	40.45
266.948	65.02
267.164	50.69
267.38	73.21
267.596	81.41
267.812	151.04
268.028	-33.28
268.244	15.87
268.46	7.68
268.676	40.45
268.892	32.26
269.108	-37.38
269.324	-0.51
269.54	42.5
269.756	122.37
269.972	-20.99
270.188	65.02
270.403	19.97
270.619	9.73
270.835	-8.7
271.051	-8.7
271.267	93.69
271.483	-33.28
271.698	15.87
271.914	-37.38
272.13	24.06
272.346	75.26
272.562	24.06
272.777	130.56
272.993	75.26
273.209	24.06
273.425	24.06
273.64	73.21
273.856	40.45
274.072	-25.09
274.287	-4.61
274.503	89.6
274.719	-127.49
274.934	73.21
275.15	1.54
275.366	-12.8
275.581	34.3
275.797	89.6
276.012	36.35
276.228	-8.7
276.444	9.73
276.659	26.11
276.875	-14.85
277.09	-33.28
277.306	52.74
277.521	-4.61
277.737	7.68
277.952	60.93
278.168	54.78
278.383	3.58
278.599	32.26
278.814	30.21
279.03	24.06
279.245	26.11
279.461	-2.56
279.676	65.02
279.892	-39.42
280.107	67.07
280.322	-12.8
280.538	13.82
280.753	-37.38
280.969	-4.61
281.184	73.21
281.399	83.45
281.615	-27.14
281.83	-82.43
282.045	-8.7
282.26	-10.75
282.476	103.93
282.691	79.36
282.906	22.02
283.122	-0.51
283.337	-57.86
283.552	-4.61
283.767	9.73
283.983	22.02
284.198	-8.7
284.413	-14.85
284.628	13.82
284.843	40.45
285.058	-45.57
285.274	52.74
285.489	67.07
285.704	-8.7
285.919	-33.28
286.134	75.26
286.349	-12.8
286.564	69.12
286.779	56.83
286.995	48.64
287.21	3.58
287.425	67.07
287.64	-25.09
287.855	73.21
288.07	-4.61
288.285	28.16
288.5	60.93
288.715	7.68
288.93	97.79
289.145	26.11
289.36	91.65
289.575	52.74
289.79	44.54
290.004	3.58
290.219	42.5
290.434	11.78
290.649	5.63
290.864	-14.85
291.079	56.83
291.294	85.5
291.509	-12.8
291.724	40.45
291.938	26.11
292.153	58.88
292.368	28.16
292.583	101.89
292.798	40.45
293.012	71.17
293.227	42.5
293.442	32.26
293.657	48.64
293.871	52.74
294.086	5.63
294.301	105.98
294.516	67.07
294.73	56.83
294.945	50.69
295.16	34.3
295.374	42.5
295.589	19.97
295.804	9.73
296.018	65.02
296.233	40.45
296.447	65.02
296.662	15.87
296.877	89.6
297.091	-29.18
297.306	52.74
297.52	-20.99
297.735	50.69
297.949	-25.09
298.164	112.13
298.378	15.87
298.593	-33.28
298.807	-35.33
299.022	77.31
299.236	56.83
299.451	-4.61
299.665	40.45
299.88	-37.38
300.094	7.68
300.309	7.68
300.523	73.21
300.737	52.74
300.952	85.5
301.166	15.87
301.381	38.4
301.595	44.54
301.809	24.06
302.024	65.02
302.238	-16.9
302.452	7.68
302.667	-20.99
302.881	65.02
303.095	50.69
303.309	-33.28
303.524	15.87
303.738	34.3
303.952	-70.14
304.166	34.3
304.381	5.63
304.595	9.73
304.809	15.87
305.023	19.97
305.237	-16.9
305.452	50.69
305.666	1.54
305.88	34.3
306.094	36.35
306.308	1.54
306.522	42.5
306.736	69.12
306.95	7.68
307.164	19.97
307.379	50.69
307.593	15.87
307.807	42.5
308.021	36.35
308.235	48.64
308.449	-29.18
308.663	17.92
308.877	81.41
309.091	19.97
309.305	32.26
309.519	32.26
309.733	9.73
309.947	7.68
310.161	128.51
310.374	40.45
310.588	89.6
310.802	-25.09
311.016	52.74
311.23	60.93
311.444	120.32
311.658	-33.28
311.872	110.08
312.085	28.16
312.299	73.21
312.513	24.06
312.727	40.45
312.941	62.98
313.154	7.68
313.368	-14.85
313.582	52.74
313.796	89.6
314.009	89.6
314.223	65.02
314.437	40.45
314.651	130.56
314.864	40.45
315.078	22.02
315.292	-12.8
315.505	32.26
315.719	50.69
315.933	36.35
316.146	-2.56
316.36	71.17
316.573	13.82
316.787	56.83
317.001	56.83
317.214	-8.7
317.428	40.45
317.641	-16.9
317.855	118.27
318.068	67.07
318.282	-8.7
318.495	40.45
318.709	79.36
318.922	-16.9
319.136	128.51
319.349	83.45
319.563	7.68
319.776	-2.56
319.99	17.92
320.203	130.56
320.417	36.35
320.63	118.27
320.843	15.87
321.057	38.4
321.27	32.26
321.483	77.31
321.697	89.6
321.91	1.54
322.124	26.11
322.337	15.87
322.55	65.02
322.763	-49.66
322.977	65.02
323.19	-12.8
323.403	15.87
323.617	77.31
323.83	81.41
324.043	28.16
324.256	105.98
324.469	17.92
324.683	34.3
324.896	32.26
325.109	19.97
325.322	-37.38
325.535	36.35
325.748	-4.61
325.962	44.54
326.175	99.84
326.388	52.74
326.601	114.17
326.814	54.78
327.027	44.54
327.24	75.26
327.453	-37.38
327.666	-14.85
327.879	15.87
328.092	34.3
328.305	32.26
328.518	28.16
328.731	7.68
328.944	-31.23
329.157	-20.99
329.37	24.06
329.583	19.97
329.796	56.83
330.009	-27.14
330.222	83.45
330.435	60.93
330.648	44.54
330.861	19.97
331.073	15.87
331.286	38.4
331.499	81.41
331.712	13.82
331.925	89.6
332.138	-29.18
332.35	75.26
332.563	-20.99
332.776	65.02
332.989	28.16
333.202	65.02
333.414	-10.75
333.627	9.73
333.84	1.54
334.053	50.69
334.265	46.59
334.478	-8.7
334.691	-12.8
334.903	1.54
335.116	34.3
335.329	81.41
335.541	7.68
335.754	34.3
335.966	34.3
336.179	32.26
336.392	36.35
336.604	-45.57
336.817	83.45
337.029	77.31
337.242	48.64
337.454	62.98
337.667	24.06
337.88	36.35
338.092	48.64
338.305	42.5
338.517	-39.42
338.729	48.64
338.942	65.02
339.154	-31.23
339.367	52.74
339.579	122.37
339.792	58.88
340.004	28.16
340.217	-8.7
340.429	40.45
340.641	40.45
340.854	9.73
341.066	24.06
341.278	24.06
341.491	99.84
341.703	-8.7
341.915	-4.61
342.128	3.58
342.34	1.54
342.552	40.45
342.764	-4.61
342.977	48.64
343.189	62.98
343.401	48.64
343.613	32.26
343.826	36.35
344.038	75.26
344.25	-18.94
344.462	-6.66
344.674	56.83
344.886	3.58
345.099	50.69
345.311	77.31
345.523	11.78
345.735	-4.61
345.947	48.64
346.159	22.02
346.371	77.31
346.583	-2.56
346.795	130.56
347.007	81.41
347.219	40.45
347.431	17.92
347.643	114.17
347.855	1.54
348.067	24.06
348.279	44.54
348.491	48.64
348.703	71.17
348.915	48.64
349.127	24.06
349.339	-0.51
349.551	89.6
349.763	44.54
349.975	28.16
350.187	67.07
350.399	34.3
350.61	50.69
350.822	58.88
351.034	75.26
351.246	60.93
351.458	42.5
351.669	34.3
351.881	62.98
352.093	130.56
352.305	-2.56
352.517	24.06
352.728	163.33
352.94	36.35
353.152	69.12
353.363	11.78
353.575	7.68
353.787	40.45
353.999	-16.9
354.21	67.07
354.422	34.3
354.633	36.35
354.845	38.4
355.057	28.16
355.268	42.5
355.48	114.17
355.692	-0.51
355.903	54.78
356.115	19.97
356.326	3.58
356.538	26.11
356.749	52.74
356.961	56.83
357.172	54.78
357.384	114.17
357.595	65.02
357.807	60.93
358.018	34.3
358.23	-41.47
358.441	17.92
358.653	52.74
358.864	-29.18
359.075	15.87
359.287	40.45
359.498	50.69
359.709	15.87
359.921	38.4
360.132	52.74
360.344	73.21
360.555	26.11
360.766	28.16
360.977	-2.56
361.189	62.98
361.4	15.87
361.611	97.79
361.823	67.07
362.034	65.02
362.245	-37.38
362.456	32.26
362.667	48.64
362.879	97.79
363.09	-23.04
363.301	65.02
363.512	40.45
363.723	50.69
363.935	7.68
364.146	-8.7
364.357	34.3
364.568	34.3
364.779	1.54
364.99	9.73
365.201	60.93
365.412	7.68
365.623	-0.51
365.834	83.45
366.045	17.92
366.256	26.11
366.467	-8.7
366.678	30.21
366.889	52.74
367.1	15.87
367.311	77.31
367.522	24.06
367.733	50.69
367.944	48.64
368.155	-31.23
368.366	118.27
368.577	56.83
368.788	28.16
368.999	7.68
369.209	-14.85
369.42	134.65
369.631	81.41
369.842	-20.99
370.053	17.92
370.264	32.26
370.474	73.21
370.685	-2.56
370.896	56.83
371.107	58.88
371.317	110.08
371.528	-29.18
371.739	110.08
371.95	15.87
372.16	65.02
372.371	-0.51
372.582	26.11
372.792	146.94
373.003	-4.61
373.214	62.98
373.424	-14.85
373.635	9.73
373.846	26.11
374.056	15.87
374.267	48.64
374.477	144.89
374.688	24.06
374.898	38.4
375.109	81.41
375.319	-18.94
375.53	24.06
375.74	38.4
375.951	-4.61
376.161	108.03
376.372	17.92
376.582	7.68
376.793	-4.61
377.003	-37.38
377.214	1.54
377.424	3.58
377.635	42.5
377.845	50.69
378.055	38.4
378.266	-4.61
378.476	91.65
378.686	19.97
378.897	65.02
379.107	91.65
379.317	105.98
379.528	48.64
379.738	83.45
379.948	32.26
380.158	73.21
380.369	58.88
380.579	50.69
380.789	67.07
380.999	103.93
381.21	142.85
381.42	44.54
381.63	71.17
381.84	69.12
382.05	71.17
382.261	56.83
382.471	101.89
382.681	48.64
382.891	91.65
383.101	58.88
383.311	-2.56
383.521	56.83
383.731	62.98
383.941	155.13
384.151	75.26
384.361	32.26
384.571	77.31
384.781	157.18
384.991	97.79
385.201	73.21
385.411	124.41
385.621	1.54
385.831	-0.51
386.041	44.54
386.251	48.64
386.461	73.21
386.671	52.74
386.881	7.68
387.091	24.06
387.301	34.3
387.511	81.41
387.72	48.64
387.93	103.93
388.14	81.41
388.35	19.97
388.56	138.75
388.769	99.84
388.979	77.31
389.189	130.56
389.399	-6.66
389.609	118.27
389.818	89.6
390.028	105.98
390.238	69.12
390.447	56.83
390.657	54.78
390.867	34.3
391.076	11.78
391.286	28.16
391.496	60.93
391.705	65.02
391.915	60.93
392.125	36.35
392.334	50.69
392.544	108.03
392.753	28.16
392.963	67.07
393.172	116.22
393.382	32.26
393.591	65.02
393.801	81.41
394.01	97.79
394.22	81.41
394.429	34.3
394.639	34.3
394.848	69.12
395.058	30.21
395.267	11.78
395.477	48.64
395.686	99.84
395.895	11.78
396.105	163.33
396.314	56.83
396.524	126.46
396.733	83.45
396.942	110.08
397.152	124.41
397.361	114.17
397.57	44.54
397.78	97.79
397.989	24.06
398.198	105.98
398.407	75.26
398.617	65.02
398.826	171.52
399.035	30.21
399.244	73.21
399.453	40.45
399.663	56.83
399.872	167.42
400.081	114.17
400.29	142.85
400.499	77.31
400.708	122.37
400.917	105.98
401.127	91.65
401.336	95.74
401.545	118.27
401.754	148.99
401.963	58.88
402.172	93.69
402.381	124.41
402.59	71.17
402.799	130.56
403.008	114.17
403.217	101.89
403.426	108.03
403.635	58.88
403.844	105.98
404.053	112.13
404.262	165.37
404.471	81.41
404.68	140.8
404.888	196.09
405.097	138.75
405.306	196.09
405.515	175.61
405.724	140.8
405.933	173.57
406.142	146.94
406.35	165.37
406.559	151.04
406.768	192
406.977	224.76
407.185	110.08
407.394	148.99
407.603	208.38
407.812	220.67
408.02	255.48
408.229	232.96
408.438	237.05
408.646	185.85
408.855	228.86
409.064	232.96
409.272	228.86
409.481	278.01
409.69	253.44
409.898	243.2
410.107	286.2
410.315	230.91
410.524	257.53
410.733	269.82
410.941	224.76
411.15	269.82
411.358	249.34
411.567	302.59
411.775	284.16
411.984	374.27
412.192	364.03
412.401	368.12
412.609	376.31
412.818	327.16
413.026	437.75
413.234	419.32
413.443	374.27
413.651	527.86
413.86	507.38
414.068	531.96
414.276	615.93
414.485	511.48
414.693	521.72
414.901	562.68
415.11	574.97
415.318	577.02
415.526	536.06
415.734	679.41
415.943	640.5
416.151	794.1
416.359	706.04
416.567	650.74
416.776	757.24
416.984	744.95
417.192	837.11
417.4	808.44
417.608	806.39
417.817	859.63
418.025	845.3
418.233	1002.99
418.441	882.16
418.649	980.47
418.857	1035.76
419.065	1093.1
419.273	1129.97
419.481	1027.57
419.689	1195.5
419.897	1254.89
420.105	1127.92
420.313	1320.43
420.521	1361.39
420.729	1359.34
420.937	1375.72
421.145	1539.56
421.353	1512.94
421.561	1553.9
421.769	1621.48
421.977	1744.36
422.185	1766.89
422.393	1783.27
422.601	1881.57
422.809	1854.95
423.017	1924.58
423.224	2016.74
423.432	2104.8
423.64	2033.12
423.848	2174.43
424.056	2112.99
424.263	2282.97
424.471	2260.45
424.679	2285.02
424.887	2481.63
425.094	2504.15
425.302	2686.42
425.51	2729.43
425.718	2858.45
425.925	2868.69
426.133	2874.84
426.341	3161.55
426.548	3280.33
426.756	3141.07
426.964	3309.01
427.171	3374.54
427.379	3489.23
427.586	3591.63
427.794	3749.32
428.001	3970.5
428.209	3997.12
428.417	3825.09
428.624	4206.02
428.832	4357.57
429.039	4349.37
429.247	4212.16
429.454	4568.51
429.662	4869.56
429.869	4496.83
430.076	4922.8
430.284	4556.22
430.491	4955.57
430.699	5375.41
430.906	5295.54
431.114	5242.29
431.321	5490.09
431.528	5746.09
431.736	5907.88
431.943	6120.87
432.15	6061.48
432.358	6135.2
432.565	6610.33
432.772	6397.34
432.979	6753.69
433.187	6856.09
433.394	6950.29
433.601	7396.75
433.808	7396.75
434.016	7308.69
434.223	7767.43
434.43	8121.73
434.637	7953.8
434.844	8390.02
435.052	8584.57
435.259	8504.7
435.466	8637.82
435.673	8592.76
435.88	9194.87
436.087	9608.56
436.294	9583.98
436.501	9502.06
436.708	9475.44
436.915	9792.87
437.122	10296.67
437.329	10208.61
437.537	10382.69
437.743	10898.78
437.95	10626.4
438.157	11486.54
438.364	11685.2
438.571	11441.49
438.778	11590.99
438.985	12959.03
439.192	12158.28
439.399	12541.25
439.606	12418.37
439.813	13151.54
440.02	13569.33
440.227	13806.89
440.433	13477.17
440.64	13776.17
440.847	13927.72
441.054	14142.76
441.261	15215.9
441.467	14947.61
441.674	15219.99
441.881	15592.72
442.088	15580.43
442.294	15723.79
442.501	15985.93
442.708	16182.54
442.914	16973.05
443.121	17855.73
443.328	17079.55
443.534	18523.37
443.741	17745.14
443.948	17599.73
444.154	18314.47
444.361	18795.75
444.568	18719.97
444.774	18732.26
444.981	19035.36
445.187	19496.15
445.394	20528.33
445.6	20153.55
445.807	22154.41
446.013	21304.51
446.22	21603.51
446.426	22404.27
446.633	22361.26
446.839	23358.62
447.046	22199.47
447.252	23641.24
447.459	23932.05
447.665	23538.84
447.871	24671.37
448.078	25539.71
448.284	24513.67
448.491	25259.13
448.697	26055.79
448.903	26371.18
449.11	26567.79
449.316	25713.78
449.522	26360.94
449.728	27309.15
449.935	27761.75
450.141	27444.32
450.347	28320.85
450.553	27309.15
450.76	27675.74
450.966	28453.97
451.172	27716.7
451.378	28949.57
451.584	28331.09
451.791	29389.89
451.997	29060.16
452.203	29611.07
452.409	29670.46
452.615	29434.94
452.821	28234.83
453.027	28427.34
453.233	29457.47
453.44	28251.22
453.646	28841.03
453.852	29072.45
454.058	29166.66
454.264	28632.14
454.47	28867.66
454.676	28185.68
454.882	29398.08
455.088	26563.69
455.294	27184.23
455.5	27792.47
455.705	28015.7
455.911	26950.76
456.117	26141.81
456.323	26066.03
456.529	24679.56
456.735	25818.23
456.941	24931.46
457.147	24544.39
457.352	23719.06
457.558	23706.77
457.764	23559.32
457.97	23116.96
458.176	22762.66
458.381	23059.62
458.587	21787.83
458.793	21750.96
458.999	20745.41
459.204	21990.58
459.41	21435.58
459.616	20069.58
459.821	20036.81
460.027	20040.91
460.233	19639.51
460.438	18738.4
460.644	19131.61
460.85	17880.3
461.055	17685.75
461.261	17794.29
461.466	16395.53
461.672	15947.02
461.878	16964.86
462.083	15818
462.289	15701.26
462.494	15699.22
462.7	14794.01
462.905	14204.2
463.111	14916.89
463.316	14851.36
463.522	14249.25
463.727	14501.15
463.932	14431.52
464.138	14466.34
464.343	14402.85
464.549	14085.42
464.754	14427.43
464.959	14075.18
465.165	14253.35
465.37	13600.05
465.575	13413.68
465.781	13968.68
465.986	13770.03
466.191	13270.33
466.397	13155.64
466.602	12494.15
466.807	13196.6
467.012	12856.64
467.218	12827.96
467.423	12657.98
467.628	12791.1
467.833	13376.82
468.038	12750.14
468.244	12444.99
