Data from USB4F104151__181__14-20-12-896.txt Node

Date: Thu Mar 13 14:20:12 EDT 2025
User: louis
Spectrometer: USB4F10415
Trigger mode: 4
Integration Time (sec): 2.000000E-2
Scans to average: 1
Electric dark correction enabled: true
Nonlinearity correction enabled: false
Boxcar width: 0
XAxis mode: Wavelengths
Number of Pixels in Spectrum: 3648
>>>>>Begin Spectral Data<<<<<
178.204	-111.44
178.424	-111.44
178.644	-111.44
178.864	-123.73
179.084	-99.16
179.304	-9.05
179.524	1.19
179.744	-66.39
179.964	52.39
180.184	-13.14
180.404	19.63
180.624	15.53
180.844	23.72
181.064	-25.43
181.283	-41.81
181.503	-17.24
181.723	60.59
181.943	40.11
182.163	60.59
182.383	19.63
182.602	50.35
182.822	23.72
183.042	33.96
183.262	-17.24
183.482	36.01
183.701	44.2
183.921	40.11
184.141	-45.91
184.361	-29.52
184.58	81.07
184.8	-66.39
185.02	3.24
185.239	52.39
185.459	-23.38
185.679	101.55
185.898	15.53
186.118	3.24
186.338	40.11
186.557	17.58
186.777	25.77
186.997	38.06
187.216	21.67
187.436	11.43
187.655	40.11
187.875	85.16
188.095	-23.38
188.314	105.64
188.534	74.92
188.753	-17.24
188.973	25.77
189.192	87.21
189.412	50.35
189.631	9.39
189.851	36.01
190.07	50.35
190.29	7.34
190.509	-21.33
190.729	-29.52
190.948	72.87
191.168	138.41
191.387	-25.43
191.607	40.11
191.826	7.34
192.045	-17.24
192.265	36.01
192.484	87.21
192.704	-45.91
192.923	-0.85
193.142	48.3
193.362	17.58
193.581	109.74
193.8	42.15
194.02	31.91
194.239	19.63
194.458	-41.81
194.678	48.3
194.897	-17.24
195.116	-19.29
195.335	56.49
195.555	-9.05
195.774	42.15
195.993	-60.24
196.212	23.72
196.432	-17.24
196.651	23.72
196.87	58.54
197.089	126.12
197.308	15.53
197.528	58.54
197.747	-25.43
197.966	31.91
198.185	3.24
198.404	-0.85
198.623	31.91
198.842	-29.52
199.062	25.77
199.281	72.87
199.5	-103.25
199.719	42.15
199.938	40.11
200.157	-13.14
200.376	60.59
200.595	33.96
200.814	5.29
201.033	-11.09
201.252	3.24
201.471	70.83
201.69	76.97
201.909	-31.57
202.128	-25.43
202.347	-4.95
202.566	-13.14
202.785	1.19
203.004	-58.2
203.223	33.96
203.442	1.19
203.661	-37.72
203.879	62.63
204.098	83.11
204.317	-25.43
204.536	64.68
204.755	23.72
204.974	27.82
205.193	-33.62
205.411	83.11
205.63	54.44
205.849	62.63
206.068	50.35
206.287	-19.29
206.505	9.39
206.724	7.34
206.943	52.39
207.162	19.63
207.381	42.15
207.599	48.3
207.818	31.91
208.037	15.53
208.255	-25.43
208.474	97.45
208.693	31.91
208.911	17.58
209.13	58.54
209.349	25.77
209.567	40.11
209.786	52.39
210.005	50.35
210.223	23.72
210.442	-9.05
210.661	50.35
210.879	66.73
211.098	25.77
211.316	72.87
211.535	31.91
211.753	60.59
211.972	79.02
212.191	31.91
212.409	62.63
212.628	-31.57
212.846	-0.85
213.065	11.43
213.283	15.53
213.502	-0.85
213.72	-17.24
213.938	33.96
214.157	-21.33
214.375	-80.72
214.594	109.74
214.812	64.68
215.031	50.35
215.249	29.87
215.467	7.34
215.686	9.39
215.904	5.29
216.122	23.72
216.341	115.88
216.559	38.06
216.778	44.2
216.996	17.58
217.214	-11.09
217.432	93.35
217.651	3.24
217.869	85.16
218.087	-31.57
218.306	-0.85
218.524	97.45
218.742	64.68
218.96	15.53
219.179	-4.95
219.397	29.87
219.615	44.2
219.833	68.78
220.051	7.34
220.27	74.92
220.488	-7
220.706	19.63
220.924	56.49
221.142	-7
221.36	68.78
221.578	89.26
221.796	48.3
222.015	9.39
222.233	7.34
222.451	44.2
222.669	36.01
222.887	-15.19
223.105	-45.91
223.323	9.39
223.541	40.11
223.759	-11.09
223.977	19.63
224.195	33.96
224.413	5.29
224.631	85.16
224.849	36.01
225.067	40.11
225.285	58.54
225.503	109.74
225.721	-52.05
225.939	-21.33
226.157	68.78
226.375	115.88
226.592	60.59
226.81	15.53
227.028	89.26
227.246	40.11
227.464	44.2
227.682	23.72
227.9	23.72
228.117	79.02
228.335	74.92
228.553	3.24
228.771	33.96
228.989	66.73
229.206	15.53
229.424	7.34
229.642	7.34
229.86	-29.52
230.077	66.73
230.295	-9.05
230.513	122.02
230.731	31.91
230.948	17.58
231.166	95.4
231.384	15.53
231.601	-15.19
231.819	54.44
232.037	19.63
232.254	-23.38
232.472	33.96
232.689	7.34
232.907	-50
233.125	64.68
233.342	-13.14
233.56	-9.05
233.777	74.92
233.995	46.25
234.213	-15.19
234.43	58.54
234.648	46.25
234.865	-2.9
235.083	-9.05
235.3	-9.05
235.518	52.39
235.735	44.2
235.953	173.22
236.17	36.01
236.388	40.11
236.605	-27.48
236.822	7.34
237.04	15.53
237.257	-25.43
237.475	19.63
237.692	40.11
237.909	-41.81
238.127	52.39
238.344	1.19
238.562	76.97
238.779	-31.57
238.996	-0.85
239.214	-21.33
239.431	31.91
239.648	-9.05
239.865	42.15
240.083	113.83
240.3	19.63
240.517	-4.95
240.735	54.44
240.952	15.53
241.169	52.39
241.386	48.3
241.603	46.25
241.821	54.44
242.038	124.07
242.255	15.53
242.472	17.58
242.689	33.96
242.907	48.3
243.124	122.02
243.341	19.63
243.558	38.06
243.775	-25.43
243.992	25.77
244.209	-4.95
244.426	21.67
244.643	3.24
244.86	25.77
245.078	48.3
245.295	11.43
245.512	15.53
245.729	-27.48
245.946	33.96
246.163	72.87
246.38	21.67
246.597	15.53
246.814	7.34
247.031	31.91
247.248	40.11
247.464	-19.29
247.681	56.49
247.898	87.21
248.115	27.82
248.332	87.21
248.549	93.35
248.766	50.35
248.983	113.83
249.2	-4.95
249.417	19.63
249.633	7.34
249.85	48.3
250.067	-9.05
250.284	64.68
250.501	-4.95
250.717	33.96
250.934	44.2
251.151	31.91
251.368	23.72
251.585	64.68
251.801	40.11
252.018	64.68
252.235	58.54
252.451	27.82
252.668	68.78
252.885	66.73
253.102	93.35
253.318	11.43
253.535	60.59
253.752	-58.2
253.968	62.63
254.185	31.91
254.401	7.34
254.618	-29.52
254.835	76.97
255.051	97.45
255.268	-23.38
255.484	23.72
255.701	19.63
255.917	40.11
256.134	-17.24
256.351	48.3
256.567	-4.95
256.784	42.15
257	-31.57
257.217	5.29
257.433	60.59
257.65	85.16
257.866	70.83
258.082	25.77
258.299	50.35
258.515	48.3
258.732	-11.09
258.948	7.34
259.165	-2.9
259.381	-27.48
259.597	17.58
259.814	64.68
260.03	-0.85
260.246	56.49
260.463	50.35
260.679	40.11
260.895	64.68
261.112	60.59
261.328	-9.05
261.544	-19.29
261.761	19.63
261.977	-15.19
262.193	-4.95
262.409	-25.43
262.626	-17.24
262.842	1.19
263.058	13.48
263.274	17.58
263.49	15.53
263.707	48.3
263.923	19.63
264.139	5.29
264.355	-7
264.571	58.54
264.787	42.15
265.004	52.39
265.22	-7
265.436	36.01
265.652	27.82
265.868	117.93
266.084	-39.76
266.3	85.16
266.516	-66.39
266.732	7.34
266.948	9.39
267.164	36.01
267.38	-13.14
267.596	36.01
267.812	-21.33
268.028	72.87
268.244	-9.05
268.46	83.11
268.676	31.91
268.892	-27.48
269.108	-50
269.324	52.39
269.54	13.48
269.756	52.39
269.972	-13.14
270.188	-29.52
270.403	-50
270.619	31.91
270.835	-29.52
271.051	7.34
271.267	-47.96
271.483	-9.05
271.698	-7
271.914	48.3
272.13	21.67
272.346	-13.14
272.562	40.11
272.777	25.77
272.993	42.15
273.209	-54.1
273.425	52.39
273.64	23.72
273.856	72.87
274.072	-31.57
274.287	23.72
274.503	40.11
274.719	7.34
274.934	66.73
275.15	-29.52
275.366	7.34
275.581	19.63
275.797	-9.05
276.012	23.72
276.228	29.87
276.444	83.11
276.659	48.3
276.875	-47.96
277.09	-15.19
277.306	103.59
277.521	60.59
277.737	48.3
277.952	7.34
278.168	70.83
278.383	97.45
278.599	27.82
278.814	132.26
279.03	3.24
279.245	154.79
279.461	23.72
279.676	1.19
279.892	-11.09
280.107	-41.81
280.322	44.2
280.538	5.29
280.753	3.24
280.969	68.78
281.184	48.3
281.399	117.93
281.615	42.15
281.83	64.68
282.045	27.82
282.26	-0.85
282.476	31.91
282.691	29.87
282.906	15.53
283.122	40.11
283.337	36.01
283.552	58.54
283.767	-9.05
283.983	58.54
284.198	44.2
284.413	64.68
284.628	36.01
284.843	-9.05
285.058	87.21
285.274	48.3
285.489	-52.05
285.704	-9.05
285.919	-76.63
286.134	-0.85
286.349	-2.9
286.564	17.58
286.779	31.91
286.995	56.49
287.21	11.43
287.425	-41.81
287.64	-50
287.855	42.15
288.07	-0.85
288.285	105.64
288.5	60.59
288.715	58.54
288.93	9.39
289.145	33.96
289.36	15.53
289.575	-39.76
289.79	56.49
290.004	56.49
290.219	38.06
290.434	56.49
290.649	11.43
290.864	15.53
291.079	-45.91
291.294	-7
291.509	29.87
291.724	7.34
291.938	-45.91
292.153	40.11
292.368	31.91
292.583	27.82
292.798	21.67
293.012	15.53
293.227	17.58
293.442	1.19
293.657	122.02
293.871	89.26
294.086	48.3
294.301	36.01
294.516	19.63
294.73	58.54
294.945	54.44
295.16	115.88
295.374	36.01
295.589	66.73
295.804	-43.86
296.018	-21.33
296.233	52.39
296.447	72.87
296.662	23.72
296.877	54.44
297.091	52.39
297.306	89.26
297.52	31.91
297.735	33.96
297.949	83.11
298.164	31.91
298.378	-54.1
298.593	25.77
298.807	48.3
299.022	81.07
299.236	31.91
299.451	23.72
299.665	29.87
299.88	85.16
300.094	7.34
300.309	81.07
300.523	76.97
300.737	11.43
300.952	23.72
301.166	56.49
301.381	54.44
301.595	-13.14
301.809	-54.1
302.024	9.39
302.238	-4.95
302.452	62.63
302.667	56.49
302.881	81.07
303.095	23.72
303.309	27.82
303.524	56.49
303.738	-7
303.952	23.72
304.166	29.87
304.381	-23.38
304.595	72.87
304.809	44.2
305.023	44.2
305.237	1.19
305.452	42.15
305.666	42.15
305.88	46.25
306.094	48.3
306.308	130.22
306.522	42.15
306.736	38.06
306.95	68.78
307.164	23.72
307.379	21.67
307.593	93.35
307.807	64.68
308.021	128.17
308.235	9.39
308.449	-66.39
308.663	13.48
308.877	105.64
309.091	56.49
309.305	15.53
309.519	-62.29
309.733	72.87
309.947	31.91
310.161	76.97
310.374	-9.05
310.588	3.24
310.802	-25.43
311.016	-23.38
311.23	99.5
311.444	74.92
311.658	9.39
311.872	40.11
312.085	105.64
312.299	66.73
312.513	-39.76
312.727	101.55
312.941	-37.72
313.154	-37.72
313.368	40.11
313.582	-25.43
313.796	33.96
314.009	60.59
314.223	-0.85
314.437	33.96
314.651	40.11
314.864	33.96
315.078	-27.48
315.292	29.87
315.505	11.43
315.719	-37.72
315.933	-4.95
316.146	-54.1
316.36	-43.86
316.573	68.78
316.787	17.58
317.001	23.72
317.214	-47.96
317.428	48.3
317.641	40.11
317.855	50.35
318.068	72.87
318.282	89.26
318.495	89.26
318.709	64.68
318.922	-33.62
319.136	68.78
319.349	66.73
319.563	36.01
319.776	-19.29
319.99	-15.19
320.203	48.3
320.417	44.2
320.63	11.43
320.843	122.02
321.057	9.39
321.27	36.01
321.483	81.07
321.697	179.37
321.91	89.26
322.124	19.63
322.337	81.07
322.55	81.07
322.763	9.39
322.977	33.96
323.19	-17.24
323.403	50.35
323.617	31.91
323.83	31.91
324.043	7.34
324.256	56.49
324.469	-31.57
324.683	56.49
324.896	21.67
325.109	56.49
325.322	-7
325.535	58.54
325.748	58.54
325.962	107.69
326.175	46.25
326.388	64.68
326.601	76.97
326.814	72.87
327.027	-62.29
327.24	48.3
327.453	-11.09
327.666	62.63
327.879	83.11
328.092	31.91
328.305	-39.76
328.518	40.11
328.731	89.26
328.944	23.72
329.157	9.39
329.37	64.68
329.583	33.96
329.796	42.15
330.009	19.63
330.222	72.87
330.435	64.68
330.648	-21.33
330.861	11.43
331.073	50.35
331.286	31.91
331.499	42.15
331.712	9.39
331.925	9.39
332.138	15.53
332.35	50.35
332.563	42.15
332.776	7.34
332.989	-11.09
333.202	13.48
333.414	56.49
333.627	36.01
333.84	72.87
334.053	93.35
334.265	83.11
334.478	56.49
334.691	40.11
334.903	62.63
335.116	3.24
335.329	25.77
335.541	40.11
335.754	48.3
335.966	76.97
336.179	72.87
336.392	17.58
336.604	64.68
336.817	-4.95
337.029	31.91
337.242	-31.57
337.454	111.78
337.667	93.35
337.88	70.83
338.092	-17.24
338.305	87.21
338.517	48.3
338.729	29.87
338.942	11.43
339.154	60.59
339.367	-13.14
339.579	31.91
339.792	-17.24
340.004	23.72
340.217	83.11
340.429	-17.24
340.641	-25.43
340.854	-23.38
341.066	36.01
341.278	23.72
341.491	60.59
341.703	-17.24
341.915	72.87
342.128	29.87
342.34	83.11
342.552	60.59
342.764	60.59
342.977	17.58
343.189	76.97
343.401	81.07
343.613	50.35
343.826	60.59
344.038	-33.62
344.25	50.35
344.462	31.91
344.674	23.72
344.886	44.2
345.099	72.87
345.311	-25.43
345.523	42.15
345.735	40.11
345.947	81.07
346.159	64.68
346.371	3.24
346.583	66.73
346.795	62.63
347.007	-0.85
347.219	36.01
347.431	19.63
347.643	124.07
347.855	-17.24
348.067	-13.14
348.279	1.19
348.491	15.53
348.703	15.53
348.915	-9.05
349.127	-13.14
349.339	130.22
349.551	-50
349.763	36.01
349.975	23.72
350.187	105.64
350.399	48.3
350.61	72.87
350.822	25.77
351.034	-13.14
351.246	79.02
351.458	25.77
351.669	-9.05
351.881	44.2
352.093	169.13
352.305	58.54
352.517	83.11
352.728	40.11
352.94	19.63
353.152	52.39
353.363	23.72
353.575	97.45
353.787	9.39
353.999	99.5
354.21	68.78
354.422	-9.05
354.633	54.44
354.845	-0.85
355.057	13.48
355.268	17.58
355.48	140.46
355.692	38.06
355.903	36.01
356.115	48.3
356.326	-13.14
356.538	122.02
356.749	95.4
356.961	68.78
357.172	-25.43
357.384	81.07
357.595	113.83
357.807	19.63
358.018	-0.85
358.23	19.63
358.441	81.07
358.653	91.31
358.864	40.11
359.075	74.92
359.287	31.91
359.498	89.26
359.709	72.87
359.921	64.68
360.132	-9.05
360.344	109.74
360.555	64.68
360.766	50.35
360.977	-19.29
361.189	25.77
361.4	-21.33
361.611	72.87
361.823	113.83
362.034	85.16
362.245	-7
362.456	50.35
362.667	130.22
362.879	40.11
363.09	76.97
363.301	44.2
363.512	56.49
363.723	74.92
363.935	5.29
364.146	1.19
364.357	46.25
364.568	54.44
364.779	27.82
364.99	60.59
365.201	29.87
365.412	91.31
365.623	36.01
365.834	42.15
366.045	1.19
366.256	113.83
366.467	25.77
366.678	48.3
366.889	54.44
367.1	11.43
367.311	81.07
367.522	15.53
367.733	81.07
367.944	99.5
368.155	72.87
368.366	54.44
368.577	25.77
368.788	72.87
368.999	40.11
369.209	7.34
369.42	56.49
369.631	83.11
369.842	64.68
370.053	36.01
370.264	44.2
370.474	25.77
370.685	15.53
370.896	27.82
371.107	23.72
371.317	91.31
371.528	1.19
371.739	91.31
371.95	29.87
372.16	56.49
372.371	48.3
372.582	64.68
372.792	74.92
373.003	68.78
373.214	-21.33
373.424	1.19
373.635	-4.95
373.846	97.45
374.056	122.02
374.267	56.49
374.477	105.64
374.688	11.43
374.898	25.77
375.109	93.35
375.319	97.45
375.53	40.11
375.74	60.59
375.951	93.35
376.161	105.64
376.372	81.07
376.582	36.01
376.793	81.07
377.003	19.63
377.214	19.63
377.424	62.63
377.635	33.96
377.845	58.54
378.055	66.73
378.266	-9.05
378.476	25.77
378.686	17.58
378.897	48.3
379.107	68.78
379.317	117.93
379.528	-41.81
379.738	23.72
379.948	72.87
380.158	50.35
380.369	25.77
380.579	74.92
380.789	81.07
380.999	74.92
381.21	89.26
381.42	191.66
381.63	-17.24
381.84	81.07
382.05	21.67
382.261	91.31
382.471	48.3
382.681	-31.57
382.891	179.37
383.101	17.58
383.311	7.34
383.521	-17.24
383.731	130.22
383.941	52.39
384.151	56.49
384.361	58.54
384.571	89.26
384.781	64.68
384.991	56.49
385.201	74.92
385.411	64.68
385.621	126.12
385.831	15.53
386.041	97.45
386.251	93.35
386.461	25.77
386.671	-0.85
386.881	36.01
387.091	23.72
387.301	48.3
387.511	1.19
387.72	40.11
387.93	-17.24
388.14	23.72
388.35	54.44
388.56	36.01
388.769	160.94
388.979	64.68
389.189	36.01
389.399	142.5
389.609	85.16
389.818	130.22
390.028	29.87
390.238	66.73
390.447	70.83
390.657	136.36
390.867	52.39
391.076	-2.9
391.286	42.15
391.496	7.34
391.705	52.39
391.915	89.26
392.125	97.45
392.334	89.26
392.544	85.16
392.753	58.54
392.963	17.58
393.172	31.91
393.382	64.68
393.591	66.73
393.801	40.11
394.01	132.26
394.22	105.64
394.429	76.97
394.639	54.44
394.848	113.83
395.058	130.22
395.267	85.16
395.477	122.02
395.686	138.41
395.895	126.12
396.105	115.88
396.314	113.83
396.524	101.55
396.733	109.74
396.942	91.31
397.152	74.92
397.361	130.22
397.57	38.06
397.78	17.58
397.989	148.65
398.198	148.65
398.407	109.74
398.617	107.69
398.826	187.56
399.035	105.64
399.244	85.16
399.453	107.69
399.663	91.31
399.872	115.88
400.081	130.22
400.29	152.74
400.499	85.16
400.708	130.22
400.917	93.35
401.127	113.83
401.336	23.72
401.545	138.41
401.754	64.68
401.963	146.6
402.172	64.68
402.381	107.69
402.59	101.55
402.799	101.55
403.008	126.12
403.217	132.26
403.426	109.74
403.635	97.45
403.844	173.22
404.053	89.26
404.262	158.89
404.471	132.26
404.68	152.74
404.888	134.31
405.097	97.45
405.306	132.26
405.515	162.98
405.724	173.22
405.933	191.66
406.142	175.27
406.35	191.66
406.559	107.69
406.768	197.8
406.977	222.38
407.185	220.33
407.394	181.42
407.603	150.7
407.812	244.9
408.02	308.39
408.229	253.09
408.438	220.33
408.646	187.56
408.855	261.29
409.064	255.14
409.272	318.63
409.481	275.62
409.69	228.52
409.898	269.48
410.107	328.87
410.315	330.92
410.524	308.39
410.733	384.16
410.941	361.64
411.15	318.63
411.358	441.51
411.567	404.64
411.775	392.36
411.984	386.21
412.192	507.04
412.401	394.4
412.609	429.22
412.818	509.09
413.026	572.58
413.234	476.32
413.443	568.48
413.651	466.08
413.86	548
414.068	517.28
414.276	646.3
414.485	695.46
414.693	705.7
414.901	769.18
415.11	621.73
415.318	689.31
415.526	648.35
415.734	760.99
415.943	720.03
416.151	847.01
416.359	818.33
416.567	814.24
416.776	883.87
416.984	935.07
417.192	937.12
417.4	992.41
417.608	918.68
417.817	1039.51
418.025	1088.67
418.233	1219.74
418.441	1166.49
418.649	1221.78
418.857	1293.46
419.065	1393.81
419.273	1248.41
419.481	1338.52
419.689	1436.82
419.897	1490.07
420.105	1473.68
420.313	1502.36
420.521	1655.95
420.729	1580.18
420.937	1592.47
421.145	1692.82
421.353	1983.63
421.561	1942.67
421.769	1932.43
421.977	2043.02
422.185	1971.34
422.393	2163.85
422.601	2380.93
422.809	2274.44
423.017	2346.12
423.224	2387.08
423.432	2516.1
423.64	2509.96
423.848	2665.6
424.056	2727.04
424.263	2946.17
424.471	2694.27
424.679	2968.7
424.887	3005.56
425.094	3120.25
425.302	3185.79
425.51	3110.01
425.718	3302.52
425.925	3300.47
426.133	3437.69
426.341	3507.32
426.548	3921.01
426.756	3894.38
426.964	3888.24
427.171	4217.96
427.379	4254.83
427.586	4252.78
427.794	4490.34
428.001	4605.03
428.209	4787.3
428.417	4725.86
428.624	5063.77
428.832	5153.88
429.039	4963.42
429.247	5051.49
429.454	5444.7
429.662	5936.21
429.869	5456.98
430.076	5905.49
430.284	5946.45
430.491	5923.92
430.699	6331.47
430.906	6468.68
431.114	6306.89
431.321	6720.58
431.528	6753.35
431.736	7201.85
431.943	7679.03
432.15	7070.78
432.358	7550.01
432.565	7752.76
432.772	7810.1
432.979	8098.86
433.187	8272.94
433.394	8477.74
433.601	8797.22
433.808	9092.13
434.016	8889.38
434.223	9491.48
434.43	9661.46
434.637	9643.03
434.844	10249.23
435.052	10568.71
435.259	10345.48
435.466	10417.16
435.673	10322.96
435.88	11217.92
436.087	11584.51
436.294	11762.68
436.501	11484.16
436.708	11721.72
436.915	11998.2
437.122	12395.5
437.329	12512.24
437.537	12856.29
437.743	13071.33
437.95	12714.98
438.157	13515.74
438.364	13947.86
438.571	13913.05
438.778	14085.08
438.985	15338.43
439.192	14787.53
439.399	15487.93
439.606	14988.23
439.813	15877.05
440.02	16898.98
440.227	16356.27
440.433	16284.59
440.64	16950.18
440.847	16720.81
441.054	17116.07
441.261	18166.68
441.467	17918.87
441.674	18305.94
441.881	19065.74
442.088	18791.31
442.294	18893.71
442.501	19499.91
442.708	19731.33
442.914	20536.18
443.121	21437.28
443.328	20933.48
443.534	22141.78
443.741	21390.18
443.948	21318.5
444.154	22790.99
444.361	22436.69
444.568	22907.73
444.774	22793.04
444.981	23067.47
445.187	23685.95
445.394	24419.13
445.6	24472.37
445.807	26663.7
446.013	25406.25
446.22	26133.28
446.426	26979.09
446.633	27241.23
446.839	28113.66
447.046	27065.1
447.252	28416.76
447.459	28664.57
447.665	28695.28
447.871	29416.17
448.078	30874.32
448.284	29602.53
448.491	30569.18
448.697	31732.42
448.903	32154.3
449.11	31871.68
449.316	31306.44
449.522	32213.7
449.728	32920.24
449.935	33211.06
450.141	33147.57
450.347	33931.94
450.553	32973.49
450.76	33299.12
450.966	34308.77
451.172	34161.31
451.378	35039.89
451.584	34222.75
451.791	35015.32
451.997	34468.51
452.203	35041.94
452.409	35590.8
452.615	35181.2
452.821	34028.2
453.027	33563.31
453.233	35541.64
453.44	34407.07
453.646	34503.32
453.852	34882.2
454.058	34945.69
454.264	34323.1
454.47	35111.57
454.676	34069.15
454.882	35426.96
455.088	31918.79
455.294	32395.96
455.5	33137.33
455.705	33538.73
455.911	32541.37
456.117	31427.28
456.323	31007.44
456.529	29879.01
456.735	30847.7
456.941	30192.35
457.147	29790.95
457.352	28775.16
457.558	28596.98
457.764	28582.65
457.97	27996.93
458.176	27454.22
458.381	27579.14
458.587	25811.74
458.793	25914.14
458.999	24832.82
459.204	26544.92
459.41	25502.5
459.616	24087.36
459.821	24073.02
460.027	23761.73
460.233	23507.78
460.438	22569.81
460.644	22790.99
460.85	21527.39
461.055	21320.55
461.261	21082.98
461.466	19831.68
461.672	19032.97
461.878	20271.99
462.083	19041.16
462.289	18611.09
462.494	18365.33
462.7	17742.75
462.905	17243.04
463.111	18105.24
463.316	17898.39
463.522	17374.11
463.727	17566.62
463.932	17281.95
464.138	17234.85
464.343	17402.79
464.549	16808.87
464.754	17261.48
464.959	17341.35
465.165	17171.36
465.37	16386.99
465.575	15860.66
465.781	16581.55
465.986	16767.91
466.191	16317.36
466.397	15674.3
466.602	14928.84
466.807	15672.25
467.012	15655.87
467.218	15582.14
467.423	15301.57
