Data from USB4F104151__138__14-19-12-414.txt Node

Date: Thu Mar 13 14:19:12 EDT 2025
User: louis
Spectrometer: USB4F10415
Trigger mode: 4
Integration Time (sec): 2.000000E-2
Scans to average: 1
Electric dark correction enabled: true
Nonlinearity correction enabled: false
Boxcar width: 0
XAxis mode: Wavelengths
Number of Pixels in Spectrum: 3648
>>>>>Begin Spectral Data<<<<<
178.204	-121.34
178.424	-121.34
178.644	-121.34
178.864	-96.77
179.084	-150.01
179.304	-12.8
179.524	-41.47
179.744	-6.66
179.964	-0.51
180.184	-49.66
180.404	15.87
180.624	-2.56
180.844	22.02
181.064	-16.9
181.283	44.54
181.503	40.45
181.723	7.68
181.943	-55.81
182.163	112.13
182.383	40.45
182.602	42.5
182.822	89.6
183.042	-6.66
183.262	40.45
183.482	-6.66
183.701	-33.28
183.921	9.73
184.141	-16.9
184.361	-2.56
184.58	30.21
184.8	44.54
185.02	22.02
185.239	95.74
185.459	48.64
185.679	79.36
185.898	-64
186.118	13.82
186.338	95.74
186.557	34.3
186.777	-4.61
186.997	32.26
187.216	-39.42
187.436	40.45
187.655	48.64
187.875	69.12
188.095	24.06
188.314	9.73
188.534	-2.56
188.753	-18.94
188.973	54.78
189.192	99.84
189.412	56.83
189.631	38.4
189.851	17.92
190.07	5.63
190.29	17.92
190.509	24.06
190.729	97.79
190.948	69.12
191.168	140.8
191.387	40.45
191.607	24.06
191.826	62.98
192.045	-23.04
192.265	-10.75
192.484	-66.05
192.704	-51.71
192.923	46.59
193.142	32.26
193.362	77.31
193.581	-16.9
193.8	11.78
194.02	9.73
194.239	13.82
194.458	-18.94
194.678	30.21
194.897	32.26
195.116	50.69
195.335	15.87
195.555	32.26
195.774	-10.75
195.993	5.63
196.212	-8.7
196.432	-2.56
196.651	30.21
196.87	-18.94
197.089	99.84
197.308	-4.61
197.528	-8.7
197.747	-35.33
197.966	38.4
198.185	56.83
198.404	-35.33
198.623	32.26
198.842	1.54
199.062	-23.04
199.281	50.69
199.5	13.82
199.719	13.82
199.938	83.45
200.157	46.59
200.376	32.26
200.595	81.41
200.814	-78.33
201.033	19.97
201.252	-2.56
201.471	22.02
201.69	46.59
201.909	54.78
202.128	-43.52
202.347	71.17
202.566	-0.51
202.785	56.83
203.004	48.64
203.223	56.83
203.442	15.87
203.661	-51.71
203.879	77.31
204.098	3.58
204.317	-76.29
204.536	79.36
204.755	-25.09
204.974	26.11
205.193	44.54
205.411	122.37
205.63	54.78
205.849	38.4
206.068	50.69
206.287	3.58
206.505	42.5
206.724	7.68
206.943	17.92
207.162	62.98
207.381	26.11
207.599	5.63
207.818	46.59
208.037	-12.8
208.255	11.78
208.474	28.16
208.693	83.45
208.911	-12.8
209.13	62.98
209.349	71.17
209.567	81.41
209.786	7.68
210.005	-0.51
210.223	5.63
210.442	42.5
210.661	5.63
210.879	36.35
211.098	19.97
211.316	1.54
211.535	54.78
211.753	40.45
211.972	38.4
212.191	9.73
212.409	44.54
212.628	118.27
212.846	79.36
213.065	1.54
213.283	103.93
213.502	-31.23
213.72	5.63
213.938	22.02
214.157	22.02
214.375	-2.56
214.594	62.98
214.812	-6.66
215.031	-23.04
215.249	9.73
215.467	7.68
215.686	-43.52
215.904	79.36
216.122	-0.51
216.341	91.65
216.559	-25.09
216.778	5.63
216.996	30.21
217.214	13.82
217.432	-27.14
217.651	-4.61
217.869	69.12
218.087	56.83
218.306	-8.7
218.524	65.02
218.742	-27.14
218.96	124.41
219.179	11.78
219.397	81.41
219.615	46.59
219.833	-37.38
220.051	46.59
220.27	62.98
220.488	-8.7
220.706	54.78
220.924	5.63
221.142	34.3
221.36	-43.52
221.578	19.97
221.796	-35.33
222.015	-10.75
222.233	62.98
222.451	97.79
222.669	40.45
222.887	-10.75
223.105	-12.8
223.323	-39.42
223.541	13.82
223.759	22.02
223.977	91.65
224.195	116.22
224.413	34.3
224.631	50.69
224.849	-33.28
225.067	38.4
225.285	-20.99
225.503	30.21
225.721	-64
225.939	-39.42
226.157	28.16
226.375	11.78
226.592	-33.28
226.81	30.21
227.028	62.98
227.246	-8.7
227.464	-37.38
227.682	30.21
227.9	62.98
228.117	-68.09
228.335	7.68
228.553	22.02
228.771	32.26
228.989	32.26
229.206	-23.04
229.424	-8.7
229.642	1.54
229.86	32.26
230.077	28.16
230.295	40.45
230.513	85.5
230.731	79.36
230.948	83.45
231.166	58.88
231.384	-41.47
231.601	15.87
231.819	56.83
232.037	-2.56
232.254	38.4
232.472	19.97
232.689	-0.51
232.907	22.02
233.125	69.12
233.342	-10.75
233.56	1.54
233.777	-35.33
233.995	-10.75
234.213	46.59
234.43	-29.18
234.648	-8.7
234.865	7.68
235.083	1.54
235.3	-41.47
235.518	15.87
235.735	56.83
235.953	54.78
236.17	-20.99
236.388	-14.85
236.605	73.21
236.822	48.64
237.04	67.07
237.257	50.69
237.475	-2.56
237.692	83.45
237.909	-27.14
238.127	30.21
238.344	42.5
238.562	13.82
238.779	-18.94
238.996	-29.18
239.214	44.54
239.431	-0.51
239.648	9.73
239.865	65.02
240.083	-20.99
240.3	-10.75
240.517	-45.57
240.735	-51.71
240.952	5.63
241.169	95.74
241.386	-2.56
241.603	-10.75
241.821	-27.14
242.038	3.58
242.255	71.17
242.472	-35.33
242.689	65.02
242.907	58.88
243.124	-8.7
243.341	40.45
243.558	-18.94
243.775	7.68
243.992	36.35
244.209	71.17
244.426	40.45
244.643	13.82
244.86	112.13
245.078	22.02
245.295	-68.09
245.512	9.73
245.729	-10.75
245.946	50.69
246.163	75.26
246.38	13.82
246.597	32.26
246.814	15.87
247.031	48.64
247.248	48.64
247.464	52.74
247.681	56.83
247.898	13.82
248.115	-8.7
248.332	-57.86
248.549	120.32
248.766	38.4
248.983	46.59
249.2	40.45
249.417	7.68
249.633	-10.75
249.85	24.06
250.067	-14.85
250.284	42.5
250.501	13.82
250.717	77.31
250.934	3.58
251.151	91.65
251.368	62.98
251.585	62.98
251.801	40.45
252.018	-49.66
252.235	-6.66
252.451	50.69
252.668	-16.9
252.885	11.78
253.102	108.03
253.318	9.73
253.535	-80.38
253.752	1.54
253.968	7.68
254.185	-27.14
254.401	1.54
254.618	-66.05
254.835	-33.28
255.051	118.27
255.268	24.06
255.484	67.07
255.701	62.98
255.917	-8.7
256.134	-2.56
256.351	36.35
256.567	9.73
256.784	108.03
257	-68.09
257.217	42.5
257.433	-18.94
257.65	22.02
257.866	58.88
258.082	48.64
258.299	17.92
258.515	46.59
258.732	-31.23
258.948	-2.56
259.165	-51.71
259.381	15.87
259.597	22.02
259.814	40.45
260.03	34.3
260.246	-90.62
260.463	62.98
260.679	40.45
260.895	28.16
261.112	15.87
261.328	7.68
261.544	-37.38
261.761	83.45
261.977	22.02
262.193	-8.7
262.409	15.87
262.626	44.54
262.842	67.07
263.058	-33.28
263.274	58.88
263.49	26.11
263.707	85.5
263.923	9.73
264.139	-10.75
264.355	77.31
264.571	36.35
264.787	-14.85
265.004	-12.8
265.22	17.92
265.436	-10.75
265.652	-90.62
265.868	-8.7
266.084	-76.29
266.3	32.26
266.516	-57.86
266.732	22.02
266.948	-10.75
267.164	40.45
267.38	34.3
267.596	30.21
267.812	38.4
268.028	-23.04
268.244	-39.42
268.46	34.3
268.676	30.21
268.892	65.02
269.108	-2.56
269.324	-92.67
269.54	9.73
269.756	58.88
269.972	-12.8
270.188	9.73
270.403	-6.66
270.619	28.16
270.835	-20.99
271.051	-35.33
271.267	-27.14
271.483	36.35
271.698	-27.14
271.914	9.73
272.13	30.21
272.346	-10.75
272.562	-2.56
272.777	81.41
272.993	17.92
273.209	-23.04
273.425	-0.51
273.64	50.69
273.856	50.69
274.072	50.69
274.287	77.31
274.503	30.21
274.719	15.87
274.934	-10.75
275.15	-80.38
275.366	-35.33
275.581	26.11
275.797	48.64
276.012	1.54
276.228	-33.28
276.444	-12.8
276.659	-2.56
276.875	7.68
277.09	5.63
277.306	5.63
277.521	-18.94
277.737	42.5
277.952	48.64
278.168	62.98
278.383	91.65
278.599	7.68
278.814	85.5
279.03	30.21
279.245	75.26
279.461	103.93
279.676	108.03
279.892	-49.66
280.107	75.26
280.322	-6.66
280.538	38.4
280.753	-20.99
280.969	136.7
281.184	7.68
281.399	87.55
281.615	83.45
281.83	54.78
282.045	3.58
282.26	-35.33
282.476	50.69
282.691	15.87
282.906	32.26
283.122	58.88
283.337	-100.86
283.552	-2.56
283.767	26.11
283.983	13.82
284.198	13.82
284.413	54.78
284.628	-4.61
284.843	3.58
285.058	40.45
285.274	34.3
285.489	34.3
285.704	54.78
285.919	75.26
286.134	52.74
286.349	30.21
286.564	19.97
286.779	75.26
286.995	73.21
287.21	34.3
287.425	-51.71
287.64	34.3
287.855	40.45
288.07	-10.75
288.285	24.06
288.5	-27.14
288.715	54.78
288.93	65.02
289.145	22.02
289.36	62.98
289.575	22.02
289.79	44.54
290.004	44.54
290.219	-2.56
290.434	-25.09
290.649	62.98
290.864	1.54
291.079	-10.75
291.294	-6.66
291.509	13.82
291.724	-31.23
291.938	54.78
292.153	13.82
292.368	42.5
292.583	-25.09
292.798	17.92
293.012	-18.94
293.227	-16.9
293.442	-16.9
293.657	22.02
293.871	54.78
294.086	30.21
294.301	95.74
294.516	46.59
294.73	13.82
294.945	-29.18
295.16	-0.51
295.374	26.11
295.589	116.22
295.804	-18.94
296.018	7.68
296.233	46.59
296.447	9.73
296.662	-10.75
296.877	22.02
297.091	48.64
297.306	-59.9
297.52	-31.23
297.735	71.17
297.949	54.78
298.164	50.69
298.378	15.87
298.593	-10.75
298.807	34.3
299.022	-10.75
299.236	1.54
299.451	46.59
299.665	-27.14
299.88	-2.56
300.094	5.63
300.309	-27.14
300.523	79.36
300.737	5.63
300.952	-10.75
301.166	26.11
301.381	79.36
301.595	3.58
301.809	26.11
302.024	38.4
302.238	-111.1
302.452	17.92
302.667	-8.7
302.881	58.88
303.095	71.17
303.309	1.54
303.524	15.87
303.738	17.92
303.952	5.63
304.166	42.5
304.381	-92.67
304.595	56.83
304.809	-2.56
305.023	50.69
305.237	15.87
305.452	83.45
305.666	-10.75
305.88	54.78
306.094	-27.14
306.308	62.98
306.522	19.97
306.736	32.26
306.95	30.21
307.164	-0.51
307.379	-29.18
307.593	17.92
307.807	19.97
308.021	-0.51
308.235	99.84
308.449	-51.71
308.663	-6.66
308.877	48.64
309.091	22.02
309.305	9.73
309.519	-27.14
309.733	87.55
309.947	22.02
310.161	-16.9
310.374	-23.04
310.588	81.41
310.802	1.54
311.016	32.26
311.23	38.4
311.444	42.5
311.658	65.02
311.872	83.45
312.085	13.82
312.299	83.45
312.513	15.87
312.727	67.07
312.941	-2.56
313.154	17.92
313.368	38.4
313.582	-16.9
313.796	40.45
314.009	81.41
314.223	-35.33
314.437	-25.09
314.651	56.83
314.864	-0.51
315.078	-55.81
315.292	-55.81
315.505	-20.99
315.719	-29.18
315.933	3.58
316.146	62.98
316.36	-47.62
316.573	13.82
316.787	101.89
317.001	32.26
317.214	40.45
317.428	13.82
317.641	-43.52
317.855	19.97
318.068	97.79
318.282	5.63
318.495	95.74
318.709	26.11
318.922	54.78
319.136	83.45
319.349	67.07
319.563	-0.51
319.776	22.02
319.99	-8.7
320.203	50.69
320.417	1.54
320.63	81.41
320.843	60.93
321.057	42.5
321.27	-35.33
321.483	-68.09
321.697	28.16
321.91	1.54
322.124	-59.9
322.337	46.59
322.55	48.64
322.763	-55.81
322.977	-43.52
323.19	46.59
323.403	40.45
323.617	13.82
323.83	112.13
324.043	13.82
324.256	15.87
324.469	62.98
324.683	38.4
324.896	7.68
325.109	22.02
325.322	-16.9
325.535	50.69
325.748	32.26
325.962	9.73
326.175	-35.33
326.388	-27.14
326.601	13.82
326.814	-10.75
327.027	-10.75
327.24	-8.7
327.453	87.55
327.666	101.89
327.879	1.54
328.092	85.5
328.305	67.07
328.518	40.45
328.731	-8.7
328.944	30.21
329.157	22.02
329.37	26.11
329.583	38.4
329.796	93.69
330.009	-76.29
330.222	5.63
330.435	-4.61
330.648	40.45
330.861	15.87
331.073	40.45
331.286	60.93
331.499	-25.09
331.712	46.59
331.925	-27.14
332.138	65.02
332.35	73.21
332.563	-59.9
332.776	118.27
332.989	9.73
333.202	-2.56
333.414	26.11
333.627	11.78
333.84	46.59
334.053	71.17
334.265	97.79
334.478	46.59
334.691	13.82
334.903	42.5
335.116	34.3
335.329	97.79
335.541	-27.14
335.754	87.55
335.966	-43.52
336.179	54.78
336.392	15.87
336.604	26.11
336.817	28.16
337.029	30.21
337.242	17.92
337.454	17.92
337.667	-47.62
337.88	81.41
338.092	71.17
338.305	-4.61
338.517	30.21
338.729	93.69
338.942	-10.75
339.154	-8.7
339.367	54.78
339.579	-2.56
339.792	-16.9
340.004	40.45
340.217	46.59
340.429	5.63
340.641	1.54
340.854	52.74
341.066	13.82
341.278	-0.51
341.491	73.21
341.703	46.59
341.915	-0.51
342.128	-10.75
342.34	24.06
342.552	24.06
342.764	46.59
342.977	19.97
343.189	110.08
343.401	34.3
343.613	40.45
343.826	-2.56
344.038	22.02
344.25	-6.66
344.462	-2.56
344.674	46.59
344.886	34.3
345.099	46.59
345.311	9.73
345.523	79.36
345.735	46.59
345.947	-35.33
346.159	83.45
346.371	13.82
346.583	-47.62
346.795	56.83
347.007	17.92
347.219	73.21
347.431	26.11
347.643	48.64
347.855	-16.9
348.067	-0.51
348.279	15.87
348.491	46.59
348.703	71.17
348.915	-27.14
349.127	-6.66
349.339	7.68
349.551	30.21
349.763	95.74
349.975	-4.61
350.187	13.82
350.399	87.55
350.61	54.78
350.822	28.16
351.034	50.69
351.246	24.06
351.458	-2.56
351.669	77.31
351.881	17.92
352.093	69.12
352.305	-66.05
352.517	48.64
352.728	116.22
352.94	-33.28
353.152	87.55
353.363	-2.56
353.575	-47.62
353.787	103.93
353.999	30.21
354.21	-27.14
354.422	-0.51
354.633	95.74
354.845	62.98
355.057	26.11
355.268	112.13
355.48	40.45
355.692	11.78
355.903	69.12
356.115	-35.33
356.326	-27.14
356.538	93.69
356.749	24.06
356.961	-0.51
357.172	22.02
357.384	17.92
357.595	103.93
357.807	22.02
358.018	36.35
358.23	132.61
358.441	62.98
358.653	15.87
358.864	26.11
359.075	40.45
359.287	54.78
359.498	-6.66
359.709	75.26
359.921	81.41
360.132	1.54
360.344	22.02
360.555	54.78
360.766	108.03
360.977	22.02
361.189	140.8
361.4	-8.7
361.611	58.88
361.823	62.98
362.034	11.78
362.245	40.45
362.456	50.69
362.667	62.98
362.879	7.68
363.09	15.87
363.301	54.78
363.512	38.4
363.723	26.11
363.935	-4.61
364.146	24.06
364.357	50.69
364.568	1.54
364.779	11.78
364.99	13.82
365.201	36.35
365.412	-16.9
365.623	1.54
365.834	17.92
366.045	46.59
366.256	62.98
366.467	28.16
366.678	50.69
366.889	-2.56
367.1	-41.47
367.311	-0.51
367.522	62.98
367.733	118.27
367.944	103.93
368.155	62.98
368.366	40.45
368.577	73.21
368.788	32.26
368.999	-8.7
369.209	62.98
369.42	22.02
369.631	177.66
369.842	30.21
370.053	-27.14
370.264	46.59
370.474	54.78
370.685	24.06
370.896	83.45
371.107	-59.9
371.317	52.74
371.528	52.74
371.739	50.69
371.95	54.78
372.16	58.88
372.371	19.97
372.582	19.97
372.792	40.45
373.003	38.4
373.214	-14.85
373.424	-35.33
373.635	-29.18
373.846	101.89
374.056	22.02
374.267	73.21
374.477	22.02
374.688	75.26
374.898	54.78
375.109	36.35
375.319	-61.95
375.53	83.45
375.74	30.21
375.951	5.63
376.161	62.98
376.372	65.02
376.582	13.82
376.793	71.17
377.003	-23.04
377.214	22.02
377.424	54.78
377.635	62.98
377.845	26.11
378.055	83.45
378.266	34.3
378.476	71.17
378.686	34.3
378.897	81.41
379.107	79.36
379.317	-29.18
379.528	30.21
379.738	22.02
379.948	5.63
380.158	50.69
380.369	42.5
380.579	38.4
380.789	5.63
380.999	56.83
381.21	87.55
381.42	161.28
381.63	13.82
381.84	56.83
382.05	13.82
382.261	93.69
382.471	9.73
382.681	40.45
382.891	73.21
383.101	22.02
383.311	-14.85
383.521	79.36
383.731	52.74
383.941	65.02
384.151	34.3
384.361	34.3
384.571	73.21
384.781	54.78
384.991	7.68
385.201	153.09
385.411	62.98
385.621	46.59
385.831	26.11
386.041	52.74
386.251	-4.61
386.461	67.07
386.671	50.69
386.881	44.54
387.091	58.88
387.301	116.22
387.511	46.59
387.72	71.17
387.93	46.59
388.14	65.02
388.35	28.16
388.56	32.26
388.769	83.45
388.979	65.02
389.189	19.97
389.399	7.68
389.609	-8.7
389.818	95.74
390.028	79.36
390.238	87.55
390.447	22.02
390.657	95.74
390.867	-8.7
391.076	-45.57
391.286	30.21
391.496	40.45
391.705	5.63
391.915	58.88
392.125	5.63
392.334	-76.29
392.544	54.78
392.753	58.88
392.963	-0.51
393.172	105.98
393.382	67.07
393.591	85.5
393.801	13.82
394.01	24.06
394.22	19.97
394.429	5.63
394.639	81.41
394.848	87.55
395.058	9.73
395.267	114.17
395.477	22.02
395.686	87.55
395.895	95.74
396.105	54.78
396.314	40.45
396.524	120.32
396.733	17.92
396.942	105.98
397.152	54.78
397.361	62.98
397.57	50.69
397.78	71.17
397.989	142.85
398.198	95.74
398.407	62.98
398.617	62.98
398.826	99.84
399.035	71.17
399.244	17.92
399.453	26.11
399.663	54.78
399.872	81.41
400.081	87.55
400.29	144.89
400.499	-18.94
400.708	62.98
400.917	26.11
401.127	110.08
401.336	67.07
401.545	148.99
401.754	87.55
401.963	81.41
402.172	79.36
402.381	79.36
402.59	30.21
402.799	50.69
403.008	77.31
403.217	73.21
403.426	79.36
403.635	71.17
403.844	83.45
404.053	153.09
404.262	138.75
404.471	85.5
404.68	163.33
404.888	130.56
405.097	34.3
405.306	122.37
405.515	103.93
405.724	103.93
405.933	157.18
406.142	142.85
406.35	148.99
406.559	136.7
406.768	171.52
406.977	218.62
407.185	140.8
407.394	173.57
407.603	95.74
407.812	144.89
408.02	214.52
408.229	251.39
408.438	194.05
408.646	171.52
408.855	198.14
409.064	210.43
409.272	212.48
409.481	271.87
409.69	220.67
409.898	208.38
410.107	192
410.315	210.43
410.524	251.39
410.733	271.87
410.941	255.48
411.15	284.16
411.358	325.12
411.567	327.16
411.775	300.54
411.984	345.59
412.192	384.51
412.401	456.19
412.609	368.12
412.818	433.66
413.026	450.04
413.234	304.64
413.443	423.42
413.651	441.85
413.86	495.1
414.068	439.8
414.276	572.92
414.485	450.04
414.693	585.21
414.901	558.58
415.11	673.27
415.318	622.07
415.526	538.1
415.734	622.07
415.943	685.56
416.151	638.45
416.359	751.09
416.567	712.18
416.776	681.46
416.984	751.09
417.192	779.76
417.4	816.63
417.608	796.15
417.817	804.34
418.025	933.36
418.233	1000.94
418.441	880.11
418.649	906.74
418.857	1062.38
419.065	1086.96
419.273	1050.1
419.481	1097.2
419.689	1166.83
419.897	1232.37
420.105	1127.92
420.313	1244.65
420.521	1318.38
420.729	1367.53
420.937	1394.15
421.145	1447.4
421.353	1488.36
421.561	1619.43
421.769	1566.18
421.977	1623.53
422.185	1531.37
422.393	1705.45
422.601	1889.76
422.809	1875.43
423.017	1924.58
423.224	1990.11
423.432	2010.59
423.64	2094.56
423.848	2221.53
424.056	2215.39
424.263	2317.79
424.471	2293.21
424.679	2465.24
424.887	2586.07
425.094	2667.99
425.302	2569.69
425.51	2706.9
425.718	2807.25
425.925	2782.68
426.133	2899.41
426.341	3093.97
426.548	3124.69
426.756	3300.81
426.964	3276.24
427.171	3341.77
427.379	3552.71
427.586	3548.62
427.794	3646.92
428.001	3847.62
428.209	3872.2
428.417	3896.77
428.624	4281.79
428.832	4175.3
429.039	4242.88
429.247	4265.41
429.454	4687.29
429.662	4867.51
429.869	4646.33
430.076	4943.28
430.284	4814.26
430.491	5086.64
430.699	5518.76
430.906	5414.32
431.114	5273.01
431.321	5545.39
431.528	5754.28
431.736	5959.08
431.943	6141.35
432.15	5944.74
432.358	6118.82
432.565	6493.6
432.772	6473.12
432.979	6968.73
433.187	6989.21
433.394	6878.62
433.601	7431.57
433.808	7495.05
434.016	7349.65
434.223	7619.98
434.43	8078.72
434.637	7888.26
434.844	8508.8
435.052	8576.38
435.259	8492.41
435.466	8729.98
435.673	8580.48
435.88	9155.96
436.087	9594.22
436.294	9717.1
436.501	9348.47
436.708	9772.39
436.915	9848.17
437.122	10210.66
437.329	10296.67
437.537	10507.62
437.743	10798.43
437.95	10642.78
438.157	11349.33
438.364	11789.64
438.571	11521.36
438.778	11943.24
438.985	12825.92
439.192	12139.85
439.399	12455.23
439.606	12477.76
439.813	13102.39
440.02	13976.87
440.227	13821.23
440.433	13397.3
440.64	13813.04
440.847	13708.59
441.054	14200.1
441.261	15140.12
441.467	14986.52
441.674	15252.76
441.881	15666.45
442.088	15496.47
442.294	15574.29
442.501	16155.91
442.708	16266.5
442.914	16768.26
443.121	17511.67
443.328	16923.9
443.534	18353.38
443.741	17882.35
443.948	17833.2
444.154	19215.58
444.361	18580.71
444.568	19021.02
444.774	19240.15
444.981	19098.84
445.187	19412.18
445.394	20501.7
445.6	20497.61
445.807	22097.07
446.013	21279.93
446.22	21595.32
446.426	22191.28
446.633	22611.11
446.839	23389.34
447.046	22340.78
447.252	23438.49
447.459	23577.75
447.665	23768.21
447.871	24583.3
448.078	25674.87
448.284	24460.43
448.491	24917.12
448.697	26170.48
448.903	26492.01
449.11	26696.81
449.316	26211.44
449.522	26995.81
449.728	27442.27
449.935	27647.07
450.141	27348.06
450.347	28372.05
450.553	27366.49
450.76	27409.5
450.966	28793.93
451.172	28568.65
451.378	28793.93
451.584	28288.08
451.791	29103.17
451.997	29000.77
452.203	29545.53
452.409	29701.18
452.615	29213.76
452.821	27974.74
453.027	28335.18
453.233	29580.35
453.44	28064.85
453.646	29056.07
453.852	29301.82
454.058	29228.1
454.264	28632.14
454.47	29109.32
454.676	28470.35
454.882	29506.62
455.088	26702.95
455.294	27513.95
455.5	27653.21
455.705	28071
455.911	27116.64
456.117	26596.46
456.323	25945.2
456.529	24677.51
456.735	25732.22
456.941	25158.78
457.147	24906.88
457.352	23970.96
457.558	23739.54
457.764	23788.69
457.97	23598.23
458.176	23069.86
458.381	22891.68
458.587	21810.36
458.793	21986.48
458.999	20724.93
459.204	22486.18
459.41	21523.64
459.616	20169.93
459.821	20247.76
460.027	20069.58
460.233	19754.19
460.438	18832.61
460.644	18965.73
460.85	18177.26
461.055	17984.75
461.261	17734.9
461.466	16409.86
461.672	16065.8
461.878	16995.58
462.083	15824.14
462.289	15576.34
462.494	15623.44
462.7	14818.59
462.905	14447.91
463.111	15021.34
463.316	15162.65
463.522	14736.67
463.727	14746.91
463.932	14472.48
464.138	14646.56
464.343	14552.35
464.549	14069.03
464.754	14687.52
464.959	14310.69
465.165	14345.51
465.37	13899.05
465.575	13204.79
465.781	14173.48
465.986	13874.48
466.191	13575.47
466.397	13194.55
466.602	12457.28
466.807	12989.75
467.012	12840.25
467.218	12928.31
467.423	12830.01
467.628	12703.04
467.833	13133.11
