Data from USB4F104151__303__14-24-07-969.txt Node

Date: Thu Mar 13 14:24:07 EDT 2025
User: louis
Spectrometer: USB4F10415
Trigger mode: 4
Integration Time (sec): 2.000000E-2
Scans to average: 1
Electric dark correction enabled: true
Nonlinearity correction enabled: false
Boxcar width: 0
XAxis mode: Wavelengths
Number of Pixels in Spectrum: 3648
>>>>>Begin Spectral Data<<<<<
178.204	-103.59
178.424	-103.59
178.644	-103.59
178.864	-72.87
179.084	-72.87
179.304	-62.63
179.524	-48.3
179.744	-13.48
179.964	13.14
180.184	45.91
180.404	70.48
180.624	19.29
180.844	4.95
181.064	-23.72
181.283	9.05
181.503	-15.53
181.723	0.85
181.943	-38.06
182.163	19.29
182.383	-11.43
182.602	17.24
182.822	72.53
183.042	31.57
183.262	-40.11
183.482	-21.67
183.701	9.05
183.921	50
184.141	25.43
184.361	62.29
184.58	9.05
184.8	33.62
185.02	4.95
185.239	72.53
185.459	23.38
185.679	-5.29
185.898	-23.72
186.118	45.91
186.338	76.63
186.557	-23.72
186.777	-62.63
186.997	11.09
187.216	-50.35
187.436	17.24
187.655	86.87
187.875	-7.34
188.095	109.4
188.314	90.96
188.534	68.44
188.753	-46.25
188.973	50
189.192	13.14
189.412	31.57
189.631	-5.29
189.851	60.24
190.07	50
190.29	-66.73
190.509	-3.24
190.729	27.48
190.948	56.15
191.168	158.55
191.387	37.72
191.607	25.43
191.826	29.52
192.045	-68.78
192.265	11.09
192.484	-36.01
192.704	25.43
192.923	-40.11
193.142	27.48
193.362	25.43
193.581	-5.29
193.8	45.91
194.02	86.87
194.239	17.24
194.458	50
194.678	54.1
194.897	0.85
195.116	19.29
195.335	72.53
195.555	93.01
195.774	-21.67
195.993	43.86
196.212	21.33
196.432	27.48
196.651	-19.63
196.87	43.86
197.089	127.83
197.308	31.57
197.528	66.39
197.747	-60.59
197.966	33.62
198.185	68.44
198.404	-29.87
198.623	25.43
198.842	99.16
199.062	43.86
199.281	4.95
199.5	-38.06
199.719	33.62
199.938	7
200.157	99.16
200.376	-7.34
200.595	41.81
200.814	66.39
201.033	37.72
201.252	25.43
201.471	50
201.69	43.86
201.909	27.48
202.128	45.91
202.347	47.96
202.566	-1.19
202.785	-21.67
203.004	-13.48
203.223	131.92
203.442	56.15
203.661	0.85
203.879	-15.53
204.098	-7.34
204.317	-19.63
204.536	39.76
204.755	-7.34
204.974	33.62
205.193	146.26
205.411	111.44
205.63	52.05
205.849	-19.63
206.068	0.85
206.287	66.39
206.505	-15.53
206.724	17.24
206.943	-11.43
207.162	33.62
207.381	29.52
207.599	-33.96
207.818	54.1
208.037	-52.39
208.255	25.43
208.474	45.91
208.693	131.92
208.911	-23.72
209.13	-11.43
209.349	9.05
209.567	37.72
209.786	-9.39
210.005	25.43
210.223	25.43
210.442	9.05
210.661	37.72
210.879	19.29
211.098	9.05
211.316	62.29
211.535	60.24
211.753	0.85
211.972	35.67
212.191	-11.43
212.409	56.15
212.628	-13.48
212.846	76.63
213.065	93.01
213.283	2.9
213.502	41.81
213.72	58.2
213.938	82.77
214.157	0.85
214.375	4.95
214.594	-27.82
214.812	45.91
215.031	113.49
215.249	56.15
215.467	95.06
215.686	-40.11
215.904	45.91
216.122	9.05
216.341	-7.34
216.559	0.85
216.778	84.82
216.996	-11.43
217.214	41.81
217.432	-5.29
217.651	82.77
217.869	35.67
218.087	-7.34
218.306	13.14
218.524	37.72
218.742	-7.34
218.96	82.77
219.179	21.33
219.397	-54.44
219.615	117.59
219.833	-31.91
220.051	23.38
220.27	58.2
220.488	52.05
220.706	-13.48
220.924	21.33
221.142	58.2
221.36	74.58
221.578	29.52
221.796	21.33
222.015	17.24
222.233	-21.67
222.451	109.4
222.669	-5.29
222.887	-27.82
223.105	-38.06
223.323	90.96
223.541	-52.39
223.759	2.9
223.977	33.62
224.195	52.05
224.413	90.96
224.631	41.81
224.849	70.48
225.067	2.9
225.285	-19.63
225.503	23.38
225.721	-79.02
225.939	-5.29
226.157	86.87
226.375	95.06
226.592	-97.45
226.81	45.91
227.028	62.29
227.246	78.68
227.464	39.76
227.682	66.39
227.9	15.19
228.117	50
228.335	-7.34
228.553	25.43
228.771	93.01
228.989	-15.53
229.206	19.29
229.424	74.58
229.642	17.24
229.86	-21.67
230.077	33.62
230.295	-13.48
230.513	76.63
230.731	58.2
230.948	25.43
231.166	19.29
231.384	-17.58
231.601	41.81
231.819	4.95
232.037	11.09
232.254	54.1
232.472	39.76
232.689	41.81
232.907	-23.72
233.125	11.09
233.342	25.43
233.56	17.24
233.777	41.81
233.995	-13.48
234.213	74.58
234.43	-72.87
234.648	43.86
234.865	19.29
235.083	13.14
235.3	17.24
235.518	39.76
235.735	74.58
235.953	115.54
236.17	29.52
236.388	27.48
236.605	90.96
236.822	52.05
237.04	9.05
237.257	41.81
237.475	47.96
237.692	54.1
237.909	-27.82
238.127	-23.72
238.344	60.24
238.562	68.44
238.779	-17.58
238.996	-40.11
239.214	58.2
239.431	86.87
239.648	17.24
239.865	-15.53
240.083	123.73
240.3	35.67
240.517	39.76
240.735	9.05
240.952	37.72
241.169	9.05
241.386	66.39
241.603	47.96
241.821	31.57
242.038	27.48
242.255	37.72
242.472	31.57
242.689	19.29
242.907	-7.34
243.124	13.14
243.341	-29.87
243.558	41.81
243.775	-15.53
243.992	-21.67
244.209	27.48
244.426	64.34
244.643	66.39
244.86	-3.24
245.078	0.85
245.295	84.82
245.512	52.05
245.729	33.62
245.946	17.24
246.163	105.3
246.38	-5.29
246.597	68.44
246.814	17.24
247.031	-7.34
247.248	41.81
247.464	54.1
247.681	-21.67
247.898	-29.87
248.115	-21.67
248.332	9.05
248.549	68.44
248.766	-21.67
248.983	31.57
249.2	0.85
249.417	13.14
249.633	25.43
249.85	82.77
250.067	27.48
250.284	41.81
250.501	23.38
250.717	60.24
250.934	25.43
251.151	25.43
251.368	68.44
251.585	95.06
251.801	23.38
252.018	54.1
252.235	74.58
252.451	-38.06
252.668	68.44
252.885	95.06
253.102	74.58
253.318	54.1
253.535	33.62
253.752	13.14
253.968	17.24
254.185	9.05
254.401	25.43
254.618	33.62
254.835	-7.34
255.051	43.86
255.268	0.85
255.484	60.24
255.701	0.85
255.917	60.24
256.134	-23.72
256.351	58.2
256.567	45.91
256.784	35.67
257	-23.72
257.217	27.48
257.433	29.52
257.65	33.62
257.866	-3.24
258.082	-5.29
258.299	-19.63
258.515	27.48
258.732	0.85
258.948	-40.11
259.165	25.43
259.381	-23.72
259.597	43.86
259.814	0.85
260.03	29.52
260.246	-13.48
260.463	15.19
260.679	78.68
260.895	19.29
261.112	52.05
261.328	82.77
261.544	9.05
261.761	27.48
261.977	33.62
262.193	-7.34
262.409	-44.2
262.626	39.76
262.842	33.62
263.058	21.33
263.274	0.85
263.49	19.29
263.707	52.05
263.923	-21.67
264.139	33.62
264.355	31.57
264.571	2.9
264.787	-27.82
265.004	58.2
265.22	-1.19
265.436	41.81
265.652	17.24
265.868	50
266.084	29.52
266.3	37.72
266.516	-3.24
266.732	-5.29
266.948	60.24
267.164	56.15
267.38	50
267.596	78.68
267.812	101.2
268.028	-7.34
268.244	-29.87
268.46	33.62
268.676	9.05
268.892	37.72
269.108	4.95
269.324	9.05
269.54	0.85
269.756	33.62
269.972	54.1
270.188	2.9
270.403	52.05
270.619	123.73
270.835	66.39
271.051	62.29
271.267	19.29
271.483	-11.43
271.698	-23.72
271.914	-19.63
272.13	41.81
272.346	35.67
272.562	-15.53
272.777	-13.48
272.993	9.05
273.209	17.24
273.425	54.1
273.64	-1.19
273.856	90.96
274.072	9.05
274.287	2.9
274.503	78.68
274.719	58.2
274.934	-52.39
275.15	-13.48
275.366	52.05
275.581	-3.24
275.797	-13.48
276.012	9.05
276.228	-13.48
276.444	25.43
276.659	117.59
276.875	7
277.09	-5.29
277.306	11.09
277.521	19.29
277.737	-23.72
277.952	90.96
278.168	80.72
278.383	43.86
278.599	-7.34
278.814	78.68
279.03	19.29
279.245	29.52
279.461	-7.34
279.676	76.63
279.892	29.52
280.107	25.43
280.322	-50.35
280.538	19.29
280.753	-19.63
280.969	11.09
281.184	0.85
281.399	93.01
281.615	-7.34
281.83	21.33
282.045	-19.63
282.26	25.43
282.476	11.09
282.691	58.2
282.906	13.14
283.122	-7.34
283.337	60.24
283.552	74.58
283.767	-15.53
283.983	25.43
284.198	93.01
284.413	-3.24
284.628	-7.34
284.843	64.34
285.058	82.77
285.274	-19.63
285.489	-23.72
285.704	117.59
285.919	-5.29
286.134	2.9
286.349	60.24
286.564	-56.49
286.779	29.52
286.995	11.09
287.21	82.77
287.425	17.24
287.64	-15.53
287.855	13.14
288.07	-60.59
288.285	0.85
288.5	86.87
288.715	-19.63
288.93	-7.34
289.145	-7.34
289.36	84.82
289.575	-3.24
289.79	56.15
290.004	56.15
290.219	-36.01
290.434	4.95
290.649	37.72
290.864	54.1
291.079	52.05
291.294	33.62
291.509	70.48
291.724	19.29
291.938	-21.67
292.153	19.29
292.368	4.95
292.583	97.11
292.798	37.72
293.012	-5.29
293.227	4.95
293.442	-33.96
293.657	41.81
293.871	115.54
294.086	68.44
294.301	50
294.516	111.44
294.73	-29.87
294.945	-11.43
295.16	-11.43
295.374	60.24
295.589	33.62
295.804	70.48
296.018	-29.87
296.233	52.05
296.447	29.52
296.662	-19.63
296.877	41.81
297.091	54.1
297.306	-1.19
297.52	-33.96
297.735	80.72
297.949	52.05
298.164	-15.53
298.378	60.24
298.593	17.24
298.807	-21.67
299.022	17.24
299.236	82.77
299.451	25.43
299.665	17.24
299.88	17.24
300.094	13.14
300.309	19.29
300.523	13.14
300.737	-15.53
300.952	74.58
301.166	88.92
301.381	4.95
301.595	70.48
301.809	54.1
302.024	17.24
302.238	27.48
302.452	156.5
302.667	17.24
302.881	90.96
303.095	78.68
303.309	50
303.524	2.9
303.738	-38.06
303.952	-40.11
304.166	9.05
304.381	-44.2
304.595	11.09
304.809	-19.63
305.023	13.14
305.237	62.29
305.452	-7.34
305.666	58.2
305.88	45.91
306.094	27.48
306.308	-5.29
306.522	15.19
306.736	-15.53
306.95	54.1
307.164	-15.53
307.379	13.14
307.593	107.35
307.807	62.29
308.021	19.29
308.235	21.33
308.449	21.33
308.663	76.63
308.877	33.62
309.091	4.95
309.305	82.77
309.519	33.62
309.733	82.77
309.947	17.24
310.161	50
310.374	-7.34
310.588	58.2
310.802	-1.19
311.016	80.72
311.23	33.62
311.444	82.77
311.658	-3.24
311.872	183.12
312.085	58.2
312.299	0.85
312.513	31.57
312.727	37.72
312.941	-33.96
313.154	-17.58
313.368	13.14
313.582	2.9
313.796	62.29
314.009	11.09
314.223	41.81
314.437	-29.87
314.651	58.2
314.864	52.05
315.078	33.62
315.292	2.9
315.505	39.76
315.719	52.05
315.933	13.14
316.146	119.64
316.36	93.01
316.573	13.14
316.787	66.39
317.001	45.91
317.214	31.57
317.428	2.9
317.641	-13.48
317.855	47.96
318.068	37.72
318.282	41.81
318.495	50
318.709	74.58
318.922	15.19
319.136	66.39
319.349	35.67
319.563	-15.53
319.776	82.77
319.99	45.91
320.203	179.03
320.417	119.64
320.63	74.58
320.843	62.29
321.057	78.68
321.27	25.43
321.483	90.96
321.697	60.24
321.91	66.39
322.124	78.68
322.337	50
322.55	-31.91
322.763	58.2
322.977	33.62
323.19	37.72
323.403	90.96
323.617	62.29
323.83	50
324.043	58.2
324.256	47.96
324.469	-21.67
324.683	66.39
324.896	-25.77
325.109	4.95
325.322	-36.01
325.535	76.63
325.748	33.62
325.962	109.4
326.175	-3.24
326.388	52.05
326.601	-13.48
326.814	93.01
327.027	133.97
327.24	84.82
327.453	-5.29
327.666	76.63
327.879	7
328.092	60.24
328.305	58.2
328.518	-76.97
328.731	70.48
328.944	9.05
329.157	47.96
329.37	54.1
329.583	33.62
329.796	45.91
330.009	74.58
330.222	50
330.435	21.33
330.648	23.38
330.861	37.72
331.073	78.68
331.286	13.14
331.499	-15.53
331.712	25.43
331.925	43.86
332.138	78.68
332.35	99.16
332.563	-38.06
332.776	9.05
332.989	60.24
333.202	66.39
333.414	13.14
333.627	58.2
333.84	13.14
334.053	29.52
334.265	29.52
334.478	74.58
334.691	52.05
334.903	-31.91
335.116	0.85
335.329	50
335.541	25.43
335.754	-13.48
335.966	72.53
336.179	21.33
336.392	41.81
336.604	90.96
336.817	33.62
337.029	31.57
337.242	9.05
337.454	68.44
337.667	21.33
337.88	66.39
338.092	-17.58
338.305	41.81
338.517	-29.87
338.729	33.62
338.942	17.24
339.154	27.48
339.367	11.09
339.579	-5.29
339.792	43.86
340.004	52.05
340.217	70.48
340.429	74.58
340.641	-48.3
340.854	35.67
341.066	-50.35
341.278	45.91
341.491	62.29
341.703	64.34
341.915	35.67
342.128	41.81
342.34	60.24
342.552	-9.39
342.764	78.68
342.977	-64.68
343.189	86.87
343.401	9.05
343.613	-5.29
343.826	66.39
344.038	-23.72
344.25	66.39
344.462	0.85
344.674	107.35
344.886	39.76
345.099	66.39
345.311	50
345.523	-15.53
345.735	-27.82
345.947	99.16
346.159	64.34
346.371	4.95
346.583	60.24
346.795	33.62
347.007	-29.87
347.219	66.39
347.431	-3.24
347.643	25.43
347.855	35.67
348.067	103.25
348.279	19.29
348.491	-3.24
348.703	78.68
348.915	35.67
349.127	66.39
349.339	15.19
349.551	15.19
349.763	21.33
349.975	-27.82
350.187	9.05
350.399	41.81
350.61	41.81
350.822	62.29
351.034	74.58
351.246	-15.53
351.458	25.43
351.669	41.81
351.881	58.2
352.093	33.62
352.305	70.48
352.517	25.43
352.728	58.2
352.94	150.36
353.152	33.62
353.363	-31.91
353.575	-33.96
353.787	74.58
353.999	50
354.21	99.16
354.422	-56.49
354.633	82.77
354.845	58.2
355.057	-17.58
355.268	84.82
355.48	80.72
355.692	-25.77
355.903	37.72
356.115	52.05
356.326	0.85
356.538	0.85
356.749	27.48
356.961	109.4
357.172	68.44
357.384	66.39
357.595	52.05
357.807	41.81
358.018	37.72
358.23	25.43
358.441	43.86
358.653	111.44
358.864	74.58
359.075	17.24
359.287	95.06
359.498	74.58
359.709	15.19
359.921	78.68
360.132	47.96
360.344	35.67
360.555	-29.87
360.766	25.43
360.977	9.05
361.189	50
361.4	-23.72
361.611	21.33
361.823	33.62
362.034	68.44
362.245	-9.39
362.456	41.81
362.667	99.16
362.879	35.67
363.09	90.96
363.301	27.48
363.512	43.86
363.723	25.43
363.935	29.52
364.146	33.62
364.357	2.9
364.568	13.14
364.779	27.48
364.99	123.73
365.201	-31.91
365.412	64.34
365.623	-40.11
365.834	25.43
366.045	78.68
366.256	41.81
366.467	72.53
366.678	84.82
366.889	66.39
367.1	9.05
367.311	80.72
367.522	25.43
367.733	-15.53
367.944	11.09
368.155	41.81
368.366	27.48
368.577	0.85
368.788	74.58
368.999	17.24
369.209	74.58
369.42	70.48
369.631	148.31
369.842	58.2
370.053	19.29
370.264	2.9
370.474	-7.34
370.685	86.87
370.896	62.29
371.107	35.67
371.317	66.39
371.528	70.48
371.739	33.62
371.95	0.85
372.16	90.96
372.371	7
372.582	37.72
372.792	86.87
373.003	66.39
373.214	66.39
373.424	66.39
373.635	58.2
373.846	41.81
374.056	56.15
374.267	101.2
374.477	54.1
374.688	95.06
374.898	19.29
375.109	-56.49
375.319	11.09
375.53	47.96
375.74	41.81
375.951	13.14
376.161	68.44
376.372	90.96
376.582	9.05
376.793	54.1
377.003	15.19
377.214	74.58
377.424	29.52
377.635	21.33
377.845	-31.91
378.055	113.49
378.266	25.43
378.476	25.43
378.686	52.05
378.897	33.62
379.107	-3.24
379.317	66.39
379.528	0.85
379.738	109.4
379.948	-46.25
380.158	66.39
380.369	13.14
380.579	41.81
380.789	29.52
380.999	33.62
381.21	47.96
381.42	58.2
381.63	4.95
381.84	0.85
382.05	4.95
382.261	66.39
382.471	-31.91
382.681	52.05
382.891	70.48
383.101	33.62
383.311	-27.82
383.521	62.29
383.731	41.81
383.941	88.92
384.151	82.77
384.361	99.16
384.571	25.43
384.781	58.2
384.991	123.73
385.201	95.06
385.411	56.15
385.621	41.81
385.831	33.62
386.041	35.67
386.251	41.81
386.461	-17.58
386.671	74.58
386.881	99.16
387.091	17.24
387.301	115.54
387.511	31.57
387.72	82.77
387.93	93.01
388.14	109.4
388.35	58.2
388.56	78.68
388.769	115.54
388.979	82.77
389.189	58.2
389.399	54.1
389.609	82.77
389.818	15.19
390.028	35.67
390.238	58.2
390.447	31.57
390.657	68.44
390.867	9.05
391.076	-9.39
391.286	68.44
391.496	86.87
391.705	25.43
391.915	29.52
392.125	29.52
392.334	0.85
392.544	45.91
392.753	58.2
392.963	68.44
393.172	88.92
393.382	58.2
393.591	68.44
393.801	70.48
394.01	133.97
394.22	11.09
394.429	41.81
394.639	68.44
394.848	58.2
395.058	68.44
395.267	90.96
395.477	9.05
395.686	76.63
395.895	72.53
396.105	142.16
396.314	-7.34
396.524	-5.29
396.733	-5.29
396.942	62.29
397.152	60.24
397.361	95.06
397.57	35.67
397.78	66.39
397.989	64.34
398.198	74.58
398.407	4.95
398.617	78.68
398.826	50
399.035	78.68
399.244	131.92
399.453	115.54
399.663	33.62
399.872	125.78
400.081	43.86
400.29	70.48
400.499	9.05
400.708	133.97
400.917	95.06
401.127	160.59
401.336	131.92
401.545	191.31
401.754	84.82
401.963	68.44
402.172	101.2
402.381	78.68
402.59	111.44
402.799	76.63
403.008	133.97
403.217	105.3
403.426	99.16
403.635	95.06
403.844	123.73
404.053	125.78
404.262	86.87
404.471	82.77
404.68	115.54
404.888	125.78
405.097	152.4
405.306	95.06
405.515	47.96
405.724	140.12
405.933	199.51
406.142	131.92
406.35	144.21
406.559	119.64
406.768	144.21
406.977	238.42
407.185	201.55
407.394	133.97
407.603	195.41
407.812	131.92
408.02	199.51
408.229	234.32
408.438	160.59
408.646	131.92
408.855	191.31
409.064	117.59
409.272	133.97
409.481	265.04
409.69	267.09
409.898	281.43
410.107	228.18
410.315	242.51
410.524	260.95
410.733	279.38
410.941	314.19
411.15	312.14
411.358	275.28
411.567	367.44
411.775	344.91
411.984	301.9
412.192	279.38
412.401	279.38
412.609	394.06
412.818	306
413.026	361.3
413.234	361.3
413.443	322.38
413.651	414.54
413.86	455.5
414.068	381.78
414.276	500.56
414.485	428.88
414.693	486.22
414.901	527.18
415.11	545.61
415.318	562
415.526	510.8
415.734	615.24
415.943	596.81
416.151	631.63
416.359	596.81
416.567	668.49
416.776	688.97
416.984	725.83
417.192	754.51
417.4	672.59
417.608	629.58
417.817	762.7
418.025	781.13
418.233	922.44
418.441	801.61
418.649	901.96
418.857	926.54
419.065	977.73
419.273	971.59
419.481	973.64
419.689	1073.99
419.897	1004.36
420.105	1100.61
420.313	1131.33
420.521	1131.33
420.729	1229.63
420.937	1260.35
421.145	1286.98
421.353	1336.13
421.561	1370.94
421.769	1409.86
421.977	1549.12
422.185	1397.57
422.393	1510.21
422.601	1688.38
422.809	1606.46
423.017	1622.84
423.224	1753.91
423.432	1749.82
423.64	1839.93
423.848	1884.98
424.056	1848.12
424.263	2100.02
424.471	2153.27
424.679	2165.56
424.887	2114.36
425.094	2175.8
425.302	2280.24
425.51	2380.59
425.718	2372.4
425.925	2462.51
426.133	2544.43
426.341	2738.99
426.548	2835.24
426.756	2933.54
426.964	2894.63
427.171	3113.77
427.379	3164.97
427.586	3126.05
427.794	3126.05
428.001	3240.74
428.209	3375.91
428.417	3478.3
428.624	3777.31
428.832	3801.88
429.039	3584.8
429.247	3554.08
429.454	4002.58
429.662	4240.15
429.869	4000.54
430.076	4399.89
430.284	4211.48
430.491	4453.14
430.699	4653.84
430.906	4530.96
431.114	4662.03
431.321	4825.87
431.528	5073.67
431.736	5333.76
431.943	5516.03
432.15	5395.2
432.358	5333.76
432.565	5645.06
432.772	5571.33
432.979	5798.65
433.187	5954.3
433.394	6058.74
433.601	6513.39
433.808	6367.99
434.016	6374.13
434.223	6693.62
434.43	6922.99
434.637	7013.1
434.844	7422.69
435.052	7555.81
435.259	7539.43
435.466	7557.86
435.673	7422.69
435.88	7996.12
436.087	8360.66
436.294	8243.93
436.501	8219.35
436.708	8280.79
436.915	8696.53
437.122	9075.4
437.329	8999.63
437.537	9319.11
437.743	9495.24
437.95	9263.82
438.157	9941.69
438.364	10189.5
438.571	9884.35
438.778	10324.66
438.985	11156.14
439.192	10769.07
439.399	10990.25
439.606	10746.55
439.813	11319.98
440.02	12194.46
440.227	11946.66
440.433	11854.5
440.64	12120.73
440.847	12065.44
441.054	12417.69
441.261	13079.18
441.467	12796.56
441.674	13249.16
441.881	13806.21
442.088	13896.32
442.294	13816.45
442.501	13871.75
442.708	14363.26
442.914	14715.51
443.121	15395.43
443.328	14938.74
443.534	16351.84
443.741	15676.01
443.948	15448.68
444.154	16353.88
444.361	16349.79
444.568	16314.97
444.774	16271.97
444.981	16462.43
445.187	17029.71
445.394	17744.45
445.6	17631.82
445.807	19460.65
446.013	18397.76
446.22	18782.77
446.426	19407.41
446.633	19593.77
446.839	20304.42
447.046	19507.76
447.252	20556.32
447.459	20652.57
447.665	20361.76
447.871	21516.81
448.078	22268.42
448.284	21359.12
448.491	21848.58
448.697	22651.39
448.903	23087.61
449.11	23155.19
449.316	22940.15
449.522	23378.42
449.728	23753.19
449.935	23749.1
450.141	24031.72
450.347	24465.89
450.553	23876.07
450.76	24232.42
450.966	24750.56
451.172	24545.76
451.378	25219.54
451.584	24781.28
451.791	25174.49
451.997	25164.25
452.203	25444.82
452.409	25827.79
452.615	25598.41
452.821	24379.87
453.027	24402.4
453.233	25582.03
453.44	24642.01
453.646	24842.71
453.852	25061.85
454.058	25223.64
454.264	24713.69
454.47	25360.85
454.676	24713.69
454.882	25620.94
455.088	23147
455.294	23798.25
455.5	23826.92
455.705	24240.61
455.911	23085.56
456.117	22628.86
456.323	22858.23
456.529	21438.99
456.735	22163.97
456.941	21719.56
457.147	21541.39
457.352	20632.09
457.558	20701.72
457.764	20482.59
457.97	20238.88
458.176	19790.38
458.381	19792.42
458.587	18649.66
458.793	18825.78
458.999	18057.79
459.204	19284.53
459.41	18672.18
459.616	17590.86
459.821	17545.8
460.027	17343.05
460.233	16908.88
460.438	16241.25
460.644	16519.77
460.85	15776.36
461.055	15589.99
461.261	15540.84
461.466	14174.85
461.672	13542.02
461.878	14746.23
462.083	13820.55
462.289	13679.24
462.494	13423.24
462.7	12817.04
462.905	12561.05
463.111	13081.23
463.316	13189.77
463.522	12698.26
463.727	12636.82
463.932	12608.15
464.138	12348.06
464.343	12651.16
464.549	12231.32
464.754	12593.81
464.959	12577.43
465.165	12358.3
465.37	11846.3
465.575	11651.75
465.781	12020.38
465.986	12022.43
466.191	11704.99
466.397	11535.01
466.602	11012.78
466.807	11252.39
467.012	11338.41
467.218	11301.54
467.423	11182.76
467.628	11160.24
467.833	11829.92
468.038	11285.16
468.244	11037.36
468.449	11291.31
468.654	11027.12
