Data from USB4F104151__312__14-24-24-564.txt Node

Date: Thu Mar 13 14:24:24 EDT 2025
User: louis
Spectrometer: USB4F10415
Trigger mode: 4
Integration Time (sec): 2.000000E-2
Scans to average: 1
Electric dark correction enabled: true
Nonlinearity correction enabled: false
Boxcar width: 0
XAxis mode: Wavelengths
Number of Pixels in Spectrum: 3648
>>>>>Begin Spectral Data<<<<<
178.204	-24.4
178.424	-24.4
178.644	-24.4
178.864	-85.84
179.084	-137.04
179.304	43.18
179.524	-5.97
179.744	2.22
179.964	-5.97
180.184	-46.93
180.404	4.27
180.624	10.41
180.844	12.46
181.064	-32.6
181.283	-1.88
181.503	-53.08
181.723	73.9
181.943	28.84
182.163	57.51
182.383	32.94
182.602	0.17
182.822	14.51
183.042	-112.47
183.262	12.46
183.482	32.94
183.701	22.7
183.921	28.84
184.141	51.37
184.361	-8.02
184.58	2.22
184.8	18.6
185.02	28.84
185.239	-42.84
185.459	2.22
185.679	59.56
185.898	-5.97
186.118	10.41
186.338	57.51
186.557	4.27
186.777	-55.12
186.997	-30.55
187.216	-18.26
187.436	73.9
187.655	4.27
187.875	26.79
188.095	-24.4
188.314	71.85
188.534	53.42
188.753	43.18
188.973	6.31
189.192	0.17
189.412	-51.03
189.631	49.32
189.851	-46.93
190.07	45.23
190.29	-65.36
190.509	10.41
190.729	86.19
190.948	90.28
191.168	168.1
191.387	41.13
191.607	28.84
191.826	49.32
192.045	-38.74
192.265	12.46
192.484	59.56
192.704	-14.17
192.923	6.31
193.142	112.81
193.362	-5.97
193.581	88.23
193.8	24.75
194.02	75.95
194.239	18.6
194.458	-57.17
194.678	4.27
194.897	-46.93
195.116	12.46
195.335	2.22
195.555	43.18
195.774	4.27
195.993	39.08
196.212	14.51
196.432	-10.07
196.651	10.41
196.87	4.27
197.089	47.27
197.308	-24.4
197.528	77.99
197.747	12.46
197.966	16.55
198.185	92.33
198.404	-65.36
198.623	49.32
198.842	2.22
199.062	67.75
199.281	41.13
199.5	10.41
199.719	-14.17
199.938	51.37
200.157	75.95
200.376	20.65
200.595	108.71
200.814	59.56
201.033	16.55
201.252	82.09
201.471	24.75
201.69	28.84
201.909	47.27
202.128	57.51
202.347	37.03
202.566	45.23
202.785	26.79
203.004	-20.31
203.223	67.75
203.442	30.89
203.661	24.75
203.879	-3.93
204.098	59.56
204.317	32.94
204.536	-24.4
204.755	34.99
204.974	0.17
205.193	-38.74
205.411	92.33
205.63	-24.4
205.849	75.95
206.068	55.47
206.287	-20.31
206.505	32.94
206.724	14.51
206.943	22.7
207.162	-42.84
207.381	-20.31
207.599	0.17
207.818	-5.97
208.037	-61.27
208.255	10.41
208.474	-53.08
208.693	32.94
208.911	8.36
209.13	32.94
209.349	102.57
209.567	18.6
209.786	34.99
210.005	-16.21
210.223	65.71
210.442	-16.21
210.661	45.23
210.879	92.33
211.098	2.22
211.316	16.55
211.535	77.99
211.753	4.27
211.972	10.41
212.191	-30.55
212.409	37.03
212.628	22.7
212.846	24.75
213.065	43.18
213.283	32.94
213.502	-12.12
213.72	67.75
213.938	-36.69
214.157	26.79
214.375	8.36
214.594	-32.6
214.812	-26.45
215.031	16.55
215.249	41.13
215.467	49.32
215.686	2.22
215.904	86.19
216.122	18.6
216.341	-24.4
216.559	-42.84
216.778	96.43
216.996	86.19
217.214	37.03
217.432	22.7
217.651	-55.12
217.869	-22.36
218.087	41.13
218.306	26.79
218.524	-32.6
218.742	8.36
218.96	71.85
219.179	-40.79
219.397	73.9
219.615	8.36
219.833	84.14
220.051	-40.79
220.27	-5.97
220.488	8.36
220.706	6.31
220.924	-16.21
221.142	-30.55
221.36	92.33
221.578	49.32
221.796	0.17
222.015	49.32
222.233	16.55
222.451	32.94
222.669	-8.02
222.887	90.28
223.105	-26.45
223.323	43.18
223.541	-24.4
223.759	0.17
223.977	57.51
224.195	0.17
224.413	8.36
224.631	53.42
224.849	61.61
225.067	43.18
225.285	4.27
225.503	8.36
225.721	-61.27
225.939	45.23
226.157	-16.21
226.375	94.38
226.592	-24.4
226.81	-8.02
227.028	-28.5
227.246	55.47
227.464	-16.21
227.682	37.03
227.9	26.79
228.117	34.99
228.335	2.22
228.553	20.65
228.771	10.41
228.989	73.9
229.206	61.61
229.424	39.08
229.642	16.55
229.86	41.13
230.077	16.55
230.295	43.18
230.513	55.47
230.731	24.75
230.948	45.23
231.166	32.94
231.384	-5.97
231.601	32.94
231.819	147.62
232.037	2.22
232.254	-16.21
232.472	28.84
232.689	-12.12
232.907	-55.12
233.125	34.99
233.342	16.55
233.56	-8.02
233.777	26.79
233.995	-8.02
234.213	65.71
234.43	-16.21
234.648	0.17
234.865	-14.17
235.083	16.55
235.3	16.55
235.518	57.51
235.735	20.65
235.953	53.42
236.17	65.71
236.388	65.71
236.605	18.6
236.822	24.75
237.04	-5.97
237.257	20.65
237.475	18.6
237.692	-8.02
237.909	0.17
238.127	41.13
238.344	10.41
238.562	-8.02
238.779	28.84
238.996	-48.98
239.214	34.99
239.431	34.99
239.648	18.6
239.865	37.03
240.083	84.14
240.3	16.55
240.517	-5.97
240.735	59.56
240.952	-10.07
241.169	86.19
241.386	133.29
241.603	18.6
241.821	4.27
242.038	43.18
242.255	96.43
242.472	-20.31
242.689	18.6
242.907	41.13
243.124	-32.6
243.341	34.99
243.558	0.17
243.775	-36.69
243.992	57.51
244.209	12.46
244.426	98.47
244.643	45.23
244.86	-24.4
245.078	0.17
245.295	8.36
245.512	-5.97
245.729	41.13
245.946	41.13
246.163	41.13
246.38	82.09
246.597	61.61
246.814	-5.97
247.031	16.55
247.248	12.46
247.464	37.03
247.681	43.18
247.898	-16.21
248.115	26.79
248.332	-5.97
248.549	57.51
248.766	26.79
248.983	-3.93
249.2	-73.56
249.417	24.75
249.633	2.22
249.85	37.03
250.067	63.66
250.284	47.27
250.501	16.55
250.717	2.22
250.934	0.17
251.151	51.37
251.368	4.27
251.585	32.94
251.801	-73.56
252.018	-14.17
252.235	55.47
252.451	41.13
252.668	45.23
252.885	0.17
253.102	22.7
253.318	75.95
253.535	-79.7
253.752	26.79
253.968	8.36
254.185	2.22
254.401	32.94
254.618	18.6
254.835	-14.17
255.051	65.71
255.268	28.84
255.484	37.03
255.701	6.31
255.917	41.13
256.134	-32.6
256.351	2.22
256.567	-57.17
256.784	-30.55
257	-57.17
257.217	22.7
257.433	16.55
257.65	18.6
257.866	43.18
258.082	-30.55
258.299	-12.12
258.515	49.32
258.732	-3.93
258.948	-5.97
259.165	4.27
259.381	34.99
259.597	-55.12
259.814	47.27
260.03	49.32
260.246	18.6
260.463	34.99
260.679	26.79
260.895	10.41
261.112	77.99
261.328	0.17
261.544	-12.12
261.761	90.28
261.977	34.99
262.193	-22.36
262.409	10.41
262.626	41.13
262.842	32.94
263.058	-34.64
263.274	65.71
263.49	-1.88
263.707	118.95
263.923	61.61
264.139	4.27
264.355	-8.02
264.571	53.42
264.787	16.55
265.004	49.32
265.22	57.51
265.436	14.51
265.652	49.32
265.868	-10.07
266.084	10.41
266.3	-14.17
266.516	49.32
266.732	-3.93
266.948	73.9
267.164	39.08
267.38	0.17
267.596	-57.17
267.812	86.19
268.028	4.27
268.244	-16.21
268.46	34.99
268.676	-32.6
268.892	61.61
269.108	-48.98
269.324	4.27
269.54	-32.6
269.756	37.03
269.972	22.7
270.188	20.65
270.403	4.27
270.619	8.36
270.835	49.32
271.051	-57.17
271.267	114.86
271.483	12.46
271.698	88.23
271.914	24.75
272.13	6.31
272.346	32.94
272.562	-12.12
272.777	47.27
272.993	-26.45
273.209	-34.64
273.425	-46.93
273.64	0.17
273.856	51.37
274.072	37.03
274.287	-38.74
274.503	73.9
274.719	92.33
274.934	-20.31
275.15	-100.18
275.366	41.13
275.581	-14.17
275.797	24.75
276.012	-18.26
276.228	-24.4
276.444	-20.31
276.659	45.23
276.875	0.17
277.09	-40.79
277.306	-14.17
277.521	73.9
277.737	37.03
277.952	34.99
278.168	-5.97
278.383	92.33
278.599	-20.31
278.814	32.94
279.03	20.65
279.245	14.51
279.461	49.32
279.676	114.86
279.892	-16.21
280.107	-55.12
280.322	-96.08
280.538	57.51
280.753	37.03
280.969	-42.84
281.184	73.9
281.399	6.31
281.615	37.03
281.83	47.27
282.045	6.31
282.26	-36.69
282.476	-61.27
282.691	26.79
282.906	90.28
283.122	98.47
283.337	41.13
283.552	-3.93
283.767	-12.12
283.983	-14.17
284.198	57.51
284.413	-32.6
284.628	8.36
284.843	34.99
285.058	-55.12
285.274	-3.93
285.489	71.85
285.704	69.8
285.919	-14.17
286.134	-57.17
286.349	39.08
286.564	-53.08
286.779	28.84
286.995	41.13
287.21	16.55
287.425	55.47
287.64	-16.21
287.855	41.13
288.07	-8.02
288.285	92.33
288.5	2.22
288.715	12.46
288.93	24.75
289.145	-1.88
289.36	6.31
289.575	41.13
289.79	55.47
290.004	-3.93
290.219	26.79
290.434	-40.79
290.649	20.65
290.864	-8.02
291.079	4.27
291.294	12.46
291.509	2.22
291.724	96.43
291.938	-30.55
292.153	82.09
292.368	-20.31
292.583	30.89
292.798	34.99
293.012	-36.69
293.227	39.08
293.442	-32.6
293.657	59.56
293.871	2.22
294.086	-8.02
294.301	55.47
294.516	86.19
294.73	65.71
294.945	14.51
295.16	75.95
295.374	18.6
295.589	67.75
295.804	57.51
296.018	8.36
296.233	-55.12
296.447	43.18
296.662	41.13
296.877	108.71
297.091	-55.12
297.306	84.14
297.52	-5.97
297.735	28.84
297.949	51.37
298.164	12.46
298.378	-8.02
298.593	-32.6
298.807	-24.4
299.022	16.55
299.236	73.9
299.451	0.17
299.665	32.94
299.88	53.42
300.094	-5.97
300.309	69.8
300.523	34.99
300.737	69.8
300.952	-12.12
301.166	20.65
301.381	-26.45
301.595	65.71
301.809	14.51
302.024	90.28
302.238	8.36
302.452	32.94
302.667	114.86
302.881	8.36
303.095	28.84
303.309	43.18
303.524	57.51
303.738	-48.98
303.952	-77.65
304.166	67.75
304.381	-48.98
304.595	77.99
304.809	-24.4
305.023	43.18
305.237	8.36
305.452	-8.02
305.666	65.71
305.88	53.42
306.094	6.31
306.308	26.79
306.522	10.41
306.736	-8.02
306.95	59.56
307.164	26.79
307.379	65.71
307.593	59.56
307.807	20.65
308.021	18.6
308.235	49.32
308.449	10.41
308.663	57.51
308.877	77.99
309.091	55.47
309.305	75.95
309.519	10.41
309.733	53.42
309.947	8.36
310.161	41.13
310.374	24.75
310.588	20.65
310.802	47.27
311.016	26.79
311.23	43.18
311.444	20.65
311.658	24.75
311.872	16.55
312.085	49.32
312.299	55.47
312.513	-8.02
312.727	47.27
312.941	-24.4
313.154	-38.74
313.368	-40.79
313.582	45.23
313.796	49.32
314.009	41.13
314.223	18.6
314.437	49.32
314.651	-91.99
314.864	10.41
315.078	-36.69
315.292	34.99
315.505	-16.21
315.719	41.13
315.933	-8.02
316.146	34.99
316.36	10.41
316.573	-26.45
316.787	2.22
317.001	22.7
317.214	16.55
317.428	-22.36
317.641	-32.6
317.855	18.6
318.068	-24.4
318.282	6.31
318.495	26.79
318.709	-14.17
318.922	49.32
319.136	32.94
319.349	0.17
319.563	75.95
319.776	-38.74
319.99	-24.4
320.203	30.89
320.417	0.17
320.63	10.41
320.843	121
321.057	41.13
321.27	-48.98
321.483	61.61
321.697	2.22
321.91	2.22
322.124	-24.4
322.337	16.55
322.55	20.65
322.763	63.66
322.977	10.41
323.19	32.94
323.403	49.32
323.617	4.27
323.83	41.13
324.043	41.13
324.256	34.99
324.469	-24.4
324.683	0.17
324.896	69.8
325.109	0.17
325.322	55.47
325.535	77.99
325.748	147.62
325.962	49.32
326.175	123.05
326.388	82.09
326.601	41.13
326.814	51.37
327.027	-32.6
327.24	100.52
327.453	-16.21
327.666	-46.93
327.879	73.9
328.092	41.13
328.305	10.41
328.518	20.65
328.731	-12.12
328.944	43.18
329.157	37.03
329.37	-5.97
329.583	14.51
329.796	-16.21
330.009	28.84
330.222	59.56
330.435	51.37
330.648	18.6
330.861	61.61
331.073	49.32
331.286	71.85
331.499	49.32
331.712	-14.17
331.925	-14.17
332.138	43.18
332.35	43.18
332.563	24.75
332.776	67.75
332.989	-5.97
333.202	0.17
333.414	-5.97
333.627	94.38
333.84	37.03
334.053	65.71
334.265	14.51
334.478	28.84
334.691	102.57
334.903	12.46
335.116	-8.02
335.329	65.71
335.541	4.27
335.754	114.86
335.966	20.65
336.179	0.17
336.392	-16.21
336.604	92.33
336.817	28.84
337.029	22.7
337.242	-32.6
337.454	10.41
337.667	37.03
337.88	118.95
338.092	-16.21
338.305	59.56
338.517	41.13
338.729	10.41
338.942	49.32
339.154	-89.94
339.367	-38.74
339.579	16.55
339.792	2.22
340.004	8.36
340.217	34.99
340.429	14.51
340.641	10.41
340.854	14.51
341.066	41.13
341.278	90.28
341.491	18.6
341.703	43.18
341.915	-46.93
342.128	6.31
342.34	-40.79
342.552	16.55
342.764	-18.26
342.977	73.9
343.189	28.84
343.401	69.8
343.613	-14.17
343.826	121
344.038	-30.55
344.25	53.42
344.462	0.17
344.674	67.75
344.886	-53.08
345.099	-16.21
345.311	94.38
345.523	18.6
345.735	18.6
345.947	73.9
346.159	-14.17
346.371	16.55
346.583	49.32
346.795	41.13
347.007	-5.97
347.219	-16.21
347.431	49.32
347.643	51.37
347.855	-20.31
348.067	16.55
348.279	51.37
348.491	49.32
348.703	-5.97
348.915	14.51
349.127	32.94
349.339	114.86
349.551	37.03
349.763	0.17
349.975	26.79
350.187	73.9
350.399	77.99
350.61	0.17
350.822	37.03
351.034	51.37
351.246	65.71
351.458	24.75
351.669	34.99
351.881	104.62
352.093	24.75
352.305	6.31
352.517	41.13
352.728	84.14
352.94	-3.93
353.152	-20.31
353.363	24.75
353.575	51.37
353.787	24.75
353.999	-30.55
354.21	51.37
354.422	51.37
354.633	32.94
354.845	90.28
355.057	-16.21
355.268	-3.93
355.48	20.65
355.692	-14.17
355.903	61.61
356.115	-1.88
356.326	-73.56
356.538	28.84
356.749	84.14
356.961	94.38
357.172	65.71
357.384	26.79
357.595	155.82
357.807	-5.97
358.018	80.04
358.23	53.42
358.441	22.7
358.653	112.81
358.864	49.32
359.075	-81.75
359.287	168.1
359.498	32.94
359.709	12.46
359.921	-5.97
360.132	26.79
360.344	24.75
360.555	-28.5
360.766	10.41
360.977	41.13
361.189	34.99
361.4	8.36
361.611	34.99
361.823	57.51
362.034	49.32
362.245	-16.21
362.456	94.38
362.667	-53.08
362.879	43.18
363.09	51.37
363.301	24.75
363.512	90.28
363.723	67.75
363.935	4.27
364.146	-34.64
364.357	16.55
364.568	45.23
364.779	16.55
364.99	32.94
365.201	34.99
365.412	131.24
365.623	26.79
365.834	-24.4
366.045	45.23
366.256	108.71
366.467	102.57
366.678	20.65
366.889	34.99
367.1	24.75
367.311	71.85
367.522	123.05
367.733	53.42
367.944	16.55
368.155	24.75
368.366	147.62
368.577	39.08
368.788	118.95
368.999	57.51
369.209	51.37
369.42	32.94
369.631	88.23
369.842	26.79
370.053	18.6
370.264	-20.31
370.474	34.99
370.685	30.89
370.896	86.19
371.107	75.95
371.317	6.31
371.528	24.75
371.739	32.94
371.95	55.47
372.16	145.58
372.371	-3.93
372.582	45.23
372.792	-8.02
373.003	51.37
373.214	4.27
373.424	20.65
373.635	-63.32
373.846	59.56
374.056	20.65
374.267	75.95
374.477	32.94
374.688	4.27
374.898	18.6
375.109	86.19
375.319	53.42
375.53	12.46
375.74	4.27
375.951	73.9
376.161	37.03
376.372	12.46
376.582	20.65
376.793	-5.97
377.003	37.03
377.214	92.33
377.424	65.71
377.635	94.38
377.845	-44.88
378.055	67.75
378.266	-28.5
378.476	-5.97
378.686	6.31
378.897	65.71
379.107	77.99
379.317	77.99
379.528	51.37
379.738	30.89
379.948	24.75
380.158	45.23
380.369	32.94
380.579	75.95
380.789	34.99
380.999	73.9
381.21	22.7
381.42	57.51
381.63	-1.88
381.84	6.31
382.05	86.19
382.261	43.18
382.471	39.08
382.681	16.55
382.891	47.27
383.101	10.41
383.311	53.42
383.521	18.6
383.731	49.32
383.941	-16.21
384.151	-42.84
384.361	65.71
384.571	0.17
384.781	92.33
384.991	90.28
385.201	73.9
385.411	32.94
385.621	34.99
385.831	8.36
386.041	49.32
386.251	41.13
386.461	8.36
386.671	45.23
386.881	67.75
387.091	20.65
387.301	123.05
387.511	49.32
387.72	43.18
387.93	43.18
388.14	-16.21
388.35	0.17
388.56	71.85
388.769	18.6
388.979	41.13
389.189	24.75
389.399	73.9
389.609	32.94
389.818	59.56
390.028	34.99
390.238	53.42
390.447	18.6
390.657	34.99
390.867	61.61
391.076	2.22
391.286	12.46
391.496	90.28
391.705	22.7
391.915	123.05
392.125	18.6
392.334	71.85
392.544	75.95
392.753	30.89
392.963	4.27
393.172	37.03
393.382	71.85
393.591	84.14
393.801	-40.79
394.01	32.94
394.22	14.51
394.429	-28.5
394.639	24.75
394.848	24.75
395.058	49.32
395.267	77.99
395.477	84.14
395.686	45.23
395.895	147.62
396.105	20.65
396.314	41.13
396.524	67.75
396.733	53.42
396.942	61.61
397.152	82.09
397.361	61.61
397.57	47.27
397.78	151.72
397.989	90.28
398.198	139.43
398.407	39.08
398.617	20.65
398.826	49.32
399.035	37.03
399.244	123.05
399.453	20.65
399.663	43.18
399.872	90.28
400.081	28.84
400.29	84.14
400.499	67.75
400.708	108.71
400.917	8.36
401.127	92.33
401.336	110.76
401.545	110.76
401.754	57.51
401.963	24.75
402.172	26.79
402.381	59.56
402.59	145.58
402.799	80.04
403.008	129.19
403.217	59.56
403.426	84.14
403.635	106.67
403.844	82.09
404.053	116.9
404.262	82.09
404.471	155.82
404.68	135.34
404.888	166.06
405.097	143.53
405.306	139.43
405.515	139.43
405.724	149.67
405.933	102.57
406.142	213.16
406.35	184.49
406.559	59.56
406.768	123.05
406.977	157.86
407.185	198.82
407.394	125.1
407.603	155.82
407.812	100.52
408.02	151.72
408.229	155.82
408.438	233.64
408.646	217.26
408.855	188.58
409.064	168.1
409.272	270.5
409.481	260.26
409.69	274.6
409.898	172.2
410.107	192.68
410.315	256.17
410.524	245.93
410.733	260.26
410.941	213.16
411.15	223.4
411.358	270.5
411.567	288.93
411.775	299.17
411.984	338.09
412.192	387.24
412.401	352.42
412.609	356.52
412.818	405.67
413.026	471.2
413.234	358.57
413.443	397.48
413.651	409.76
413.86	385.19
414.068	417.96
414.276	450.72
414.485	483.49
414.693	551.07
414.901	463.01
415.11	493.73
415.318	487.59
415.526	528.55
415.734	639.14
415.943	575.65
416.151	643.23
416.359	647.33
416.567	725.15
416.776	610.47
416.984	741.54
417.192	753.82
417.4	733.34
417.608	747.68
417.817	802.97
418.025	833.69
418.233	942.24
418.441	821.41
418.649	839.84
418.857	983.2
419.065	1048.73
419.273	927.9
419.481	1061.02
419.689	1044.63
419.897	1249.43
420.105	1194.14
420.313	1208.47
420.521	1255.58
420.729	1261.72
420.937	1294.49
421.145	1302.68
421.353	1380.5
421.561	1378.45
421.769	1482.9
421.977	1558.67
422.185	1470.61
422.393	1749.14
422.601	1708.18
422.809	1779.86
423.017	1728.66
423.224	1779.86
423.432	1855.63
423.64	1935.5
423.848	2015.37
424.056	1927.31
424.263	2146.44
424.471	2179.21
424.679	2166.92
424.887	2244.74
425.094	2306.18
425.302	2414.73
425.51	2429.06
425.718	2515.08
425.925	2578.56
426.133	2670.72
426.341	2887.81
426.548	2918.53
426.756	2949.25
426.964	3039.36
427.171	3166.33
427.379	3268.73
427.586	3195
427.794	3432.57
428.001	3526.77
428.209	3649.65
428.417	3680.37
428.624	3862.64
428.832	3803.25
429.039	3876.98
429.247	3903.6
429.454	4214.89
429.662	4417.64
429.869	4022.38
430.076	4544.61
430.284	4292.71
430.491	4581.48
430.699	4767.84
430.906	4878.43
431.114	4925.54
431.321	5056.61
431.528	5367.9
431.736	5496.92
431.943	5941.33
432.15	5587.03
432.358	5662.8
432.565	5886.03
432.772	5908.56
432.979	6217.8
433.187	6172.75
433.394	6318.15
433.601	6803.52
433.808	6852.67
434.016	6860.87
434.223	7077.95
434.43	7452.73
434.637	7430.2
434.844	7798.84
435.052	8065.07
435.259	7909.43
435.466	7970.87
435.673	7847.99
435.88	8560.68
436.087	8851.49
436.294	8847.4
436.501	8644.65
436.708	8712.23
436.915	9160.73
437.122	9420.83
437.329	9496.6
437.537	9574.42
437.743	10020.88
437.95	9900.05
438.157	10246.16
438.364	10831.88
438.571	10514.44
438.778	10579.98
438.985	11649.02
439.192	11042.82
439.399	11579.39
439.606	11212.8
439.813	11905.01
440.02	12814.31
440.227	12634.09
440.433	12361.71
440.64	12701.67
440.847	12722.15
441.054	12969.96
441.261	13895.64
441.467	13629.4
441.674	13893.59
441.881	14385.1
442.088	14385.1
442.294	14323.66
442.501	14655.44
442.708	14954.44
442.914	15540.16
443.121	16273.33
443.328	15583.16
443.534	16813.99
443.741	16410.54
443.948	16089.01
444.154	17252.26
444.361	17381.28
444.568	17145.77
444.774	17231.78
444.981	17381.28
445.187	18067.35
445.394	18675.6
445.6	18450.32
445.807	20182.9
446.013	19509.12
446.22	19857.28
446.426	20531.06
446.633	20420.47
446.839	21520.23
447.046	20721.52
447.252	21843.81
447.459	21614.43
447.665	21466.98
447.871	22343.51
448.078	23377.73
448.284	22376.28
448.491	23019.34
448.697	23600.96
448.903	24033.08
449.11	24485.69
449.316	23932.73
449.522	24203.07
449.728	25118.51
449.935	25460.52
450.141	25181.99
450.347	25929.5
450.553	24993.58
450.76	25327.4
450.966	26519.32
451.172	26019.61
451.378	26660.63
451.584	26234.65
451.791	26328.86
451.997	26691.35
452.203	27266.83
452.409	27252.49
452.615	26949.39
452.821	25861.92
453.027	25599.78
453.233	26840.85
453.44	25902.88
453.646	26238.75
453.852	26634
454.058	26887.95
454.264	26277.66
454.47	26781.46
454.676	25685.79
454.882	26924.82
455.088	24487.73
455.294	25050.92
455.5	25270.06
455.705	25603.88
455.911	24782.64
456.117	24366.9
456.323	23918.4
456.529	22290.26
456.735	24076.09
456.941	22853.45
457.147	22947.66
457.352	22019.93
457.558	21974.88
457.764	21825.37
457.97	21462.88
458.176	20911.98
458.381	20995.95
458.587	19666.81
458.793	19914.62
458.999	19033.99
459.204	20117.37
459.41	19677.05
459.616	18782.09
459.821	18784.14
460.027	18542.48
460.233	18112.41
460.438	17317.79
460.644	17629.09
460.85	16621.49
461.055	16570.29
461.261	16422.83
461.466	14962.63
461.672	14981.06
461.878	15376.32
462.083	14528.46
462.289	14397.39
462.494	14247.89
462.7	13610.97
462.905	13447.13
463.111	13590.49
463.316	13682.65
463.522	13762.52
463.727	13471.71
463.932	13592.54
464.138	13262.82
464.343	13529.05
464.549	12943.33
464.754	13320.16
464.959	13297.63
465.165	13166.56
465.37	12632.04
465.575	12310.51
465.781	12898.28
465.986	12564.46
466.191	12236.78
466.397	12054.51
466.602	11554.81
466.807	12015.6
467.012	11870.2
467.218	11765.75
467.423	11831.29
467.628	11745.27
467.833	12279.79
468.038	11821.05
468.244	11450.36
