Data from USB4F104151__313__14-27-07-405.txt Node

Date: Thu Mar 13 14:27:07 EDT 2025
User: louis
Spectrometer: USB4F10415
Trigger mode: 4
Integration Time (sec): 2.500000E-2
Scans to average: 1
Electric dark correction enabled: true
Nonlinearity correction enabled: false
Boxcar width: 0
XAxis mode: Wavelengths
Number of Pixels in Spectrum: 3648
>>>>>Begin Spectral Data<<<<<
178.204	-119.64
178.424	-119.64
178.644	-119.64
178.864	-127.83
179.084	-156.5
179.304	-9.05
179.524	58.54
179.744	11.43
179.964	-13.14
180.184	25.77
180.404	36.01
180.624	-7
180.844	-21.33
181.064	-52.05
181.283	31.91
181.503	-45.91
181.723	-15.19
181.943	-35.67
182.163	46.25
182.383	58.54
182.602	70.83
182.822	68.78
183.042	52.39
183.262	50.35
183.482	38.06
183.701	44.2
183.921	60.59
184.141	103.59
184.361	99.5
184.58	74.92
184.8	105.64
185.02	74.92
185.239	101.55
185.459	-4.95
185.679	42.15
185.898	9.39
186.118	124.07
186.338	66.73
186.557	87.21
186.777	19.63
186.997	50.35
187.216	17.58
187.436	132.26
187.655	91.31
187.875	58.54
188.095	-64.34
188.314	31.91
188.534	83.11
188.753	19.63
188.973	74.92
189.192	21.67
189.412	62.63
189.631	-21.33
189.851	9.39
190.07	87.21
190.29	-21.33
190.509	54.44
190.729	3.24
190.948	101.55
191.168	126.12
191.387	91.31
191.607	58.54
191.826	76.97
192.045	66.73
192.265	46.25
192.484	87.21
192.704	81.07
192.923	-35.67
193.142	105.64
193.362	17.58
193.581	107.69
193.8	56.49
194.02	50.35
194.239	85.16
194.458	119.98
194.678	89.26
194.897	21.67
195.116	17.58
195.335	25.77
195.555	85.16
195.774	33.96
195.993	40.11
196.212	11.43
196.432	19.63
196.651	70.83
196.87	46.25
197.089	95.4
197.308	87.21
197.528	128.17
197.747	-15.19
197.966	58.54
198.185	56.49
198.404	50.35
198.623	83.11
198.842	46.25
199.062	76.97
199.281	91.31
199.5	25.77
199.719	95.4
199.938	66.73
200.157	81.07
200.376	-7
200.595	93.35
200.814	101.55
201.033	66.73
201.252	136.36
201.471	74.92
201.69	15.53
201.909	56.49
202.128	113.83
202.347	107.69
202.566	50.35
202.785	70.83
203.004	83.11
203.223	103.59
203.442	50.35
203.661	64.68
203.879	17.58
204.098	9.39
204.317	36.01
204.536	85.16
204.755	66.73
204.974	95.4
205.193	85.16
205.411	99.5
205.63	50.35
205.849	9.39
206.068	52.39
206.287	144.55
206.505	117.93
206.724	70.83
206.943	44.2
207.162	85.16
207.381	103.59
207.599	29.87
207.818	74.92
208.037	48.3
208.255	99.5
208.474	54.44
208.693	58.54
208.911	54.44
209.13	52.39
209.349	50.35
209.567	187.56
209.786	132.26
210.005	134.31
210.223	70.83
210.442	-2.9
210.661	83.11
210.879	70.83
211.098	3.24
211.316	119.98
211.535	148.65
211.753	17.58
211.972	76.97
212.191	42.15
212.409	79.02
212.628	99.5
212.846	33.96
213.065	68.78
213.283	85.16
213.502	-29.52
213.72	70.83
213.938	54.44
214.157	79.02
214.375	115.88
214.594	91.31
214.812	56.49
215.031	60.59
215.249	56.49
215.467	36.01
215.686	38.06
215.904	3.24
216.122	66.73
216.341	115.88
216.559	152.74
216.778	70.83
216.996	25.77
217.214	9.39
217.432	5.29
217.651	79.02
217.869	101.55
218.087	17.58
218.306	58.54
218.524	113.83
218.742	58.54
218.96	99.5
219.179	9.39
219.397	58.54
219.615	93.35
219.833	156.84
220.051	27.82
220.27	87.21
220.488	119.98
220.706	79.02
220.924	52.39
221.142	83.11
221.36	54.44
221.578	109.74
221.796	85.16
222.015	3.24
222.233	58.54
222.451	95.4
222.669	42.15
222.887	107.69
223.105	27.82
223.323	-4.95
223.541	101.55
223.759	60.59
223.977	91.31
224.195	76.97
224.413	19.63
224.631	3.24
224.849	-0.85
225.067	97.45
225.285	1.19
225.503	25.77
225.721	1.19
225.939	113.83
226.157	31.91
226.375	189.61
226.592	-15.19
226.81	91.31
227.028	156.84
227.246	107.69
227.464	128.17
227.682	124.07
227.9	95.4
228.117	40.11
228.335	97.45
228.553	68.78
228.771	52.39
228.989	66.73
229.206	1.19
229.424	93.35
229.642	52.39
229.86	29.87
230.077	58.54
230.295	36.01
230.513	70.83
230.731	-7
230.948	58.54
231.166	50.35
231.384	9.39
231.601	60.59
231.819	76.97
232.037	42.15
232.254	76.97
232.472	91.31
232.689	15.53
232.907	158.89
233.125	13.48
233.342	74.92
233.56	44.2
233.777	60.59
233.995	58.54
234.213	76.97
234.43	99.5
234.648	25.77
234.865	-37.72
235.083	25.77
235.3	56.49
235.518	54.44
235.735	124.07
235.953	140.46
236.17	76.97
236.388	58.54
236.605	128.17
236.822	83.11
237.04	101.55
237.257	60.59
237.475	-11.09
237.692	42.15
237.909	76.97
238.127	7.34
238.344	-0.85
238.562	79.02
238.779	42.15
238.996	70.83
239.214	54.44
239.431	66.73
239.648	36.01
239.865	128.17
240.083	58.54
240.3	91.31
240.517	62.63
240.735	38.06
240.952	99.5
241.169	60.59
241.386	58.54
241.603	42.15
241.821	60.59
242.038	189.61
242.255	122.02
242.472	76.97
242.689	83.11
242.907	171.18
243.124	50.35
243.341	93.35
243.558	50.35
243.775	-4.95
243.992	50.35
244.209	115.88
244.426	140.46
244.643	85.16
244.86	79.02
245.078	85.16
245.295	66.73
245.512	70.83
245.729	3.24
245.946	11.43
246.163	83.11
246.38	107.69
246.597	101.55
246.814	124.07
247.031	21.67
247.248	60.59
247.464	36.01
247.681	11.43
247.898	60.59
248.115	70.83
248.332	56.49
248.549	70.83
248.766	158.89
248.983	79.02
249.2	115.88
249.417	95.4
249.633	38.06
249.85	99.5
250.067	9.39
250.284	60.59
250.501	109.74
250.717	117.93
250.934	-37.72
251.151	76.97
251.368	83.11
251.585	115.88
251.801	91.31
252.018	58.54
252.235	76.97
252.451	79.02
252.668	27.82
252.885	91.31
253.102	27.82
253.318	115.88
253.535	54.44
253.752	93.35
253.968	54.44
254.185	60.59
254.401	56.49
254.618	68.78
254.835	91.31
255.051	101.55
255.268	48.3
255.484	91.31
255.701	46.25
255.917	60.59
256.134	33.96
256.351	140.46
256.567	38.06
256.784	81.07
257	17.58
257.217	138.41
257.433	91.31
257.65	50.35
257.866	148.65
258.082	-7
258.299	21.67
258.515	87.21
258.732	23.72
258.948	42.15
259.165	68.78
259.381	33.96
259.597	62.63
259.814	15.53
260.03	119.98
260.246	46.25
260.463	132.26
260.679	140.46
260.895	64.68
261.112	36.01
261.328	-13.14
261.544	36.01
261.761	156.84
261.977	27.82
262.193	-21.33
262.409	58.54
262.626	91.31
262.842	27.82
263.058	40.11
263.274	107.69
263.49	58.54
263.707	167.08
263.923	83.11
264.139	40.11
264.355	134.31
264.571	103.59
264.787	54.44
265.004	72.87
265.22	91.31
265.436	85.16
265.652	44.2
265.868	79.02
266.084	48.3
266.3	27.82
266.516	54.44
266.732	66.73
266.948	87.21
267.164	107.69
267.38	99.5
267.596	132.26
267.812	124.07
268.028	101.55
268.244	50.35
268.46	29.87
268.676	33.96
268.892	134.31
269.108	81.07
269.324	50.35
269.54	58.54
269.756	91.31
269.972	99.5
270.188	97.45
270.403	-7
270.619	60.59
270.835	97.45
271.051	23.72
271.267	33.96
271.483	126.12
271.698	150.7
271.914	140.46
272.13	64.68
272.346	50.35
272.562	21.67
272.777	27.82
272.993	1.19
273.209	95.4
273.425	132.26
273.64	60.59
273.856	93.35
274.072	91.31
274.287	56.49
274.503	142.5
274.719	56.49
274.934	54.44
275.15	33.96
275.366	83.11
275.581	58.54
275.797	42.15
276.012	74.92
276.228	17.58
276.444	60.59
276.659	105.64
276.875	72.87
277.09	19.63
277.306	-15.19
277.521	62.63
277.737	52.39
277.952	119.98
278.168	74.92
278.383	74.92
278.599	148.65
278.814	76.97
279.03	91.31
279.245	99.5
279.461	68.78
279.676	42.15
279.892	11.43
280.107	33.96
280.322	-45.91
280.538	148.65
280.753	54.44
280.969	58.54
281.184	95.4
281.399	95.4
281.615	60.59
281.83	103.59
282.045	93.35
282.26	27.82
282.476	3.24
282.691	140.46
282.906	27.82
283.122	93.35
283.337	50.35
283.552	62.63
283.767	62.63
283.983	126.12
284.198	3.24
284.413	109.74
284.628	107.69
284.843	25.77
285.058	169.13
285.274	126.12
285.489	62.63
285.704	115.88
285.919	42.15
286.134	91.31
286.349	85.16
286.564	44.2
286.779	40.11
286.995	44.2
287.21	38.06
287.425	132.26
287.64	64.68
287.855	48.3
288.07	-45.91
288.285	85.16
288.5	146.6
288.715	33.96
288.93	103.59
289.145	15.53
289.36	117.93
289.575	142.5
289.79	101.55
290.004	50.35
290.219	142.5
290.434	-2.9
290.649	103.59
290.864	21.67
291.079	115.88
291.294	46.25
291.509	101.55
291.724	62.63
291.938	115.88
292.153	83.11
292.368	54.44
292.583	9.39
292.798	66.73
293.012	60.59
293.227	60.59
293.442	111.78
293.657	91.31
293.871	119.98
294.086	83.11
294.301	175.27
294.516	165.03
294.73	42.15
294.945	50.35
295.16	58.54
295.374	74.92
295.589	119.98
295.804	79.02
296.018	70.83
296.233	142.5
296.447	33.96
296.662	25.77
296.877	99.5
297.091	33.96
297.306	9.39
297.52	17.58
297.735	134.31
297.949	48.3
298.164	19.63
298.378	-4.95
298.593	99.5
298.807	62.63
299.022	146.6
299.236	140.46
299.451	33.96
299.665	54.44
299.88	66.73
300.094	99.5
300.309	72.87
300.523	52.39
300.737	144.55
300.952	70.83
301.166	152.74
301.381	83.11
301.595	38.06
301.809	91.31
302.024	52.39
302.238	-7
302.452	140.46
302.667	29.87
302.881	109.74
303.095	122.02
303.309	124.07
303.524	79.02
303.738	76.97
303.952	117.93
304.166	25.77
304.381	36.01
304.595	105.64
304.809	58.54
305.023	74.92
305.237	-23.38
305.452	21.67
305.666	171.18
305.88	113.83
306.094	68.78
306.308	115.88
306.522	66.73
306.736	93.35
306.95	148.65
307.164	107.69
307.379	60.59
307.593	91.31
307.807	91.31
308.021	74.92
308.235	115.88
308.449	68.78
308.663	95.4
308.877	124.07
309.091	72.87
309.305	85.16
309.519	64.68
309.733	91.31
309.947	-7
310.161	107.69
310.374	93.35
310.588	119.98
310.802	79.02
311.016	36.01
311.23	105.64
311.444	42.15
311.658	111.78
311.872	38.06
312.085	46.25
312.299	70.83
312.513	103.59
312.727	60.59
312.941	50.35
313.154	83.11
313.368	42.15
313.582	132.26
313.796	68.78
314.009	150.7
314.223	99.5
314.437	107.69
314.651	134.31
314.864	25.77
315.078	111.78
315.292	38.06
315.505	115.88
315.719	60.59
315.933	89.26
316.146	62.63
316.36	15.53
316.573	160.94
316.787	103.59
317.001	144.55
317.214	-35.67
317.428	62.63
317.641	54.44
317.855	70.83
318.068	-4.95
318.282	140.46
318.495	158.89
318.709	48.3
318.922	105.64
319.136	115.88
319.349	89.26
319.563	60.59
319.776	50.35
319.99	33.96
320.203	105.64
320.417	13.48
320.63	113.83
320.843	76.97
321.057	113.83
321.27	91.31
321.483	74.92
321.697	167.08
321.91	109.74
322.124	25.77
322.337	58.54
322.55	54.44
322.763	76.97
322.977	9.39
323.19	81.07
323.403	111.78
323.617	105.64
323.83	46.25
324.043	17.58
324.256	76.97
324.469	-9.05
324.683	132.26
324.896	79.02
325.109	74.92
325.322	25.77
325.535	156.84
325.748	111.78
325.962	50.35
326.175	36.01
326.388	91.31
326.601	95.4
326.814	13.48
327.027	89.26
327.24	107.69
327.453	-0.85
327.666	103.59
327.879	181.42
328.092	66.73
328.305	158.89
328.518	95.4
328.731	60.59
328.944	79.02
329.157	175.27
329.37	-2.9
329.583	128.17
329.796	62.63
330.009	70.83
330.222	132.26
330.435	50.35
330.648	62.63
330.861	50.35
331.073	79.02
331.286	72.87
331.499	107.69
331.712	117.93
331.925	50.35
332.138	-15.19
332.35	109.74
332.563	5.29
332.776	132.26
332.989	36.01
333.202	79.02
333.414	58.54
333.627	36.01
333.84	44.2
334.053	132.26
334.265	70.83
334.478	25.77
334.691	169.13
334.903	74.92
335.116	40.11
335.329	74.92
335.541	93.35
335.754	144.55
335.966	29.87
336.179	74.92
336.392	17.58
336.604	50.35
336.817	140.46
337.029	36.01
337.242	1.19
337.454	119.98
337.667	152.74
337.88	74.92
338.092	99.5
338.305	117.93
338.517	66.73
338.729	74.92
338.942	115.88
339.154	122.02
339.367	-11.09
339.579	70.83
339.792	113.83
340.004	76.97
340.217	68.78
340.429	156.84
340.641	-31.57
340.854	74.92
341.066	29.87
341.278	95.4
341.491	138.41
341.703	74.92
341.915	19.63
342.128	79.02
342.34	87.21
342.552	93.35
342.764	87.21
342.977	85.16
343.189	58.54
343.401	144.55
343.613	1.19
343.826	72.87
344.038	62.63
344.25	140.46
344.462	13.48
344.674	128.17
344.886	109.74
345.099	58.54
345.311	119.98
345.523	83.11
345.735	1.19
345.947	99.5
346.159	52.39
346.371	140.46
346.583	99.5
346.795	111.78
347.007	95.4
347.219	115.88
347.431	50.35
347.643	132.26
347.855	29.87
348.067	103.59
348.279	46.25
348.491	17.58
348.703	97.45
348.915	83.11
349.127	44.2
349.339	83.11
349.551	36.01
349.763	76.97
349.975	97.45
350.187	124.07
350.399	74.92
350.61	103.59
350.822	66.73
351.034	115.88
351.246	62.63
351.458	25.77
351.669	9.39
351.881	148.65
352.093	74.92
352.305	124.07
352.517	109.74
352.728	99.5
352.94	115.88
353.152	140.46
353.363	64.68
353.575	162.98
353.787	103.59
353.999	99.5
354.21	181.42
354.422	70.83
354.633	87.21
354.845	85.16
355.057	128.17
355.268	113.83
355.48	113.83
355.692	62.63
355.903	74.92
356.115	83.11
356.326	-35.67
356.538	115.88
356.749	25.77
356.961	148.65
357.172	17.58
357.384	66.73
357.595	148.65
357.807	50.35
358.018	25.77
358.23	64.68
358.441	101.55
358.653	130.22
358.864	115.88
359.075	134.31
359.287	91.31
359.498	181.42
359.709	33.96
359.921	99.5
360.132	113.83
360.344	85.16
360.555	103.59
360.766	140.46
360.977	21.67
361.189	124.07
361.4	74.92
361.611	99.5
361.823	185.51
362.034	33.96
362.245	101.55
362.456	97.45
362.667	36.01
362.879	36.01
363.09	74.92
363.301	132.26
363.512	144.55
363.723	111.78
363.935	66.73
364.146	132.26
364.357	119.98
364.568	42.15
364.779	56.49
364.99	9.39
365.201	93.35
365.412	66.73
365.623	150.7
365.834	87.21
366.045	13.48
366.256	93.35
366.467	107.69
366.678	115.88
366.889	83.11
367.1	148.65
367.311	70.83
367.522	132.26
367.733	126.12
367.944	156.84
368.155	60.59
368.366	93.35
368.577	115.88
368.788	91.31
368.999	85.16
369.209	76.97
369.42	165.03
369.631	132.26
369.842	83.11
370.053	95.4
370.264	95.4
370.474	60.59
370.685	101.55
370.896	70.83
371.107	173.22
371.317	124.07
371.528	68.78
371.739	74.92
371.95	132.26
372.16	140.46
372.371	70.83
372.582	50.35
372.792	42.15
373.003	156.84
373.214	54.44
373.424	52.39
373.635	79.02
373.846	165.03
374.056	46.25
374.267	1.19
374.477	50.35
374.688	-27.48
374.898	99.5
375.109	60.59
375.319	107.69
375.53	95.4
375.74	119.98
375.951	148.65
376.161	156.84
376.372	181.42
376.582	48.3
376.793	165.03
377.003	130.22
377.214	54.44
377.424	60.59
377.635	13.48
377.845	124.07
378.055	197.8
378.266	36.01
378.476	50.35
378.686	148.65
378.897	3.24
379.107	109.74
379.317	58.54
379.528	103.59
379.738	95.4
379.948	-21.33
380.158	165.03
380.369	-4.95
380.579	103.59
380.789	132.26
380.999	148.65
381.21	132.26
381.42	136.36
381.63	89.26
381.84	148.65
382.05	154.79
382.261	56.49
382.471	162.98
382.681	58.54
382.891	103.59
383.101	99.5
383.311	156.84
383.521	68.78
383.731	101.55
383.941	76.97
384.151	17.58
384.361	60.59
384.571	107.69
384.781	52.39
384.991	111.78
385.201	152.74
385.411	81.07
385.621	107.69
385.831	76.97
386.041	93.35
386.251	89.26
386.461	79.02
386.671	119.98
386.881	109.74
387.091	99.5
387.301	107.69
387.511	17.58
387.72	140.46
387.93	126.12
388.14	107.69
388.35	91.31
388.56	97.45
388.769	165.03
388.979	117.93
389.189	79.02
389.399	83.11
389.609	91.31
389.818	216.23
390.028	132.26
390.238	134.31
390.447	83.11
390.657	50.35
390.867	134.31
391.076	58.54
391.286	103.59
391.496	119.98
391.705	87.21
391.915	109.74
392.125	122.02
392.334	148.65
392.544	99.5
392.753	97.45
392.963	107.69
393.172	124.07
393.382	150.7
393.591	185.51
393.801	185.51
394.01	236.71
394.22	122.02
394.429	167.08
394.639	117.93
394.848	185.51
395.058	134.31
395.267	107.69
395.477	119.98
395.686	119.98
395.895	156.84
396.105	230.57
396.314	99.5
396.524	156.84
396.733	50.35
396.942	156.84
397.152	173.22
397.361	154.79
397.57	115.88
397.78	240.81
397.989	169.13
398.198	210.09
398.407	195.75
398.617	167.08
398.826	160.94
399.035	144.55
399.244	165.03
399.453	167.08
399.663	179.37
399.872	66.73
400.081	126.12
400.29	197.8
400.499	144.55
400.708	328.87
400.917	117.93
401.127	165.03
401.336	210.09
401.545	249
401.754	66.73
401.963	232.62
402.172	189.61
402.381	173.22
402.59	263.33
402.799	154.79
403.008	238.76
403.217	205.99
403.426	232.62
403.635	132.26
403.844	210.09
404.053	226.47
404.262	158.89
404.471	273.57
404.68	322.73
404.888	218.28
405.097	169.13
405.306	232.62
405.515	257.19
405.724	226.47
405.933	320.68
406.142	304.29
406.35	324.77
406.559	287.91
406.768	265.38
406.977	337.06
407.185	216.23
407.394	300.2
407.603	296.1
407.812	263.33
408.02	416.93
408.229	355.49
408.438	332.97
408.646	386.21
408.855	361.64
409.064	390.31
409.272	353.45
409.481	445.6
409.69	410.79
409.898	404.64
410.107	369.83
410.315	416.93
410.524	464.04
410.733	451.75
410.941	476.32
411.15	541.86
411.358	517.28
411.567	607.39
411.775	611.49
411.984	664.74
412.192	591.01
412.401	638.11
412.609	611.49
412.818	738.46
413.026	773.28
413.234	787.61
413.443	750.75
413.651	748.7
413.86	820.38
414.068	904.35
414.276	945.31
414.485	861.34
414.693	980.12
414.901	1012.89
415.11	1025.18
415.318	947.36
415.526	1090.71
415.734	1172.63
415.943	1119.39
416.151	1217.69
416.359	1168.54
416.567	1256.6
416.776	1285.27
416.984	1479.83
417.192	1404.05
417.4	1363.09
417.608	1504.4
417.817	1381.53
418.025	1514.64
418.233	1557.65
418.441	1592.47
418.649	1696.91
418.857	1764.5
419.065	1891.47
419.273	1856.65
419.481	1940.62
419.689	2024.59
419.897	2149.51
420.105	2098.31
420.313	2231.43
420.521	2245.77
420.729	2299.02
420.937	2491.52
421.145	2462.85
421.353	2626.69
421.561	2794.62
421.769	2813.06
421.977	2894.97
422.185	2921.6
422.393	3079.29
422.601	3187.83
422.809	3183.74
423.017	3253.37
423.224	3398.77
423.432	3619.96
423.64	3513.46
423.848	3884.14
424.056	3857.52
424.263	4025.45
424.471	3855.47
424.679	4154.48
424.887	4437.09
425.094	4494.44
425.302	4596.84
425.51	4725.86
425.718	4674.66
425.925	5043.29
426.133	5287
426.341	5266.52
426.548	5497.94
426.756	5508.18
426.964	5614.68
427.171	6034.51
427.379	5999.7
427.586	6073.42
427.794	6349.9
428.001	6540.36
428.209	6896.71
428.417	6794.31
428.624	7220.28
428.832	7251
429.039	7189.56
429.247	7373.88
429.454	7965.75
429.662	8258.6
429.869	7980.08
430.076	8639.53
430.284	8229.93
430.491	8569.9
430.699	9036.83
430.906	8950.82
431.114	9223.2
431.321	9401.37
431.528	9847.83
431.736	10304.53
431.943	10691.59
432.15	10408.97
432.358	10695.69
432.565	11203.58
432.772	11154.43
432.979	11719.67
433.187	11770.87
433.394	11926.52
433.601	12841.96
433.808	12901.35
434.016	12678.12
434.223	13419.49
434.43	13968.34
434.637	13677.53
434.844	14504.91
435.052	14752.71
435.259	14603.21
435.466	14801.86
435.673	14678.99
435.88	15547.33
436.087	16470.96
436.294	16575.41
436.501	16133.04
436.708	16479.15
436.915	16876.46
437.122	17783.71
437.329	17519.52
437.537	18494.35
437.743	18502.54
437.95	18377.62
438.157	19360.64
438.364	20276.09
438.571	19962.75
438.778	19950.46
438.985	21820.25
439.192	21119.85
439.399	21801.82
439.606	21046.12
439.813	22270.81
440.02	23814.98
440.227	23247.69
440.433	23130.95
440.64	23591.75
440.847	23845.69
441.054	24353.59
441.261	25721.63
441.467	25326.38
441.674	25932.57
441.881	26686.23
442.088	26751.76
442.294	26743.57
442.501	27626.25
442.708	27595.53
442.914	28934.9
443.121	30249.69
443.328	29520.62
443.534	31539.91
443.741	30501.59
443.948	30124.77
444.154	31955.65
444.361	32279.23
444.568	32496.31
444.774	32035.52
444.981	32393.92
445.187	33751.72
445.394	34849.43
445.6	34134.69
445.807	37677.68
446.013	36143.75
446.22	36737.66
446.426	38156.9
446.633	38703.71
446.839	39570
447.046	38054.5
447.252	40362.56
447.459	39893.58
447.665	40086.09
447.871	41726.51
448.078	43618.83
448.284	41046.58
448.491	42076.71
448.697	44012.04
448.903	45304.31
449.11	45177.34
449.316	44374.53
449.522	44743.17
449.728	46246.38
449.935	46350.82
450.141	46668.26
450.347	47530.45
450.553	46174.7
450.76	46801.38
450.966	48062.93
451.172	47833.55
451.378	49134.01
451.584	47813.07
451.791	48884.16
451.997	48904.64
452.203	49191.36
452.409	49674.68
452.615	49613.24
452.821	47794.64
453.027	46930.4
453.233	49547.7
453.44	47731.15
453.646	48032.21
453.852	48499.14
454.058	49185.21
454.264	47651.28
454.47	49056.19
454.676	47200.73
454.882	48724.42
455.088	45232.63
455.294	45634.03
455.5	46660.07
455.705	46698.98
455.911	44728.83
456.117	44046.86
456.323	43520.53
456.529	41908.78
456.735	43031.07
456.941	41589.3
457.147	41345.59
457.352	39963.21
457.558	39588.43
457.764	39862.86
457.97	38916.7
458.176	38320.74
458.381	38064.74
458.587	36108.93
458.793	36553.34
458.999	34511.52
459.204	36983.41
459.41	35517.07
459.616	33669.8
459.821	33710.76
460.027	33247.92
460.233	32772.79
460.438	31273.68
460.644	31703.75
460.85	30075.62
461.055	29514.47
461.261	29235.95
461.466	27366.15
461.672	26506.01
461.878	28592.89
462.083	26757.91
462.289	25899.81
462.494	25543.46
462.7	24576.82
462.905	24124.22
463.111	25279.27
463.316	25004.85
463.522	24408.89
463.727	24630.07
463.932	24318.78
464.138	24144.7
464.343	24003.39
464.549	23171.91
464.754	24109.88
464.959	24042.3
