Data from USB4F104151__252__14-22-37-361.txt Node

Date: Thu Mar 13 14:22:37 EDT 2025
User: louis
Spectrometer: USB4F10415
Trigger mode: 4
Integration Time (sec): 2.000000E-2
Scans to average: 1
Electric dark correction enabled: true
Nonlinearity correction enabled: false
Boxcar width: 0
XAxis mode: Wavelengths
Number of Pixels in Spectrum: 3648
>>>>>Begin Spectral Data<<<<<
178.204	-90.45
178.424	-90.45
178.644	-90.45
178.864	-69.97
179.084	-106.84
179.304	-49.49
179.524	20.14
179.744	-16.73
179.964	81.58
180.184	-22.87
180.404	-63.83
180.624	18.09
180.844	61.1
181.064	-92.5
181.283	5.8
181.503	22.19
181.723	36.52
181.943	-47.44
182.163	65.19
182.383	34.47
182.602	40.62
182.822	52.91
183.042	75.43
183.262	40.62
183.482	42.67
183.701	-16.73
183.921	42.67
184.141	-29.01
184.361	40.62
184.58	16.04
184.8	-24.92
185.02	40.62
185.239	75.43
185.459	46.76
185.679	7.85
185.898	32.43
186.118	40.62
186.338	-12.63
186.557	97.96
186.777	79.53
186.997	3.75
187.216	-4.44
187.436	30.38
187.655	40.62
187.875	81.58
188.095	48.81
188.314	32.43
188.534	28.33
188.753	81.58
188.973	11.95
189.192	50.86
189.412	-0.34
189.631	28.33
189.851	16.04
190.07	85.67
190.29	79.53
190.509	24.23
190.729	-0.34
190.948	26.28
191.168	151.21
191.387	106.15
191.607	-39.25
191.826	-12.63
192.045	9.9
192.265	13.99
192.484	57
192.704	-41.3
192.923	32.43
193.142	28.33
193.362	-39.25
193.581	77.48
193.8	65.19
194.02	57
194.239	1.71
194.458	50.86
194.678	1.71
194.897	34.47
195.116	16.04
195.335	16.04
195.555	59.05
195.774	65.19
195.993	69.29
196.212	-22.87
196.432	-72.02
196.651	-14.68
196.87	79.53
197.089	83.63
197.308	57
197.528	48.81
197.747	-57.68
197.966	97.96
198.185	61.1
198.404	122.54
198.623	42.67
198.842	1.71
199.062	59.05
199.281	18.09
199.5	52.91
199.719	18.09
199.938	57
200.157	36.52
200.376	34.47
200.595	34.47
200.814	46.76
201.033	16.04
201.252	28.33
201.471	16.04
201.69	59.05
201.909	34.47
202.128	46.76
202.347	-8.53
202.566	3.75
202.785	-12.63
203.004	40.62
203.223	24.23
203.442	-29.01
203.661	-57.68
203.879	18.09
204.098	40.62
204.317	-8.53
204.536	44.71
204.755	44.71
204.974	59.05
205.193	-39.25
205.411	130.73
205.63	16.04
205.849	11.95
206.068	44.71
206.287	26.28
206.505	95.91
206.724	-53.59
206.943	-24.92
207.162	-20.82
207.381	-10.58
207.599	-14.68
207.818	-26.96
208.037	48.81
208.255	-129.36
208.474	81.58
208.693	83.63
208.911	-16.73
209.13	-20.82
209.349	-4.44
209.567	28.33
209.786	67.24
210.005	3.75
210.223	93.87
210.442	-49.49
210.661	73.39
210.879	40.62
211.098	-6.49
211.316	1.71
211.535	7.85
211.753	83.63
211.972	-6.49
212.191	-0.34
212.409	11.95
212.628	-39.25
212.846	3.75
213.065	24.23
213.283	3.75
213.502	-8.53
213.72	1.71
213.938	11.95
214.157	48.81
214.375	69.29
214.594	30.38
214.812	50.86
215.031	40.62
215.249	9.9
215.467	106.15
215.686	7.85
215.904	48.81
216.122	-16.73
216.341	69.29
216.559	44.71
216.778	75.43
216.996	28.33
217.214	-29.01
217.432	28.33
217.651	24.23
217.869	11.95
218.087	42.67
218.306	38.57
218.524	16.04
218.742	48.81
218.96	67.24
219.179	-0.34
219.397	-2.39
219.615	3.75
219.833	81.58
220.051	65.19
220.27	42.67
220.488	18.09
220.706	40.62
220.924	40.62
221.142	-6.49
221.36	-72.02
221.578	28.33
221.796	83.63
222.015	-49.49
222.233	18.09
222.451	-8.53
222.669	-61.78
222.887	-8.53
223.105	-6.49
223.323	48.81
223.541	-41.3
223.759	42.67
223.977	26.28
224.195	57
224.413	67.24
224.631	114.34
224.849	-24.92
225.067	61.1
225.285	16.04
225.503	102.06
225.721	30.38
225.939	-31.06
226.157	-18.77
226.375	36.52
226.592	9.9
226.81	57
227.028	128.68
227.246	67.24
227.464	-2.39
227.682	93.87
227.9	85.67
228.117	67.24
228.335	61.1
228.553	18.09
228.771	110.25
228.989	118.44
229.206	-6.49
229.424	-0.34
229.642	1.71
229.86	18.09
230.077	7.85
230.295	-24.92
230.513	20.14
230.731	16.04
230.948	48.81
231.166	73.39
231.384	-67.92
231.601	24.23
231.819	81.58
232.037	24.23
232.254	-0.34
232.472	42.67
232.689	13.99
232.907	-8.53
233.125	26.28
233.342	-0.34
233.56	108.2
233.777	24.23
233.995	-4.44
234.213	91.82
234.43	7.85
234.648	81.58
234.865	20.14
235.083	20.14
235.3	67.24
235.518	-22.87
235.735	52.91
235.953	110.25
236.17	11.95
236.388	9.9
236.605	-49.49
236.822	97.96
237.04	9.9
237.257	50.86
237.475	18.09
237.692	89.77
237.909	-6.49
238.127	16.04
238.344	-16.73
238.562	16.04
238.779	-29.01
238.996	3.75
239.214	1.71
239.431	50.86
239.648	-0.34
239.865	59.05
240.083	-20.82
240.3	40.62
240.517	-20.82
240.735	-6.49
240.952	87.72
241.169	46.76
241.386	-39.25
241.603	44.71
241.821	1.71
242.038	40.62
242.255	-6.49
242.472	16.04
242.689	36.52
242.907	18.09
243.124	52.91
243.341	52.91
243.558	85.67
243.775	11.95
243.992	-49.49
244.209	42.67
244.426	-0.34
244.643	97.96
244.86	-33.11
245.078	40.62
245.295	-24.92
245.512	40.62
245.729	26.28
245.946	73.39
246.163	28.33
246.38	89.77
246.597	67.24
246.814	20.14
247.031	32.43
247.248	32.43
247.464	-41.3
247.681	9.9
247.898	20.14
248.115	-0.34
248.332	61.1
248.549	57
248.766	-49.49
248.983	91.82
249.2	-12.63
249.417	16.04
249.633	24.23
249.85	83.63
250.067	30.38
250.284	81.58
250.501	34.47
250.717	7.85
250.934	38.57
251.151	-41.3
251.368	-16.73
251.585	65.19
251.801	32.43
252.018	-31.06
252.235	-8.53
252.451	-0.34
252.668	57
252.885	106.15
253.102	36.52
253.318	26.28
253.535	26.28
253.752	-24.92
253.968	-22.87
254.185	-51.54
254.401	42.67
254.618	-29.01
254.835	-4.44
255.051	59.05
255.268	93.87
255.484	93.87
255.701	-8.53
255.917	50.86
256.134	34.47
256.351	11.95
256.567	-0.34
256.784	65.19
257	-29.01
257.217	34.47
257.433	16.04
257.65	95.91
257.866	57
258.082	-41.3
258.299	-37.2
258.515	16.04
258.732	44.71
258.948	73.39
259.165	57
259.381	7.85
259.597	52.91
259.814	-26.96
260.03	52.91
260.246	3.75
260.463	26.28
260.679	93.87
260.895	-39.25
261.112	75.43
261.328	11.95
261.544	9.9
261.761	63.15
261.977	-14.68
262.193	24.23
262.409	44.71
262.626	-16.73
262.842	75.43
263.058	104.11
263.274	40.62
263.49	22.19
263.707	-22.87
263.923	9.9
264.139	-8.53
264.355	34.47
264.571	28.33
264.787	40.62
265.004	73.39
265.22	-12.63
265.436	-39.25
265.652	26.28
265.868	65.19
266.084	30.38
266.3	75.43
266.516	1.71
266.732	20.14
266.948	-0.34
267.164	48.81
267.38	120.49
267.596	-14.68
267.812	100.01
268.028	-22.87
268.244	-33.11
268.46	-4.44
268.676	24.23
268.892	32.43
269.108	42.67
269.324	34.47
269.54	26.28
269.756	83.63
269.972	-43.35
270.188	57
270.403	7.85
270.619	44.71
270.835	-41.3
271.051	52.91
271.267	-4.44
271.483	-14.68
271.698	71.34
271.914	5.8
272.13	11.95
272.346	-0.34
272.562	11.95
272.777	110.25
272.993	42.67
273.209	5.8
273.425	-0.34
273.64	32.43
273.856	102.06
274.072	104.11
274.287	20.14
274.503	16.04
274.719	-12.63
274.934	20.14
275.15	-43.35
275.366	57
275.581	52.91
275.797	22.19
276.012	63.15
276.228	44.71
276.444	13.99
276.659	77.48
276.875	-57.68
277.09	-33.11
277.306	30.38
277.521	77.48
277.737	30.38
277.952	16.04
278.168	20.14
278.383	16.04
278.599	1.71
278.814	30.38
279.03	-18.77
279.245	65.19
279.461	-31.06
279.676	91.82
279.892	-29.01
280.107	9.9
280.322	-41.3
280.538	-2.39
280.753	-14.68
280.969	-0.34
281.184	91.82
281.399	28.33
281.615	-12.63
281.83	48.81
282.045	9.9
282.26	38.57
282.476	59.05
282.691	65.19
282.906	24.23
283.122	79.53
283.337	75.43
283.552	42.67
283.767	11.95
283.983	32.43
284.198	16.04
284.413	-49.49
284.628	18.09
284.843	-39.25
285.058	18.09
285.274	42.67
285.489	65.19
285.704	50.86
285.919	-6.49
286.134	24.23
286.349	20.14
286.564	48.81
286.779	87.72
286.995	7.85
287.21	7.85
287.425	69.29
287.64	24.23
287.855	81.58
288.07	18.09
288.285	67.24
288.5	7.85
288.715	83.63
288.93	36.52
289.145	97.96
289.36	32.43
289.575	-55.64
289.79	24.23
290.004	75.43
290.219	57
290.434	-69.97
290.649	1.71
290.864	-41.3
291.079	32.43
291.294	26.28
291.509	54.95
291.724	48.81
291.938	-20.82
292.153	5.8
292.368	73.39
292.583	89.77
292.798	48.81
293.012	67.24
293.227	-12.63
293.442	59.05
293.657	-2.39
293.871	71.34
294.086	32.43
294.301	67.24
294.516	9.9
294.73	26.28
294.945	18.09
295.16	28.33
295.374	48.81
295.589	79.53
295.804	-16.73
296.018	46.76
296.233	75.43
296.447	-16.73
296.662	54.95
296.877	13.99
297.091	85.67
297.306	32.43
297.52	36.52
297.735	50.86
297.949	-24.92
298.164	71.34
298.378	32.43
298.593	7.85
298.807	-65.88
299.022	42.67
299.236	1.71
299.451	28.33
299.665	-53.59
299.88	-8.53
300.094	34.47
300.309	97.96
300.523	34.47
300.737	65.19
300.952	52.91
301.166	-4.44
301.381	36.52
301.595	9.9
301.809	-14.68
302.024	40.62
302.238	59.05
302.452	89.77
302.667	69.29
302.881	5.8
303.095	40.62
303.309	16.04
303.524	26.28
303.738	24.23
303.952	40.62
304.166	54.95
304.381	24.23
304.595	106.15
304.809	20.14
305.023	7.85
305.237	30.38
305.452	-39.25
305.666	38.57
305.88	-6.49
306.094	-0.34
306.308	-16.73
306.522	110.25
306.736	32.43
306.95	44.71
307.164	-8.53
307.379	42.67
307.593	89.77
307.807	-6.49
308.021	108.2
308.235	16.04
308.449	-59.73
308.663	20.14
308.877	132.78
309.091	114.34
309.305	63.15
309.519	16.04
309.733	40.62
309.947	-24.92
310.161	9.9
310.374	34.47
310.588	73.39
310.802	16.04
311.016	9.9
311.23	-2.39
311.444	7.85
311.658	-57.68
311.872	100.01
312.085	67.24
312.299	81.58
312.513	32.43
312.727	77.48
312.941	-57.68
313.154	89.77
313.368	-31.06
313.582	30.38
313.796	71.34
314.009	67.24
314.223	50.86
314.437	81.58
314.651	44.71
314.864	-47.44
315.078	-0.34
315.292	-4.44
315.505	5.8
315.719	-49.49
315.933	-8.53
316.146	32.43
316.36	34.47
316.573	28.33
316.787	112.3
317.001	59.05
317.214	-43.35
317.428	-16.73
317.641	-0.34
317.855	73.39
318.068	24.23
318.282	-12.63
318.495	130.73
318.709	54.95
318.922	100.01
319.136	34.47
319.349	-16.73
319.563	36.52
319.776	63.15
319.99	34.47
320.203	46.76
320.417	54.95
320.63	75.43
320.843	26.28
321.057	93.87
321.27	57
321.483	104.11
321.697	136.87
321.91	42.67
322.124	36.52
322.337	73.39
322.55	59.05
322.763	-26.96
322.977	44.71
323.19	-12.63
323.403	34.47
323.617	20.14
323.83	24.23
324.043	-39.25
324.256	44.71
324.469	-16.73
324.683	36.52
324.896	42.67
325.109	34.47
325.322	28.33
325.535	24.23
325.748	9.9
325.962	83.63
326.175	67.24
326.388	102.06
326.601	75.43
326.814	89.77
327.027	81.58
327.24	65.19
327.453	-24.92
327.666	24.23
327.879	-16.73
328.092	16.04
328.305	52.91
328.518	65.19
328.731	32.43
328.944	18.09
329.157	-49.49
329.37	32.43
329.583	57
329.796	40.62
330.009	44.71
330.222	-6.49
330.435	48.81
330.648	22.19
330.861	65.19
331.073	38.57
331.286	104.11
331.499	85.67
331.712	26.28
331.925	44.71
332.138	65.19
332.35	118.44
332.563	-41.3
332.776	32.43
332.989	-12.63
333.202	67.24
333.414	1.71
333.627	24.23
333.84	57
334.053	65.19
334.265	11.95
334.478	22.19
334.691	24.23
334.903	18.09
335.116	-2.39
335.329	-72.02
335.541	11.95
335.754	9.9
335.966	7.85
336.179	13.99
336.392	-0.34
336.604	28.33
336.817	85.67
337.029	57
337.242	44.71
337.454	34.47
337.667	48.81
337.88	89.77
338.092	83.63
338.305	52.91
338.517	-31.06
338.729	26.28
338.942	-0.34
339.154	-47.44
339.367	11.95
339.579	36.52
339.792	75.43
340.004	9.9
340.217	24.23
340.429	-16.73
340.641	18.09
340.854	-14.68
341.066	-22.87
341.278	32.43
341.491	75.43
341.703	40.62
341.915	73.39
342.128	48.81
342.34	48.81
342.552	-14.68
342.764	-0.34
342.977	59.05
343.189	89.77
343.401	116.39
343.613	-37.2
343.826	9.9
344.038	-51.54
344.25	42.67
344.462	5.8
344.674	13.99
344.886	11.95
345.099	3.75
345.311	5.8
345.523	-14.68
345.735	-0.34
345.947	48.81
346.159	24.23
346.371	32.43
346.583	44.71
346.795	97.96
347.007	-10.58
347.219	11.95
347.431	67.24
347.643	-8.53
347.855	-8.53
348.067	87.72
348.279	20.14
348.491	30.38
348.703	18.09
348.915	73.39
349.127	7.85
349.339	13.99
349.551	-0.34
349.763	7.85
349.975	11.95
350.187	59.05
350.399	77.48
350.61	65.19
350.822	-33.11
351.034	5.8
351.246	40.62
351.458	32.43
351.669	44.71
351.881	28.33
352.093	83.63
352.305	81.58
352.517	48.81
352.728	59.05
352.94	11.95
353.152	1.71
353.363	-22.87
353.575	-41.3
353.787	34.47
353.999	-6.49
354.21	93.87
354.422	-16.73
354.633	1.71
354.845	40.62
355.057	-12.63
355.268	3.75
355.48	46.76
355.692	36.52
355.903	-4.44
356.115	32.43
356.326	36.52
356.538	81.58
356.749	50.86
356.961	108.2
357.172	1.71
357.384	-16.73
357.595	91.82
357.807	16.04
358.018	-6.49
358.23	-0.34
358.441	9.9
358.653	106.15
358.864	-0.34
359.075	40.62
359.287	69.29
359.498	91.82
359.709	61.1
359.921	16.04
360.132	-55.64
360.344	50.86
360.555	57
360.766	44.71
360.977	-20.82
361.189	16.04
361.4	34.47
361.611	108.2
361.823	143.02
362.034	83.63
362.245	18.09
362.456	-8.53
362.667	85.67
362.879	9.9
363.09	11.95
363.301	-16.73
363.512	36.52
363.723	1.71
363.935	1.71
364.146	106.15
364.357	-63.83
364.568	63.15
364.779	75.43
364.99	18.09
365.201	48.81
365.412	42.67
365.623	-41.3
365.834	102.06
366.045	48.81
366.256	-33.11
366.467	75.43
366.678	28.33
366.889	50.86
367.1	40.62
367.311	50.86
367.522	20.14
367.733	75.43
367.944	48.81
368.155	11.95
368.366	32.43
368.577	102.06
368.788	73.39
368.999	48.81
369.209	18.09
369.42	97.96
369.631	124.58
369.842	110.25
370.053	7.85
370.264	28.33
370.474	11.95
370.685	-24.92
370.896	73.39
371.107	91.82
371.317	36.52
371.528	11.95
371.739	-0.34
371.95	83.63
372.16	-53.59
372.371	7.85
372.582	77.48
372.792	-16.73
373.003	83.63
373.214	52.91
373.424	-0.34
373.635	69.29
373.846	-0.34
374.056	114.34
374.267	-2.39
374.477	57
374.688	50.86
374.898	124.58
375.109	16.04
375.319	67.24
375.53	34.47
375.74	52.91
375.951	7.85
376.161	16.04
376.372	34.47
376.582	57
376.793	24.23
377.003	54.95
377.214	11.95
377.424	73.39
377.635	59.05
377.845	50.86
378.055	16.04
378.266	28.33
378.476	52.91
378.686	61.1
378.897	-16.73
379.107	-33.11
379.317	104.11
379.528	1.71
379.738	44.71
379.948	-10.58
380.158	57
380.369	-12.63
380.579	46.76
380.789	-10.58
380.999	83.63
381.21	65.19
381.42	100.01
381.63	71.34
381.84	7.85
382.05	36.52
382.261	91.82
382.471	-8.53
382.681	57
382.891	67.24
383.101	16.04
383.311	-0.34
383.521	63.15
383.731	50.86
383.941	18.09
384.151	18.09
384.361	9.9
384.571	38.57
384.781	89.77
384.991	108.2
385.201	130.73
385.411	52.91
385.621	75.43
385.831	44.71
386.041	7.85
386.251	48.81
386.461	5.8
386.671	-8.53
386.881	36.52
387.091	71.34
387.301	22.19
387.511	81.58
387.72	-18.77
387.93	89.77
388.14	-2.39
388.35	24.23
388.56	36.52
388.769	40.62
388.979	42.67
389.189	-39.25
389.399	75.43
389.609	32.43
389.818	32.43
390.028	32.43
390.238	100.01
390.447	-20.82
390.657	81.58
390.867	83.63
391.076	24.23
391.286	-22.87
391.496	63.15
391.705	52.91
391.915	75.43
392.125	75.43
392.334	40.62
392.544	38.57
392.753	26.28
392.963	-4.44
393.172	44.71
393.382	-6.49
393.591	93.87
393.801	24.23
394.01	61.1
394.22	122.54
394.429	73.39
394.639	32.43
394.848	91.82
395.058	32.43
395.267	16.04
395.477	140.97
395.686	7.85
395.895	57
396.105	140.97
396.314	42.67
396.524	44.71
396.733	48.81
396.942	59.05
397.152	104.11
397.361	61.1
397.57	38.57
397.78	-45.4
397.989	52.91
398.198	179.88
398.407	48.81
398.617	75.43
398.826	40.62
399.035	134.82
399.244	114.34
399.453	67.24
399.663	61.1
399.872	122.54
400.081	38.57
400.29	75.43
400.499	65.19
400.708	73.39
400.917	36.52
401.127	97.96
401.336	52.91
401.545	108.2
401.754	112.3
401.963	138.92
402.172	104.11
402.381	122.54
402.59	71.34
402.799	138.92
403.008	38.57
403.217	124.58
403.426	100.01
403.635	155.3
403.844	120.49
404.053	132.78
404.262	81.58
404.471	81.58
404.68	57
404.888	153.26
405.097	97.96
405.306	24.23
405.515	126.63
405.724	140.97
405.933	89.77
406.142	83.63
406.35	147.11
406.559	140.97
406.768	67.24
406.977	110.25
407.185	196.26
407.394	120.49
407.603	116.39
407.812	181.93
408.02	145.06
408.229	138.92
408.438	206.5
408.646	163.5
408.855	147.11
409.064	188.07
409.272	143.02
409.481	188.07
409.69	151.21
409.898	145.06
410.107	163.5
410.315	276.13
410.524	237.22
410.733	171.69
410.941	239.27
411.15	259.75
411.358	204.46
411.567	265.89
411.775	282.28
411.984	206.5
412.192	208.55
412.401	280.23
412.609	308.9
412.818	339.62
413.026	356.01
413.234	310.95
413.443	386.72
413.651	337.57
413.86	388.77
414.068	409.25
414.276	403.11
414.485	325.29
414.693	466.6
414.901	474.79
415.11	462.5
415.318	423.59
415.526	442.02
415.734	489.12
415.943	507.55
416.151	485.03
416.359	536.23
416.567	495.27
416.776	519.84
416.984	497.32
417.192	712.35
417.4	550.56
417.608	591.52
417.817	622.24
418.025	698.02
418.233	745.12
418.441	691.87
418.649	808.61
418.857	835.23
419.065	835.23
419.273	792.22
419.481	794.27
419.689	902.81
419.897	892.57
420.105	978.59
420.313	937.63
420.521	1042.07
420.729	1083.03
420.937	1027.74
421.145	1099.42
421.353	1154.71
421.561	1195.67
421.769	1179.29
421.977	1271.45
422.185	1154.71
422.393	1326.74
422.601	1392.28
422.809	1359.51
423.017	1406.61
423.224	1410.71
423.432	1519.25
423.64	1502.87
423.848	1711.76
424.056	1564.31
424.263	1730.19
424.471	1699.47
424.679	1828.49
424.887	1826.45
425.094	1910.41
425.302	1787.54
425.51	1953.42
425.718	2121.35
425.925	2057.87
426.133	2207.37
426.341	2334.34
426.548	2377.35
426.756	2363.01
426.964	2442.89
427.171	2451.08
427.379	2559.62
427.586	2729.6
427.794	2772.61
428.001	2895.49
428.209	2858.62
428.417	2926.21
428.624	3159.67
428.832	3040.89
429.039	3075.71
429.247	3030.65
429.454	3473.01
429.662	3692.15
429.869	3300.98
430.076	3632.76
430.284	3569.27
430.491	3657.33
430.699	3985.01
430.906	3853.94
431.114	3876.46
431.321	4091.5
431.528	4068.97
431.736	4476.52
431.943	4609.64
432.15	4398.7
432.358	4585.06
432.565	4836.96
432.772	4720.23
432.979	5119.58
433.187	5070.43
433.394	5168.73
433.601	5482.07
433.808	5471.83
434.016	5410.39
434.223	5611.09
434.43	6039.12
434.637	5899.86
434.844	6213.2
435.052	6411.85
435.259	6307.4
435.466	6446.66
435.673	6387.27
435.88	6792.77
436.087	7155.26
436.294	6917.7
436.501	6889.03
436.708	6983.23
436.915	7396.92
437.122	7751.22
437.329	7503.42
437.537	7913.01
437.743	7904.82
437.95	8052.27
438.157	8373.8
438.364	8771.11
438.571	8494.63
438.778	8562.22
438.985	9559.58
439.192	9219.61
439.399	9430.55
439.606	8977.95
439.813	9610.78
440.02	10272.27
440.227	10190.35
440.433	9958.93
440.64	10210.83
440.847	10255.89
441.054	10489.35
441.261	11009.54
441.467	10915.33
441.674	11089.41
441.881	11587.07
442.088	11574.78
442.294	11605.5
442.501	11888.12
442.708	12281.33
442.914	12361.2
443.121	12695.02
443.328	12598.76
443.534	13614.55
443.741	13041.12
443.948	13073.89
444.154	13759.96
444.361	13819.35
444.568	13753.82
444.774	13772.25
444.981	13929.94
445.187	14239.19
445.394	14955.97
445.6	14765.51
445.807	16166.32
446.013	15371.71
446.22	15744.44
446.426	16291.25
446.633	16532.91
446.839	17302.95
447.046	16149.94
447.252	17425.82
447.459	17352.1
447.665	17237.41
447.871	17880.47
448.078	18924.94
448.284	18007.45
448.491	18367.89
448.697	18939.27
448.903	19598.72
449.11	19561.86
449.316	19162.5
449.522	19817.85
449.728	20125.05
449.935	19967.35
450.141	20223.35
450.347	20522.35
450.553	20200.82
450.76	20385.14
450.966	21159.27
451.172	20921.71
451.378	21378.4
451.584	20948.33
451.791	21433.7
451.997	21204.33
452.203	21570.91
452.409	21806.43
452.615	21884.25
452.821	20819.31
453.027	20524.4
453.233	21677.41
453.44	21044.59
453.646	21472.61
453.852	21364.07
454.058	21822.81
454.264	20942.19
454.47	21282.15
454.676	20874.6
454.882	21697.89
455.088	19828.09
455.294	19910.01
455.5	20411.76
455.705	20858.22
455.911	19707.26
456.117	19584.38
456.323	19152.26
456.529	18159
456.735	19062.15
456.941	18609.55
457.147	18435.47
457.352	17718.68
457.558	17491.36
457.764	17487.26
457.97	17225.12
458.176	17051.05
458.381	16842.15
458.587	16074.17
458.793	16195
458.999	15377.86
459.204	16530.86
459.41	15769.02
459.616	14749.13
459.821	15046.09
460.027	14661.07
460.233	14591.44
460.438	13630.94
460.644	14036.44
460.85	13479.39
461.055	13333.98
461.261	13020.64
461.466	11920.88
461.672	11734.52
461.878	12555.76
462.083	11705.85
462.289	11613.69
462.494	11578.87
462.7	10976.77
462.905	10821.13
463.111	10913.28
463.316	11124.22
463.522	10896.9
463.727	10759.69
463.932	10675.72
464.138	10520.07
464.343	10673.67
464.549	10300.94
464.754	10886.66
464.959	10595.85
465.165	10610.18
465.37	10290.7
465.575	9852.44
465.781	10386.96
465.986	10327.57
466.191	9842.2
466.397	9805.33
466.602	9338.4
466.807	9584.15
467.012	9670.17
467.218	9739.8
467.423	9600.54
467.628	9618.97
467.833	9883.16
468.038	9657.88
468.244	9205.28
468.449	9698.84
468.654	9420.31
