Data from USB4F104151__263__14-22-48-277.txt Node

Date: Thu Mar 13 14:22:48 EDT 2025
User: louis
Spectrometer: USB4F10415
Trigger mode: 4
Integration Time (sec): 2.000000E-2
Scans to average: 1
Electric dark correction enabled: true
Nonlinearity correction enabled: false
Boxcar width: 0
XAxis mode: Wavelengths
Number of Pixels in Spectrum: 3648
>>>>>Begin Spectral Data<<<<<
178.204	-125.95
178.424	-125.95
178.644	-125.95
178.864	-29.7
179.084	-66.56
179.304	-39.94
179.524	41.98
179.744	-33.79
179.964	82.94
180.184	-29.7
180.404	27.65
180.624	-39.94
180.844	-56.32
181.064	-19.46
181.283	23.55
181.503	-25.6
181.723	68.61
181.943	23.55
182.163	56.32
182.383	35.84
182.602	56.32
182.822	105.47
183.042	17.41
183.262	19.46
183.482	64.51
183.701	74.75
183.921	25.6
184.141	1.02
184.361	74.75
184.58	13.31
184.8	56.32
185.02	35.84
185.239	74.75
185.459	-27.65
185.679	130.05
185.898	11.26
186.118	113.66
186.338	39.94
186.557	82.94
186.777	-15.36
186.997	89.09
187.216	52.22
187.436	72.7
187.655	142.33
187.875	97.28
188.095	3.07
188.314	144.38
188.534	54.27
188.753	33.79
188.973	48.13
189.192	105.47
189.412	11.26
189.631	-25.6
189.851	74.75
190.07	41.98
190.29	-1.02
190.509	58.37
190.729	-15.36
190.948	35.84
191.168	105.47
191.387	64.51
191.607	-17.41
191.826	48.13
192.045	58.37
192.265	31.74
192.484	-27.65
192.704	89.09
192.923	17.41
193.142	50.18
193.362	70.65
193.581	66.56
193.8	44.03
194.02	72.7
194.239	1.02
194.458	15.36
194.678	13.31
194.897	-29.7
195.116	93.18
195.335	156.67
195.555	136.19
195.774	25.6
195.993	62.46
196.212	25.6
196.432	76.8
196.651	97.28
196.87	-48.13
197.089	64.51
197.308	56.32
197.528	29.7
197.747	-48.13
197.966	27.65
198.185	74.75
198.404	9.22
198.623	105.47
198.842	68.61
199.062	115.71
199.281	89.09
199.5	-23.55
199.719	109.57
199.938	44.03
200.157	105.47
200.376	56.32
200.595	107.52
200.814	74.75
201.033	-23.55
201.252	58.37
201.471	-41.98
201.69	76.8
201.909	130.05
202.128	3.07
202.347	56.32
202.566	82.94
202.785	9.22
203.004	-31.74
203.223	97.28
203.442	123.9
203.661	23.55
203.879	109.57
204.098	138.24
204.317	-50.18
204.536	46.08
204.755	84.99
204.974	93.18
205.193	105.47
205.411	89.09
205.63	39.94
205.849	-1.02
206.068	-56.32
206.287	58.37
206.505	66.56
206.724	97.28
206.943	76.8
207.162	23.55
207.381	15.36
207.599	39.94
207.818	54.27
208.037	84.99
208.255	50.18
208.474	11.26
208.693	13.31
208.911	31.74
209.13	-25.6
209.349	156.67
209.567	1.02
209.786	60.42
210.005	87.04
210.223	97.28
210.442	-5.12
210.661	109.57
210.879	74.75
211.098	-23.55
211.316	48.13
211.535	138.24
211.753	52.22
211.972	44.03
212.191	-9.22
212.409	128
212.628	121.85
212.846	39.94
213.065	107.52
213.283	23.55
213.502	48.13
213.72	37.89
213.938	3.07
214.157	58.37
214.375	93.18
214.594	39.94
214.812	76.8
215.031	17.41
215.249	1.02
215.467	31.74
215.686	31.74
215.904	52.22
216.122	15.36
216.341	130.05
216.559	13.31
216.778	140.29
216.996	31.74
217.214	56.32
217.432	-9.22
217.651	-21.5
217.869	138.24
218.087	35.84
218.306	80.89
218.524	72.7
218.742	87.04
218.96	105.47
219.179	15.36
219.397	48.13
219.615	68.61
219.833	44.03
220.051	58.37
220.27	74.75
220.488	48.13
220.706	66.56
220.924	17.41
221.142	39.94
221.36	9.22
221.578	97.28
221.796	17.41
222.015	105.47
222.233	-1.02
222.451	97.28
222.669	89.09
222.887	60.42
223.105	27.65
223.323	39.94
223.541	15.36
223.759	-1.02
223.977	25.6
224.195	41.98
224.413	103.42
224.631	87.04
224.849	7.17
225.067	33.79
225.285	-7.17
225.503	27.65
225.721	9.22
225.939	58.37
226.157	72.7
226.375	89.09
226.592	-1.02
226.81	109.57
227.028	72.7
227.246	66.56
227.464	56.32
227.682	82.94
227.9	74.75
228.117	89.09
228.335	-13.31
228.553	48.13
228.771	54.27
228.989	-1.02
229.206	58.37
229.424	-50.18
229.642	15.36
229.86	-17.41
230.077	144.38
230.295	35.84
230.513	35.84
230.731	50.18
230.948	97.28
231.166	82.94
231.384	76.8
231.601	-15.36
231.819	113.66
232.037	3.07
232.254	11.26
232.472	35.84
232.689	-9.22
232.907	99.33
233.125	56.32
233.342	78.85
233.56	56.32
233.777	35.84
233.995	64.51
234.213	64.51
234.43	25.6
234.648	48.13
234.865	113.66
235.083	91.13
235.3	76.8
235.518	25.6
235.735	39.94
235.953	-15.36
236.17	54.27
236.388	64.51
236.605	80.89
236.822	89.09
237.04	17.41
237.257	11.26
237.475	-9.22
237.692	52.22
237.909	60.42
238.127	93.18
238.344	70.65
238.562	46.08
238.779	44.03
238.996	60.42
239.214	76.8
239.431	105.47
239.648	-15.36
239.865	101.37
240.083	52.22
240.3	-25.6
240.517	44.03
240.735	58.37
240.952	121.85
241.169	72.7
241.386	97.28
241.603	23.55
241.821	-7.17
242.038	80.89
242.255	58.37
242.472	25.6
242.689	9.22
242.907	97.28
243.124	9.22
243.341	48.13
243.558	31.74
243.775	84.99
243.992	5.12
244.209	82.94
244.426	97.28
244.643	60.42
244.86	33.79
245.078	56.32
245.295	-1.02
245.512	31.74
245.729	-25.6
245.946	-5.12
246.163	119.81
246.38	37.89
246.597	25.6
246.814	39.94
247.031	150.53
247.248	99.33
247.464	58.37
247.681	-1.02
247.898	121.85
248.115	46.08
248.332	7.17
248.549	33.79
248.766	66.56
248.983	33.79
249.2	76.8
249.417	11.26
249.633	27.65
249.85	11.26
250.067	52.22
250.284	72.7
250.501	54.27
250.717	97.28
250.934	-27.65
251.151	9.22
251.368	23.55
251.585	41.98
251.801	68.61
252.018	80.89
252.235	113.66
252.451	15.36
252.668	29.7
252.885	89.09
253.102	64.51
253.318	56.32
253.535	-33.79
253.752	105.47
253.968	19.46
254.185	7.17
254.401	17.41
254.618	115.71
254.835	91.13
255.051	60.42
255.268	74.75
255.484	31.74
255.701	97.28
255.917	23.55
256.134	39.94
256.351	74.75
256.567	-15.36
256.784	11.26
257	7.17
257.217	113.66
257.433	41.98
257.65	50.18
257.866	25.6
258.082	39.94
258.299	17.41
258.515	74.75
258.732	-9.22
258.948	23.55
259.165	74.75
259.381	91.13
259.597	31.74
259.814	125.95
260.03	54.27
260.246	37.89
260.463	-1.02
260.679	113.66
260.895	27.65
261.112	82.94
261.328	64.51
261.544	-39.94
261.761	134.14
261.977	50.18
262.193	-23.55
262.409	105.47
262.626	7.17
262.842	66.56
263.058	-15.36
263.274	64.51
263.49	15.36
263.707	58.37
263.923	76.8
264.139	25.6
264.355	39.94
264.571	82.94
264.787	56.32
265.004	58.37
265.22	125.95
265.436	78.85
265.652	-37.89
265.868	31.74
266.084	76.8
266.3	48.13
266.516	7.17
266.732	27.65
266.948	84.99
267.164	68.61
267.38	52.22
267.596	87.04
267.812	64.51
268.028	72.7
268.244	70.65
268.46	72.7
268.676	99.33
268.892	48.13
269.108	17.41
269.324	50.18
269.54	-78.85
269.756	80.89
269.972	-3.07
270.188	89.09
270.403	109.57
270.619	9.22
270.835	125.95
271.051	80.89
271.267	3.07
271.483	132.09
271.698	15.36
271.914	62.46
272.13	25.6
272.346	15.36
272.562	41.98
272.777	19.46
272.993	-5.12
273.209	33.79
273.425	60.42
273.64	17.41
273.856	109.57
274.072	33.79
274.287	66.56
274.503	27.65
274.719	48.13
274.934	64.51
275.15	52.22
275.366	72.7
275.581	64.51
275.797	35.84
276.012	76.8
276.228	56.32
276.444	89.09
276.659	21.5
276.875	48.13
277.09	60.42
277.306	33.79
277.521	101.37
277.737	68.61
277.952	103.42
278.168	39.94
278.383	58.37
278.599	11.26
278.814	99.33
279.03	25.6
279.245	148.48
279.461	44.03
279.676	39.94
279.892	7.17
280.107	23.55
280.322	-1.02
280.538	136.19
280.753	58.37
280.969	84.99
281.184	125.95
281.399	82.94
281.615	15.36
281.83	66.56
282.045	7.17
282.26	128
282.476	7.17
282.691	54.27
282.906	21.5
283.122	115.71
283.337	101.37
283.552	82.94
283.767	-29.7
283.983	33.79
284.198	-9.22
284.413	93.18
284.628	41.98
284.843	64.51
285.058	31.74
285.274	23.55
285.489	-21.5
285.704	105.47
285.919	54.27
286.134	44.03
286.349	-1.02
286.564	80.89
286.779	9.22
286.995	23.55
287.21	33.79
287.425	113.66
287.64	58.37
287.855	7.17
288.07	-72.7
288.285	54.27
288.5	60.42
288.715	33.79
288.93	7.17
289.145	39.94
289.36	-33.79
289.575	27.65
289.79	117.76
290.004	-9.22
290.219	60.42
290.434	-11.26
290.649	113.66
290.864	35.84
291.079	48.13
291.294	-7.17
291.509	33.79
291.724	125.95
291.938	31.74
292.153	39.94
292.368	-37.89
292.583	64.51
292.798	35.84
293.012	56.32
293.227	54.27
293.442	33.79
293.657	76.8
293.871	52.22
294.086	31.74
294.301	99.33
294.516	70.65
294.73	23.55
294.945	48.13
295.16	58.37
295.374	111.61
295.589	9.22
295.804	56.32
296.018	44.03
296.233	39.94
296.447	44.03
296.662	29.7
296.877	115.71
297.091	89.09
297.306	-3.07
297.52	1.02
297.735	15.36
297.949	68.61
298.164	23.55
298.378	48.13
298.593	41.98
298.807	-13.31
299.022	31.74
299.236	76.8
299.451	48.13
299.665	41.98
299.88	39.94
300.094	-21.5
300.309	97.28
300.523	56.32
300.737	56.32
300.952	50.18
301.166	56.32
301.381	44.03
301.595	44.03
301.809	23.55
302.024	68.61
302.238	13.31
302.452	87.04
302.667	37.89
302.881	93.18
303.095	44.03
303.309	82.94
303.524	23.55
303.738	39.94
303.952	29.7
304.166	72.7
304.381	29.7
304.595	136.19
304.809	-25.6
305.023	23.55
305.237	31.74
305.452	37.89
305.666	-13.31
305.88	105.47
306.094	74.75
306.308	17.41
306.522	56.32
306.736	113.66
306.95	-9.22
307.164	39.94
307.379	72.7
307.593	25.6
307.807	39.94
308.021	91.13
308.235	66.56
308.449	15.36
308.663	-21.5
308.877	97.28
309.091	17.41
309.305	66.56
309.519	25.6
309.733	48.13
309.947	7.17
310.161	72.7
310.374	5.12
310.588	60.42
310.802	58.37
311.016	115.71
311.23	-1.02
311.444	41.98
311.658	99.33
311.872	23.55
312.085	101.37
312.299	19.46
312.513	23.55
312.727	50.18
312.941	29.7
313.154	-7.17
313.368	23.55
313.582	93.18
313.796	-13.31
314.009	31.74
314.223	89.09
314.437	76.8
314.651	72.7
314.864	44.03
315.078	74.75
315.292	52.22
315.505	50.18
315.719	15.36
315.933	56.32
316.146	39.94
316.36	78.85
316.573	91.13
316.787	84.99
317.001	66.56
317.214	15.36
317.428	109.57
317.641	99.33
317.855	27.65
318.068	52.22
318.282	41.98
318.495	23.55
318.709	74.75
318.922	29.7
319.136	9.22
319.349	128
319.563	-60.42
319.776	101.37
319.99	27.65
320.203	109.57
320.417	70.65
320.63	91.13
320.843	103.42
321.057	1.02
321.27	121.85
321.483	109.57
321.697	89.09
321.91	39.94
322.124	7.17
322.337	97.28
322.55	130.05
322.763	80.89
322.977	21.5
323.19	-9.22
323.403	89.09
323.617	19.46
323.83	35.84
324.043	-13.31
324.256	23.55
324.469	146.43
324.683	-21.5
324.896	3.07
325.109	82.94
325.322	-9.22
325.535	64.51
325.748	97.28
325.962	48.13
326.175	19.46
326.388	105.47
326.601	-25.6
326.814	29.7
327.027	62.46
327.24	80.89
327.453	11.26
327.666	130.05
327.879	87.04
328.092	82.94
328.305	-7.17
328.518	56.32
328.731	31.74
328.944	-17.41
329.157	56.32
329.37	62.46
329.583	93.18
329.796	138.24
330.009	9.22
330.222	97.28
330.435	64.51
330.648	78.85
330.861	31.74
331.073	3.07
331.286	148.48
331.499	17.41
331.712	-17.41
331.925	60.42
332.138	-48.13
332.35	29.7
332.563	-29.7
332.776	44.03
332.989	64.51
333.202	76.8
333.414	-1.02
333.627	58.37
333.84	91.13
334.053	-35.84
334.265	46.08
334.478	89.09
334.691	123.9
334.903	97.28
335.116	66.56
335.329	125.95
335.541	23.55
335.754	89.09
335.966	50.18
336.179	15.36
336.392	23.55
336.604	23.55
336.817	46.08
337.029	62.46
337.242	-7.17
337.454	35.84
337.667	140.29
337.88	68.61
338.092	109.57
338.305	27.65
338.517	7.17
338.729	56.32
338.942	31.74
339.154	74.75
339.367	5.12
339.579	82.94
339.792	11.26
340.004	97.28
340.217	-29.7
340.429	7.17
340.641	50.18
340.854	-1.02
341.066	58.37
341.278	72.7
341.491	50.18
341.703	48.13
341.915	7.17
342.128	35.84
342.34	21.5
342.552	64.51
342.764	58.37
342.977	56.32
343.189	113.66
343.401	-33.79
343.613	80.89
343.826	72.7
344.038	23.55
344.25	35.84
344.462	35.84
344.674	60.42
344.886	91.13
345.099	66.56
345.311	101.37
345.523	52.22
345.735	78.85
345.947	39.94
346.159	7.17
346.371	82.94
346.583	39.94
346.795	121.85
347.007	84.99
347.219	105.47
347.431	-7.17
347.643	119.81
347.855	70.65
348.067	89.09
348.279	31.74
348.491	80.89
348.703	-1.02
348.915	35.84
349.127	-7.17
349.339	31.74
349.551	-9.22
349.763	123.9
349.975	91.13
350.187	82.94
350.399	123.9
350.61	125.95
350.822	25.6
351.034	52.22
351.246	62.46
351.458	62.46
351.669	37.89
351.881	105.47
352.093	119.81
352.305	72.7
352.517	25.6
352.728	48.13
352.94	39.94
353.152	72.7
353.363	31.74
353.575	31.74
353.787	72.7
353.999	66.56
354.21	121.85
354.422	72.7
354.633	9.22
354.845	15.36
355.057	80.89
355.268	68.61
355.48	66.56
355.692	-21.5
355.903	82.94
356.115	31.74
356.326	-27.65
356.538	82.94
356.749	11.26
356.961	82.94
357.172	31.74
357.384	60.42
357.595	99.33
357.807	68.61
358.018	-33.79
358.23	99.33
358.441	138.24
358.653	99.33
358.864	48.13
359.075	-5.12
359.287	37.89
359.498	54.27
359.709	33.79
359.921	39.94
360.132	17.41
360.344	3.07
360.555	-5.12
360.766	7.17
360.977	-19.46
361.189	72.7
361.4	15.36
361.611	80.89
361.823	89.09
362.034	82.94
362.245	41.98
362.456	-5.12
362.667	48.13
362.879	11.26
363.09	117.76
363.301	89.09
363.512	72.7
363.723	48.13
363.935	95.23
364.146	82.94
364.357	21.5
364.568	39.94
364.779	-5.12
364.99	80.89
365.201	82.94
365.412	46.08
365.623	80.89
365.834	17.41
366.045	39.94
366.256	17.41
366.467	80.89
366.678	50.18
366.889	17.41
367.1	72.7
367.311	31.74
367.522	48.13
367.733	93.18
367.944	48.13
368.155	-3.07
368.366	80.89
368.577	41.98
368.788	35.84
368.999	60.42
369.209	15.36
369.42	105.47
369.631	50.18
369.842	138.24
370.053	33.79
370.264	58.37
370.474	41.98
370.685	48.13
370.896	3.07
371.107	78.85
371.317	44.03
371.528	13.31
371.739	76.8
371.95	89.09
372.16	39.94
372.371	52.22
372.582	60.42
372.792	119.81
373.003	105.47
373.214	58.37
373.424	39.94
373.635	39.94
373.846	80.89
374.056	70.65
374.267	54.27
374.477	72.7
374.688	19.46
374.898	56.32
375.109	84.99
375.319	31.74
375.53	39.94
375.74	25.6
375.951	76.8
376.161	56.32
376.372	74.75
376.582	17.41
376.793	99.33
377.003	-15.36
377.214	130.05
377.424	60.42
377.635	82.94
377.845	17.41
378.055	52.22
378.266	-5.12
378.476	48.13
378.686	-1.02
378.897	25.6
379.107	91.13
379.317	48.13
379.528	33.79
379.738	91.13
379.948	99.33
380.158	97.28
380.369	105.47
380.579	121.85
380.789	89.09
380.999	54.27
381.21	95.23
381.42	72.7
381.63	-25.6
381.84	109.57
382.05	-27.65
382.261	46.08
382.471	97.28
382.681	121.85
382.891	64.51
383.101	76.8
383.311	27.65
383.521	48.13
383.731	171.01
383.941	93.18
384.151	-17.41
384.361	113.66
384.571	46.08
384.781	64.51
384.991	105.47
385.201	80.89
385.411	82.94
385.621	117.76
385.831	64.51
386.041	80.89
386.251	148.48
386.461	33.79
386.671	41.98
386.881	58.37
387.091	125.95
387.301	56.32
387.511	7.17
387.72	15.36
387.93	99.33
388.14	39.94
388.35	142.33
388.56	46.08
388.769	72.7
388.979	72.7
389.189	17.41
389.399	41.98
389.609	58.37
389.818	84.99
390.028	41.98
390.238	84.99
390.447	113.66
390.657	119.81
390.867	9.22
391.076	-25.6
391.286	76.8
391.496	91.13
391.705	35.84
391.915	144.38
392.125	58.37
392.334	3.07
392.544	97.28
392.753	64.51
392.963	52.22
393.172	113.66
393.382	29.7
393.591	150.53
393.801	95.23
394.01	140.29
394.22	107.52
394.429	31.74
394.639	50.18
394.848	48.13
395.058	56.32
395.267	66.56
395.477	62.46
395.686	105.47
395.895	99.33
396.105	148.48
396.314	50.18
396.524	103.42
396.733	97.28
396.942	93.18
397.152	39.94
397.361	158.72
397.57	62.46
397.78	130.05
397.989	115.71
398.198	117.76
398.407	66.56
398.617	109.57
398.826	115.71
399.035	105.47
399.244	64.51
399.453	132.09
399.663	162.81
399.872	31.74
400.081	54.27
400.29	123.9
400.499	171.01
400.708	70.65
400.917	89.09
401.127	130.05
401.336	60.42
401.545	164.86
401.754	97.28
401.963	154.62
402.172	48.13
402.381	41.98
402.59	41.98
402.799	46.08
403.008	121.85
403.217	74.75
403.426	72.7
403.635	91.13
403.844	82.94
404.053	103.42
404.262	154.62
404.471	164.86
404.68	134.14
404.888	154.62
405.097	154.62
405.306	148.48
405.515	138.24
405.724	134.14
405.933	95.23
406.142	50.18
406.35	195.58
406.559	125.95
406.768	160.77
406.977	203.77
407.185	103.42
407.394	115.71
407.603	183.29
407.812	216.06
408.02	207.87
408.229	220.16
408.438	238.59
408.646	162.81
408.855	191.49
409.064	226.3
409.272	162.81
409.481	261.12
409.69	187.39
409.898	201.72
410.107	224.25
410.315	236.54
410.524	261.12
410.733	211.96
410.941	224.25
411.15	316.41
411.358	293.88
411.567	328.7
411.775	287.74
411.984	277.5
412.192	338.94
412.401	224.25
412.609	383.99
412.818	367.61
413.026	318.46
413.234	402.43
413.443	373.75
413.651	424.95
413.86	400.38
414.068	453.63
414.276	492.54
414.485	383.99
414.693	515.06
414.901	523.26
415.11	494.58
415.318	472.06
415.526	465.91
415.734	498.68
415.943	535.54
416.151	609.27
416.359	568.31
416.567	541.69
416.776	625.65
416.984	695.29
417.192	676.85
417.4	730.1
417.608	605.17
417.817	646.13
418.025	820.21
418.233	740.34
418.441	779.25
418.649	826.36
418.857	932.85
419.065	859.12
419.273	875.51
419.481	1016.82
419.689	1006.58
419.897	996.34
420.105	1108.98
420.313	1135.6
420.521	1188.85
420.729	1192.94
420.937	1188.85
421.145	1137.65
421.353	1301.48
421.561	1448.94
421.769	1285.1
421.977	1407.98
422.185	1358.83
422.393	1389.55
422.601	1510.38
422.809	1506.28
423.017	1563.62
423.224	1647.59
423.432	1692.65
423.64	1729.51
423.848	1825.76
424.056	1805.28
424.263	1876.96
424.471	1838.05
424.679	2024.42
424.887	2059.23
425.094	2024.42
425.302	2055.14
425.51	2157.54
425.718	2292.7
425.925	2235.36
426.133	2374.62
426.341	2614.23
426.548	2628.57
426.756	2571.22
426.964	2696.15
427.171	2806.74
427.379	2870.23
427.586	2866.13
427.794	2968.53
428.001	3060.69
428.209	3441.61
428.417	3292.11
428.624	3382.22
428.832	3359.69
429.039	3333.07
429.247	3410.89
429.454	3793.86
429.662	4031.43
429.869	3627.98
430.076	3967.94
430.284	4037.57
430.491	4078.53
430.699	4236.22
430.906	4185.02
431.114	4236.22
431.321	4307.9
431.528	4557.75
431.736	4705.21
431.943	4914.1
432.15	4778.94
432.358	4899.77
432.565	5188.53
432.772	5258.16
432.979	5555.12
433.187	5569.45
433.394	5620.65
433.601	5964.71
433.808	5938.09
434.016	5987.24
434.223	6095.78
434.43	6654.87
434.637	6544.28
434.844	6855.58
435.052	6976.41
435.259	7078.8
435.466	7035.8
435.673	6763.42
435.88	7295.89
436.087	7838.6
436.294	7676.81
436.501	7656.33
436.708	7662.48
436.915	7904.14
437.122	8205.19
437.329	8299.39
437.537	8569.73
437.743	8743.8
437.95	8708.99
438.157	9057.14
438.364	9143.16
438.571	9364.34
438.778	9370.48
438.985	10476.38
439.192	9839.47
439.399	10347.36
439.606	9968.49
439.813	10515.3
440.02	11176.79
440.227	11074.39
440.433	10818.39
440.64	11060.06
440.847	11148.12
441.054	11381.59
441.261	12231.49
441.467	11948.87
441.674	12172.1
441.881	12460.87
442.088	12614.46
442.294	12411.71
442.501	12786.49
442.708	13071.16
442.914	13552.43
443.121	14250.79
443.328	13796.14
443.534	14527.27
443.741	14310.18
443.948	14105.38
444.154	15100.7
444.361	15092.51
444.568	15102.75
444.774	15180.57
444.981	15223.58
445.187	15764.24
445.394	16397.06
445.6	16028.43
445.807	17674.99
446.013	16907.01
446.22	17206.01
446.426	17904.37
446.633	18201.32
446.839	18807.52
447.046	17926.89
447.252	18856.67
447.459	18971.36
447.665	18758.37
447.871	19593.94
448.078	20611.78
448.284	19469.01
448.491	20265.67
448.697	20892.35
448.903	21420.73
449.11	21559.99
449.316	20857.54
449.522	21349.05
449.728	21998.26
449.935	22012.59
450.141	22012.59
450.347	22583.98
450.553	21904.05
450.76	22112.94
450.966	22792.87
451.172	22575.78
451.378	23130.78
451.584	22758.05
451.791	23308.96
451.997	23433.88
452.203	23921.3
452.409	23546.52
452.615	23431.83
452.821	22717.09
453.027	22418.09
453.233	23952.02
453.44	22831.78
453.646	23321.24
453.852	23124.64
454.058	23745.17
454.264	22588.07
454.47	23106.21
454.676	22731.43
454.882	23798.42
455.088	21449.4
455.294	21965.49
455.5	22194.86
455.705	22467.24
455.911	21435.06
456.117	21154.49
456.323	20714.18
456.529	19792.59
456.735	21045.95
456.941	20259.53
457.147	20034.25
457.352	19501.78
457.558	19253.98
457.764	19233.5
457.97	18731.75
458.176	18354.92
458.381	18447.08
458.587	17697.52
458.793	17691.38
458.999	16614.15
459.204	17887.98
459.41	17269.5
459.616	16519.94
459.821	16399.11
460.027	16335.62
460.233	15866.64
460.438	15147.8
460.644	15561.49
460.85	14490.4
461.055	14545.7
461.261	14269.22
461.466	13474.61
461.672	12890.94
461.878	13824.81
462.083	12866.36
462.289	12448.58
462.494	12458.82
462.7	11983.69
462.905	11555.66
463.111	11965.26
463.316	12096.33
463.522	11866.95
463.727	11684.69
463.932	11737.93
464.138	11588.43
464.343	11789.13
464.549	11287.38
464.754	11727.69
464.959	11739.98
465.165	11418.45
465.37	11172.69
465.575	10791.77
465.781	11404.11
465.986	11393.87
466.191	11002.71
466.397	10416.99
466.602	10333.03
466.807	10511.2
467.012	10541.92
467.218	10484.58
467.423	10214.24
467.628	10361.7
467.833	10546.02
