Data from USB4F104151__20__14-16-09-579.txt Node

Date: Thu Mar 13 14:16:09 EDT 2025
User: louis
Spectrometer: USB4F10415
Trigger mode: 4
Integration Time (sec): 2.000000E-2
Scans to average: 1
Electric dark correction enabled: true
Nonlinearity correction enabled: false
Boxcar width: 0
XAxis mode: Wavelengths
Number of Pixels in Spectrum: 3648
>>>>>Begin Spectral Data<<<<<
178.204	-130.05
178.424	-130.05
178.644	-130.05
178.864	-111.61
179.084	-99.33
179.304	31.74
179.524	-17.41
179.744	-29.7
179.964	-5.12
180.184	-25.6
180.404	37.89
180.624	82.94
180.844	31.74
181.064	-54.27
181.283	-29.7
181.503	-46.08
181.723	23.55
181.943	-107.52
182.163	56.32
182.383	-17.41
182.602	-25.6
182.822	50.18
183.042	31.74
183.262	1.02
183.482	-1.02
183.701	48.13
183.921	5.12
184.141	-82.94
184.361	15.36
184.58	23.55
184.8	-74.75
185.02	44.03
185.239	25.6
185.459	101.37
185.679	48.13
185.898	-80.89
186.118	-17.41
186.338	11.26
186.557	60.42
186.777	-33.79
186.997	17.41
187.216	56.32
187.436	23.55
187.655	33.79
187.875	-25.6
188.095	-29.7
188.314	44.03
188.534	39.94
188.753	-5.12
188.973	19.46
189.192	93.18
189.412	13.31
189.631	23.55
189.851	-1.02
190.07	-1.02
190.29	-97.28
190.509	3.07
190.729	-41.98
190.948	58.37
191.168	179.2
191.387	13.31
191.607	15.36
191.826	37.89
192.045	60.42
192.265	7.17
192.484	-15.36
192.704	33.79
192.923	-54.27
193.142	48.13
193.362	103.42
193.581	31.74
193.8	56.32
194.02	89.09
194.239	27.65
194.458	58.37
194.678	27.65
194.897	-19.46
195.116	-23.55
195.335	-7.17
195.555	31.74
195.774	-62.46
195.993	-46.08
196.212	9.22
196.432	33.79
196.651	5.12
196.87	-13.31
197.089	166.91
197.308	91.13
197.528	52.22
197.747	-17.41
197.966	1.02
198.185	150.53
198.404	72.7
198.623	107.52
198.842	91.13
199.062	1.02
199.281	121.85
199.5	48.13
199.719	50.18
199.938	119.81
200.157	31.74
200.376	56.32
200.595	66.56
200.814	84.99
201.033	7.17
201.252	-7.17
201.471	27.65
201.69	39.94
201.909	19.46
202.128	62.46
202.347	72.7
202.566	-25.6
202.785	-37.89
203.004	-11.26
203.223	89.09
203.442	9.22
203.661	-25.6
203.879	15.36
204.098	13.31
204.317	48.13
204.536	56.32
204.755	23.55
204.974	48.13
205.193	56.32
205.411	68.61
205.63	-17.41
205.849	-25.6
206.068	-60.42
206.287	44.03
206.505	48.13
206.724	-5.12
206.943	68.61
207.162	5.12
207.381	25.6
207.599	-7.17
207.818	48.13
208.037	3.07
208.255	15.36
208.474	-23.55
208.693	17.41
208.911	7.17
209.13	107.52
209.349	52.22
209.567	-19.46
209.786	-17.41
210.005	39.94
210.223	72.7
210.442	-37.89
210.661	9.22
210.879	-19.46
211.098	62.46
211.316	35.84
211.535	87.04
211.753	-70.65
211.972	-56.32
212.191	-15.36
212.409	-107.52
212.628	-11.26
212.846	74.75
213.065	-5.12
213.283	37.89
213.502	15.36
213.72	31.74
213.938	23.55
214.157	9.22
214.375	74.75
214.594	13.31
214.812	50.18
215.031	3.07
215.249	44.03
215.467	-17.41
215.686	66.56
215.904	62.46
216.122	-76.8
216.341	91.13
216.559	35.84
216.778	-9.22
216.996	58.37
217.214	48.13
217.432	60.42
217.651	56.32
217.869	-3.07
218.087	23.55
218.306	23.55
218.524	82.94
218.742	-25.6
218.96	5.12
219.179	-13.31
219.397	7.17
219.615	54.27
219.833	7.17
220.051	-9.22
220.27	74.75
220.488	-29.7
220.706	27.65
220.924	19.46
221.142	-58.37
221.36	62.46
221.578	-17.41
221.796	37.89
222.015	39.94
222.233	-1.02
222.451	80.89
222.669	-50.18
222.887	62.46
223.105	-33.79
223.323	5.12
223.541	-13.31
223.759	7.17
223.977	-9.22
224.195	-15.36
224.413	48.13
224.631	-5.12
224.849	91.13
225.067	132.09
225.285	1.02
225.503	9.22
225.721	-105.47
225.939	-1.02
226.157	60.42
226.375	41.98
226.592	56.32
226.81	56.32
227.028	19.46
227.246	99.33
227.464	-3.07
227.682	39.94
227.9	7.17
228.117	33.79
228.335	60.42
228.553	-1.02
228.771	5.12
228.989	-58.37
229.206	7.17
229.424	-7.17
229.642	5.12
229.86	89.09
230.077	39.94
230.295	19.46
230.513	109.57
230.731	25.6
230.948	-3.07
231.166	58.37
231.384	56.32
231.601	52.22
231.819	1.02
232.037	1.02
232.254	29.7
232.472	80.89
232.689	46.08
232.907	93.18
233.125	48.13
233.342	25.6
233.56	-5.12
233.777	-31.74
233.995	41.98
234.213	74.75
234.43	-9.22
234.648	41.98
234.865	-9.22
235.083	78.85
235.3	39.94
235.518	64.51
235.735	21.5
235.953	-1.02
236.17	37.89
236.388	5.12
236.605	9.22
236.822	-50.18
237.04	48.13
237.257	-54.27
237.475	-17.41
237.692	80.89
237.909	-27.65
238.127	29.7
238.344	78.85
238.562	35.84
238.779	21.5
238.996	-64.51
239.214	31.74
239.431	105.47
239.648	-41.98
239.865	60.42
240.083	121.85
240.3	-41.98
240.517	21.5
240.735	-25.6
240.952	72.7
241.169	27.65
241.386	35.84
241.603	54.27
241.821	-29.7
242.038	-15.36
242.255	-39.94
242.472	-17.41
242.689	15.36
242.907	64.51
243.124	125.95
243.341	-7.17
243.558	66.56
243.775	-17.41
243.992	17.41
244.209	35.84
244.426	171.01
244.643	-7.17
244.86	23.55
245.078	-3.07
245.295	39.94
245.512	27.65
245.729	-27.65
245.946	31.74
246.163	-7.17
246.38	66.56
246.597	35.84
246.814	-27.65
247.031	31.74
247.248	89.09
247.464	-3.07
247.681	56.32
247.898	-17.41
248.115	44.03
248.332	-50.18
248.549	93.18
248.766	44.03
248.983	80.89
249.2	74.75
249.417	80.89
249.633	72.7
249.85	97.28
250.067	58.37
250.284	23.55
250.501	41.98
250.717	99.33
250.934	13.31
251.151	48.13
251.368	7.17
251.585	56.32
251.801	52.22
252.018	50.18
252.235	33.79
252.451	-23.55
252.668	58.37
252.885	-46.08
253.102	15.36
253.318	7.17
253.535	80.89
253.752	23.55
253.968	-41.98
254.185	56.32
254.401	11.26
254.618	-17.41
254.835	41.98
255.051	-5.12
255.268	60.42
255.484	64.51
255.701	3.07
255.917	7.17
256.134	-15.36
256.351	50.18
256.567	11.26
256.784	23.55
257	-91.13
257.217	99.33
257.433	48.13
257.65	99.33
257.866	109.57
258.082	39.94
258.299	-5.12
258.515	84.99
258.732	-21.5
258.948	-1.02
259.165	17.41
259.381	-15.36
259.597	50.18
259.814	23.55
260.03	-23.55
260.246	-15.36
260.463	33.79
260.679	78.85
260.895	60.42
261.112	25.6
261.328	19.46
261.544	46.08
261.761	33.79
261.977	87.04
262.193	3.07
262.409	52.22
262.626	84.99
262.842	15.36
263.058	-25.6
263.274	9.22
263.49	11.26
263.707	25.6
263.923	31.74
264.139	23.55
264.355	7.17
264.571	56.32
264.787	-5.12
265.004	54.27
265.22	35.84
265.436	39.94
265.652	89.09
265.868	68.61
266.084	-56.32
266.3	44.03
266.516	3.07
266.732	3.07
266.948	52.22
267.164	15.36
267.38	44.03
267.596	31.74
267.812	99.33
268.028	46.08
268.244	23.55
268.46	-9.22
268.676	-5.12
268.892	66.56
269.108	27.65
269.324	-41.98
269.54	-87.04
269.756	39.94
269.972	13.31
270.188	23.55
270.403	-78.85
270.619	33.79
270.835	64.51
271.051	44.03
271.267	5.12
271.483	-15.36
271.698	-17.41
271.914	-64.51
272.13	19.46
272.346	11.26
272.562	-37.89
272.777	23.55
272.993	3.07
273.209	84.99
273.425	56.32
273.64	-11.26
273.856	56.32
274.072	-3.07
274.287	19.46
274.503	-5.12
274.719	64.51
274.934	31.74
275.15	9.22
275.366	64.51
275.581	-15.36
275.797	25.6
276.012	-72.7
276.228	41.98
276.444	7.17
276.659	113.66
276.875	-5.12
277.09	31.74
277.306	68.61
277.521	-44.03
277.737	-25.6
277.952	93.18
278.168	39.94
278.383	17.41
278.599	-46.08
278.814	70.65
279.03	7.17
279.245	39.94
279.461	-1.02
279.676	-1.02
279.892	50.18
280.107	15.36
280.322	-1.02
280.538	52.22
280.753	5.12
280.969	31.74
281.184	56.32
281.399	41.98
281.615	33.79
281.83	60.42
282.045	-17.41
282.26	-19.46
282.476	29.7
282.691	54.27
282.906	35.84
283.122	-9.22
283.337	37.89
283.552	-25.6
283.767	3.07
283.983	68.61
284.198	68.61
284.413	48.13
284.628	17.41
284.843	25.6
285.058	44.03
285.274	9.22
285.489	-7.17
285.704	60.42
285.919	37.89
286.134	25.6
286.349	25.6
286.564	19.46
286.779	68.61
286.995	91.13
287.21	-37.89
287.425	58.37
287.64	46.08
287.855	87.04
288.07	-41.98
288.285	37.89
288.5	74.75
288.715	76.8
288.93	1.02
289.145	31.74
289.36	17.41
289.575	31.74
289.79	11.26
290.004	54.27
290.219	41.98
290.434	58.37
290.649	-27.65
290.864	50.18
291.079	7.17
291.294	27.65
291.509	48.13
291.724	89.09
291.938	52.22
292.153	84.99
292.368	-15.36
292.583	48.13
292.798	-1.02
293.012	56.32
293.227	113.66
293.442	23.55
293.657	52.22
293.871	68.61
294.086	-13.31
294.301	117.76
294.516	11.26
294.73	39.94
294.945	-48.13
295.16	17.41
295.374	64.51
295.589	-5.12
295.804	-23.55
296.018	56.32
296.233	9.22
296.447	91.13
296.662	-66.56
296.877	93.18
297.091	5.12
297.306	80.89
297.52	9.22
297.735	89.09
297.949	27.65
298.164	48.13
298.378	33.79
298.593	50.18
298.807	-15.36
299.022	76.8
299.236	76.8
299.451	1.02
299.665	-17.41
299.88	115.71
300.094	-9.22
300.309	-13.31
300.523	48.13
300.737	31.74
300.952	58.37
301.166	1.02
301.381	-17.41
301.595	9.22
301.809	27.65
302.024	64.51
302.238	31.74
302.452	39.94
302.667	-25.6
302.881	44.03
303.095	56.32
303.309	11.26
303.524	25.6
303.738	115.71
303.952	15.36
304.166	72.7
304.381	3.07
304.595	58.37
304.809	1.02
305.023	25.6
305.237	31.74
305.452	76.8
305.666	56.32
305.88	56.32
306.094	39.94
306.308	33.79
306.522	17.41
306.736	19.46
306.95	9.22
307.164	23.55
307.379	-1.02
307.593	78.85
307.807	56.32
308.021	31.74
308.235	23.55
308.449	-13.31
308.663	29.7
308.877	82.94
309.091	-11.26
309.305	41.98
309.519	68.61
309.733	31.74
309.947	-5.12
310.161	80.89
310.374	66.56
310.588	76.8
310.802	48.13
311.016	44.03
311.23	19.46
311.444	58.37
311.658	29.7
311.872	80.89
312.085	60.42
312.299	54.27
312.513	31.74
312.727	74.75
312.941	-78.85
313.154	15.36
313.368	66.56
313.582	76.8
313.796	-17.41
314.009	15.36
314.223	-17.41
314.437	72.7
314.651	11.26
314.864	17.41
315.078	23.55
315.292	1.02
315.505	-33.79
315.719	35.84
315.933	72.7
316.146	-33.79
316.36	-9.22
316.573	78.85
316.787	17.41
317.001	29.7
317.214	-66.56
317.428	11.26
317.641	-11.26
317.855	31.74
318.068	7.17
318.282	27.65
318.495	31.74
318.709	-54.27
318.922	3.07
319.136	121.85
319.349	105.47
319.563	82.94
319.776	33.79
319.99	-39.94
320.203	27.65
320.417	-9.22
320.63	-9.22
320.843	89.09
321.057	109.57
321.27	-41.98
321.483	9.22
321.697	99.33
321.91	87.04
322.124	60.42
322.337	35.84
322.55	31.74
322.763	9.22
322.977	48.13
323.19	19.46
323.403	76.8
323.617	50.18
323.83	82.94
324.043	87.04
324.256	64.51
324.469	-48.13
324.683	17.41
324.896	9.22
325.109	21.5
325.322	-25.6
325.535	11.26
325.748	3.07
325.962	89.09
326.175	72.7
326.388	25.6
326.601	7.17
326.814	41.98
327.027	-33.79
327.24	74.75
327.453	-11.26
327.666	31.74
327.879	111.61
328.092	39.94
328.305	7.17
328.518	-37.89
328.731	13.31
328.944	-9.22
329.157	21.5
329.37	7.17
329.583	60.42
329.796	64.51
330.009	3.07
330.222	56.32
330.435	91.13
330.648	23.55
330.861	82.94
331.073	72.7
331.286	93.18
331.499	1.02
331.712	17.41
331.925	64.51
332.138	89.09
332.35	66.56
332.563	58.37
332.776	35.84
332.989	58.37
333.202	58.37
333.414	31.74
333.627	1.02
333.84	82.94
334.053	41.98
334.265	41.98
334.478	-1.02
334.691	7.17
334.903	23.55
335.116	3.07
335.329	56.32
335.541	54.27
335.754	39.94
335.966	9.22
336.179	39.94
336.392	-15.36
336.604	76.8
336.817	44.03
337.029	46.08
337.242	-19.46
337.454	80.89
337.667	62.46
337.88	33.79
338.092	21.5
338.305	60.42
338.517	-19.46
338.729	89.09
338.942	13.31
339.154	15.36
339.367	31.74
339.579	15.36
339.792	31.74
340.004	60.42
340.217	41.98
340.429	1.02
340.641	15.36
340.854	-39.94
341.066	5.12
341.278	103.42
341.491	5.12
341.703	37.89
341.915	66.56
342.128	19.46
342.34	21.5
342.552	-9.22
342.764	74.75
342.977	56.32
343.189	37.89
343.401	7.17
343.613	62.46
343.826	23.55
344.038	-35.84
344.25	60.42
344.462	72.7
344.674	23.55
344.886	19.46
345.099	17.41
345.311	27.65
345.523	72.7
345.735	-48.13
345.947	56.32
346.159	80.89
346.371	27.65
346.583	58.37
346.795	60.42
347.007	146.43
347.219	11.26
347.431	11.26
347.643	70.65
347.855	9.22
348.067	91.13
348.279	-9.22
348.491	35.84
348.703	1.02
348.915	91.13
349.127	-25.6
349.339	107.52
349.551	97.28
349.763	35.84
349.975	52.22
350.187	72.7
350.399	56.32
350.61	35.84
350.822	64.51
351.034	-31.74
351.246	31.74
351.458	15.36
351.669	56.32
351.881	72.7
352.093	9.22
352.305	58.37
352.517	52.22
352.728	48.13
352.94	35.84
353.152	-11.26
353.363	33.79
353.575	25.6
353.787	72.7
353.999	15.36
354.21	76.8
354.422	54.27
354.633	9.22
354.845	23.55
355.057	80.89
355.268	62.46
355.48	72.7
355.692	48.13
355.903	89.09
356.115	-9.22
356.326	9.22
356.538	35.84
356.749	17.41
356.961	27.65
357.172	66.56
357.384	56.32
357.595	132.09
357.807	89.09
358.018	70.65
358.23	25.6
358.441	113.66
358.653	99.33
358.864	35.84
359.075	-9.22
359.287	68.61
359.498	101.37
359.709	23.55
359.921	31.74
360.132	35.84
360.344	76.8
360.555	-44.03
360.766	107.52
360.977	39.94
361.189	19.46
361.4	7.17
361.611	103.42
361.823	173.05
362.034	89.09
362.245	5.12
362.456	25.6
362.667	23.55
362.879	7.17
363.09	35.84
363.301	50.18
363.512	5.12
363.723	84.99
363.935	15.36
364.146	31.74
364.357	64.51
364.568	58.37
364.779	13.31
364.99	27.65
365.201	-15.36
365.412	125.95
365.623	-7.17
365.834	89.09
366.045	19.46
366.256	44.03
366.467	99.33
366.678	25.6
366.889	-25.6
367.1	41.98
367.311	56.32
367.522	39.94
367.733	-9.22
367.944	76.8
368.155	48.13
368.366	50.18
368.577	146.43
368.788	105.47
368.999	-29.7
369.209	76.8
369.42	48.13
369.631	70.65
369.842	31.74
370.053	-29.7
370.264	35.84
370.474	27.65
370.685	35.84
370.896	74.75
371.107	27.65
371.317	66.56
371.528	39.94
371.739	76.8
371.95	33.79
372.16	17.41
372.371	21.5
372.582	-17.41
372.792	109.57
373.003	101.37
373.214	97.28
373.424	138.24
373.635	-50.18
373.846	54.27
374.056	89.09
374.267	64.51
374.477	-3.07
374.688	60.42
374.898	62.46
375.109	25.6
375.319	60.42
375.53	19.46
375.74	70.65
375.951	62.46
376.161	33.79
376.372	60.42
376.582	76.8
376.793	41.98
377.003	31.74
377.214	48.13
377.424	35.84
377.635	31.74
377.845	-37.89
378.055	52.22
378.266	27.65
378.476	58.37
378.686	7.17
378.897	48.13
379.107	9.22
379.317	74.75
379.528	35.84
379.738	107.52
379.948	56.32
380.158	64.51
380.369	39.94
380.579	-23.55
380.789	144.38
380.999	-21.5
381.21	105.47
381.42	44.03
381.63	11.26
381.84	1.02
382.05	31.74
382.261	60.42
382.471	52.22
382.681	56.32
382.891	164.86
383.101	99.33
383.311	23.55
383.521	35.84
383.731	117.76
383.941	74.75
384.151	89.09
384.361	103.42
384.571	-1.02
384.781	48.13
384.991	39.94
385.201	115.71
385.411	31.74
385.621	121.85
385.831	70.65
386.041	99.33
386.251	54.27
386.461	91.13
386.671	56.32
386.881	44.03
387.091	33.79
387.301	64.51
387.511	76.8
387.72	91.13
387.93	142.33
388.14	76.8
388.35	7.17
388.56	23.55
388.769	91.13
388.979	93.18
389.189	87.04
389.399	7.17
389.609	121.85
389.818	136.19
390.028	107.52
390.238	82.94
390.447	9.22
390.657	66.56
390.867	25.6
391.076	56.32
391.286	-50.18
391.496	78.85
391.705	76.8
391.915	97.28
392.125	48.13
392.334	31.74
392.544	66.56
392.753	78.85
392.963	7.17
393.172	62.46
393.382	41.98
393.591	109.57
393.801	52.22
394.01	84.99
394.22	105.47
394.429	33.79
394.639	58.37
394.848	29.7
395.058	68.61
395.267	91.13
395.477	105.47
395.686	138.24
395.895	33.79
396.105	197.63
396.314	80.89
396.524	80.89
396.733	37.89
396.942	107.52
397.152	195.58
397.361	138.24
397.57	105.47
397.78	56.32
397.989	152.57
398.198	158.72
398.407	101.37
398.617	125.95
398.826	60.42
399.035	105.47
399.244	148.48
399.453	113.66
399.663	89.09
399.872	140.29
400.081	156.67
400.29	130.05
400.499	82.94
400.708	132.09
400.917	68.61
401.127	41.98
401.336	121.85
401.545	168.96
401.754	171.01
401.963	125.95
402.172	117.76
402.381	156.67
402.59	113.66
402.799	152.57
403.008	189.44
403.217	162.81
403.426	150.53
403.635	144.38
403.844	123.9
404.053	168.96
404.262	183.29
404.471	193.53
404.68	164.86
404.888	140.29
405.097	121.85
405.306	220.16
405.515	240.64
405.724	168.96
405.933	187.39
406.142	166.91
406.35	257.02
406.559	142.33
406.768	168.96
406.977	226.3
407.185	259.07
407.394	244.73
407.603	211.96
407.812	250.88
408.02	304.12
408.229	302.08
408.438	302.08
408.646	232.44
408.855	257.02
409.064	377.85
409.272	203.77
409.481	318.46
409.69	345.08
409.898	334.84
410.107	334.84
410.315	367.61
410.524	375.8
410.733	367.61
410.941	373.75
411.15	416.76
411.358	445.43
411.567	529.4
411.775	582.65
411.984	510.97
412.192	549.88
412.401	572.41
412.609	615.41
412.818	576.5
413.026	623.61
413.234	572.41
413.443	660.47
413.651	625.65
413.86	625.65
414.068	793.59
414.276	746.48
414.485	637.94
414.693	793.59
414.901	789.49
415.11	781.3
415.318	754.68
415.526	893.94
415.734	926.71
415.943	963.57
416.151	996.34
416.359	916.47
416.567	990.19
416.776	1051.63
416.984	1106.93
417.192	1219.57
417.4	1199.09
417.608	1072.11
417.817	1172.46
418.025	1371.12
418.233	1360.88
418.441	1334.25
418.649	1412.07
418.857	1502.19
419.065	1526.76
419.273	1610.73
419.481	1575.91
419.689	1719.27
419.897	1833.96
420.105	1809.38
420.313	1819.62
420.521	1915.87
420.729	1817.57
420.937	2036.7
421.145	2042.85
421.353	2204.64
421.561	2261.98
421.769	2350.04
421.977	2501.59
422.185	2386.91
422.393	2603.99
422.601	2751.45
422.809	2614.23
423.017	2776.02
423.224	2800.6
423.432	2853.84
423.64	2857.94
423.848	3259.34
424.056	3179.47
424.263	3367.88
424.471	3431.37
424.679	3466.19
424.887	3695.56
425.094	3888.07
425.302	3759.05
425.51	3828.68
425.718	4088.77
425.925	4074.43
426.133	4254.66
426.341	4524.99
426.548	4643.77
426.756	4770.74
426.964	4682.68
427.171	4938.68
427.379	5034.93
427.586	5137.33
427.794	5260.21
428.001	5583.79
428.209	5852.07
428.417	5761.96
428.624	6286.24
428.832	6134.69
429.039	6103.97
429.247	6060.96
429.454	6695.83
429.662	7107.48
429.869	6785.94
430.076	7138.2
430.284	7025.56
430.491	7322.51
430.699	7721.87
430.906	7676.81
431.114	7873.42
431.321	7979.91
431.528	8342.4
431.736	8698.75
431.943	9104.25
432.15	8940.41
432.358	9177.97
432.565	9452.4
432.772	9388.91
432.979	9980.78
433.187	10036.07
433.394	10005.35
433.601	10853.21
433.808	11021.14
434.016	10912.6
434.223	11316.05
434.43	12022.6
434.637	11780.94
434.844	12436.29
435.052	12606.27
435.259	12708.67
435.466	12583.74
435.673	12686.14
435.88	13318.96
436.087	13998.89
436.294	13953.84
436.501	13404.98
436.708	14129.96
436.915	14560.03
437.122	15112.99
437.329	14875.42
437.537	15440.66
437.743	15780.62
437.95	15852.3
438.157	16356.1
438.364	16816.9
438.571	17097.47
438.778	17259.26
438.985	18735.84
439.192	17959.66
439.399	18674.4
439.606	18017.01
439.813	19241.69
440.02	20685.51
440.227	20003.53
440.433	19888.85
440.64	20380.36
440.847	20353.74
441.054	20654.79
441.261	22248.11
441.467	21822.13
441.674	22158
441.881	23063.2
442.088	22946.47
442.294	23106.21
442.501	23394.97
442.708	24009.36
442.914	24849.03
443.121	25762.42
443.328	25072.26
443.534	26800.74
443.741	25999.99
443.948	25635.45
444.154	27458.14
444.361	27310.69
444.568	27562.59
444.774	27523.68
444.981	27746.9
445.187	28424.78
445.394	30067.25
445.6	29872.7
445.807	32723.47
446.013	31275.55
446.22	31578.65
446.426	32780.81
446.633	33335.81
446.839	34456.05
447.046	32819.72
447.252	34621.94
447.459	34660.85
447.665	34507.25
447.871	35652.06
448.078	37435.84
448.284	35899.87
448.491	37050.83
448.697	37933.5
448.903	39152.04
449.11	38912.43
449.316	38670.77
449.522	38709.68
449.728	39887.26
449.935	40425.88
450.141	40030.62
450.347	40798.61
450.553	39563.68
450.76	40331.67
450.966	41642.37
451.172	41107.85
451.378	42209.66
451.584	41421.19
451.791	42430.84
451.997	42277.24
452.203	42826.1
452.409	42959.22
452.615	42834.29
452.821	40989.07
453.027	40810.9
453.233	42891.63
453.44	41030.03
453.646	41746.82
453.852	41841.03
454.058	42592.63
454.264	41062.8
454.47	42367.35
454.676	41331.08
454.882	42256.76
455.088	38773.17
455.294	39549.35
455.5	40165.79
455.705	40663.44
455.911	38668.72
456.117	37874.11
456.323	37423.56
456.529	35736.03
456.735	37466.56
456.941	36325.85
457.147	35592.67
457.352	34767.34
457.558	34417.14
457.764	34421.23
457.97	33835.52
458.176	33227.27
458.381	33333.76
458.587	31420.96
458.793	31373.86
458.999	30364.21
459.204	31982.1
459.41	31099.43
459.616	28858.95
459.821	29188.67
460.027	28820.04
460.233	28365.39
460.438	27132.51
460.644	27333.21
460.85	26298.99
461.055	25660.02
461.261	25780.85
461.466	23689.88
461.672	22807.2
461.878	24496.78
462.083	23204.51
462.289	22594.22
462.494	22364.84
462.7	21406.39
462.905	20783.81
463.111	21326.52
463.316	21379.77
463.522	21146.3
463.727	21082.81
463.932	21189.31
464.138	20869.83
464.343	20806.34
464.549	20591.3
464.754	20947.65
464.959	20732.61
465.165	20519.62
465.37	19694.29
465.575	19284.7
465.781	20110.03
465.986	20196.04
466.191	19610.32
466.397	19073.76
466.602	18287.34
466.807	18848.48
467.012	19081.95
467.218	18828
467.423	18703.07
