Data from USB4F104151__234__14-22-07-094.txt Node

Date: Thu Mar 13 14:22:07 EDT 2025
User: louis
Spectrometer: USB4F10415
Trigger mode: 4
Integration Time (sec): 2.000000E-2
Scans to average: 1
Electric dark correction enabled: true
Nonlinearity correction enabled: false
Boxcar width: 0
XAxis mode: Wavelengths
Number of Pixels in Spectrum: 3648
>>>>>Begin Spectral Data<<<<<
178.204	-141.31
178.424	-141.31
178.644	-141.31
178.864	-149.5
179.084	-151.55
179.304	-34.82
179.524	-53.25
179.744	51.2
179.964	45.06
180.184	-10.24
180.404	36.86
180.624	-57.34
180.844	2.05
181.064	36.86
181.283	8.19
181.503	-69.63
181.723	45.06
181.943	-18.43
182.163	55.3
182.383	-24.58
182.602	6.14
182.822	47.1
183.042	102.4
183.262	63.49
183.482	47.1
183.701	14.34
183.921	53.25
184.141	-16.38
184.361	-32.77
184.58	0
184.8	69.63
185.02	-28.67
185.239	28.67
185.459	-32.77
185.679	79.87
185.898	-16.38
186.118	55.3
186.338	-6.14
186.557	57.34
186.777	-12.29
186.997	20.48
187.216	-26.62
187.436	126.97
187.655	49.15
187.875	49.15
188.095	59.39
188.314	36.86
188.534	79.87
188.753	22.53
188.973	-30.72
189.192	73.73
189.412	65.53
189.631	45.06
189.851	59.39
190.07	30.72
190.29	45.06
190.509	-12.29
190.729	-2.05
190.948	-51.2
191.168	104.45
191.387	69.63
191.607	2.05
191.826	30.72
192.045	20.48
192.265	-24.58
192.484	40.96
192.704	-14.34
192.923	36.86
193.142	16.38
193.362	55.3
193.581	88.06
193.8	116.73
194.02	61.44
194.239	24.58
194.458	20.48
194.678	53.25
194.897	-2.05
195.116	30.72
195.335	104.45
195.555	47.1
195.774	102.4
195.993	34.82
196.212	-26.62
196.432	4.1
196.651	38.91
196.87	-10.24
197.089	53.25
197.308	28.67
197.528	69.63
197.747	-32.77
197.966	69.63
198.185	-18.43
198.404	-43.01
198.623	12.29
198.842	73.73
199.062	14.34
199.281	81.92
199.5	-77.82
199.719	71.68
199.938	-30.72
200.157	30.72
200.376	51.2
200.595	86.01
200.814	-59.39
201.033	14.34
201.252	135.17
201.471	22.53
201.69	112.64
201.909	47.1
202.128	102.4
202.347	-26.62
202.566	94.21
202.785	-20.48
203.004	-34.82
203.223	86.01
203.442	40.96
203.661	8.19
203.879	61.44
204.098	4.1
204.317	90.11
204.536	131.07
204.755	4.1
204.974	53.25
205.193	86.01
205.411	47.1
205.63	28.67
205.849	53.25
206.068	63.49
206.287	55.3
206.505	55.3
206.724	6.14
206.943	26.62
207.162	-4.1
207.381	30.72
207.599	6.14
207.818	65.53
208.037	-20.48
208.255	12.29
208.474	73.73
208.693	28.67
208.911	45.06
209.13	53.25
209.349	63.49
209.567	28.67
209.786	43.01
210.005	94.21
210.223	45.06
210.442	22.53
210.661	57.34
210.879	38.91
211.098	94.21
211.316	22.53
211.535	8.19
211.753	45.06
211.972	45.06
212.191	61.44
212.409	114.69
212.628	-8.19
212.846	38.91
213.065	34.82
213.283	57.34
213.502	108.54
213.72	51.2
213.938	-94.21
214.157	28.67
214.375	53.25
214.594	0
214.812	24.58
215.031	45.06
215.249	16.38
215.467	12.29
215.686	12.29
215.904	86.01
216.122	0
216.341	180.22
216.559	2.05
216.778	79.87
216.996	71.68
217.214	-4.1
217.432	73.73
217.651	28.67
217.869	79.87
218.087	28.67
218.306	69.63
218.524	45.06
218.742	36.86
218.96	30.72
219.179	53.25
219.397	6.14
219.615	16.38
219.833	-10.24
220.051	57.34
220.27	118.78
220.488	6.14
220.706	118.78
220.924	53.25
221.142	20.48
221.36	65.53
221.578	-28.67
221.796	12.29
222.015	20.48
222.233	26.62
222.451	153.6
222.669	63.49
222.887	-12.29
223.105	38.91
223.323	18.43
223.541	38.91
223.759	79.87
223.977	30.72
224.195	83.97
224.413	75.77
224.631	106.49
224.849	4.1
225.067	100.35
225.285	12.29
225.503	-4.1
225.721	4.1
225.939	69.63
226.157	53.25
226.375	55.3
226.592	-12.29
226.81	4.1
227.028	45.06
227.246	102.4
227.464	45.06
227.682	81.92
227.9	69.63
228.117	98.3
228.335	-8.19
228.553	-28.67
228.771	0
228.989	112.64
229.206	65.53
229.424	43.01
229.642	-14.34
229.86	6.14
230.077	57.34
230.295	24.58
230.513	67.58
230.731	49.15
230.948	137.21
231.166	77.82
231.384	40.96
231.601	12.29
231.819	98.3
232.037	20.48
232.254	-6.14
232.472	20.48
232.689	-18.43
232.907	-10.24
233.125	20.48
233.342	-2.05
233.56	-34.82
233.777	57.34
233.995	24.58
234.213	49.15
234.43	24.58
234.648	12.29
234.865	34.82
235.083	77.82
235.3	-20.48
235.518	67.58
235.735	120.83
235.953	-2.05
236.17	90.11
236.388	-8.19
236.605	69.63
236.822	69.63
237.04	22.53
237.257	-8.19
237.475	36.86
237.692	71.68
237.909	110.59
238.127	69.63
238.344	63.49
238.562	36.86
238.779	-47.1
238.996	61.44
239.214	24.58
239.431	26.62
239.648	38.91
239.865	104.45
240.083	137.21
240.3	65.53
240.517	6.14
240.735	47.1
240.952	-12.29
241.169	4.1
241.386	47.1
241.603	16.38
241.821	-2.05
242.038	53.25
242.255	8.19
242.472	24.58
242.689	55.3
242.907	16.38
243.124	94.21
243.341	-8.19
243.558	47.1
243.775	110.59
243.992	-49.15
244.209	45.06
244.426	59.39
244.643	57.34
244.86	61.44
245.078	30.72
245.295	61.44
245.512	53.25
245.729	12.29
245.946	36.86
246.163	57.34
246.38	43.01
246.597	24.58
246.814	8.19
247.031	-12.29
247.248	-53.25
247.464	65.53
247.681	36.86
247.898	83.97
248.115	102.4
248.332	65.53
248.549	131.07
248.766	67.58
248.983	106.49
249.2	104.45
249.417	88.06
249.633	53.25
249.85	129.02
250.067	81.92
250.284	49.15
250.501	36.86
250.717	104.45
250.934	-12.29
251.151	49.15
251.368	16.38
251.585	30.72
251.801	63.49
252.018	4.1
252.235	24.58
252.451	8.19
252.668	169.98
252.885	-32.77
253.102	61.44
253.318	45.06
253.535	10.24
253.752	20.48
253.968	77.82
254.185	-45.06
254.401	-14.34
254.618	-18.43
254.835	57.34
255.051	69.63
255.268	51.2
255.484	-10.24
255.701	49.15
255.917	73.73
256.134	106.49
256.351	75.77
256.567	36.86
256.784	4.1
257	61.44
257.217	104.45
257.433	79.87
257.65	45.06
257.866	83.97
258.082	12.29
258.299	2.05
258.515	65.53
258.732	36.86
258.948	45.06
259.165	-6.14
259.381	12.29
259.597	26.62
259.814	110.59
260.03	55.3
260.246	61.44
260.463	63.49
260.679	47.1
260.895	63.49
261.112	59.39
261.328	102.4
261.544	86.01
261.761	32.77
261.977	32.77
262.193	69.63
262.409	118.78
262.626	71.68
262.842	0
263.058	2.05
263.274	69.63
263.49	57.34
263.707	32.77
263.923	53.25
264.139	24.58
264.355	-28.67
264.571	-6.14
264.787	63.49
265.004	88.06
265.22	-2.05
265.436	47.1
265.652	6.14
265.868	38.91
266.084	57.34
266.3	55.3
266.516	-6.14
266.732	16.38
266.948	47.1
267.164	-4.1
267.38	43.01
267.596	24.58
267.812	118.78
268.028	69.63
268.244	63.49
268.46	0
268.676	34.82
268.892	26.62
269.108	40.96
269.324	-12.29
269.54	53.25
269.756	77.82
269.972	26.62
270.188	45.06
270.403	86.01
270.619	18.43
270.835	38.91
271.051	53.25
271.267	98.3
271.483	8.19
271.698	96.25
271.914	53.25
272.13	34.82
272.346	30.72
272.562	47.1
272.777	40.96
272.993	-2.05
273.209	53.25
273.425	67.58
273.64	-34.82
273.856	86.01
274.072	73.73
274.287	45.06
274.503	26.62
274.719	120.83
274.934	53.25
275.15	-10.24
275.366	36.86
275.581	59.39
275.797	86.01
276.012	0
276.228	57.34
276.444	-14.34
276.659	131.07
276.875	34.82
277.09	63.49
277.306	28.67
277.521	53.25
277.737	-14.34
277.952	86.01
278.168	77.82
278.383	100.35
278.599	59.39
278.814	163.84
279.03	-75.77
279.245	53.25
279.461	63.49
279.676	47.1
279.892	2.05
280.107	86.01
280.322	38.91
280.538	53.25
280.753	6.14
280.969	55.3
281.184	16.38
281.399	206.84
281.615	49.15
281.83	69.63
282.045	20.48
282.26	28.67
282.476	51.2
282.691	57.34
282.906	65.53
283.122	22.53
283.337	4.1
283.552	53.25
283.767	81.92
283.983	45.06
284.198	73.73
284.413	8.19
284.628	40.96
284.843	90.11
285.058	14.34
285.274	61.44
285.489	-24.58
285.704	106.49
285.919	59.39
286.134	71.68
286.349	69.63
286.564	94.21
286.779	104.45
286.995	4.1
287.21	36.86
287.425	20.48
287.64	77.82
287.855	102.4
288.07	30.72
288.285	57.34
288.5	90.11
288.715	38.91
288.93	30.72
289.145	79.87
289.36	102.4
289.575	59.39
289.79	94.21
290.004	90.11
290.219	59.39
290.434	49.15
290.649	18.43
290.864	53.25
291.079	32.77
291.294	51.2
291.509	20.48
291.724	77.82
291.938	67.58
292.153	-28.67
292.368	4.1
292.583	167.93
292.798	28.67
293.012	47.1
293.227	118.78
293.442	12.29
293.657	65.53
293.871	47.1
294.086	-45.06
294.301	100.35
294.516	135.17
294.73	47.1
294.945	102.4
295.16	38.91
295.374	94.21
295.589	12.29
295.804	57.34
296.018	59.39
296.233	32.77
296.447	36.86
296.662	-12.29
296.877	98.3
297.091	83.97
297.306	53.25
297.52	43.01
297.735	67.58
297.949	30.72
298.164	-4.1
298.378	118.78
298.593	90.11
298.807	45.06
299.022	32.77
299.236	-20.48
299.451	30.72
299.665	77.82
299.88	129.02
300.094	40.96
300.309	45.06
300.523	24.58
300.737	22.53
300.952	38.91
301.166	55.3
301.381	36.86
301.595	96.25
301.809	75.77
302.024	79.87
302.238	0
302.452	94.21
302.667	40.96
302.881	94.21
303.095	20.48
303.309	45.06
303.524	59.39
303.738	-28.67
303.952	20.48
304.166	90.11
304.381	18.43
304.595	90.11
304.809	12.29
305.023	-8.19
305.237	12.29
305.452	30.72
305.666	81.92
305.88	104.45
306.094	65.53
306.308	100.35
306.522	34.82
306.736	135.17
306.95	102.4
307.164	26.62
307.379	55.3
307.593	36.86
307.807	38.91
308.021	120.83
308.235	47.1
308.449	147.45
308.663	-38.91
308.877	77.82
309.091	28.67
309.305	102.4
309.519	-16.38
309.733	49.15
309.947	79.87
310.161	-8.19
310.374	67.58
310.588	102.4
310.802	-28.67
311.016	49.15
311.23	-55.3
311.444	20.48
311.658	104.45
311.872	-20.48
312.085	71.68
312.299	75.77
312.513	114.69
312.727	71.68
312.941	86.01
313.154	112.64
313.368	28.67
313.582	28.67
313.796	73.73
314.009	73.73
314.223	98.3
314.437	47.1
314.651	40.96
314.864	114.69
315.078	75.77
315.292	0
315.505	16.38
315.719	69.63
315.933	61.44
316.146	-69.63
316.36	63.49
316.573	28.67
316.787	59.39
317.001	40.96
317.214	30.72
317.428	-8.19
317.641	30.72
317.855	69.63
318.068	30.72
318.282	14.34
318.495	22.53
318.709	73.73
318.922	47.1
319.136	4.1
319.349	32.77
319.563	-51.2
319.776	-26.62
319.99	12.29
320.203	45.06
320.417	122.88
320.63	32.77
320.843	77.82
321.057	96.25
321.27	61.44
321.483	20.48
321.697	118.78
321.91	28.67
322.124	63.49
322.337	79.87
322.55	65.53
322.763	92.16
322.977	36.86
323.19	-8.19
323.403	88.06
323.617	-6.14
323.83	45.06
324.043	20.48
324.256	83.97
324.469	-28.67
324.683	49.15
324.896	-49.15
325.109	71.68
325.322	20.48
325.535	67.58
325.748	104.45
325.962	63.49
326.175	12.29
326.388	4.1
326.601	12.29
326.814	47.1
327.027	69.63
327.24	122.88
327.453	71.68
327.666	-28.67
327.879	22.53
328.092	20.48
328.305	36.86
328.518	118.78
328.731	12.29
328.944	38.91
329.157	69.63
329.37	73.73
329.583	110.59
329.796	63.49
330.009	16.38
330.222	77.82
330.435	77.82
330.648	57.34
330.861	61.44
331.073	104.45
331.286	120.83
331.499	14.34
331.712	-18.43
331.925	69.63
332.138	32.77
332.35	53.25
332.563	24.58
332.776	61.44
332.989	28.67
333.202	28.67
333.414	16.38
333.627	34.82
333.84	38.91
334.053	69.63
334.265	22.53
334.478	36.86
334.691	30.72
334.903	94.21
335.116	63.49
335.329	22.53
335.541	92.16
335.754	129.02
335.966	69.63
336.179	30.72
336.392	69.63
336.604	90.11
336.817	110.59
337.029	57.34
337.242	32.77
337.454	43.01
337.667	65.53
337.88	112.64
338.092	63.49
338.305	102.4
338.517	47.1
338.729	45.06
338.942	69.63
339.154	69.63
339.367	-45.06
339.579	61.44
339.792	-4.1
340.004	63.49
340.217	32.77
340.429	65.53
340.641	77.82
340.854	63.49
341.066	-20.48
341.278	155.65
341.491	75.77
341.703	36.86
341.915	98.3
342.128	63.49
342.34	18.43
342.552	28.67
342.764	20.48
342.977	45.06
343.189	110.59
343.401	69.63
343.613	16.38
343.826	102.4
344.038	14.34
344.25	110.59
344.462	59.39
344.674	24.58
344.886	67.58
345.099	102.4
345.311	65.53
345.523	79.87
345.735	45.06
345.947	57.34
346.159	94.21
346.371	45.06
346.583	86.01
346.795	104.45
347.007	69.63
347.219	112.64
347.431	55.3
347.643	81.92
347.855	63.49
348.067	61.44
348.279	-30.72
348.491	81.92
348.703	110.59
348.915	92.16
349.127	28.67
349.339	36.86
349.551	16.38
349.763	122.88
349.975	51.2
350.187	79.87
350.399	108.54
350.61	77.82
350.822	36.86
351.034	53.25
351.246	69.63
351.458	110.59
351.669	53.25
351.881	65.53
352.093	86.01
352.305	22.53
352.517	38.91
352.728	126.97
352.94	45.06
353.152	67.58
353.363	53.25
353.575	79.87
353.787	120.83
353.999	88.06
354.21	69.63
354.422	83.97
354.633	30.72
354.845	16.38
355.057	8.19
355.268	-2.05
355.48	30.72
355.692	45.06
355.903	77.82
356.115	110.59
356.326	112.64
356.538	77.82
356.749	81.92
356.961	61.44
357.172	71.68
357.384	20.48
357.595	126.97
357.807	49.15
358.018	63.49
358.23	112.64
358.441	65.53
358.653	98.3
358.864	26.62
359.075	28.67
359.287	28.67
359.498	129.02
359.709	86.01
359.921	6.14
360.132	-4.1
360.344	-10.24
360.555	96.25
360.766	49.15
360.977	47.1
361.189	49.15
361.4	8.19
361.611	110.59
361.823	8.19
362.034	40.96
362.245	22.53
362.456	75.77
362.667	45.06
362.879	45.06
363.09	102.4
363.301	106.49
363.512	34.82
363.723	34.82
363.935	43.01
364.146	90.11
364.357	94.21
364.568	81.92
364.779	49.15
364.99	112.64
365.201	75.77
365.412	47.1
365.623	-28.67
365.834	8.19
366.045	20.48
366.256	45.06
366.467	57.34
366.678	57.34
366.889	63.49
367.1	77.82
367.311	100.35
367.522	24.58
367.733	118.78
367.944	118.78
368.155	8.19
368.366	131.07
368.577	137.21
368.788	129.02
368.999	30.72
369.209	63.49
369.42	174.08
369.631	149.5
369.842	30.72
370.053	36.86
370.264	73.73
370.474	32.77
370.685	67.58
370.896	98.3
371.107	57.34
371.317	106.49
371.528	86.01
371.739	186.37
371.95	34.82
372.16	51.2
372.371	20.48
372.582	200.7
372.792	83.97
373.003	55.3
373.214	40.96
373.424	63.49
373.635	43.01
373.846	145.41
374.056	4.1
374.267	96.25
374.477	53.25
374.688	20.48
374.898	-96.25
375.109	86.01
375.319	32.77
375.53	69.63
375.74	159.74
375.951	77.82
376.161	69.63
376.372	36.86
376.582	-8.19
376.793	67.58
377.003	32.77
377.214	94.21
377.424	126.97
377.635	79.87
377.845	81.92
378.055	143.36
378.266	36.86
378.476	135.17
378.686	102.4
378.897	96.25
379.107	38.91
379.317	45.06
379.528	-26.62
379.738	69.63
379.948	88.06
380.158	106.49
380.369	22.53
380.579	61.44
380.789	88.06
380.999	129.02
381.21	79.87
381.42	81.92
381.63	112.64
381.84	86.01
382.05	28.67
382.261	53.25
382.471	14.34
382.681	-4.1
382.891	149.5
383.101	98.3
383.311	96.25
383.521	81.92
383.731	155.65
383.941	96.25
384.151	131.07
384.361	79.87
384.571	75.77
384.781	79.87
384.991	79.87
385.201	88.06
385.411	141.31
385.621	137.21
385.831	102.4
386.041	22.53
386.251	49.15
386.461	79.87
386.671	45.06
386.881	104.45
387.091	63.49
387.301	73.73
387.511	16.38
387.72	55.3
387.93	57.34
388.14	0
388.35	110.59
388.56	94.21
388.769	79.87
388.979	69.63
389.189	45.06
389.399	53.25
389.609	65.53
389.818	96.25
390.028	47.1
390.238	24.58
390.447	102.4
390.657	81.92
390.867	61.44
391.076	81.92
391.286	61.44
391.496	129.02
391.705	79.87
391.915	110.59
392.125	45.06
392.334	-38.91
392.544	116.73
392.753	90.11
392.963	28.67
393.172	79.87
393.382	36.86
393.591	108.54
393.801	114.69
394.01	28.67
394.22	141.31
394.429	133.12
394.639	10.24
394.848	137.21
395.058	120.83
395.267	90.11
395.477	104.45
395.686	106.49
395.895	131.07
396.105	192.51
396.314	77.82
396.524	161.79
396.733	40.96
396.942	133.12
397.152	192.51
397.361	192.51
397.57	126.97
397.78	63.49
397.989	163.84
398.198	143.36
398.407	131.07
398.617	116.73
398.826	153.6
399.035	106.49
399.244	69.63
399.453	124.93
399.663	180.22
399.872	233.47
400.081	131.07
400.29	217.08
400.499	135.17
400.708	163.84
400.917	161.79
401.127	45.06
401.336	155.65
401.545	186.37
401.754	143.36
401.963	141.31
402.172	155.65
402.381	65.53
402.59	114.69
402.799	204.8
403.008	221.18
403.217	94.21
403.426	104.45
403.635	184.32
403.844	206.84
404.053	196.61
404.262	151.55
404.471	225.28
404.68	212.99
404.888	143.36
405.097	264.19
405.306	159.74
405.515	256
405.724	208.89
405.933	208.89
406.142	286.72
406.35	229.37
406.559	253.95
406.768	192.51
406.977	262.14
407.185	315.39
407.394	276.48
407.603	274.43
407.812	339.96
408.02	280.57
408.229	278.52
408.438	421.88
408.646	274.43
408.855	335.87
409.064	202.75
409.272	276.48
409.481	282.62
409.69	348.15
409.898	409.59
410.107	495.61
410.315	428.03
410.524	479.22
410.733	430.07
410.941	460.79
411.15	497.66
411.358	493.56
411.567	505.85
411.775	522.23
411.984	464.89
412.192	536.57
412.401	489.46
412.609	634.87
412.818	612.34
413.026	598.01
413.234	651.25
413.443	667.64
413.651	626.68
413.86	741.36
414.068	753.65
414.276	761.84
414.485	765.94
414.693	886.77
414.901	915.44
415.11	808.95
415.318	847.86
415.526	923.63
415.734	929.78
415.943	1038.32
416.151	1095.66
416.359	1150.96
416.567	1060.85
416.776	1120.24
416.984	1167.34
417.192	1183.73
417.4	1220.59
417.608	1314.8
417.817	1222.64
418.025	1376.23
418.233	1495.02
418.441	1370.09
418.649	1548.26
418.857	1558.5
419.065	1662.95
419.273	1619.94
419.481	1699.81
419.689	1814.5
419.897	1834.98
420.105	1964
420.313	2074.59
420.521	1984.48
420.729	2174.94
420.937	2236.38
421.145	2297.82
421.353	2146.27
421.561	2369.5
421.769	2482.14
421.977	2510.81
422.185	2504.67
422.393	2766.81
422.601	2830.29
422.809	2854.87
423.017	2955.22
423.224	3141.58
423.432	3209.17
423.64	3284.94
423.848	3403.72
424.056	3293.13
424.263	3549.13
424.471	3542.99
424.679	3639.24
424.887	3825.61
425.094	3977.16
425.302	4005.83
425.51	4118.47
425.718	4210.62
425.925	4388.8
426.133	4267.97
426.341	4628.41
426.548	4812.73
426.756	4960.18
426.964	5056.43
427.171	5142.45
427.379	5341.1
427.586	5466.03
427.794	5650.35
428.001	5892.01
428.209	6115.23
428.417	5851.05
428.624	6490.01
428.832	6508.44
429.039	6385.57
429.247	6381.47
429.454	7151.51
429.662	7456.65
429.869	7186.32
430.076	7456.65
430.284	7475.09
430.491	7597.96
430.699	8103.81
430.906	8085.38
431.114	8220.55
431.321	8470.4
431.528	8611.71
431.736	9064.31
431.943	9383.79
432.15	9234.29
432.358	9346.93
432.565	9953.13
432.772	9717.61
432.979	10354.53
433.187	10540.9
433.394	10518.37
433.601	11415.38
433.808	11433.81
434.016	11384.66
434.223	11759.44
434.43	12527.42
434.637	12250.95
434.844	13080.38
435.052	13358.9
435.259	13182.77
435.466	13195.06
435.673	12914.49
435.88	13942.57
436.087	14839.58
436.294	14536.48
436.501	14464.8
436.708	14638.88
436.915	15363.86
437.122	16072.46
437.329	15757.07
437.537	16260.87
437.743	16551.68
437.95	16107.27
438.157	17227.51
438.364	17901.29
438.571	17932.01
438.778	17792.75
438.985	19441.37
439.192	18679.52
439.399	19322.59
439.606	18876.13
439.813	20119.24
440.02	21212.86
440.227	20893.38
440.433	20739.78
440.64	21317.31
440.847	21210.81
441.054	21597.88
441.261	23086.75
441.467	22933.15
441.674	23287.45
441.881	24231.57
442.088	23979.67
442.294	23635.61
442.501	24213.13
442.708	24979.07
442.914	25579.13
443.121	26922.6
443.328	25775.73
443.534	27997.78
443.741	27190.88
443.948	26793.58
444.154	28640.84
444.361	28563.02
444.568	29058.63
444.774	28733
444.981	28839.5
445.187	30166.58
445.394	31245.86
445.6	30807.59
445.807	33910.27
446.013	32581.13
446.22	32667.15
446.426	33877.5
446.633	34389.49
446.839	35577.31
447.046	34268.66
447.252	35839.45
447.459	36101.59
447.665	35898.84
447.871	37352.9
448.078	38772.14
448.284	37144.01
448.491	38161.85
448.697	39935.39
448.903	40410.52
449.11	40789.39
449.316	40029.6
449.522	40527.25
449.728	41649.54
449.935	41786.75
450.141	41610.63
450.347	42990.96
450.553	41309.58
450.76	42009.98
450.966	43191.66
451.172	42988.91
451.378	43912.55
451.584	43031.92
451.791	44279.13
451.997	43804
452.203	44660.05
452.409	44731.73
452.615	44402.01
452.821	43126.13
453.027	42564.98
453.233	44938.58
453.44	43113.84
453.646	43312.49
453.852	43955.55
454.058	44852.56
454.264	42927.47
454.47	44098.91
454.676	43316.59
454.882	44336.48
455.088	40813.97
455.294	41508.23
455.5	42220.92
455.705	42325.37
455.911	40639.89
456.117	40129.95
456.323	39601.57
456.529	37430.72
456.735	39142.83
456.941	38143.42
457.147	37864.89
457.352	36713.94
457.558	36011.48
457.764	36148.7
457.97	35784.16
458.176	34897.39
458.381	34731.5
458.587	33457.67
458.793	33359.36
458.999	31450.66
459.204	33605.12
459.41	32556.56
459.616	30821.93
459.821	30797.35
460.027	30686.76
460.233	30246.45
460.438	28931.65
460.644	28759.63
460.85	27612.76
461.055	27188.83
461.261	27405.92
461.466	25136.77
461.672	24317.58
461.878	25992.82
462.083	24391.31
462.289	24215.18
462.494	23795.35
462.7	22726.31
462.905	22169.26
463.111	22881.95
463.316	22894.24
463.522	22214.32
463.727	22406.83
463.932	22349.48
464.138	22228.65
464.343	22460.07
464.549	21538.49
464.754	22386.35
464.959	21978.8
465.165	21923.51
465.37	21067.45
465.575	20463.3
465.781	21231.29
465.986	21413.56
466.191	20561.61
466.397	20197.07
466.602	19422.94
466.807	20061.9
467.012	20022.99
