Data from USB4F104151__161__14-19-41-963.txt Node

Date: Thu Mar 13 14:19:41 EDT 2025
User: louis
Spectrometer: USB4F10415
Trigger mode: 4
Integration Time (sec): 2.000000E-2
Scans to average: 1
Electric dark correction enabled: true
Nonlinearity correction enabled: false
Boxcar width: 0
XAxis mode: Wavelengths
Number of Pixels in Spectrum: 3648
>>>>>Begin Spectral Data<<<<<
178.204	-60.42
178.424	-60.42
178.644	-60.42
178.864	-162.81
179.084	-105.47
179.304	-23.55
179.524	19.46
179.744	13.31
179.964	9.22
180.184	-11.26
180.404	-3.07
180.624	33.79
180.844	-23.55
181.064	-17.41
181.283	5.12
181.503	-25.6
181.723	23.55
181.943	-44.03
182.163	62.46
182.383	-41.98
182.602	19.46
182.822	87.04
183.042	60.42
183.262	82.94
183.482	-41.98
183.701	-41.98
183.921	78.85
184.141	-46.08
184.361	54.27
184.58	7.17
184.8	-1.02
185.02	-3.07
185.239	-41.98
185.459	-58.37
185.679	-11.26
185.898	-72.7
186.118	58.37
186.338	33.79
186.557	21.5
186.777	-15.36
186.997	52.22
187.216	13.31
187.436	21.5
187.655	7.17
187.875	66.56
188.095	-35.84
188.314	-29.7
188.534	23.55
188.753	1.02
188.973	50.18
189.192	107.52
189.412	33.79
189.631	29.7
189.851	78.85
190.07	44.03
190.29	-58.37
190.509	-33.79
190.729	48.13
190.948	99.33
191.168	84.99
191.387	21.5
191.607	-19.46
191.826	-13.31
192.045	39.94
192.265	-19.46
192.484	31.74
192.704	-37.89
192.923	70.65
193.142	95.23
193.362	-19.46
193.581	54.27
193.8	-9.22
194.02	62.46
194.239	17.41
194.458	52.22
194.678	-5.12
194.897	35.84
195.116	-44.03
195.335	13.31
195.555	13.31
195.774	64.51
195.993	54.27
196.212	82.94
196.432	19.46
196.651	41.98
196.87	-11.26
197.089	134.14
197.308	103.42
197.528	89.09
197.747	-19.46
197.966	70.65
198.185	66.56
198.404	25.6
198.623	33.79
198.842	78.85
199.062	9.22
199.281	87.04
199.5	64.51
199.719	35.84
199.938	7.17
200.157	76.8
200.376	5.12
200.595	95.23
200.814	93.18
201.033	3.07
201.252	23.55
201.471	80.89
201.69	54.27
201.909	58.37
202.128	23.55
202.347	-25.6
202.566	21.5
202.785	-27.65
203.004	-25.6
203.223	113.66
203.442	37.89
203.661	-1.02
203.879	54.27
204.098	89.09
204.317	-9.22
204.536	87.04
204.755	-5.12
204.974	-31.74
205.193	37.89
205.411	52.22
205.63	95.23
205.849	25.6
206.068	-3.07
206.287	5.12
206.505	50.18
206.724	-11.26
206.943	-19.46
207.162	13.31
207.381	-11.26
207.599	-7.17
207.818	-23.55
208.037	68.61
208.255	56.32
208.474	89.09
208.693	29.7
208.911	-1.02
209.13	-17.41
209.349	25.6
209.567	64.51
209.786	109.57
210.005	-19.46
210.223	39.94
210.442	-93.18
210.661	-33.79
210.879	-56.32
211.098	64.51
211.316	41.98
211.535	111.61
211.753	13.31
211.972	70.65
212.191	21.5
212.409	37.89
212.628	29.7
212.846	-15.36
213.065	31.74
213.283	54.27
213.502	91.13
213.72	17.41
213.938	-5.12
214.157	33.79
214.375	72.7
214.594	-9.22
214.812	7.17
215.031	13.31
215.249	-25.6
215.467	29.7
215.686	-35.84
215.904	130.05
216.122	39.94
216.341	17.41
216.559	39.94
216.778	17.41
216.996	-23.55
217.214	-62.46
217.432	78.85
217.651	54.27
217.869	50.18
218.087	54.27
218.306	-23.55
218.524	-17.41
218.742	-27.65
218.96	70.65
219.179	44.03
219.397	-1.02
219.615	13.31
219.833	37.89
220.051	-74.75
220.27	70.65
220.488	66.56
220.706	-1.02
220.924	-7.17
221.142	-33.79
221.36	58.37
221.578	60.42
221.796	66.56
222.015	95.23
222.233	21.5
222.451	-7.17
222.669	-7.17
222.887	23.55
223.105	-56.32
223.323	105.47
223.541	13.31
223.759	37.89
223.977	19.46
224.195	50.18
224.413	13.31
224.631	37.89
224.849	-1.02
225.067	146.43
225.285	1.02
225.503	5.12
225.721	-74.75
225.939	-3.07
226.157	37.89
226.375	87.04
226.592	13.31
226.81	39.94
227.028	-19.46
227.246	58.37
227.464	21.5
227.682	21.5
227.9	5.12
228.117	-44.03
228.335	-52.22
228.553	39.94
228.771	17.41
228.989	31.74
229.206	70.65
229.424	29.7
229.642	11.26
229.86	-13.31
230.077	-17.41
230.295	78.85
230.513	25.6
230.731	27.65
230.948	62.46
231.166	66.56
231.384	41.98
231.601	5.12
231.819	70.65
232.037	37.89
232.254	29.7
232.472	-23.55
232.689	13.31
232.907	113.66
233.125	-9.22
233.342	13.31
233.56	-11.26
233.777	15.36
233.995	-3.07
234.213	48.13
234.43	58.37
234.648	56.32
234.865	35.84
235.083	1.02
235.3	107.52
235.518	50.18
235.735	-11.26
235.953	62.46
236.17	9.22
236.388	39.94
236.605	13.31
236.822	29.7
237.04	82.94
237.257	62.46
237.475	-84.99
237.692	37.89
237.909	62.46
238.127	-44.03
238.344	7.17
238.562	-44.03
238.779	29.7
238.996	46.08
239.214	44.03
239.431	31.74
239.648	46.08
239.865	-23.55
240.083	-1.02
240.3	7.17
240.517	-3.07
240.735	21.5
240.952	58.37
241.169	66.56
241.386	-29.7
241.603	-19.46
241.821	13.31
242.038	-33.79
242.255	48.13
242.472	21.5
242.689	13.31
242.907	-11.26
243.124	-25.6
243.341	5.12
243.558	64.51
243.775	37.89
243.992	54.27
244.209	64.51
244.426	109.57
244.643	105.47
244.86	50.18
245.078	17.41
245.295	13.31
245.512	17.41
245.729	-25.6
245.946	70.65
246.163	-19.46
246.38	-9.22
246.597	17.41
246.814	-1.02
247.031	9.22
247.248	31.74
247.464	78.85
247.681	44.03
247.898	21.5
248.115	1.02
248.332	17.41
248.549	31.74
248.766	44.03
248.983	80.89
249.2	-19.46
249.417	46.08
249.633	64.51
249.85	31.74
250.067	35.84
250.284	17.41
250.501	13.31
250.717	17.41
250.934	31.74
251.151	46.08
251.368	64.51
251.585	-11.26
251.801	-31.74
252.018	-5.12
252.235	13.31
252.451	3.07
252.668	41.98
252.885	1.02
253.102	66.56
253.318	76.8
253.535	-1.02
253.752	-15.36
253.968	46.08
254.185	-64.51
254.401	21.5
254.618	-13.31
254.835	17.41
255.051	31.74
255.268	46.08
255.484	7.17
255.701	17.41
255.917	68.61
256.134	-1.02
256.351	-1.02
256.567	-5.12
256.784	9.22
257	-54.27
257.217	23.55
257.433	5.12
257.65	33.79
257.866	78.85
258.082	25.6
258.299	62.46
258.515	87.04
258.732	58.37
258.948	-15.36
259.165	70.65
259.381	31.74
259.597	119.81
259.814	29.7
260.03	17.41
260.246	-7.17
260.463	29.7
260.679	46.08
260.895	72.7
261.112	31.74
261.328	17.41
261.544	-23.55
261.761	84.99
261.977	13.31
262.193	-19.46
262.409	-27.65
262.626	70.65
262.842	35.84
263.058	27.65
263.274	91.13
263.49	64.51
263.707	95.23
263.923	13.31
264.139	72.7
264.355	-58.37
264.571	39.94
264.787	25.6
265.004	146.43
265.22	41.98
265.436	5.12
265.652	132.09
265.868	113.66
266.084	41.98
266.3	21.5
266.516	-13.31
266.732	99.33
266.948	33.79
267.164	13.31
267.38	62.46
267.596	87.04
267.812	142.33
268.028	15.36
268.244	-33.79
268.46	78.85
268.676	39.94
268.892	1.02
269.108	-64.51
269.324	5.12
269.54	3.07
269.756	62.46
269.972	29.7
270.188	31.74
270.403	72.7
270.619	17.41
270.835	48.13
271.051	103.42
271.267	41.98
271.483	29.7
271.698	66.56
271.914	-19.46
272.13	-21.5
272.346	68.61
272.562	58.37
272.777	-27.65
272.993	-19.46
273.209	13.31
273.425	31.74
273.64	-11.26
273.856	50.18
274.072	37.89
274.287	7.17
274.503	78.85
274.719	95.23
274.934	60.42
275.15	37.89
275.366	9.22
275.581	64.51
275.797	-46.08
276.012	-19.46
276.228	5.12
276.444	-3.07
276.659	41.98
276.875	-35.84
277.09	37.89
277.306	-15.36
277.521	95.23
277.737	-27.65
277.952	41.98
278.168	1.02
278.383	46.08
278.599	35.84
278.814	33.79
279.03	-7.17
279.245	105.47
279.461	87.04
279.676	54.27
279.892	64.51
280.107	29.7
280.322	5.12
280.538	46.08
280.753	-41.98
280.969	44.03
281.184	19.46
281.399	72.7
281.615	41.98
281.83	33.79
282.045	-29.7
282.26	111.61
282.476	82.94
282.691	48.13
282.906	25.6
283.122	21.5
283.337	23.55
283.552	70.65
283.767	70.65
283.983	-3.07
284.198	-9.22
284.413	62.46
284.628	33.79
284.843	84.99
285.058	15.36
285.274	31.74
285.489	-3.07
285.704	-15.36
285.919	11.26
286.134	46.08
286.349	50.18
286.564	87.04
286.779	72.7
286.995	62.46
287.21	11.26
287.425	48.13
287.64	46.08
287.855	48.13
288.07	-35.84
288.285	62.46
288.5	64.51
288.715	62.46
288.93	60.42
289.145	54.27
289.36	52.22
289.575	13.31
289.79	62.46
290.004	37.89
290.219	130.05
290.434	-7.17
290.649	44.03
290.864	46.08
291.079	54.27
291.294	62.46
291.509	103.42
291.724	48.13
291.938	-9.22
292.153	56.32
292.368	41.98
292.583	62.46
292.798	46.08
293.012	-35.84
293.227	-7.17
293.442	33.79
293.657	56.32
293.871	113.66
294.086	-15.36
294.301	56.32
294.516	62.46
294.73	46.08
294.945	62.46
295.16	1.02
295.374	58.37
295.589	7.17
295.804	-3.07
296.018	21.5
296.233	62.46
296.447	-1.02
296.662	41.98
296.877	60.42
297.091	46.08
297.306	-3.07
297.52	21.5
297.735	13.31
297.949	5.12
298.164	33.79
298.378	58.37
298.593	-39.94
298.807	9.22
299.022	91.13
299.236	95.23
299.451	-60.42
299.665	68.61
299.88	31.74
300.094	-11.26
300.309	46.08
300.523	128
300.737	46.08
300.952	64.51
301.166	13.31
301.381	37.89
301.595	50.18
301.809	-9.22
302.024	78.85
302.238	128
302.452	31.74
302.667	99.33
302.881	54.27
303.095	41.98
303.309	52.22
303.524	31.74
303.738	64.51
303.952	-52.22
304.166	121.85
304.381	48.13
304.595	35.84
304.809	-23.55
305.023	41.98
305.237	-9.22
305.452	39.94
305.666	113.66
305.88	95.23
306.094	-3.07
306.308	78.85
306.522	21.5
306.736	60.42
306.95	25.6
307.164	54.27
307.379	-35.84
307.593	70.65
307.807	23.55
308.021	-19.46
308.235	-27.65
308.449	11.26
308.663	-41.98
308.877	89.09
309.091	54.27
309.305	74.75
309.519	25.6
309.733	35.84
309.947	13.31
310.161	111.61
310.374	17.41
310.588	78.85
310.802	-41.98
311.016	15.36
311.23	21.5
311.444	19.46
311.658	-9.22
311.872	99.33
312.085	52.22
312.299	128
312.513	56.32
312.727	72.7
312.941	25.6
313.154	19.46
313.368	13.31
313.582	56.32
313.796	46.08
314.009	9.22
314.223	19.46
314.437	52.22
314.651	41.98
314.864	44.03
315.078	29.7
315.292	-15.36
315.505	19.46
315.719	54.27
315.933	17.41
316.146	-3.07
316.36	37.89
316.573	-1.02
316.787	-17.41
317.001	95.23
317.214	-7.17
317.428	48.13
317.641	70.65
317.855	31.74
318.068	23.55
318.282	64.51
318.495	87.04
318.709	115.71
318.922	15.36
319.136	70.65
319.349	33.79
319.563	-9.22
319.776	7.17
319.99	76.8
320.203	33.79
320.417	-84.99
320.63	78.85
320.843	111.61
321.057	66.56
321.27	-27.65
321.483	29.7
321.697	74.75
321.91	39.94
322.124	95.23
322.337	35.84
322.55	21.5
322.763	99.33
322.977	37.89
323.19	3.07
323.403	44.03
323.617	31.74
323.83	78.85
324.043	56.32
324.256	39.94
324.469	46.08
324.683	54.27
324.896	-52.22
325.109	21.5
325.322	-1.02
325.535	13.31
325.748	89.09
325.962	-17.41
326.175	-19.46
326.388	-11.26
326.601	41.98
326.814	29.7
327.027	50.18
327.24	54.27
327.453	41.98
327.666	91.13
327.879	-7.17
328.092	37.89
328.305	70.65
328.518	31.74
328.731	-62.46
328.944	46.08
329.157	48.13
329.37	-3.07
329.583	56.32
329.796	31.74
330.009	-66.56
330.222	46.08
330.435	87.04
330.648	54.27
330.861	54.27
331.073	87.04
331.286	29.7
331.499	70.65
331.712	15.36
331.925	21.5
332.138	-41.98
332.35	64.51
332.563	74.75
332.776	39.94
332.989	7.17
333.202	48.13
333.414	66.56
333.627	41.98
333.84	195.58
334.053	31.74
334.265	87.04
334.478	7.17
334.691	41.98
334.903	76.8
335.116	31.74
335.329	19.46
335.541	87.04
335.754	95.23
335.966	25.6
336.179	80.89
336.392	41.98
336.604	87.04
336.817	50.18
337.029	93.18
337.242	7.17
337.454	121.85
337.667	121.85
337.88	66.56
338.092	48.13
338.305	37.89
338.517	-31.74
338.729	78.85
338.942	62.46
339.154	54.27
339.367	56.32
339.579	37.89
339.792	37.89
340.004	13.31
340.217	-11.26
340.429	72.7
340.641	-19.46
340.854	48.13
341.066	50.18
341.278	76.8
341.491	105.47
341.703	60.42
341.915	13.31
342.128	87.04
342.34	54.27
342.552	48.13
342.764	54.27
342.977	37.89
343.189	58.37
343.401	19.46
343.613	29.7
343.826	56.32
344.038	31.74
344.25	46.08
344.462	-7.17
344.674	13.31
344.886	74.75
345.099	89.09
345.311	68.61
345.523	23.55
345.735	-1.02
345.947	48.13
346.159	-11.26
346.371	37.89
346.583	33.79
346.795	121.85
347.007	70.65
347.219	29.7
347.431	64.51
347.643	56.32
347.855	29.7
348.067	82.94
348.279	17.41
348.491	-3.07
348.703	17.41
348.915	66.56
349.127	48.13
349.339	27.65
349.551	-23.55
349.763	152.57
349.975	41.98
350.187	76.8
350.399	115.71
350.61	-23.55
350.822	37.89
351.034	13.31
351.246	99.33
351.458	46.08
351.669	58.37
351.881	107.52
352.093	23.55
352.305	60.42
352.517	46.08
352.728	84.99
352.94	107.52
353.152	70.65
353.363	74.75
353.575	97.28
353.787	52.22
353.999	-11.26
354.21	9.22
354.422	87.04
354.633	7.17
354.845	46.08
355.057	23.55
355.268	74.75
355.48	54.27
355.692	27.65
355.903	17.41
356.115	19.46
356.326	-39.94
356.538	123.9
356.749	56.32
356.961	136.19
357.172	-3.07
357.384	39.94
357.595	62.46
357.807	128
358.018	29.7
358.23	37.89
358.441	78.85
358.653	-23.55
358.864	74.75
359.075	35.84
359.287	64.51
359.498	50.18
359.709	103.42
359.921	82.94
360.132	33.79
360.344	68.61
360.555	33.79
360.766	168.96
360.977	50.18
361.189	64.51
361.4	101.37
361.611	146.43
361.823	162.81
362.034	29.7
362.245	17.41
362.456	78.85
362.667	134.14
362.879	80.89
363.09	-19.46
363.301	48.13
363.512	-78.85
363.723	60.42
363.935	54.27
364.146	15.36
364.357	72.7
364.568	48.13
364.779	31.74
364.99	82.94
365.201	29.7
365.412	103.42
365.623	37.89
365.834	17.41
366.045	13.31
366.256	82.94
366.467	56.32
366.678	105.47
366.889	23.55
367.1	78.85
367.311	15.36
367.522	-7.17
367.733	41.98
367.944	46.08
368.155	103.42
368.366	89.09
368.577	103.42
368.788	33.79
368.999	17.41
369.209	33.79
369.42	64.51
369.631	144.38
369.842	25.6
370.053	74.75
370.264	31.74
370.474	46.08
370.685	68.61
370.896	64.51
371.107	54.27
371.317	66.56
371.528	17.41
371.739	130.05
371.95	56.32
372.16	76.8
372.371	72.7
372.582	23.55
372.792	87.04
373.003	99.33
373.214	70.65
373.424	119.81
373.635	-15.36
373.846	72.7
374.056	70.65
374.267	29.7
374.477	62.46
374.688	48.13
374.898	46.08
375.109	54.27
375.319	113.66
375.53	121.85
375.74	78.85
375.951	68.61
376.161	78.85
376.372	95.23
376.582	7.17
376.793	64.51
377.003	13.31
377.214	80.89
377.424	46.08
377.635	95.23
377.845	111.61
378.055	154.62
378.266	9.22
378.476	50.18
378.686	-7.17
378.897	78.85
379.107	130.05
379.317	64.51
379.528	48.13
379.738	111.61
379.948	5.12
380.158	72.7
380.369	70.65
380.579	70.65
380.789	103.42
380.999	62.46
381.21	95.23
381.42	130.05
381.63	62.46
381.84	3.07
382.05	44.03
382.261	48.13
382.471	78.85
382.681	132.09
382.891	29.7
383.101	21.5
383.311	56.32
383.521	70.65
383.731	66.56
383.941	179.2
384.151	64.51
384.361	60.42
384.571	109.57
384.781	56.32
384.991	97.28
385.201	37.89
385.411	89.09
385.621	56.32
385.831	103.42
386.041	31.74
386.251	111.61
386.461	119.81
386.671	39.94
386.881	119.81
387.091	54.27
387.301	89.09
387.511	70.65
387.72	144.38
387.93	89.09
388.14	54.27
388.35	-9.22
388.56	17.41
388.769	70.65
388.979	78.85
389.189	113.66
389.399	89.09
389.609	78.85
389.818	62.46
390.028	78.85
390.238	95.23
390.447	23.55
390.657	21.5
390.867	41.98
391.076	87.04
391.286	-3.07
391.496	109.57
391.705	21.5
391.915	97.28
392.125	134.14
392.334	115.71
392.544	119.81
392.753	119.81
392.963	-7.17
393.172	68.61
393.382	78.85
393.591	113.66
393.801	46.08
394.01	148.48
394.22	50.18
394.429	140.29
394.639	87.04
394.848	99.33
395.058	39.94
395.267	183.29
395.477	148.48
395.686	123.9
395.895	93.18
396.105	119.81
396.314	84.99
396.524	123.9
396.733	66.56
396.942	140.29
397.152	95.23
397.361	168.96
397.57	148.48
397.78	95.23
397.989	111.61
398.198	119.81
398.407	93.18
398.617	158.72
398.826	97.28
399.035	183.29
399.244	152.57
399.453	58.37
399.663	216.06
399.872	91.13
400.081	168.96
400.29	134.14
400.499	68.61
400.708	209.92
400.917	128
401.127	125.95
401.336	146.43
401.545	193.53
401.754	130.05
401.963	193.53
402.172	152.57
402.381	95.23
402.59	152.57
402.799	168.96
403.008	244.73
403.217	162.81
403.426	125.95
403.635	72.7
403.844	138.24
404.053	177.15
404.262	211.96
404.471	267.26
404.68	97.28
404.888	189.44
405.097	248.83
405.306	234.49
405.515	261.12
405.724	220.16
405.933	226.3
406.142	179.2
406.35	254.97
406.559	185.34
406.768	300.03
406.977	222.2
407.185	267.26
407.394	238.59
407.603	293.88
407.812	279.55
408.02	308.22
408.229	334.84
408.438	234.49
408.646	283.64
408.855	332.79
409.064	394.23
409.272	408.57
409.481	322.56
409.69	383.99
409.898	474.1
410.107	443.39
410.315	455.67
410.524	400.38
410.733	414.71
410.941	457.72
411.15	578.55
411.358	515.06
411.567	537.59
411.775	592.89
411.984	539.64
412.192	613.37
412.401	635.89
412.609	596.98
412.818	734.2
413.026	668.66
413.234	750.58
413.443	713.72
413.651	709.62
413.86	789.49
414.068	824.31
414.276	840.69
414.485	881.65
414.693	910.32
414.901	1065.97
415.11	988.14
415.318	1098.74
415.526	1080.3
415.734	1131.5
415.943	1133.55
416.151	1063.92
416.359	1188.85
416.567	1199.09
416.776	1223.66
416.984	1367.02
417.192	1397.74
417.4	1407.98
417.608	1340.4
417.817	1502.19
418.025	1520.62
418.233	1616.87
418.441	1612.78
418.649	1559.53
418.857	1852.39
419.065	1934.31
419.273	1702.89
419.481	1872.87
419.689	2003.94
419.897	2196.45
420.105	1944.55
420.313	2206.69
420.521	2348
420.729	2325.47
420.937	2333.66
421.145	2421.72
421.353	2528.22
421.561	2687.96
421.769	2718.68
421.977	2923.48
422.185	2833.36
422.393	2978.77
422.601	3128.27
422.809	3228.62
423.017	3179.47
423.224	3353.55
423.432	3537.87
423.64	3552.2
423.848	3857.35
424.056	3650.5
424.263	3980.23
424.471	3988.42
424.679	4051.91
424.887	4314.05
425.094	4420.54
425.302	4518.84
425.51	4692.92
425.718	4854.71
425.925	4764.6
426.133	5039.03
426.341	5239.73
426.548	5469.1
426.756	5424.05
426.964	5780.39
427.171	5972.9
427.379	6202.27
427.586	6050.72
427.794	6292.38
428.001	6583.2
428.209	6697.88
428.417	6861.72
428.624	7281.55
428.832	7130
429.039	7283.6
429.247	7121.81
429.454	7902.09
429.662	8237.95
429.869	7766.92
430.076	8334.21
430.284	8188.8
430.491	8616.83
430.699	9065.33
430.906	9089.91
431.114	9087.86
431.321	9450.35
431.528	9853.8
431.736	10165.09
431.943	10931.03
432.15	10292.07
432.358	10533.73
432.565	11289.43
432.772	11000.66
432.979	11637.58
433.187	11778.89
433.394	11854.67
433.601	12680
433.808	12673.85
434.016	12780.35
434.223	13118.26
434.43	13816.62
434.637	13607.73
434.844	14521.12
435.052	14768.93
435.259	14764.83
435.466	14869.28
435.673	14660.38
435.88	15733.52
436.087	16184.07
436.294	16532.23
436.501	15866.64
436.708	16415.49
436.915	16933.63
437.122	17537.78
437.329	17677.04
437.537	18012.91
437.743	18336.49
437.95	18297.58
438.157	19288.79
438.364	19925.71
438.571	19813.07
438.778	20089.55
438.985	22172.33
439.192	20869.83
439.399	21852.85
439.606	21154.49
439.813	22422.19
440.02	23730.84
440.227	23208.61
440.433	22903.46
440.64	23722.65
440.847	23769.75
441.054	24380.04
441.261	25625.21
441.467	25492.09
441.674	25676.41
441.881	26831.46
442.088	26751.59
442.294	26557.03
442.501	27406.94
442.708	27785.82
442.914	28699.21
443.121	30102.07
443.328	29006.41
443.534	31289.89
443.741	30155.32
443.948	30167.6
444.154	32029.21
444.361	31834.65
444.568	32315.92
444.774	32217.62
444.981	32705.04
445.187	33268.23
445.394	34681.33
445.6	34189.81
445.807	37536.2
446.013	35936.73
446.22	36784.59
446.426	37695.94
446.633	38410.68
446.839	39653.79
447.046	37923.26
447.252	39748
447.459	40210.84
447.665	39782.82
447.871	42140.03
448.078	43006.32
448.284	40989.07
448.491	42326.39
448.697	44073.31
448.903	44628.31
449.11	44855.64
449.316	44263.77
449.522	44837.2
449.728	45715.78
449.935	46430.52
450.141	46258.49
450.347	47536.43
450.553	45764.93
450.76	46412.09
450.966	47864.1
451.172	47474.99
451.378	48613.66
451.584	47520.04
451.791	49199.38
451.997	48640.28
452.203	49412.37
452.409	49121.55
452.615	49332.5
452.821	47446.32
453.027	46897.46
453.233	49309.97
453.44	47487.28
453.646	47802.66
453.852	48275.74
454.058	48425.25
454.264	47554.86
454.47	48490.78
454.676	47612.2
454.882	48720.15
455.088	44695.89
455.294	45754.69
455.5	46262.59
455.705	46803.25
455.911	44820.82
456.117	44149.09
456.323	43239.79
456.529	41234.83
456.735	42897.78
456.941	41707.91
457.147	41212.3
457.352	39801.25
457.558	39694.75
457.764	39618.98
457.97	39018.92
458.176	38295.99
458.381	37994.94
458.587	35926.49
458.793	36078.04
458.999	34597.36
459.204	37046.73
459.41	35553.76
459.616	33245.7
459.821	33538.56
460.027	33536.51
460.233	32893.45
460.438	30915.11
460.644	31599.13
460.85	30214.71
461.055	29479.49
461.261	29825.59
461.466	27130.47
461.672	26471.02
461.878	28836.42
462.083	26563.18
462.289	26151.54
462.494	25854.58
462.7	24916.61
462.905	23677.59
463.111	24656.52
463.316	25119.36
463.522	24562.31
463.727	24461.96
463.932	24248.97
464.138	24173.2
464.343	24089.23
464.549	23306.91
464.754	24470.15
464.959	24152.72
465.165	23669.4
465.37	22616.74
465.575	22413.99
465.781	23437.98
465.986	23470.75
466.191	22508.2
466.397	22162.09
466.602	21166.78
466.807	21660.34
