Data from USB4F104151__246__14-22-30-544.txt Node

Date: Thu Mar 13 14:22:30 EDT 2025
User: louis
Spectrometer: USB4F10415
Trigger mode: 4
Integration Time (sec): 2.000000E-2
Scans to average: 1
Electric dark correction enabled: true
Nonlinearity correction enabled: false
Boxcar width: 0
XAxis mode: Wavelengths
Number of Pixels in Spectrum: 3648
>>>>>Begin Spectral Data<<<<<
178.204	-99.67
178.424	-99.67
178.644	-99.67
178.864	-54.61
179.084	-126.29
179.304	39.59
179.524	23.21
179.744	10.92
179.964	21.16
180.184	-1.37
180.404	-60.76
180.624	-17.75
180.844	-36.18
181.064	8.87
181.283	6.83
181.503	-1.37
181.723	6.83
181.943	-50.52
182.163	94.89
182.383	-23.89
182.602	88.75
182.822	8.87
183.042	-15.7
183.262	27.31
183.482	-42.32
183.701	0.68
183.921	-79.19
184.141	-89.43
184.361	39.59
184.58	-3.41
184.8	6.83
185.02	-15.7
185.239	101.03
185.459	12.97
185.679	109.22
185.898	-13.65
186.118	15.02
186.338	60.07
186.557	88.75
186.777	8.87
186.997	-71
187.216	31.4
187.436	23.21
187.655	66.22
187.875	23.21
188.095	-15.7
188.314	51.88
188.534	-3.41
188.753	41.64
188.973	68.27
189.192	19.11
189.412	-48.47
189.631	35.5
189.851	-13.65
190.07	31.4
190.29	-17.75
190.509	47.79
190.729	-15.7
190.948	-25.94
191.168	129.7
191.387	76.46
191.607	21.16
191.826	35.5
192.045	33.45
192.265	53.93
192.484	45.74
192.704	-32.08
192.923	-46.42
193.142	74.41
193.362	25.26
193.581	105.13
193.8	117.42
194.02	-42.32
194.239	-46.42
194.458	39.59
194.678	-11.61
194.897	31.4
195.116	39.59
195.335	84.65
195.555	86.7
195.774	23.21
195.993	64.17
196.212	15.02
196.432	2.73
196.651	10.92
196.87	0.68
197.089	133.8
197.308	23.21
197.528	39.59
197.747	-58.71
197.966	-25.94
198.185	-1.37
198.404	-58.71
198.623	-34.13
198.842	-32.08
199.062	-21.85
199.281	109.22
199.5	41.64
199.719	51.88
199.938	0.68
200.157	23.21
200.376	-15.7
200.595	19.11
200.814	92.84
201.033	-11.61
201.252	6.83
201.471	64.17
201.69	47.79
201.909	68.27
202.128	41.64
202.347	90.79
202.566	-21.85
202.785	-23.89
203.004	-19.8
203.223	66.22
203.442	68.27
203.661	-34.13
203.879	31.4
204.098	55.98
204.317	8.87
204.536	-15.7
204.755	-3.41
204.974	15.02
205.193	-30.04
205.411	96.94
205.63	-34.13
205.849	25.26
206.068	27.31
206.287	64.17
206.505	53.93
206.724	68.27
206.943	47.79
207.162	66.22
207.381	49.83
207.599	25.26
207.818	15.02
208.037	-93.52
208.255	10.92
208.474	47.79
208.693	31.4
208.911	-17.75
209.13	41.64
209.349	-46.42
209.567	-13.65
209.786	88.75
210.005	55.98
210.223	47.79
210.442	19.11
210.661	2.73
210.879	25.26
211.098	-34.13
211.316	21.16
211.535	49.83
211.753	-1.37
211.972	49.83
212.191	25.26
212.409	6.83
212.628	-17.75
212.846	-7.51
213.065	74.41
213.283	33.45
213.502	37.55
213.72	15.02
213.938	55.98
214.157	-19.8
214.375	35.5
214.594	-21.85
214.812	4.78
215.031	39.59
215.249	31.4
215.467	15.02
215.686	49.83
215.904	35.5
216.122	68.27
216.341	68.27
216.559	66.22
216.778	64.17
216.996	37.55
217.214	37.55
217.432	-15.7
217.651	-42.32
217.869	-17.75
218.087	47.79
218.306	-21.85
218.524	68.27
218.742	-13.65
218.96	82.6
219.179	80.55
219.397	47.79
219.615	64.17
219.833	41.64
220.051	58.03
220.27	45.74
220.488	27.31
220.706	68.27
220.924	15.02
221.142	-62.8
221.36	-11.61
221.578	-27.99
221.796	-54.61
222.015	31.4
222.233	15.02
222.451	0.68
222.669	51.88
222.887	84.65
223.105	-25.94
223.323	-1.37
223.541	4.78
223.759	64.17
223.977	-40.28
224.195	-13.65
224.413	125.61
224.631	70.31
224.849	139.94
225.067	154.28
225.285	-13.65
225.503	-30.04
225.721	8.87
225.939	-34.13
226.157	-32.08
226.375	58.03
226.592	-1.37
226.81	64.17
227.028	-9.56
227.246	-7.51
227.464	39.59
227.682	31.4
227.9	-17.75
228.117	10.92
228.335	-17.75
228.553	31.4
228.771	31.4
228.989	84.65
229.206	51.88
229.424	31.4
229.642	0.68
229.86	0.68
230.077	76.46
230.295	19.11
230.513	39.59
230.731	64.17
230.948	-42.32
231.166	76.46
231.384	62.12
231.601	-25.94
231.819	-19.8
232.037	25.26
232.254	-9.56
232.472	90.79
232.689	-17.75
232.907	84.65
233.125	15.02
233.342	64.17
233.56	66.22
233.777	-7.51
233.995	2.73
234.213	0.68
234.43	-30.04
234.648	-13.65
234.865	19.11
235.083	53.93
235.3	-21.85
235.518	-27.99
235.735	101.03
235.953	10.92
236.17	66.22
236.388	15.02
236.605	-19.8
236.822	35.5
237.04	21.16
237.257	-1.37
237.475	8.87
237.692	31.4
237.909	80.55
238.127	19.11
238.344	25.26
238.562	37.55
238.779	31.4
238.996	15.02
239.214	-73.04
239.431	-1.37
239.648	-58.71
239.865	55.98
240.083	64.17
240.3	80.55
240.517	-36.18
240.735	-5.46
240.952	72.36
241.169	70.31
241.386	107.18
241.603	62.12
241.821	-54.61
242.038	8.87
242.255	15.02
242.472	10.92
242.689	25.26
242.907	39.59
243.124	41.64
243.341	47.79
243.558	-42.32
243.775	17.07
243.992	-101.72
244.209	58.03
244.426	55.98
244.643	37.55
244.86	-40.28
245.078	4.78
245.295	10.92
245.512	66.22
245.729	-44.37
245.946	-9.56
246.163	35.5
246.38	31.4
246.597	35.5
246.814	39.59
247.031	6.83
247.248	-15.7
247.464	-13.65
247.681	-17.75
247.898	37.55
248.115	8.87
248.332	53.93
248.549	23.21
248.766	49.83
248.983	96.94
249.2	-27.99
249.417	49.83
249.633	23.21
249.85	-17.75
250.067	103.08
250.284	33.45
250.501	90.79
250.717	51.88
250.934	31.4
251.151	-1.37
251.368	53.93
251.585	6.83
251.801	-9.56
252.018	-38.23
252.235	47.79
252.451	-30.04
252.668	-7.51
252.885	49.83
253.102	41.64
253.318	31.4
253.535	-52.56
253.752	37.55
253.968	39.59
254.185	15.02
254.401	-11.61
254.618	72.36
254.835	-44.37
255.051	80.55
255.268	64.17
255.484	96.94
255.701	-21.85
255.917	55.98
256.134	-21.85
256.351	58.03
256.567	4.78
256.784	-34.13
257	-19.8
257.217	68.27
257.433	51.88
257.65	-25.94
257.866	68.27
258.082	72.36
258.299	45.74
258.515	8.87
258.732	-7.51
258.948	-1.37
259.165	-19.8
259.381	-42.32
259.597	-27.99
259.814	-17.75
260.03	29.35
260.246	-23.89
260.463	107.18
260.679	27.31
260.895	10.92
261.112	31.4
261.328	-1.37
261.544	23.21
261.761	111.27
261.977	33.45
262.193	-30.04
262.409	-27.99
262.626	37.55
262.842	49.83
263.058	35.5
263.274	109.22
263.49	105.13
263.707	27.31
263.923	78.51
264.139	-1.37
264.355	39.59
264.571	37.55
264.787	6.83
265.004	58.03
265.22	-19.8
265.436	-9.56
265.652	66.22
265.868	-91.48
266.084	-1.37
266.3	-58.71
266.516	35.5
266.732	121.51
266.948	-1.37
267.164	19.11
267.38	33.45
267.596	76.46
267.812	-9.56
268.028	55.98
268.244	88.75
268.46	68.27
268.676	41.64
268.892	62.12
269.108	88.75
269.324	6.83
269.54	15.02
269.756	10.92
269.972	25.26
270.188	-11.61
270.403	31.4
270.619	-9.56
270.835	49.83
271.051	-19.8
271.267	78.51
271.483	39.59
271.698	64.17
271.914	80.55
272.13	-23.89
272.346	-3.41
272.562	47.79
272.777	53.93
272.993	6.83
273.209	47.79
273.425	49.83
273.64	-66.9
273.856	80.55
274.072	39.59
274.287	31.4
274.503	-19.8
274.719	47.79
274.934	-42.32
275.15	27.31
275.366	19.11
275.581	27.31
275.797	39.59
276.012	31.4
276.228	15.02
276.444	15.02
276.659	39.59
276.875	-27.99
277.09	68.27
277.306	-23.89
277.521	23.21
277.737	15.02
277.952	6.83
278.168	-30.04
278.383	66.22
278.599	-1.37
278.814	-13.65
279.03	23.21
279.245	51.88
279.461	29.35
279.676	43.69
279.892	-38.23
280.107	-1.37
280.322	-19.8
280.538	70.31
280.753	-7.51
280.969	-25.94
281.184	70.31
281.399	66.22
281.615	-42.32
281.83	72.36
282.045	10.92
282.26	39.59
282.476	-25.94
282.691	-30.04
282.906	6.83
283.122	-1.37
283.337	-15.7
283.552	80.55
283.767	-9.56
283.983	4.78
284.198	88.75
284.413	27.31
284.628	23.21
284.843	17.07
285.058	-9.56
285.274	-5.46
285.489	39.59
285.704	31.4
285.919	-7.51
286.134	68.27
286.349	35.5
286.564	-7.51
286.779	31.4
286.995	-42.32
287.21	2.73
287.425	-17.75
287.64	21.16
287.855	76.46
288.07	-54.61
288.285	25.26
288.5	-9.56
288.715	-7.51
288.93	-11.61
289.145	-13.65
289.36	62.12
289.575	-5.46
289.79	58.03
290.004	12.97
290.219	-9.56
290.434	6.83
290.649	41.64
290.864	-21.85
291.079	64.17
291.294	-25.94
291.509	23.21
291.724	-1.37
291.938	-13.65
292.153	19.11
292.368	-1.37
292.583	111.27
292.798	41.64
293.012	55.98
293.227	49.83
293.442	41.64
293.657	-7.51
293.871	66.22
294.086	-75.09
294.301	62.12
294.516	55.98
294.73	45.74
294.945	10.92
295.16	45.74
295.374	35.5
295.589	31.4
295.804	-46.42
296.018	39.59
296.233	2.73
296.447	12.97
296.662	58.03
296.877	109.22
297.091	-34.13
297.306	84.65
297.52	0.68
297.735	53.93
297.949	23.21
298.164	33.45
298.378	12.97
298.593	23.21
298.807	15.02
299.022	33.45
299.236	19.11
299.451	-7.51
299.665	62.12
299.88	31.4
300.094	33.45
300.309	55.98
300.523	82.6
300.737	94.89
300.952	-13.65
301.166	70.31
301.381	-64.85
301.595	-30.04
301.809	23.21
302.024	-23.89
302.238	58.03
302.452	43.69
302.667	25.26
302.881	19.11
303.095	68.27
303.309	55.98
303.524	72.36
303.738	51.88
303.952	15.02
304.166	35.5
304.381	-17.75
304.595	137.9
304.809	-21.85
305.023	-52.56
305.237	-11.61
305.452	12.97
305.666	74.41
305.88	33.45
306.094	17.07
306.308	62.12
306.522	45.74
306.736	39.59
306.95	60.07
307.164	62.12
307.379	15.02
307.593	-9.56
307.807	62.12
308.021	-9.56
308.235	6.83
308.449	25.26
308.663	23.21
308.877	115.37
309.091	25.26
309.305	-9.56
309.519	4.78
309.733	0.68
309.947	-1.37
310.161	-15.7
310.374	49.83
310.588	80.55
310.802	-36.18
311.016	25.26
311.23	68.27
311.444	8.87
311.658	27.31
311.872	37.55
312.085	72.36
312.299	43.69
312.513	60.07
312.727	-19.8
312.941	-23.89
313.154	84.65
313.368	15.02
313.582	31.4
313.796	-1.37
314.009	31.4
314.223	-7.51
314.437	27.31
314.651	58.03
314.864	-42.32
315.078	15.02
315.292	15.02
315.505	-9.56
315.719	47.79
315.933	31.4
316.146	123.56
316.36	-54.61
316.573	49.83
316.787	47.79
317.001	41.64
317.214	6.83
317.428	-17.75
317.641	-9.56
317.855	25.26
318.068	-7.51
318.282	31.4
318.495	15.02
318.709	51.88
318.922	6.83
319.136	51.88
319.349	94.89
319.563	23.21
319.776	55.98
319.99	25.26
320.203	10.92
320.417	80.55
320.63	23.21
320.843	74.41
321.057	51.88
321.27	-25.94
321.483	-5.46
321.697	-5.46
321.91	47.79
322.124	-19.8
322.337	-21.85
322.55	-54.61
322.763	66.22
322.977	-50.52
323.19	15.02
323.403	23.21
323.617	70.31
323.83	-1.37
324.043	39.59
324.256	21.16
324.469	43.69
324.683	12.97
324.896	19.11
325.109	41.64
325.322	23.21
325.535	88.75
325.748	109.22
325.962	39.59
326.175	64.17
326.388	43.69
326.601	68.27
326.814	-38.23
327.027	-7.51
327.24	127.66
327.453	6.83
327.666	-42.32
327.879	31.4
328.092	31.4
328.305	12.97
328.518	6.83
328.731	31.4
328.944	-17.75
329.157	37.55
329.37	111.27
329.583	35.5
329.796	88.75
330.009	-17.75
330.222	6.83
330.435	35.5
330.648	2.73
330.861	-7.51
331.073	-7.51
331.286	19.11
331.499	23.21
331.712	-46.42
331.925	60.07
332.138	64.17
332.35	47.79
332.563	31.4
332.776	41.64
332.989	51.88
333.202	6.83
333.414	-52.56
333.627	-9.56
333.84	64.17
334.053	121.51
334.265	-42.32
334.478	8.87
334.691	82.6
334.903	8.87
335.116	-25.94
335.329	-56.66
335.541	55.98
335.754	111.27
335.966	21.16
336.179	-1.37
336.392	39.59
336.604	6.83
336.817	29.35
337.029	88.75
337.242	-23.89
337.454	35.5
337.667	-7.51
337.88	27.31
338.092	-17.75
338.305	-58.71
338.517	72.36
338.729	72.36
338.942	80.55
339.154	-1.37
339.367	27.31
339.579	39.59
339.792	43.69
340.004	-23.89
340.217	6.83
340.429	19.11
340.641	-71
340.854	51.88
341.066	-36.18
341.278	47.79
341.491	88.75
341.703	23.21
341.915	8.87
342.128	62.12
342.34	47.79
342.552	70.31
342.764	31.4
342.977	70.31
343.189	33.45
343.401	64.17
343.613	15.02
343.826	33.45
344.038	23.21
344.25	105.13
344.462	6.83
344.674	45.74
344.886	-9.56
345.099	41.64
345.311	6.83
345.523	80.55
345.735	-40.28
345.947	6.83
346.159	15.02
346.371	64.17
346.583	23.21
346.795	68.27
347.007	25.26
347.219	109.22
347.431	25.26
347.643	70.31
347.855	-11.61
348.067	86.7
348.279	-13.65
348.491	70.31
348.703	58.03
348.915	-15.7
349.127	25.26
349.339	82.6
349.551	47.79
349.763	15.02
349.975	0.68
350.187	0.68
350.399	96.94
350.61	47.79
350.822	-32.08
351.034	23.21
351.246	-42.32
351.458	109.22
351.669	64.17
351.881	37.55
352.093	2.73
352.305	35.5
352.517	47.79
352.728	74.41
352.94	47.79
353.152	55.98
353.363	39.59
353.575	33.45
353.787	21.16
353.999	31.4
354.21	68.27
354.422	25.26
354.633	-30.04
354.845	6.83
355.057	43.69
355.268	47.79
355.48	12.97
355.692	31.4
355.903	0.68
356.115	19.11
356.326	33.45
356.538	49.83
356.749	66.22
356.961	58.03
357.172	-32.08
357.384	0.68
357.595	137.9
357.807	4.78
358.018	17.07
358.23	27.31
358.441	101.03
358.653	-25.94
358.864	84.65
359.075	39.59
359.287	72.36
359.498	37.55
359.709	58.03
359.921	25.26
360.132	43.69
360.344	-1.37
360.555	-48.47
360.766	66.22
360.977	10.92
361.189	96.94
361.4	-32.08
361.611	74.41
361.823	121.51
362.034	-46.42
362.245	-17.75
362.456	23.21
362.667	74.41
362.879	-9.56
363.09	39.59
363.301	27.31
363.512	-17.75
363.723	-34.13
363.935	-5.46
364.146	15.02
364.357	0.68
364.568	-11.61
364.779	35.5
364.99	82.6
365.201	-7.51
365.412	49.83
365.623	19.11
365.834	101.03
366.045	70.31
366.256	72.36
366.467	19.11
366.678	-7.51
366.889	90.79
367.1	15.02
367.311	101.03
367.522	25.26
367.733	19.11
367.944	58.03
368.155	78.51
368.366	-42.32
368.577	64.17
368.788	78.51
368.999	12.97
369.209	-1.37
369.42	101.03
369.631	133.8
369.842	-36.18
370.053	94.89
370.264	55.98
370.474	31.4
370.685	12.97
370.896	19.11
371.107	2.73
371.317	-9.56
371.528	-17.75
371.739	86.7
371.95	64.17
372.16	25.26
372.371	47.79
372.582	8.87
372.792	19.11
373.003	23.21
373.214	6.83
373.424	80.55
373.635	25.26
373.846	49.83
374.056	37.55
374.267	-42.32
374.477	72.36
374.688	25.26
374.898	33.45
375.109	47.79
375.319	12.97
375.53	58.03
375.74	66.22
375.951	33.45
376.161	74.41
376.372	17.07
376.582	31.4
376.793	-32.08
377.003	74.41
377.214	2.73
377.424	31.4
377.635	41.64
377.845	58.03
378.055	113.32
378.266	8.87
378.476	-32.08
378.686	98.99
378.897	96.94
379.107	60.07
379.317	-5.46
379.528	25.26
379.738	129.7
379.948	15.02
380.158	80.55
380.369	47.79
380.579	-5.46
380.789	25.26
380.999	92.84
381.21	92.84
381.42	25.26
381.63	-5.46
381.84	60.07
382.05	55.98
382.261	10.92
382.471	31.4
382.681	6.83
382.891	47.79
383.101	113.32
383.311	17.07
383.521	64.17
383.731	90.79
383.941	35.5
384.151	31.4
384.361	-34.13
384.571	0.68
384.781	84.65
384.991	115.37
385.201	86.7
385.411	15.02
385.621	31.4
385.831	29.35
386.041	37.55
386.251	21.16
386.461	49.83
386.671	19.11
386.881	-42.32
387.091	0.68
387.301	103.08
387.511	15.02
387.72	8.87
387.93	49.83
388.14	55.98
388.35	31.4
388.56	82.6
388.769	92.84
388.979	70.31
389.189	53.93
389.399	49.83
389.609	19.11
389.818	-9.56
390.028	43.69
390.238	51.88
390.447	98.99
390.657	80.55
390.867	-1.37
391.076	31.4
391.286	55.98
391.496	31.4
391.705	47.79
391.915	55.98
392.125	51.88
392.334	6.83
392.544	113.32
392.753	43.69
392.963	12.97
393.172	6.83
393.382	-17.75
393.591	76.46
393.801	45.74
394.01	43.69
394.22	-9.56
394.429	21.16
394.639	98.99
394.848	98.99
395.058	49.83
395.267	96.94
395.477	15.02
395.686	31.4
395.895	80.55
396.105	74.41
396.314	39.59
396.524	92.84
396.733	43.69
396.942	55.98
397.152	68.27
397.361	-23.89
397.57	39.59
397.78	74.41
397.989	55.98
398.198	101.03
398.407	115.37
398.617	45.74
398.826	82.6
399.035	80.55
399.244	113.32
399.453	-9.56
399.663	74.41
399.872	64.17
400.081	6.83
400.29	96.94
400.499	47.79
400.708	109.22
400.917	96.94
401.127	0.68
401.336	74.41
401.545	74.41
401.754	72.36
401.963	115.37
402.172	80.55
402.381	60.07
402.59	62.12
402.799	90.79
403.008	103.08
403.217	88.75
403.426	139.94
403.635	60.07
403.844	78.51
404.053	68.27
404.262	135.85
404.471	113.32
404.68	103.08
404.888	72.36
405.097	113.32
405.306	74.41
405.515	49.83
405.724	170.66
405.933	117.42
406.142	205.48
406.35	205.48
406.559	146.09
406.768	76.46
406.977	170.66
407.185	158.38
407.394	123.56
407.603	105.13
407.812	121.51
408.02	178.86
408.229	109.22
408.438	60.07
408.646	148.14
408.855	150.18
409.064	187.05
409.272	221.86
409.481	246.44
409.69	141.99
409.898	166.57
410.107	236.2
410.315	168.62
410.524	221.86
410.733	219.82
410.941	158.38
411.15	219.82
411.358	248.49
411.567	248.49
411.775	326.31
411.984	232.1
412.192	293.54
412.401	252.58
412.609	283.3
412.818	289.45
413.026	338.6
413.234	344.74
413.443	262.82
413.651	375.46
413.86	359.08
414.068	402.08
414.276	434.85
414.485	408.23
414.693	426.66
414.901	555.68
415.11	484
415.318	457.38
415.526	555.68
415.734	535.2
415.943	481.96
416.151	555.68
416.359	586.4
416.567	516.77
416.776	653.98
416.984	625.31
417.192	666.27
417.4	647.84
417.608	674.46
417.817	719.52
418.025	688.8
418.233	780.96
418.441	744.1
418.649	832.16
418.857	858.78
419.065	817.82
419.273	852.64
419.481	875.17
419.689	944.8
419.897	893.6
420.105	930.46
420.313	1108.63
420.521	1051.29
420.729	1071.77
420.937	1084.06
421.145	1075.87
421.353	1249.94
421.561	1249.94
421.769	1221.27
421.977	1276.57
422.185	1237.66
422.393	1342.1
422.601	1620.63
422.809	1491.6
423.017	1563.28
423.224	1620.63
423.432	1536.66
423.64	1589.91
423.848	1718.93
424.056	1657.49
424.263	1809.04
424.471	1784.46
424.679	1815.18
424.887	1888.91
425.094	2157.19
425.302	1997.45
425.51	1993.36
425.718	2030.22
425.925	2132.62
426.133	2251.4
426.341	2325.13
426.548	2386.57
426.756	2466.44
426.964	2595.46
427.171	2646.66
427.379	2663.04
427.586	2759.3
427.794	2867.84
428.001	2900.61
428.209	3111.55
428.417	3162.75
428.624	3318.39
428.832	3236.47
429.039	3170.94
429.247	3283.58
429.454	3523.19
429.662	3773.04
429.869	3498.61
430.076	3844.72
430.284	3789.42
430.491	3746.42
430.699	4029.04
430.906	4012.65
431.114	4098.67
431.321	4258.41
431.528	4225.64
431.736	4479.59
431.943	4835.94
432.15	4733.54
432.358	4692.58
432.565	4885.09
432.772	4868.7
432.979	5276.25
433.187	5309.02
433.394	5268.06
433.601	5620.31
433.808	5718.61
434.016	5763.67
434.223	5749.33
434.43	6294.09
434.637	6101.58
434.844	6560.33
435.052	6750.79
435.259	6718.02
435.466	6687.3
435.673	6644.29
435.88	7119.42
436.087	7449.14
436.294	7250.49
436.501	7246.4
436.708	7258.68
436.915	7682.61
437.122	8026.67
437.329	8116.78
437.537	8163.89
437.743	8358.44
437.95	8192.56
438.157	8632.87
438.364	9003.55
438.571	8866.34
438.778	9060.9
438.985	9689.62
439.192	9447.96
439.399	9505.31
439.606	9316.89
439.813	10000.91
440.02	10430.99
440.227	10424.84
440.433	10295.82
440.64	10519.05
440.847	10512.91
441.054	10865.16
441.261	11540.99
441.467	11428.35
441.674	11751.93
441.881	12151.28
442.088	11899.38
442.294	12173.81
442.501	12304.88
442.708	12403.18
442.914	12843.49
443.121	13605.34
443.328	13115.87
443.534	14334.42
443.741	13765.08
443.948	13310.43
444.154	14545.36
444.361	14313.94
444.568	14371.28
444.774	14590.41
444.981	14594.51
445.187	14983.62
445.394	15598.01
445.6	15616.44
445.807	16966.06
446.013	16107.96
446.22	16703.92
446.426	17125.8
446.633	17154.47
446.839	17861.02
447.046	16984.49
447.252	18270.61
447.459	18231.7
447.665	18137.49
447.871	18774.41
448.078	19644.8
448.284	18432.4
448.491	19423.62
448.697	20083.06
448.903	20113.78
449.11	20404.6
449.316	20406.64
449.522	20517.23
449.728	21174.63
449.935	21047.66
450.141	21158.25
450.347	21555.55
450.553	21027.18
450.76	21307.75
450.966	21952.86
451.172	21451.11
451.378	22200.66
451.584	21635.42
451.791	22231.38
451.997	22180.18
452.203	22604.11
452.409	22671.7
452.615	22655.31
452.821	21588.32
453.027	21485.92
453.233	22686.03
453.44	21627.23
453.646	21987.68
453.852	21965.15
454.058	22546.77
454.264	21428.58
454.47	22128.98
454.676	21586.27
454.882	22167.9
455.088	20341.11
455.294	20521.33
455.5	20996.46
455.705	21320.04
455.911	20496.75
456.117	20218.23
456.323	19796.35
456.529	18700.69
456.735	19716.48
456.941	19120.52
457.147	18817.42
457.352	17852.83
457.558	17957.27
457.764	18168.21
457.97	17619.36
458.176	17365.41
458.381	17451.42
458.587	16511.41
458.793	16550.32
458.999	15489.47
459.204	16718.25
459.41	16341.43
459.616	15149.51
459.821	15264.19
460.027	15233.47
460.233	15079.88
460.438	14451.15
460.644	14313.94
460.85	13681.11
461.055	13597.15
461.261	13425.12
461.466	12347.89
461.672	11897.33
461.878	12843.49
462.083	12073.46
462.289	11909.62
462.494	11901.43
462.7	11293.18
462.905	10969.6
463.111	11205.12
463.316	11198.98
463.522	11186.69
463.727	11182.59
463.932	11166.21
464.138	10977.8
464.343	10850.82
464.549	10783.24
464.754	10938.88
464.959	11186.69
465.165	11141.63
465.37	10363.4
465.575	10164.75
465.781	10574.35
465.986	10566.15
466.191	10070.55
466.397	10005.01
466.602	9454.11
466.807	10095.12
467.012	10086.93
467.218	9746.97
467.423	9849.36
467.628	9779.73
467.833	10240.53
468.038	9646.62
