Data from USB4F104151__95__14-18-00-660.txt Node

Date: Thu Mar 13 14:18:00 EDT 2025
User: louis
Spectrometer: USB4F10415
Trigger mode: 4
Integration Time (sec): 2.000000E-2
Scans to average: 1
Electric dark correction enabled: true
Nonlinearity correction enabled: false
Boxcar width: 0
XAxis mode: Wavelengths
Number of Pixels in Spectrum: 3648
>>>>>Begin Spectral Data<<<<<
178.204	-83.8
178.424	-83.8
178.644	-83.8
178.864	-137.04
179.084	-53.08
179.304	-46.93
179.524	-36.69
179.744	8.36
179.964	16.55
180.184	57.51
180.404	39.08
180.624	-46.93
180.844	65.71
181.064	-65.36
181.283	-28.5
181.503	24.75
181.723	12.46
181.943	-46.93
182.163	14.51
182.383	37.03
182.602	37.03
182.822	65.71
183.042	-67.41
183.262	28.84
183.482	2.22
183.701	8.36
183.921	20.65
184.141	24.75
184.361	73.9
184.58	0.17
184.8	-12.12
185.02	37.03
185.239	80.04
185.459	24.75
185.679	61.61
185.898	30.89
186.118	82.09
186.338	67.75
186.557	37.03
186.777	22.7
186.997	8.36
187.216	32.94
187.436	80.04
187.655	24.75
187.875	90.28
188.095	45.23
188.314	118.95
188.534	37.03
188.753	0.17
188.973	65.71
189.192	96.43
189.412	57.51
189.631	4.27
189.851	12.46
190.07	51.37
190.29	20.65
190.509	28.84
190.729	-20.31
190.948	82.09
191.168	88.23
191.387	94.38
191.607	32.94
191.826	57.51
192.045	45.23
192.265	12.46
192.484	100.52
192.704	65.71
192.923	4.27
193.142	20.65
193.362	-12.12
193.581	71.85
193.8	-20.31
194.02	86.19
194.239	28.84
194.458	73.9
194.678	-71.51
194.897	4.27
195.116	37.03
195.335	30.89
195.555	88.23
195.774	39.08
195.993	106.67
196.212	-22.36
196.432	12.46
196.651	88.23
196.87	39.08
197.089	43.18
197.308	127.14
197.528	96.43
197.747	-36.69
197.966	-77.65
198.185	108.71
198.404	-3.93
198.623	51.37
198.842	49.32
199.062	84.14
199.281	102.57
199.5	63.66
199.719	-53.08
199.938	14.51
200.157	84.14
200.376	55.47
200.595	123.05
200.814	69.8
201.033	6.31
201.252	88.23
201.471	-10.07
201.69	77.99
201.909	4.27
202.128	53.42
202.347	4.27
202.566	41.13
202.785	45.23
203.004	24.75
203.223	92.33
203.442	39.08
203.661	47.27
203.879	37.03
204.098	14.51
204.317	22.7
204.536	96.43
204.755	102.57
204.974	75.95
205.193	-3.93
205.411	106.67
205.63	90.28
205.849	20.65
206.068	30.89
206.287	114.86
206.505	45.23
206.724	20.65
206.943	69.8
207.162	-12.12
207.381	116.9
207.599	8.36
207.818	18.6
208.037	37.03
208.255	65.71
208.474	77.99
208.693	51.37
208.911	47.27
209.13	88.23
209.349	30.89
209.567	67.75
209.786	61.61
210.005	65.71
210.223	106.67
210.442	61.61
210.661	63.66
210.879	34.99
211.098	-26.45
211.316	57.51
211.535	22.7
211.753	-3.93
211.972	45.23
212.191	-3.93
212.409	41.13
212.628	-3.93
212.846	4.27
213.065	82.09
213.283	86.19
213.502	-40.79
213.72	86.19
213.938	37.03
214.157	28.84
214.375	32.94
214.594	28.84
214.812	98.47
215.031	84.14
215.249	-3.93
215.467	39.08
215.686	-32.6
215.904	61.61
216.122	-3.93
216.341	16.55
216.559	28.84
216.778	96.43
216.996	-3.93
217.214	37.03
217.432	-22.36
217.651	-1.88
217.869	-32.6
218.087	53.42
218.306	63.66
218.524	73.9
218.742	57.51
218.96	39.08
219.179	37.03
219.397	10.41
219.615	8.36
219.833	61.61
220.051	-16.21
220.27	-18.26
220.488	86.19
220.706	77.99
220.924	55.47
221.142	18.6
221.36	86.19
221.578	28.84
221.796	73.9
222.015	49.32
222.233	75.95
222.451	61.61
222.669	-40.79
222.887	69.8
223.105	-36.69
223.323	45.23
223.541	26.79
223.759	41.13
223.977	-1.88
224.195	8.36
224.413	34.99
224.631	63.66
224.849	53.42
225.067	77.99
225.285	84.14
225.503	16.55
225.721	-10.07
225.939	-8.02
226.157	22.7
226.375	14.51
226.592	80.04
226.81	20.65
227.028	-51.03
227.246	12.46
227.464	61.61
227.682	57.51
227.9	39.08
228.117	45.23
228.335	73.9
228.553	73.9
228.771	20.65
228.989	90.28
229.206	37.03
229.424	24.75
229.642	41.13
229.86	39.08
230.077	129.19
230.295	37.03
230.513	24.75
230.731	53.42
230.948	57.51
231.166	86.19
231.384	-12.12
231.601	39.08
231.819	139.43
232.037	37.03
232.254	28.84
232.472	86.19
232.689	45.23
232.907	28.84
233.125	20.65
233.342	8.36
233.56	-71.51
233.777	-3.93
233.995	28.84
234.213	92.33
234.43	45.23
234.648	71.85
234.865	67.75
235.083	4.27
235.3	34.99
235.518	82.09
235.735	51.37
235.953	69.8
236.17	49.32
236.388	20.65
236.605	39.08
236.822	-1.88
237.04	116.9
237.257	30.89
237.475	-42.84
237.692	57.51
237.909	53.42
238.127	57.51
238.344	2.22
238.562	75.95
238.779	-10.07
238.996	-1.88
239.214	14.51
239.431	22.7
239.648	28.84
239.865	61.61
240.083	71.85
240.3	32.94
240.517	10.41
240.735	61.61
240.952	102.57
241.169	63.66
241.386	20.65
241.603	41.13
241.821	-3.93
242.038	80.04
242.255	63.66
242.472	12.46
242.689	47.27
242.907	4.27
243.124	-14.17
243.341	49.32
243.558	30.89
243.775	57.51
243.992	55.47
244.209	80.04
244.426	37.03
244.643	65.71
244.86	-24.4
245.078	80.04
245.295	20.65
245.512	106.67
245.729	28.84
245.946	53.42
246.163	41.13
246.38	110.76
246.597	37.03
246.814	20.65
247.031	96.43
247.248	12.46
247.464	4.27
247.681	37.03
247.898	37.03
248.115	100.52
248.332	14.51
248.549	86.19
248.766	155.82
248.983	41.13
249.2	55.47
249.417	61.61
249.633	73.9
249.85	121
250.067	47.27
250.284	61.61
250.501	77.99
250.717	69.8
250.934	37.03
251.151	94.38
251.368	53.42
251.585	34.99
251.801	118.95
252.018	-28.5
252.235	92.33
252.451	28.84
252.668	20.65
252.885	53.42
253.102	65.71
253.318	49.32
253.535	8.36
253.752	16.55
253.968	41.13
254.185	141.48
254.401	6.31
254.618	71.85
254.835	73.9
255.051	110.76
255.268	63.66
255.484	106.67
255.701	37.03
255.917	86.19
256.134	16.55
256.351	71.85
256.567	51.37
256.784	53.42
257	12.46
257.217	69.8
257.433	-8.02
257.65	135.34
257.866	63.66
258.082	-1.88
258.299	4.27
258.515	71.85
258.732	61.61
258.948	-1.88
259.165	32.94
259.381	-18.26
259.597	53.42
259.814	53.42
260.03	-3.93
260.246	-20.31
260.463	96.43
260.679	57.51
260.895	28.84
261.112	114.86
261.328	2.22
261.544	86.19
261.761	110.76
261.977	69.8
262.193	65.71
262.409	28.84
262.626	39.08
262.842	127.14
263.058	49.32
263.274	57.51
263.49	28.84
263.707	108.71
263.923	4.27
264.139	28.84
264.355	12.46
264.571	82.09
264.787	63.66
265.004	77.99
265.22	-3.93
265.436	98.47
265.652	53.42
265.868	6.31
266.084	6.31
266.3	63.66
266.516	34.99
266.732	14.51
266.948	-12.12
267.164	45.23
267.38	22.7
267.596	12.46
267.812	108.71
268.028	86.19
268.244	104.62
268.46	45.23
268.676	20.65
268.892	86.19
269.108	63.66
269.324	-36.69
269.54	30.89
269.756	4.27
269.972	16.55
270.188	28.84
270.403	-8.02
270.619	118.95
270.835	12.46
271.051	34.99
271.267	118.95
271.483	14.51
271.698	37.03
271.914	118.95
272.13	18.6
272.346	59.56
272.562	32.94
272.777	34.99
272.993	26.79
273.209	8.36
273.425	88.23
273.64	86.19
273.856	39.08
274.072	32.94
274.287	4.27
274.503	102.57
274.719	12.46
274.934	20.65
275.15	-14.17
275.366	114.86
275.581	6.31
275.797	73.9
276.012	106.67
276.228	57.51
276.444	37.03
276.659	82.09
276.875	94.38
277.09	53.42
277.306	59.56
277.521	37.03
277.737	-3.93
277.952	71.85
278.168	30.89
278.383	57.51
278.599	43.18
278.814	18.6
279.03	45.23
279.245	37.03
279.461	26.79
279.676	77.99
279.892	0.17
280.107	-10.07
280.322	24.75
280.538	8.36
280.753	67.75
280.969	24.75
281.184	-12.12
281.399	80.04
281.615	88.23
281.83	-51.03
282.045	22.7
282.26	37.03
282.476	49.32
282.691	53.42
282.906	30.89
283.122	-1.88
283.337	30.89
283.552	0.17
283.767	0.17
283.983	61.61
284.198	10.41
284.413	28.84
284.628	6.31
284.843	10.41
285.058	55.47
285.274	75.95
285.489	129.19
285.704	49.32
285.919	-12.12
286.134	41.13
286.349	47.27
286.564	51.37
286.779	77.99
286.995	32.94
287.21	-3.93
287.425	69.8
287.64	37.03
287.855	65.71
288.07	4.27
288.285	43.18
288.5	63.66
288.715	30.89
288.93	-18.26
289.145	45.23
289.36	39.08
289.575	0.17
289.79	69.8
290.004	100.52
290.219	59.56
290.434	82.09
290.649	65.71
290.864	61.61
291.079	65.71
291.294	71.85
291.509	69.8
291.724	10.41
291.938	49.32
292.153	37.03
292.368	24.75
292.583	39.08
292.798	47.27
293.012	6.31
293.227	67.75
293.442	47.27
293.657	45.23
293.871	96.43
294.086	94.38
294.301	47.27
294.516	67.75
294.73	69.8
294.945	73.9
295.16	139.43
295.374	53.42
295.589	67.75
295.804	28.84
296.018	12.46
296.233	61.61
296.447	84.14
296.662	61.61
296.877	71.85
297.091	18.6
297.306	-20.31
297.52	10.41
297.735	110.76
297.949	53.42
298.164	0.17
298.378	-20.31
298.593	28.84
298.807	37.03
299.022	28.84
299.236	135.34
299.451	100.52
299.665	69.8
299.88	30.89
300.094	92.33
300.309	59.56
300.523	2.22
300.737	102.57
300.952	80.04
301.166	28.84
301.381	14.51
301.595	69.8
301.809	98.47
302.024	22.7
302.238	86.19
302.452	135.34
302.667	73.9
302.881	131.24
303.095	86.19
303.309	24.75
303.524	45.23
303.738	-8.02
303.952	43.18
304.166	57.51
304.381	-34.64
304.595	24.75
304.809	55.47
305.023	22.7
305.237	69.8
305.452	14.51
305.666	8.36
305.88	77.99
306.094	53.42
306.308	4.27
306.522	121
306.736	63.66
306.95	16.55
307.164	-18.26
307.379	20.65
307.593	14.51
307.807	106.67
308.021	24.75
308.235	112.81
308.449	53.42
308.663	0.17
308.877	86.19
309.091	94.38
309.305	61.61
309.519	14.51
309.733	39.08
309.947	116.9
310.161	98.47
310.374	67.75
310.588	86.19
310.802	4.27
311.016	69.8
311.23	71.85
311.444	-48.98
311.658	65.71
311.872	94.38
312.085	63.66
312.299	34.99
312.513	106.67
312.727	37.03
312.941	71.85
313.154	71.85
313.368	55.47
313.582	65.71
313.796	49.32
314.009	57.51
314.223	77.99
314.437	104.62
314.651	28.84
314.864	96.43
315.078	24.75
315.292	71.85
315.505	37.03
315.719	41.13
315.933	-1.88
316.146	18.6
316.36	-24.4
316.573	49.32
316.787	71.85
317.001	94.38
317.214	-26.45
317.428	96.43
317.641	-3.93
317.855	121
318.068	-16.21
318.282	37.03
318.495	51.37
318.709	24.75
318.922	-3.93
319.136	102.57
319.349	94.38
319.563	104.62
319.776	-22.36
319.99	-16.21
320.203	92.33
320.417	88.23
320.63	94.38
320.843	143.53
321.057	53.42
321.27	65.71
321.483	71.85
321.697	69.8
321.91	77.99
322.124	49.32
322.337	77.99
322.55	61.61
322.763	49.32
322.977	75.95
323.19	73.9
323.403	59.56
323.617	96.43
323.83	24.75
324.043	57.51
324.256	-5.97
324.469	37.03
324.683	-53.08
324.896	24.75
325.109	102.57
325.322	22.7
325.535	77.99
325.748	88.23
325.962	65.71
326.175	75.95
326.388	75.95
326.601	80.04
326.814	86.19
327.027	-5.97
327.24	77.99
327.453	28.84
327.666	77.99
327.879	184.49
328.092	69.8
328.305	96.43
328.518	-16.21
328.731	4.27
328.944	114.86
329.157	155.82
329.37	14.51
329.583	18.6
329.796	135.34
330.009	53.42
330.222	-10.07
330.435	51.37
330.648	43.18
330.861	90.28
331.073	84.14
331.286	41.13
331.499	98.47
331.712	63.66
331.925	59.56
332.138	24.75
332.35	96.43
332.563	32.94
332.776	84.14
332.989	2.22
333.202	110.76
333.414	-5.97
333.627	71.85
333.84	-24.4
334.053	71.85
334.265	20.65
334.478	39.08
334.691	112.81
334.903	90.28
335.116	30.89
335.329	73.9
335.541	61.61
335.754	118.95
335.966	41.13
336.179	47.27
336.392	0.17
336.604	77.99
336.817	69.8
337.029	77.99
337.242	69.8
337.454	61.61
337.667	0.17
337.88	143.53
338.092	73.9
338.305	86.19
338.517	-8.02
338.729	77.99
338.942	104.62
339.154	69.8
339.367	16.55
339.579	94.38
339.792	65.71
340.004	94.38
340.217	22.7
340.429	45.23
340.641	2.22
340.854	71.85
341.066	32.94
341.278	69.8
341.491	61.61
341.703	49.32
341.915	131.24
342.128	69.8
342.34	20.65
342.552	39.08
342.764	55.47
342.977	45.23
343.189	22.7
343.401	75.95
343.613	53.42
343.826	129.19
344.038	53.42
344.25	41.13
344.462	4.27
344.674	110.76
344.886	14.51
345.099	121
345.311	37.03
345.523	88.23
345.735	65.71
345.947	90.28
346.159	18.6
346.371	73.9
346.583	80.04
346.795	135.34
347.007	71.85
347.219	12.46
347.431	86.19
347.643	61.61
347.855	63.66
348.067	86.19
348.279	53.42
348.491	32.94
348.703	39.08
348.915	104.62
349.127	32.94
349.339	53.42
349.551	45.23
349.763	-18.26
349.975	67.75
350.187	73.9
350.399	127.14
350.61	96.43
350.822	100.52
351.034	123.05
351.246	39.08
351.458	63.66
351.669	98.47
351.881	145.58
352.093	82.09
352.305	77.99
352.517	69.8
352.728	80.04
352.94	43.18
353.152	153.77
353.363	61.61
353.575	159.91
353.787	61.61
353.999	96.43
354.21	110.76
354.422	-5.97
354.633	55.47
354.845	90.28
355.057	80.04
355.268	-16.21
355.48	118.95
355.692	18.6
355.903	49.32
356.115	61.61
356.326	26.79
356.538	135.34
356.749	73.9
356.961	77.99
357.172	69.8
357.384	30.89
357.595	127.14
357.807	94.38
358.018	28.84
358.23	37.03
358.441	102.57
358.653	118.95
358.864	65.71
359.075	14.51
359.287	73.9
359.498	24.75
359.709	45.23
359.921	22.7
360.132	96.43
360.344	123.05
360.555	-16.21
360.766	22.7
360.977	84.14
361.189	20.65
361.4	77.99
361.611	12.46
361.823	121
362.034	116.9
362.245	10.41
362.456	-1.88
362.667	77.99
362.879	63.66
363.09	67.75
363.301	102.57
363.512	104.62
363.723	65.71
363.935	61.61
364.146	20.65
364.357	30.89
364.568	96.43
364.779	41.13
364.99	59.56
365.201	30.89
365.412	41.13
365.623	-16.21
365.834	94.38
366.045	80.04
366.256	-3.93
366.467	98.47
366.678	51.37
366.889	121
367.1	69.8
367.311	37.03
367.522	55.47
367.733	32.94
367.944	84.14
368.155	143.53
368.366	94.38
368.577	37.03
368.788	88.23
368.999	12.46
369.209	102.57
369.42	155.82
369.631	63.66
369.842	80.04
370.053	61.61
370.264	88.23
370.474	118.95
370.685	55.47
370.896	63.66
371.107	37.03
371.317	94.38
371.528	55.47
371.739	121
371.95	26.79
372.16	77.99
372.371	47.27
372.582	12.46
372.792	63.66
373.003	20.65
373.214	129.19
373.424	53.42
373.635	16.55
373.846	65.71
374.056	-32.6
374.267	90.28
374.477	88.23
374.688	47.27
374.898	123.05
375.109	104.62
375.319	82.09
375.53	77.99
375.74	102.57
375.951	80.04
376.161	86.19
376.372	100.52
376.582	53.42
376.793	71.85
377.003	102.57
377.214	4.27
377.424	65.71
377.635	61.61
377.845	2.22
378.055	14.51
378.266	6.31
378.476	45.23
378.686	45.23
378.897	12.46
379.107	125.1
379.317	118.95
379.528	30.89
379.738	106.67
379.948	-18.26
380.158	102.57
380.369	86.19
380.579	131.24
380.789	45.23
380.999	34.99
381.21	112.81
381.42	118.95
381.63	77.99
381.84	135.34
382.05	98.47
382.261	73.9
382.471	123.05
382.681	43.18
382.891	61.61
383.101	102.57
383.311	41.13
383.521	61.61
383.731	121
383.941	57.51
384.151	0.17
384.361	82.09
384.571	86.19
384.781	73.9
384.991	135.34
385.201	137.38
385.411	69.8
385.621	82.09
385.831	104.62
386.041	127.14
386.251	108.71
386.461	98.47
386.671	43.18
386.881	102.57
387.091	84.14
387.301	82.09
387.511	131.24
387.72	135.34
387.93	82.09
388.14	88.23
388.35	82.09
388.56	77.99
388.769	98.47
388.979	90.28
389.189	82.09
389.399	55.47
389.609	141.48
389.818	161.96
390.028	94.38
390.238	80.04
390.447	51.37
390.657	14.51
390.867	86.19
391.076	53.42
391.286	110.76
391.496	86.19
391.705	34.99
391.915	123.05
392.125	65.71
392.334	80.04
392.544	151.72
392.753	49.32
392.963	67.75
393.172	125.1
393.382	28.84
393.591	161.96
393.801	92.33
394.01	110.76
394.22	80.04
394.429	90.28
394.639	80.04
394.848	118.95
395.058	207.02
395.267	102.57
395.477	88.23
395.686	80.04
395.895	192.68
396.105	133.29
396.314	41.13
396.524	69.8
396.733	45.23
396.942	123.05
397.152	114.86
397.361	96.43
397.57	164.01
397.78	123.05
397.989	145.58
398.198	176.3
398.407	96.43
398.617	73.9
398.826	100.52
399.035	155.82
399.244	110.76
399.453	164.01
399.663	164.01
399.872	118.95
400.081	98.47
400.29	143.53
400.499	168.1
400.708	180.39
400.917	123.05
401.127	121
401.336	143.53
401.545	170.15
401.754	172.2
401.963	182.44
402.172	217.26
402.381	82.09
402.59	127.14
402.799	137.38
403.008	118.95
403.217	221.35
403.426	151.72
403.635	145.58
403.844	194.73
404.053	176.3
404.262	114.86
404.471	204.97
404.68	254.12
404.888	184.49
405.097	186.54
405.306	207.02
405.515	176.3
405.724	209.06
405.933	317.61
406.142	145.58
406.35	227.5
406.559	170.15
406.768	182.44
406.977	274.6
407.185	303.27
407.394	250.02
407.603	235.69
407.812	250.02
408.02	385.19
408.229	270.5
408.438	250.02
408.646	323.75
408.855	274.6
409.064	327.85
409.272	317.61
409.481	329.89
409.69	315.56
409.898	364.71
410.107	366.76
410.315	424.1
410.524	407.72
410.733	395.43
410.941	407.72
411.15	446.63
411.358	426.15
411.567	473.25
411.775	508.07
411.984	557.22
412.192	608.42
412.401	424.1
412.609	571.55
412.818	565.41
413.026	616.61
413.234	659.62
413.443	581.79
413.651	692.38
413.86	612.51
414.068	727.2
414.276	696.48
414.485	798.88
414.693	792.73
414.901	798.88
415.11	821.41
415.318	790.69
415.526	954.52
415.734	946.33
415.943	981.15
416.151	1020.06
416.359	948.38
416.567	1054.87
416.776	989.34
416.984	1044.63
417.192	1153.18
417.4	1226.9
417.608	1224.86
417.817	1224.86
418.025	1374.36
418.233	1360.02
418.441	1400.98
418.649	1497.24
418.857	1503.38
419.065	1503.38
419.273	1530
419.481	1530
419.689	1706.13
419.897	1874.06
420.105	1761.42
420.313	1859.73
420.521	1978.51
420.729	1931.41
420.937	2019.47
421.145	2158.73
421.353	2224.26
421.561	2242.7
421.769	2371.72
421.977	2441.35
422.185	2457.73
422.393	2521.22
422.601	2666.63
422.809	2611.33
423.017	2740.35
423.224	2832.51
423.432	2996.35
423.64	2945.15
423.848	3190.91
424.056	3166.33
424.263	3455.09
424.471	3473.53
424.679	3555.44
424.887	3684.47
425.094	3811.44
425.302	3752.05
425.51	3827.82
425.718	3952.75
425.925	4167.79
426.133	4329.58
426.341	4462.69
426.548	4677.73
426.756	4739.17
426.964	4595.81
427.171	4915.3
427.379	5175.39
427.586	5023.84
427.794	5331.03
428.001	5554.26
428.209	5902.42
428.417	5838.93
428.624	6080.59
428.832	6158.41
429.039	6053.97
429.247	6125.65
429.454	6645.83
429.662	7008.32
429.869	6651.97
430.076	7264.32
430.284	6752.32
430.491	7360.57
430.699	7575.61
430.906	7596.09
431.114	7731.25
431.321	8022.06
431.528	8138.8
431.736	8869.92
431.943	9170.97
432.15	8751.14
432.358	8826.92
432.565	9392.16
432.772	9435.16
432.979	10016.79
433.187	10088.46
433.394	10000.4
433.601	10850.31
433.808	10792.97
434.016	10645.51
434.223	11177.98
434.43	11853.81
434.637	11524.09
434.844	12181.49
435.052	12388.33
435.259	12363.76
435.466	12513.26
435.673	12439.53
435.88	13221.86
436.087	14100.44
436.294	13725.66
436.501	13610.97
436.708	13995.99
436.915	14393.3
437.122	15042.5
437.329	15069.12
437.537	15445.95
437.743	15630.27
437.95	15470.53
438.157	16209.84
438.364	16558
438.571	16906.15
438.778	16940.97
438.985	18435.99
439.192	17719.2
439.399	18452.37
439.606	17874.84
439.813	18999.18
440.02	19957.63
440.227	19881.85
440.433	19554.18
440.64	19959.67
440.847	20006.78
441.054	20381.56
441.261	21905.24
441.467	21450.6
441.674	22044.51
441.881	22601.55
442.088	22683.47
442.294	22562.64
442.501	22918.99
442.708	23727.94
442.914	24506.16
443.121	25323.3
443.328	24686.39
443.534	26773.27
443.741	25382.7
443.948	25261.87
444.154	27279.11
444.361	27268.87
444.568	27109.13
444.774	27059.98
444.981	27608.84
445.187	28251.9
445.394	29439.72
445.6	29126.38
445.807	32282.3
446.013	30344.92
446.22	30877.4
446.426	32497.34
446.633	32181.95
446.839	33552.04
447.046	32218.82
447.252	34244.26
447.459	33914.53
447.665	34033.32
447.871	35591.82
448.078	36771.45
448.284	35296.91
448.491	36390.53
448.697	37271.15
448.903	38219.36
449.11	37946.98
449.316	37838.44
449.522	38037.09
449.728	38995.54
449.935	39751.24
450.141	39456.34
450.347	40177.22
450.553	39063.13
450.76	39829.07
450.966	41109.05
451.172	40676.93
451.378	41879.08
451.584	40535.62
451.791	41287.22
451.997	41752.11
452.203	41694.77
452.409	41696.81
452.615	42382.88
452.821	40463.94
453.027	39982.66
453.233	42231.33
453.44	40465.99
453.646	40869.44
453.852	41195.06
454.058	42241.57
454.264	40504.9
454.47	41801.26
454.676	40758.84
454.882	41754.16
455.088	38078.05
455.294	38749.79
455.5	39376.47
455.705	39732.81
455.911	38024.81
456.117	37508.72
456.323	37244.53
456.529	35059.35
456.735	36462.21
456.941	35731.08
457.147	35423.89
457.352	34199.2
457.558	33924.77
457.764	34424.48
457.97	33633.96
458.176	32392.89
458.381	32593.59
458.587	31086.29
458.793	30875.35
458.999	29615.85
459.204	31373
459.41	30478.04
459.616	28448.5
459.821	28671.73
460.027	28794.61
460.233	28075.77
460.438	26609.43
460.644	27199.24
460.85	25943.84
461.055	25198.38
461.261	25585.44
461.466	23461.7
461.672	22841.17
461.878	24514.36
462.083	22720.34
462.289	22378.33
462.494	21671.78
462.7	21096.3
462.905	20592.5
463.111	20979.56
463.316	21272.42
463.522	20969.32
463.727	20934.51
463.932	21075.82
464.138	20389.75
464.343	20729.71
464.549	20141.94
464.754	20776.81
464.959	20512.63
465.165	20414.32
465.37	19695.49
465.575	18995.08
465.781	19593.09
465.986	19910.52
466.191	19214.21
466.397	19038.09
466.602	17913.75
466.807	18763.66
467.012	18825.1
467.218	18519.95
467.423	18132.89
