Data from USB4F104151__137__14-19-11-914.txt Node

Date: Thu Mar 13 14:19:11 EDT 2025
User: louis
Spectrometer: USB4F10415
Trigger mode: 4
Integration Time (sec): 2.000000E-2
Scans to average: 1
Electric dark correction enabled: true
Nonlinearity correction enabled: false
Boxcar width: 0
XAxis mode: Wavelengths
Number of Pixels in Spectrum: 3648
>>>>>Begin Spectral Data<<<<<
178.204	-140.8
178.424	-140.8
178.644	-140.8
178.864	-99.84
179.084	-105.98
179.304	-26.11
179.524	27.14
179.744	-34.3
179.964	80.38
180.184	-24.06
180.404	-17.92
180.624	-15.87
180.844	37.38
181.064	-13.82
181.283	55.81
181.503	-50.69
181.723	-17.92
181.943	-36.35
182.163	64
182.383	88.57
182.602	6.66
182.822	109.05
183.042	2.56
183.262	31.23
183.482	31.23
183.701	12.8
183.921	111.1
184.141	-24.06
184.361	72.19
184.58	86.53
184.8	14.85
185.02	49.66
185.239	33.28
185.459	18.94
185.679	88.57
185.898	2.56
186.118	16.9
186.338	72.19
186.557	82.43
186.777	10.75
186.997	53.76
187.216	18.94
187.436	104.96
187.655	35.33
187.875	0.51
188.095	-26.11
188.314	27.14
188.534	68.09
188.753	-15.87
188.973	-65.02
189.192	92.67
189.412	-1.54
189.631	0.51
189.851	10.75
190.07	6.66
190.29	66.05
190.509	14.85
190.729	37.38
190.948	64
191.168	119.29
191.387	90.62
191.607	10.75
191.826	68.09
192.045	16.9
192.265	70.14
192.484	72.19
192.704	-9.73
192.923	4.61
193.142	166.4
193.362	23.04
193.581	82.43
193.8	59.9
194.02	55.81
194.239	-7.68
194.458	88.57
194.678	47.62
194.897	31.23
195.116	-5.63
195.335	-1.54
195.555	35.33
195.774	94.72
195.993	72.19
196.212	-34.3
196.432	6.66
196.651	59.9
196.87	-22.02
197.089	88.57
197.308	57.86
197.528	88.57
197.747	-34.3
197.966	86.53
198.185	66.05
198.404	6.66
198.623	55.81
198.842	43.52
199.062	80.38
199.281	45.57
199.5	55.81
199.719	121.34
199.938	102.91
200.157	25.09
200.376	33.28
200.595	55.81
200.814	78.33
201.033	57.86
201.252	41.47
201.471	102.91
201.69	64
201.909	41.47
202.128	84.48
202.347	49.66
202.566	-9.73
202.785	88.57
203.004	-32.26
203.223	104.96
203.442	-17.92
203.661	90.62
203.879	25.09
204.098	-17.92
204.317	18.94
204.536	47.62
204.755	-9.73
204.974	92.67
205.193	82.43
205.411	109.05
205.63	64
205.849	90.62
206.068	31.23
206.287	31.23
206.505	49.66
206.724	41.47
206.943	14.85
207.162	23.04
207.381	6.66
207.599	39.42
207.818	-13.82
208.037	96.77
208.255	-1.54
208.474	96.77
208.693	64
208.911	66.05
209.13	45.57
209.349	33.28
209.567	-1.54
209.786	66.05
210.005	47.62
210.223	68.09
210.442	59.9
210.661	-24.06
210.879	94.72
211.098	18.94
211.316	47.62
211.535	57.86
211.753	27.14
211.972	72.19
212.191	35.33
212.409	0.51
212.628	0.51
212.846	-34.3
213.065	113.15
213.283	47.62
213.502	8.7
213.72	-7.68
213.938	55.81
214.157	98.81
214.375	57.86
214.594	-1.54
214.812	154.11
215.031	76.29
215.249	18.94
215.467	53.76
215.686	-1.54
215.904	41.47
216.122	-9.73
216.341	68.09
216.559	41.47
216.778	121.34
216.996	78.33
217.214	64
217.432	107.01
217.651	41.47
217.869	53.76
218.087	29.18
218.306	-1.54
218.524	23.04
218.742	20.99
218.96	6.66
219.179	25.09
219.397	76.29
219.615	25.09
219.833	23.04
220.051	33.28
220.27	88.57
220.488	-38.4
220.706	57.86
220.924	16.9
221.142	-1.54
221.36	2.56
221.578	49.66
221.796	61.95
222.015	57.86
222.233	-79.36
222.451	-9.73
222.669	33.28
222.887	-26.11
223.105	27.14
223.323	8.7
223.541	45.57
223.759	4.61
223.977	25.09
224.195	59.9
224.413	4.61
224.631	35.33
224.849	18.94
225.067	57.86
225.285	-15.87
225.503	49.66
225.721	-46.59
225.939	41.47
226.157	90.62
226.375	74.24
226.592	59.9
226.81	96.77
227.028	88.57
227.246	64
227.464	25.09
227.682	94.72
227.9	23.04
228.117	72.19
228.335	2.56
228.553	80.38
228.771	88.57
228.989	25.09
229.206	88.57
229.424	55.81
229.642	-67.07
229.86	59.9
230.077	47.62
230.295	23.04
230.513	10.75
230.731	6.66
230.948	72.19
231.166	25.09
231.384	39.42
231.601	6.66
231.819	66.05
232.037	27.14
232.254	-54.78
232.472	-87.55
232.689	47.62
232.907	92.67
233.125	20.99
233.342	-11.78
233.56	-42.5
233.777	64
233.995	64
234.213	47.62
234.43	-26.11
234.648	88.57
234.865	49.66
235.083	49.66
235.3	20.99
235.518	27.14
235.735	64
235.953	18.94
236.17	10.75
236.388	8.7
236.605	115.2
236.822	80.38
237.04	72.19
237.257	-15.87
237.475	68.09
237.692	31.23
237.909	41.47
238.127	12.8
238.344	14.85
238.562	39.42
238.779	35.33
238.996	-46.59
239.214	-50.69
239.431	104.96
239.648	-58.88
239.865	6.66
240.083	-13.82
240.3	41.47
240.517	-15.87
240.735	121.34
240.952	96.77
241.169	88.57
241.386	25.09
241.603	39.42
241.821	-1.54
242.038	72.19
242.255	90.62
242.472	0.51
242.689	109.05
242.907	115.2
243.124	14.85
243.341	47.62
243.558	14.85
243.775	33.28
243.992	8.7
244.209	74.24
244.426	98.81
244.643	59.9
244.86	31.23
245.078	51.71
245.295	20.99
245.512	-32.26
245.729	10.75
245.946	41.47
246.163	55.81
246.38	61.95
246.597	49.66
246.814	-7.68
247.031	6.66
247.248	39.42
247.464	14.85
247.681	57.86
247.898	57.86
248.115	41.47
248.332	37.38
248.549	123.39
248.766	55.81
248.983	27.14
249.2	59.9
249.417	55.81
249.633	90.62
249.85	59.9
250.067	14.85
250.284	31.23
250.501	41.47
250.717	100.86
250.934	-17.92
251.151	27.14
251.368	66.05
251.585	66.05
251.801	-34.3
252.018	10.75
252.235	12.8
252.451	10.75
252.668	-13.82
252.885	51.71
253.102	115.2
253.318	47.62
253.535	8.7
253.752	47.62
253.968	16.9
254.185	-36.35
254.401	47.62
254.618	39.42
254.835	-22.02
255.051	90.62
255.268	59.9
255.484	39.42
255.701	-17.92
255.917	51.71
256.134	35.33
256.351	0.51
256.567	4.61
256.784	35.33
257	25.09
257.217	76.29
257.433	31.23
257.65	0.51
257.866	59.9
258.082	-48.64
258.299	47.62
258.515	10.75
258.732	16.9
258.948	27.14
259.165	33.28
259.381	47.62
259.597	61.95
259.814	-7.68
260.03	-3.58
260.246	20.99
260.463	35.33
260.679	39.42
260.895	92.67
261.112	33.28
261.328	-9.73
261.544	64
261.761	121.34
261.977	-34.3
262.193	-1.54
262.409	51.71
262.626	0.51
262.842	23.04
263.058	31.23
263.274	57.86
263.49	-24.06
263.707	74.24
263.923	6.66
264.139	39.42
264.355	16.9
264.571	90.62
264.787	150.01
265.004	41.47
265.22	16.9
265.436	90.62
265.652	68.09
265.868	14.85
266.084	41.47
266.3	55.81
266.516	29.18
266.732	2.56
266.948	55.81
267.164	23.04
267.38	-40.45
267.596	23.04
267.812	23.04
268.028	104.96
268.244	-46.59
268.46	47.62
268.676	64
268.892	27.14
269.108	29.18
269.324	-77.31
269.54	33.28
269.756	90.62
269.972	-17.92
270.188	14.85
270.403	29.18
270.619	-26.11
270.835	53.76
271.051	35.33
271.267	-19.97
271.483	115.2
271.698	14.85
271.914	72.19
272.13	33.28
272.346	14.85
272.562	-5.63
272.777	25.09
272.993	-30.21
273.209	64
273.425	43.52
273.64	41.47
273.856	47.62
274.072	-3.58
274.287	16.9
274.503	37.38
274.719	100.86
274.934	47.62
275.15	39.42
275.366	25.09
275.581	47.62
275.797	-24.06
276.012	-1.54
276.228	14.85
276.444	39.42
276.659	80.38
276.875	104.96
277.09	51.71
277.306	51.71
277.521	16.9
277.737	27.14
277.952	47.62
278.168	10.75
278.383	74.24
278.599	-9.73
278.814	51.71
279.03	72.19
279.245	92.67
279.461	55.81
279.676	55.81
279.892	-30.21
280.107	64
280.322	-3.58
280.538	113.15
280.753	16.9
280.969	47.62
281.184	29.18
281.399	82.43
281.615	82.43
281.83	86.53
282.045	39.42
282.26	8.7
282.476	39.42
282.691	25.09
282.906	82.43
283.122	57.86
283.337	68.09
283.552	131.58
283.767	-24.06
283.983	70.14
284.198	49.66
284.413	96.77
284.628	14.85
284.843	-7.68
285.058	98.81
285.274	57.86
285.489	66.05
285.704	33.28
285.919	59.9
286.134	68.09
286.349	64
286.564	49.66
286.779	-42.5
286.995	104.96
287.21	-52.74
287.425	113.15
287.64	23.04
287.855	125.44
288.07	0.51
288.285	64
288.5	0.51
288.715	25.09
288.93	2.56
289.145	59.9
289.36	-26.11
289.575	59.9
289.79	39.42
290.004	35.33
290.219	55.81
290.434	76.29
290.649	72.19
290.864	16.9
291.079	72.19
291.294	64
291.509	-7.68
291.724	6.66
291.938	31.23
292.153	35.33
292.368	55.81
292.583	-24.06
292.798	94.72
293.012	66.05
293.227	41.47
293.442	8.7
293.657	31.23
293.871	43.52
294.086	74.24
294.301	59.9
294.516	31.23
294.73	39.42
294.945	-30.21
295.16	31.23
295.374	31.23
295.589	78.33
295.804	20.99
296.018	25.09
296.233	74.24
296.447	47.62
296.662	64
296.877	76.29
297.091	14.85
297.306	92.67
297.52	57.86
297.735	96.77
297.949	41.47
298.164	78.33
298.378	82.43
298.593	68.09
298.807	45.57
299.022	80.38
299.236	117.25
299.451	8.7
299.665	6.66
299.88	-15.87
300.094	70.14
300.309	14.85
300.523	92.67
300.737	57.86
300.952	27.14
301.166	47.62
301.381	43.52
301.595	20.99
301.809	49.66
302.024	-26.11
302.238	-38.4
302.452	20.99
302.667	74.24
302.881	14.85
303.095	88.57
303.309	39.42
303.524	41.47
303.738	72.19
303.952	0.51
304.166	6.66
304.381	-5.63
304.595	113.15
304.809	10.75
305.023	88.57
305.237	-9.73
305.452	35.33
305.666	10.75
305.88	49.66
306.094	25.09
306.308	12.8
306.522	53.76
306.736	88.57
306.95	-19.97
307.164	25.09
307.379	74.24
307.593	-9.73
307.807	53.76
308.021	90.62
308.235	41.47
308.449	25.09
308.663	96.77
308.877	49.66
309.091	45.57
309.305	23.04
309.519	23.04
309.733	20.99
309.947	-17.92
310.161	-17.92
310.374	35.33
310.588	64
310.802	35.33
311.016	14.85
311.23	59.9
311.444	115.2
311.658	39.42
311.872	49.66
312.085	113.15
312.299	84.48
312.513	41.47
312.727	74.24
312.941	104.96
313.154	18.94
313.368	2.56
313.582	88.57
313.796	2.56
314.009	66.05
314.223	35.33
314.437	29.18
314.651	55.81
314.864	25.09
315.078	55.81
315.292	-26.11
315.505	76.29
315.719	72.19
315.933	100.86
316.146	31.23
316.36	92.67
316.573	74.24
316.787	72.19
317.001	31.23
317.214	-22.02
317.428	113.15
317.641	-3.58
317.855	76.29
318.068	18.94
318.282	14.85
318.495	102.91
318.709	74.24
318.922	-32.26
319.136	107.01
319.349	6.66
319.563	47.62
319.776	86.53
319.99	-7.68
320.203	8.7
320.417	43.52
320.63	55.81
320.843	135.68
321.057	47.62
321.27	2.56
321.483	18.94
321.697	51.71
321.91	80.38
322.124	2.56
322.337	41.47
322.55	14.85
322.763	82.43
322.977	86.53
323.19	31.23
323.403	66.05
323.617	74.24
323.83	68.09
324.043	-11.78
324.256	47.62
324.469	-9.73
324.683	39.42
324.896	39.42
325.109	51.71
325.322	16.9
325.535	104.96
325.748	8.7
325.962	20.99
326.175	47.62
326.388	59.9
326.601	88.57
326.814	64
327.027	23.04
327.24	53.76
327.453	14.85
327.666	55.81
327.879	33.28
328.092	20.99
328.305	59.9
328.518	-13.82
328.731	-15.87
328.944	76.29
329.157	-7.68
329.37	4.61
329.583	92.67
329.796	117.25
330.009	49.66
330.222	25.09
330.435	2.56
330.648	88.57
330.861	-56.83
331.073	41.47
331.286	14.85
331.499	86.53
331.712	14.85
331.925	23.04
332.138	27.14
332.35	72.19
332.563	4.61
332.776	61.95
332.989	14.85
333.202	47.62
333.414	16.9
333.627	37.38
333.84	100.86
334.053	23.04
334.265	35.33
334.478	23.04
334.691	68.09
334.903	39.42
335.116	20.99
335.329	16.9
335.541	39.42
335.754	104.96
335.966	109.05
336.179	68.09
336.392	39.42
336.604	111.1
336.817	20.99
337.029	88.57
337.242	61.95
337.454	41.47
337.667	4.61
337.88	133.63
338.092	53.76
338.305	104.96
338.517	88.57
338.729	16.9
338.942	49.66
339.154	31.23
339.367	-1.54
339.579	64
339.792	-17.92
340.004	96.77
340.217	66.05
340.429	6.66
340.641	59.9
340.854	59.9
341.066	49.66
341.278	76.29
341.491	88.57
341.703	43.52
341.915	-22.02
342.128	64
342.34	96.77
342.552	47.62
342.764	23.04
342.977	86.53
343.189	64
343.401	57.86
343.613	119.29
343.826	64
344.038	4.61
344.25	35.33
344.462	-32.26
344.674	80.38
344.886	72.19
345.099	0.51
345.311	43.52
345.523	-15.87
345.735	16.9
345.947	10.75
346.159	72.19
346.371	104.96
346.583	6.66
346.795	123.39
347.007	33.28
347.219	82.43
347.431	-17.92
347.643	72.19
347.855	-9.73
348.067	49.66
348.279	-1.54
348.491	70.14
348.703	125.44
348.915	23.04
349.127	8.7
349.339	47.62
349.551	25.09
349.763	80.38
349.975	10.75
350.187	64
350.399	145.92
350.61	-9.73
350.822	55.81
351.034	107.01
351.246	-7.68
351.458	25.09
351.669	43.52
351.881	104.96
352.093	72.19
352.305	72.19
352.517	39.42
352.728	133.63
352.94	115.2
353.152	4.61
353.363	-42.5
353.575	70.14
353.787	68.09
353.999	49.66
354.21	78.33
354.422	-9.73
354.633	64
354.845	35.33
355.057	45.57
355.268	37.38
355.48	37.38
355.692	-3.58
355.903	-17.92
356.115	-5.63
356.326	-58.88
356.538	82.43
356.749	35.33
356.961	143.87
357.172	8.7
357.384	66.05
357.595	109.05
357.807	74.24
358.018	70.14
358.23	49.66
358.441	107.01
358.653	18.94
358.864	45.57
359.075	-56.83
359.287	80.38
359.498	117.25
359.709	35.33
359.921	74.24
360.132	49.66
360.344	43.52
360.555	-9.73
360.766	43.52
360.977	109.05
361.189	64
361.4	178.69
361.611	80.38
361.823	43.52
362.034	14.85
362.245	-22.02
362.456	43.52
362.667	47.62
362.879	-36.35
363.09	51.71
363.301	88.57
363.512	43.52
363.723	29.18
363.935	-9.73
364.146	47.62
364.357	23.04
364.568	123.39
364.779	47.62
364.99	70.14
365.201	25.09
365.412	0.51
365.623	49.66
365.834	25.09
366.045	-19.97
366.256	74.24
366.467	76.29
366.678	-1.54
366.889	31.23
367.1	27.14
367.311	18.94
367.522	8.7
367.733	70.14
367.944	16.9
368.155	-1.54
368.366	154.11
368.577	96.77
368.788	-9.73
368.999	16.9
369.209	115.2
369.42	98.81
369.631	125.44
369.842	14.85
370.053	27.14
370.264	88.57
370.474	6.66
370.685	23.04
370.896	145.92
371.107	41.47
371.317	104.96
371.528	-32.26
371.739	96.77
371.95	51.71
372.16	41.47
372.371	35.33
372.582	18.94
372.792	20.99
373.003	55.81
373.214	72.19
373.424	92.67
373.635	31.23
373.846	117.25
374.056	68.09
374.267	119.29
374.477	64
374.688	35.33
374.898	14.85
375.109	55.81
375.319	47.62
375.53	137.73
375.74	104.96
375.951	55.81
376.161	49.66
376.372	100.86
376.582	49.66
376.793	51.71
377.003	33.28
377.214	-7.68
377.424	72.19
377.635	90.62
377.845	74.24
378.055	80.38
378.266	51.71
378.476	55.81
378.686	-5.63
378.897	84.48
379.107	107.01
379.317	113.15
379.528	25.09
379.738	-34.3
379.948	41.47
380.158	121.34
380.369	37.38
380.579	23.04
380.789	64
380.999	47.62
381.21	61.95
381.42	86.53
381.63	59.9
381.84	31.23
382.05	55.81
382.261	47.62
382.471	98.81
382.681	41.47
382.891	59.9
383.101	59.9
383.311	37.38
383.521	2.56
383.731	31.23
383.941	82.43
384.151	80.38
384.361	49.66
384.571	2.56
384.781	27.14
384.991	51.71
385.201	129.53
385.411	49.66
385.621	51.71
385.831	35.33
386.041	107.01
386.251	10.75
386.461	123.39
386.671	23.04
386.881	72.19
387.091	49.66
387.301	113.15
387.511	45.57
387.72	59.9
387.93	86.53
388.14	8.7
388.35	51.71
388.56	41.47
388.769	31.23
388.979	115.2
389.189	29.18
389.399	64
389.609	125.44
389.818	-1.54
390.028	59.9
390.238	72.19
390.447	47.62
390.657	125.44
390.867	98.81
391.076	72.19
391.286	51.71
391.496	31.23
391.705	51.71
391.915	129.53
392.125	33.28
392.334	117.25
392.544	96.77
392.753	141.82
392.963	-19.97
393.172	119.29
393.382	4.61
393.591	96.77
393.801	92.67
394.01	39.42
394.22	88.57
394.429	84.48
394.639	76.29
394.848	135.68
395.058	80.38
395.267	55.81
395.477	121.34
395.686	47.62
395.895	43.52
396.105	168.45
396.314	35.33
396.524	121.34
396.733	72.19
396.942	115.2
397.152	82.43
397.361	104.96
397.57	92.67
397.78	121.34
397.989	74.24
398.198	121.34
398.407	115.2
398.617	104.96
398.826	121.34
399.035	88.57
399.244	186.88
399.453	55.81
399.663	145.92
399.872	184.83
400.081	33.28
400.29	170.49
400.499	55.81
400.708	107.01
400.917	49.66
401.127	76.29
401.336	6.66
401.545	113.15
401.754	170.49
401.963	131.58
402.172	125.44
402.381	82.43
402.59	109.05
402.799	127.49
403.008	135.68
403.217	117.25
403.426	78.33
403.635	117.25
403.844	123.39
404.053	57.86
404.262	104.96
404.471	197.12
404.68	180.73
404.888	92.67
405.097	133.63
405.306	45.57
405.515	88.57
405.724	154.11
405.933	158.21
406.142	172.54
406.35	182.78
406.559	174.59
406.768	246.27
406.977	172.54
407.185	129.53
407.394	150.01
407.603	143.87
407.812	231.93
408.02	186.88
408.229	260.6
408.438	199.16
408.646	141.82
408.855	221.69
409.064	276.99
409.272	229.88
409.481	311.8
409.69	236.03
409.898	236.03
410.107	250.36
410.315	276.99
410.524	285.18
410.733	238.08
410.941	268.8
411.15	309.76
411.358	338.43
411.567	412.15
411.775	408.06
411.984	369.15
412.192	305.66
412.401	377.34
412.609	354.81
412.818	481.78
413.026	381.43
413.234	385.53
413.443	420.35
413.651	471.54
413.86	530.94
414.068	444.92
414.276	553.46
414.485	465.4
414.693	506.36
414.901	621.05
415.11	637.43
415.318	571.9
415.526	678.39
415.734	657.91
415.943	719.35
416.151	711.16
416.359	760.31
416.567	682.49
416.776	776.69
416.984	848.37
417.192	752.12
417.4	844.28
417.608	844.28
417.817	838.13
418.025	1024.5
418.233	967.15
418.441	924.15
418.649	926.19
418.857	1094.13
419.065	1087.98
419.273	1073.65
419.481	1038.83
419.689	1200.62
419.897	1227.25
420.105	1253.87
420.313	1204.72
420.521	1415.66
420.729	1407.47
420.937	1356.27
421.145	1442.28
421.353	1628.65
421.561	1669.61
421.769	1649.13
421.977	1671.65
422.185	1651.17
422.393	1835.49
422.601	1882.6
422.809	1941.99
423.017	1862.12
423.224	2077.15
423.432	2093.54
423.64	2111.97
423.848	2075.1
424.056	2136.54
424.263	2251.23
424.471	2341.34
424.679	2294.24
424.887	2578.9
425.094	2466.27
425.302	2554.33
425.51	2671.06
425.718	2736.6
425.925	2847.19
426.133	2832.85
426.341	3115.47
426.548	3254.73
426.756	3297.74
426.964	3381.71
427.171	3469.77
427.379	3537.35
427.586	3621.32
427.794	3713.48
428.001	3785.16
428.209	4174.27
428.417	3955.14
428.624	4370.88
428.832	4215.23
429.039	4272.57
429.247	4170.18
429.454	4753.85
429.662	4815.29
429.869	4727.22
430.076	5015.99
430.284	4858.29
430.491	5151.15
430.699	5396.91
430.906	5222.83
431.114	5501.36
431.321	5413.29
431.528	5634.47
431.736	6009.25
431.943	6240.67
432.15	6025.64
432.358	6187.43
432.565	6504.86
432.772	6420.89
432.979	6744.47
433.187	6939.03
433.394	6908.31
433.601	7399.82
433.808	7422.35
434.016	7393.68
434.223	7807.37
434.43	8219.01
434.637	7983.49
434.844	8524.16
435.052	8753.53
435.259	8614.27
435.466	8724.86
435.673	8413.57
435.88	9120.12
436.087	9697.64
436.294	9611.63
436.501	9480.56
436.708	9568.62
436.915	9697.64
437.122	10406.24
437.329	10252.64
437.537	10574.17
437.743	10774.88
437.95	10494.3
438.157	11204.95
438.364	11626.83
438.571	11596.11
438.778	11630.93
438.985	12927.29
439.192	12181.83
439.399	12638.53
439.606	12362.05
439.813	12990.78
440.02	13803.82
440.227	13693.23
440.433	13510.96
440.64	13949.23
440.847	13906.22
441.054	14139.69
441.261	15155.48
441.467	14844.19
441.674	15247.64
441.881	15902.99
442.088	15620.37
442.294	15624.47
442.501	16204.04
442.708	16275.72
442.914	16896.25
443.121	17602.8
443.328	16980.22
443.534	18479.33
443.741	17529.08
443.948	17529.08
444.154	19097.82
444.361	18600.16
444.568	18809.06
444.774	18958.56
444.981	19089.63
445.187	19503.32
445.394	20218.06
445.6	20037.84
445.807	22153.39
446.013	21158.08
446.22	21436.6
446.426	22257.84
446.633	22700.2
446.839	23390.36
447.046	22405.29
447.252	23238.81
447.459	23568.54
447.665	23341.21
447.871	24701.06
448.078	25753.72
448.284	24379.53
448.491	25180.29
448.697	26622.06
448.903	26314.86
449.11	26617.96
449.316	25938.04
449.522	26722.41
449.728	27316.32
449.935	27213.92
450.141	27560.03
450.347	28293.2
450.553	27277.41
450.76	27428.96
450.966	28108.88
451.172	28158.03
451.378	29116.48
451.584	28518.48
451.791	29065.28
451.997	29018.18
452.203	29667.39
452.409	29392.96
452.615	29583.42
452.821	28538.96
453.027	28274.77
453.233	29657.15
453.44	28405.84
453.646	29136.96
453.852	29053
454.058	29337.66
454.264	27940.95
454.47	28964.93
454.676	28430.41
454.882	29274.18
455.088	26767.46
455.294	27400.29
455.5	27299.94
455.705	27895.89
455.911	26959.97
456.117	26286.19
456.323	25954.42
456.529	24582.28
456.735	25772.15
456.941	25233.53
457.147	24733.83
457.352	23695.51
457.558	23793.81
457.764	23853.2
457.97	23287.96
458.176	22657.19
458.381	22712.49
458.587	21686.45
458.793	21760.18
458.999	20723.91
459.204	22102.19
459.41	21242.04
459.616	19953.87
459.821	20453.58
460.027	19945.68
460.233	19503.32
460.438	18559.2
460.644	19187.93
460.85	18243.82
461.055	17686.77
461.261	17592.56
461.466	16433.41
461.672	15792.4
461.878	17029.37
462.083	16169.23
462.289	15405.33
462.494	15411.48
462.7	14813.47
462.905	14285.09
463.111	14989.6
463.316	15079.71
463.522	14496.03
463.727	14672.16
463.932	14684.45
464.138	14493.99
464.343	14469.41
464.549	13732.14
464.754	14389.54
464.959	14379.3
465.165	14145.83
465.37	13740.33
465.575	13254.97
465.781	14020.91
465.986	13984.04
466.191	13269.3
466.397	13152.57
466.602	12364.1
466.807	13044.02
467.012	12941.63
467.218	12974.39
467.423	12794.17
467.628	12538.18
467.833	13148.47
468.038	12931.39
468.244	12659.01
468.449	12984.63
468.654	12749.12
