Data from USB4F104151__241__14-22-17-088.txt Node

Date: Thu Mar 13 14:22:17 EDT 2025
User: louis
Spectrometer: USB4F10415
Trigger mode: 4
Integration Time (sec): 2.000000E-2
Scans to average: 1
Electric dark correction enabled: true
Nonlinearity correction enabled: false
Boxcar width: 0
XAxis mode: Wavelengths
Number of Pixels in Spectrum: 3648
>>>>>Begin Spectral Data<<<<<
178.204	-83.28
178.424	-83.28
178.644	-83.28
178.864	-81.24
179.084	-107.86
179.304	-34.13
179.524	15.02
179.744	41.64
179.964	23.21
180.184	33.45
180.404	-13.65
180.624	-27.99
180.844	-7.51
181.064	8.87
181.283	-13.65
181.503	-71
181.723	45.74
181.943	27.31
182.163	96.94
182.383	15.02
182.602	-13.65
182.822	80.55
183.042	19.11
183.262	37.55
183.482	15.02
183.701	29.35
183.921	49.83
184.141	15.02
184.361	84.65
184.58	15.02
184.8	27.31
185.02	6.83
185.239	23.21
185.459	27.31
185.679	39.59
185.898	-27.99
186.118	60.07
186.338	-13.65
186.557	80.55
186.777	0.68
186.997	27.31
187.216	0.68
187.436	64.17
187.655	70.31
187.875	-9.56
188.095	31.4
188.314	0.68
188.534	43.69
188.753	47.79
188.973	6.83
189.192	72.36
189.412	80.55
189.631	41.64
189.851	-13.65
190.07	109.22
190.29	31.4
190.509	64.17
190.729	-17.75
190.948	101.03
191.168	131.75
191.387	49.83
191.607	-9.56
191.826	17.07
192.045	6.83
192.265	115.37
192.484	-3.41
192.704	31.4
192.923	15.02
193.142	23.21
193.362	27.31
193.581	55.98
193.8	45.74
194.02	43.69
194.239	-17.75
194.458	105.13
194.678	17.07
194.897	8.87
195.116	88.75
195.335	23.21
195.555	47.79
195.774	10.92
195.993	55.98
196.212	45.74
196.432	-17.75
196.651	31.4
196.87	37.55
197.089	117.42
197.308	72.36
197.528	92.84
197.747	-11.61
197.966	2.73
198.185	133.8
198.404	25.26
198.623	39.59
198.842	-9.56
199.062	72.36
199.281	90.79
199.5	60.07
199.719	82.6
199.938	-25.94
200.157	21.16
200.376	74.41
200.595	74.41
200.814	17.07
201.033	-1.37
201.252	96.94
201.471	88.75
201.69	17.07
201.909	39.59
202.128	35.5
202.347	90.79
202.566	31.4
202.785	6.83
203.004	23.21
203.223	2.73
203.442	64.17
203.661	19.11
203.879	72.36
204.098	2.73
204.317	90.79
204.536	60.07
204.755	35.5
204.974	78.51
205.193	33.45
205.411	154.28
205.63	76.46
205.849	25.26
206.068	60.07
206.287	96.94
206.505	55.98
206.724	-25.94
206.943	-30.04
207.162	-1.37
207.381	47.79
207.599	17.07
207.818	66.22
208.037	43.69
208.255	53.93
208.474	-13.65
208.693	-32.08
208.911	-23.89
209.13	21.16
209.349	72.36
209.567	17.07
209.786	47.79
210.005	23.21
210.223	98.99
210.442	72.36
210.661	86.7
210.879	103.08
211.098	51.88
211.316	19.11
211.535	105.13
211.753	-3.41
211.972	49.83
212.191	47.79
212.409	43.69
212.628	127.66
212.846	35.5
213.065	37.55
213.283	55.98
213.502	86.7
213.72	-42.32
213.938	-9.56
214.157	47.79
214.375	103.08
214.594	17.07
214.812	-1.37
215.031	58.03
215.249	35.5
215.467	-7.51
215.686	33.45
215.904	-5.46
216.122	8.87
216.341	27.31
216.559	62.12
216.778	66.22
216.996	33.45
217.214	-83.28
217.432	-5.46
217.651	47.79
217.869	113.32
218.087	-1.37
218.306	0.68
218.524	39.59
218.742	55.98
218.96	74.41
219.179	0.68
219.397	58.03
219.615	96.94
219.833	29.35
220.051	119.46
220.27	96.94
220.488	23.21
220.706	55.98
220.924	17.07
221.142	-50.52
221.36	10.92
221.578	82.6
221.796	15.02
222.015	17.07
222.233	90.79
222.451	82.6
222.669	62.12
222.887	66.22
223.105	2.73
223.323	17.07
223.541	51.88
223.759	19.11
223.977	15.02
224.195	96.94
224.413	55.98
224.631	23.21
224.849	-5.46
225.067	4.78
225.285	-11.61
225.503	58.03
225.721	-54.61
225.939	17.07
226.157	19.11
226.375	111.27
226.592	31.4
226.81	4.78
227.028	123.56
227.246	66.22
227.464	15.02
227.682	94.89
227.9	37.55
228.117	58.03
228.335	49.83
228.553	43.69
228.771	51.88
228.989	49.83
229.206	19.11
229.424	-1.37
229.642	-1.37
229.86	-15.7
230.077	76.46
230.295	90.79
230.513	76.46
230.731	68.27
230.948	17.07
231.166	55.98
231.384	-34.13
231.601	-34.13
231.819	58.03
232.037	-15.7
232.254	72.36
232.472	2.73
232.689	66.22
232.907	62.12
233.125	51.88
233.342	-21.85
233.56	27.31
233.777	2.73
233.995	-27.99
234.213	23.21
234.43	37.55
234.648	80.55
234.865	-36.18
235.083	37.55
235.3	-38.23
235.518	31.4
235.735	129.7
235.953	31.4
236.17	-25.94
236.388	-9.56
236.605	76.46
236.822	53.93
237.04	25.26
237.257	-13.65
237.475	49.83
237.692	35.5
237.909	41.64
238.127	107.18
238.344	90.79
238.562	98.99
238.779	25.26
238.996	29.35
239.214	-34.13
239.431	19.11
239.648	2.73
239.865	105.13
240.083	84.65
240.3	-7.51
240.517	47.79
240.735	47.79
240.952	115.37
241.169	74.41
241.386	68.27
241.603	-19.8
241.821	-7.51
242.038	66.22
242.255	25.26
242.472	-21.85
242.689	47.79
242.907	41.64
243.124	96.94
243.341	15.02
243.558	37.55
243.775	-25.94
243.992	8.87
244.209	-30.04
244.426	105.13
244.643	74.41
244.86	2.73
245.078	35.5
245.295	33.45
245.512	74.41
245.729	-36.18
245.946	-17.75
246.163	98.99
246.38	51.88
246.597	39.59
246.814	39.59
247.031	58.03
247.248	4.78
247.464	72.36
247.681	111.27
247.898	-5.46
248.115	72.36
248.332	66.22
248.549	82.6
248.766	123.56
248.983	64.17
249.2	127.66
249.417	82.6
249.633	2.73
249.85	-7.51
250.067	-17.75
250.284	80.55
250.501	78.51
250.717	121.51
250.934	-3.41
251.151	6.83
251.368	2.73
251.585	55.98
251.801	45.74
252.018	58.03
252.235	55.98
252.451	17.07
252.668	4.78
252.885	74.41
253.102	84.65
253.318	84.65
253.535	-19.8
253.752	21.16
253.968	66.22
254.185	49.83
254.401	2.73
254.618	51.88
254.835	31.4
255.051	113.32
255.268	109.22
255.484	23.21
255.701	64.17
255.917	58.03
256.134	80.55
256.351	31.4
256.567	19.11
256.784	90.79
257	6.83
257.217	27.31
257.433	23.21
257.65	115.37
257.866	49.83
258.082	17.07
258.299	19.11
258.515	121.51
258.732	84.65
258.948	60.07
259.165	33.45
259.381	47.79
259.597	-5.46
259.814	51.88
260.03	-1.37
260.246	33.45
260.463	27.31
260.679	88.75
260.895	58.03
261.112	-27.99
261.328	41.64
261.544	101.03
261.761	53.93
261.977	8.87
262.193	10.92
262.409	51.88
262.626	35.5
262.842	47.79
263.058	33.45
263.274	88.75
263.49	51.88
263.707	51.88
263.923	51.88
264.139	-9.56
264.355	58.03
264.571	49.83
264.787	15.02
265.004	23.21
265.22	4.78
265.436	33.45
265.652	-1.37
265.868	96.94
266.084	6.83
266.3	23.21
266.516	-25.94
266.732	25.26
266.948	49.83
267.164	-25.94
267.38	111.27
267.596	58.03
267.812	64.17
268.028	39.59
268.244	49.83
268.46	80.55
268.676	47.79
268.892	98.99
269.108	72.36
269.324	27.31
269.54	23.21
269.756	70.31
269.972	27.31
270.188	-17.75
270.403	53.93
270.619	-9.56
270.835	-17.75
271.051	49.83
271.267	31.4
271.483	49.83
271.698	115.37
271.914	41.64
272.13	-21.85
272.346	23.21
272.562	47.79
272.777	41.64
272.993	66.22
273.209	35.5
273.425	33.45
273.64	84.65
273.856	2.73
274.072	90.79
274.287	49.83
274.503	-66.9
274.719	-25.94
274.934	-15.7
275.15	33.45
275.366	66.22
275.581	49.83
275.797	58.03
276.012	84.65
276.228	17.07
276.444	6.83
276.659	49.83
276.875	31.4
277.09	35.5
277.306	86.7
277.521	15.02
277.737	6.83
277.952	43.69
278.168	23.21
278.383	0.68
278.599	19.11
278.814	55.98
279.03	12.97
279.245	47.79
279.461	92.84
279.676	72.36
279.892	66.22
280.107	92.84
280.322	68.27
280.538	58.03
280.753	88.75
280.969	64.17
281.184	47.79
281.399	101.03
281.615	58.03
281.83	64.17
282.045	-7.51
282.26	12.97
282.476	12.97
282.691	105.13
282.906	37.55
283.122	55.98
283.337	-7.51
283.552	15.02
283.767	29.35
283.983	125.61
284.198	39.59
284.413	21.16
284.628	-25.94
284.843	105.13
285.058	6.83
285.274	96.94
285.489	55.98
285.704	96.94
285.919	-23.89
286.134	39.59
286.349	117.42
286.564	23.21
286.779	148.14
286.995	80.55
287.21	8.87
287.425	27.31
287.64	58.03
287.855	23.21
288.07	23.21
288.285	51.88
288.5	15.02
288.715	68.27
288.93	-15.7
289.145	23.21
289.36	74.41
289.575	33.45
289.79	76.46
290.004	74.41
290.219	96.94
290.434	51.88
290.649	17.07
290.864	6.83
291.079	107.18
291.294	51.88
291.509	17.07
291.724	39.59
291.938	-1.37
292.153	66.22
292.368	-11.61
292.583	76.46
292.798	66.22
293.012	66.22
293.227	6.83
293.442	72.36
293.657	47.79
293.871	47.79
294.086	-7.51
294.301	60.07
294.516	72.36
294.73	0.68
294.945	-13.65
295.16	72.36
295.374	53.93
295.589	66.22
295.804	-40.28
296.018	96.94
296.233	60.07
296.447	23.21
296.662	105.13
296.877	64.17
297.091	31.4
297.306	103.08
297.52	31.4
297.735	27.31
297.949	72.36
298.164	-44.37
298.378	60.07
298.593	80.55
298.807	25.26
299.022	98.99
299.236	137.9
299.451	27.31
299.665	39.59
299.88	31.4
300.094	51.88
300.309	41.64
300.523	150.18
300.737	15.02
300.952	15.02
301.166	31.4
301.381	-1.37
301.595	35.5
301.809	64.17
302.024	-11.61
302.238	-19.8
302.452	96.94
302.667	19.11
302.881	74.41
303.095	117.42
303.309	0.68
303.524	-13.65
303.738	-17.75
303.952	2.73
304.166	41.64
304.381	31.4
304.595	82.6
304.809	101.03
305.023	60.07
305.237	51.88
305.452	19.11
305.666	43.69
305.88	119.46
306.094	31.4
306.308	47.79
306.522	4.78
306.736	141.99
306.95	70.31
307.164	55.98
307.379	47.79
307.593	15.02
307.807	84.65
308.021	12.97
308.235	51.88
308.449	-17.75
308.663	23.21
308.877	115.37
309.091	-40.28
309.305	72.36
309.519	-17.75
309.733	82.6
309.947	-7.51
310.161	55.98
310.374	82.6
310.588	113.32
310.802	51.88
311.016	55.98
311.23	31.4
311.444	-17.75
311.658	66.22
311.872	-1.37
312.085	125.61
312.299	82.6
312.513	72.36
312.727	84.65
312.941	4.78
313.154	72.36
313.368	70.31
313.582	72.36
313.796	29.35
314.009	76.46
314.223	49.83
314.437	35.5
314.651	88.75
314.864	31.4
315.078	2.73
315.292	23.21
315.505	58.03
315.719	35.5
315.933	96.94
316.146	39.59
316.36	6.83
316.573	129.7
316.787	4.78
317.001	80.55
317.214	-58.71
317.428	47.79
317.641	31.4
317.855	-9.56
318.068	123.56
318.282	72.36
318.495	96.94
318.709	51.88
318.922	35.5
319.136	105.13
319.349	82.6
319.563	90.79
319.776	92.84
319.99	23.21
320.203	35.5
320.417	68.27
320.63	15.02
320.843	80.55
321.057	-7.51
321.27	15.02
321.483	80.55
321.697	98.99
321.91	154.28
322.124	60.07
322.337	88.75
322.55	-11.61
322.763	101.03
322.977	62.12
323.19	80.55
323.403	49.83
323.617	39.59
323.83	113.32
324.043	25.26
324.256	19.11
324.469	39.59
324.683	51.88
324.896	101.03
325.109	72.36
325.322	92.84
325.535	76.46
325.748	64.17
325.962	45.74
326.175	58.03
326.388	6.83
326.601	37.55
326.814	31.4
327.027	27.31
327.24	64.17
327.453	-36.18
327.666	39.59
327.879	10.92
328.092	121.51
328.305	55.98
328.518	2.73
328.731	23.21
328.944	19.11
329.157	51.88
329.37	39.59
329.583	76.46
329.796	78.51
330.009	-1.37
330.222	103.08
330.435	10.92
330.648	41.64
330.861	-5.46
331.073	80.55
331.286	25.26
331.499	80.55
331.712	-5.46
331.925	39.59
332.138	62.12
332.35	43.69
332.563	21.16
332.776	47.79
332.989	66.22
333.202	90.79
333.414	72.36
333.627	51.88
333.84	37.55
334.053	121.51
334.265	78.51
334.478	-21.85
334.691	113.32
334.903	72.36
335.116	19.11
335.329	23.21
335.541	88.75
335.754	76.46
335.966	31.4
336.179	72.36
336.392	76.46
336.604	55.98
336.817	15.02
337.029	76.46
337.242	43.69
337.454	51.88
337.667	-9.56
337.88	141.99
338.092	53.93
338.305	80.55
338.517	-13.65
338.729	74.41
338.942	137.9
339.154	-3.41
339.367	60.07
339.579	90.79
339.792	80.55
340.004	115.37
340.217	4.78
340.429	27.31
340.641	19.11
340.854	-7.51
341.066	74.41
341.278	105.13
341.491	166.57
341.703	53.93
341.915	72.36
342.128	133.8
342.34	68.27
342.552	23.21
342.764	2.73
342.977	105.13
343.189	55.98
343.401	127.66
343.613	12.97
343.826	96.94
344.038	55.98
344.25	23.21
344.462	-38.23
344.674	96.94
344.886	39.59
345.099	98.99
345.311	31.4
345.523	84.65
345.735	-13.65
345.947	92.84
346.159	58.03
346.371	101.03
346.583	82.6
346.795	43.69
347.007	117.42
347.219	25.26
347.431	60.07
347.643	129.7
347.855	74.41
348.067	146.09
348.279	25.26
348.491	74.41
348.703	58.03
348.915	113.32
349.127	55.98
349.339	72.36
349.551	74.41
349.763	129.7
349.975	51.88
350.187	111.27
350.399	84.65
350.61	-7.51
350.822	72.36
351.034	113.32
351.246	58.03
351.458	15.02
351.669	15.02
351.881	64.17
352.093	25.26
352.305	51.88
352.517	-21.85
352.728	27.31
352.94	60.07
353.152	72.36
353.363	66.22
353.575	113.32
353.787	152.23
353.999	35.5
354.21	70.31
354.422	76.46
354.633	121.51
354.845	49.83
355.057	72.36
355.268	115.37
355.48	84.65
355.692	10.92
355.903	64.17
356.115	66.22
356.326	39.59
356.538	123.56
356.749	90.79
356.961	68.27
357.172	64.17
357.384	86.7
357.595	115.37
357.807	33.45
358.018	27.31
358.23	-17.75
358.441	137.9
358.653	105.13
358.864	84.65
359.075	101.03
359.287	39.59
359.498	84.65
359.709	105.13
359.921	39.59
360.132	53.93
360.344	-25.94
360.555	109.22
360.766	51.88
360.977	88.75
361.189	111.27
361.4	109.22
361.611	107.18
361.823	37.55
362.034	127.66
362.245	25.26
362.456	68.27
362.667	45.74
362.879	96.94
363.09	17.07
363.301	80.55
363.512	90.79
363.723	82.6
363.935	86.7
364.146	51.88
364.357	60.07
364.568	80.55
364.779	31.4
364.99	101.03
365.201	10.92
365.412	43.69
365.623	37.55
365.834	49.83
366.045	80.55
366.256	90.79
366.467	55.98
366.678	107.18
366.889	105.13
367.1	109.22
367.311	154.28
367.522	98.99
367.733	74.41
367.944	121.51
368.155	43.69
368.366	98.99
368.577	105.13
368.788	88.75
368.999	68.27
369.209	49.83
369.42	96.94
369.631	197.29
369.842	70.31
370.053	27.31
370.264	90.79
370.474	109.22
370.685	90.79
370.896	96.94
371.107	86.7
371.317	88.75
371.528	43.69
371.739	31.4
371.95	88.75
372.16	66.22
372.371	31.4
372.582	82.6
372.792	109.22
373.003	64.17
373.214	121.51
373.424	90.79
373.635	-3.41
373.846	51.88
374.056	101.03
374.267	131.75
374.477	113.32
374.688	-27.99
374.898	60.07
375.109	105.13
375.319	49.83
375.53	90.79
375.74	39.59
375.951	47.79
376.161	84.65
376.372	64.17
376.582	17.07
376.793	92.84
377.003	47.79
377.214	6.83
377.424	158.38
377.635	68.27
377.845	15.02
378.055	133.8
378.266	37.55
378.476	25.26
378.686	64.17
378.897	43.69
379.107	74.41
379.317	82.6
379.528	-17.75
379.738	139.94
379.948	72.36
380.158	101.03
380.369	23.21
380.579	96.94
380.789	51.88
380.999	43.69
381.21	92.84
381.42	84.65
381.63	35.5
381.84	72.36
382.05	80.55
382.261	115.37
382.471	107.18
382.681	78.51
382.891	107.18
383.101	125.61
383.311	39.59
383.521	-1.37
383.731	92.84
383.941	172.71
384.151	84.65
384.361	129.7
384.571	107.18
384.781	39.59
384.991	146.09
385.201	105.13
385.411	88.75
385.621	72.36
385.831	39.59
386.041	117.42
386.251	96.94
386.461	90.79
386.671	72.36
386.881	88.75
387.091	96.94
387.301	41.64
387.511	88.75
387.72	113.32
387.93	43.69
388.14	58.03
388.35	37.55
388.56	121.51
388.769	58.03
388.979	43.69
389.189	144.04
389.399	129.7
389.609	82.6
389.818	86.7
390.028	82.6
390.238	123.56
390.447	55.98
390.657	60.07
390.867	103.08
391.076	76.46
391.286	105.13
391.496	92.84
391.705	113.32
391.915	82.6
392.125	84.65
392.334	76.46
392.544	115.37
392.753	101.03
392.963	129.7
393.172	74.41
393.382	101.03
393.591	244.39
393.801	58.03
394.01	156.33
394.22	137.9
394.429	64.17
394.639	137.9
394.848	88.75
395.058	150.18
395.267	96.94
395.477	182.95
395.686	115.37
395.895	150.18
396.105	158.38
396.314	133.8
396.524	98.99
396.733	43.69
396.942	135.85
397.152	211.62
397.361	199.34
397.57	39.59
397.78	148.14
397.989	141.99
398.198	164.52
398.407	197.29
398.617	129.7
398.826	131.75
399.035	148.14
399.244	154.28
399.453	117.42
399.663	217.77
399.872	178.86
400.081	164.52
400.29	187.05
400.499	160.42
400.708	164.52
400.917	144.04
401.127	139.94
401.336	156.33
401.545	162.47
401.754	260.77
401.963	164.52
402.172	176.81
402.381	154.28
402.59	209.58
402.799	170.66
403.008	244.39
403.217	178.86
403.426	129.7
403.635	152.23
403.844	182.95
404.053	205.48
404.262	187.05
404.471	287.4
404.68	228.01
404.888	260.77
405.097	205.48
405.306	309.93
405.515	219.82
405.724	324.26
405.933	248.49
406.142	354.98
406.35	228.01
406.559	301.73
406.768	340.65
406.977	260.77
407.185	338.6
407.394	279.21
407.603	309.93
407.812	369.32
408.02	332.45
408.229	287.4
408.438	348.84
408.646	322.21
408.855	361.13
409.064	408.23
409.272	434.85
409.481	473.76
409.69	400.04
409.898	441
410.107	516.77
410.315	524.96
410.524	484
410.733	539.3
410.941	481.96
411.15	596.64
411.358	574.11
411.567	621.22
411.775	647.84
411.984	592.55
412.192	688.8
412.401	676.51
412.609	645.79
412.818	854.69
413.026	701.09
413.234	842.4
413.443	776.86
413.651	793.25
413.86	891.55
414.068	926.36
414.276	834.21
414.485	887.45
414.693	991.9
414.901	1131.16
415.11	965.28
415.318	1100.44
415.526	1135.26
415.734	1127.07
415.943	1260.18
416.151	1186.46
416.359	1260.18
416.567	1284.76
416.776	1360.53
416.984	1473.17
417.192	1510.04
417.4	1426.07
417.608	1675.92
417.817	1567.38
418.025	1688.21
418.233	1706.64
418.441	1673.87
418.649	1813.13
418.857	1999.5
419.065	1923.73
419.273	1989.26
419.481	2034.32
419.689	2157.19
419.897	2302.6
420.105	2347.65
420.313	2286.22
420.521	2384.52
420.729	2474.63
420.937	2497.16
421.145	2622.08
421.353	2767.49
421.561	2968.19
421.769	2851.46
421.977	3113.6
422.185	3021.44
422.393	3285.62
422.601	3381.88
422.809	3361.4
423.017	3394.17
423.224	3684.98
423.432	3766.9
423.64	3662.45
423.848	4094.57
424.056	4045.42
424.263	4178.54
424.471	4182.63
424.679	4440.68
424.887	4678.24
425.094	4837.98
425.302	4792.93
425.51	4885.09
425.718	4993.63
425.925	5188.19
426.133	5417.56
426.341	5610.07
426.548	5950.03
426.756	5907.02
426.964	6036.05
427.171	6531.65
427.379	6400.58
427.586	6605.38
427.794	6697.54
428.001	7098.94
428.209	7379.51
428.417	7260.73
428.624	7742
428.832	7830.07
429.039	7713.33
429.247	7664.18
429.454	8446.51
429.662	9071.14
429.869	8469.03
430.076	8837.67
430.284	8690.21
430.491	9230.88
430.699	9529.88
430.906	9726.49
431.114	9800.21
431.321	10185.23
431.528	10484.23
431.736	10906.12
431.943	11518.46
432.15	11168.26
432.358	11176.45
432.565	11950.58
432.772	11876.85
432.979	12478.96
433.187	12628.46
433.394	12769.77
433.601	13461.98
433.808	13814.23
434.016	13578.72
434.223	14191.06
434.43	14854.6
434.637	14541.26
434.844	15419.84
435.052	15872.44
435.259	15845.82
435.466	15901.11
435.673	15874.49
435.88	16566.7
436.087	17439.14
436.294	17566.11
436.501	17199.52
436.708	17506.72
436.915	18295.19
437.122	18819.47
437.329	18878.86
437.537	19530.11
437.743	19806.59
437.95	19779.96
438.157	20595.06
438.364	21107.05
438.571	21582.18
438.778	21401.96
438.985	23628.1
439.192	22448.47
439.399	22966.6
439.606	22606.16
439.813	24148.28
440.02	25538.85
440.227	25014.57
440.433	24807.73
440.64	25387.3
440.847	25729.31
441.054	26114.33
441.261	27586.82
441.467	27261.19
441.674	27973.89
441.881	28918
442.088	28741.88
442.294	28631.29
442.501	29329.64
442.708	29982.95
442.914	31178.96
443.121	32448.7
443.328	31549.64
443.534	33470.64
443.741	32432.32
443.948	32547
444.154	34523.29
444.361	34027.68
444.568	34470.04
444.774	34615.45
444.981	35014.8
445.187	35457.17
445.394	37226.61
445.6	36790.39
445.807	40310.85
446.013	38449.25
446.22	39098.45
446.426	40736.83
446.633	41318.45
446.839	42514.47
447.046	40802.36
447.252	42999.83
447.459	42999.83
447.665	42633.25
447.871	44689.41
448.078	46039.02
448.284	44189.7
448.491	45099
448.697	47566.8
448.903	47888.34
449.11	48535.49
449.316	47505.37
449.522	47697.87
449.728	49614.77
449.935	50032.56
450.141	49866.67
450.347	50890.66
450.553	49295.29
450.76	49985.46
450.966	51859.35
451.172	50919.33
451.378	52522.89
451.584	51494.81
451.791	52512.65
451.997	52055.95
452.203	53100.42
452.409	52842.37
452.615	53026.69
452.821	51216.29
453.027	50522.02
453.233	53036.93
453.44	51511.19
453.646	51869.59
453.852	52170.64
454.058	52692.87
454.264	51464.09
454.47	52389.77
454.676	51283.87
454.882	52891.52
455.088	48048.08
455.294	49170.36
455.5	49913.78
455.705	50450.34
455.911	48664.52
456.117	47679.44
456.323	46991.33
456.529	45113.34
456.735	46845.92
456.941	45610.99
457.147	44914.69
457.352	43331.61
457.558	42786.85
457.764	43091.99
457.97	42037.29
458.176	41586.74
458.381	41510.96
458.587	39665.74
458.793	39745.61
458.999	37650.54
459.204	40118.34
459.41	39018.58
459.616	36903.03
459.821	36804.73
460.027	36667.52
460.233	35817.61
460.438	34089.12
460.644	34650.27
460.85	33161.39
461.055	32450.75
461.261	32235.71
461.466	29880.55
461.672	29061.36
461.878	31197.39
462.083	29057.26
462.289	28424.44
462.494	28551.41
462.7	27308.3
462.905	26495.25
463.111	27314.44
463.316	27574.53
463.522	26648.85
463.727	26708.24
463.932	26931.47
464.138	26659.09
464.343	26685.72
464.549	25788.71
464.754	26798.35
464.959	26675.48
465.165	26056.99
465.37	25073.96
465.575	24508.72
465.781	25475.37
465.986	25688.35
466.191	24770.86
466.397	24092.99
466.602	22985.04
