Data from USB4F104151__30__14-16-32-272.txt Node

Date: Thu Mar 13 14:16:32 EDT 2025
User: louis
Spectrometer: USB4F10415
Trigger mode: 4
Integration Time (sec): 2.000000E-2
Scans to average: 1
Electric dark correction enabled: true
Nonlinearity correction enabled: false
Boxcar width: 0
XAxis mode: Wavelengths
Number of Pixels in Spectrum: 3648
>>>>>Begin Spectral Data<<<<<
178.204	-168.1
178.424	-168.1
178.644	-168.1
178.864	-135.34
179.084	-84.14
179.304	-16.55
179.524	-4.27
179.744	-18.6
179.964	34.64
180.184	24.4
180.404	-14.51
180.624	12.12
180.844	34.64
181.064	-94.38
181.283	40.79
181.503	-69.8
181.723	71.51
181.943	-53.42
182.163	51.03
182.383	-77.99
182.602	42.84
182.822	1.88
183.042	32.6
183.262	-10.41
183.482	16.21
183.701	55.12
183.921	40.79
184.141	30.55
184.361	-20.65
184.58	-8.36
184.8	63.32
185.02	-0.17
185.239	5.97
185.459	28.5
185.679	67.41
185.898	26.45
186.118	22.36
186.338	-0.17
186.557	-18.6
186.777	-37.03
186.997	-12.46
187.216	-45.23
187.436	48.98
187.655	-14.51
187.875	42.84
188.095	69.46
188.314	8.02
188.534	40.79
188.753	81.75
188.973	59.22
189.192	61.27
189.412	-24.75
189.631	-30.89
189.851	-32.94
190.07	73.56
190.29	-14.51
190.509	-8.36
190.729	26.45
190.948	8.02
191.168	171.86
191.387	30.55
191.607	3.93
191.826	-37.03
192.045	-0.17
192.265	3.93
192.484	-45.23
192.704	75.6
192.923	-45.23
193.142	40.79
193.362	-32.94
193.581	65.36
193.8	34.64
194.02	10.07
194.239	59.22
194.458	65.36
194.678	-16.55
194.897	-16.55
195.116	48.98
195.335	18.26
195.555	-20.65
195.774	24.4
195.993	91.99
196.212	-41.13
196.432	16.21
196.651	18.26
196.87	57.17
197.089	57.17
197.308	-37.03
197.528	32.6
197.747	-65.71
197.966	24.4
198.185	51.03
198.404	-4.27
198.623	36.69
198.842	20.31
199.062	53.08
199.281	-20.65
199.5	57.17
199.719	44.88
199.938	-24.75
200.157	26.45
200.376	30.55
200.595	3.93
200.814	-22.7
201.033	48.98
201.252	38.74
201.471	94.04
201.69	48.98
201.909	28.5
202.128	81.75
202.347	81.75
202.566	73.56
202.785	-2.22
203.004	-12.46
203.223	102.23
203.442	71.51
203.661	42.84
203.879	-24.75
204.098	67.41
204.317	-8.36
204.536	57.17
204.755	8.02
204.974	42.84
205.193	-4.27
205.411	26.45
205.63	48.98
205.849	-4.27
206.068	-28.84
206.287	1.88
206.505	3.93
206.724	44.88
206.943	24.4
207.162	28.5
207.381	42.84
207.599	12.12
207.818	20.31
208.037	30.55
208.255	-12.46
208.474	3.93
208.693	57.17
208.911	32.6
209.13	59.22
209.349	59.22
209.567	-24.75
209.786	38.74
210.005	24.4
210.223	34.64
210.442	53.08
210.661	73.56
210.879	38.74
211.098	28.5
211.316	51.03
211.535	89.94
211.753	-57.51
211.972	83.8
212.191	16.21
212.409	65.36
212.628	20.31
212.846	-53.42
213.065	61.27
213.283	83.8
213.502	-30.89
213.72	75.6
213.938	32.6
214.157	42.84
214.375	83.8
214.594	24.4
214.812	30.55
215.031	59.22
215.249	-4.27
215.467	-37.03
215.686	122.71
215.904	36.69
216.122	-20.65
216.341	116.56
216.559	-14.51
216.778	-8.36
216.996	81.75
217.214	57.17
217.432	-57.51
217.651	-10.41
217.869	5.97
218.087	28.5
218.306	-55.47
218.524	-8.36
218.742	14.17
218.96	40.79
219.179	8.02
219.397	16.21
219.615	114.52
219.833	143.19
220.051	32.6
220.27	44.88
220.488	46.93
220.706	28.5
220.924	61.27
221.142	46.93
221.36	57.17
221.578	40.79
221.796	94.04
222.015	12.12
222.233	5.97
222.451	32.6
222.669	-30.89
222.887	36.69
223.105	-75.95
223.323	8.02
223.541	-30.89
223.759	73.56
223.977	73.56
224.195	73.56
224.413	57.17
224.631	87.89
224.849	67.41
225.067	34.64
225.285	-24.75
225.503	32.6
225.721	10.07
225.939	-6.31
226.157	28.5
226.375	143.19
226.592	22.36
226.81	114.52
227.028	34.64
227.246	51.03
227.464	-2.22
227.682	8.02
227.9	-41.13
228.117	-22.7
228.335	-65.71
228.553	89.94
228.771	65.36
228.989	-2.22
229.206	8.02
229.424	-12.46
229.642	32.6
229.86	51.03
230.077	-4.27
230.295	14.17
230.513	32.6
230.731	5.97
230.948	34.64
231.166	48.98
231.384	10.07
231.601	48.98
231.819	36.69
232.037	-8.36
232.254	57.17
232.472	-12.46
232.689	40.79
232.907	26.45
233.125	18.26
233.342	-39.08
233.56	-39.08
233.777	-6.31
233.995	-8.36
234.213	8.02
234.43	24.4
234.648	-14.51
234.865	1.88
235.083	-6.31
235.3	79.7
235.518	81.75
235.735	57.17
235.953	44.88
236.17	16.21
236.388	34.64
236.605	8.02
236.822	24.4
237.04	40.79
237.257	-14.51
237.475	-4.27
237.692	18.26
237.909	114.52
238.127	5.97
238.344	69.46
238.562	40.79
238.779	-10.41
238.996	-20.65
239.214	18.26
239.431	44.88
239.648	12.12
239.865	40.79
240.083	-2.22
240.3	-49.32
240.517	-10.41
240.735	-0.17
240.952	44.88
241.169	28.5
241.386	16.21
241.603	69.46
241.821	-65.71
242.038	42.84
242.255	10.07
242.472	-2.22
242.689	116.56
242.907	22.36
243.124	42.84
243.341	18.26
243.558	-8.36
243.775	1.88
243.992	-32.94
244.209	51.03
244.426	81.75
244.643	59.22
244.86	28.5
245.078	32.6
245.295	59.22
245.512	-8.36
245.729	36.69
245.946	106.32
246.163	75.6
246.38	-8.36
246.597	20.31
246.814	-28.84
247.031	26.45
247.248	65.36
247.464	40.79
247.681	38.74
247.898	59.22
248.115	40.79
248.332	-0.17
248.549	48.98
248.766	100.18
248.983	48.98
249.2	51.03
249.417	18.26
249.633	-22.7
249.85	32.6
250.067	32.6
250.284	32.6
250.501	53.08
250.717	8.02
250.934	67.41
251.151	34.64
251.368	-6.31
251.585	51.03
251.801	10.07
252.018	-73.9
252.235	42.84
252.451	8.02
252.668	14.17
252.885	28.5
253.102	65.36
253.318	1.88
253.535	-0.17
253.752	61.27
253.968	34.64
254.185	32.6
254.401	51.03
254.618	16.21
254.835	-0.17
255.051	71.51
255.268	36.69
255.484	102.23
255.701	20.31
255.917	18.26
256.134	-12.46
256.351	75.6
256.567	-16.55
256.784	-16.55
257	-88.23
257.217	57.17
257.433	48.98
257.65	44.88
257.866	-26.79
258.082	77.65
258.299	-30.89
258.515	59.22
258.732	67.41
258.948	12.12
259.165	28.5
259.381	-32.94
259.597	-6.31
259.814	24.4
260.03	-6.31
260.246	46.93
260.463	83.8
260.679	-20.65
260.895	22.36
261.112	32.6
261.328	-4.27
261.544	1.88
261.761	83.8
261.977	32.6
262.193	-71.85
262.409	51.03
262.626	51.03
262.842	-16.55
263.058	-20.65
263.274	57.17
263.49	-37.03
263.707	24.4
263.923	-30.89
264.139	26.45
264.355	8.02
264.571	3.93
264.787	8.02
265.004	65.36
265.22	83.8
265.436	65.36
265.652	102.23
265.868	22.36
266.084	59.22
266.3	10.07
266.516	1.88
266.732	65.36
266.948	57.17
267.164	8.02
267.38	-2.22
267.596	-32.94
267.812	16.21
268.028	-6.31
268.244	-24.75
268.46	-34.99
268.676	-41.13
268.892	67.41
269.108	30.55
269.324	-49.32
269.54	-0.17
269.756	36.69
269.972	-2.22
270.188	28.5
270.403	44.88
270.619	3.93
270.835	44.88
271.051	-12.46
271.267	10.07
271.483	-8.36
271.698	-14.51
271.914	51.03
272.13	98.13
272.346	5.97
272.562	3.93
272.777	18.26
272.993	-12.46
273.209	-24.75
273.425	-32.94
273.64	26.45
273.856	67.41
274.072	34.64
274.287	-14.51
274.503	18.26
274.719	91.99
274.934	1.88
275.15	16.21
275.366	-51.37
275.581	63.32
275.797	98.13
276.012	-32.94
276.228	59.22
276.444	-8.36
276.659	65.36
276.875	-0.17
277.09	1.88
277.306	16.21
277.521	1.88
277.737	57.17
277.952	16.21
278.168	8.02
278.383	51.03
278.599	-0.17
278.814	63.32
279.03	26.45
279.245	91.99
279.461	-18.6
279.676	40.79
279.892	73.56
280.107	-0.17
280.322	-55.47
280.538	-37.03
280.753	18.26
280.969	26.45
281.184	30.55
281.399	55.12
281.615	8.02
281.83	1.88
282.045	-37.03
282.26	69.46
282.476	59.22
282.691	-30.89
282.906	75.6
283.122	-49.32
283.337	53.08
283.552	83.8
283.767	48.98
283.983	57.17
284.198	8.02
284.413	61.27
284.628	57.17
284.843	30.55
285.058	8.02
285.274	-14.51
285.489	48.98
285.704	12.12
285.919	-30.89
286.134	-8.36
286.349	10.07
286.564	-8.36
286.779	57.17
286.995	18.26
287.21	-22.7
287.425	59.22
287.64	32.6
287.855	32.6
288.07	3.93
288.285	38.74
288.5	32.6
288.715	98.13
288.93	48.98
289.145	12.12
289.36	100.18
289.575	-73.9
289.79	63.32
290.004	-8.36
290.219	30.55
290.434	-24.75
290.649	8.02
290.864	67.41
291.079	77.65
291.294	10.07
291.509	46.93
291.724	89.94
291.938	-55.47
292.153	-24.75
292.368	57.17
292.583	69.46
292.798	46.93
293.012	53.08
293.227	-8.36
293.442	91.99
293.657	38.74
293.871	65.36
294.086	1.88
294.301	79.7
294.516	69.46
294.73	-0.17
294.945	-14.51
295.16	63.32
295.374	73.56
295.589	51.03
295.804	16.21
296.018	18.26
296.233	61.27
296.447	24.4
296.662	48.98
296.877	40.79
297.091	36.69
297.306	57.17
297.52	12.12
297.735	8.02
297.949	32.6
298.164	-6.31
298.378	40.79
298.593	16.21
298.807	8.02
299.022	-0.17
299.236	42.84
299.451	-45.23
299.665	18.26
299.88	79.7
300.094	-12.46
300.309	10.07
300.523	38.74
300.737	48.98
300.952	-14.51
301.166	89.94
301.381	-12.46
301.595	26.45
301.809	53.08
302.024	-14.51
302.238	8.02
302.452	51.03
302.667	-22.7
302.881	55.12
303.095	85.84
303.309	24.4
303.524	57.17
303.738	5.97
303.952	-12.46
304.166	-2.22
304.381	-55.47
304.595	12.12
304.809	-6.31
305.023	59.22
305.237	-20.65
305.452	40.79
305.666	67.41
305.88	40.79
306.094	65.36
306.308	89.94
306.522	100.18
306.736	40.79
306.95	32.6
307.164	73.56
307.379	-0.17
307.593	85.84
307.807	57.17
308.021	67.41
308.235	100.18
308.449	16.21
308.663	8.02
308.877	67.41
309.091	8.02
309.305	36.69
309.519	-30.89
309.733	48.98
309.947	77.65
310.161	42.84
310.374	75.6
310.588	83.8
310.802	-77.99
311.016	24.4
311.23	3.93
311.444	-30.89
311.658	16.21
311.872	-12.46
312.085	40.79
312.299	40.79
312.513	48.98
312.727	63.32
312.941	-71.85
313.154	32.6
313.368	89.94
313.582	32.6
313.796	24.4
314.009	53.08
314.223	12.12
314.437	24.4
314.651	61.27
314.864	-6.31
315.078	-41.13
315.292	-8.36
315.505	36.69
315.719	65.36
315.933	57.17
316.146	26.45
316.36	-61.61
316.573	42.84
316.787	-65.71
317.001	26.45
317.214	28.5
317.428	65.36
317.641	-6.31
317.855	57.17
318.068	32.6
318.282	48.98
318.495	8.02
318.709	10.07
318.922	-8.36
319.136	120.66
319.349	24.4
319.563	-49.32
319.776	40.79
319.99	-4.27
320.203	98.13
320.417	85.84
320.63	106.32
320.843	-0.17
321.057	42.84
321.27	-8.36
321.483	36.69
321.697	-16.55
321.91	-12.46
322.124	36.69
322.337	89.94
322.55	34.64
322.763	8.02
322.977	40.79
323.19	-98.47
323.403	16.21
323.617	26.45
323.83	48.98
324.043	28.5
324.256	-45.23
324.469	24.4
324.683	69.46
324.896	-0.17
325.109	-41.13
325.322	51.03
325.535	63.32
325.748	81.75
325.962	53.08
326.175	32.6
326.388	24.4
326.601	91.99
326.814	51.03
327.027	-6.31
327.24	102.23
327.453	-0.17
327.666	8.02
327.879	75.6
328.092	112.47
328.305	40.79
328.518	24.4
328.731	1.88
328.944	14.17
329.157	59.22
329.37	32.6
329.583	149.33
329.796	16.21
330.009	-14.51
330.222	-16.55
330.435	57.17
330.648	42.84
330.861	48.98
331.073	3.93
331.286	59.22
331.499	-24.75
331.712	-16.55
331.925	59.22
332.138	-37.03
332.35	44.88
332.563	-65.71
332.776	-22.7
332.989	16.21
333.202	18.26
333.414	38.74
333.627	57.17
333.84	106.32
334.053	36.69
334.265	-32.94
334.478	106.32
334.691	-61.61
334.903	12.12
335.116	22.36
335.329	89.94
335.541	5.97
335.754	94.04
335.966	53.08
336.179	65.36
336.392	114.52
336.604	28.5
336.817	89.94
337.029	16.21
337.242	28.5
337.454	139.09
337.667	28.5
337.88	81.75
338.092	-24.75
338.305	12.12
338.517	10.07
338.729	44.88
338.942	28.5
339.154	-20.65
339.367	24.4
339.579	32.6
339.792	32.6
340.004	-71.85
340.217	-16.55
340.429	18.26
340.641	-18.6
340.854	3.93
341.066	-28.84
341.278	94.04
341.491	96.08
341.703	44.88
341.915	-4.27
342.128	77.65
342.34	73.56
342.552	-26.79
342.764	-0.17
342.977	10.07
343.189	73.56
343.401	14.17
343.613	24.4
343.826	12.12
344.038	-37.03
344.25	40.79
344.462	24.4
344.674	46.93
344.886	18.26
345.099	59.22
345.311	44.88
345.523	34.64
345.735	-12.46
345.947	34.64
346.159	18.26
346.371	57.17
346.583	67.41
346.795	94.04
347.007	42.84
347.219	48.98
347.431	34.64
347.643	-22.7
347.855	-0.17
348.067	75.6
348.279	-41.13
348.491	75.6
348.703	-24.75
348.915	48.98
349.127	48.98
349.339	-24.75
349.551	40.79
349.763	42.84
349.975	51.03
350.187	-16.55
350.399	69.46
350.61	10.07
350.822	-0.17
351.034	26.45
351.246	44.88
351.458	46.93
351.669	94.04
351.881	-0.17
352.093	98.13
352.305	81.75
352.517	20.31
352.728	-14.51
352.94	32.6
353.152	53.08
353.363	-0.17
353.575	77.65
353.787	94.04
353.999	-41.13
354.21	75.6
354.422	20.31
354.633	-10.41
354.845	8.02
355.057	18.26
355.268	-6.31
355.48	40.79
355.692	-0.17
355.903	14.17
356.115	40.79
356.326	-73.9
356.538	-24.75
356.749	69.46
356.961	48.98
357.172	20.31
357.384	65.36
357.595	57.17
357.807	-32.94
358.018	36.69
358.23	57.17
358.441	32.6
358.653	81.75
358.864	-30.89
359.075	83.8
359.287	34.64
359.498	16.21
359.709	-32.94
359.921	-6.31
360.132	55.12
360.344	36.69
360.555	24.4
360.766	24.4
360.977	38.74
361.189	12.12
361.4	85.84
361.611	48.98
361.823	79.7
362.034	40.79
362.245	46.93
362.456	69.46
362.667	-20.65
362.879	28.5
363.09	75.6
363.301	40.79
363.512	18.26
363.723	30.55
363.935	32.6
364.146	85.84
364.357	14.17
364.568	30.55
364.779	-8.36
364.99	98.13
365.201	-2.22
365.412	89.94
365.623	69.46
365.834	-24.75
366.045	24.4
366.256	24.4
366.467	61.27
366.678	5.97
366.889	116.56
367.1	-8.36
367.311	122.71
367.522	-0.17
367.733	24.4
367.944	51.03
368.155	1.88
368.366	40.79
368.577	36.69
368.788	73.56
368.999	28.5
369.209	26.45
369.42	116.56
369.631	61.27
369.842	10.07
370.053	32.6
370.264	104.28
370.474	40.79
370.685	59.22
370.896	71.51
371.107	81.75
371.317	124.76
371.528	30.55
371.739	51.03
371.95	38.74
372.16	36.69
372.371	34.64
372.582	1.88
372.792	8.02
373.003	57.17
373.214	40.79
373.424	40.79
373.635	8.02
373.846	77.65
374.056	18.26
374.267	87.89
374.477	100.18
374.688	53.08
374.898	61.27
375.109	89.94
375.319	26.45
375.53	40.79
375.74	53.08
375.951	51.03
376.161	61.27
376.372	48.98
376.582	12.12
376.793	71.51
377.003	10.07
377.214	16.21
377.424	40.79
377.635	40.79
377.845	-6.31
378.055	-2.22
378.266	-22.7
378.476	38.74
378.686	139.09
378.897	87.89
379.107	18.26
379.317	106.32
379.528	-4.27
379.738	81.75
379.948	48.98
380.158	40.79
380.369	51.03
380.579	10.07
380.789	48.98
380.999	69.46
381.21	98.13
381.42	44.88
381.63	120.66
381.84	16.21
382.05	96.08
382.261	77.65
382.471	73.56
382.681	-41.13
382.891	81.75
383.101	69.46
383.311	-16.55
383.521	20.31
383.731	81.75
383.941	73.56
384.151	10.07
384.361	46.93
384.571	85.84
384.781	20.31
384.991	89.94
385.201	143.19
385.411	36.69
385.621	46.93
385.831	85.84
386.041	14.17
386.251	-24.75
386.461	141.14
386.671	81.75
386.881	122.71
387.091	85.84
387.301	51.03
387.511	-43.18
387.72	73.56
387.93	116.56
388.14	8.02
388.35	40.79
388.56	63.32
388.769	32.6
388.979	36.69
389.189	48.98
389.399	85.84
389.609	40.79
389.818	81.75
390.028	48.98
390.238	106.32
390.447	-24.75
390.657	96.08
390.867	-16.55
391.076	57.17
391.286	77.65
391.496	73.56
391.705	34.64
391.915	73.56
392.125	44.88
392.334	73.56
392.544	91.99
392.753	139.09
392.963	-37.03
393.172	67.41
393.382	55.12
393.591	73.56
393.801	5.97
394.01	102.23
394.22	18.26
394.429	122.71
394.639	48.98
394.848	75.6
395.058	34.64
395.267	12.12
395.477	67.41
395.686	83.8
395.895	91.99
396.105	124.76
396.314	28.5
396.524	120.66
396.733	53.08
396.942	44.88
397.152	77.65
397.361	98.13
397.57	42.84
397.78	81.75
397.989	124.76
398.198	122.71
398.407	59.22
398.617	40.79
398.826	44.88
399.035	65.36
399.244	100.18
399.453	65.36
399.663	114.52
399.872	122.71
400.081	30.55
400.29	81.75
400.499	130.9
400.708	40.79
400.917	94.04
401.127	61.27
401.336	65.36
401.545	94.04
401.754	81.75
401.963	141.14
402.172	81.75
402.381	100.18
402.59	98.13
402.799	91.99
403.008	157.52
403.217	116.56
403.426	114.52
403.635	163.67
403.844	124.76
404.053	51.03
404.262	106.32
404.471	155.47
404.68	104.28
404.888	96.08
405.097	91.99
405.306	116.56
405.515	204.63
405.724	34.64
405.933	196.43
406.142	147.28
406.35	132.95
406.559	124.76
406.768	204.63
406.977	247.63
407.185	106.32
407.394	147.28
407.603	163.67
407.812	196.43
408.02	304.98
408.229	288.59
408.438	155.47
408.646	159.57
408.855	255.83
409.064	165.71
409.272	239.44
409.481	270.16
409.69	272.21
409.898	223.06
410.107	311.12
410.315	286.54
410.524	325.46
410.733	284.5
410.941	358.22
411.15	284.5
411.358	317.26
411.567	313.17
411.775	393.04
411.984	296.78
412.192	393.04
412.401	438.09
412.609	401.23
412.818	470.86
413.026	384.85
413.234	468.81
413.443	347.98
413.651	417.61
413.86	507.73
414.068	491.34
414.276	536.4
414.485	470.86
414.693	493.39
414.901	606.03
415.11	659.28
415.318	614.22
415.526	655.18
415.734	675.66
415.943	665.42
416.151	798.54
416.359	659.28
416.567	683.85
416.776	749.39
416.984	849.74
417.192	816.97
417.4	882.5
417.608	835.4
417.817	913.22
418.025	995.14
418.233	984.9
418.441	1027.91
418.649	1105.73
418.857	1058.63
419.065	1085.25
419.273	1152.84
419.481	1156.93
419.689	1242.95
419.897	1236.8
420.105	1310.53
420.313	1404.74
420.521	1355.58
420.729	1363.78
420.937	1433.41
421.145	1546.05
421.353	1695.55
421.561	1658.68
421.769	1673.02
421.977	1756.99
422.185	1699.64
422.393	1920.82
422.601	1984.31
422.809	2041.65
423.017	1902.39
423.224	1912.63
423.432	2207.54
423.64	2129.72
423.848	2293.55
424.056	2305.84
424.263	2389.81
424.471	2424.62
424.679	2467.63
424.887	2627.37
425.094	2731.82
425.302	2680.62
425.51	2760.49
425.718	2940.71
425.925	2838.31
426.133	3069.73
426.341	3256.1
426.548	3323.68
426.756	3415.84
426.964	3489.57
427.171	3522.34
427.379	3675.93
427.586	3802.91
427.794	3819.29
428.001	3954.46
428.209	4290.32
428.417	4169.49
428.624	4540.18
428.832	4554.51
429.039	4349.71
429.247	4433.68
429.454	4960.01
429.662	4970.25
429.869	4716.3
430.076	5146.37
430.284	4992.78
430.491	5267.2
430.699	5543.68
430.906	5498.63
431.114	5570.3
431.321	5752.57
431.528	5975.8
431.736	6231.8
431.943	6602.48
432.15	6299.38
432.358	6506.23
432.565	6825.71
432.772	6881
432.979	6993.64
433.187	7167.72
433.394	7116.52
433.601	7851.74
433.808	7589.6
434.016	7798.49
434.223	8081.11
434.43	8484.56
434.637	8464.08
434.844	8845.01
435.052	9117.39
435.259	9035.47
435.466	9037.52
435.673	8988.36
435.88	9490.12
436.087	9922.24
436.294	9985.72
436.501	9799.36
436.708	10139.32
436.915	10499.77
437.122	10845.87
437.329	10690.23
437.537	11284.14
437.743	11476.65
437.95	11280.04
438.157	11947.68
438.364	12072.61
438.571	12361.37
438.778	12232.35
438.985	13317.77
439.192	12895.89
439.399	13155.98
439.606	12897.94
439.813	13749.89
440.02	14466.68
440.227	14272.12
440.433	13946.5
440.64	14771.83
440.847	14392.95
441.054	14952.05
441.261	15730.28
441.467	15808.1
441.674	16227.93
441.881	16399.96
442.088	16653.91
442.294	16074.34
442.501	16823.89
442.708	17026.64
442.914	17612.36
443.121	18791.99
443.328	18118.21
443.534	19402.29
443.741	18884.15
443.948	18316.86
444.154	19818.02
444.361	19744.3
444.568	19797.54
444.774	19555.88
444.981	20168.23
445.187	20579.87
445.394	21589.52
445.6	21427.73
445.807	23420.4
446.013	22484.48
446.22	22492.67
446.426	23498.22
446.633	23574
446.839	24638.94
447.046	23483.89
447.252	24956.38
447.459	24757.72
447.665	24464.86
447.871	25759.18
448.078	26820.03
448.284	25617.87
448.491	26684.86
448.697	27268.53
448.903	27940.27
449.11	28147.11
449.316	27557.3
449.522	28044.71
449.728	28880.28
449.935	28683.68
450.141	29097.37
450.347	29531.54
450.553	29074.84
450.76	28943.77
450.966	29676.94
451.172	29672.85
451.378	30533
451.584	29691.28
451.791	30694.78
451.997	30281.1
452.203	30836.09
452.409	31036.8
452.615	30643.59
452.821	29250.97
453.027	29197.72
453.233	30526.85
453.44	29480.34
453.646	29678.99
453.852	29851.02
454.058	30604.67
454.264	29525.39
454.47	30287.24
454.676	29150.62
454.882	30498.18
455.088	27631.02
455.294	28177.83
455.5	28517.79
455.705	28532.13
455.911	27663.79
456.117	27002.3
456.323	27088.31
456.529	25433.55
456.735	26607.04
456.941	25931.21
457.147	25304.53
457.352	24610.27
457.558	24335.84
457.764	24651.23
457.97	24018.41
458.176	23461.36
458.381	23182.84
458.587	22273.54
458.793	22234.63
458.999	20958.74
459.204	22885.88
459.41	21929.48
459.616	20688.41
459.821	20428.32
460.027	20661.79
460.233	20100.64
460.438	19551.79
460.644	19602.99
460.85	18386.49
461.055	18251.33
461.261	18071.11
461.466	16887.38
461.672	16266.85
461.878	17440.33
462.083	16377.44
462.289	16004.71
462.494	15883.87
462.7	15142.51
462.905	14911.09
463.111	15287.92
463.316	15193.71
463.522	14923.38
463.727	14810.74
463.932	15140.46
464.138	14933.62
464.343	14997.1
464.549	14198.4
464.754	14947.95
464.959	14790.26
465.165	14616.18
465.37	14220.92
465.575	13790.85
465.781	14476.92
465.986	14491.26
466.191	13756.04
466.397	13510.28
466.602	12906.13
466.807	13534.85
467.012	13393.54
467.218	13295.24
467.423	12983.95
467.628	13307.53
467.833	13624.97
