Data from USB4F104151__70__14-17-23-173.txt Node

Date: Thu Mar 13 14:17:23 EDT 2025
User: louis
Spectrometer: USB4F10415
Trigger mode: 4
Integration Time (sec): 2.000000E-2
Scans to average: 1
Electric dark correction enabled: true
Nonlinearity correction enabled: false
Boxcar width: 0
XAxis mode: Wavelengths
Number of Pixels in Spectrum: 3648
>>>>>Begin Spectral Data<<<<<
178.204	-74.92
178.424	-74.92
178.644	-74.92
178.864	-58.54
179.084	-101.55
179.304	-42.15
179.524	-11.43
179.744	0.85
179.964	43.86
180.184	-29.87
180.404	-68.78
180.624	52.05
180.844	35.67
181.064	-56.49
181.283	15.19
181.503	7
181.723	54.1
181.943	29.52
182.163	52.05
182.383	-7.34
182.602	60.24
182.822	52.05
183.042	68.44
183.262	-17.58
183.482	13.14
183.701	45.91
183.921	50
184.141	43.86
184.361	62.29
184.58	-21.67
184.8	21.33
185.02	-9.39
185.239	11.09
185.459	41.81
185.679	-13.48
185.898	25.43
186.118	11.09
186.338	-1.19
186.557	43.86
186.777	17.24
186.997	19.29
187.216	37.72
187.436	54.1
187.655	56.15
187.875	78.68
188.095	45.91
188.314	47.96
188.534	70.48
188.753	-25.77
188.973	-13.48
189.192	25.43
189.412	-15.53
189.631	19.29
189.851	72.53
190.07	117.59
190.29	-29.87
190.509	19.29
190.729	62.29
190.948	72.53
191.168	115.54
191.387	52.05
191.607	13.14
191.826	101.2
192.045	-9.39
192.265	-19.63
192.484	-5.29
192.704	80.72
192.923	-76.97
193.142	166.74
193.362	52.05
193.581	29.52
193.8	4.95
194.02	-29.87
194.239	62.29
194.458	-3.24
194.678	-15.53
194.897	2.9
195.116	23.38
195.335	-1.19
195.555	19.29
195.774	-54.44
195.993	52.05
196.212	105.3
196.432	-17.58
196.651	54.1
196.87	-7.34
197.089	39.76
197.308	72.53
197.528	23.38
197.747	-36.01
197.966	7
198.185	52.05
198.404	-13.48
198.623	25.43
198.842	64.34
199.062	45.91
199.281	-19.63
199.5	2.9
199.719	19.29
199.938	19.29
200.157	68.44
200.376	45.91
200.595	-21.67
200.814	-9.39
201.033	7
201.252	93.01
201.471	82.77
201.69	21.33
201.909	-29.87
202.128	19.29
202.347	64.34
202.566	-5.29
202.785	27.48
203.004	-11.43
203.223	37.72
203.442	-5.29
203.661	60.24
203.879	15.19
204.098	37.72
204.317	39.76
204.536	68.44
204.755	-29.87
204.974	74.58
205.193	47.96
205.411	64.34
205.63	23.38
205.849	39.76
206.068	-23.72
206.287	117.59
206.505	35.67
206.724	-9.39
206.943	7
207.162	-1.19
207.381	-11.43
207.599	86.87
207.818	72.53
208.037	-79.02
208.255	-13.48
208.474	19.29
208.693	15.19
208.911	88.92
209.13	68.44
209.349	27.48
209.567	-13.48
209.786	68.44
210.005	-3.24
210.223	41.81
210.442	-5.29
210.661	72.53
210.879	84.82
211.098	35.67
211.316	-9.39
211.535	62.29
211.753	-23.72
211.972	-1.19
212.191	31.57
212.409	-33.96
212.628	58.2
212.846	-21.67
213.065	-15.53
213.283	23.38
213.502	4.95
213.72	86.87
213.938	64.34
214.157	21.33
214.375	35.67
214.594	-36.01
214.812	66.39
215.031	62.29
215.249	29.52
215.467	21.33
215.686	-5.29
215.904	62.29
216.122	-17.58
216.341	68.44
216.559	19.29
216.778	-21.67
216.996	-7.34
217.214	-5.29
217.432	35.67
217.651	-54.44
217.869	-5.29
218.087	-36.01
218.306	19.29
218.524	31.57
218.742	35.67
218.96	39.76
219.179	64.34
219.397	43.86
219.615	43.86
219.833	33.62
220.051	-1.19
220.27	52.05
220.488	-3.24
220.706	117.59
220.924	56.15
221.142	-42.15
221.36	50
221.578	62.29
221.796	21.33
222.015	-31.91
222.233	2.9
222.451	-25.77
222.669	33.62
222.887	29.52
223.105	2.9
223.323	-3.24
223.541	-29.87
223.759	9.05
223.977	-29.87
224.195	103.25
224.413	31.57
224.631	-17.58
224.849	-29.87
225.067	95.06
225.285	27.48
225.503	-17.58
225.721	-66.73
225.939	7
226.157	84.82
226.375	109.4
226.592	17.24
226.81	13.14
227.028	54.1
227.246	21.33
227.464	76.63
227.682	-21.67
227.9	60.24
228.117	72.53
228.335	-13.48
228.553	84.82
228.771	29.52
228.989	93.01
229.206	-58.54
229.424	-5.29
229.642	-13.48
229.86	17.24
230.077	-33.96
230.295	-5.29
230.513	-9.39
230.731	47.96
230.948	86.87
231.166	70.48
231.384	-42.15
231.601	37.72
231.819	-21.67
232.037	-11.43
232.254	-27.82
232.472	27.48
232.689	-46.25
232.907	56.15
233.125	70.48
233.342	43.86
233.56	45.91
233.777	23.38
233.995	-15.53
234.213	19.29
234.43	-5.29
234.648	29.52
234.865	35.67
235.083	23.38
235.3	-9.39
235.518	45.91
235.735	25.43
235.953	7
236.17	-66.73
236.388	90.96
236.605	-7.34
236.822	-11.43
237.04	-21.67
237.257	33.62
237.475	-27.82
237.692	52.05
237.909	93.01
238.127	4.95
238.344	19.29
238.562	7
238.779	-97.45
238.996	19.29
239.214	4.95
239.431	72.53
239.648	-38.06
239.865	13.14
240.083	33.62
240.3	-36.01
240.517	29.52
240.735	-5.29
240.952	11.09
241.169	25.43
241.386	-3.24
241.603	-1.19
241.821	-1.19
242.038	84.82
242.255	66.39
242.472	0.85
242.689	-13.48
242.907	60.24
243.124	31.57
243.341	86.87
243.558	-11.43
243.775	68.44
243.992	19.29
244.209	13.14
244.426	21.33
244.643	35.67
244.86	25.43
245.078	52.05
245.295	-38.06
245.512	-54.44
245.729	35.67
245.946	45.91
246.163	66.39
246.38	-29.87
246.597	-11.43
246.814	11.09
247.031	56.15
247.248	31.57
247.464	50
247.681	15.19
247.898	103.25
248.115	101.2
248.332	-33.96
248.549	43.86
248.766	62.29
248.983	68.44
249.2	70.48
249.417	54.1
249.633	19.29
249.85	62.29
250.067	64.34
250.284	33.62
250.501	17.24
250.717	11.09
250.934	45.91
251.151	27.48
251.368	-54.44
251.585	19.29
251.801	-15.53
252.018	19.29
252.235	80.72
252.451	-36.01
252.668	19.29
252.885	35.67
253.102	17.24
253.318	-42.15
253.535	-27.82
253.752	9.05
253.968	13.14
254.185	-15.53
254.401	72.53
254.618	2.9
254.835	39.76
255.051	127.83
255.268	70.48
255.484	-27.82
255.701	90.96
255.917	-5.29
256.134	-33.96
256.351	-25.77
256.567	2.9
256.784	-60.59
257	-5.29
257.217	58.2
257.433	31.57
257.65	27.48
257.866	54.1
258.082	-5.29
258.299	-56.49
258.515	7
258.732	70.48
258.948	-29.87
259.165	52.05
259.381	-21.67
259.597	7
259.814	27.48
260.03	4.95
260.246	62.29
260.463	19.29
260.679	-5.29
260.895	60.24
261.112	47.96
261.328	-5.29
261.544	82.77
261.761	29.52
261.977	41.81
262.193	9.05
262.409	19.29
262.626	2.9
262.842	-5.29
263.058	-81.07
263.274	68.44
263.49	27.48
263.707	43.86
263.923	11.09
264.139	-31.91
264.355	74.58
264.571	21.33
264.787	17.24
265.004	95.06
265.22	-5.29
265.436	82.77
265.652	43.86
265.868	-13.48
266.084	43.86
266.3	-70.83
266.516	0.85
266.732	39.76
266.948	45.91
267.164	54.1
267.38	23.38
267.596	60.24
267.812	21.33
268.028	33.62
268.244	-9.39
268.46	-9.39
268.676	33.62
268.892	-50.35
269.108	37.72
269.324	41.81
269.54	2.9
269.756	78.68
269.972	-27.82
270.188	35.67
270.403	-9.39
270.619	-11.43
270.835	47.96
271.051	-5.29
271.267	-15.53
271.483	27.48
271.698	19.29
271.914	33.62
272.13	31.57
272.346	76.63
272.562	-27.82
272.777	142.16
272.993	19.29
273.209	11.09
273.425	-3.24
273.64	68.44
273.856	68.44
274.072	-29.87
274.287	37.72
274.503	-25.77
274.719	23.38
274.934	29.52
275.15	11.09
275.366	68.44
275.581	-1.19
275.797	62.29
276.012	25.43
276.228	15.19
276.444	105.3
276.659	142.16
276.875	-11.43
277.09	68.44
277.306	2.9
277.521	47.96
277.737	-5.29
277.952	43.86
278.168	37.72
278.383	103.25
278.599	-42.15
278.814	-11.43
279.03	31.57
279.245	4.95
279.461	-23.72
279.676	-5.29
279.892	23.38
280.107	21.33
280.322	-3.24
280.538	43.86
280.753	60.24
280.969	74.58
281.184	21.33
281.399	-13.48
281.615	17.24
281.83	-36.01
282.045	-54.44
282.26	60.24
282.476	-38.06
282.691	29.52
282.906	-15.53
283.122	43.86
283.337	88.92
283.552	27.48
283.767	7
283.983	43.86
284.198	47.96
284.413	52.05
284.628	-13.48
284.843	-11.43
285.058	52.05
285.274	19.29
285.489	68.44
285.704	-3.24
285.919	105.3
286.134	-36.01
286.349	64.34
286.564	23.38
286.779	-3.24
286.995	33.62
287.21	-7.34
287.425	31.57
287.64	21.33
287.855	31.57
288.07	-17.58
288.285	43.86
288.5	52.05
288.715	54.1
288.93	41.81
289.145	15.19
289.36	-13.48
289.575	13.14
289.79	60.24
290.004	-46.25
290.219	23.38
290.434	62.29
290.649	45.91
290.864	37.72
291.079	52.05
291.294	11.09
291.509	52.05
291.724	41.81
291.938	-23.72
292.153	-11.43
292.368	2.9
292.583	68.44
292.798	109.4
293.012	62.29
293.227	-70.83
293.442	52.05
293.657	80.72
293.871	125.78
294.086	19.29
294.301	27.48
294.516	47.96
294.73	52.05
294.945	17.24
295.16	-7.34
295.374	78.68
295.589	-1.19
295.804	58.2
296.018	-66.73
296.233	4.95
296.447	54.1
296.662	-46.25
296.877	74.58
297.091	45.91
297.306	-21.67
297.52	50
297.735	101.2
297.949	-13.48
298.164	23.38
298.378	56.15
298.593	72.53
298.807	19.29
299.022	103.25
299.236	31.57
299.451	23.38
299.665	80.72
299.88	93.01
300.094	17.24
300.309	-52.39
300.523	78.68
300.737	35.67
300.952	39.76
301.166	-5.29
301.381	-25.77
301.595	7
301.809	52.05
302.024	39.76
302.238	0.85
302.452	27.48
302.667	27.48
302.881	-5.29
303.095	43.86
303.309	43.86
303.524	45.91
303.738	43.86
303.952	60.24
304.166	52.05
304.381	-38.06
304.595	93.01
304.809	35.67
305.023	109.4
305.237	-21.67
305.452	11.09
305.666	64.34
305.88	52.05
306.094	17.24
306.308	52.05
306.522	78.68
306.736	27.48
306.95	25.43
307.164	72.53
307.379	2.9
307.593	56.15
307.807	31.57
308.021	97.11
308.235	82.77
308.449	56.15
308.663	21.33
308.877	37.72
309.091	-29.87
309.305	17.24
309.519	117.59
309.733	29.52
309.947	-36.01
310.161	68.44
310.374	86.87
310.588	43.86
310.802	-62.63
311.016	19.29
311.23	-11.43
311.444	68.44
311.658	23.38
311.872	101.2
312.085	39.76
312.299	70.48
312.513	62.29
312.727	19.29
312.941	23.38
313.154	64.34
313.368	4.95
313.582	47.96
313.796	-19.63
314.009	144.21
314.223	62.29
314.437	60.24
314.651	70.48
314.864	19.29
315.078	37.72
315.292	-11.43
315.505	27.48
315.719	95.06
315.933	33.62
316.146	-29.87
316.36	9.05
316.573	78.68
316.787	66.39
317.001	43.86
317.214	-3.24
317.428	11.09
317.641	-9.39
317.855	50
318.068	17.24
318.282	125.78
318.495	88.92
318.709	56.15
318.922	11.09
319.136	95.06
319.349	25.43
319.563	7
319.776	41.81
319.99	-56.49
320.203	56.15
320.417	95.06
320.63	80.72
320.843	78.68
321.057	78.68
321.27	58.2
321.483	-31.91
321.697	84.82
321.91	17.24
322.124	11.09
322.337	43.86
322.55	58.2
322.763	119.64
322.977	78.68
323.19	43.86
323.403	23.38
323.617	2.9
323.83	109.4
324.043	2.9
324.256	47.96
324.469	19.29
324.683	52.05
324.896	43.86
325.109	23.38
325.322	11.09
325.535	35.67
325.748	-25.77
325.962	47.96
326.175	58.2
326.388	76.63
326.601	43.86
326.814	4.95
327.027	27.48
327.24	13.14
327.453	27.48
327.666	-7.34
327.879	31.57
328.092	29.52
328.305	23.38
328.518	64.34
328.731	41.81
328.944	45.91
329.157	17.24
329.37	58.2
329.583	31.57
329.796	101.2
330.009	-19.63
330.222	45.91
330.435	35.67
330.648	-54.44
330.861	2.9
331.073	47.96
331.286	2.9
331.499	35.67
331.712	41.81
331.925	107.35
332.138	60.24
332.35	68.44
332.563	39.76
332.776	35.67
332.989	-40.11
333.202	29.52
333.414	-44.2
333.627	2.9
333.84	80.72
334.053	115.54
334.265	76.63
334.478	62.29
334.691	80.72
334.903	-9.39
335.116	54.1
335.329	52.05
335.541	33.62
335.754	133.97
335.966	-21.67
336.179	54.1
336.392	62.29
336.604	25.43
336.817	45.91
337.029	35.67
337.242	-17.58
337.454	45.91
337.667	84.82
337.88	60.24
338.092	90.96
338.305	70.48
338.517	-3.24
338.729	84.82
338.942	54.1
339.154	35.67
339.367	-3.24
339.579	35.67
339.792	11.09
340.004	66.39
340.217	29.52
340.429	74.58
340.641	-25.77
340.854	11.09
341.066	-17.58
341.278	27.48
341.491	54.1
341.703	27.48
341.915	15.19
342.128	84.82
342.34	-1.19
342.552	101.2
342.764	76.63
342.977	62.29
343.189	54.1
343.401	13.14
343.613	-25.77
343.826	68.44
344.038	4.95
344.25	56.15
344.462	41.81
344.674	25.43
344.886	17.24
345.099	27.48
345.311	39.76
345.523	-13.48
345.735	-46.25
345.947	43.86
346.159	29.52
346.371	7
346.583	-9.39
346.795	144.21
347.007	41.81
347.219	136.02
347.431	21.33
347.643	4.95
347.855	17.24
348.067	68.44
348.279	7
348.491	58.2
348.703	95.06
348.915	54.1
349.127	62.29
349.339	39.76
349.551	11.09
349.763	39.76
349.975	-1.19
350.187	84.82
350.399	41.81
350.61	64.34
350.822	62.29
351.034	68.44
351.246	52.05
351.458	7
351.669	68.44
351.881	45.91
352.093	25.43
352.305	39.76
352.517	2.9
352.728	56.15
352.94	33.62
353.152	33.62
353.363	7
353.575	25.43
353.787	60.24
353.999	37.72
354.21	62.29
354.422	11.09
354.633	52.05
354.845	70.48
355.057	39.76
355.268	95.06
355.48	84.82
355.692	-66.73
355.903	54.1
356.115	23.38
356.326	25.43
356.538	93.01
356.749	-17.58
356.961	78.68
357.172	99.16
357.384	27.48
357.595	95.06
357.807	68.44
358.018	97.11
358.23	29.52
358.441	-11.43
358.653	31.57
358.864	31.57
359.075	45.91
359.287	39.76
359.498	2.9
359.709	52.05
359.921	52.05
360.132	11.09
360.344	66.39
360.555	23.38
360.766	52.05
360.977	29.52
361.189	39.76
361.4	13.14
361.611	72.53
361.823	2.9
362.034	60.24
362.245	-29.87
362.456	27.48
362.667	60.24
362.879	52.05
363.09	25.43
363.301	37.72
363.512	43.86
363.723	2.9
363.935	52.05
364.146	54.1
364.357	58.2
364.568	93.01
364.779	37.72
364.99	23.38
365.201	-5.29
365.412	82.77
365.623	80.72
365.834	95.06
366.045	15.19
366.256	50
366.467	82.77
366.678	58.2
366.889	64.34
367.1	23.38
367.311	-17.58
367.522	103.25
367.733	109.4
367.944	93.01
368.155	-1.19
368.366	39.76
368.577	19.29
368.788	43.86
368.999	78.68
369.209	45.91
369.42	103.25
369.631	86.87
369.842	-23.72
370.053	11.09
370.264	23.38
370.474	19.29
370.685	11.09
370.896	93.01
371.107	27.48
371.317	72.53
371.528	56.15
371.739	86.87
371.95	19.29
372.16	72.53
372.371	80.72
372.582	54.1
372.792	21.33
373.003	76.63
373.214	35.67
373.424	31.57
373.635	62.29
373.846	78.68
374.056	-1.19
374.267	4.95
374.477	19.29
374.688	31.57
374.898	17.24
375.109	19.29
375.319	78.68
375.53	39.76
375.74	21.33
375.951	68.44
376.161	-7.34
376.372	39.76
376.582	19.29
376.793	60.24
377.003	23.38
377.214	35.67
377.424	35.67
377.635	95.06
377.845	43.86
378.055	90.96
378.266	27.48
378.476	82.77
378.686	19.29
378.897	76.63
379.107	64.34
379.317	64.34
379.528	2.9
379.738	37.72
379.948	15.19
380.158	93.01
380.369	99.16
380.579	78.68
380.789	31.57
380.999	-5.29
381.21	80.72
381.42	60.24
381.63	78.68
381.84	84.82
382.05	101.2
382.261	125.78
382.471	93.01
382.681	47.96
382.891	-1.19
383.101	43.86
383.311	54.1
383.521	23.38
383.731	56.15
383.941	86.87
384.151	2.9
384.361	23.38
384.571	39.76
384.781	70.48
384.991	95.06
385.201	43.86
385.411	35.67
385.621	56.15
385.831	84.82
386.041	35.67
386.251	-27.82
386.461	111.44
386.671	-50.35
386.881	136.02
387.091	113.49
387.301	84.82
387.511	56.15
387.72	43.86
387.93	93.01
388.14	72.53
388.35	95.06
388.56	72.53
388.769	54.1
388.979	64.34
389.189	11.09
389.399	43.86
389.609	74.58
389.818	129.88
390.028	35.67
390.238	62.29
390.447	52.05
390.657	82.77
390.867	113.49
391.076	45.91
391.286	-3.24
391.496	93.01
391.705	15.19
391.915	74.58
392.125	76.63
392.334	-5.29
392.544	56.15
392.753	33.62
392.963	93.01
393.172	68.44
393.382	25.43
393.591	97.11
393.801	52.05
394.01	113.49
394.22	84.82
394.429	95.06
394.639	23.38
394.848	117.59
395.058	121.68
395.267	19.29
395.477	119.64
395.686	35.67
395.895	115.54
396.105	154.45
396.314	160.59
396.524	78.68
396.733	95.06
396.942	117.59
397.152	103.25
397.361	117.59
397.57	93.01
397.78	68.44
397.989	93.01
398.198	45.91
398.407	105.3
398.617	133.97
398.826	101.2
399.035	187.22
399.244	121.68
399.453	136.02
399.663	158.55
399.872	93.01
400.081	58.2
400.29	84.82
400.499	76.63
400.708	136.02
400.917	74.58
401.127	142.16
401.336	80.72
401.545	136.02
401.754	93.01
401.963	93.01
402.172	125.78
402.381	84.82
402.59	142.16
402.799	129.88
403.008	37.72
403.217	119.64
403.426	183.12
403.635	39.76
403.844	113.49
404.053	109.4
404.262	127.83
404.471	146.26
404.68	152.4
404.888	142.16
405.097	47.96
405.306	111.44
405.515	150.36
405.724	203.6
405.933	179.03
406.142	146.26
406.35	162.64
406.559	201.55
406.768	136.02
406.977	226.13
407.185	250.71
407.394	269.14
407.603	189.27
407.812	209.75
408.02	297.81
408.229	248.66
408.438	289.62
408.646	336.72
408.855	285.52
409.064	316.24
409.272	293.71
409.481	373.58
409.69	322.38
409.898	334.67
410.107	314.19
410.315	330.58
410.524	369.49
410.733	361.3
410.941	418.64
411.15	381.78
411.358	389.97
411.567	359.25
411.775	389.97
411.984	453.45
412.192	428.88
412.401	506.7
412.609	471.89
412.818	502.61
413.026	518.99
413.234	500.56
413.443	510.8
413.651	553.8
413.86	590.67
414.068	723.79
414.276	656.2
414.485	666.44
414.693	740.17
414.901	740.17
415.11	756.55
415.318	748.36
415.526	736.07
415.734	813.9
415.943	867.14
416.151	920.39
416.359	961.35
416.567	906.06
416.776	1006.41
416.984	1051.46
417.192	1026.89
417.4	990.02
417.608	1037.13
417.817	1063.75
418.025	1190.72
418.233	1190.72
418.441	1186.63
418.649	1243.97
418.857	1346.37
419.065	1483.58
419.273	1329.99
419.481	1424.19
419.689	1518.4
419.897	1534.78
420.105	1678.14
420.313	1674.04
420.521	1772.35
420.729	1723.2
420.937	1837.88
421.145	1862.46
421.353	2001.72
421.561	2157.36
421.769	2157.36
421.977	2263.86
422.185	2253.62
422.393	2360.11
422.601	2466.61
422.809	2491.18
423.017	2485.04
423.224	2566.96
423.432	2818.86
423.64	2667.31
423.848	3091.24
424.056	2865.96
424.263	3015.46
424.471	2976.55
424.679	3126.05
424.887	3339.04
425.094	3435.3
425.302	3502.88
425.51	3545.89
425.718	3656.48
425.925	3537.7
426.133	3791.64
426.341	3935
426.548	4272.92
426.756	4143.89
426.964	4295.44
427.171	4463.38
427.379	4623.12
427.586	4713.23
427.794	4756.24
428.001	4840.2
428.209	5176.07
428.417	4999.95
428.624	5495.55
428.832	5532.42
429.039	5520.13
429.247	5372.68
429.454	5991.16
429.662	6367.99
429.869	6146.81
430.076	6503.15
430.284	6294.26
430.491	6566.64
430.699	6808.3
430.906	6982.38
431.114	6884.08
431.321	7340.77
431.528	7385.83
431.736	7705.31
431.943	8223.45
432.15	8028.89
432.358	8096.47
432.565	8579.79
432.772	8432.34
432.979	8745.68
433.187	9142.99
433.394	9145.03
433.601	9683.65
433.808	9933.5
434.016	9624.26
434.223	10007.23
434.43	10793.65
434.637	10601.14
434.844	11119.28
435.052	11313.83
435.259	11242.15
435.466	11440.81
435.673	11135.66
435.88	12067.49
436.087	12747.41
436.294	12716.69
436.501	12540.57
436.708	12626.58
436.915	13044.37
437.122	13589.13
437.329	13634.18
437.537	13912.71
437.743	14140.03
437.95	14185.08
438.157	14703.22
438.364	15329.9
438.571	15252.08
438.778	15393.39
438.985	16970.32
439.192	16052.83
439.399	16845.4
439.606	16374.36
439.813	17168.98
440.02	18229.82
440.227	17789.51
440.433	17580.62
440.64	18256.45
440.847	18436.67
441.054	18711.1
441.261	19968.55
441.467	19327.53
441.674	19831.33
441.881	20636.19
442.088	20863.51
442.294	20830.74
442.501	21060.12
442.708	21299.73
442.914	21971.46
443.121	23079.41
443.328	22227.46
443.534	24138.21
443.741	23038.45
443.948	23099.89
444.154	24881.63
444.361	24783.32
444.568	24605.15
444.774	24988.12
444.981	25231.83
445.187	25479.63
445.394	26788.28
445.6	26651.07
445.807	28991.9
446.013	27822.51
446.22	28076.46
446.426	29464.98
446.633	29493.65
446.839	30800.26
447.046	29305.24
447.252	30847.36
447.459	30984.57
447.665	30742.91
447.871	32029.04
448.078	33638.74
448.284	32113
448.491	32768.35
448.697	34111.82
448.903	34589
449.11	34709.83
449.316	34165.07
449.522	34769.22
449.728	36139.31
449.935	35813.68
450.141	35938.61
450.347	36735.27
450.553	35615.03
450.76	36200.75
450.966	37523.74
451.172	36907.3
451.378	37810.45
451.584	37153.05
451.791	37663
451.997	37822.74
452.203	38277.39
452.409	38750.47
452.615	37861.65
452.821	36845.86
453.027	36407.59
453.233	38420.75
453.44	36757.8
453.646	37271.84
453.852	37738.77
454.058	38021.39
454.264	36862.24
454.47	37697.81
454.676	36276.52
454.882	37886.23
455.088	35088.7
455.294	35365.18
455.5	35680.56
455.705	36239.66
455.911	34398.54
456.117	34009.42
456.323	33700.18
456.529	31852.91
456.735	33505.62
456.941	32307.56
457.147	31949.17
457.352	30966.14
457.558	30843.26
457.764	30423.43
457.97	30101.9
458.176	29618.58
458.381	29159.83
458.587	27914.67
458.793	27896.24
458.999	26175.94
459.204	27926.96
459.41	27505.07
459.616	26302.92
459.821	26143.17
460.027	26255.81
460.233	25471.44
460.438	24201.7
460.644	24271.33
460.85	23185.91
461.055	22852.09
461.261	22811.13
461.466	20994.58
461.672	20410.91
461.878	21838.34
462.083	20474.4
462.289	19919.4
462.494	19642.92
462.7	18741.82
462.905	18567.74
463.111	18997.81
463.316	19225.14
463.522	18657.85
463.727	18889.27
463.932	18768.44
464.138	18485.82
464.343	18909.75
464.549	18025.03
464.754	18750.01
464.959	18725.43
465.165	18303.55
465.37	17629.77
465.575	17101.39
465.781	17871.43
465.986	17941.06
466.191	17406.54
466.397	16998.99
466.602	16136.8
466.807	16689.75
467.012	16845.4
467.218	16474.71
467.423	16452.19
467.628	16835.16
467.833	17326.67
