Data from USB4F104151__302__14-24-02-551.txt Node

Date: Thu Mar 13 14:24:02 EDT 2025
User: louis
Spectrometer: USB4F10415
Trigger mode: 4
Integration Time (sec): 2.000000E-2
Scans to average: 1
Electric dark correction enabled: true
Nonlinearity correction enabled: false
Boxcar width: 0
XAxis mode: Wavelengths
Number of Pixels in Spectrum: 3648
>>>>>Begin Spectral Data<<<<<
178.204	-78.33
178.424	-78.33
178.644	-78.33
178.864	-88.57
179.084	-107.01
179.304	-45.57
179.524	17.92
179.744	11.78
179.964	81.41
180.184	-33.28
180.404	7.68
180.624	-49.66
180.844	34.3
181.064	-45.57
181.283	7.68
181.503	30.21
181.723	-16.9
181.943	-115.2
182.163	85.5
182.383	65.02
182.602	48.64
182.822	-41.47
183.042	73.21
183.262	-90.62
183.482	50.69
183.701	-4.61
183.921	71.17
184.141	-41.47
184.361	-20.99
184.58	-29.18
184.8	7.68
185.02	40.45
185.239	-39.42
185.459	28.16
185.679	56.83
185.898	-61.95
186.118	40.45
186.338	-31.23
186.557	-14.85
186.777	26.11
186.997	24.06
187.216	22.02
187.436	105.98
187.655	56.83
187.875	19.97
188.095	7.68
188.314	87.55
188.534	19.97
188.753	-57.86
188.973	26.11
189.192	11.78
189.412	42.5
189.631	44.54
189.851	-4.61
190.07	75.26
190.29	-72.19
190.509	-49.66
190.729	5.63
190.948	19.97
191.168	26.11
191.387	124.41
191.607	-12.8
191.826	-20.99
192.045	11.78
192.265	50.69
192.484	-41.47
192.704	5.63
192.923	-47.62
193.142	32.26
193.362	40.45
193.581	34.3
193.8	5.63
194.02	-16.9
194.239	26.11
194.458	-8.7
194.678	-6.66
194.897	17.92
195.116	7.68
195.335	81.41
195.555	9.73
195.774	54.78
195.993	32.26
196.212	58.88
196.432	60.93
196.651	17.92
196.87	-25.09
197.089	62.98
197.308	83.45
197.528	83.45
197.747	-39.42
197.966	-0.51
198.185	124.41
198.404	11.78
198.623	34.3
198.842	17.92
199.062	130.56
199.281	62.98
199.5	42.5
199.719	38.4
199.938	9.73
200.157	48.64
200.376	85.5
200.595	3.58
200.814	-23.04
201.033	32.26
201.252	40.45
201.471	48.64
201.69	-8.7
201.909	28.16
202.128	52.74
202.347	40.45
202.566	-12.8
202.785	-66.05
203.004	65.02
203.223	108.03
203.442	-10.75
203.661	40.45
203.879	7.68
204.098	77.31
204.317	-53.76
204.536	-33.28
204.755	54.78
204.974	15.87
205.193	19.97
205.411	17.92
205.63	32.26
205.849	77.31
206.068	24.06
206.287	-14.85
206.505	-25.09
206.724	36.35
206.943	7.68
207.162	15.87
207.381	-20.99
207.599	3.58
207.818	71.17
208.037	15.87
208.255	-80.38
208.474	11.78
208.693	50.69
208.911	-8.7
209.13	40.45
209.349	-25.09
209.567	85.5
209.786	69.12
210.005	-29.18
210.223	-16.9
210.442	-16.9
210.661	1.54
210.879	56.83
211.098	65.02
211.316	-10.75
211.535	11.78
211.753	36.35
211.972	26.11
212.191	7.68
212.409	44.54
212.628	13.82
212.846	32.26
213.065	56.83
213.283	42.5
213.502	-0.51
213.72	24.06
213.938	-12.8
214.157	13.82
214.375	-20.99
214.594	-31.23
214.812	1.54
215.031	22.02
215.249	-0.51
215.467	1.54
215.686	44.54
215.904	103.93
216.122	24.06
216.341	-16.9
216.559	-14.85
216.778	30.21
216.996	60.93
217.214	15.87
217.432	15.87
217.651	3.58
217.869	24.06
218.087	36.35
218.306	24.06
218.524	65.02
218.742	-57.86
218.96	28.16
219.179	77.31
219.397	-82.43
219.615	15.87
219.833	26.11
220.051	13.82
220.27	91.65
220.488	-8.7
220.706	42.5
220.924	44.54
221.142	48.64
221.36	124.41
221.578	1.54
221.796	52.74
222.015	-33.28
222.233	-16.9
222.451	-6.66
222.669	-0.51
222.887	22.02
223.105	-27.14
223.323	11.78
223.541	15.87
223.759	65.02
223.977	3.58
224.195	36.35
224.413	89.6
224.631	-14.85
224.849	-33.28
225.067	56.83
225.285	81.41
225.503	44.54
225.721	1.54
225.939	28.16
226.157	-74.24
226.375	83.45
226.592	46.59
226.81	22.02
227.028	97.79
227.246	44.54
227.464	26.11
227.682	77.31
227.9	-33.28
228.117	1.54
228.335	26.11
228.553	75.26
228.771	26.11
228.989	44.54
229.206	77.31
229.424	-35.33
229.642	-57.86
229.86	19.97
230.077	67.07
230.295	26.11
230.513	87.55
230.731	48.64
230.948	87.55
231.166	44.54
231.384	24.06
231.601	-4.61
231.819	17.92
232.037	-14.85
232.254	-16.9
232.472	48.64
232.689	-33.28
232.907	65.02
233.125	95.74
233.342	40.45
233.56	3.58
233.777	-41.47
233.995	73.21
234.213	1.54
234.43	15.87
234.648	17.92
234.865	15.87
235.083	-27.14
235.3	62.98
235.518	30.21
235.735	15.87
235.953	50.69
236.17	-29.18
236.388	28.16
236.605	40.45
236.822	-4.61
237.04	79.36
237.257	7.68
237.475	-12.8
237.692	-0.51
237.909	40.45
238.127	40.45
238.344	22.02
238.562	1.54
238.779	-14.85
238.996	85.5
239.214	91.65
239.431	24.06
239.648	-8.7
239.865	32.26
240.083	19.97
240.3	3.58
240.517	120.32
240.735	52.74
240.952	54.78
241.169	46.59
241.386	105.98
241.603	-0.51
241.821	17.92
242.038	-4.61
242.255	52.74
242.472	-20.99
242.689	26.11
242.907	22.02
243.124	126.46
243.341	65.02
243.558	-0.51
243.775	-33.28
243.992	-41.47
244.209	46.59
244.426	52.74
244.643	34.3
244.86	-27.14
245.078	7.68
245.295	7.68
245.512	-4.61
245.729	-51.71
245.946	77.31
246.163	7.68
246.38	7.68
246.597	-8.7
246.814	-6.66
247.031	69.12
247.248	40.45
247.464	28.16
247.681	36.35
247.898	48.64
248.115	36.35
248.332	67.07
248.549	91.65
248.766	75.26
248.983	1.54
249.2	1.54
249.417	77.31
249.633	46.59
249.85	3.58
250.067	-49.66
250.284	7.68
250.501	50.69
250.717	58.88
250.934	15.87
251.151	7.68
251.368	-27.14
251.585	83.45
251.801	24.06
252.018	9.73
252.235	48.64
252.451	19.97
252.668	-20.99
252.885	48.64
253.102	110.08
253.318	-64
253.535	-6.66
253.752	75.26
253.968	5.63
254.185	-8.7
254.401	24.06
254.618	93.69
254.835	-37.38
255.051	46.59
255.268	56.83
255.484	71.17
255.701	-29.18
255.917	42.5
256.134	-25.09
256.351	-6.66
256.567	19.97
256.784	32.26
257	-66.05
257.217	40.45
257.433	11.78
257.65	99.84
257.866	36.35
258.082	26.11
258.299	48.64
258.515	17.92
258.732	-12.8
258.948	-29.18
259.165	69.12
259.381	-33.28
259.597	-33.28
259.814	-55.81
260.03	73.21
260.246	69.12
260.463	67.07
260.679	3.58
260.895	48.64
261.112	-31.23
261.328	89.6
261.544	40.45
261.761	77.31
261.977	-8.7
262.193	22.02
262.409	13.82
262.626	85.5
262.842	22.02
263.058	-29.18
263.274	40.45
263.49	56.83
263.707	15.87
263.923	24.06
264.139	-59.9
264.355	-14.85
264.571	30.21
264.787	28.16
265.004	56.83
265.22	-0.51
265.436	105.98
265.652	-23.04
265.868	19.97
266.084	-29.18
266.3	17.92
266.516	-23.04
266.732	65.02
266.948	26.11
267.164	40.45
267.38	62.98
267.596	-16.9
267.812	114.17
268.028	7.68
268.244	42.5
268.46	-2.56
268.676	30.21
268.892	24.06
269.108	-4.61
269.324	65.02
269.54	15.87
269.756	73.21
269.972	-86.53
270.188	15.87
270.403	34.3
270.619	40.45
270.835	65.02
271.051	1.54
271.267	19.97
271.483	-33.28
271.698	73.21
271.914	32.26
272.13	-4.61
272.346	-53.76
272.562	46.59
272.777	11.78
272.993	67.07
273.209	-6.66
273.425	93.69
273.64	-6.66
273.856	-16.9
274.072	-18.94
274.287	42.5
274.503	-31.23
274.719	-102.91
274.934	3.58
275.15	-31.23
275.366	99.84
275.581	26.11
275.797	28.16
276.012	11.78
276.228	36.35
276.444	-0.51
276.659	7.68
276.875	-2.56
277.09	24.06
277.306	-0.51
277.521	77.31
277.737	-39.42
277.952	48.64
278.168	7.68
278.383	52.74
278.599	40.45
278.814	17.92
279.03	81.41
279.245	60.93
279.461	-29.18
279.676	130.56
279.892	-41.47
280.107	-16.9
280.322	24.06
280.538	67.07
280.753	-23.04
280.969	34.3
281.184	3.58
281.399	67.07
281.615	30.21
281.83	116.22
282.045	69.12
282.26	65.02
282.476	-72.19
282.691	32.26
282.906	44.54
283.122	56.83
283.337	17.92
283.552	24.06
283.767	7.68
283.983	3.58
284.198	1.54
284.413	32.26
284.628	-0.51
284.843	24.06
285.058	13.82
285.274	60.93
285.489	30.21
285.704	105.98
285.919	-14.85
286.134	40.45
286.349	-25.09
286.564	-53.76
286.779	99.84
286.995	15.87
287.21	-64
287.425	105.98
287.64	28.16
287.855	60.93
288.07	-37.38
288.285	91.65
288.5	89.6
288.715	28.16
288.93	7.68
289.145	-66.05
289.36	28.16
289.575	48.64
289.79	120.32
290.004	58.88
290.219	56.83
290.434	-41.47
290.649	44.54
290.864	-12.8
291.079	81.41
291.294	52.74
291.509	44.54
291.724	-14.85
291.938	19.97
292.153	-4.61
292.368	24.06
292.583	75.26
292.798	9.73
293.012	50.69
293.227	19.97
293.442	-53.76
293.657	44.54
293.871	50.69
294.086	95.74
294.301	58.88
294.516	73.21
294.73	-29.18
294.945	-8.7
295.16	32.26
295.374	38.4
295.589	38.4
295.804	-45.57
296.018	-47.62
296.233	138.75
296.447	24.06
296.662	44.54
296.877	17.92
297.091	99.84
297.306	-25.09
297.52	32.26
297.735	50.69
297.949	-25.09
298.164	91.65
298.378	17.92
298.593	-8.7
298.807	-31.23
299.022	5.63
299.236	44.54
299.451	42.5
299.665	11.78
299.88	42.5
300.094	30.21
300.309	34.3
300.523	40.45
300.737	1.54
300.952	48.64
301.166	126.46
301.381	3.58
301.595	-6.66
301.809	24.06
302.024	-6.66
302.238	-0.51
302.452	-29.18
302.667	3.58
302.881	36.35
303.095	-23.04
303.309	28.16
303.524	40.45
303.738	50.69
303.952	-31.23
304.166	32.26
304.381	-76.29
304.595	75.26
304.809	-0.51
305.023	42.5
305.237	-41.47
305.452	-8.7
305.666	62.98
305.88	105.98
306.094	-16.9
306.308	40.45
306.522	42.5
306.736	17.92
306.95	101.89
307.164	-16.9
307.379	3.58
307.593	148.99
307.807	75.26
308.021	19.97
308.235	83.45
308.449	48.64
308.663	7.68
308.877	73.21
309.091	34.3
309.305	91.65
309.519	-33.28
309.733	-41.47
309.947	19.97
310.161	34.3
310.374	26.11
310.588	28.16
310.802	-49.66
311.016	89.6
311.23	32.26
311.444	1.54
311.658	89.6
311.872	140.8
312.085	50.69
312.299	65.02
312.513	58.88
312.727	-12.8
312.941	-90.62
313.154	7.68
313.368	13.82
313.582	58.88
313.796	50.69
314.009	-4.61
314.223	48.64
314.437	73.21
314.651	48.64
314.864	36.35
315.078	-20.99
315.292	44.54
315.505	-10.75
315.719	48.64
315.933	34.3
316.146	-8.7
316.36	-6.66
316.573	118.27
316.787	-8.7
317.001	28.16
317.214	-55.81
317.428	-20.99
317.641	-39.42
317.855	-8.7
318.068	83.45
318.282	-0.51
318.495	38.4
318.709	52.74
318.922	15.87
319.136	93.69
319.349	101.89
319.563	32.26
319.776	48.64
319.99	-53.76
320.203	32.26
320.417	11.78
320.63	34.3
320.843	-49.66
321.057	15.87
321.27	105.98
321.483	38.4
321.697	17.92
321.91	11.78
322.124	13.82
322.337	40.45
322.55	-0.51
322.763	-27.14
322.977	85.5
323.19	13.82
323.403	15.87
323.617	62.98
323.83	91.65
324.043	22.02
324.256	28.16
324.469	1.54
324.683	7.68
324.896	24.06
325.109	93.69
325.322	7.68
325.535	26.11
325.748	60.93
325.962	-14.85
326.175	17.92
326.388	7.68
326.601	32.26
326.814	48.64
327.027	-35.33
327.24	85.5
327.453	13.82
327.666	50.69
327.879	75.26
328.092	7.68
328.305	1.54
328.518	77.31
328.731	17.92
328.944	11.78
329.157	32.26
329.37	-23.04
329.583	36.35
329.796	42.5
330.009	-16.9
330.222	7.68
330.435	32.26
330.648	69.12
330.861	48.64
331.073	-2.56
331.286	19.97
331.499	19.97
331.712	50.69
331.925	28.16
332.138	32.26
332.35	32.26
332.563	28.16
332.776	56.83
332.989	-6.66
333.202	28.16
333.414	24.06
333.627	42.5
333.84	54.78
334.053	67.07
334.265	42.5
334.478	34.3
334.691	77.31
334.903	65.02
335.116	-0.51
335.329	15.87
335.541	48.64
335.754	38.4
335.966	32.26
336.179	44.54
336.392	36.35
336.604	52.74
336.817	91.65
337.029	71.17
337.242	-0.51
337.454	101.89
337.667	-16.9
337.88	146.94
338.092	67.07
338.305	9.73
338.517	-12.8
338.729	79.36
338.942	73.21
339.154	34.3
339.367	-4.61
339.579	42.5
339.792	-51.71
340.004	40.45
340.217	-23.04
340.429	58.88
340.641	19.97
340.854	24.06
341.066	26.11
341.278	40.45
341.491	46.59
341.703	19.97
341.915	-8.7
342.128	73.21
342.34	58.88
342.552	36.35
342.764	58.88
342.977	40.45
343.189	32.26
343.401	-14.85
343.613	-8.7
343.826	114.17
344.038	11.78
344.25	28.16
344.462	-6.66
344.674	5.63
344.886	-2.56
345.099	-4.61
345.311	48.64
345.523	32.26
345.735	-8.7
345.947	11.78
346.159	-4.61
346.371	-41.47
346.583	3.58
346.795	65.02
347.007	-8.7
347.219	9.73
347.431	15.87
347.643	58.88
347.855	17.92
348.067	110.08
348.279	-45.57
348.491	15.87
348.703	56.83
348.915	7.68
349.127	-10.75
349.339	65.02
349.551	-35.33
349.763	48.64
349.975	-51.71
350.187	48.64
350.399	77.31
350.61	71.17
350.822	19.97
351.034	60.93
351.246	19.97
351.458	114.17
351.669	28.16
351.881	62.98
352.093	105.98
352.305	89.6
352.517	60.93
352.728	83.45
352.94	15.87
353.152	40.45
353.363	-33.28
353.575	54.78
353.787	54.78
353.999	56.83
354.21	97.79
354.422	-2.56
354.633	44.54
354.845	-0.51
355.057	17.92
355.268	26.11
355.48	105.98
355.692	15.87
355.903	-68.09
356.115	42.5
356.326	-4.61
356.538	93.69
356.749	40.45
356.961	42.5
357.172	95.74
357.384	50.69
357.595	17.92
357.807	50.69
358.018	24.06
358.23	9.73
358.441	81.41
358.653	-0.51
358.864	5.63
359.075	48.64
359.287	-18.94
359.498	91.65
359.709	101.89
359.921	89.6
360.132	50.69
360.344	-16.9
360.555	-20.99
360.766	50.69
360.977	40.45
361.189	26.11
361.4	85.5
361.611	-66.05
361.823	73.21
362.034	75.26
362.245	15.87
362.456	40.45
362.667	67.07
362.879	42.5
363.09	89.6
363.301	-45.57
363.512	69.12
363.723	-31.23
363.935	32.26
364.146	124.41
364.357	-20.99
364.568	-23.04
364.779	73.21
364.99	89.6
365.201	-33.28
365.412	81.41
365.623	91.65
365.834	-12.8
366.045	32.26
366.256	7.68
366.467	-29.18
366.678	1.54
366.889	95.74
367.1	-31.23
367.311	69.12
367.522	-10.75
367.733	44.54
367.944	22.02
368.155	15.87
368.366	40.45
368.577	9.73
368.788	101.89
368.999	24.06
369.209	42.5
369.42	28.16
369.631	60.93
369.842	-41.47
370.053	30.21
370.264	44.54
370.474	1.54
370.685	32.26
370.896	32.26
371.107	17.92
371.317	28.16
371.528	52.74
371.739	85.5
371.95	19.97
372.16	7.68
372.371	56.83
372.582	124.41
372.792	52.74
373.003	24.06
373.214	54.78
373.424	112.13
373.635	48.64
373.846	73.21
374.056	-18.94
374.267	130.56
374.477	32.26
374.688	60.93
374.898	50.69
375.109	-4.61
375.319	58.88
375.53	69.12
375.74	56.83
375.951	44.54
376.161	54.78
376.372	101.89
376.582	-23.04
376.793	-39.42
377.003	-49.66
377.214	-39.42
377.424	13.82
377.635	56.83
377.845	-0.51
378.055	67.07
378.266	-43.52
378.476	-16.9
378.686	48.64
378.897	67.07
379.107	91.65
379.317	73.21
379.528	-25.09
379.738	67.07
379.948	108.03
380.158	89.6
380.369	56.83
380.579	19.97
380.789	-6.66
380.999	50.69
381.21	15.87
381.42	81.41
381.63	101.89
381.84	83.45
382.05	11.78
382.261	24.06
382.471	75.26
382.681	134.65
382.891	19.97
383.101	118.27
383.311	22.02
383.521	91.65
383.731	40.45
383.941	48.64
384.151	-8.7
384.361	85.5
384.571	140.8
384.781	-16.9
384.991	46.59
385.201	122.37
385.411	32.26
385.621	52.74
385.831	-16.9
386.041	-0.51
386.251	3.58
386.461	71.17
386.671	15.87
386.881	75.26
387.091	62.98
387.301	81.41
387.511	91.65
387.72	34.3
387.93	97.79
388.14	34.3
388.35	40.45
388.56	-25.09
388.769	56.83
388.979	40.45
389.189	69.12
389.399	-41.47
389.609	42.5
389.818	-27.14
390.028	89.6
390.238	65.02
390.447	-33.28
390.657	65.02
390.867	97.79
391.076	81.41
391.286	19.97
391.496	73.21
391.705	7.68
391.915	42.5
392.125	52.74
392.334	-31.23
392.544	48.64
392.753	24.06
392.963	9.73
393.172	46.59
393.382	-18.94
393.591	105.98
393.801	114.17
394.01	75.26
394.22	126.46
394.429	81.41
394.639	79.36
394.848	40.45
395.058	105.98
395.267	81.41
395.477	62.98
395.686	83.45
395.895	185.85
396.105	95.74
396.314	97.79
396.524	69.12
396.733	81.41
396.942	130.56
397.152	114.17
397.361	108.03
397.57	44.54
397.78	105.98
397.989	97.79
398.198	99.84
398.407	69.12
398.617	17.92
398.826	58.88
399.035	97.79
399.244	101.89
399.453	73.21
399.663	34.3
399.872	130.56
400.081	97.79
400.29	185.85
400.499	132.61
400.708	69.12
400.917	142.85
401.127	52.74
401.336	93.69
401.545	218.62
401.754	128.51
401.963	87.55
402.172	73.21
402.381	105.98
402.59	34.3
402.799	146.94
403.008	60.93
403.217	142.85
403.426	91.65
403.635	67.07
403.844	97.79
404.053	120.32
404.262	173.57
404.471	140.8
404.68	159.23
404.888	75.26
405.097	32.26
405.306	112.13
405.515	122.37
405.724	112.13
405.933	112.13
406.142	146.94
406.35	105.98
406.559	130.56
406.768	159.23
406.977	134.65
407.185	189.95
407.394	93.69
407.603	110.08
407.812	181.76
408.02	200.19
408.229	222.72
408.438	208.38
408.646	181.76
408.855	169.47
409.064	175.61
409.272	163.33
409.481	216.57
409.69	159.23
409.898	208.38
410.107	306.68
410.315	171.52
410.524	208.38
410.733	230.91
410.941	173.57
411.15	318.97
411.358	333.31
411.567	318.97
411.775	296.44
411.984	251.39
412.192	359.93
412.401	318.97
412.609	376.31
412.818	378.36
413.026	429.56
413.234	312.83
413.443	273.92
413.651	292.35
413.86	421.37
414.068	417.27
414.276	460.28
414.485	450.04
414.693	531.96
414.901	615.93
415.11	542.2
415.318	517.62
415.526	486.9
415.734	574.97
415.943	577.02
416.151	568.82
416.359	591.35
416.567	687.61
416.776	620.02
416.984	751.09
417.192	734.71
417.4	681.46
417.608	687.61
417.817	790
418.025	771.57
418.233	814.58
418.441	839.16
418.649	884.21
418.857	992.75
419.065	959.99
419.273	919.03
419.481	992.75
419.689	1056.24
419.897	1099.25
420.105	1177.07
420.313	1295.85
420.521	1179.12
420.729	1236.46
420.937	1238.51
421.145	1250.8
421.353	1445.35
421.561	1424.87
421.769	1482.22
421.977	1433.07
422.185	1498.6
422.393	1514.98
422.601	1625.58
422.809	1650.15
423.017	1727.97
423.224	1801.7
423.432	1820.13
423.64	1863.14
423.848	1998.31
424.056	1910.24
424.263	2043.36
424.471	2104.8
424.679	2117.09
424.887	2295.26
425.094	2422.24
425.302	2399.71
425.51	2481.63
425.718	2459.1
425.925	2633.18
426.133	2711
426.341	2854.36
426.548	2893.27
426.756	2719.19
426.964	3055.06
427.171	3206.61
427.379	3229.13
427.586	3106.26
427.794	3278.29
428.001	3548.62
428.209	3694.02
428.417	3468.75
428.624	3681.74
428.832	3810.76
429.039	3800.52
429.247	3921.35
429.454	4068.8
429.662	4476.35
429.869	4117.95
430.076	4468.16
430.284	4376
430.491	4533.69
430.699	4750.78
430.906	4849.08
431.114	4890.04
431.321	4965.81
431.528	4974
431.736	5381.55
431.943	5678.51
432.15	5385.65
432.358	5399.98
432.565	5778.86
432.772	5756.33
432.979	6065.57
433.187	6038.95
433.394	6167.97
433.601	6708.63
433.808	6622.62
434.016	6651.29
434.223	6821.27
434.43	7177.62
434.637	7181.71
434.844	7490.96
435.052	7787.91
435.259	7630.22
435.466	7744.91
435.673	7550.35
435.88	8158.6
436.087	8748.41
436.294	8725.88
436.501	8437.12
436.708	8498.56
436.915	9014.65
437.122	9241.97
437.329	9256.31
437.537	9381.23
437.743	9686.38
437.95	9430.38
438.157	10059.11
438.364	10446.18
438.571	10290.53
438.778	10448.22
438.985	11435.35
439.192	10972.5
439.399	11328.85
439.606	11103.57
439.813	11529.55
440.02	12215.62
440.227	12068.17
440.433	12092.74
440.64	12594.5
440.847	12186.95
441.054	12768.57
441.261	13405.49
441.467	13157.69
441.674	13475.12
441.881	14159.14
442.088	13956.4
442.294	13837.61
442.501	14468.39
442.708	14417.19
442.914	14851.36
443.121	15498.52
443.328	15299.86
443.534	16360.71
443.741	15881.49
443.948	15721.74
444.154	16706.82
444.361	16631.04
444.568	16682.24
444.774	16508.16
444.981	16831.74
445.187	17433.85
445.394	18146.54
445.6	17775.86
445.807	19946.7
446.013	18830.56
446.22	19119.32
446.426	19868.88
446.633	20352.2
446.839	20692.16
447.046	19657.94
447.252	21191.87
447.459	20911.3
447.665	20987.07
447.871	21824.69
448.078	22678.69
448.284	21445.82
448.491	22328.49
448.697	22883.49
448.903	23557.27
449.11	23387.29
449.316	23139.49
449.522	23600.28
449.728	24192.14
449.935	24089.74
450.141	24456.33
450.347	25162.88
450.553	24208.53
450.76	24476.81
450.966	25240.7
451.172	25083.01
451.378	25410.68
451.584	24910.98
451.791	25967.73
451.997	26047.6
452.203	26063.99
452.409	26395.76
452.615	25871.48
452.821	24958.08
453.027	24765.57
453.233	26256.5
453.44	25011.33
453.646	25291.9
453.852	25681.02
454.058	26233.97
454.264	25173.12
454.47	25742.46
454.676	25011.33
454.882	26221.68
455.088	23864.47
455.294	24216.72
455.5	24726.66
455.705	24771.72
455.911	23418.01
456.117	23241.89
456.323	22983.84
456.529	21556.41
456.735	22822.05
456.941	22197.42
457.147	21812.4
457.352	21130.43
457.558	21257.4
457.764	21056.7
457.97	20425.93
458.176	19899.6
458.381	19954.9
458.587	19033.31
458.793	19205.34
458.999	18388.2
459.204	19537.11
459.41	18722.02
459.616	17786.1
459.821	18029.8
460.027	17820.91
460.233	17282.3
460.438	16477.44
460.644	16743.68
460.85	15844.62
461.055	15748.37
461.261	15504.66
461.466	14495.01
461.672	14007.59
461.878	15109.4
462.083	13905.2
462.289	13911.34
462.494	13684.02
462.7	13284.66
462.905	12725.57
463.111	13245.75
463.316	13466.93
463.522	12793.15
463.727	13018.43
463.932	12952.89
464.138	12684.61
464.343	12918.07
464.549	12516.67
464.754	12893.5
464.959	12705.09
465.165	12844.35
465.37	12223.81
465.575	11732.3
465.781	12289.35
465.986	12150.09
466.191	12008.78
466.397	11744.59
466.602	11148.63
466.807	11402.58
467.012	11611.47
467.218	11341.14
467.423	11236.69
467.628	11406.67
467.833	11803.98
468.038	11330.9
