Data from USB4F104151__130__14-19-02-238.txt Node

Date: Thu Mar 13 14:19:02 EDT 2025
User: louis
Spectrometer: USB4F10415
Trigger mode: 4
Integration Time (sec): 2.000000E-2
Scans to average: 1
Electric dark correction enabled: true
Nonlinearity correction enabled: false
Boxcar width: 0
XAxis mode: Wavelengths
Number of Pixels in Spectrum: 3648
>>>>>Begin Spectral Data<<<<<
178.204	-141.31
178.424	-141.31
178.644	-141.31
178.864	-94.21
179.084	-137.21
179.304	-14.34
179.524	-45.06
179.744	-8.19
179.964	96.25
180.184	8.19
180.404	0
180.624	-65.54
180.844	90.11
181.064	-4.1
181.283	-69.63
181.503	-28.67
181.723	40.96
181.943	-26.62
182.163	47.1
182.383	40.96
182.602	49.15
182.822	-8.19
183.042	20.48
183.262	14.34
183.482	-16.38
183.701	-36.86
183.921	28.67
184.141	4.1
184.361	4.1
184.58	24.58
184.8	28.67
185.02	24.58
185.239	79.87
185.459	55.3
185.679	63.49
185.898	-90.11
186.118	75.77
186.338	69.63
186.557	-18.43
186.777	0
186.997	69.63
187.216	32.77
187.436	26.62
187.655	8.19
187.875	36.86
188.095	12.29
188.314	59.39
188.534	79.87
188.753	53.25
188.973	59.39
189.192	57.34
189.412	-34.82
189.631	22.53
189.851	36.86
190.07	100.35
190.29	-20.48
190.509	-18.43
190.729	28.67
190.948	-36.86
191.168	104.45
191.387	-12.29
191.607	10.24
191.826	-4.1
192.045	28.67
192.265	69.63
192.484	59.39
192.704	4.1
192.923	-20.48
193.142	77.82
193.362	53.25
193.581	14.34
193.8	90.11
194.02	126.97
194.239	6.14
194.458	-16.38
194.678	-61.44
194.897	47.1
195.116	8.19
195.335	6.14
195.555	55.3
195.774	73.73
195.993	45.06
196.212	-4.1
196.432	-57.34
196.651	24.58
196.87	6.14
197.089	86.01
197.308	-12.29
197.528	2.05
197.747	0
197.966	53.25
198.185	69.63
198.404	61.44
198.623	24.58
198.842	104.45
199.062	16.38
199.281	63.49
199.5	-26.62
199.719	49.15
199.938	98.3
200.157	14.34
200.376	51.2
200.595	32.77
200.814	16.38
201.033	-38.91
201.252	-12.29
201.471	-6.14
201.69	-36.86
201.909	16.38
202.128	14.34
202.347	22.53
202.566	69.63
202.785	-32.77
203.004	36.86
203.223	69.63
203.442	40.96
203.661	10.24
203.879	-45.06
204.098	20.48
204.317	-2.05
204.536	24.58
204.755	79.87
204.974	-24.58
205.193	67.58
205.411	16.38
205.63	61.44
205.849	20.48
206.068	6.14
206.287	-71.68
206.505	57.34
206.724	-67.58
206.943	47.1
207.162	2.05
207.381	6.14
207.599	4.1
207.818	75.77
208.037	4.1
208.255	-18.43
208.474	-34.82
208.693	77.82
208.911	-6.14
209.13	-53.25
209.349	53.25
209.567	69.63
209.786	28.67
210.005	51.2
210.223	-2.05
210.442	8.19
210.661	67.58
210.879	30.72
211.098	63.49
211.316	53.25
211.535	49.15
211.753	-43.01
211.972	106.49
212.191	-12.29
212.409	65.53
212.628	16.38
212.846	45.06
213.065	2.05
213.283	-4.1
213.502	18.43
213.72	77.82
213.938	10.24
214.157	96.25
214.375	4.1
214.594	61.44
214.812	18.43
215.031	30.72
215.249	-18.43
215.467	-12.29
215.686	110.59
215.904	63.49
216.122	36.86
216.341	38.91
216.559	12.29
216.778	86.01
216.996	40.96
217.214	-18.43
217.432	-2.05
217.651	8.19
217.869	-2.05
218.087	38.91
218.306	0
218.524	40.96
218.742	12.29
218.96	36.86
219.179	-12.29
219.397	51.2
219.615	45.06
219.833	81.92
220.051	20.48
220.27	96.25
220.488	34.82
220.706	122.88
220.924	-43.01
221.142	79.87
221.36	8.19
221.578	86.01
221.796	28.67
222.015	102.4
222.233	24.58
222.451	94.21
222.669	24.58
222.887	49.15
223.105	30.72
223.323	40.96
223.541	10.24
223.759	104.45
223.977	-16.38
224.195	-8.19
224.413	47.1
224.631	75.77
224.849	79.87
225.067	55.3
225.285	18.43
225.503	75.77
225.721	-10.24
225.939	14.34
226.157	-10.24
226.375	159.74
226.592	-34.82
226.81	4.1
227.028	118.78
227.246	45.06
227.464	69.63
227.682	69.63
227.9	-36.86
228.117	45.06
228.335	61.44
228.553	-12.29
228.771	-8.19
228.989	-18.43
229.206	26.62
229.424	4.1
229.642	-10.24
229.86	79.87
230.077	14.34
230.295	12.29
230.513	36.86
230.731	53.25
230.948	30.72
231.166	61.44
231.384	34.82
231.601	79.87
231.819	53.25
232.037	53.25
232.254	12.29
232.472	77.82
232.689	6.14
232.907	75.77
233.125	-24.58
233.342	14.34
233.56	-6.14
233.777	40.96
233.995	-18.43
234.213	86.01
234.43	-20.48
234.648	36.86
234.865	0
235.083	47.1
235.3	-36.86
235.518	24.58
235.735	28.67
235.953	53.25
236.17	-4.1
236.388	12.29
236.605	28.67
236.822	65.53
237.04	-36.86
237.257	12.29
237.475	-34.82
237.692	-26.62
237.909	65.53
238.127	86.01
238.344	63.49
238.562	61.44
238.779	-12.29
238.996	-34.82
239.214	98.3
239.431	36.86
239.648	45.06
239.865	77.82
240.083	47.1
240.3	22.53
240.517	-55.3
240.735	-45.06
240.952	65.53
241.169	81.92
241.386	67.58
241.603	-12.29
241.821	14.34
242.038	110.59
242.255	86.01
242.472	-20.48
242.689	14.34
242.907	8.19
243.124	90.11
243.341	-18.43
243.558	61.44
243.775	69.63
243.992	24.58
244.209	-51.2
244.426	-12.29
244.643	61.44
244.86	24.58
245.078	-4.1
245.295	8.19
245.512	-28.67
245.729	-10.24
245.946	102.4
246.163	28.67
246.38	67.58
246.597	-4.1
246.814	45.06
247.031	61.44
247.248	22.53
247.464	-38.91
247.681	6.14
247.898	20.48
248.115	86.01
248.332	6.14
248.549	69.63
248.766	94.21
248.983	-22.53
249.2	28.67
249.417	61.44
249.633	30.72
249.85	-40.96
250.067	57.34
250.284	36.86
250.501	-20.48
250.717	-26.62
250.934	61.44
251.151	94.21
251.368	8.19
251.585	55.3
251.801	20.48
252.018	40.96
252.235	94.21
252.451	-12.29
252.668	49.15
252.885	57.34
253.102	53.25
253.318	40.96
253.535	40.96
253.752	-14.34
253.968	0
254.185	-36.86
254.401	28.67
254.618	47.1
254.835	-18.43
255.051	69.63
255.268	36.86
255.484	61.44
255.701	47.1
255.917	94.21
256.134	-69.63
256.351	67.58
256.567	-12.29
256.784	49.15
257	-61.44
257.217	20.48
257.433	116.73
257.65	45.06
257.866	4.1
258.082	-18.43
258.299	-12.29
258.515	-28.67
258.732	38.91
258.948	18.43
259.165	40.96
259.381	8.19
259.597	-14.34
259.814	16.38
260.03	8.19
260.246	16.38
260.463	67.58
260.679	6.14
260.895	24.58
261.112	57.34
261.328	-12.29
261.544	12.29
261.761	43.01
261.977	24.58
262.193	49.15
262.409	110.59
262.626	8.19
262.842	40.96
263.058	45.06
263.274	32.77
263.49	-6.14
263.707	36.86
263.923	26.62
264.139	53.25
264.355	14.34
264.571	118.78
264.787	12.29
265.004	69.63
265.22	45.06
265.436	-32.77
265.652	-20.48
265.868	55.3
266.084	-24.58
266.3	86.01
266.516	-16.38
266.732	-8.19
266.948	30.72
267.164	61.44
267.38	83.97
267.596	-45.06
267.812	129.02
268.028	-12.29
268.244	-20.48
268.46	59.39
268.676	-28.67
268.892	0
269.108	-22.53
269.324	32.77
269.54	28.67
269.756	94.21
269.972	-12.29
270.188	4.1
270.403	-61.44
270.619	61.44
270.835	43.01
271.051	24.58
271.267	12.29
271.483	22.53
271.698	51.2
271.914	69.63
272.13	12.29
272.346	0
272.562	40.96
272.777	40.96
272.993	-22.53
273.209	32.77
273.425	36.86
273.64	6.14
273.856	61.44
274.072	57.34
274.287	20.48
274.503	55.3
274.719	34.82
274.934	40.96
275.15	81.92
275.366	61.44
275.581	40.96
275.797	53.25
276.012	90.11
276.228	77.82
276.444	16.38
276.659	43.01
276.875	-28.67
277.09	71.68
277.306	-20.48
277.521	49.15
277.737	-18.43
277.952	4.1
278.168	20.48
278.383	94.21
278.599	69.63
278.814	86.01
279.03	53.25
279.245	45.06
279.461	12.29
279.676	77.82
279.892	-14.34
280.107	49.15
280.322	36.86
280.538	75.77
280.753	8.19
280.969	77.82
281.184	-18.43
281.399	55.3
281.615	32.77
281.83	49.15
282.045	49.15
282.26	-28.67
282.476	61.44
282.691	86.01
282.906	6.14
283.122	6.14
283.337	-30.72
283.552	96.25
283.767	20.48
283.983	30.72
284.198	43.01
284.413	53.25
284.628	-18.43
284.843	49.15
285.058	30.72
285.274	28.67
285.489	-10.24
285.704	86.01
285.919	-18.43
286.134	92.16
286.349	4.1
286.564	16.38
286.779	90.11
286.995	65.53
287.21	-90.11
287.425	38.91
287.64	20.48
287.855	-45.06
288.07	-8.19
288.285	-20.48
288.5	36.86
288.715	94.21
288.93	38.91
289.145	102.4
289.36	55.3
289.575	-40.96
289.79	61.44
290.004	55.3
290.219	116.73
290.434	-10.24
290.649	32.77
290.864	4.1
291.079	10.24
291.294	55.3
291.509	-18.43
291.724	10.24
291.938	-32.77
292.153	28.67
292.368	0
292.583	102.4
292.798	38.91
293.012	22.53
293.227	86.01
293.442	12.29
293.657	34.82
293.871	81.92
294.086	49.15
294.301	79.87
294.516	77.82
294.73	2.05
294.945	-57.34
295.16	32.77
295.374	73.73
295.589	45.06
295.804	63.49
296.018	65.53
296.233	-12.29
296.447	57.34
296.662	-73.73
296.877	51.2
297.091	38.91
297.306	16.38
297.52	65.53
297.735	-10.24
297.949	49.15
298.164	6.14
298.378	-32.77
298.593	102.4
298.807	-2.05
299.022	-24.58
299.236	36.86
299.451	94.21
299.665	86.01
299.88	36.86
300.094	110.59
300.309	36.86
300.523	28.67
300.737	26.62
300.952	71.68
301.166	-4.1
301.381	40.96
301.595	20.48
301.809	18.43
302.024	0
302.238	57.34
302.452	8.19
302.667	65.53
302.881	36.86
303.095	61.44
303.309	69.63
303.524	-8.19
303.738	14.34
303.952	2.05
304.166	79.87
304.381	4.1
304.595	63.49
304.809	49.15
305.023	65.53
305.237	96.25
305.452	53.25
305.666	53.25
305.88	20.48
306.094	112.64
306.308	38.91
306.522	30.72
306.736	40.96
306.95	-4.1
307.164	118.78
307.379	-47.1
307.593	86.01
307.807	55.3
308.021	-4.1
308.235	28.67
308.449	-18.43
308.663	-10.24
308.877	149.5
309.091	-10.24
309.305	-18.43
309.519	-126.97
309.733	34.82
309.947	57.34
310.161	63.49
310.374	155.65
310.588	51.2
310.802	28.67
311.016	28.67
311.23	24.58
311.444	63.49
311.658	96.25
311.872	69.63
312.085	-26.62
312.299	67.58
312.513	51.2
312.727	110.59
312.941	45.06
313.154	22.53
313.368	57.34
313.582	10.24
313.796	4.1
314.009	36.86
314.223	20.48
314.437	79.87
314.651	-4.1
314.864	57.34
315.078	73.73
315.292	57.34
315.505	67.58
315.719	88.06
315.933	71.68
316.146	59.39
316.36	-32.77
316.573	49.15
316.787	16.38
317.001	122.88
317.214	4.1
317.428	40.96
317.641	34.82
317.855	26.62
318.068	-12.29
318.282	30.72
318.495	69.63
318.709	63.49
318.922	61.44
319.136	32.77
319.349	6.14
319.563	79.87
319.776	79.87
319.99	12.29
320.203	61.44
320.417	14.34
320.63	55.3
320.843	16.38
321.057	22.53
321.27	40.96
321.483	65.53
321.697	151.55
321.91	-8.19
322.124	45.06
322.337	32.77
322.55	14.34
322.763	28.67
322.977	30.72
323.19	-43.01
323.403	12.29
323.617	57.34
323.83	83.97
324.043	-20.48
324.256	30.72
324.469	45.06
324.683	57.34
324.896	-10.24
325.109	-8.19
325.322	12.29
325.535	20.48
325.748	96.25
325.962	-30.72
326.175	14.34
326.388	53.25
326.601	45.06
326.814	-2.05
327.027	-20.48
327.24	53.25
327.453	55.3
327.666	14.34
327.879	88.06
328.092	61.44
328.305	24.58
328.518	55.3
328.731	-77.82
328.944	47.1
329.157	86.01
329.37	-36.86
329.583	-34.82
329.796	63.49
330.009	-36.86
330.222	65.53
330.435	40.96
330.648	-22.53
330.861	28.67
331.073	55.3
331.286	36.86
331.499	88.06
331.712	-10.24
331.925	-4.1
332.138	-8.19
332.35	126.97
332.563	73.73
332.776	28.67
332.989	4.1
333.202	-12.29
333.414	-4.1
333.627	28.67
333.84	22.53
334.053	55.3
334.265	59.39
334.478	8.19
334.691	12.29
334.903	83.97
335.116	-32.77
335.329	-2.05
335.541	88.06
335.754	28.67
335.966	-10.24
336.179	32.77
336.392	34.82
336.604	-8.19
336.817	20.48
337.029	55.3
337.242	65.53
337.454	38.91
337.667	14.34
337.88	73.73
338.092	6.14
338.305	-24.58
338.517	47.1
338.729	67.58
338.942	-28.67
339.154	6.14
339.367	-26.62
339.579	77.82
339.792	-28.67
340.004	12.29
340.217	86.01
340.429	28.67
340.641	49.15
340.854	63.49
341.066	20.48
341.278	120.83
341.491	47.1
341.703	47.1
341.915	-53.25
342.128	73.73
342.34	53.25
342.552	28.67
342.764	-10.24
342.977	-28.67
343.189	53.25
343.401	71.68
343.613	4.1
343.826	61.44
344.038	-43.01
344.25	18.43
344.462	-16.38
344.674	49.15
344.886	-18.43
345.099	16.38
345.311	6.14
345.523	40.96
345.735	14.34
345.947	14.34
346.159	4.1
346.371	61.44
346.583	-4.1
346.795	69.63
347.007	-6.14
347.219	112.64
347.431	53.25
347.643	57.34
347.855	-18.43
348.067	126.97
348.279	-71.68
348.491	96.25
348.703	71.68
348.915	26.62
349.127	49.15
349.339	20.48
349.551	45.06
349.763	10.24
349.975	-4.1
350.187	61.44
350.399	34.82
350.61	38.91
350.822	32.77
351.034	112.64
351.246	55.3
351.458	61.44
351.669	36.86
351.881	0
352.093	67.58
352.305	90.11
352.517	-16.38
352.728	67.58
352.94	28.67
353.152	20.48
353.363	-14.34
353.575	40.96
353.787	65.53
353.999	10.24
354.21	102.4
354.422	-28.67
354.633	20.48
354.845	36.86
355.057	6.14
355.268	118.78
355.48	79.87
355.692	-32.77
355.903	8.19
356.115	38.91
356.326	30.72
356.538	96.25
356.749	2.05
356.961	188.41
357.172	61.44
357.384	65.53
357.595	86.01
357.807	51.2
358.018	0
358.23	36.86
358.441	73.73
358.653	135.17
358.864	96.25
359.075	45.06
359.287	69.63
359.498	55.3
359.709	30.72
359.921	28.67
360.132	4.1
360.344	77.82
360.555	20.48
360.766	61.44
360.977	47.1
361.189	159.74
361.4	61.44
361.611	81.92
361.823	110.59
362.034	106.49
362.245	34.82
362.456	28.67
362.667	96.25
362.879	0
363.09	22.53
363.301	47.1
363.512	81.92
363.723	-6.14
363.935	4.1
364.146	4.1
364.357	126.97
364.568	16.38
364.779	-4.1
364.99	28.67
365.201	4.1
365.412	45.06
365.623	8.19
365.834	51.2
366.045	43.01
366.256	61.44
366.467	59.39
366.678	120.83
366.889	53.25
367.1	63.49
367.311	22.53
367.522	-8.19
367.733	69.63
367.944	4.1
368.155	45.06
368.366	73.73
368.577	110.59
368.788	20.48
368.999	0
369.209	100.35
369.42	45.06
369.631	6.14
369.842	53.25
370.053	112.64
370.264	110.59
370.474	4.1
370.685	16.38
370.896	32.77
371.107	73.73
371.317	47.1
371.528	77.82
371.739	145.41
371.95	20.48
372.16	22.53
372.371	6.14
372.582	-20.48
372.792	81.92
373.003	20.48
373.214	61.44
373.424	20.48
373.635	34.82
373.846	86.01
374.056	65.53
374.267	71.68
374.477	61.44
374.688	24.58
374.898	0
375.109	94.21
375.319	47.1
375.53	40.96
375.74	24.58
375.951	49.15
376.161	71.68
376.372	45.06
376.582	65.53
376.793	69.63
377.003	65.53
377.214	12.29
377.424	67.58
377.635	20.48
377.845	2.05
378.055	-36.86
378.266	-2.05
378.476	77.82
378.686	14.34
378.897	-4.1
379.107	-34.82
379.317	86.01
379.528	-32.77
379.738	30.72
379.948	28.67
380.158	61.44
380.369	4.1
380.579	55.3
380.789	32.77
380.999	57.34
381.21	16.38
381.42	151.55
381.63	36.86
381.84	38.91
382.05	30.72
382.261	65.53
382.471	22.53
382.681	122.88
382.891	53.25
383.101	118.78
383.311	24.58
383.521	8.19
383.731	106.49
383.941	28.67
384.151	49.15
384.361	106.49
384.571	40.96
384.781	40.96
384.991	73.73
385.201	143.36
385.411	12.29
385.621	61.44
385.831	10.24
386.041	12.29
386.251	49.15
386.461	28.67
386.671	67.58
386.881	77.82
387.091	51.2
387.301	106.49
387.511	6.14
387.72	69.63
387.93	75.77
388.14	-38.91
388.35	118.78
388.56	34.82
388.769	94.21
388.979	61.44
389.189	57.34
389.399	45.06
389.609	51.2
389.818	102.4
390.028	47.1
390.238	47.1
390.447	-40.96
390.657	73.73
390.867	112.64
391.076	36.86
391.286	34.82
391.496	96.25
391.705	4.1
391.915	92.16
392.125	86.01
392.334	161.79
392.544	96.25
392.753	96.25
392.963	86.01
393.172	81.92
393.382	-20.48
393.591	102.4
393.801	28.67
394.01	65.53
394.22	102.4
394.429	118.78
394.639	139.26
394.848	126.97
395.058	94.21
395.267	77.82
395.477	-10.24
395.686	122.88
395.895	94.21
396.105	114.69
396.314	88.06
396.524	53.25
396.733	61.44
396.942	118.78
397.152	139.26
397.361	133.12
397.57	65.53
397.78	61.44
397.989	112.64
398.198	137.21
398.407	14.34
398.617	55.3
398.826	118.78
399.035	28.67
399.244	102.4
399.453	137.21
399.663	139.26
399.872	131.07
400.081	59.39
400.29	118.78
400.499	53.25
400.708	88.06
400.917	36.86
401.127	100.35
401.336	92.16
401.545	176.13
401.754	118.78
401.963	67.58
402.172	61.44
402.381	86.01
402.59	43.01
402.799	110.59
403.008	153.6
403.217	149.5
403.426	106.49
403.635	102.4
403.844	104.45
404.053	67.58
404.262	126.97
404.471	192.51
404.68	131.07
404.888	145.41
405.097	153.6
405.306	157.69
405.515	96.25
405.724	86.01
405.933	110.59
406.142	106.49
406.35	221.18
406.559	131.07
406.768	163.84
406.977	182.27
407.185	118.78
407.394	180.22
407.603	188.41
407.812	194.56
408.02	159.74
408.229	208.89
408.438	192.51
408.646	212.99
408.855	219.13
409.064	266.24
409.272	180.22
409.481	294.91
409.69	253.95
409.898	315.39
410.107	303.1
410.315	321.53
410.524	258.04
410.733	323.58
410.941	372.73
411.15	325.63
411.358	315.39
411.567	393.21
411.775	307.2
411.984	385.02
412.192	456.7
412.401	385.02
412.609	333.82
412.818	477.18
413.026	495.61
413.234	430.07
413.443	511.99
413.651	458.74
413.86	544.76
414.068	518.14
414.276	516.09
414.485	587.77
414.693	614.39
414.901	677.88
415.11	659.45
415.318	643.06
415.526	614.39
415.734	643.06
415.943	714.74
416.151	724.98
416.359	819.19
416.567	681.97
416.776	831.48
416.984	780.28
417.192	1003.5
417.4	917.49
417.608	874.48
417.817	907.25
418.025	929.78
418.233	1069.04
418.441	1069.04
418.649	1044.46
418.857	1069.04
419.065	1159.15
419.273	1208.3
419.481	1247.21
419.689	1173.49
419.897	1322.99
420.105	1329.13
420.313	1322.99
420.521	1460.2
420.729	1386.47
420.937	1394.67
421.145	1535.98
421.353	1642.47
421.561	1681.38
421.769	1789.92
421.977	1732.58
422.185	1830.88
422.393	1978.34
422.601	2031.59
422.809	1986.53
423.017	2039.78
423.224	2062.3
423.432	2228.19
423.64	2201.57
423.848	2455.51
424.056	2418.65
424.263	2543.58
424.471	2539.48
424.679	2445.27
424.887	2809.81
425.094	2813.91
425.302	2709.46
425.51	2750.42
425.718	3028.95
425.925	3057.62
426.133	3092.43
426.341	3291.09
426.548	3336.14
426.756	3407.82
426.964	3508.17
427.171	3588.04
427.379	3805.13
427.586	3717.06
427.794	3934.15
428.001	4091.84
428.209	4337.6
428.417	4304.83
428.624	4614.07
428.832	4579.26
429.039	4571.07
429.247	4632.51
429.454	4886.45
429.662	5259.18
429.869	4931.51
430.076	5312.43
430.284	5212.08
430.491	5306.29
430.699	5644.2
430.906	5705.64
431.114	5713.83
431.321	6002.6
431.528	6061.99
431.736	6496.16
431.943	6856.6
432.15	6619.03
432.358	6600.6
432.565	6905.75
432.772	6934.42
432.979	7405.45
433.187	7268.24
433.394	7417.74
433.601	7831.43
433.808	8025.99
434.016	8189.83
434.223	8413.06
434.43	8732.54
434.637	8640.38
434.844	9336.69
435.052	9281.39
435.259	9181.04
435.466	9496.43
435.673	9285.49
435.88	10028.9
436.087	10471.26
436.294	10258.28
436.501	10102.63
436.708	10411.87
436.915	10823.51
437.122	11220.82
437.329	11276.12
437.537	11546.45
437.743	11603.79
437.95	11788.11
438.157	12316.48
438.364	12623.68
438.571	12525.38
438.778	12625.73
438.985	13606.7
439.192	13102.9
439.399	13504.31
439.606	13485.87
439.813	14161.7
440.02	14964.51
440.227	14712.61
440.433	14468.9
440.64	14935.84
440.847	14790.43
441.054	15222.55
441.261	16404.23
441.467	16221.96
441.674	16379.65
441.881	17168.12
442.088	16807.68
442.294	16836.35
442.501	17667.83
442.708	17473.27
442.914	18282.22
443.121	19218.14
443.328	18374.38
443.534	19734.23
443.741	19517.14
443.948	18869.98
444.154	20586.18
444.361	20373.19
444.568	20596.42
444.774	20414.15
444.981	20762.31
445.187	21253.82
445.394	22318.76
445.6	21810.87
445.807	24000.15
446.013	22693.54
446.22	23260.83
446.426	24415.88
446.633	24698.5
446.839	25185.92
447.046	24415.88
447.252	25456.25
447.459	25579.13
447.665	25747.06
447.871	26586.73
448.078	27602.52
448.284	26596.97
448.491	27084.39
448.697	28227.15
448.903	28624.46
449.11	29165.12
449.316	28870.22
449.522	28913.22
449.728	29898.3
449.935	29703.74
450.141	30074.42
450.347	30733.87
450.553	29550.14
450.76	29799.99
450.966	30989.86
451.172	30602.8
451.378	31440.42
451.584	30488.11
451.791	31680.03
451.997	31804.95
452.203	31981.08
452.409	31878.68
452.615	31919.64
452.821	31024.68
453.027	30758.44
453.233	32253.46
453.44	30619.18
453.646	31430.18
453.852	31241.76
454.058	31981.08
454.264	30807.59
454.47	31618.59
454.676	30828.07
454.882	31938.07
455.088	29185.6
455.294	29464.13
455.5	29951.54
455.705	30436.91
455.911	29328.96
456.117	28839.5
456.323	28173.91
456.529	26812.01
456.735	27938.39
456.941	27203.17
457.147	26969.7
457.352	26476.14
457.558	25859.7
457.764	25910.9
457.97	25077.38
458.176	24903.3
458.381	25013.89
458.587	23613.08
458.793	23918.23
458.999	22460.07
459.204	23967.38
459.41	23387.8
459.616	21950.13
459.821	22064.82
460.027	21866.16
460.233	21479.1
460.438	20315.85
460.644	20868.8
460.85	19662.55
461.055	19347.16
461.261	19271.39
461.466	17782.51
461.672	17444.6
461.878	18640.61
462.083	17491.7
462.289	16928.51
462.494	17084.16
462.7	15982.35
462.905	15535.89
463.111	16258.82
463.316	16434.95
463.522	15587.09
463.727	15900.43
463.932	15992.59
464.138	15740.69
464.343	15857.42
464.549	15183.64
464.754	15898.38
464.959	15726.35
465.165	15687.44
465.37	15167.26
465.575	14413.6
465.781	14984.99
465.986	15171.35
466.191	14452.52
466.397	14317.35
466.602	13365.04
466.807	14255.91
467.012	14307.11
467.218	14020.39
467.423	13770.54
467.628	13920.04
467.833	14616.35
468.038	14102.31
