Data from USB4F104151__160__14-19-36-665.txt Node

Date: Thu Mar 13 14:19:36 EDT 2025
User: louis
Spectrometer: USB4F10415
Trigger mode: 4
Integration Time (sec): 2.000000E-2
Scans to average: 1
Electric dark correction enabled: true
Nonlinearity correction enabled: false
Boxcar width: 0
XAxis mode: Wavelengths
Number of Pixels in Spectrum: 3648
>>>>>Begin Spectral Data<<<<<
178.204	-122.71
178.424	-122.71
178.644	-122.71
178.864	-151.38
179.084	-161.62
179.304	43.18
179.524	-53.08
179.744	-57.17
179.964	55.47
180.184	-91.99
180.404	65.71
180.624	-10.07
180.844	-16.21
181.064	-51.03
181.283	47.27
181.503	26.79
181.723	41.13
181.943	-71.51
182.163	14.51
182.383	32.94
182.602	71.85
182.822	22.7
183.042	16.55
183.262	0.17
183.482	-55.12
183.701	47.27
183.921	30.89
184.141	-59.22
184.361	149.67
184.58	-34.64
184.8	55.47
185.02	-3.93
185.239	8.36
185.459	-48.98
185.679	63.66
185.898	-42.84
186.118	24.75
186.338	39.08
186.557	22.7
186.777	55.47
186.997	18.6
187.216	-10.07
187.436	16.55
187.655	28.84
187.875	14.51
188.095	0.17
188.314	84.14
188.534	22.7
188.753	-14.17
188.973	55.47
189.192	-5.97
189.412	14.51
189.631	67.75
189.851	24.75
190.07	71.85
190.29	-42.84
190.509	-18.26
190.729	8.36
190.948	41.13
191.168	121
191.387	22.7
191.607	-42.84
191.826	-10.07
192.045	30.89
192.265	10.41
192.484	12.46
192.704	22.7
192.923	-55.12
193.142	59.56
193.362	8.36
193.581	37.03
193.8	8.36
194.02	-5.97
194.239	-14.17
194.458	-12.12
194.678	84.14
194.897	12.46
195.116	-3.93
195.335	-40.79
195.555	57.51
195.774	49.32
195.993	88.23
196.212	18.6
196.432	34.99
196.651	43.18
196.87	8.36
197.089	63.66
197.308	-34.64
197.528	80.04
197.747	-57.17
197.966	14.51
198.185	51.37
198.404	8.36
198.623	-22.36
198.842	98.47
199.062	30.89
199.281	73.9
199.5	51.37
199.719	92.33
199.938	14.51
200.157	41.13
200.376	104.62
200.595	88.23
200.814	24.75
201.033	6.31
201.252	65.71
201.471	20.65
201.69	110.76
201.909	30.89
202.128	34.99
202.347	6.31
202.566	24.75
202.785	-14.17
203.004	-26.45
203.223	55.47
203.442	47.27
203.661	14.51
203.879	24.75
204.098	39.08
204.317	-10.07
204.536	45.23
204.755	16.55
204.974	8.36
205.193	8.36
205.411	43.18
205.63	-18.26
205.849	61.61
206.068	65.71
206.287	-34.64
206.505	49.32
206.724	-28.5
206.943	14.51
207.162	69.8
207.381	-46.93
207.599	47.27
207.818	-10.07
208.037	47.27
208.255	30.89
208.474	18.6
208.693	75.95
208.911	43.18
209.13	57.51
209.349	73.9
209.567	24.75
209.786	47.27
210.005	-24.4
210.223	-63.32
210.442	-26.45
210.661	16.55
210.879	65.71
211.098	26.79
211.316	10.41
211.535	92.33
211.753	20.65
211.972	51.37
212.191	-16.21
212.409	20.65
212.628	-22.36
212.846	16.55
213.065	20.65
213.283	96.43
213.502	43.18
213.72	-22.36
213.938	41.13
214.157	90.28
214.375	65.71
214.594	10.41
214.812	121
215.031	94.38
215.249	71.85
215.467	-10.07
215.686	20.65
215.904	22.7
216.122	-10.07
216.341	4.27
216.559	32.94
216.778	57.51
216.996	102.57
217.214	57.51
217.432	-28.5
217.651	18.6
217.869	10.41
218.087	6.31
218.306	-34.64
218.524	8.36
218.742	39.08
218.96	39.08
219.179	59.56
219.397	57.51
219.615	153.77
219.833	-1.88
220.051	34.99
220.27	108.71
220.488	82.09
220.706	22.7
220.924	-38.74
221.142	18.6
221.36	6.31
221.578	47.27
221.796	-12.12
222.015	92.33
222.233	30.89
222.451	22.7
222.669	-18.26
222.887	0.17
223.105	32.94
223.323	57.51
223.541	2.22
223.759	-18.26
223.977	30.89
224.195	-40.79
224.413	-18.26
224.631	59.56
224.849	82.09
225.067	73.9
225.285	20.65
225.503	8.36
225.721	37.03
225.939	6.31
226.157	80.04
226.375	127.14
226.592	-34.64
226.81	16.55
227.028	8.36
227.246	47.27
227.464	6.31
227.682	10.41
227.9	82.09
228.117	39.08
228.335	32.94
228.553	94.38
228.771	-1.88
228.989	98.47
229.206	41.13
229.424	-30.55
229.642	-16.21
229.86	4.27
230.077	45.23
230.295	49.32
230.513	6.31
230.731	47.27
230.948	71.85
231.166	123.05
231.384	71.85
231.601	-1.88
231.819	39.08
232.037	-48.98
232.254	2.22
232.472	14.51
232.689	22.7
232.907	73.9
233.125	-14.17
233.342	-18.26
233.56	-40.79
233.777	-3.93
233.995	39.08
234.213	114.86
234.43	22.7
234.648	34.99
234.865	16.55
235.083	53.42
235.3	30.89
235.518	100.52
235.735	73.9
235.953	-14.17
236.17	16.55
236.388	24.75
236.605	-63.32
236.822	80.04
237.04	49.32
237.257	55.47
237.475	-53.08
237.692	86.19
237.909	55.47
238.127	8.36
238.344	55.47
238.562	59.56
238.779	-3.93
238.996	30.89
239.214	71.85
239.431	102.57
239.648	26.79
239.865	63.66
240.083	149.67
240.3	32.94
240.517	49.32
240.735	6.31
240.952	121
241.169	80.04
241.386	2.22
241.603	84.14
241.821	-1.88
242.038	100.52
242.255	49.32
242.472	-8.02
242.689	-18.26
242.907	63.66
243.124	65.71
243.341	6.31
243.558	18.6
243.775	65.71
243.992	-8.02
244.209	80.04
244.426	51.37
244.643	22.7
244.86	51.37
245.078	108.71
245.295	34.99
245.512	45.23
245.729	55.47
245.946	55.47
246.163	55.47
246.38	-1.88
246.597	6.31
246.814	104.62
247.031	-30.55
247.248	102.57
247.464	8.36
247.681	34.99
247.898	30.89
248.115	39.08
248.332	-30.55
248.549	-10.07
248.766	94.38
248.983	67.75
249.2	41.13
249.417	51.37
249.633	-30.55
249.85	20.65
250.067	-51.03
250.284	67.75
250.501	106.67
250.717	22.7
250.934	51.37
251.151	51.37
251.368	41.13
251.585	80.04
251.801	59.56
252.018	-8.02
252.235	112.81
252.451	2.22
252.668	-73.56
252.885	24.75
253.102	55.47
253.318	41.13
253.535	8.36
253.752	49.32
253.968	30.89
254.185	-65.36
254.401	-8.02
254.618	-26.45
254.835	80.04
255.051	125.1
255.268	-14.17
255.484	55.47
255.701	84.14
255.917	67.75
256.134	59.56
256.351	57.51
256.567	8.36
256.784	55.47
257	2.22
257.217	37.03
257.433	47.27
257.65	49.32
257.866	-18.26
258.082	10.41
258.299	-34.64
258.515	0.17
258.732	0.17
258.948	-18.26
259.165	39.08
259.381	30.89
259.597	14.51
259.814	-8.02
260.03	-12.12
260.246	77.99
260.463	75.95
260.679	-8.02
260.895	51.37
261.112	51.37
261.328	47.27
261.544	30.89
261.761	100.52
261.977	14.51
262.193	20.65
262.409	-8.02
262.626	32.94
262.842	-34.64
263.058	49.32
263.274	-1.88
263.49	-20.31
263.707	47.27
263.923	53.42
264.139	41.13
264.355	24.75
264.571	96.43
264.787	43.18
265.004	71.85
265.22	43.18
265.436	94.38
265.652	30.89
265.868	39.08
266.084	41.13
266.3	80.04
266.516	51.37
266.732	84.14
266.948	67.75
267.164	114.86
267.38	8.36
267.596	90.28
267.812	71.85
268.028	47.27
268.244	39.08
268.46	8.36
268.676	121
268.892	-48.98
269.108	4.27
269.324	2.22
269.54	-44.88
269.756	63.66
269.972	63.66
270.188	55.47
270.403	88.23
270.619	116.9
270.835	51.37
271.051	26.79
271.267	-3.93
271.483	-10.07
271.698	51.37
271.914	2.22
272.13	10.41
272.346	63.66
272.562	65.71
272.777	182.44
272.993	37.03
273.209	-26.45
273.425	47.27
273.64	-1.88
273.856	-40.79
274.072	39.08
274.287	22.7
274.503	39.08
274.719	55.47
274.934	63.66
275.15	26.79
275.366	22.7
275.581	0.17
275.797	34.99
276.012	28.84
276.228	34.99
276.444	39.08
276.659	22.7
276.875	20.65
277.09	71.85
277.306	10.41
277.521	57.51
277.737	14.51
277.952	-5.97
278.168	12.46
278.383	-8.02
278.599	45.23
278.814	18.6
279.03	47.27
279.245	80.04
279.461	41.13
279.676	10.41
279.892	-1.88
280.107	94.38
280.322	53.42
280.538	12.46
280.753	90.28
280.969	-22.36
281.184	57.51
281.399	41.13
281.615	63.66
281.83	98.47
282.045	51.37
282.26	-1.88
282.476	49.32
282.691	59.56
282.906	98.47
283.122	57.51
283.337	-59.22
283.552	34.99
283.767	-10.07
283.983	51.37
284.198	26.79
284.413	8.36
284.628	47.27
284.843	32.94
285.058	104.62
285.274	-8.02
285.489	-55.12
285.704	16.55
285.919	12.46
286.134	-10.07
286.349	63.66
286.564	49.32
286.779	98.47
286.995	-10.07
287.21	59.56
287.425	22.7
287.64	8.36
287.855	32.94
288.07	24.75
288.285	-26.45
288.5	24.75
288.715	24.75
288.93	41.13
289.145	-16.21
289.36	51.37
289.575	-24.4
289.79	102.57
290.004	-22.36
290.219	147.62
290.434	30.89
290.649	39.08
290.864	69.8
291.079	37.03
291.294	39.08
291.509	55.47
291.724	26.79
291.938	41.13
292.153	6.31
292.368	28.84
292.583	34.99
292.798	86.19
293.012	112.81
293.227	-1.88
293.442	0.17
293.657	10.41
293.871	65.71
294.086	53.42
294.301	75.95
294.516	137.38
294.73	75.95
294.945	22.7
295.16	24.75
295.374	73.9
295.589	14.51
295.804	39.08
296.018	92.33
296.233	37.03
296.447	22.7
296.662	30.89
296.877	104.62
297.091	-22.36
297.306	112.81
297.52	51.37
297.735	51.37
297.949	-14.17
298.164	16.55
298.378	47.27
298.593	-16.21
298.807	37.03
299.022	55.47
299.236	39.08
299.451	41.13
299.665	-5.97
299.88	55.47
300.094	39.08
300.309	59.56
300.523	14.51
300.737	108.71
300.952	41.13
301.166	75.95
301.381	20.65
301.595	0.17
301.809	80.04
302.024	24.75
302.238	63.66
302.452	16.55
302.667	-3.93
302.881	57.51
303.095	22.7
303.309	84.14
303.524	63.66
303.738	-67.41
303.952	45.23
304.166	90.28
304.381	-63.32
304.595	22.7
304.809	20.65
305.023	0.17
305.237	37.03
305.452	98.47
305.666	59.56
305.88	34.99
306.094	-1.88
306.308	22.7
306.522	6.31
306.736	45.23
306.95	61.61
307.164	26.79
307.379	-3.93
307.593	63.66
307.807	67.75
308.021	34.99
308.235	75.95
308.449	6.31
308.663	55.47
308.877	82.09
309.091	16.55
309.305	73.9
309.519	8.36
309.733	18.6
309.947	14.51
310.161	39.08
310.374	92.33
310.588	12.46
310.802	18.6
311.016	39.08
311.23	-12.12
311.444	47.27
311.658	37.03
311.872	123.05
312.085	67.75
312.299	71.85
312.513	53.42
312.727	71.85
312.941	26.79
313.154	10.41
313.368	-32.6
313.582	57.51
313.796	84.14
314.009	53.42
314.223	106.67
314.437	22.7
314.651	22.7
314.864	-38.74
315.078	6.31
315.292	51.37
315.505	45.23
315.719	77.99
315.933	80.04
316.146	104.62
316.36	-40.79
316.573	65.71
316.787	88.23
317.001	49.32
317.214	100.52
317.428	0.17
317.641	59.56
317.855	39.08
318.068	-38.74
318.282	20.65
318.495	51.37
318.709	28.84
318.922	24.75
319.136	6.31
319.349	63.66
319.563	-42.84
319.776	-18.26
319.99	63.66
320.203	88.23
320.417	55.47
320.63	61.61
320.843	57.51
321.057	4.27
321.27	14.51
321.483	18.6
321.697	116.9
321.91	71.85
322.124	82.09
322.337	39.08
322.55	0.17
322.763	18.6
322.977	-1.88
323.19	-40.79
323.403	88.23
323.617	10.41
323.83	-12.12
324.043	112.81
324.256	53.42
324.469	-48.98
324.683	47.27
324.896	65.71
325.109	18.6
325.322	0.17
325.535	92.33
325.748	75.95
325.962	-10.07
326.175	45.23
326.388	24.75
326.601	51.37
326.814	22.7
327.027	14.51
327.24	41.13
327.453	0.17
327.666	41.13
327.879	6.31
328.092	77.99
328.305	51.37
328.518	141.48
328.731	-34.64
328.944	-42.84
329.157	47.27
329.37	-34.64
329.583	20.65
329.796	53.42
330.009	118.95
330.222	53.42
330.435	30.89
330.648	65.71
330.861	73.9
331.073	16.55
331.286	55.47
331.499	-8.02
331.712	55.47
331.925	55.47
332.138	86.19
332.35	73.9
332.563	22.7
332.776	86.19
332.989	77.99
333.202	-24.4
333.414	133.29
333.627	14.51
333.84	53.42
334.053	49.32
334.265	-26.45
334.478	63.66
334.691	51.37
334.903	-22.36
335.116	26.79
335.329	137.38
335.541	30.89
335.754	172.2
335.966	39.08
336.179	8.36
336.392	82.09
336.604	73.9
336.817	-14.17
337.029	98.47
337.242	84.14
337.454	39.08
337.667	30.89
337.88	73.9
338.092	-18.26
338.305	63.66
338.517	2.22
338.729	84.14
338.942	92.33
339.154	110.76
339.367	106.67
339.579	57.51
339.792	39.08
340.004	49.32
340.217	90.28
340.429	129.19
340.641	65.71
340.854	88.23
341.066	67.75
341.278	41.13
341.491	90.28
341.703	145.58
341.915	16.55
342.128	49.32
342.34	57.51
342.552	30.89
342.764	12.46
342.977	59.56
343.189	63.66
343.401	37.03
343.613	-40.79
343.826	67.75
344.038	6.31
344.25	139.43
344.462	49.32
344.674	-18.26
344.886	14.51
345.099	6.31
345.311	34.99
345.523	37.03
345.735	-36.69
345.947	90.28
346.159	6.31
346.371	47.27
346.583	-48.98
346.795	30.89
347.007	47.27
347.219	47.27
347.431	63.66
347.643	82.09
347.855	0.17
348.067	65.71
348.279	30.89
348.491	41.13
348.703	22.7
348.915	71.85
349.127	69.8
349.339	28.84
349.551	-1.88
349.763	80.04
349.975	47.27
350.187	139.43
350.399	51.37
350.61	114.86
350.822	-14.17
351.034	59.56
351.246	0.17
351.458	65.71
351.669	24.75
351.881	63.66
352.093	108.71
352.305	100.52
352.517	22.7
352.728	98.47
352.94	98.47
353.152	0.17
353.363	65.71
353.575	43.18
353.787	88.23
353.999	112.81
354.21	55.47
354.422	63.66
354.633	131.24
354.845	22.7
355.057	84.14
355.268	32.94
355.48	67.75
355.692	22.7
355.903	18.6
356.115	47.27
356.326	30.89
356.538	114.86
356.749	59.56
356.961	73.9
357.172	63.66
357.384	41.13
357.595	100.52
357.807	104.62
358.018	-18.26
358.23	106.67
358.441	151.72
358.653	47.27
358.864	8.36
359.075	32.94
359.287	37.03
359.498	77.99
359.709	47.27
359.921	49.32
360.132	57.51
360.344	71.85
360.555	110.76
360.766	65.71
360.977	-40.79
361.189	104.62
361.4	-69.46
361.611	71.85
361.823	71.85
362.034	57.51
362.245	47.27
362.456	26.79
362.667	47.27
362.879	-40.79
363.09	47.27
363.301	114.86
363.512	88.23
363.723	82.09
363.935	30.89
364.146	135.34
364.357	22.7
364.568	96.43
364.779	-34.64
364.99	-1.88
365.201	43.18
365.412	71.85
365.623	-24.4
365.834	82.09
366.045	51.37
366.256	106.67
366.467	39.08
366.678	73.9
366.889	14.51
367.1	96.43
367.311	6.31
367.522	-22.36
367.733	47.27
367.944	82.09
368.155	22.7
368.366	32.94
368.577	147.62
368.788	55.47
368.999	6.31
369.209	88.23
369.42	88.23
369.631	108.71
369.842	75.95
370.053	6.31
370.264	55.47
370.474	41.13
370.685	77.99
370.896	84.14
371.107	116.9
371.317	63.66
371.528	-8.02
371.739	73.9
371.95	57.51
372.16	96.43
372.371	67.75
372.582	63.66
372.792	92.33
373.003	94.38
373.214	53.42
373.424	82.09
373.635	49.32
373.846	53.42
374.056	75.95
374.267	108.71
374.477	49.32
374.688	-28.5
374.898	22.7
375.109	41.13
375.319	20.65
375.53	123.05
375.74	102.57
375.951	129.19
376.161	30.89
376.372	92.33
376.582	37.03
376.793	24.75
377.003	28.84
377.214	71.85
377.424	-14.17
377.635	30.89
377.845	-1.88
378.055	49.32
378.266	14.51
378.476	73.9
378.686	69.8
378.897	51.37
379.107	73.9
379.317	112.81
379.528	82.09
379.738	75.95
379.948	194.73
380.158	149.67
380.369	39.08
380.579	26.79
380.789	63.66
380.999	69.8
381.21	65.71
381.42	98.47
381.63	34.99
381.84	96.43
382.05	75.95
382.261	112.81
382.471	-5.97
382.681	73.9
382.891	65.71
383.101	102.57
383.311	32.94
383.521	88.23
383.731	43.18
383.941	22.7
384.151	32.94
384.361	-5.97
384.571	75.95
384.781	53.42
384.991	170.15
385.201	71.85
385.411	41.13
385.621	73.9
385.831	121
386.041	0.17
386.251	43.18
386.461	82.09
386.671	80.04
386.881	80.04
387.091	90.28
387.301	98.47
387.511	110.76
387.72	88.23
387.93	63.66
388.14	30.89
388.35	51.37
388.56	112.81
388.769	121
388.979	67.75
389.189	47.27
389.399	123.05
389.609	71.85
389.818	123.05
390.028	57.51
390.238	16.55
390.447	8.36
390.657	114.86
390.867	30.89
391.076	96.43
391.286	98.47
391.496	104.62
391.705	47.27
391.915	84.14
392.125	221.35
392.334	71.85
392.544	129.19
392.753	47.27
392.963	82.09
393.172	67.75
393.382	65.71
393.591	190.63
393.801	92.33
394.01	51.37
394.22	137.38
394.429	82.09
394.639	121
394.848	80.04
395.058	121
395.267	90.28
395.477	182.44
395.686	104.62
395.895	166.06
396.105	147.62
396.314	100.52
396.524	139.43
396.733	161.96
396.942	123.05
397.152	123.05
397.361	63.66
397.57	129.19
397.78	182.44
397.989	67.75
398.198	147.62
398.407	153.77
398.617	125.1
398.826	139.43
399.035	71.85
399.244	114.86
399.453	51.37
399.663	149.67
399.872	137.38
400.081	88.23
400.29	131.24
400.499	34.99
400.708	211.11
400.917	123.05
401.127	133.29
401.336	157.86
401.545	227.5
401.754	123.05
401.963	121
402.172	211.11
402.381	153.77
402.59	164.01
402.799	159.91
403.008	121
403.217	57.51
403.426	192.68
403.635	182.44
403.844	164.01
404.053	227.5
404.262	104.62
404.471	223.4
404.68	188.58
404.888	211.11
405.097	180.39
405.306	166.06
405.515	256.17
405.724	270.5
405.933	211.11
406.142	235.69
406.35	284.84
406.559	260.26
406.768	211.11
406.977	284.84
407.185	317.61
407.394	350.37
407.603	215.21
407.812	282.79
408.02	278.69
408.229	327.85
408.438	301.22
408.646	391.33
408.855	274.6
409.064	307.37
409.272	280.74
409.481	401.57
409.69	350.37
409.898	415.91
410.107	354.47
410.315	411.81
410.524	473.25
410.733	405.67
410.941	452.77
411.15	549.03
411.358	485.54
411.567	667.81
411.775	528.55
411.984	518.31
412.192	612.51
412.401	551.07
412.609	729.25
412.818	768.16
413.026	620.71
413.234	657.57
413.443	641.18
413.651	721.06
413.86	858.27
414.068	854.17
414.276	870.56
414.485	891.04
414.693	841.89
414.901	989.34
415.11	952.48
415.318	997.53
415.526	1003.68
415.734	1138.84
415.943	1179.8
416.151	1212.57
416.359	1130.65
416.567	1204.38
416.776	1261.72
416.984	1292.44
417.192	1431.7
417.4	1425.56
417.608	1333.4
417.817	1439.89
418.025	1519.76
418.233	1636.5
418.441	1581.2
418.649	1607.83
418.857	1792.14
419.065	1810.58
419.273	1908.88
419.481	2068.62
419.689	2021.52
419.897	2140.3
420.105	2128.01
420.313	2216.07
420.521	2222.22
420.729	2349.19
420.937	2418.82
421.145	2660.48
421.353	2582.66
421.561	2635.91
421.769	2750.59
421.977	2754.69
422.185	2818.18
422.393	3004.54
422.601	3233.91
422.809	3219.58
423.017	3131.51
423.224	3246.2
423.432	3559.54
423.64	3467.38
423.848	3973.23
424.056	3655.79
424.263	3997.81
424.471	3983.47
424.679	4089.96
424.887	4274.28
425.094	4376.68
425.302	4413.54
425.51	4634.72
425.718	4880.48
425.925	4810.85
426.133	5072.99
426.341	5199.96
426.548	5328.99
426.756	5496.92
426.964	5603.41
427.171	5797.97
427.379	6047.82
427.586	6285.39
427.794	6273.1
428.001	6520.9
428.209	6660.17
428.417	6883.39
428.624	7198.78
428.832	7247.93
429.039	7174.21
429.247	7166.01
429.454	7893.04
429.662	8470.57
429.869	8020.02
430.076	8380.46
430.284	8132.65
430.491	8560.68
430.699	8970.27
430.906	8972.32
431.114	9076.77
431.321	9566.23
431.528	9852.95
431.736	10106.9
431.943	10921.99
432.15	10567.69
432.358	10686.47
432.565	11249.66
432.772	11051.01
432.979	11634.68
433.187	11812.85
433.394	11988.98
433.601	12840.93
433.808	12644.33
434.016	12771.3
434.223	13250.53
434.43	13995.99
434.637	13780.95
434.844	14374.86
435.052	14909.38
435.259	14604.24
435.466	15151.04
435.673	14735.31
435.88	15589.31
436.087	16598.96
436.294	16768.94
436.501	16107.44
436.708	16345.01
436.915	17014.7
437.122	17766.3
437.329	17481.63
437.537	18151.32
437.743	18517.9
437.95	18368.4
438.157	19314.56
438.364	20014.97
438.571	19949.43
438.778	19863.42
438.985	22200.15
439.192	20907.88
439.399	21569.38
439.606	21423.97
439.813	22331.22
440.02	23656.26
440.227	23179.08
440.433	23082.83
440.64	23699.27
440.847	23703.36
441.054	24225.59
441.261	25868.06
441.467	25298.73
441.674	25798.43
441.881	26744.59
442.088	26564.37
442.294	26455.83
442.501	27221.77
442.708	27969.28
442.914	28493.56
443.121	30023.39
443.328	29265.64
443.534	31440.59
443.741	30199.52
443.948	29925.09
444.154	32224.96
444.361	32116.42
444.568	32317.12
444.774	32202.43
444.981	32894.64
445.187	33375.92
445.394	34881.17
445.6	34406.05
445.807	37629.55
446.013	35903.11
446.22	36384.38
446.426	38176.36
446.633	38516.32
446.839	39698
447.046	37842.54
447.252	40144.45
447.459	40220.23
447.665	39921.23
447.871	41659.95
448.078	43312.66
448.284	41281.08
448.491	42413.6
448.697	44140.04
448.903	44725.76
449.11	45207.03
449.316	44516.87
449.522	44574.21
449.728	46093.8
449.935	46521.83
450.141	46278.12
450.347	47766.99
450.553	45661.68
450.76	46714.34
450.966	48287.18
451.172	47496.66
451.378	48096.72
451.584	47826.38
451.791	48491.97
451.997	48627.14
452.203	49712.56
452.409	49241.53
452.615	49515.96
452.821	47039.96
453.027	47312.34
453.233	49268.15
453.44	47328.73
453.646	48244.17
453.852	48473.54
454.058	49319.35
454.264	47668.69
454.47	48416.2
454.676	47402.46
454.882	48942.53
455.088	44934.65
455.294	45125.11
455.5	45809.14
455.705	46986.72
455.911	44846.59
456.117	44156.42
456.323	43335.19
456.529	40920.63
456.735	42976.79
456.941	41754.16
457.147	41299.51
457.352	40111.69
457.558	39738.96
457.764	39855.69
457.97	39061.08
458.176	38202.98
458.381	38284.9
458.587	36425.34
458.793	36327.04
458.999	34336.41
459.204	37226.1
459.41	36253.31
459.616	33568.43
459.821	33918.63
460.027	33357.49
460.233	32810.68
460.438	31178.45
460.644	31663.82
460.85	29980.39
461.055	29794.02
461.261	29671.14
461.466	27725.57
461.672	26685.2
461.878	28684.02
462.083	26765.07
462.289	25945.89
462.494	26019.61
462.7	24704.82
462.905	23916.35
463.111	24962.86
463.316	25069.36
463.522	24629.04
463.727	24637.23
463.932	24385.33
464.138	24219.45
464.343	24254.26
464.549	23576.39
464.754	24428.34
464.959	24000.32
465.165	24004.41
465.37	23070.54
465.575	22593.36
465.781	23062.35
465.986	23482.18
466.191	22488.92
466.397	22202.2
466.602	20813.68
466.807	21571.43
