Data from USB4F104151__44__14-16-46-086.txt Node

Date: Thu Mar 13 14:16:46 EDT 2025
User: louis
Spectrometer: USB4F10415
Trigger mode: 4
Integration Time (sec): 2.000000E-2
Scans to average: 1
Electric dark correction enabled: true
Nonlinearity correction enabled: false
Boxcar width: 0
XAxis mode: Wavelengths
Number of Pixels in Spectrum: 3648
>>>>>Begin Spectral Data<<<<<
178.204	-126.63
178.424	-126.63
178.644	-126.63
178.864	-136.87
179.084	-136.87
179.304	-63.15
179.524	-20.14
179.744	-1.71
179.964	29.01
180.184	-13.99
180.404	41.3
180.624	10.58
180.844	2.39
181.064	-5.8
181.283	-28.33
181.503	53.59
181.723	-3.75
181.943	-32.43
182.163	47.44
182.383	76.12
182.602	41.3
182.822	-57
183.042	59.73
183.262	-54.95
183.482	-11.95
183.701	26.96
183.921	33.11
184.141	-26.28
184.361	53.59
184.58	-30.38
184.8	-13.99
185.02	53.59
185.239	8.53
185.459	69.97
185.679	92.5
185.898	35.16
186.118	14.68
186.338	69.97
186.557	39.25
186.777	-5.8
186.997	119.12
187.216	29.01
187.436	45.4
187.655	147.8
187.875	65.88
188.095	45.4
188.314	65.88
188.534	69.97
188.753	45.4
188.973	37.2
189.192	96.6
189.412	-3.75
189.631	26.96
189.851	63.83
190.07	59.73
190.29	10.58
190.509	24.92
190.729	41.3
190.948	67.92
191.168	133.46
191.387	82.26
191.607	20.82
191.826	8.53
192.045	-16.04
192.265	31.06
192.484	43.35
192.704	8.53
192.923	33.11
193.142	57.68
193.362	18.77
193.581	76.12
193.8	63.83
194.02	37.2
194.239	-7.85
194.458	63.83
194.678	6.49
194.897	37.2
195.116	-16.04
195.335	43.35
195.555	-30.38
195.774	-1.71
195.993	53.59
196.212	-5.8
196.432	18.77
196.651	-7.85
196.87	98.64
197.089	61.78
197.308	65.88
197.528	26.96
197.747	-13.99
197.966	-28.33
198.185	115.03
198.404	86.36
198.623	49.49
198.842	53.59
199.062	53.59
199.281	24.92
199.5	0.34
199.719	100.69
199.938	10.58
200.157	-1.71
200.376	-28.33
200.595	57.68
200.814	-16.04
201.033	96.6
201.252	84.31
201.471	37.2
201.69	29.01
201.909	82.26
202.128	12.63
202.347	53.59
202.566	57.68
202.785	4.44
203.004	-36.52
203.223	29.01
203.442	82.26
203.661	2.39
203.879	90.45
204.098	74.07
204.317	16.73
204.536	90.45
204.755	6.49
204.974	37.2
205.193	10.58
205.411	82.26
205.63	-11.95
205.849	14.68
206.068	65.88
206.287	76.12
206.505	86.36
206.724	80.21
206.943	49.49
207.162	-22.19
207.381	80.21
207.599	43.35
207.818	69.97
208.037	-1.71
208.255	-20.14
208.474	131.41
208.693	41.3
208.911	-36.52
209.13	-3.75
209.349	43.35
209.567	-36.52
209.786	33.11
210.005	-7.85
210.223	26.96
210.442	41.3
210.661	39.25
210.879	-3.75
211.098	24.92
211.316	16.73
211.535	49.49
211.753	43.35
211.972	8.53
212.191	98.64
212.409	72.02
212.628	16.73
212.846	24.92
213.065	-1.71
213.283	18.77
213.502	24.92
213.72	78.16
213.938	57.68
214.157	33.11
214.375	39.25
214.594	-13.99
214.812	43.35
215.031	20.82
215.249	53.59
215.467	92.5
215.686	43.35
215.904	37.2
216.122	20.82
216.341	108.88
216.559	16.73
216.778	57.68
216.996	20.82
217.214	49.49
217.432	47.44
217.651	26.96
217.869	53.59
218.087	49.49
218.306	-46.76
218.524	45.4
218.742	-32.43
218.96	76.12
219.179	74.07
219.397	49.49
219.615	92.5
219.833	153.94
220.051	2.39
220.27	33.11
220.488	69.97
220.706	12.63
220.924	57.68
221.142	0.34
221.36	61.78
221.578	2.39
221.796	115.03
222.015	-34.47
222.233	65.88
222.451	74.07
222.669	-20.14
222.887	6.49
223.105	-5.8
223.323	24.92
223.541	12.63
223.759	65.88
223.977	33.11
224.195	57.68
224.413	24.92
224.631	-7.85
224.849	49.49
225.067	61.78
225.285	-32.43
225.503	47.44
225.721	-7.85
225.939	88.4
226.157	-71.34
226.375	10.58
226.592	-9.9
226.81	24.92
227.028	61.78
227.246	147.8
227.464	41.3
227.682	92.5
227.9	104.79
228.117	57.68
228.335	76.12
228.553	90.45
228.771	45.4
228.989	49.49
229.206	18.77
229.424	-18.09
229.642	-81.58
229.86	-22.19
230.077	-20.14
230.295	59.73
230.513	84.31
230.731	57.68
230.948	125.27
231.166	24.92
231.384	61.78
231.601	43.35
231.819	117.08
232.037	-13.99
232.254	-26.28
232.472	41.3
232.689	-30.38
232.907	67.92
233.125	41.3
233.342	24.92
233.56	8.53
233.777	18.77
233.995	57.68
234.213	18.77
234.43	96.6
234.648	18.77
234.865	65.88
235.083	51.54
235.3	12.63
235.518	76.12
235.735	49.49
235.953	82.26
236.17	-9.9
236.388	59.73
236.605	96.6
236.822	65.88
237.04	49.49
237.257	16.73
237.475	-22.19
237.692	18.77
237.909	29.01
238.127	4.44
238.344	16.73
238.562	18.77
238.779	96.6
238.996	90.45
239.214	41.3
239.431	33.11
239.648	24.92
239.865	96.6
240.083	82.26
240.3	43.35
240.517	14.68
240.735	57.68
240.952	92.5
241.169	41.3
241.386	53.59
241.603	8.53
241.821	-5.8
242.038	131.41
242.255	65.88
242.472	59.73
242.689	8.53
242.907	63.83
243.124	76.12
243.341	96.6
243.558	22.87
243.775	-16.04
243.992	-24.23
244.209	80.21
244.426	49.49
244.643	53.59
244.86	-16.04
245.078	20.82
245.295	53.59
245.512	39.25
245.729	10.58
245.946	98.64
246.163	29.01
246.38	102.74
246.597	49.49
246.814	8.53
247.031	10.58
247.248	151.89
247.464	98.64
247.681	10.58
247.898	45.4
248.115	29.01
248.332	16.73
248.549	43.35
248.766	51.54
248.983	26.96
249.2	20.82
249.417	-1.71
249.633	45.4
249.85	-24.23
250.067	65.88
250.284	0.34
250.501	82.26
250.717	-13.99
250.934	41.3
251.151	82.26
251.368	88.4
251.585	31.06
251.801	18.77
252.018	-30.38
252.235	67.92
252.451	61.78
252.668	86.36
252.885	-63.15
253.102	-7.85
253.318	33.11
253.535	37.2
253.752	61.78
253.968	20.82
254.185	-16.04
254.401	47.44
254.618	35.16
254.835	51.54
255.051	82.26
255.268	33.11
255.484	18.77
255.701	16.73
255.917	0.34
256.134	45.4
256.351	-16.04
256.567	-7.85
256.784	35.16
257	-46.76
257.217	106.84
257.433	90.45
257.65	-20.14
257.866	53.59
258.082	18.77
258.299	-16.04
258.515	67.92
258.732	82.26
258.948	24.92
259.165	8.53
259.381	33.11
259.597	63.83
259.814	41.3
260.03	57.68
260.246	18.77
260.463	16.73
260.679	98.64
260.895	-1.71
261.112	106.84
261.328	4.44
261.544	49.49
261.761	125.27
261.977	33.11
262.193	-28.33
262.409	69.97
262.626	18.77
262.842	106.84
263.058	-32.43
263.274	16.73
263.49	-5.8
263.707	133.46
263.923	67.92
264.139	35.16
264.355	16.73
264.571	65.88
264.787	41.3
265.004	125.27
265.22	74.07
265.436	16.73
265.652	6.49
265.868	20.82
266.084	41.3
266.3	84.31
266.516	41.3
266.732	139.6
266.948	53.59
267.164	41.3
267.38	26.96
267.596	108.88
267.812	98.64
268.028	12.63
268.244	26.96
268.46	0.34
268.676	98.64
268.892	57.68
269.108	106.84
269.324	49.49
269.54	-40.62
269.756	82.26
269.972	41.3
270.188	22.87
270.403	18.77
270.619	123.22
270.835	51.54
271.051	57.68
271.267	39.25
271.483	-28.33
271.698	35.16
271.914	98.64
272.13	24.92
272.346	43.35
272.562	8.53
272.777	65.88
272.993	63.83
273.209	26.96
273.425	72.02
273.64	10.58
273.856	110.93
274.072	-20.14
274.287	16.73
274.503	-1.71
274.719	61.78
274.934	20.82
275.15	12.63
275.366	-30.38
275.581	29.01
275.797	74.07
276.012	59.73
276.228	-3.75
276.444	72.02
276.659	59.73
276.875	-26.28
277.09	-1.71
277.306	61.78
277.521	67.92
277.737	4.44
277.952	69.97
278.168	82.26
278.383	63.83
278.599	16.73
278.814	51.54
279.03	65.88
279.245	26.96
279.461	127.32
279.676	123.22
279.892	16.73
280.107	-30.38
280.322	-65.19
280.538	53.59
280.753	92.5
280.969	65.88
281.184	49.49
281.399	33.11
281.615	-42.67
281.83	12.63
282.045	76.12
282.26	24.92
282.476	65.88
282.691	84.31
282.906	72.02
283.122	57.68
283.337	-57
283.552	18.77
283.767	10.58
283.983	65.88
284.198	-7.85
284.413	86.36
284.628	20.82
284.843	-18.09
285.058	61.78
285.274	24.92
285.489	2.39
285.704	53.59
285.919	53.59
286.134	72.02
286.349	45.4
286.564	131.41
286.779	18.77
286.995	41.3
287.21	26.96
287.425	26.96
287.64	-40.62
287.855	104.79
288.07	2.39
288.285	90.45
288.5	65.88
288.715	0.34
288.93	43.35
289.145	51.54
289.36	12.63
289.575	43.35
289.79	67.92
290.004	57.68
290.219	59.73
290.434	-1.71
290.649	4.44
290.864	65.88
291.079	53.59
291.294	57.68
291.509	8.53
291.724	-7.85
291.938	74.07
292.153	108.88
292.368	33.11
292.583	41.3
292.798	8.53
293.012	78.16
293.227	2.39
293.442	131.41
293.657	76.12
293.871	172.37
294.086	47.44
294.301	82.26
294.516	100.69
294.73	43.35
294.945	-24.23
295.16	106.84
295.374	24.92
295.589	115.03
295.804	57.68
296.018	33.11
296.233	168.27
296.447	31.06
296.662	-1.71
296.877	65.88
297.091	76.12
297.306	172.37
297.52	-7.85
297.735	139.6
297.949	100.69
298.164	55.64
298.378	80.21
298.593	0.34
298.807	-28.33
299.022	69.97
299.236	74.07
299.451	24.92
299.665	-7.85
299.88	31.06
300.094	127.32
300.309	43.35
300.523	65.88
300.737	33.11
300.952	57.68
301.166	59.73
301.381	45.4
301.595	55.64
301.809	69.97
302.024	115.03
302.238	53.59
302.452	45.4
302.667	59.73
302.881	53.59
303.095	53.59
303.309	65.88
303.524	2.39
303.738	80.21
303.952	49.49
304.166	96.6
304.381	-36.52
304.595	41.3
304.809	-7.85
305.023	78.16
305.237	-11.95
305.452	29.01
305.666	59.73
305.88	90.45
306.094	33.11
306.308	65.88
306.522	59.73
306.736	24.92
306.95	74.07
307.164	90.45
307.379	22.87
307.593	67.92
307.807	59.73
308.021	2.39
308.235	-11.95
308.449	24.92
308.663	51.54
308.877	125.27
309.091	33.11
309.305	115.03
309.519	49.49
309.733	149.84
309.947	29.01
310.161	86.36
310.374	72.02
310.588	39.25
310.802	16.73
311.016	47.44
311.23	59.73
311.444	51.54
311.658	-42.67
311.872	82.26
312.085	59.73
312.299	92.5
312.513	164.18
312.727	41.3
312.941	6.49
313.154	76.12
313.368	92.5
313.582	104.79
313.796	90.45
314.009	102.74
314.223	6.49
314.437	31.06
314.651	49.49
314.864	53.59
315.078	41.3
315.292	-22.19
315.505	35.16
315.719	-28.33
315.933	26.96
316.146	12.63
316.36	47.44
316.573	41.3
316.787	57.68
317.001	33.11
317.214	33.11
317.428	98.64
317.641	82.26
317.855	102.74
318.068	63.83
318.282	33.11
318.495	158.03
318.709	4.44
318.922	135.51
319.136	2.39
319.349	133.46
319.563	6.49
319.776	51.54
319.99	12.63
320.203	31.06
320.417	53.59
320.63	16.73
320.843	-32.43
321.057	74.07
321.27	41.3
321.483	57.68
321.697	4.44
321.91	6.49
322.124	106.84
322.337	2.39
322.55	-16.04
322.763	90.45
322.977	22.87
323.19	110.93
323.403	24.92
323.617	88.4
323.83	108.88
324.043	123.22
324.256	33.11
324.469	0.34
324.683	26.96
324.896	8.53
325.109	24.92
325.322	37.2
325.535	74.07
325.748	100.69
325.962	110.93
326.175	53.59
326.388	104.79
326.601	-20.14
326.814	10.58
327.027	14.68
327.24	133.46
327.453	65.88
327.666	35.16
327.879	53.59
328.092	90.45
328.305	74.07
328.518	-40.62
328.731	37.2
328.944	57.68
329.157	86.36
329.37	82.26
329.583	45.4
329.796	110.93
330.009	69.97
330.222	74.07
330.435	45.4
330.648	74.07
330.861	20.82
331.073	16.73
331.286	67.92
331.499	-1.71
331.712	92.5
331.925	92.5
332.138	-77.48
332.35	82.26
332.563	33.11
332.776	43.35
332.989	57.68
333.202	33.11
333.414	158.03
333.627	57.68
333.84	115.03
334.053	96.6
334.265	59.73
334.478	57.68
334.691	72.02
334.903	67.92
335.116	18.77
335.329	84.31
335.541	24.92
335.754	92.5
335.966	35.16
336.179	35.16
336.392	-57
336.604	39.25
336.817	-18.09
337.029	57.68
337.242	90.45
337.454	76.12
337.667	65.88
337.88	102.74
338.092	-24.23
338.305	8.53
338.517	41.3
338.729	92.5
338.942	53.59
339.154	0.34
339.367	6.49
339.579	24.92
339.792	14.68
340.004	92.5
340.217	51.54
340.429	16.73
340.641	-7.85
340.854	86.36
341.066	18.77
341.278	43.35
341.491	127.32
341.703	84.31
341.915	49.49
342.128	100.69
342.34	76.12
342.552	61.78
342.764	53.59
342.977	8.53
343.189	-40.62
343.401	-24.23
343.613	12.63
343.826	65.88
344.038	96.6
344.25	69.97
344.462	12.63
344.674	18.77
344.886	61.78
345.099	-5.8
345.311	2.39
345.523	-24.23
345.735	14.68
345.947	24.92
346.159	29.01
346.371	-3.75
346.583	82.26
346.795	141.65
347.007	51.54
347.219	78.16
347.431	53.59
347.643	115.03
347.855	8.53
348.067	139.6
348.279	98.64
348.491	106.84
348.703	108.88
348.915	67.92
349.127	57.68
349.339	86.36
349.551	67.92
349.763	98.64
349.975	0.34
350.187	123.22
350.399	131.41
350.61	67.92
350.822	82.26
351.034	84.31
351.246	49.49
351.458	78.16
351.669	104.79
351.881	94.55
352.093	41.3
352.305	57.68
352.517	51.54
352.728	100.69
352.94	51.54
353.152	139.6
353.363	-48.81
353.575	74.07
353.787	24.92
353.999	24.92
354.21	98.64
354.422	90.45
354.633	82.26
354.845	72.02
355.057	-9.9
355.268	43.35
355.48	100.69
355.692	-11.95
355.903	41.3
356.115	78.16
356.326	33.11
356.538	41.3
356.749	16.73
356.961	51.54
357.172	53.59
357.384	-3.75
357.595	82.26
357.807	82.26
358.018	-16.04
358.23	33.11
358.441	106.84
358.653	-28.33
358.864	117.08
359.075	98.64
359.287	16.73
359.498	57.68
359.709	119.12
359.921	84.31
360.132	51.54
360.344	35.16
360.555	-11.95
360.766	63.83
360.977	26.96
361.189	123.22
361.4	26.96
361.611	106.84
361.823	57.68
362.034	90.45
362.245	72.02
362.456	88.4
362.667	106.84
362.879	24.92
363.09	37.2
363.301	47.44
363.512	57.68
363.723	49.49
363.935	24.92
364.146	14.68
364.357	-7.85
364.568	57.68
364.779	43.35
364.99	59.73
365.201	78.16
365.412	24.92
365.623	37.2
365.834	74.07
366.045	20.82
366.256	59.73
366.467	49.49
366.678	51.54
366.889	57.68
367.1	-11.95
367.311	57.68
367.522	6.49
367.733	41.3
367.944	-13.99
368.155	-57
368.366	69.97
368.577	123.22
368.788	86.36
368.999	12.63
369.209	61.78
369.42	82.26
369.631	82.26
369.842	20.82
370.053	14.68
370.264	33.11
370.474	121.17
370.685	47.44
370.896	63.83
371.107	74.07
371.317	108.88
371.528	121.17
371.739	90.45
371.95	65.88
372.16	80.21
372.371	-79.53
372.582	53.59
372.792	90.45
373.003	41.3
373.214	65.88
373.424	110.93
373.635	4.44
373.846	106.84
374.056	37.2
374.267	-7.85
374.477	49.49
374.688	-24.23
374.898	110.93
375.109	-5.8
375.319	61.78
375.53	131.41
375.74	61.78
375.951	86.36
376.161	35.16
376.372	84.31
376.582	61.78
376.793	65.88
377.003	26.96
377.214	35.16
377.424	69.97
377.635	57.68
377.845	-3.75
378.055	24.92
378.266	41.3
378.476	121.17
378.686	69.97
378.897	67.92
379.107	63.83
379.317	67.92
379.528	76.12
379.738	74.07
379.948	94.55
380.158	69.97
380.369	108.88
380.579	102.74
380.789	26.96
380.999	110.93
381.21	72.02
381.42	131.41
381.63	61.78
381.84	74.07
382.05	61.78
382.261	65.88
382.471	131.41
382.681	84.31
382.891	49.49
383.101	72.02
383.311	49.49
383.521	67.92
383.731	65.88
383.941	158.03
384.151	74.07
384.361	29.01
384.571	65.88
384.781	45.4
384.991	106.84
385.201	143.7
385.411	49.49
385.621	135.51
385.831	86.36
386.041	47.44
386.251	145.75
386.461	123.22
386.671	74.07
386.881	43.35
387.091	98.64
387.301	53.59
387.511	135.51
387.72	110.93
387.93	106.84
388.14	49.49
388.35	98.64
388.56	61.78
388.769	22.87
388.979	53.59
389.189	115.03
389.399	24.92
389.609	125.27
389.818	115.03
390.028	33.11
390.238	108.88
390.447	84.31
390.657	82.26
390.867	106.84
391.076	69.97
391.286	61.78
391.496	92.5
391.705	51.54
391.915	158.03
392.125	57.68
392.334	74.07
392.544	131.41
392.753	104.79
392.963	51.54
393.172	162.13
393.382	51.54
393.591	172.37
393.801	84.31
394.01	184.66
394.22	59.73
394.429	110.93
394.639	69.97
394.848	127.32
395.058	74.07
395.267	86.36
395.477	74.07
395.686	69.97
395.895	184.66
396.105	131.41
396.314	59.73
396.524	123.22
396.733	90.45
396.942	33.11
397.152	135.51
397.361	53.59
397.57	82.26
397.78	125.27
397.989	86.36
398.198	158.03
398.407	112.98
398.617	115.03
398.826	115.03
399.035	92.5
399.244	219.47
399.453	141.65
399.663	188.75
399.872	147.8
400.081	141.65
400.29	172.37
400.499	106.84
400.708	147.8
400.917	110.93
401.127	117.08
401.336	166.23
401.545	147.8
401.754	153.94
401.963	135.51
402.172	227.67
402.381	98.64
402.59	117.08
402.799	125.27
403.008	133.46
403.217	139.6
403.426	139.6
403.635	131.41
403.844	198.99
404.053	174.42
404.262	209.23
404.471	205.14
404.68	176.47
404.888	172.37
405.097	176.47
405.306	164.18
405.515	196.95
405.724	239.95
405.933	221.52
406.142	155.99
406.35	186.71
406.559	229.71
406.768	246.1
406.977	272.72
407.185	246.1
407.394	235.86
407.603	272.72
407.812	237.91
408.02	264.53
408.229	237.91
408.438	289.1
408.646	244.05
408.855	289.1
409.064	321.87
409.272	301.39
409.481	237.91
409.69	307.54
409.898	411.98
410.107	340.3
410.315	409.94
410.524	409.94
410.733	383.31
410.941	403.79
411.15	426.32
411.358	463.18
411.567	459.09
411.775	471.37
411.984	487.76
412.192	510.29
412.401	475.47
412.609	543.05
412.818	590.16
413.026	633.16
413.234	598.35
413.443	565.58
413.651	655.69
413.86	606.54
414.068	696.65
414.276	719.18
414.485	715.08
414.693	770.38
414.901	850.25
415.11	753.99
415.318	766.28
415.526	764.23
415.734	954.69
415.943	926.02
416.151	950.6
416.359	1083.72
416.567	1065.29
416.776	1216.83
416.984	1157.44
417.192	1007.94
417.4	1192.26
417.608	1239.36
417.817	1214.79
418.025	1255.75
418.233	1358.14
418.441	1319.23
418.649	1405.25
418.857	1446.21
419.065	1534.27
419.273	1458.5
419.481	1458.5
419.689	1757.5
419.897	1681.72
420.105	1661.24
420.313	1728.83
420.521	1786.17
420.729	1876.28
420.937	1917.24
421.145	1954.1
421.353	2109.75
421.561	2246.96
421.769	2269.49
421.977	2326.83
422.185	2310.45
422.393	2468.14
422.601	2726.19
422.809	2584.88
423.017	2609.45
423.224	2752.81
423.432	2902.31
423.64	2855.21
423.848	3203.36
424.056	3023.14
424.263	3203.36
424.471	3273
424.679	3305.76
424.887	3498.27
425.094	3631.39
425.302	3623.2
425.51	3887.39
425.718	3830.04
425.925	3774.75
426.133	4081.94
426.341	4192.53
426.548	4598.03
426.756	4419.86
426.964	4606.22
427.171	4821.26
427.379	4788.49
427.586	4907.27
427.794	5193.99
428.001	5237
428.209	5665.02
428.417	5292.29
428.624	6023.42
428.832	5873.92
429.039	5828.86
429.247	5890.3
429.454	6340.85
429.662	6805.74
429.869	6289.65
430.076	6875.37
430.284	6570.23
430.491	7004.39
430.699	7291.11
430.906	7442.66
431.114	7244.01
431.321	7680.22
431.528	7786.72
431.736	8294.61
431.943	8741.07
432.15	8480.98
432.358	8626.39
432.565	9072.84
432.772	8933.58
432.979	9382.09
433.187	9683.14
433.394	9674.95
433.601	10258.62
433.808	10354.87
434.016	10250.42
434.223	10635.44
434.43	11319.46
434.637	11069.61
434.844	11757.73
435.052	11894.94
435.259	11980.96
435.466	12114.08
435.673	11993.25
435.88	12875.92
436.087	13445.26
436.294	13193.36
436.501	13213.84
436.708	13271.18
436.915	13680.77
437.122	14440.57
437.329	14180.48
437.537	14835.83
437.743	15114.35
437.95	14917.75
438.157	15757.41
438.364	16388.19
438.571	16126.05
438.778	16306.27
438.985	17641.54
439.192	17025.11
439.399	17680.46
439.606	17094.74
439.813	18155.58
440.02	19327.02
440.227	18858.04
440.433	18493.5
440.64	19447.85
440.847	19263.54
441.054	19904.55
441.261	21000.21
441.467	20764.7
441.674	20979.73
441.881	22020.1
442.088	21858.31
442.294	21524.49
442.501	22233.09
442.708	22673.4
442.914	23265.27
443.121	24627.17
443.328	24010.73
443.534	25458.64
443.741	25053.14
443.948	24346.59
444.154	26517.44
444.361	25913.29
444.568	26251.2
444.774	26310.6
444.981	26326.98
445.187	27350.96
445.394	28733.34
445.6	28250.02
445.807	30971.77
446.013	29310.87
446.22	29665.17
446.426	31274.87
446.633	31520.63
446.839	32743.27
447.046	31031.16
447.252	32921.44
447.459	32995.17
447.665	32800.61
447.871	34176.84
448.078	35753.78
448.284	33947.47
448.491	35030.85
448.697	36192.05
448.903	36910.88
449.11	36917.03
449.316	36601.64
449.522	37152.54
449.728	38426.38
449.935	38612.74
450.141	38172.43
450.347	38952.71
450.553	38186.77
450.76	38557.45
450.966	39614.2
451.172	39507.71
451.378	40337.13
451.584	39433.98
451.791	40263.41
451.997	40472.3
452.203	41092.83
452.409	41047.78
452.615	40623.85
452.821	39186.18
453.027	38694.66
453.233	40742.63
453.44	39495.42
453.646	39841.53
453.852	39857.91
454.058	40812.26
454.264	39352.06
454.47	40040.18
454.676	39145.22
454.882	40599.27
455.088	36806.44
455.294	37723.93
455.5	38162.19
455.705	38551.31
455.911	36986.66
456.117	36628.26
456.323	35794.74
456.529	34146.12
456.735	35651.38
456.941	34461.51
457.147	33965.9
457.352	33058.65
457.558	32581.48
457.764	32757.6
457.97	32300.9
458.176	31745.9
458.381	31801.2
458.587	30107.53
458.793	29740.94
458.999	28258.21
459.204	30648.19
459.41	29605.78
459.616	27770.8
459.821	27639.73
460.027	27672.5
460.233	27287.48
460.438	25853.9
460.644	26128.33
460.85	24905.69
461.055	24248.29
461.261	24547.29
461.466	22300.67
461.672	21667.85
461.878	23834.6
462.083	22102.02
462.289	21551.12
462.494	21424.14
462.7	20602.91
462.905	19843.11
463.111	20822.04
463.316	20459.55
463.522	20260.9
463.727	19943.46
463.932	20174.88
464.138	19767.34
464.343	19818.53
464.549	19482.67
464.754	20058.15
464.959	19738.66
465.165	19691.56
465.37	19001.4
465.575	18309.18
465.781	19144.75
465.986	19339.31
466.191	18669.62
466.397	18229.31
466.602	17135.7
466.807	18100.29
467.012	17883.2
467.218	17711.18
