Data from USB4F104151__276__14-23-20-146.txt Node

Date: Thu Mar 13 14:23:20 EDT 2025
User: louis
Spectrometer: USB4F10415
Trigger mode: 4
Integration Time (sec): 2.000000E-2
Scans to average: 1
Electric dark correction enabled: true
Nonlinearity correction enabled: false
Boxcar width: 0
XAxis mode: Wavelengths
Number of Pixels in Spectrum: 3648
>>>>>Begin Spectral Data<<<<<
178.204	-38.57
178.424	-38.57
178.644	-38.57
178.864	-81.58
179.084	-102.06
179.304	10.58
179.524	-5.8
179.744	-40.62
179.964	20.82
180.184	-59.05
180.404	-5.8
180.624	133.46
180.844	0.34
181.064	-46.76
181.283	26.96
181.503	-32.43
181.723	-1.71
181.943	2.39
182.163	125.27
182.383	4.44
182.602	63.83
182.822	47.44
183.042	-38.57
183.262	31.06
183.482	14.68
183.701	8.53
183.921	35.16
184.141	4.44
184.361	53.59
184.58	33.11
184.8	37.2
185.02	84.31
185.239	18.77
185.459	6.49
185.679	100.69
185.898	-46.76
186.118	59.73
186.338	37.2
186.557	59.73
186.777	18.77
186.997	55.64
187.216	51.54
187.436	80.21
187.655	76.12
187.875	37.2
188.095	4.44
188.314	59.73
188.534	63.83
188.753	45.4
188.973	69.97
189.192	53.59
189.412	131.41
189.631	10.58
189.851	43.35
190.07	112.98
190.29	22.87
190.509	18.77
190.729	-16.04
190.948	-3.75
191.168	188.75
191.387	37.2
191.607	12.63
191.826	51.54
192.045	24.92
192.265	41.3
192.484	0.34
192.704	69.97
192.923	80.21
193.142	141.65
193.362	49.49
193.581	39.25
193.8	-1.71
194.02	59.73
194.239	35.16
194.458	24.92
194.678	86.36
194.897	31.06
195.116	6.49
195.335	-11.95
195.555	69.97
195.774	43.35
195.993	16.73
196.212	37.2
196.432	82.26
196.651	84.31
196.87	39.25
197.089	69.97
197.308	80.21
197.528	102.74
197.747	35.16
197.966	24.92
198.185	69.97
198.404	67.92
198.623	20.82
198.842	33.11
199.062	100.69
199.281	76.12
199.5	35.16
199.719	14.68
199.938	96.6
200.157	67.92
200.376	84.31
200.595	123.22
200.814	43.35
201.033	14.68
201.252	102.74
201.471	72.02
201.69	72.02
201.909	43.35
202.128	10.58
202.347	72.02
202.566	63.83
202.785	98.64
203.004	6.49
203.223	151.89
203.442	86.36
203.661	80.21
203.879	12.63
204.098	84.31
204.317	104.79
204.536	51.54
204.755	117.08
204.974	41.3
205.193	47.44
205.411	112.98
205.63	49.49
205.849	45.4
206.068	76.12
206.287	49.49
206.505	133.46
206.724	43.35
206.943	14.68
207.162	4.44
207.381	104.79
207.599	63.83
207.818	33.11
208.037	69.97
208.255	55.64
208.474	86.36
208.693	35.16
208.911	92.5
209.13	59.73
209.349	94.55
209.567	-5.8
209.786	63.83
210.005	-79.53
210.223	102.74
210.442	-81.58
210.661	0.34
210.879	90.45
211.098	69.97
211.316	119.12
211.535	127.32
211.753	84.31
211.972	67.92
212.191	16.73
212.409	84.31
212.628	49.49
212.846	6.49
213.065	129.36
213.283	26.96
213.502	55.64
213.72	18.77
213.938	-16.04
214.157	14.68
214.375	69.97
214.594	65.88
214.812	43.35
215.031	33.11
215.249	22.87
215.467	55.64
215.686	102.74
215.904	-22.19
216.122	12.63
216.341	76.12
216.559	63.83
216.778	51.54
216.996	35.16
217.214	12.63
217.432	57.68
217.651	41.3
217.869	112.98
218.087	84.31
218.306	-13.99
218.524	47.44
218.742	0.34
218.96	41.3
219.179	92.5
219.397	-13.99
219.615	121.17
219.833	53.59
220.051	55.64
220.27	-18.09
220.488	45.4
220.706	59.73
220.924	47.44
221.142	57.68
221.36	-1.71
221.578	26.96
221.796	2.39
222.015	151.89
222.233	72.02
222.451	74.07
222.669	65.88
222.887	24.92
223.105	43.35
223.323	45.4
223.541	37.2
223.759	65.88
223.977	-26.28
224.195	92.5
224.413	102.74
224.631	45.4
224.849	76.12
225.067	47.44
225.285	76.12
225.503	18.77
225.721	51.54
225.939	45.4
226.157	86.36
226.375	108.88
226.592	4.44
226.81	29.01
227.028	61.78
227.246	-13.99
227.464	90.45
227.682	37.2
227.9	84.31
228.117	117.08
228.335	-1.71
228.553	59.73
228.771	10.58
228.989	67.92
229.206	-9.9
229.424	57.68
229.642	18.77
229.86	-1.71
230.077	88.4
230.295	72.02
230.513	78.16
230.731	104.79
230.948	88.4
231.166	90.45
231.384	31.06
231.601	67.92
231.819	94.55
232.037	80.21
232.254	20.82
232.472	115.03
232.689	47.44
232.907	69.97
233.125	-7.85
233.342	14.68
233.56	-22.19
233.777	37.2
233.995	76.12
234.213	61.78
234.43	94.55
234.648	49.49
234.865	53.59
235.083	35.16
235.3	72.02
235.518	106.84
235.735	84.31
235.953	90.45
236.17	-20.14
236.388	76.12
236.605	104.79
236.822	-1.71
237.04	63.83
237.257	31.06
237.475	-20.14
237.692	100.69
237.909	-1.71
238.127	29.01
238.344	78.16
238.562	102.74
238.779	51.54
238.996	35.16
239.214	14.68
239.431	149.84
239.648	35.16
239.865	94.55
240.083	84.31
240.3	-1.71
240.517	0.34
240.735	24.92
240.952	76.12
241.169	22.87
241.386	33.11
241.603	47.44
241.821	-42.67
242.038	31.06
242.255	69.97
242.472	18.77
242.689	45.4
242.907	100.69
243.124	61.78
243.341	-30.38
243.558	35.16
243.775	-1.71
243.992	67.92
244.209	63.83
244.426	-5.8
244.643	59.73
244.86	2.39
245.078	18.77
245.295	80.21
245.512	-5.8
245.729	10.58
245.946	115.03
246.163	98.64
246.38	10.58
246.597	84.31
246.814	47.44
247.031	33.11
247.248	39.25
247.464	59.73
247.681	26.96
247.898	31.06
248.115	4.44
248.332	37.2
248.549	135.51
248.766	86.36
248.983	35.16
249.2	88.4
249.417	2.39
249.633	29.01
249.85	43.35
250.067	8.53
250.284	65.88
250.501	69.97
250.717	108.88
250.934	18.77
251.151	-13.99
251.368	55.64
251.585	35.16
251.801	-13.99
252.018	20.82
252.235	104.79
252.451	26.96
252.668	-30.38
252.885	59.73
253.102	76.12
253.318	10.58
253.535	65.88
253.752	29.01
253.968	0.34
254.185	35.16
254.401	51.54
254.618	45.4
254.835	88.4
255.051	61.78
255.268	55.64
255.484	69.97
255.701	26.96
255.917	53.59
256.134	14.68
256.351	69.97
256.567	-20.14
256.784	20.82
257	37.2
257.217	59.73
257.433	53.59
257.65	76.12
257.866	96.6
258.082	59.73
258.299	12.63
258.515	22.87
258.732	59.73
258.948	35.16
259.165	112.98
259.381	6.49
259.597	35.16
259.814	51.54
260.03	53.59
260.246	65.88
260.463	4.44
260.679	86.36
260.895	59.73
261.112	127.32
261.328	43.35
261.544	18.77
261.761	102.74
261.977	26.96
262.193	-11.95
262.409	-67.24
262.626	18.77
262.842	55.64
263.058	33.11
263.274	86.36
263.49	94.55
263.707	110.93
263.923	18.77
264.139	-24.23
264.355	45.4
264.571	102.74
264.787	74.07
265.004	67.92
265.22	6.49
265.436	112.98
265.652	61.78
265.868	2.39
266.084	78.16
266.3	22.87
266.516	76.12
266.732	129.36
266.948	43.35
267.164	18.77
267.38	18.77
267.596	82.26
267.812	92.5
268.028	55.64
268.244	53.59
268.46	-5.8
268.676	84.31
268.892	147.8
269.108	57.68
269.324	20.82
269.54	-1.71
269.756	119.12
269.972	10.58
270.188	20.82
270.403	-28.33
270.619	72.02
270.835	24.92
271.051	20.82
271.267	10.58
271.483	-9.9
271.698	45.4
271.914	2.39
272.13	108.88
272.346	100.69
272.562	45.4
272.777	76.12
272.993	102.74
273.209	51.54
273.425	86.36
273.64	86.36
273.856	39.25
274.072	0.34
274.287	78.16
274.503	76.12
274.719	96.6
274.934	14.68
275.15	14.68
275.366	35.16
275.581	96.6
275.797	74.07
276.012	67.92
276.228	24.92
276.444	37.2
276.659	110.93
276.875	18.77
277.09	-9.9
277.306	22.87
277.521	67.92
277.737	37.2
277.952	63.83
278.168	8.53
278.383	43.35
278.599	117.08
278.814	41.3
279.03	84.31
279.245	92.5
279.461	59.73
279.676	67.92
279.892	72.02
280.107	47.44
280.322	29.01
280.538	110.93
280.753	65.88
280.969	55.64
281.184	100.69
281.399	76.12
281.615	100.69
281.83	117.08
282.045	22.87
282.26	4.44
282.476	39.25
282.691	108.88
282.906	88.4
283.122	86.36
283.337	-5.8
283.552	78.16
283.767	43.35
283.983	84.31
284.198	125.27
284.413	88.4
284.628	10.58
284.843	72.02
285.058	61.78
285.274	20.82
285.489	-50.86
285.704	78.16
285.919	47.44
286.134	88.4
286.349	69.97
286.564	67.92
286.779	98.64
286.995	35.16
287.21	26.96
287.425	78.16
287.64	88.4
287.855	98.64
288.07	-32.43
288.285	14.68
288.5	102.74
288.715	53.59
288.93	63.83
289.145	41.3
289.36	20.82
289.575	4.44
289.79	76.12
290.004	55.64
290.219	39.25
290.434	31.06
290.649	61.78
290.864	-13.99
291.079	-50.86
291.294	104.79
291.509	26.96
291.724	51.54
291.938	96.6
292.153	69.97
292.368	39.25
292.583	129.36
292.798	104.79
293.012	117.08
293.227	35.16
293.442	37.2
293.657	26.96
293.871	43.35
294.086	53.59
294.301	149.84
294.516	86.36
294.73	45.4
294.945	26.96
295.16	69.97
295.374	53.59
295.589	69.97
295.804	-22.19
296.018	112.98
296.233	106.84
296.447	20.82
296.662	-1.71
296.877	72.02
297.091	80.21
297.306	57.68
297.52	55.64
297.735	22.87
297.949	84.31
298.164	29.01
298.378	55.64
298.593	78.16
298.807	-9.9
299.022	125.27
299.236	45.4
299.451	14.68
299.665	39.25
299.88	2.39
300.094	-11.95
300.309	63.83
300.523	29.01
300.737	29.01
300.952	141.65
301.166	76.12
301.381	31.06
301.595	84.31
301.809	39.25
302.024	45.4
302.238	10.58
302.452	76.12
302.667	53.59
302.881	35.16
303.095	92.5
303.309	4.44
303.524	8.53
303.738	-9.9
303.952	69.97
304.166	194.9
304.381	14.68
304.595	149.84
304.809	14.68
305.023	35.16
305.237	26.96
305.452	96.6
305.666	63.83
305.88	59.73
306.094	37.2
306.308	61.78
306.522	92.5
306.736	29.01
306.95	76.12
307.164	119.12
307.379	31.06
307.593	141.65
307.807	26.96
308.021	53.59
308.235	12.63
308.449	-28.33
308.663	31.06
308.877	100.69
309.091	76.12
309.305	92.5
309.519	6.49
309.733	131.41
309.947	-36.52
310.161	6.49
310.374	45.4
310.588	88.4
310.802	45.4
311.016	69.97
311.23	49.49
311.444	133.46
311.658	47.44
311.872	92.5
312.085	55.64
312.299	67.92
312.513	108.88
312.727	37.2
312.941	-1.71
313.154	72.02
313.368	84.31
313.582	76.12
313.796	35.16
314.009	65.88
314.223	53.59
314.437	63.83
314.651	88.4
314.864	92.5
315.078	22.87
315.292	108.88
315.505	14.68
315.719	92.5
315.933	35.16
316.146	26.96
316.36	31.06
316.573	51.54
316.787	104.79
317.001	24.92
317.214	47.44
317.428	18.77
317.641	78.16
317.855	92.5
318.068	76.12
318.282	-3.75
318.495	123.22
318.709	51.54
318.922	61.78
319.136	98.64
319.349	67.92
319.563	94.55
319.776	43.35
319.99	-1.71
320.203	31.06
320.417	110.93
320.63	61.78
320.843	92.5
321.057	69.97
321.27	0.34
321.483	53.59
321.697	74.07
321.91	-9.9
322.124	53.59
322.337	31.06
322.55	29.01
322.763	96.6
322.977	59.73
323.19	100.69
323.403	6.49
323.617	14.68
323.83	121.17
324.043	18.77
324.256	63.83
324.469	41.3
324.683	117.08
324.896	100.69
325.109	78.16
325.322	31.06
325.535	65.88
325.748	67.92
325.962	43.35
326.175	67.92
326.388	37.2
326.601	90.45
326.814	26.96
327.027	31.06
327.24	90.45
327.453	72.02
327.666	35.16
327.879	88.4
328.092	82.26
328.305	-16.04
328.518	33.11
328.731	86.36
328.944	82.26
329.157	26.96
329.37	59.73
329.583	67.92
329.796	94.55
330.009	6.49
330.222	76.12
330.435	80.21
330.648	100.69
330.861	12.63
331.073	51.54
331.286	67.92
331.499	-9.9
331.712	10.58
331.925	-13.99
332.138	2.39
332.35	100.69
332.563	51.54
332.776	67.92
332.989	-3.75
333.202	24.92
333.414	45.4
333.627	10.58
333.84	31.06
334.053	14.68
334.265	59.73
334.478	2.39
334.691	4.44
334.903	88.4
335.116	51.54
335.329	45.4
335.541	88.4
335.754	162.13
335.966	-1.71
336.179	20.82
336.392	69.97
336.604	61.78
336.817	74.07
337.029	16.73
337.242	65.88
337.454	104.79
337.667	76.12
337.88	67.92
338.092	-34.47
338.305	22.87
338.517	-11.95
338.729	29.01
338.942	94.55
339.154	-22.19
339.367	8.53
339.579	51.54
339.792	6.49
340.004	26.96
340.217	-11.95
340.429	31.06
340.641	22.87
340.854	20.82
341.066	72.02
341.278	88.4
341.491	94.55
341.703	94.55
341.915	59.73
342.128	84.31
342.34	-13.99
342.552	59.73
342.764	14.68
342.977	29.01
343.189	24.92
343.401	96.6
343.613	10.58
343.826	22.87
344.038	84.31
344.25	80.21
344.462	45.4
344.674	-28.33
344.886	26.96
345.099	59.73
345.311	84.31
345.523	108.88
345.735	78.16
345.947	51.54
346.159	100.69
346.371	86.36
346.583	108.88
346.795	51.54
347.007	84.31
347.219	51.54
347.431	10.58
347.643	100.69
347.855	74.07
348.067	31.06
348.279	47.44
348.491	76.12
348.703	102.74
348.915	61.78
349.127	-13.99
349.339	43.35
349.551	29.01
349.763	-28.33
349.975	92.5
350.187	149.84
350.399	43.35
350.61	100.69
350.822	33.11
351.034	72.02
351.246	76.12
351.458	51.54
351.669	102.74
351.881	12.63
352.093	10.58
352.305	135.51
352.517	61.78
352.728	55.64
352.94	72.02
353.152	102.74
353.363	39.25
353.575	20.82
353.787	162.13
353.999	57.68
354.21	59.73
354.422	35.16
354.633	18.77
354.845	86.36
355.057	39.25
355.268	72.02
355.48	39.25
355.692	51.54
355.903	125.27
356.115	100.69
356.326	10.58
356.538	76.12
356.749	82.26
356.961	133.46
357.172	39.25
357.384	59.73
357.595	-3.75
357.807	33.11
358.018	123.22
358.23	18.77
358.441	102.74
358.653	43.35
358.864	67.92
359.075	24.92
359.287	82.26
359.498	98.64
359.709	43.35
359.921	65.88
360.132	69.97
360.344	143.7
360.555	37.2
360.766	0.34
360.977	84.31
361.189	112.98
361.4	12.63
361.611	69.97
361.823	100.69
362.034	162.13
362.245	127.32
362.456	43.35
362.667	12.63
362.879	88.4
363.09	61.78
363.301	43.35
363.512	69.97
363.723	8.53
363.935	43.35
364.146	29.01
364.357	67.92
364.568	92.5
364.779	43.35
364.99	100.69
365.201	86.36
365.412	100.69
365.623	63.83
365.834	59.73
366.045	108.88
366.256	76.12
366.467	82.26
366.678	18.77
366.889	61.78
367.1	59.73
367.311	88.4
367.522	96.6
367.733	108.88
367.944	133.46
368.155	29.01
368.366	90.45
368.577	100.69
368.788	22.87
368.999	2.39
369.209	72.02
369.42	119.12
369.631	170.32
369.842	92.5
370.053	110.93
370.264	76.12
370.474	18.77
370.685	4.44
370.896	4.44
371.107	98.64
371.317	94.55
371.528	76.12
371.739	170.32
371.95	92.5
372.16	59.73
372.371	6.49
372.582	51.54
372.792	63.83
373.003	53.59
373.214	61.78
373.424	121.17
373.635	-22.19
373.846	47.44
374.056	76.12
374.267	92.5
374.477	74.07
374.688	-5.8
374.898	117.08
375.109	84.31
375.319	92.5
375.53	94.55
375.74	33.11
375.951	26.96
376.161	129.36
376.372	29.01
376.582	2.39
376.793	110.93
377.003	29.01
377.214	86.36
377.424	69.97
377.635	125.27
377.845	45.4
378.055	110.93
378.266	26.96
378.476	29.01
378.686	53.59
378.897	90.45
379.107	45.4
379.317	67.92
379.528	65.88
379.738	96.6
379.948	84.31
380.158	59.73
380.369	127.32
380.579	78.16
380.789	115.03
380.999	12.63
381.21	67.92
381.42	84.31
381.63	125.27
381.84	96.6
382.05	72.02
382.261	63.83
382.471	61.78
382.681	63.83
382.891	86.36
383.101	47.44
383.311	59.73
383.521	16.73
383.731	51.54
383.941	43.35
384.151	35.16
384.361	96.6
384.571	55.64
384.781	119.12
384.991	51.54
385.201	125.27
385.411	76.12
385.621	100.69
385.831	115.03
386.041	51.54
386.251	51.54
386.461	86.36
386.671	72.02
386.881	90.45
387.091	22.87
387.301	88.4
387.511	-1.71
387.72	35.16
387.93	178.51
388.14	125.27
388.35	86.36
388.56	84.31
388.769	129.36
388.979	108.88
389.189	-50.86
389.399	59.73
389.609	92.5
389.818	84.31
390.028	29.01
390.238	135.51
390.447	37.2
390.657	43.35
390.867	51.54
391.076	35.16
391.286	63.83
391.496	35.16
391.705	98.64
391.915	69.97
392.125	133.46
392.334	6.49
392.544	61.78
392.753	31.06
392.963	96.6
393.172	84.31
393.382	43.35
393.591	108.88
393.801	35.16
394.01	174.42
394.22	129.36
394.429	88.4
394.639	96.6
394.848	53.59
395.058	80.21
395.267	131.41
395.477	72.02
395.686	149.84
395.895	215.38
396.105	151.89
396.314	63.83
396.524	108.88
396.733	26.96
396.942	135.51
397.152	110.93
397.361	137.56
397.57	108.88
397.78	170.32
397.989	162.13
398.198	151.89
398.407	55.64
398.617	110.93
398.826	96.6
399.035	59.73
399.244	141.65
399.453	127.32
399.663	168.27
399.872	86.36
400.081	98.64
400.29	174.42
400.499	137.56
400.708	180.56
400.917	180.56
401.127	92.5
401.336	125.27
401.545	215.38
401.754	160.08
401.963	158.03
402.172	76.12
402.381	102.74
402.59	119.12
402.799	213.33
403.008	162.13
403.217	88.4
403.426	209.23
403.635	96.6
403.844	84.31
404.053	182.61
404.262	188.75
404.471	139.6
404.68	231.76
404.888	194.9
405.097	106.84
405.306	149.84
405.515	223.57
405.724	182.61
405.933	229.71
406.142	186.71
406.35	205.14
406.559	231.76
406.768	166.23
406.977	250.19
407.185	221.52
407.394	176.47
407.603	233.81
407.812	233.81
408.02	315.73
408.229	203.09
408.438	330.06
408.646	233.81
408.855	264.53
409.064	307.54
409.272	307.54
409.481	321.87
409.69	317.78
409.898	282.96
410.107	362.83
410.315	407.89
410.524	313.68
410.733	366.93
410.941	330.06
411.15	381.26
411.358	422.22
411.567	489.81
411.775	502.09
411.984	428.37
412.192	418.13
412.401	471.37
412.609	495.95
412.818	526.67
413.026	528.72
413.234	518.48
413.443	592.2
413.651	479.57
413.86	653.64
414.068	659.79
414.276	682.31
414.485	608.59
414.693	698.7
414.901	747.85
415.11	776.52
415.318	741.71
415.526	749.9
415.734	801.1
415.943	860.49
416.151	872.78
416.359	905.54
416.567	895.3
416.776	969.03
416.984	1071.43
417.192	1046.85
417.4	993.61
417.608	1069.38
417.817	1149.25
418.025	1165.64
418.233	1376.58
418.441	1265.99
418.649	1325.38
418.857	1272.13
419.065	1356.1
419.273	1280.32
419.481	1407.3
419.689	1528.13
419.897	1575.23
420.105	1612.09
420.313	1595.71
420.521	1696.06
420.729	1753.4
420.937	1788.22
421.145	1775.93
421.353	1980.73
421.561	2029.88
421.769	2017.59
421.977	2220.34
422.185	2132.28
422.393	2339.12
422.601	2431.28
422.809	2296.11
423.017	2238.77
423.224	2494.77
423.432	2484.53
423.64	2627.89
423.848	2836.78
424.056	2787.63
424.263	3055.91
424.471	2926.89
424.679	3057.96
424.887	3256.61
425.094	3262.76
425.302	3199.27
425.51	3389.73
425.718	3328.29
425.925	3377.44
426.133	3680.54
426.341	3815.71
426.548	4051.22
426.756	4026.65
426.964	4104.47
427.171	4311.32
427.379	4493.58
427.586	4487.44
427.794	4581.65
428.001	4878.6
428.209	5107.98
428.417	4819.21
428.624	5187.85
428.832	5339.4
429.039	5097.74
429.247	5327.11
429.454	5822.72
429.662	6129.91
429.869	5892.35
430.076	6129.91
430.284	5966.07
430.491	6320.37
430.699	6621.42
430.906	6529.27
431.114	6842.6
431.321	6916.33
431.528	7049.45
431.736	7407.84
431.943	7940.32
432.15	7620.83
432.358	7737.57
432.565	8198.36
432.772	8145.11
432.979	8575.19
433.187	8577.23
433.394	8841.42
433.601	9412.81
433.808	9375.94
434.016	9154.76
434.223	9689.28
434.43	10244.28
434.637	10113.21
434.844	10520.76
435.052	10782.9
435.259	10672.31
435.466	11045.04
435.673	10647.73
435.88	11454.63
436.087	11954.33
436.294	12052.64
436.501	11716.77
436.708	12218.52
436.915	12617.88
437.122	12900.5
437.329	12963.98
437.537	13250.7
437.743	13480.07
437.95	13422.73
438.157	14364.79
438.364	14338.17
438.571	14616.69
438.778	14817.4
438.985	15949.92
439.192	15392.87
439.399	15689.83
439.606	15431.79
439.813	16121.95
440.02	17346.64
440.227	16996.43
440.433	16861.27
440.64	17193.04
440.847	17414.22
441.054	17909.83
441.261	19339.31
441.467	18868.28
441.674	18907.19
441.881	20054.05
442.088	19646.51
442.294	19531.82
442.501	19976.23
442.708	20332.58
442.914	21362.7
443.121	22294.53
443.328	21446.67
443.534	22956.02
443.741	22464.51
443.948	22308.86
444.154	23793.64
444.361	23488.49
444.568	23654.38
444.774	23750.63
444.981	23973.86
445.187	24770.52
445.394	25755.6
445.6	25583.57
445.807	27770.8
446.013	26613.7
446.22	27021.24
446.426	27811.76
446.633	28538.79
446.839	29304.73
447.046	28155.82
447.252	29429.65
447.459	29327.25
447.665	29333.4
447.871	30754.69
448.078	32202.6
448.284	30640
448.491	31471.48
448.697	32823.14
448.903	33208.15
449.11	33521.49
449.316	32464.74
449.522	33398.62
449.728	34568.01
449.935	34500.42
450.141	34438.98
450.347	35571.51
450.553	34279.24
450.76	34551.62
450.966	35700.53
451.172	35481.4
451.378	36644.65
451.584	35469.11
451.791	36560.68
451.997	36501.29
452.203	37334.81
452.409	36820.77
452.615	37009.18
452.821	35800.88
453.027	35196.73
453.233	37304.09
453.44	35655.48
453.646	36374.31
453.852	36439.85
454.058	36855.59
454.264	35735.35
454.47	36556.58
454.676	35499.83
454.882	36828.96
455.088	33789.78
455.294	34342.73
455.5	34611.01
455.705	34967.36
455.911	33482.58
456.117	33048.41
456.323	32546.66
456.529	31022.97
456.735	32388.97
456.941	31641.46
457.147	31252.34
457.352	30359.43
457.558	30164.87
457.764	29984.65
457.97	29339.54
458.176	28870.56
458.381	28987.29
458.587	27330.48
458.793	27652.02
458.999	26116.04
459.204	28254.12
459.41	27283.38
459.616	25583.57
459.821	25612.24
460.027	25542.61
460.233	24801.24
460.438	23678.96
460.644	23582.7
460.85	23033.85
461.055	22454.27
461.261	22423.55
461.466	20850.71
461.672	19908.65
461.878	21448.72
462.083	20193.31
462.289	19724.33
462.494	19781.67
462.7	19021.88
462.905	18266.17
463.111	18788.41
463.316	18878.52
463.522	18442.3
463.727	18372.67
463.932	18645.05
464.138	18198.59
464.343	18491.45
464.549	17543.24
464.754	18518.07
464.959	18262.08
465.165	18106.43
465.37	17410.12
465.575	16887.89
465.781	17672.26
465.986	17836.1
466.191	16967.76
466.397	16439.39
466.602	16164.96
466.807	16574.55
467.012	16562.26
467.218	16453.72
467.423	16130.14
