Data from USB4F104151__163__14-19-42-963.txt Node

Date: Thu Mar 13 14:19:42 EDT 2025
User: louis
Spectrometer: USB4F10415
Trigger mode: 4
Integration Time (sec): 2.000000E-2
Scans to average: 1
Electric dark correction enabled: true
Nonlinearity correction enabled: false
Boxcar width: 0
XAxis mode: Wavelengths
Number of Pixels in Spectrum: 3648
>>>>>Begin Spectral Data<<<<<
178.204	-101.89
178.424	-101.89
178.644	-101.89
178.864	-124.41
179.084	-65.02
179.304	-42.5
179.524	-17.92
179.744	-15.87
179.964	49.66
180.184	31.23
180.404	31.23
180.624	51.71
180.844	31.23
181.064	-36.35
181.283	-5.63
181.503	-67.07
181.723	-9.73
181.943	31.23
182.163	68.09
182.383	47.62
182.602	154.11
182.822	41.47
183.042	31.23
183.262	23.04
183.482	-11.78
183.701	-46.59
183.921	64
184.141	8.7
184.361	90.62
184.58	23.04
184.8	-1.54
185.02	47.62
185.239	98.81
185.459	84.48
185.679	115.2
185.898	16.9
186.118	74.24
186.338	82.43
186.557	25.09
186.777	-36.35
186.997	66.05
187.216	84.48
187.436	100.86
187.655	23.04
187.875	123.39
188.095	39.42
188.314	78.33
188.534	59.9
188.753	-13.82
188.973	96.77
189.192	76.29
189.412	47.62
189.631	107.01
189.851	47.62
190.07	84.48
190.29	45.57
190.509	-17.92
190.729	27.14
190.948	96.77
191.168	184.83
191.387	55.81
191.607	80.38
191.826	88.57
192.045	61.95
192.265	61.95
192.484	66.05
192.704	72.19
192.923	43.52
193.142	147.97
193.362	-42.5
193.581	104.96
193.8	43.52
194.02	25.09
194.239	43.52
194.458	100.86
194.678	64
194.897	88.57
195.116	94.72
195.335	61.95
195.555	25.09
195.774	82.43
195.993	47.62
196.212	39.42
196.432	-22.02
196.651	14.85
196.87	-1.54
197.089	147.97
197.308	8.7
197.528	47.62
197.747	45.57
197.966	41.47
198.185	78.33
198.404	33.28
198.623	23.04
198.842	49.66
199.062	98.81
199.281	53.76
199.5	-9.73
199.719	96.77
199.938	33.28
200.157	61.95
200.376	33.28
200.595	117.25
200.814	-3.58
201.033	18.94
201.252	43.52
201.471	125.44
201.69	53.76
201.909	76.29
202.128	2.56
202.347	82.43
202.566	12.8
202.785	-19.97
203.004	49.66
203.223	45.57
203.442	57.86
203.661	-26.11
203.879	47.62
204.098	47.62
204.317	90.62
204.536	72.19
204.755	80.38
204.974	6.66
205.193	45.57
205.411	137.73
205.63	47.62
205.849	61.95
206.068	55.81
206.287	55.81
206.505	53.76
206.724	64
206.943	-5.63
207.162	51.71
207.381	2.56
207.599	84.48
207.818	55.81
208.037	14.85
208.255	31.23
208.474	68.09
208.693	39.42
208.911	16.9
209.13	66.05
209.349	125.44
209.567	6.66
209.786	64
210.005	59.9
210.223	88.57
210.442	6.66
210.661	59.9
210.879	-9.73
211.098	55.81
211.316	-17.92
211.535	27.14
211.753	35.33
211.972	57.86
212.191	113.15
212.409	107.01
212.628	64
212.846	23.04
213.065	90.62
213.283	68.09
213.502	35.33
213.72	72.19
213.938	53.76
214.157	47.62
214.375	27.14
214.594	27.14
214.812	88.57
215.031	33.28
215.249	78.33
215.467	72.19
215.686	43.52
215.904	49.66
216.122	33.28
216.341	55.81
216.559	-19.97
216.778	2.56
216.996	33.28
217.214	49.66
217.432	33.28
217.651	33.28
217.869	16.9
218.087	57.86
218.306	47.62
218.524	18.94
218.742	41.47
218.96	137.73
219.179	23.04
219.397	35.33
219.615	74.24
219.833	47.62
220.051	123.39
220.27	107.01
220.488	66.05
220.706	29.18
220.924	25.09
221.142	41.47
221.36	68.09
221.578	55.81
221.796	31.23
222.015	43.52
222.233	-24.06
222.451	100.86
222.669	55.81
222.887	-30.21
223.105	74.24
223.323	64
223.541	-9.73
223.759	23.04
223.977	0.51
224.195	84.48
224.413	88.57
224.631	113.15
224.849	107.01
225.067	113.15
225.285	0.51
225.503	14.85
225.721	-34.3
225.939	94.72
226.157	39.42
226.375	133.63
226.592	47.62
226.81	119.29
227.028	57.86
227.246	49.66
227.464	104.96
227.682	107.01
227.9	82.43
228.117	135.68
228.335	49.66
228.553	45.57
228.771	23.04
228.989	-24.06
229.206	74.24
229.424	104.96
229.642	72.19
229.86	107.01
230.077	35.33
230.295	96.77
230.513	111.1
230.731	68.09
230.948	76.29
231.166	86.53
231.384	47.62
231.601	25.09
231.819	166.4
232.037	35.33
232.254	-30.21
232.472	39.42
232.689	49.66
232.907	-30.21
233.125	57.86
233.342	74.24
233.56	64
233.777	-7.68
233.995	23.04
234.213	96.77
234.43	-5.63
234.648	35.33
234.865	-58.88
235.083	23.04
235.3	23.04
235.518	72.19
235.735	80.38
235.953	64
236.17	74.24
236.388	107.01
236.605	51.71
236.822	147.97
237.04	43.52
237.257	59.9
237.475	74.24
237.692	37.38
237.909	27.14
238.127	98.81
238.344	39.42
238.562	43.52
238.779	14.85
238.996	-13.82
239.214	61.95
239.431	59.9
239.648	47.62
239.865	64
240.083	141.82
240.3	59.9
240.517	90.62
240.735	31.23
240.952	82.43
241.169	94.72
241.386	57.86
241.603	47.62
241.821	47.62
242.038	47.62
242.255	115.2
242.472	27.14
242.689	49.66
242.907	74.24
243.124	76.29
243.341	80.38
243.558	31.23
243.775	8.7
243.992	-11.78
244.209	88.57
244.426	117.25
244.643	41.47
244.86	96.77
245.078	53.76
245.295	6.66
245.512	49.66
245.729	66.05
245.946	111.1
246.163	47.62
246.38	55.81
246.597	131.58
246.814	31.23
247.031	66.05
247.248	64
247.464	121.34
247.681	68.09
247.898	33.28
248.115	39.42
248.332	16.9
248.549	113.15
248.766	72.19
248.983	74.24
249.2	107.01
249.417	68.09
249.633	66.05
249.85	98.81
250.067	80.38
250.284	-26.11
250.501	-7.68
250.717	143.87
250.934	14.85
251.151	64
251.368	27.14
251.585	47.62
251.801	27.14
252.018	76.29
252.235	70.14
252.451	39.42
252.668	70.14
252.885	100.86
253.102	27.14
253.318	117.25
253.535	90.62
253.752	121.34
253.968	39.42
254.185	14.85
254.401	82.43
254.618	68.09
254.835	70.14
255.051	80.38
255.268	8.7
255.484	121.34
255.701	14.85
255.917	14.85
256.134	-1.54
256.351	10.75
256.567	43.52
256.784	123.39
257	4.61
257.217	10.75
257.433	47.62
257.65	57.86
257.866	82.43
258.082	-28.16
258.299	41.47
258.515	88.57
258.732	14.85
258.948	0.51
259.165	43.52
259.381	64
259.597	27.14
259.814	104.96
260.03	12.8
260.246	64
260.463	84.48
260.679	47.62
260.895	-3.58
261.112	92.67
261.328	-13.82
261.544	35.33
261.761	88.57
261.977	47.62
262.193	82.43
262.409	43.52
262.626	68.09
262.842	76.29
263.058	45.57
263.274	86.53
263.49	43.52
263.707	113.15
263.923	-26.11
264.139	25.09
264.355	43.52
264.571	109.05
264.787	66.05
265.004	96.77
265.22	88.57
265.436	14.85
265.652	59.9
265.868	29.18
266.084	4.61
266.3	70.14
266.516	20.99
266.732	51.71
266.948	88.57
267.164	107.01
267.38	92.67
267.596	137.73
267.812	174.59
268.028	96.77
268.244	18.94
268.46	31.23
268.676	57.86
268.892	0.51
269.108	-24.06
269.324	23.04
269.54	-17.92
269.756	133.63
269.972	23.04
270.188	57.86
270.403	66.05
270.619	51.71
270.835	98.81
271.051	-1.54
271.267	6.66
271.483	29.18
271.698	45.57
271.914	51.71
272.13	104.96
272.346	94.72
272.562	59.9
272.777	92.67
272.993	49.66
273.209	72.19
273.425	55.81
273.64	94.72
273.856	49.66
274.072	27.14
274.287	-17.92
274.503	117.25
274.719	125.44
274.934	72.19
275.15	-17.92
275.366	23.04
275.581	39.42
275.797	-22.02
276.012	37.38
276.228	96.77
276.444	80.38
276.659	35.33
276.875	55.81
277.09	68.09
277.306	72.19
277.521	84.48
277.737	-1.54
277.952	88.57
278.168	37.38
278.383	0.51
278.599	66.05
278.814	70.14
279.03	33.28
279.245	96.77
279.461	59.9
279.676	90.62
279.892	113.15
280.107	70.14
280.322	31.23
280.538	49.66
280.753	35.33
280.969	8.7
281.184	64
281.399	104.96
281.615	35.33
281.83	123.39
282.045	53.76
282.26	55.81
282.476	43.52
282.691	76.29
282.906	86.53
283.122	88.57
283.337	74.24
283.552	-22.02
283.767	147.97
283.983	125.44
284.198	64
284.413	109.05
284.628	51.71
284.843	72.19
285.058	10.75
285.274	96.77
285.489	61.95
285.704	37.38
285.919	-7.68
286.134	-1.54
286.349	80.38
286.564	66.05
286.779	66.05
286.995	16.9
287.21	27.14
287.425	70.14
287.64	27.14
287.855	35.33
288.07	-5.63
288.285	113.15
288.5	127.49
288.715	84.48
288.93	33.28
289.145	53.76
289.36	-3.58
289.575	-58.88
289.79	74.24
290.004	39.42
290.219	76.29
290.434	59.9
290.649	10.75
290.864	47.62
291.079	88.57
291.294	57.86
291.509	59.9
291.724	64
291.938	115.2
292.153	82.43
292.368	84.48
292.583	55.81
292.798	16.9
293.012	90.62
293.227	137.73
293.442	147.97
293.657	55.81
293.871	53.76
294.086	39.42
294.301	121.34
294.516	137.73
294.73	72.19
294.945	72.19
295.16	18.94
295.374	68.09
295.589	80.38
295.804	31.23
296.018	115.2
296.233	82.43
296.447	55.81
296.662	49.66
296.877	104.96
297.091	49.66
297.306	123.39
297.52	39.42
297.735	57.86
297.949	104.96
298.164	176.64
298.378	64
298.593	96.77
298.807	12.8
299.022	96.77
299.236	166.4
299.451	25.09
299.665	96.77
299.88	29.18
300.094	115.2
300.309	59.9
300.523	35.33
300.737	74.24
300.952	98.81
301.166	55.81
301.381	53.76
301.595	2.56
301.809	64
302.024	-1.54
302.238	57.86
302.452	94.72
302.667	33.28
302.881	113.15
303.095	121.34
303.309	109.05
303.524	59.9
303.738	64
303.952	84.48
304.166	23.04
304.381	-17.92
304.595	64
304.809	14.85
305.023	86.53
305.237	33.28
305.452	25.09
305.666	74.24
305.88	39.42
306.094	31.23
306.308	37.38
306.522	57.86
306.736	27.14
306.95	55.81
307.164	76.29
307.379	2.56
307.593	125.44
307.807	80.38
308.021	82.43
308.235	18.94
308.449	-32.26
308.663	23.04
308.877	82.43
309.091	152.06
309.305	66.05
309.519	59.9
309.733	76.29
309.947	23.04
310.161	35.33
310.374	90.62
310.588	80.38
310.802	-9.73
311.016	55.81
311.23	31.23
311.444	14.85
311.658	72.19
311.872	104.96
312.085	72.19
312.299	100.86
312.513	-15.87
312.727	37.38
312.941	121.34
313.154	90.62
313.368	131.58
313.582	66.05
313.796	72.19
314.009	80.38
314.223	98.81
314.437	25.09
314.651	31.23
314.864	94.72
315.078	104.96
315.292	35.33
315.505	68.09
315.719	49.66
315.933	109.05
316.146	41.47
316.36	39.42
316.573	137.73
316.787	23.04
317.001	162.3
317.214	-48.64
317.428	74.24
317.641	61.95
317.855	27.14
318.068	72.19
318.282	27.14
318.495	88.57
318.709	23.04
318.922	43.52
319.136	137.73
319.349	80.38
319.563	82.43
319.776	-38.4
319.99	6.66
320.203	109.05
320.417	76.29
320.63	66.05
320.843	113.15
321.057	111.1
321.27	145.92
321.483	61.95
321.697	104.96
321.91	109.05
322.124	121.34
322.337	107.01
322.55	23.04
322.763	98.81
322.977	-5.63
323.19	-11.78
323.403	51.71
323.617	147.97
323.83	39.42
324.043	35.33
324.256	33.28
324.469	51.71
324.683	74.24
324.896	82.43
325.109	0.51
325.322	33.28
325.535	43.52
325.748	66.05
325.962	45.57
326.175	57.86
326.388	86.53
326.601	76.29
326.814	88.57
327.027	49.66
327.24	113.15
327.453	-13.82
327.666	76.29
327.879	14.85
328.092	141.82
328.305	162.3
328.518	10.75
328.731	37.38
328.944	92.67
329.157	53.76
329.37	45.57
329.583	57.86
329.796	145.92
330.009	-9.73
330.222	104.96
330.435	66.05
330.648	51.71
330.861	139.77
331.073	0.51
331.286	68.09
331.499	86.53
331.712	-7.68
331.925	104.96
332.138	49.66
332.35	104.96
332.563	33.28
332.776	104.96
332.989	18.94
333.202	80.38
333.414	84.48
333.627	113.15
333.84	113.15
334.053	117.25
334.265	100.86
334.478	117.25
334.691	74.24
334.903	47.62
335.116	35.33
335.329	80.38
335.541	100.86
335.754	2.56
335.966	57.86
336.179	94.72
336.392	12.8
336.604	16.9
336.817	49.66
337.029	47.62
337.242	61.95
337.454	195.07
337.667	145.92
337.88	121.34
338.092	16.9
338.305	14.85
338.517	35.33
338.729	133.63
338.942	145.92
339.154	39.42
339.367	25.09
339.579	104.96
339.792	35.33
340.004	72.19
340.217	18.94
340.429	45.57
340.641	59.9
340.854	49.66
341.066	47.62
341.278	27.14
341.491	18.94
341.703	170.49
341.915	55.81
342.128	88.57
342.34	0.51
342.552	33.28
342.764	119.29
342.977	74.24
343.189	131.58
343.401	43.52
343.613	64
343.826	96.77
344.038	55.81
344.25	57.86
344.462	-3.58
344.674	154.11
344.886	6.66
345.099	64
345.311	33.28
345.523	98.81
345.735	100.86
345.947	107.01
346.159	96.77
346.371	41.47
346.583	117.25
346.795	72.19
347.007	70.14
347.219	107.01
347.431	92.67
347.643	55.81
347.855	80.38
348.067	72.19
348.279	39.42
348.491	104.96
348.703	143.87
348.915	64
349.127	51.71
349.339	90.62
349.551	61.95
349.763	45.57
349.975	107.01
350.187	160.25
350.399	104.96
350.61	104.96
350.822	33.28
351.034	31.23
351.246	70.14
351.458	104.96
351.669	41.47
351.881	113.15
352.093	129.53
352.305	76.29
352.517	70.14
352.728	111.1
352.94	82.43
353.152	92.67
353.363	-3.58
353.575	154.11
353.787	88.57
353.999	74.24
354.21	162.3
354.422	27.14
354.633	49.66
354.845	113.15
355.057	84.48
355.268	170.49
355.48	113.15
355.692	78.33
355.903	59.9
356.115	57.86
356.326	72.19
356.538	96.77
356.749	43.52
356.961	113.15
357.172	96.77
357.384	-17.92
357.595	88.57
357.807	18.94
358.018	113.15
358.23	107.01
358.441	162.3
358.653	98.81
358.864	76.29
359.075	90.62
359.287	88.57
359.498	109.05
359.709	127.49
359.921	104.96
360.132	117.25
360.344	80.38
360.555	20.99
360.766	78.33
360.977	100.86
361.189	166.4
361.4	64
361.611	64
361.823	109.05
362.034	72.19
362.245	-26.11
362.456	92.67
362.667	-13.82
362.879	16.9
363.09	23.04
363.301	100.86
363.512	59.9
363.723	80.38
363.935	29.18
364.146	123.39
364.357	-17.92
364.568	64
364.779	25.09
364.99	68.09
365.201	53.76
365.412	57.86
365.623	55.81
365.834	76.29
366.045	137.73
366.256	64
366.467	96.77
366.678	41.47
366.889	35.33
367.1	-40.45
367.311	143.87
367.522	70.14
367.733	113.15
367.944	66.05
368.155	47.62
368.366	109.05
368.577	66.05
368.788	53.76
368.999	68.09
369.209	127.49
369.42	137.73
369.631	139.77
369.842	100.86
370.053	47.62
370.264	84.48
370.474	31.23
370.685	80.38
370.896	113.15
371.107	80.38
371.317	92.67
371.528	43.52
371.739	152.06
371.95	55.81
372.16	162.3
372.371	16.9
372.582	45.57
372.792	76.29
373.003	117.25
373.214	82.43
373.424	111.1
373.635	29.18
373.846	16.9
374.056	33.28
374.267	88.57
374.477	88.57
374.688	49.66
374.898	178.69
375.109	33.28
375.319	94.72
375.53	180.73
375.74	74.24
375.951	66.05
376.161	74.24
376.372	92.67
376.582	72.19
376.793	92.67
377.003	86.53
377.214	98.81
377.424	84.48
377.635	82.43
377.845	53.76
378.055	125.44
378.266	96.77
378.476	74.24
378.686	115.2
378.897	31.23
379.107	107.01
379.317	80.38
379.528	100.86
379.738	76.29
379.948	41.47
380.158	90.62
380.369	137.73
380.579	123.39
380.789	80.38
380.999	145.92
381.21	102.91
381.42	174.59
381.63	8.7
381.84	92.67
382.05	125.44
382.261	76.29
382.471	152.06
382.681	88.57
382.891	96.77
383.101	82.43
383.311	37.38
383.521	162.3
383.731	76.29
383.941	80.38
384.151	109.05
384.361	98.81
384.571	121.34
384.781	123.39
384.991	129.53
385.201	154.11
385.411	53.76
385.621	137.73
385.831	-5.63
386.041	59.9
386.251	86.53
386.461	137.73
386.671	115.2
386.881	109.05
387.091	139.77
387.301	121.34
387.511	74.24
387.72	139.77
387.93	129.53
388.14	72.19
388.35	47.62
388.56	121.34
388.769	139.77
388.979	82.43
389.189	100.86
389.399	49.66
389.609	190.97
389.818	66.05
390.028	25.09
390.238	139.77
390.447	131.58
390.657	49.66
390.867	33.28
391.076	88.57
391.286	84.48
391.496	84.48
391.705	55.81
391.915	98.81
392.125	109.05
392.334	154.11
392.544	47.62
392.753	121.34
392.963	90.62
393.172	82.43
393.382	41.47
393.591	104.96
393.801	104.96
394.01	154.11
394.22	154.11
394.429	158.21
394.639	98.81
394.848	84.48
395.058	88.57
395.267	129.53
395.477	92.67
395.686	72.19
395.895	172.54
396.105	203.26
396.314	115.2
396.524	115.2
396.733	121.34
396.942	178.69
397.152	223.74
397.361	164.35
397.57	164.35
397.78	158.21
397.989	123.39
398.198	168.45
398.407	131.58
398.617	139.77
398.826	100.86
399.035	162.3
399.244	188.93
399.453	154.11
399.663	125.44
399.872	225.79
400.081	137.73
400.29	215.55
400.499	121.34
400.708	213.5
400.917	211.45
401.127	129.53
401.336	195.07
401.545	184.83
401.754	219.64
401.963	190.97
402.172	109.05
402.381	225.79
402.59	123.39
402.799	203.26
403.008	205.31
403.217	213.5
403.426	221.69
403.635	166.4
403.844	244.22
404.053	178.69
404.262	184.83
404.471	297.47
404.68	244.22
404.888	258.56
405.097	215.55
405.306	211.45
405.515	336.38
405.724	260.6
405.933	242.17
406.142	186.88
406.35	367.1
406.559	328.19
406.768	305.66
406.977	377.34
407.185	369.15
407.394	301.56
407.603	301.56
407.812	256.51
408.02	348.67
408.229	344.57
408.438	317.95
408.646	328.19
408.855	320
409.064	377.34
409.272	383.48
409.481	432.63
409.69	393.72
409.898	436.73
410.107	469.5
410.315	547.32
410.524	406.01
410.733	504.31
410.941	512.5
411.15	539.13
411.358	549.37
411.567	512.5
411.775	610.81
411.984	588.28
412.192	639.48
412.401	629.24
412.609	705.01
412.818	668.15
413.026	625.14
413.234	784.88
413.443	686.58
413.651	788.98
413.86	809.46
414.068	842.23
414.276	893.43
414.485	963.06
414.693	932.34
414.901	909.81
415.11	1001.97
415.318	950.77
415.526	1032.69
415.734	1120.75
415.943	1137.13
416.151	1096.18
416.359	1186.29
416.567	1251.82
416.776	1300.97
416.984	1384.94
417.192	1350.12
417.4	1434.09
417.608	1397.23
417.817	1448.43
418.025	1518.06
418.233	1694.18
418.441	1620.46
418.649	1671.65
418.857	1851.88
419.065	1882.6
419.273	1919.46
419.481	1929.7
419.689	2062.82
419.897	2130.4
420.105	2146.78
420.313	2107.87
420.521	2228.7
420.729	2245.09
420.937	2337.24
421.145	2539.99
421.353	2580.95
421.561	2669.02
421.769	2730.45
421.977	2986.45
422.185	2892.24
422.393	2945.49
422.601	3264.97
422.809	3121.62
423.017	3242.45
423.224	3389.9
423.432	3426.76
423.64	3482.06
423.848	3957.19
424.056	3867.08
424.263	4123.07
424.471	3987.91
424.679	4071.87
424.887	4417.98
425.094	4460.99
425.302	4399.55
425.51	4659.64
425.718	4573.63
425.925	4770.23
426.133	5128.63
426.341	5188.02
426.548	5677.48
426.756	5652.91
426.964	5462.44
427.171	5880.23
427.379	5980.58
427.586	6199.71
427.794	6183.33
428.001	6640.03
428.209	6934.93
428.417	6834.58
428.624	7428.49
428.832	7266.71
429.039	7270.8
429.247	7233.94
429.454	8114.56
429.662	8352.13
429.869	7903.62
430.076	8513.92
430.284	8085.89
430.491	8485.25
430.699	9001.33
430.906	9077.11
431.114	9210.23
431.321	9517.42
431.528	9732.46
431.736	10197.35
431.943	10705.24
432.15	10373.47
432.358	10797.4
432.565	11319.64
432.772	11366.74
432.979	11901.26
433.187	11841.87
433.394	11905.35
433.601	12736.83
433.808	12466.5
434.016	12949.82
434.223	13107.51
434.43	13877.55
434.637	13431.09
434.844	14749.98
435.052	14561.57
435.259	14580
435.466	14719.26
435.673	14682.4
435.88	15733.01
436.087	16505.09
436.294	16562.44
436.501	16158.99
436.708	16388.36
436.915	17031.42
437.122	17735.92
437.329	17631.47
437.537	18233.58
437.743	18610.4
437.95	18319.59
438.157	19269.85
438.364	20031.69
438.571	19886.29
438.778	19998.93
438.985	21807.28
439.192	20916.42
439.399	21631.16
439.606	21242.04
439.813	22061.23
440.02	23787.67
440.227	23236.77
440.433	23181.47
440.64	23961.75
440.847	23468.19
441.054	24139.92
441.261	25704.57
441.467	25264.25
441.674	26148.98
441.881	26689.64
442.088	26519.66
442.294	26554.47
442.501	27123.81
442.708	27936.85
442.914	28735.56
443.121	29859.9
443.328	28987.46
443.534	31031.33
443.741	30220.34
443.948	30083.12
444.154	32061.46
444.361	31780.89
444.568	32196.63
444.774	32065.56
444.981	32477.2
445.187	33388.55
445.394	34748.4
445.6	34361.33
445.807	38010.81
446.013	36515.79
446.22	36571.09
446.426	38066.11
446.633	38115.26
446.839	39458.73
447.046	38053.82
447.252	40054.68
447.459	40292.25
447.665	40073.12
447.871	41385.86
448.078	43616.1
448.284	41525.13
448.491	42176.38
448.697	44056.42
448.903	44599.13
449.11	44765.01
449.316	43947.87
449.522	44949.33
449.728	45719.37
449.935	46458.68
450.141	46212.93
450.347	47431.47
450.553	45666.12
450.76	46577.47
450.966	48045.86
451.172	46919.48
451.378	48441.12
451.584	47517.48
451.791	48477.98
451.997	48441.12
452.203	49878.79
452.409	49352.46
452.615	49063.7
452.821	47288.11
453.027	46956.34
453.233	49690.38
453.44	47640.36
453.646	48467.74
453.852	47939.36
454.058	48908.05
454.264	47525.67
454.47	48615.19
454.676	47130.42
454.882	49233.68
455.088	44853.08
455.294	45621.06
455.5	46116.67
455.705	46585.66
455.911	44896.08
456.117	43972.45
456.323	42915.7
456.529	41236.36
456.735	42848.11
456.941	41904
457.147	41412.49
457.352	39868.32
457.558	39724.96
457.764	39669.67
457.97	38729.65
458.176	37836.73
458.381	38330.3
458.587	36202.46
458.793	36566.99
458.999	34473.97
459.204	36882.38
459.41	35897.31
459.616	33130.5
459.821	33898.49
460.027	33085.45
460.233	32643.09
460.438	31266.85
460.644	31713.31
460.85	29960.25
461.055	29782.07
461.261	29380.67
461.466	27902.04
461.672	26374.25
461.878	28463.18
462.083	26546.28
462.289	26353.77
462.494	26185.84
462.7	24795.27
462.905	23918.74
463.111	25225.34
463.316	24893.57
463.522	24639.62
463.727	24305.81
463.932	24418.44
464.138	24322.19
464.343	24443.02
464.549	23511.19
464.754	24418.44
464.959	24051.86
465.165	23902.36
465.37	23013.54
465.575	22421.67
465.781	23306.4
465.986	23244.96
466.191	22405.29
466.397	21921.97
