Data from USB4F104151__111__14-18-18-353.txt Node

Date: Thu Mar 13 14:18:18 EDT 2025
User: louis
Spectrometer: USB4F10415
Trigger mode: 4
Integration Time (sec): 2.000000E-2
Scans to average: 1
Electric dark correction enabled: true
Nonlinearity correction enabled: false
Boxcar width: 0
XAxis mode: Wavelengths
Number of Pixels in Spectrum: 3648
>>>>>Begin Spectral Data<<<<<
178.204	-113.66
178.424	-113.66
178.644	-113.66
178.864	-130.05
179.084	-156.67
179.304	17.41
179.524	-5.12
179.744	-1.02
179.964	9.22
180.184	-29.7
180.404	-46.08
180.624	44.03
180.844	9.22
181.064	-25.6
181.283	-21.5
181.503	35.84
181.723	13.31
181.943	-103.42
182.163	95.23
182.383	17.41
182.602	52.22
182.822	54.27
183.042	-15.36
183.262	13.31
183.482	54.27
183.701	-11.26
183.921	3.07
184.141	1.02
184.361	25.6
184.58	-3.07
184.8	-48.13
185.02	-19.46
185.239	50.18
185.459	91.13
185.679	52.22
185.898	-41.98
186.118	41.98
186.338	17.41
186.557	44.03
186.777	-17.41
186.997	-64.51
187.216	-29.7
187.436	11.26
187.655	37.89
187.875	37.89
188.095	-3.07
188.314	111.61
188.534	64.51
188.753	41.98
188.973	15.36
189.192	91.13
189.412	27.65
189.631	25.6
189.851	5.12
190.07	52.22
190.29	-62.46
190.509	46.08
190.729	101.37
190.948	9.22
191.168	111.61
191.387	130.05
191.607	15.36
191.826	13.31
192.045	-29.7
192.265	-25.6
192.484	33.79
192.704	25.6
192.923	-1.02
193.142	68.61
193.362	17.41
193.581	17.41
193.8	-5.12
194.02	52.22
194.239	52.22
194.458	62.46
194.678	19.46
194.897	5.12
195.116	119.81
195.335	1.02
195.555	1.02
195.774	9.22
195.993	-3.07
196.212	-9.22
196.432	25.6
196.651	-25.6
196.87	58.37
197.089	89.09
197.308	29.7
197.528	74.75
197.747	-58.37
197.966	27.65
198.185	-50.18
198.404	5.12
198.623	35.84
198.842	70.65
199.062	74.75
199.281	64.51
199.5	-15.36
199.719	35.84
199.938	27.65
200.157	15.36
200.376	-19.46
200.595	21.5
200.814	13.31
201.033	13.31
201.252	33.79
201.471	27.65
201.69	27.65
201.909	-48.13
202.128	-27.65
202.347	95.23
202.566	-27.65
202.785	-60.42
203.004	33.79
203.223	76.8
203.442	-56.32
203.661	1.02
203.879	-48.13
204.098	113.66
204.317	41.98
204.536	56.32
204.755	35.84
204.974	29.7
205.193	1.02
205.411	31.74
205.63	60.42
205.849	-5.12
206.068	-1.02
206.287	-31.74
206.505	17.41
206.724	7.17
206.943	62.46
207.162	-5.12
207.381	46.08
207.599	29.7
207.818	9.22
208.037	-23.55
208.255	9.22
208.474	-25.6
208.693	-11.26
208.911	11.26
209.13	50.18
209.349	33.79
209.567	-23.55
209.786	41.98
210.005	35.84
210.223	3.07
210.442	-56.32
210.661	37.89
210.879	27.65
211.098	66.56
211.316	72.7
211.535	13.31
211.753	9.22
211.972	29.7
212.191	3.07
212.409	-56.32
212.628	1.02
212.846	-23.55
213.065	58.37
213.283	107.52
213.502	50.18
213.72	-7.17
213.938	17.41
214.157	25.6
214.375	-25.6
214.594	-35.84
214.812	-46.08
215.031	11.26
215.249	-5.12
215.467	44.03
215.686	35.84
215.904	25.6
216.122	27.65
216.341	62.46
216.559	-58.37
216.778	13.31
216.996	9.22
217.214	11.26
217.432	3.07
217.651	-13.31
217.869	37.89
218.087	33.79
218.306	-29.7
218.524	50.18
218.742	-7.17
218.96	17.41
219.179	7.17
219.397	54.27
219.615	11.26
219.833	27.65
220.051	68.61
220.27	35.84
220.488	70.65
220.706	35.84
220.924	1.02
221.142	-46.08
221.36	9.22
221.578	-7.17
221.796	-39.94
222.015	-13.31
222.233	-23.55
222.451	41.98
222.669	-5.12
222.887	33.79
223.105	17.41
223.323	17.41
223.541	25.6
223.759	84.99
223.977	31.74
224.195	50.18
224.413	146.43
224.631	17.41
224.849	-23.55
225.067	29.7
225.285	97.28
225.503	-25.6
225.721	-37.89
225.939	1.02
226.157	-19.46
226.375	44.03
226.592	-56.32
226.81	1.02
227.028	50.18
227.246	109.57
227.464	-31.74
227.682	17.41
227.9	5.12
228.117	54.27
228.335	33.79
228.553	-7.17
228.771	3.07
228.989	9.22
229.206	50.18
229.424	-84.99
229.642	-35.84
229.86	25.6
230.077	-21.5
230.295	33.79
230.513	50.18
230.731	74.75
230.948	66.56
231.166	58.37
231.384	-31.74
231.601	-3.07
231.819	128
232.037	-23.55
232.254	17.41
232.472	58.37
232.689	50.18
232.907	84.99
233.125	-35.84
233.342	99.33
233.56	9.22
233.777	35.84
233.995	-19.46
234.213	52.22
234.43	39.94
234.648	41.98
234.865	-5.12
235.083	7.17
235.3	5.12
235.518	-23.55
235.735	29.7
235.953	17.41
236.17	-13.31
236.388	134.14
236.605	52.22
236.822	84.99
237.04	52.22
237.257	-15.36
237.475	17.41
237.692	66.56
237.909	82.94
238.127	-54.27
238.344	41.98
238.562	13.31
238.779	50.18
238.996	-76.8
239.214	1.02
239.431	11.26
239.648	-35.84
239.865	-39.94
240.083	41.98
240.3	17.41
240.517	-27.65
240.735	-25.6
240.952	15.36
241.169	-3.07
241.386	44.03
241.603	29.7
241.821	3.07
242.038	44.03
242.255	-5.12
242.472	-37.89
242.689	70.65
242.907	-29.7
243.124	52.22
243.341	-29.7
243.558	21.5
243.775	-52.22
243.992	56.32
244.209	-11.26
244.426	74.75
244.643	68.61
244.86	-23.55
245.078	21.5
245.295	-31.74
245.512	27.65
245.729	5.12
245.946	-11.26
246.163	-80.89
246.38	11.26
246.597	21.5
246.814	82.94
247.031	11.26
247.248	25.6
247.464	-29.7
247.681	25.6
247.898	-52.22
248.115	11.26
248.332	-15.36
248.549	13.31
248.766	82.94
248.983	91.13
249.2	35.84
249.417	78.85
249.633	41.98
249.85	-9.22
250.067	5.12
250.284	-37.89
250.501	1.02
250.717	121.85
250.934	17.41
251.151	11.26
251.368	93.18
251.585	29.7
251.801	17.41
252.018	3.07
252.235	37.89
252.451	29.7
252.668	15.36
252.885	1.02
253.102	-7.17
253.318	29.7
253.535	37.89
253.752	-5.12
253.968	-48.13
254.185	-48.13
254.401	13.31
254.618	7.17
254.835	17.41
255.051	44.03
255.268	46.08
255.484	25.6
255.701	41.98
255.917	113.66
256.134	17.41
256.351	58.37
256.567	-39.94
256.784	-11.26
257	-11.26
257.217	44.03
257.433	84.99
257.65	84.99
257.866	33.79
258.082	33.79
258.299	-23.55
258.515	5.12
258.732	-21.5
258.948	123.9
259.165	-3.07
259.381	-23.55
259.597	37.89
259.814	52.22
260.03	60.42
260.246	3.07
260.463	68.61
260.679	115.71
260.895	1.02
261.112	-5.12
261.328	27.65
261.544	-33.79
261.761	74.75
261.977	25.6
262.193	-7.17
262.409	58.37
262.626	-31.74
262.842	50.18
263.058	-29.7
263.274	52.22
263.49	-13.31
263.707	50.18
263.923	29.7
264.139	-1.02
264.355	35.84
264.571	44.03
264.787	52.22
265.004	60.42
265.22	66.56
265.436	72.7
265.652	60.42
265.868	70.65
266.084	-62.46
266.3	64.51
266.516	19.46
266.732	33.79
266.948	37.89
267.164	23.55
267.38	19.46
267.596	33.79
267.812	41.98
268.028	35.84
268.244	13.31
268.46	-29.7
268.676	-3.07
268.892	99.33
269.108	-50.18
269.324	11.26
269.54	54.27
269.756	17.41
269.972	-58.37
270.188	27.65
270.403	29.7
270.619	58.37
270.835	-37.89
271.051	64.51
271.267	46.08
271.483	-5.12
271.698	-19.46
271.914	17.41
272.13	52.22
272.346	52.22
272.562	-13.31
272.777	33.79
272.993	13.31
273.209	62.46
273.425	17.41
273.64	7.17
273.856	74.75
274.072	-46.08
274.287	56.32
274.503	19.46
274.719	25.6
274.934	35.84
275.15	1.02
275.366	62.46
275.581	-13.31
275.797	76.8
276.012	25.6
276.228	23.55
276.444	21.5
276.659	132.09
276.875	1.02
277.09	76.8
277.306	11.26
277.521	91.13
277.737	-15.36
277.952	-5.12
278.168	-9.22
278.383	62.46
278.599	58.37
278.814	44.03
279.03	5.12
279.245	60.42
279.461	60.42
279.676	111.61
279.892	-7.17
280.107	-9.22
280.322	3.07
280.538	9.22
280.753	-19.46
280.969	5.12
281.184	17.41
281.399	44.03
281.615	19.46
281.83	37.89
282.045	74.75
282.26	107.52
282.476	82.94
282.691	33.79
282.906	64.51
283.122	-5.12
283.337	56.32
283.552	39.94
283.767	-21.5
283.983	35.84
284.198	-3.07
284.413	33.79
284.628	5.12
284.843	-27.65
285.058	11.26
285.274	68.61
285.489	-21.5
285.704	58.37
285.919	-91.13
286.134	9.22
286.349	31.74
286.564	50.18
286.779	87.04
286.995	41.98
287.21	70.65
287.425	62.46
287.64	-23.55
287.855	41.98
288.07	-44.03
288.285	37.89
288.5	19.46
288.715	-7.17
288.93	17.41
289.145	25.6
289.36	-1.02
289.575	13.31
289.79	54.27
290.004	101.37
290.219	66.56
290.434	50.18
290.649	-23.55
290.864	50.18
291.079	29.7
291.294	25.6
291.509	21.5
291.724	33.79
291.938	48.13
292.153	29.7
292.368	3.07
292.583	87.04
292.798	68.61
293.012	46.08
293.227	-50.18
293.442	-15.36
293.657	17.41
293.871	140.29
294.086	-48.13
294.301	60.42
294.516	115.71
294.73	82.94
294.945	50.18
295.16	33.79
295.374	41.98
295.589	-11.26
295.804	17.41
296.018	25.6
296.233	68.61
296.447	33.79
296.662	33.79
296.877	-5.12
297.091	31.74
297.306	13.31
297.52	-25.6
297.735	-11.26
297.949	21.5
298.164	3.07
298.378	33.79
298.593	50.18
298.807	-11.26
299.022	39.94
299.236	3.07
299.451	-23.55
299.665	-72.7
299.88	60.42
300.094	9.22
300.309	17.41
300.523	17.41
300.737	23.55
300.952	-13.31
301.166	72.7
301.381	-15.36
301.595	-70.65
301.809	107.52
302.024	-19.46
302.238	-84.99
302.452	52.22
302.667	21.5
302.881	50.18
303.095	132.09
303.309	17.41
303.524	15.36
303.738	68.61
303.952	-54.27
304.166	48.13
304.381	-23.55
304.595	9.22
304.809	23.55
305.023	31.74
305.237	1.02
305.452	35.84
305.666	82.94
305.88	97.28
306.094	37.89
306.308	17.41
306.522	1.02
306.736	15.36
306.95	9.22
307.164	11.26
307.379	25.6
307.593	-23.55
307.807	121.85
308.021	5.12
308.235	19.46
308.449	-31.74
308.663	11.26
308.877	50.18
309.091	13.31
309.305	-68.61
309.519	33.79
309.733	33.79
309.947	15.36
310.161	89.09
310.374	91.13
310.588	25.6
310.802	-15.36
311.016	-13.31
311.23	52.22
311.444	95.23
311.658	9.22
311.872	19.46
312.085	21.5
312.299	25.6
312.513	21.5
312.727	58.37
312.941	-7.17
313.154	95.23
313.368	66.56
313.582	-9.22
313.796	48.13
314.009	50.18
314.223	17.41
314.437	62.46
314.651	35.84
314.864	64.51
315.078	-21.5
315.292	29.7
315.505	37.89
315.719	27.65
315.933	19.46
316.146	-27.65
316.36	56.32
316.573	41.98
316.787	3.07
317.001	-1.02
317.214	-105.47
317.428	3.07
317.641	-15.36
317.855	-31.74
318.068	64.51
318.282	37.89
318.495	101.37
318.709	27.65
318.922	-7.17
319.136	80.89
319.349	95.23
319.563	66.56
319.776	3.07
319.99	74.75
320.203	70.65
320.417	87.04
320.63	17.41
320.843	148.48
321.057	68.61
321.27	84.99
321.483	-3.07
321.697	58.37
321.91	91.13
322.124	33.79
322.337	-3.07
322.55	54.27
322.763	-19.46
322.977	78.85
323.19	-21.5
323.403	74.75
323.617	-11.26
323.83	17.41
324.043	17.41
324.256	39.94
324.469	-23.55
324.683	9.22
324.896	39.94
325.109	-23.55
325.322	-15.36
325.535	66.56
325.748	17.41
325.962	119.81
326.175	-5.12
326.388	76.8
326.601	-17.41
326.814	41.98
327.027	41.98
327.24	54.27
327.453	15.36
327.666	89.09
327.879	56.32
328.092	33.79
328.305	-31.74
328.518	-15.36
328.731	9.22
328.944	1.02
329.157	89.09
329.37	17.41
329.583	54.27
329.796	3.07
330.009	46.08
330.222	52.22
330.435	29.7
330.648	17.41
330.861	66.56
331.073	-3.07
331.286	80.89
331.499	87.04
331.712	-7.17
331.925	27.65
332.138	13.31
332.35	39.94
332.563	-21.5
332.776	46.08
332.989	-7.17
333.202	5.12
333.414	84.99
333.627	58.37
333.84	37.89
334.053	58.37
334.265	27.65
334.478	-37.89
334.691	50.18
334.903	74.75
335.116	50.18
335.329	50.18
335.541	7.17
335.754	70.65
335.966	23.55
336.179	-46.08
336.392	84.99
336.604	41.98
336.817	25.6
337.029	70.65
337.242	9.22
337.454	44.03
337.667	13.31
337.88	84.99
338.092	72.7
338.305	9.22
338.517	-23.55
338.729	1.02
338.942	35.84
339.154	15.36
339.367	11.26
339.579	27.65
339.792	-1.02
340.004	35.84
340.217	82.94
340.429	33.79
340.641	-52.22
340.854	21.5
341.066	19.46
341.278	74.75
341.491	15.36
341.703	-11.26
341.915	-15.36
342.128	27.65
342.34	66.56
342.552	15.36
342.764	58.37
342.977	72.7
343.189	64.51
343.401	-35.84
343.613	7.17
343.826	25.6
344.038	44.03
344.25	21.5
344.462	-29.7
344.674	171.01
344.886	-37.89
345.099	-15.36
345.311	50.18
345.523	1.02
345.735	54.27
345.947	50.18
346.159	-27.65
346.371	-11.26
346.583	25.6
346.795	50.18
347.007	-7.17
347.219	123.9
347.431	35.84
347.643	95.23
347.855	9.22
348.067	95.23
348.279	44.03
348.491	50.18
348.703	17.41
348.915	3.07
349.127	-1.02
349.339	-17.41
349.551	-11.26
349.763	99.33
349.975	-39.94
350.187	44.03
350.399	11.26
350.61	82.94
350.822	33.79
351.034	58.37
351.246	48.13
351.458	25.6
351.669	58.37
351.881	95.23
352.093	115.71
352.305	29.7
352.517	1.02
352.728	37.89
352.94	111.61
353.152	74.75
353.363	48.13
353.575	68.61
353.787	50.18
353.999	41.98
354.21	58.37
354.422	119.81
354.633	-27.65
354.845	46.08
355.057	44.03
355.268	115.71
355.48	27.65
355.692	97.28
355.903	-27.65
356.115	15.36
356.326	-31.74
356.538	84.99
356.749	25.6
356.961	70.65
357.172	41.98
357.384	50.18
357.595	111.61
357.807	17.41
358.018	33.79
358.23	25.6
358.441	99.33
358.653	19.46
358.864	9.22
359.075	46.08
359.287	115.71
359.498	58.37
359.709	15.36
359.921	119.81
360.132	33.79
360.344	25.6
360.555	-37.89
360.766	46.08
360.977	173.05
361.189	70.65
361.4	62.46
361.611	33.79
361.823	58.37
362.034	123.9
362.245	62.46
362.456	74.75
362.667	109.57
362.879	9.22
363.09	13.31
363.301	54.27
363.512	27.65
363.723	-15.36
363.935	-21.5
364.146	21.5
364.357	17.41
364.568	62.46
364.779	50.18
364.99	54.27
365.201	50.18
365.412	74.75
365.623	15.36
365.834	66.56
366.045	29.7
366.256	134.14
366.467	54.27
366.678	58.37
366.889	93.18
367.1	-11.26
367.311	-27.65
367.522	11.26
367.733	91.13
367.944	50.18
368.155	17.41
368.366	66.56
368.577	78.85
368.788	99.33
368.999	-54.27
369.209	74.75
369.42	91.13
369.631	117.76
369.842	37.89
370.053	50.18
370.264	52.22
370.474	-15.36
370.685	91.13
370.896	35.84
371.107	152.57
371.317	3.07
371.528	62.46
371.739	91.13
371.95	60.42
372.16	87.04
372.371	-35.84
372.582	35.84
372.792	91.13
373.003	29.7
373.214	54.27
373.424	84.99
373.635	-29.7
373.846	68.61
374.056	-5.12
374.267	17.41
374.477	52.22
374.688	58.37
374.898	78.85
375.109	74.75
375.319	-21.5
375.53	37.89
375.74	74.75
375.951	3.07
376.161	-13.31
376.372	109.57
376.582	54.27
376.793	82.94
377.003	33.79
377.214	9.22
377.424	7.17
377.635	64.51
377.845	66.56
378.055	33.79
378.266	60.42
378.476	93.18
378.686	19.46
378.897	99.33
379.107	76.8
379.317	44.03
379.528	39.94
379.738	62.46
379.948	23.55
380.158	60.42
380.369	-35.84
380.579	82.94
380.789	25.6
380.999	13.31
381.21	62.46
381.42	101.37
381.63	66.56
381.84	78.85
382.05	3.07
382.261	50.18
382.471	19.46
382.681	50.18
382.891	89.09
383.101	60.42
383.311	46.08
383.521	44.03
383.731	58.37
383.941	64.51
384.151	78.85
384.361	52.22
384.571	132.09
384.781	50.18
384.991	27.65
385.201	29.7
385.411	35.84
385.621	-33.79
385.831	107.52
386.041	74.75
386.251	41.98
386.461	66.56
386.671	105.47
386.881	62.46
387.091	17.41
387.301	72.7
387.511	41.98
387.72	84.99
387.93	82.94
388.14	41.98
388.35	-27.65
388.56	91.13
388.769	93.18
388.979	13.31
389.189	37.89
389.399	95.23
389.609	78.85
389.818	89.09
390.028	19.46
390.238	87.04
390.447	52.22
390.657	156.67
390.867	27.65
391.076	41.98
391.286	27.65
391.496	99.33
391.705	33.79
391.915	134.14
392.125	138.24
392.334	27.65
392.544	197.63
392.753	125.95
392.963	-15.36
393.172	58.37
393.382	123.9
393.591	58.37
393.801	64.51
394.01	111.61
394.22	93.18
394.429	52.22
394.639	37.89
394.848	107.52
395.058	58.37
395.267	97.28
395.477	119.81
395.686	58.37
395.895	117.76
396.105	189.44
396.314	91.13
396.524	107.52
396.733	119.81
396.942	144.38
397.152	70.65
397.361	142.33
397.57	111.61
397.78	168.96
397.989	138.24
398.198	187.39
398.407	95.23
398.617	87.04
398.826	175.1
399.035	115.71
399.244	173.05
399.453	123.9
399.663	197.63
399.872	140.29
400.081	134.14
400.29	142.33
400.499	70.65
400.708	105.47
400.917	101.37
401.127	136.19
401.336	62.46
401.545	189.44
401.754	156.67
401.963	211.96
402.172	44.03
402.381	87.04
402.59	144.38
402.799	117.76
403.008	181.25
403.217	115.71
403.426	185.34
403.635	168.96
403.844	173.05
404.053	250.88
404.262	193.53
404.471	230.4
404.68	193.53
404.888	197.63
405.097	175.1
405.306	148.48
405.515	175.1
405.724	181.25
405.933	242.68
406.142	265.21
406.35	250.88
406.559	279.55
406.768	214.01
406.977	310.27
407.185	209.92
407.394	328.7
407.603	216.06
407.812	250.88
408.02	293.88
408.229	363.51
408.438	306.17
408.646	324.6
408.855	271.36
409.064	433.15
409.272	373.75
409.481	410.62
409.69	367.61
409.898	418.81
410.107	400.38
410.315	486.39
410.524	537.59
410.733	410.62
410.941	445.43
411.15	453.63
411.358	535.54
411.567	652.28
411.775	576.5
411.984	558.07
412.192	574.46
412.401	576.5
412.609	697.33
412.818	703.48
413.026	726
413.234	660.47
413.443	726
413.651	758.77
413.86	740.34
414.068	850.93
414.276	879.6
414.485	836.6
414.693	867.31
414.901	910.32
415.11	924.66
415.318	1004.53
415.526	1043.44
415.734	996.34
415.943	1029.1
416.151	1213.42
416.359	1082.35
416.567	1108.98
416.776	1174.51
416.984	1252.33
417.192	1299.44
417.4	1278.96
417.608	1326.06
417.817	1389.55
418.025	1426.41
418.233	1600.49
418.441	1537
418.649	1586.15
418.857	1786.85
419.065	1758.18
419.273	1793
419.481	1917.92
419.689	1942.5
419.897	1934.31
420.105	2096.1
420.313	2141.15
420.521	2175.97
420.729	2257.89
420.937	2270.17
421.145	2333.66
421.353	2573.27
421.561	2622.42
421.769	2814.93
421.977	2802.65
422.185	2804.69
422.393	2976.72
422.601	3089.36
422.809	3042.26
423.017	3220.43
423.224	3310.54
423.432	3433.42
423.64	3414.99
423.848	3666.89
424.056	3644.36
424.263	3826.63
424.471	3988.42
424.679	3998.66
424.887	4391.87
425.094	4246.46
425.302	4299.71
425.51	4656.06
425.718	4527.03
425.925	4641.72
426.133	4891.57
426.341	5030.84
426.548	5290.93
426.756	5295.02
426.964	5516.2
427.171	5745.58
427.379	5872.55
427.586	6007.72
427.794	6136.74
428.001	6474.65
428.209	6736.79
428.417	6620.06
428.624	7168.91
428.832	7107.48
429.039	7162.77
429.247	7136.15
429.454	7719.82
429.662	8178.56
429.869	7709.58
430.076	8332.16
430.284	7816.07
430.491	8246.15
430.699	8668.03
430.906	8786.81
431.114	8835.96
431.321	9376.62
431.528	9405.3
431.736	9997.16
431.943	10423.14
432.15	10312.55
432.358	10234.72
432.565	10709.85
432.772	11029.34
432.979	11348.82
433.187	11735.88
433.394	11539.28
433.601	12260.16
433.808	12653.37
434.016	12200.77
434.223	12706.62
434.43	13779.76
434.637	13404.98
434.844	14105.38
435.052	14371.62
435.259	14193.45
435.466	14811.93
435.673	14609.19
435.88	15323.93
436.087	16122.63
436.294	16057.1
436.501	15688.46
436.708	15909.65
436.915	16579.33
437.122	17378.04
437.329	17072.89
437.537	17969.9
437.743	18098.92
437.95	18027.24
438.157	18842.34
438.364	19368.66
438.571	19227.35
438.778	19571.41
438.985	21541.56
439.192	20427.46
439.399	21168.83
439.606	20687.56
439.813	22033.07
440.02	23249.57
440.227	22801.06
440.433	22602.41
440.64	23136.93
440.847	23067.3
441.054	23669.4
441.261	25176.7
441.467	24783.49
441.674	25471.61
441.881	25866.87
442.088	26380.91
442.294	26200.69
442.501	26630.76
442.708	27099.75
442.914	28316.24
443.121	29217.35
443.328	28408.4
443.534	30417.46
443.741	29547.07
443.948	29299.26
444.154	31382.05
444.361	31255.08
444.568	31580.7
444.774	31371.81
444.981	31943.19
445.187	32229.91
445.394	34187.77
445.6	33782.27
445.807	37116.36
446.013	34884.08
446.22	35885.53
446.426	37339.59
446.633	37644.74
446.839	38609.33
447.046	37163.46
447.252	39209.39
447.459	39352.74
447.665	38990.25
447.871	40602
448.078	42387.83
448.284	40493.46
448.491	41480.58
448.697	43137.39
448.903	44243.29
449.11	43729.25
449.316	43327.85
449.522	43891.04
449.728	45109.58
449.935	45128.02
450.141	45326.67
450.347	46348.6
450.553	45125.97
450.76	45553.99
450.966	47178.03
451.172	46471.48
451.378	47460.65
451.584	46596.41
451.791	47761.7
451.997	47677.74
452.203	48365.85
452.409	48326.94
452.615	48554.27
452.821	46254.4
453.027	46195.01
453.233	48572.7
453.44	46911.8
453.646	47057.2
453.852	47294.77
454.058	48247.07
454.264	46989.62
454.47	47913.25
454.676	46491.96
454.882	48445.72
455.088	43567.46
455.294	44669.27
455.5	45232.46
455.705	45719.88
455.911	44220.77
456.117	42752.37
456.323	42391.93
456.529	40251.8
456.735	42242.43
456.941	41105.8
457.147	40978.83
457.352	39139.75
457.558	38818.22
457.764	39037.36
457.97	38148.54
458.176	37550.53
458.381	37016.01
458.587	35967.45
458.793	35219.94
458.999	33767.93
459.204	36237.78
459.41	35424.74
459.616	32938.51
459.821	32938.51
460.027	33042.95
460.233	31867.42
460.438	30857.77
460.644	30984.74
460.85	29659.71
461.055	29069.89
461.261	29364.8
461.466	26692.2
461.672	26206.83
461.878	27978.33
462.083	26374.77
462.289	25727.61
462.494	25369.21
462.7	24408.72
462.905	23624.34
463.111	24208.01
463.316	24470.15
463.522	24060.56
463.727	23982.74
463.932	24234.64
464.138	23411.35
464.343	23696.02
464.549	23300.76
464.754	23806.61
464.959	23730.84
465.165	23470.75
465.37	22579.88
465.575	21902
465.781	22678.18
465.986	22876.83
466.191	22063.79
466.397	21639.86
466.602	20720.32
466.807	21603
467.012	21553.85
467.218	21222.08
