Data from USB4F104151__169__14-19-53-140.txt Node

Date: Thu Mar 13 14:19:53 EDT 2025
User: louis
Spectrometer: USB4F10415
Trigger mode: 4
Integration Time (sec): 2.000000E-2
Scans to average: 1
Electric dark correction enabled: true
Nonlinearity correction enabled: false
Boxcar width: 0
XAxis mode: Wavelengths
Number of Pixels in Spectrum: 3648
>>>>>Begin Spectral Data<<<<<
178.204	-200.19
178.424	-200.19
178.644	-200.19
178.864	-118.27
179.084	-120.32
179.304	-3.58
179.524	-13.82
179.744	-9.73
179.964	61.95
180.184	68.09
180.404	-5.63
180.624	25.09
180.844	12.8
181.064	-71.17
181.283	14.85
181.503	-99.84
181.723	20.99
181.943	-24.06
182.163	51.71
182.383	12.8
182.602	-1.54
182.822	59.9
183.042	10.75
183.262	25.09
183.482	23.04
183.701	-22.02
183.921	86.53
184.141	43.52
184.361	4.61
184.58	-5.63
184.8	51.71
185.02	119.29
185.239	86.53
185.459	-11.78
185.679	23.04
185.898	39.42
186.118	18.94
186.338	33.28
186.557	4.61
186.777	55.81
186.997	-3.58
187.216	35.33
187.436	47.62
187.655	51.71
187.875	51.71
188.095	-17.92
188.314	72.19
188.534	59.9
188.753	-46.59
188.973	-48.64
189.192	31.23
189.412	61.95
189.631	23.04
189.851	31.23
190.07	72.19
190.29	18.94
190.509	53.76
190.729	88.57
190.948	86.53
191.168	82.43
191.387	86.53
191.607	-62.98
191.826	76.29
192.045	37.38
192.265	12.8
192.484	39.42
192.704	-34.3
192.923	39.42
193.142	111.1
193.362	20.99
193.581	104.96
193.8	76.29
194.02	59.9
194.239	76.29
194.458	4.61
194.678	59.9
194.897	6.66
195.116	78.33
195.335	20.99
195.555	35.33
195.774	-26.11
195.993	-44.54
196.212	37.38
196.432	-52.74
196.651	51.71
196.87	4.61
197.089	18.94
197.308	94.72
197.528	37.38
197.747	-40.45
197.966	27.14
198.185	27.14
198.404	-75.26
198.623	-65.02
198.842	64
199.062	12.8
199.281	4.61
199.5	25.09
199.719	70.14
199.938	-30.21
200.157	119.29
200.376	59.9
200.595	6.66
200.814	86.53
201.033	84.48
201.252	78.33
201.471	70.14
201.69	94.72
201.909	23.04
202.128	45.57
202.347	23.04
202.566	51.71
202.785	-54.78
203.004	-13.82
203.223	59.9
203.442	20.99
203.661	59.9
203.879	66.05
204.098	18.94
204.317	-5.63
204.536	94.72
204.755	-15.87
204.974	68.09
205.193	-13.82
205.411	133.63
205.63	0.51
205.849	27.14
206.068	14.85
206.287	-30.21
206.505	115.2
206.724	45.57
206.943	0.51
207.162	68.09
207.381	35.33
207.599	20.99
207.818	-69.12
208.037	-7.68
208.255	10.75
208.474	76.29
208.693	18.94
208.911	43.52
209.13	14.85
209.349	-52.74
209.567	-19.97
209.786	59.9
210.005	29.18
210.223	23.04
210.442	-38.4
210.661	59.9
210.879	-17.92
211.098	-54.78
211.316	20.99
211.535	39.42
211.753	27.14
211.972	33.28
212.191	-30.21
212.409	35.33
212.628	-38.4
212.846	59.9
213.065	76.29
213.283	43.52
213.502	-24.06
213.72	92.67
213.938	68.09
214.157	61.95
214.375	43.52
214.594	27.14
214.812	27.14
215.031	23.04
215.249	4.61
215.467	76.29
215.686	35.33
215.904	76.29
216.122	80.38
216.341	55.81
216.559	-13.82
216.778	61.95
216.996	43.52
217.214	78.33
217.432	47.62
217.651	-5.63
217.869	57.86
218.087	18.94
218.306	-17.92
218.524	72.19
218.742	14.85
218.96	43.52
219.179	51.71
219.397	53.76
219.615	18.94
219.833	51.71
220.051	-3.58
220.27	61.95
220.488	59.9
220.706	6.66
220.924	0.51
221.142	18.94
221.36	-28.16
221.578	4.61
221.796	43.52
222.015	35.33
222.233	78.33
222.451	55.81
222.669	4.61
222.887	57.86
223.105	-1.54
223.323	45.57
223.541	-30.21
223.759	-46.59
223.977	12.8
224.195	-3.58
224.413	-40.45
224.631	84.48
224.849	84.48
225.067	29.18
225.285	-9.73
225.503	31.23
225.721	-36.35
225.939	6.66
226.157	29.18
226.375	125.44
226.592	-13.82
226.81	2.56
227.028	59.9
227.246	47.62
227.464	51.71
227.682	49.66
227.9	6.66
228.117	53.76
228.335	18.94
228.553	74.24
228.771	35.33
228.989	47.62
229.206	-13.82
229.424	127.49
229.642	23.04
229.86	33.28
230.077	37.38
230.295	37.38
230.513	-38.4
230.731	10.75
230.948	117.25
231.166	125.44
231.384	-60.93
231.601	76.29
231.819	43.52
232.037	23.04
232.254	-30.21
232.472	74.24
232.689	23.04
232.907	-22.02
233.125	4.61
233.342	18.94
233.56	-15.87
233.777	-24.06
233.995	-9.73
234.213	10.75
234.43	64
234.648	2.56
234.865	23.04
235.083	-17.92
235.3	-9.73
235.518	92.67
235.735	51.71
235.953	61.95
236.17	-1.54
236.388	12.8
236.605	31.23
236.822	20.99
237.04	18.94
237.257	20.99
237.475	-3.58
237.692	100.86
237.909	-19.97
238.127	45.57
238.344	20.99
238.562	10.75
238.779	-71.17
238.996	-32.26
239.214	-28.16
239.431	33.28
239.648	6.66
239.865	18.94
240.083	-26.11
240.3	39.42
240.517	84.48
240.735	4.61
240.952	14.85
241.169	-17.92
241.386	-28.16
241.603	-46.59
241.821	-36.35
242.038	23.04
242.255	72.19
242.472	29.18
242.689	8.7
242.907	61.95
243.124	-1.54
243.341	64
243.558	59.9
243.775	51.71
243.992	23.04
244.209	10.75
244.426	64
244.643	-22.02
244.86	47.62
245.078	31.23
245.295	76.29
245.512	2.56
245.729	2.56
245.946	68.09
246.163	68.09
246.38	117.25
246.597	-5.63
246.814	-28.16
247.031	10.75
247.248	64
247.464	-5.63
247.681	51.71
247.898	66.05
248.115	-5.63
248.332	-13.82
248.549	-9.73
248.766	61.95
248.983	31.23
249.2	100.86
249.417	76.29
249.633	53.76
249.85	-3.58
250.067	-58.88
250.284	29.18
250.501	109.05
250.717	31.23
250.934	64
251.151	121.34
251.368	20.99
251.585	37.38
251.801	-9.73
252.018	-32.26
252.235	-30.21
252.451	0.51
252.668	25.09
252.885	27.14
253.102	-34.3
253.318	51.71
253.535	4.61
253.752	-5.63
253.968	27.14
254.185	-30.21
254.401	-62.98
254.618	-5.63
254.835	18.94
255.051	76.29
255.268	18.94
255.484	35.33
255.701	68.09
255.917	61.95
256.134	4.61
256.351	59.9
256.567	-9.73
256.784	6.66
257	39.42
257.217	53.76
257.433	66.05
257.65	55.81
257.866	12.8
258.082	49.66
258.299	-9.73
258.515	-1.54
258.732	2.56
258.948	-60.93
259.165	59.9
259.381	-15.87
259.597	82.43
259.814	4.61
260.03	39.42
260.246	-22.02
260.463	84.48
260.679	113.15
260.895	39.42
261.112	0.51
261.328	-26.11
261.544	37.38
261.761	102.91
261.977	53.76
262.193	37.38
262.409	88.57
262.626	43.52
262.842	59.9
263.058	6.66
263.274	61.95
263.49	0.51
263.707	76.29
263.923	39.42
264.139	43.52
264.355	-1.54
264.571	66.05
264.787	76.29
265.004	72.19
265.22	8.7
265.436	43.52
265.652	23.04
265.868	92.67
266.084	-22.02
266.3	8.7
266.516	2.56
266.732	43.52
266.948	61.95
267.164	117.25
267.38	27.14
267.596	-1.54
267.812	45.57
268.028	33.28
268.244	-9.73
268.46	51.71
268.676	55.81
268.892	66.05
269.108	27.14
269.324	-52.74
269.54	59.9
269.756	59.9
269.972	-17.92
270.188	-30.21
270.403	76.29
270.619	33.28
270.835	88.57
271.051	66.05
271.267	43.52
271.483	23.04
271.698	29.18
271.914	43.52
272.13	100.86
272.346	74.24
272.562	39.42
272.777	82.43
272.993	4.61
273.209	80.38
273.425	-15.87
273.64	49.66
273.856	68.09
274.072	43.52
274.287	-9.73
274.503	82.43
274.719	84.48
274.934	20.99
275.15	23.04
275.366	78.33
275.581	59.9
275.797	86.53
276.012	33.28
276.228	4.61
276.444	35.33
276.659	39.42
276.875	2.56
277.09	27.14
277.306	35.33
277.521	10.75
277.737	6.66
277.952	43.52
278.168	92.67
278.383	16.9
278.599	14.85
278.814	59.9
279.03	43.52
279.245	61.95
279.461	78.33
279.676	45.57
279.892	27.14
280.107	68.09
280.322	-9.73
280.538	18.94
280.753	-9.73
280.969	68.09
281.184	35.33
281.399	70.14
281.615	-28.16
281.83	-11.78
282.045	35.33
282.26	25.09
282.476	0.51
282.691	66.05
282.906	39.42
283.122	-28.16
283.337	43.52
283.552	92.67
283.767	86.53
283.983	-22.02
284.198	31.23
284.413	76.29
284.628	-13.82
284.843	76.29
285.058	18.94
285.274	-11.78
285.489	-13.82
285.704	141.82
285.919	39.42
286.134	18.94
286.349	35.33
286.564	-13.82
286.779	35.33
286.995	59.9
287.21	104.96
287.425	29.18
287.64	2.56
287.855	-28.16
288.07	10.75
288.285	-13.82
288.5	51.71
288.715	57.86
288.93	35.33
289.145	-11.78
289.36	92.67
289.575	18.94
289.79	23.04
290.004	29.18
290.219	2.56
290.434	61.95
290.649	55.81
290.864	-13.82
291.079	45.57
291.294	78.33
291.509	41.47
291.724	72.19
291.938	12.8
292.153	2.56
292.368	18.94
292.583	12.8
292.798	-22.02
293.012	61.95
293.227	39.42
293.442	-7.68
293.657	-30.21
293.871	-5.63
294.086	29.18
294.301	166.4
294.516	-11.78
294.73	51.71
294.945	84.48
295.16	66.05
295.374	55.81
295.589	35.33
295.804	61.95
296.018	35.33
296.233	68.09
296.447	68.09
296.662	29.18
296.877	64
297.091	25.09
297.306	-28.16
297.52	-38.4
297.735	10.75
297.949	-5.63
298.164	90.62
298.378	-38.4
298.593	-22.02
298.807	-3.58
299.022	127.49
299.236	53.76
299.451	27.14
299.665	14.85
299.88	-50.69
300.094	84.48
300.309	39.42
300.523	10.75
300.737	74.24
300.952	-44.54
301.166	102.91
301.381	55.81
301.595	86.53
301.809	27.14
302.024	-19.97
302.238	2.56
302.452	86.53
302.667	49.66
302.881	43.52
303.095	90.62
303.309	25.09
303.524	109.05
303.738	-38.4
303.952	76.29
304.166	55.81
304.381	-19.97
304.595	100.86
304.809	55.81
305.023	51.71
305.237	-13.82
305.452	4.61
305.666	84.48
305.88	53.76
306.094	4.61
306.308	-3.58
306.522	-36.35
306.736	31.23
306.95	10.75
307.164	68.09
307.379	27.14
307.593	57.86
307.807	51.71
308.021	70.14
308.235	133.63
308.449	-5.63
308.663	2.56
308.877	80.38
309.091	102.91
309.305	2.56
309.519	-19.97
309.733	20.99
309.947	37.38
310.161	14.85
310.374	-28.16
310.588	27.14
310.802	39.42
311.016	-19.97
311.23	20.99
311.444	27.14
311.658	25.09
311.872	94.72
312.085	51.71
312.299	12.8
312.513	-1.54
312.727	51.71
312.941	31.23
313.154	2.56
313.368	78.33
313.582	72.19
313.796	-5.63
314.009	-42.5
314.223	109.05
314.437	-5.63
314.651	84.48
314.864	27.14
315.078	53.76
315.292	20.99
315.505	45.57
315.719	51.71
315.933	102.91
316.146	23.04
316.36	-1.54
316.573	31.23
316.787	27.14
317.001	14.85
317.214	37.38
317.428	78.33
317.641	74.24
317.855	-13.82
318.068	74.24
318.282	59.9
318.495	12.8
318.709	96.77
318.922	100.86
319.136	82.43
319.349	25.09
319.563	90.62
319.776	47.62
319.99	6.66
320.203	55.81
320.417	59.9
320.63	-17.92
320.843	59.9
321.057	92.67
321.27	45.57
321.483	-9.73
321.697	45.57
321.91	-5.63
322.124	74.24
322.337	4.61
322.55	59.9
322.763	-26.11
322.977	53.76
323.19	64
323.403	29.18
323.617	18.94
323.83	59.9
324.043	35.33
324.256	51.71
324.469	-36.35
324.683	92.67
324.896	25.09
325.109	61.95
325.322	35.33
325.535	35.33
325.748	47.62
325.962	51.71
326.175	64
326.388	127.49
326.601	18.94
326.814	68.09
327.027	76.29
327.24	53.76
327.453	35.33
327.666	35.33
327.879	88.57
328.092	64
328.305	18.94
328.518	45.57
328.731	39.42
328.944	-1.54
329.157	20.99
329.37	64
329.583	104.96
329.796	27.14
330.009	-24.06
330.222	-11.78
330.435	53.76
330.648	31.23
330.861	47.62
331.073	51.71
331.286	29.18
331.499	39.42
331.712	88.57
331.925	35.33
332.138	-1.54
332.35	147.97
332.563	57.86
332.776	84.48
332.989	37.38
333.202	-11.78
333.414	109.05
333.627	27.14
333.84	37.38
334.053	14.85
334.265	-5.63
334.478	47.62
334.691	31.23
334.903	20.99
335.116	57.86
335.329	-9.73
335.541	66.05
335.754	10.75
335.966	18.94
336.179	51.71
336.392	90.62
336.604	6.66
336.817	66.05
337.029	2.56
337.242	90.62
337.454	109.05
337.667	51.71
337.88	6.66
338.092	31.23
338.305	51.71
338.517	-42.5
338.729	92.67
338.942	49.66
339.154	47.62
339.367	-17.92
339.579	2.56
339.792	47.62
340.004	84.48
340.217	78.33
340.429	158.21
340.641	-19.97
340.854	39.42
341.066	-11.78
341.278	78.33
341.491	29.18
341.703	29.18
341.915	-32.26
342.128	61.95
342.34	45.57
342.552	-19.97
342.764	27.14
342.977	-24.06
343.189	70.14
343.401	10.75
343.613	4.61
343.826	59.9
344.038	-48.64
344.25	27.14
344.462	10.75
344.674	80.38
344.886	23.04
345.099	92.67
345.311	109.05
345.523	20.99
345.735	-60.93
345.947	10.75
346.159	49.66
346.371	-11.78
346.583	64
346.795	29.18
347.007	-15.87
347.219	109.05
347.431	35.33
347.643	49.66
347.855	14.85
348.067	84.48
348.279	-36.35
348.491	72.19
348.703	55.81
348.915	10.75
349.127	-1.54
349.339	76.29
349.551	55.81
349.763	49.66
349.975	14.85
350.187	78.33
350.399	45.57
350.61	53.76
350.822	33.28
351.034	61.95
351.246	53.76
351.458	78.33
351.669	-58.88
351.881	43.52
352.093	64
352.305	109.05
352.517	117.25
352.728	86.53
352.94	14.85
353.152	55.81
353.363	-22.02
353.575	84.48
353.787	82.43
353.999	76.29
354.21	88.57
354.422	2.56
354.633	51.71
354.845	2.56
355.057	2.56
355.268	41.47
355.48	10.75
355.692	72.19
355.903	-1.54
356.115	51.71
356.326	6.66
356.538	80.38
356.749	27.14
356.961	82.43
357.172	14.85
357.384	-9.73
357.595	115.2
357.807	35.33
358.018	-38.4
358.23	88.57
358.441	41.47
358.653	57.86
358.864	31.23
359.075	-5.63
359.287	107.01
359.498	35.33
359.709	74.24
359.921	129.53
360.132	-26.11
360.344	61.95
360.555	0.51
360.766	92.67
360.977	27.14
361.189	-42.5
361.4	119.29
361.611	59.9
361.823	92.67
362.034	59.9
362.245	43.52
362.456	45.57
362.667	16.9
362.879	51.71
363.09	-15.87
363.301	35.33
363.512	70.14
363.723	37.38
363.935	53.76
364.146	10.75
364.357	27.14
364.568	96.77
364.779	72.19
364.99	61.95
365.201	-5.63
365.412	92.67
365.623	43.52
365.834	43.52
366.045	53.76
366.256	20.99
366.467	98.81
366.678	18.94
366.889	29.18
367.1	23.04
367.311	59.9
367.522	35.33
367.733	-13.82
367.944	76.29
368.155	-1.54
368.366	59.9
368.577	96.77
368.788	47.62
368.999	92.67
369.209	10.75
369.42	100.86
369.631	102.91
369.842	96.77
370.053	2.56
370.264	82.43
370.474	59.9
370.685	12.8
370.896	53.76
371.107	18.94
371.317	59.9
371.528	25.09
371.739	12.8
371.95	88.57
372.16	18.94
372.371	-5.63
372.582	-9.73
372.792	35.33
373.003	55.81
373.214	23.04
373.424	129.53
373.635	14.85
373.846	35.33
374.056	84.48
374.267	27.14
374.477	86.53
374.688	-30.21
374.898	70.14
375.109	-1.54
375.319	-48.64
375.53	64
375.74	123.39
375.951	68.09
376.161	125.44
376.372	61.95
376.582	27.14
376.793	84.48
377.003	29.18
377.214	70.14
377.424	-26.11
377.635	18.94
377.845	16.9
378.055	14.85
378.266	88.57
378.476	-24.06
378.686	-52.74
378.897	109.05
379.107	25.09
379.317	76.29
379.528	84.48
379.738	94.72
379.948	29.18
380.158	86.53
380.369	55.81
380.579	76.29
380.789	-13.82
380.999	135.68
381.21	84.48
381.42	113.15
381.63	-26.11
381.84	27.14
382.05	10.75
382.261	43.52
382.471	35.33
382.681	16.9
382.891	109.05
383.101	39.42
383.311	45.57
383.521	18.94
383.731	-34.3
383.941	64
384.151	2.56
384.361	80.38
384.571	70.14
384.781	109.05
384.991	68.09
385.201	61.95
385.411	57.86
385.621	107.01
385.831	2.56
386.041	49.66
386.251	119.29
386.461	76.29
386.671	35.33
386.881	66.05
387.091	94.72
387.301	104.96
387.511	84.48
387.72	109.05
387.93	80.38
388.14	39.42
388.35	51.71
388.56	68.09
388.769	117.25
388.979	64
389.189	70.14
389.399	-9.73
389.609	61.95
389.818	55.81
390.028	-1.54
390.238	86.53
390.447	88.57
390.657	84.48
390.867	-9.73
391.076	92.67
391.286	35.33
391.496	47.62
391.705	12.8
391.915	68.09
392.125	100.86
392.334	121.34
392.544	45.57
392.753	59.9
392.963	47.62
393.172	35.33
393.382	51.71
393.591	139.77
393.801	92.67
394.01	72.19
394.22	92.67
394.429	18.94
394.639	59.9
394.848	100.86
395.058	68.09
395.267	92.67
395.477	86.53
395.686	119.29
395.895	47.62
396.105	100.86
396.314	154.11
396.524	31.23
396.733	109.05
396.942	127.49
397.152	131.58
397.361	109.05
397.57	70.14
397.78	84.48
397.989	70.14
398.198	141.82
398.407	64
398.617	72.19
398.826	55.81
399.035	117.25
399.244	109.05
399.453	49.66
399.663	121.34
399.872	104.96
400.081	35.33
400.29	78.33
400.499	84.48
400.708	129.53
400.917	117.25
401.127	27.14
401.336	88.57
401.545	160.25
401.754	129.53
401.963	59.9
402.172	35.33
402.381	76.29
402.59	195.07
402.799	117.25
403.008	70.14
403.217	104.96
403.426	111.1
403.635	117.25
403.844	47.62
404.053	78.33
404.262	64
404.471	135.68
404.68	102.91
404.888	152.06
405.097	135.68
405.306	84.48
405.515	121.34
405.724	190.97
405.933	174.59
406.142	170.49
406.35	190.97
406.559	123.39
406.768	164.35
406.977	211.45
407.185	158.21
407.394	242.17
407.603	174.59
407.812	240.12
408.02	168.45
408.229	150.01
408.438	182.78
408.646	227.84
408.855	238.08
409.064	291.32
409.272	162.3
409.481	264.7
409.69	231.93
409.898	205.31
410.107	324.09
410.315	305.66
410.524	313.85
410.733	356.86
410.941	305.66
411.15	387.58
411.358	293.37
411.567	248.32
411.775	416.25
411.984	334.33
412.192	416.25
412.401	365.05
412.609	428.54
412.818	494.07
413.026	489.98
413.234	403.96
413.443	457.21
413.651	528.89
413.86	420.35
414.068	524.79
414.276	559.61
414.485	485.88
414.693	596.47
414.901	543.22
415.11	639.48
415.318	553.46
415.526	602.61
415.734	731.64
415.943	698.87
416.151	743.92
416.359	717.3
416.567	768.5
416.776	803.32
416.984	821.75
417.192	879.09
417.4	899.57
417.608	815.6
417.817	844.28
418.025	1004.02
418.233	1026.54
418.441	1012.21
418.649	981.49
418.857	1104.37
419.065	1200.62
419.273	1194.48
419.481	1194.48
419.689	1290.73
419.897	1288.68
420.105	1296.88
420.313	1300.97
420.521	1327.6
420.729	1452.52
420.937	1487.34
421.145	1608.17
421.353	1569.26
421.561	1667.56
421.769	1767.91
421.977	1774.05
422.185	1812.96
422.393	1954.27
422.601	1898.98
422.809	2071.01
423.017	2050.53
423.224	2017.76
423.432	2093.54
423.64	2169.31
423.848	2453.98
424.056	2214.37
424.263	2419.16
424.471	2507.23
424.679	2552.28
424.887	2607.58
425.094	2656.73
425.302	2791.89
425.51	2795.99
425.718	2990.55
425.925	2992.59
426.133	3027.41
426.341	3217.87
426.548	3402.19
426.756	3377.61
426.964	3492.3
427.171	3598.79
427.379	3688.9
427.586	3805.64
427.794	4016.58
428.001	4090.31
428.209	4243.9
428.417	4073.92
428.624	4516.28
428.832	4495.8
429.039	4397.5
429.247	4495.8
429.454	4923.83
429.662	5077.43
429.869	4821.43
430.076	5249.46
430.284	4960.69
430.491	5333.42
430.699	5458.35
430.906	5570.99
431.114	5642.67
431.321	5880.23
431.528	6037.92
431.736	6441.37
431.943	6601.12
432.15	6369.69
432.358	6451.61
432.565	6818.2
432.772	6820.25
432.979	7149.97
433.187	7453.07
433.394	7309.71
433.601	7833.99
433.808	7928.2
434.016	7772.55
434.223	8206.72
434.43	8589.69
434.637	8518.01
434.844	9023.86
435.052	9066.87
435.259	9199.99
435.466	9062.77
435.673	9064.82
435.88	9664.88
436.087	9988.46
436.294	10062.18
436.501	10002.79
436.708	10047.85
436.915	10377.57
437.122	10914.14
437.329	11053.4
437.537	11311.44
437.743	11405.65
437.95	11151.7
438.157	11987.27
438.364	12360
438.571	12271.94
438.778	12382.53
438.985	13343.03
439.192	13003.07
439.399	13467.95
439.606	13007.16
439.813	13879.6
440.02	14504.23
440.227	14450.98
440.433	14498.08
440.64	14870.81
440.847	14786.85
441.054	15147.29
441.261	15905.04
441.467	15472.92
441.674	16183.56
441.881	16609.54
442.088	16654.59
442.294	16548.1
442.501	16836.86
442.708	17193.21
442.914	18026.73
443.121	18757.86
443.328	18200.81
443.534	19509.46
443.741	18839.78
443.948	18647.27
444.154	20132.04
444.361	19611.86
444.568	19863.76
444.774	20287.69
444.981	20461.77
445.187	20861.12
445.394	21751.99
445.6	21516.47
445.807	23290.01
446.013	22552.74
446.22	23009.44
446.426	23392.41
446.633	23890.07
446.839	24873.09
447.046	23509.15
447.252	25206.91
447.459	25163.9
447.665	25149.57
447.871	25921.65
448.078	27240.54
448.284	25835.64
448.491	26830.95
448.697	27748.44
448.903	27971.67
449.11	28172.37
449.316	27492.44
449.522	28092.5
449.728	29163.59
449.935	28950.6
450.141	29501.5
450.347	29702.2
450.553	29073.48
450.76	29227.07
450.966	30462
451.172	29560.89
451.378	30713.9
451.584	30013.49
451.791	30887.98
451.997	30693.42
452.203	31258.66
452.409	31164.45
452.615	30965.8
452.821	29833.27
453.027	29739.07
453.233	31359.01
453.44	29931.58
453.646	30292.02
453.852	30414.9
454.058	31166.5
454.264	29970.49
454.47	30357.55
454.676	29855.8
454.882	30744.62
455.088	28242
455.294	28858.44
455.5	29134.92
455.705	29438.01
455.911	28344.4
456.117	27891.8
456.323	27285.6
456.529	25800.82
456.735	27088.99
456.941	26456.17
457.147	25864.31
457.352	25057.41
457.558	24584.33
457.764	24828.04
457.97	24606.86
458.176	23926.93
458.381	23789.72
458.587	22823.08
458.793	22943.91
458.999	21565.62
459.204	23021.73
459.41	22589.61
459.616	21164.22
459.821	21313.72
460.027	21098.69
460.233	20779.2
460.438	19656.92
460.644	19581.14
460.85	18665.7
461.055	18882.78
461.261	18430.18
461.466	17160.44
461.672	16912.64
461.878	18092.27
462.083	16552.2
462.289	16435.46
462.494	16208.14
462.7	15458.58
462.905	15116.57
463.111	15497.49
463.316	15399.19
463.522	15198.49
463.727	15313.17
463.932	15296.79
464.138	15317.27
464.343	15372.57
464.549	14887.2
464.754	15135
464.959	15046.94
465.165	15079.71
465.37	14453.03
465.575	13938.99
465.781	14739.74
465.986	14629.15
466.191	14192.94
466.397	13824.3
466.602	13429.04
466.807	13596.98
467.012	13617.46
467.218	13742.38
467.423	13306.16
467.628	13537.59
467.833	13920.56
468.038	13574.45
