Data from USB4F104151__101__14-18-06-758.txt Node

Date: Thu Mar 13 14:18:06 EDT 2025
User: louis
Spectrometer: USB4F10415
Trigger mode: 4
Integration Time (sec): 2.000000E-2
Scans to average: 1
Electric dark correction enabled: true
Nonlinearity correction enabled: false
Boxcar width: 0
XAxis mode: Wavelengths
Number of Pixels in Spectrum: 3648
>>>>>Begin Spectral Data<<<<<
178.204	-58.2
178.424	-58.2
178.644	-58.2
178.864	-105.3
179.084	-27.48
179.304	-15.19
179.524	1.19
179.744	-31.57
179.964	60.59
180.184	1.19
180.404	68.78
180.624	21.67
180.844	19.63
181.064	-64.34
181.283	31.91
181.503	-88.92
181.723	-4.95
181.943	-39.76
182.163	107.69
182.383	3.24
182.602	74.92
182.822	52.39
183.042	33.96
183.262	9.39
183.482	60.59
183.701	19.63
183.921	81.07
184.141	25.77
184.361	15.53
184.58	70.83
184.8	83.11
185.02	1.19
185.239	52.39
185.459	48.3
185.679	101.55
185.898	17.58
186.118	9.39
186.338	42.15
186.557	36.01
186.777	-56.15
186.997	44.2
187.216	50.35
187.436	42.15
187.655	93.35
187.875	25.77
188.095	36.01
188.314	103.59
188.534	87.21
188.753	-27.48
188.973	19.63
189.192	21.67
189.412	-2.9
189.631	62.63
189.851	42.15
190.07	74.92
190.29	-31.57
190.509	126.12
190.729	-7
190.948	111.78
191.168	76.97
191.387	38.06
191.607	38.06
191.826	56.49
192.045	72.87
192.265	101.55
192.484	9.39
192.704	29.87
192.923	33.96
193.142	101.55
193.362	-39.76
193.581	36.01
193.8	117.93
194.02	27.82
194.239	50.35
194.458	11.43
194.678	74.92
194.897	56.49
195.116	58.54
195.335	25.77
195.555	62.63
195.774	-2.9
195.993	44.2
196.212	9.39
196.432	48.3
196.651	99.5
196.87	64.68
197.089	115.88
197.308	-60.24
197.528	64.68
197.747	46.25
197.966	33.96
198.185	115.88
198.404	1.19
198.623	85.16
198.842	50.35
199.062	66.73
199.281	74.92
199.5	54.44
199.719	48.3
199.938	25.77
200.157	107.69
200.376	46.25
200.595	74.92
200.814	33.96
201.033	58.54
201.252	97.45
201.471	17.58
201.69	11.43
201.909	107.69
202.128	-2.9
202.347	138.41
202.566	25.77
202.785	17.58
203.004	13.48
203.223	66.73
203.442	60.59
203.661	19.63
203.879	-21.33
204.098	-2.9
204.317	124.07
204.536	1.19
204.755	23.72
204.974	25.77
205.193	103.59
205.411	79.02
205.63	83.11
205.849	113.83
206.068	-29.52
206.287	42.15
206.505	91.31
206.724	3.24
206.943	17.58
207.162	21.67
207.381	3.24
207.599	29.87
207.818	-2.9
208.037	62.63
208.255	-7
208.474	42.15
208.693	85.16
208.911	48.3
209.13	9.39
209.349	21.67
209.567	29.87
209.786	44.2
210.005	105.64
210.223	93.35
210.442	52.39
210.661	62.63
210.879	46.25
211.098	91.31
211.316	60.59
211.535	44.2
211.753	-62.29
211.972	29.87
212.191	31.91
212.409	21.67
212.628	42.15
212.846	9.39
213.065	58.54
213.283	87.21
213.502	-15.19
213.72	119.98
213.938	3.24
214.157	29.87
214.375	138.41
214.594	60.59
214.812	-35.67
215.031	124.07
215.249	-27.48
215.467	19.63
215.686	31.91
215.904	58.54
216.122	48.3
216.341	52.39
216.559	40.11
216.778	101.55
216.996	76.97
217.214	-0.85
217.432	76.97
217.651	74.92
217.869	76.97
218.087	42.15
218.306	40.11
218.524	58.54
218.742	99.5
218.96	29.87
219.179	-31.57
219.397	36.01
219.615	68.78
219.833	99.5
220.051	64.68
220.27	68.78
220.488	27.82
220.706	58.54
220.924	101.55
221.142	9.39
221.36	58.54
221.578	50.35
221.796	76.97
222.015	97.45
222.233	19.63
222.451	128.17
222.669	19.63
222.887	64.68
223.105	-29.52
223.323	62.63
223.541	48.3
223.759	-2.9
223.977	13.48
224.195	85.16
224.413	46.25
224.631	70.83
224.849	126.12
225.067	103.59
225.285	40.11
225.503	60.59
225.721	87.21
225.939	42.15
226.157	107.69
226.375	83.11
226.592	64.68
226.81	87.21
227.028	1.19
227.246	68.78
227.464	144.55
227.682	-7
227.9	76.97
228.117	91.31
228.335	87.21
228.553	-9.05
228.771	36.01
228.989	74.92
229.206	68.78
229.424	68.78
229.642	13.48
229.86	-29.52
230.077	56.49
230.295	97.45
230.513	62.63
230.731	46.25
230.948	27.82
231.166	99.5
231.384	27.82
231.601	5.29
231.819	19.63
232.037	33.96
232.254	79.02
232.472	111.78
232.689	-13.14
232.907	74.92
233.125	79.02
233.342	36.01
233.56	36.01
233.777	54.44
233.995	83.11
234.213	124.07
234.43	132.26
234.648	36.01
234.865	70.83
235.083	44.2
235.3	-7
235.518	74.92
235.735	17.58
235.953	113.83
236.17	91.31
236.388	17.58
236.605	136.36
236.822	48.3
237.04	83.11
237.257	33.96
237.475	-2.9
237.692	91.31
237.909	111.78
238.127	50.35
238.344	79.02
238.562	66.73
238.779	54.44
238.996	79.02
239.214	9.39
239.431	11.43
239.648	3.24
239.865	31.91
240.083	3.24
240.3	25.77
240.517	33.96
240.735	54.44
240.952	60.59
241.169	136.36
241.386	-21.33
241.603	109.74
241.821	-0.85
242.038	76.97
242.255	-2.9
242.472	76.97
242.689	-13.14
242.907	83.11
243.124	42.15
243.341	27.82
243.558	27.82
243.775	-11.09
243.992	-13.14
244.209	136.36
244.426	124.07
244.643	74.92
244.86	3.24
245.078	68.78
245.295	42.15
245.512	70.83
245.729	25.77
245.946	85.16
246.163	-43.86
246.38	27.82
246.597	70.83
246.814	44.2
247.031	-4.95
247.248	119.98
247.464	60.59
247.681	66.73
247.898	7.34
248.115	99.5
248.332	11.43
248.549	66.73
248.766	3.24
248.983	44.2
249.2	23.72
249.417	70.83
249.633	46.25
249.85	74.92
250.067	-9.05
250.284	81.07
250.501	38.06
250.717	29.87
250.934	50.35
251.151	11.43
251.368	33.96
251.585	21.67
251.801	113.83
252.018	66.73
252.235	103.59
252.451	27.82
252.668	52.39
252.885	52.39
253.102	48.3
253.318	68.78
253.535	-23.38
253.752	85.16
253.968	19.63
254.185	40.11
254.401	27.82
254.618	68.78
254.835	81.07
255.051	87.21
255.268	134.31
255.484	33.96
255.701	31.91
255.917	93.35
256.134	29.87
256.351	-35.67
256.567	13.48
256.784	107.69
257	19.63
257.217	-23.38
257.433	46.25
257.65	119.98
257.866	54.44
258.082	1.19
258.299	19.63
258.515	54.44
258.732	83.11
258.948	17.58
259.165	-7
259.381	-23.38
259.597	25.77
259.814	105.64
260.03	54.44
260.246	62.63
260.463	62.63
260.679	76.97
260.895	19.63
261.112	48.3
261.328	13.48
261.544	-7
261.761	66.73
261.977	46.25
262.193	1.19
262.409	132.26
262.626	119.98
262.842	111.78
263.058	66.73
263.274	23.72
263.49	25.77
263.707	11.43
263.923	109.74
264.139	25.77
264.355	62.63
264.571	58.54
264.787	9.39
265.004	68.78
265.22	7.34
265.436	5.29
265.652	72.87
265.868	33.96
266.084	5.29
266.3	40.11
266.516	62.63
266.732	107.69
266.948	21.67
267.164	66.73
267.38	29.87
267.596	11.43
267.812	62.63
268.028	148.65
268.244	115.88
268.46	109.74
268.676	60.59
268.892	54.44
269.108	27.82
269.324	13.48
269.54	36.01
269.756	1.19
269.972	27.82
270.188	70.83
270.403	17.58
270.619	50.35
270.835	-2.9
271.051	74.92
271.267	48.3
271.483	54.44
271.698	54.44
271.914	25.77
272.13	113.83
272.346	126.12
272.562	13.48
272.777	85.16
272.993	-52.05
273.209	11.43
273.425	58.54
273.64	42.15
273.856	54.44
274.072	42.15
274.287	36.01
274.503	87.21
274.719	107.69
274.934	36.01
275.15	-29.52
275.366	-7
275.581	74.92
275.797	85.16
276.012	42.15
276.228	46.25
276.444	113.83
276.659	64.68
276.875	11.43
277.09	74.92
277.306	27.82
277.521	93.35
277.737	25.77
277.952	52.39
278.168	13.48
278.383	54.44
278.599	44.2
278.814	132.26
279.03	36.01
279.245	128.17
279.461	-15.19
279.676	74.92
279.892	54.44
280.107	68.78
280.322	38.06
280.538	-2.9
280.753	107.69
280.969	74.92
281.184	66.73
281.399	62.63
281.615	25.77
281.83	46.25
282.045	3.24
282.26	42.15
282.476	66.73
282.691	42.15
282.906	50.35
283.122	109.74
283.337	-23.38
283.552	76.97
283.767	-7
283.983	58.54
284.198	58.54
284.413	105.64
284.628	21.67
284.843	50.35
285.058	66.73
285.274	60.59
285.489	29.87
285.704	79.02
285.919	113.83
286.134	1.19
286.349	3.24
286.564	46.25
286.779	148.65
286.995	33.96
287.21	33.96
287.425	54.44
287.64	58.54
287.855	25.77
288.07	36.01
288.285	79.02
288.5	50.35
288.715	74.92
288.93	46.25
289.145	-4.95
289.36	50.35
289.575	52.39
289.79	107.69
290.004	50.35
290.219	44.2
290.434	-29.52
290.649	89.26
290.864	36.01
291.079	66.73
291.294	97.45
291.509	40.11
291.724	56.49
291.938	68.78
292.153	66.73
292.368	60.59
292.583	74.92
292.798	54.44
293.012	52.39
293.227	54.44
293.442	97.45
293.657	95.4
293.871	21.67
294.086	64.68
294.301	95.4
294.516	79.02
294.73	66.73
294.945	27.82
295.16	31.91
295.374	48.3
295.589	83.11
295.804	54.44
296.018	1.19
296.233	85.16
296.447	11.43
296.662	48.3
296.877	148.65
297.091	83.11
297.306	124.07
297.52	-11.09
297.735	17.58
297.949	19.63
298.164	140.46
298.378	40.11
298.593	40.11
298.807	-2.9
299.022	64.68
299.236	83.11
299.451	27.82
299.665	97.45
299.88	62.63
300.094	46.25
300.309	99.5
300.523	-27.48
300.737	-31.57
300.952	48.3
301.166	44.2
301.381	36.01
301.595	50.35
301.809	13.48
302.024	5.29
302.238	-29.52
302.452	117.93
302.667	27.82
302.881	103.59
303.095	60.59
303.309	79.02
303.524	31.91
303.738	7.34
303.952	42.15
304.166	50.35
304.381	-64.34
304.595	124.07
304.809	-37.72
305.023	25.77
305.237	70.83
305.452	107.69
305.666	91.31
305.88	48.3
306.094	101.55
306.308	-2.9
306.522	74.92
306.736	95.4
306.95	-31.57
307.164	29.87
307.379	64.68
307.593	132.26
307.807	83.11
308.021	101.55
308.235	-25.43
308.449	36.01
308.663	-17.24
308.877	103.59
309.091	42.15
309.305	9.39
309.519	36.01
309.733	56.49
309.947	42.15
310.161	58.54
310.374	17.58
310.588	89.26
310.802	52.39
311.016	21.67
311.23	54.44
311.444	85.16
311.658	-7
311.872	93.35
312.085	70.83
312.299	79.02
312.513	48.3
312.727	46.25
312.941	-21.33
313.154	15.53
313.368	52.39
313.582	119.98
313.796	23.72
314.009	42.15
314.223	111.78
314.437	109.74
314.651	99.5
314.864	46.25
315.078	33.96
315.292	52.39
315.505	29.87
315.719	107.69
315.933	50.35
316.146	50.35
316.36	64.68
316.573	68.78
316.787	46.25
317.001	-25.43
317.214	58.54
317.428	72.87
317.641	-21.33
317.855	5.29
318.068	13.48
318.282	33.96
318.495	74.92
318.709	36.01
318.922	46.25
319.136	132.26
319.349	54.44
319.563	17.58
319.776	107.69
319.99	-29.52
320.203	76.97
320.417	19.63
320.63	87.21
320.843	150.7
321.057	48.3
321.27	138.41
321.483	48.3
321.697	83.11
321.91	56.49
322.124	33.96
322.337	33.96
322.55	44.2
322.763	46.25
322.977	31.91
323.19	83.11
323.403	44.2
323.617	38.06
323.83	126.12
324.043	54.44
324.256	62.63
324.469	-31.57
324.683	54.44
324.896	-23.38
325.109	66.73
325.322	-19.29
325.535	17.58
325.748	33.96
325.962	1.19
326.175	58.54
326.388	89.26
326.601	68.78
326.814	173.22
327.027	140.46
327.24	132.26
327.453	-56.15
327.666	25.77
327.879	91.31
328.092	97.45
328.305	60.59
328.518	25.77
328.731	91.31
328.944	107.69
329.157	44.2
329.37	27.82
329.583	179.37
329.796	134.31
330.009	1.19
330.222	62.63
330.435	42.15
330.648	52.39
330.861	25.77
331.073	66.73
331.286	66.73
331.499	58.54
331.712	-2.9
331.925	62.63
332.138	42.15
332.35	52.39
332.563	50.35
332.776	132.26
332.989	44.2
333.202	58.54
333.414	68.78
333.627	79.02
333.84	29.87
334.053	83.11
334.265	66.73
334.478	56.49
334.691	113.83
334.903	109.74
335.116	15.53
335.329	33.96
335.541	83.11
335.754	62.63
335.966	50.35
336.179	33.96
336.392	79.02
336.604	52.39
336.817	107.69
337.029	62.63
337.242	-39.76
337.454	83.11
337.667	79.02
337.88	128.17
338.092	17.58
338.305	91.31
338.517	33.96
338.729	25.77
338.942	68.78
339.154	40.11
339.367	83.11
339.579	25.77
339.792	15.53
340.004	97.45
340.217	48.3
340.429	99.5
340.641	27.82
340.854	64.68
341.066	46.25
341.278	109.74
341.491	79.02
341.703	107.69
341.915	-11.09
342.128	111.78
342.34	50.35
342.552	44.2
342.764	70.83
342.977	74.92
343.189	97.45
343.401	83.11
343.613	3.24
343.826	44.2
344.038	50.35
344.25	70.83
344.462	36.01
344.674	66.73
344.886	44.2
345.099	74.92
345.311	19.63
345.523	1.19
345.735	19.63
345.947	42.15
346.159	62.63
346.371	85.16
346.583	56.49
346.795	132.26
347.007	64.68
347.219	38.06
347.431	68.78
347.643	83.11
347.855	95.4
348.067	148.65
348.279	23.72
348.491	111.78
348.703	89.26
348.915	27.82
349.127	27.82
349.339	79.02
349.551	103.59
349.763	95.4
349.975	62.63
350.187	17.58
350.399	148.65
350.61	52.39
350.822	5.29
351.034	38.06
351.246	-29.52
351.458	93.35
351.669	27.82
351.881	101.55
352.093	25.77
352.305	40.11
352.517	48.3
352.728	19.63
352.94	13.48
353.152	148.65
353.363	64.68
353.575	87.21
353.787	132.26
353.999	70.83
354.21	111.78
354.422	136.36
354.633	115.88
354.845	101.55
355.057	62.63
355.268	52.39
355.48	25.77
355.692	62.63
355.903	54.44
356.115	-23.38
356.326	25.77
356.538	117.93
356.749	83.11
356.961	115.88
357.172	74.92
357.384	66.73
357.595	105.64
357.807	93.35
358.018	-23.38
358.23	85.16
358.441	95.4
358.653	85.16
358.864	11.43
359.075	115.88
359.287	52.39
359.498	74.92
359.709	107.69
359.921	99.5
360.132	48.3
360.344	1.19
360.555	64.68
360.766	66.73
360.977	58.54
361.189	115.88
361.4	87.21
361.611	23.72
361.823	93.35
362.034	25.77
362.245	95.4
362.456	27.82
362.667	87.21
362.879	66.73
363.09	52.39
363.301	-13.14
363.512	25.77
363.723	93.35
363.935	7.34
364.146	115.88
364.357	36.01
364.568	25.77
364.779	68.78
364.99	101.55
365.201	130.22
365.412	132.26
365.623	60.59
365.834	33.96
366.045	-45.91
366.256	85.16
366.467	17.58
366.678	76.97
366.889	25.77
367.1	42.15
367.311	42.15
367.522	99.5
367.733	101.55
367.944	79.02
368.155	52.39
368.366	66.73
368.577	66.73
368.788	132.26
368.999	70.83
369.209	87.21
369.42	128.17
369.631	99.5
369.842	66.73
370.053	93.35
370.264	31.91
370.474	95.4
370.685	50.35
370.896	83.11
371.107	76.97
371.317	160.94
371.528	17.58
371.739	74.92
371.95	81.07
372.16	91.31
372.371	17.58
372.582	126.12
372.792	15.53
373.003	99.5
373.214	156.84
373.424	93.35
373.635	29.87
373.846	29.87
374.056	60.59
374.267	83.11
374.477	89.26
374.688	62.63
374.898	99.5
375.109	91.31
375.319	70.83
375.53	111.78
375.74	140.46
375.951	25.77
376.161	36.01
376.372	136.36
376.582	87.21
376.793	66.73
377.003	103.59
377.214	81.07
377.424	50.35
377.635	33.96
377.845	99.5
378.055	95.4
378.266	36.01
378.476	56.49
378.686	146.6
378.897	25.77
379.107	33.96
379.317	111.78
379.528	124.07
379.738	128.17
379.948	-11.09
380.158	111.78
380.369	89.26
380.579	33.96
380.789	58.54
380.999	38.06
381.21	101.55
381.42	99.5
381.63	64.68
381.84	158.89
382.05	76.97
382.261	83.11
382.471	87.21
382.681	19.63
382.891	93.35
383.101	66.73
383.311	60.59
383.521	33.96
383.731	115.88
383.941	58.54
384.151	48.3
384.361	62.63
384.571	91.31
384.781	9.39
384.991	126.12
385.201	52.39
385.411	126.12
385.621	115.88
385.831	62.63
386.041	140.46
386.251	-4.95
386.461	91.31
386.671	76.97
386.881	95.4
387.091	119.98
387.301	103.59
387.511	62.63
387.72	46.25
387.93	64.68
388.14	113.83
388.35	-2.9
388.56	85.16
388.769	109.74
388.979	83.11
389.189	81.07
389.399	124.07
389.609	95.4
389.818	99.5
390.028	46.25
390.238	60.59
390.447	99.5
390.657	105.64
390.867	50.35
391.076	25.77
391.286	46.25
391.496	13.48
391.705	48.3
391.915	158.89
392.125	111.78
392.334	60.59
392.544	130.22
392.753	132.26
392.963	138.41
393.172	70.83
393.382	1.19
393.591	132.26
393.801	5.29
394.01	152.74
394.22	132.26
394.429	107.69
394.639	19.63
394.848	146.6
395.058	66.73
395.267	142.5
395.477	60.59
395.686	152.74
395.895	144.55
396.105	150.7
396.314	85.16
396.524	70.83
396.733	115.88
396.942	87.21
397.152	177.32
397.361	183.46
397.57	109.74
397.78	150.7
397.989	107.69
398.198	142.5
398.407	115.88
398.617	115.88
398.826	99.5
399.035	160.94
399.244	97.45
399.453	132.26
399.663	124.07
399.872	148.65
400.081	119.98
400.29	230.57
400.499	89.26
400.708	99.5
400.917	126.12
401.127	76.97
401.336	85.16
401.545	173.22
401.754	165.03
401.963	134.31
402.172	191.66
402.381	142.5
402.59	130.22
402.799	152.74
403.008	140.46
403.217	189.61
403.426	140.46
403.635	117.93
403.844	124.07
404.053	249
404.262	126.12
404.471	195.75
404.68	183.46
404.888	226.47
405.097	240.81
405.306	162.98
405.515	218.28
405.724	220.33
405.933	281.77
406.142	271.53
406.35	242.85
406.559	246.95
406.768	214.18
406.977	177.32
407.185	271.53
407.394	246.95
407.603	214.18
407.812	281.77
408.02	249
408.229	242.85
408.438	300.2
408.646	292.01
408.855	283.81
409.064	240.81
409.272	355.49
409.481	330.92
409.69	337.06
409.898	304.29
410.107	357.54
410.315	388.26
410.524	353.45
410.733	378.02
410.941	408.74
411.15	337.06
411.358	453.8
411.567	468.13
411.775	437.41
411.984	509.09
412.192	599.2
412.401	574.63
412.609	548
412.818	664.74
413.026	607.39
413.234	586.91
413.443	640.16
413.651	543.91
413.86	705.7
414.068	720.03
414.276	701.6
414.485	754.85
414.693	783.52
414.901	844.96
415.11	738.46
415.318	726.18
415.526	885.92
415.734	955.55
415.943	957.6
416.151	926.88
416.359	1010.84
416.567	951.45
416.776	949.4
416.984	1139.87
417.192	1084.57
417.4	1105.05
417.608	1139.87
417.817	1203.35
418.025	1178.78
418.233	1373.33
418.441	1272.98
418.649	1320.09
418.857	1344.66
419.065	1477.78
419.273	1418.39
419.481	1557.65
419.689	1557.65
419.897	1731.73
420.105	1840.27
420.313	1770.64
420.521	1838.22
420.729	1971.34
420.937	1848.46
421.145	1883.28
421.353	2065.55
421.561	2083.98
421.769	2339.97
421.977	2200.71
422.185	2446.47
422.393	2493.57
422.601	2524.29
422.809	2501.76
423.017	2491.52
423.224	2716.8
423.432	2753.66
423.64	2657.41
423.848	3034.24
424.056	2899.07
424.263	3097.72
424.471	3093.63
424.679	3253.37
424.887	3372.15
425.094	3449.97
425.302	3449.97
425.51	3714.16
425.718	3673.2
425.925	3808.37
426.133	3953.77
426.341	4162.67
426.548	4408.42
426.756	4476.01
426.964	4420.71
427.171	4592.74
427.379	4850.78
427.586	4899.94
427.794	4914.27
428.001	5252.19
428.209	5477.46
428.417	5350.49
428.624	5751.89
428.832	5882.96
429.039	5571.67
429.247	5678.16
429.454	6292.55
429.662	6483.02
429.869	6374.47
430.076	6634.57
430.284	6620.23
430.491	6861.89
430.699	7177.28
430.906	7160.89
431.114	7496.76
431.321	7578.68
431.528	7689.27
431.736	8197.17
431.943	8676.39
432.15	8340.52
432.358	8399.91
432.565	8879.14
432.772	8942.63
432.979	9151.52
433.187	9327.64
433.394	9413.66
433.601	10155.02
433.808	10200.08
434.016	10134.54
434.223	10482.7
434.43	11189.25
434.637	10949.64
434.844	11621.37
435.052	11846.65
435.259	11652.09
435.466	11916.28
435.673	11998.2
435.88	12563.43
436.087	13298.66
436.294	13102.05
436.501	12880.87
436.708	12936.17
436.915	13640.67
437.122	14230.48
437.329	13865.94
437.537	14396.37
437.743	15043.53
437.95	14754.76
438.157	15504.32
438.364	16298.93
438.571	15913.91
438.778	15981.49
438.985	17552.29
439.192	16726.96
439.399	17277.86
439.606	16798.63
439.813	18047.9
440.02	19149.7
440.227	18736.01
440.433	18443.15
440.64	19205
440.847	19194.76
441.054	19258.24
441.261	20431.73
441.467	20355.96
441.674	21103.46
441.881	21672.8
442.088	21670.75
442.294	21343.08
442.501	21803.87
442.708	22238.04
442.914	23137.1
443.121	23991.1
443.328	23434.05
443.534	25324.33
443.741	24259.38
443.948	24113.98
444.154	25830.18
444.361	25774.88
444.568	25774.88
444.774	25951.01
444.981	26182.43
445.187	26852.11
445.394	27785.99
445.6	27790.08
445.807	30266.08
446.013	28945.14
446.22	29825.76
446.426	30855.89
446.633	30816.98
446.839	31998.66
447.046	30610.14
447.252	32316.09
447.459	32262.85
447.665	31789.77
447.871	33639.08
448.078	34732.7
448.284	33346.22
448.491	34470.56
448.697	35424.91
448.903	36360.83
449.11	36280.96
449.316	35596.94
449.522	36274.82
449.728	37384.82
449.935	37976.68
450.141	37591.66
450.347	38222.44
450.553	37104.24
450.76	37935.72
450.966	38574.69
451.172	38453.86
451.378	39477.84
451.584	38466.14
451.791	39414.35
451.997	39432.78
452.203	40122.95
452.409	40198.73
452.615	40297.03
452.821	38410.85
453.027	38290.02
453.233	40276.55
453.44	38607.45
453.646	38476.38
453.852	39397.97
454.058	39768.65
454.264	38351.46
454.47	39334.48
454.676	38466.14
454.882	39809.61
455.088	36428.41
455.294	36592.25
455.5	37601.9
455.705	37841.51
455.911	36600.44
456.117	35568.27
456.323	35418.77
456.529	33534.63
456.735	34914.97
456.941	33766.06
457.147	33497.77
457.352	32701.11
457.558	32350.91
457.764	32053.95
457.97	31576.78
458.176	30710.49
458.381	31281.87
458.587	29606.63
458.793	29313.77
458.999	27966.21
459.204	30169.82
459.41	29231.85
459.616	27618.05
459.821	27319.05
460.027	27087.63
460.233	26735.38
460.438	25428.77
460.644	25504.55
460.85	24265.53
461.055	24238.9
461.261	23880.51
461.466	22223.7
461.672	21699.42
461.878	22909.77
462.083	21732.19
462.289	21138.28
462.494	21068.65
462.7	20056.95
462.905	19473.28
463.111	20597.62
463.316	20276.09
463.522	19915.64
463.727	19901.31
463.932	20015.99
464.138	19233.67
464.343	19680.13
464.549	19084.17
464.754	19458.95
464.959	19456.9
465.165	19538.82
465.37	18600.85
465.575	18453.39
465.781	19020.68
465.986	18879.37
466.191	18289.56
466.397	17796
466.602	17058.73
466.807	17689.5
467.012	17744.8
