Data from USB4F104151__260__14-22-45-478.txt Node

Date: Thu Mar 13 14:22:45 EDT 2025
User: louis
Spectrometer: USB4F10415
Trigger mode: 4
Integration Time (sec): 2.000000E-2
Scans to average: 1
Electric dark correction enabled: true
Nonlinearity correction enabled: false
Boxcar width: 0
XAxis mode: Wavelengths
Number of Pixels in Spectrum: 3648
>>>>>Begin Spectral Data<<<<<
178.204	-109.74
178.424	-109.74
178.644	-109.74
178.864	-144.55
179.084	-134.31
179.304	2.9
179.524	64.34
179.744	29.52
179.964	35.67
180.184	2.9
180.404	-33.96
180.624	-5.29
180.844	-3.24
181.064	-93.35
181.283	29.52
181.503	-46.25
181.723	17.24
181.943	-19.63
182.163	50
182.383	60.24
182.602	31.57
182.822	47.96
183.042	27.48
183.262	50
183.482	82.77
183.701	7
183.921	17.24
184.141	-83.11
184.361	-5.29
184.58	-27.82
184.8	11.09
185.02	-3.24
185.239	2.9
185.459	-1.19
185.679	39.76
185.898	-25.77
186.118	43.86
186.338	2.9
186.557	88.92
186.777	19.29
186.997	-38.06
187.216	-33.96
187.436	60.24
187.655	-21.67
187.875	60.24
188.095	-9.39
188.314	37.72
188.534	-11.43
188.753	27.48
188.973	29.52
189.192	43.86
189.412	88.92
189.631	11.09
189.851	-15.53
190.07	31.57
190.29	-11.43
190.509	-95.4
190.729	-3.24
190.948	37.72
191.168	23.38
191.387	-5.29
191.607	-29.87
191.826	-5.29
192.045	7
192.265	27.48
192.484	-52.39
192.704	-21.67
192.923	-9.39
193.142	70.48
193.362	-15.53
193.581	43.86
193.8	64.34
194.02	43.86
194.239	-42.15
194.458	-25.77
194.678	11.09
194.897	-21.67
195.116	-64.68
195.335	-3.24
195.555	62.29
195.774	7
195.993	52.05
196.212	-29.87
196.432	35.67
196.651	-1.19
196.87	43.86
197.089	95.06
197.308	50
197.528	13.14
197.747	2.9
197.966	-23.72
198.185	43.86
198.404	43.86
198.623	33.62
198.842	52.05
199.062	-50.35
199.281	72.53
199.5	-15.53
199.719	-29.87
199.938	66.39
200.157	35.67
200.376	52.05
200.595	-1.19
200.814	15.19
201.033	-19.63
201.252	-23.72
201.471	-5.29
201.69	62.29
201.909	29.52
202.128	62.29
202.347	68.44
202.566	-1.19
202.785	-31.91
203.004	-5.29
203.223	43.86
203.442	-38.06
203.661	4.95
203.879	72.53
204.098	52.05
204.317	-42.15
204.536	37.72
204.755	-9.39
204.974	21.33
205.193	47.96
205.411	52.05
205.63	68.44
205.849	33.62
206.068	43.86
206.287	-9.39
206.505	31.57
206.724	0.85
206.943	-13.48
207.162	39.76
207.381	2.9
207.599	21.33
207.818	-44.2
208.037	-68.78
208.255	-19.63
208.474	35.67
208.693	-3.24
208.911	-11.43
209.13	29.52
209.349	70.48
209.567	0.85
209.786	23.38
210.005	-54.44
210.223	19.29
210.442	-33.96
210.661	66.39
210.879	-21.67
211.098	52.05
211.316	56.15
211.535	43.86
211.753	-19.63
211.972	52.05
212.191	-79.02
212.409	13.14
212.628	84.82
212.846	37.72
213.065	37.72
213.283	93.01
213.502	-17.58
213.72	11.09
213.938	27.48
214.157	19.29
214.375	27.48
214.594	-1.19
214.812	66.39
215.031	-25.77
215.249	-58.54
215.467	90.96
215.686	29.52
215.904	58.2
216.122	-7.34
216.341	-17.58
216.559	-21.67
216.778	-33.96
216.996	47.96
217.214	-17.58
217.432	39.76
217.651	-50.35
217.869	2.9
218.087	15.19
218.306	-9.39
218.524	-33.96
218.742	35.67
218.96	2.9
219.179	23.38
219.397	33.62
219.615	23.38
219.833	54.1
220.051	-46.25
220.27	52.05
220.488	-11.43
220.706	52.05
220.924	35.67
221.142	37.72
221.36	27.48
221.578	60.24
221.796	39.76
222.015	-13.48
222.233	39.76
222.451	97.11
222.669	13.14
222.887	19.29
223.105	-81.07
223.323	39.76
223.541	-85.16
223.759	2.9
223.977	121.68
224.195	2.9
224.413	29.52
224.631	31.57
224.849	11.09
225.067	62.29
225.285	19.29
225.503	7
225.721	11.09
225.939	7
226.157	-58.54
226.375	113.49
226.592	-13.48
226.81	-33.96
227.028	56.15
227.246	66.39
227.464	-21.67
227.682	72.53
227.9	29.52
228.117	29.52
228.335	70.48
228.553	33.62
228.771	25.43
228.989	29.52
229.206	11.09
229.424	-50.35
229.642	-13.48
229.86	-21.67
230.077	62.29
230.295	-1.19
230.513	25.43
230.731	11.09
230.948	62.29
231.166	82.77
231.384	23.38
231.601	-40.11
231.819	-9.39
232.037	-38.06
232.254	-21.67
232.472	23.38
232.689	-33.96
232.907	-5.29
233.125	2.9
233.342	31.57
233.56	-66.73
233.777	-11.43
233.995	-27.82
234.213	119.64
234.43	37.72
234.648	19.29
234.865	84.82
235.083	23.38
235.3	39.76
235.518	27.48
235.735	52.05
235.953	43.86
236.17	-5.29
236.388	11.09
236.605	50
236.822	27.48
237.04	60.24
237.257	93.01
237.475	-21.67
237.692	-70.83
237.909	2.9
238.127	0.85
238.344	19.29
238.562	-46.25
238.779	-50.35
238.996	31.57
239.214	21.33
239.431	-17.58
239.648	-33.96
239.865	7
240.083	19.29
240.3	-1.19
240.517	11.09
240.735	68.44
240.952	39.76
241.169	84.82
241.386	-21.67
241.603	-62.63
241.821	-46.25
242.038	43.86
242.255	52.05
242.472	-91.31
242.689	39.76
242.907	52.05
243.124	13.14
243.341	-3.24
243.558	-5.29
243.775	-29.87
243.992	2.9
244.209	-5.29
244.426	27.48
244.643	47.96
244.86	-17.58
245.078	-76.97
245.295	27.48
245.512	7
245.729	19.29
245.946	-52.39
246.163	56.15
246.38	-21.67
246.597	62.29
246.814	-38.06
247.031	-23.72
247.248	52.05
247.464	13.14
247.681	35.67
247.898	37.72
248.115	76.63
248.332	-11.43
248.549	-25.77
248.766	52.05
248.983	90.96
249.2	-15.53
249.417	19.29
249.633	4.95
249.85	-27.82
250.067	13.14
250.284	35.67
250.501	13.14
250.717	-3.24
250.934	60.24
251.151	19.29
251.368	-9.39
251.585	70.48
251.801	7
252.018	39.76
252.235	-44.2
252.451	-27.82
252.668	-95.4
252.885	-3.24
253.102	29.52
253.318	-25.77
253.535	25.43
253.752	-36.01
253.968	2.9
254.185	-27.82
254.401	-29.87
254.618	-36.01
254.835	31.57
255.051	64.34
255.268	4.95
255.484	56.15
255.701	-46.25
255.917	78.68
256.134	-68.78
256.351	68.44
256.567	25.43
256.784	-13.48
257	-56.49
257.217	23.38
257.433	19.29
257.65	-7.34
257.866	15.19
258.082	4.95
258.299	35.67
258.515	62.29
258.732	-11.43
258.948	-5.29
259.165	-17.58
259.381	68.44
259.597	-7.34
259.814	-36.01
260.03	-46.25
260.246	52.05
260.463	37.72
260.679	31.57
260.895	39.76
261.112	43.86
261.328	31.57
261.544	-72.87
261.761	7
261.977	-11.43
262.193	-1.19
262.409	88.92
262.626	4.95
262.842	-3.24
263.058	27.48
263.274	39.76
263.49	-60.59
263.707	-9.39
263.923	4.95
264.139	39.76
264.355	19.29
264.571	60.24
264.787	60.24
265.004	2.9
265.22	35.67
265.436	-46.25
265.652	-21.67
265.868	31.57
266.084	-74.92
266.3	23.38
266.516	-13.48
266.732	35.67
266.948	13.14
267.164	-5.29
267.38	13.14
267.596	37.72
267.812	113.49
268.028	-7.34
268.244	-122.02
268.46	68.44
268.676	-21.67
268.892	-25.77
269.108	-21.67
269.324	35.67
269.54	-46.25
269.756	35.67
269.972	7
270.188	29.52
270.403	4.95
270.619	-27.82
270.835	2.9
271.051	19.29
271.267	-1.19
271.483	35.67
271.698	54.1
271.914	35.67
272.13	-9.39
272.346	-5.29
272.562	-31.91
272.777	39.76
272.993	-13.48
273.209	43.86
273.425	7
273.64	84.82
273.856	2.9
274.072	7
274.287	-3.24
274.503	2.9
274.719	76.63
274.934	27.48
275.15	-36.01
275.366	-36.01
275.581	-25.77
275.797	-15.53
276.012	19.29
276.228	-79.02
276.444	84.82
276.659	58.2
276.875	-56.49
277.09	19.29
277.306	-3.24
277.521	-3.24
277.737	0.85
277.952	52.05
278.168	-13.48
278.383	11.09
278.599	-21.67
278.814	99.16
279.03	62.29
279.245	56.15
279.461	-21.67
279.676	45.91
279.892	-54.44
280.107	11.09
280.322	-3.24
280.538	35.67
280.753	86.87
280.969	68.44
281.184	58.2
281.399	76.63
281.615	11.09
281.83	68.44
282.045	-21.67
282.26	-1.19
282.476	-25.77
282.691	37.72
282.906	-56.49
283.122	-3.24
283.337	-66.73
283.552	7
283.767	2.9
283.983	-62.63
284.198	-9.39
284.413	27.48
284.628	-66.73
284.843	27.48
285.058	39.76
285.274	76.63
285.489	13.14
285.704	35.67
285.919	52.05
286.134	95.06
286.349	-33.96
286.564	4.95
286.779	21.33
286.995	-11.43
287.21	-11.43
287.425	-21.67
287.64	25.43
287.855	-5.29
288.07	54.1
288.285	113.49
288.5	-42.15
288.715	-13.48
288.93	-40.11
289.145	4.95
289.36	7
289.575	19.29
289.79	-3.24
290.004	-17.58
290.219	-44.2
290.434	25.43
290.649	-1.19
290.864	-38.06
291.079	15.19
291.294	35.67
291.509	9.05
291.724	39.76
291.938	11.09
292.153	23.38
292.368	-29.87
292.583	45.91
292.798	2.9
293.012	111.44
293.227	-50.35
293.442	2.9
293.657	27.48
293.871	19.29
294.086	-33.96
294.301	23.38
294.516	37.72
294.73	-54.44
294.945	-13.48
295.16	78.68
295.374	52.05
295.589	-11.43
295.804	4.95
296.018	35.67
296.233	54.1
296.447	23.38
296.662	-15.53
296.877	11.09
297.091	72.53
297.306	29.52
297.52	-48.3
297.735	-3.24
297.949	27.48
298.164	56.15
298.378	-60.59
298.593	-62.63
298.807	-19.63
299.022	7
299.236	-46.25
299.451	2.9
299.665	-17.58
299.88	-13.48
300.094	-13.48
300.309	-33.96
300.523	76.63
300.737	27.48
300.952	52.05
301.166	31.57
301.381	-27.82
301.595	7
301.809	19.29
302.024	11.09
302.238	47.96
302.452	-9.39
302.667	109.4
302.881	76.63
303.095	-3.24
303.309	11.09
303.524	-21.67
303.738	-46.25
303.952	-72.87
304.166	11.09
304.381	-36.01
304.595	47.96
304.809	-5.29
305.023	-5.29
305.237	45.91
305.452	13.14
305.666	2.9
305.88	-38.06
306.094	35.67
306.308	-13.48
306.522	23.38
306.736	27.48
306.95	54.1
307.164	15.19
307.379	66.39
307.593	29.52
307.807	64.34
308.021	111.44
308.235	19.29
308.449	-3.24
308.663	2.9
308.877	52.05
309.091	11.09
309.305	111.44
309.519	-38.06
309.733	19.29
309.947	-27.82
310.161	27.48
310.374	4.95
310.588	13.14
310.802	-27.82
311.016	7
311.23	31.57
311.444	2.9
311.658	-23.72
311.872	80.72
312.085	54.1
312.299	47.96
312.513	72.53
312.727	47.96
312.941	17.24
313.154	19.29
313.368	-93.35
313.582	39.76
313.796	31.57
314.009	2.9
314.223	-27.82
314.437	31.57
314.651	-5.29
314.864	43.86
315.078	-13.48
315.292	2.9
315.505	47.96
315.719	23.38
315.933	4.95
316.146	-25.77
316.36	9.05
316.573	58.2
316.787	17.24
317.001	15.19
317.214	-29.87
317.428	2.9
317.641	13.14
317.855	17.24
318.068	7
318.282	17.24
318.495	27.48
318.709	72.53
318.922	23.38
319.136	43.86
319.349	-3.24
319.563	-29.87
319.776	54.1
319.99	47.96
320.203	-3.24
320.417	-25.77
320.63	72.53
320.843	43.86
321.057	-29.87
321.27	25.43
321.483	-70.83
321.697	43.86
321.91	58.2
322.124	2.9
322.337	43.86
322.55	37.72
322.763	-3.24
322.977	29.52
323.19	19.29
323.403	-11.43
323.617	43.86
323.83	4.95
324.043	13.14
324.256	-5.29
324.469	-44.2
324.683	31.57
324.896	-7.34
325.109	-11.43
325.322	-11.43
325.535	19.29
325.748	-38.06
325.962	39.76
326.175	47.96
326.388	76.63
326.601	43.86
326.814	-52.39
327.027	-21.67
327.24	50
327.453	2.9
327.666	19.29
327.879	29.52
328.092	-13.48
328.305	41.81
328.518	60.24
328.731	-58.54
328.944	-38.06
329.157	-9.39
329.37	-1.19
329.583	-17.58
329.796	62.29
330.009	39.76
330.222	-29.87
330.435	-13.48
330.648	27.48
330.861	13.14
331.073	64.34
331.286	43.86
331.499	78.68
331.712	-23.72
331.925	45.91
332.138	9.05
332.35	31.57
332.563	-50.35
332.776	-5.29
332.989	15.19
333.202	56.15
333.414	-48.3
333.627	13.14
333.84	-19.63
334.053	43.86
334.265	0.85
334.478	23.38
334.691	-23.72
334.903	-5.29
335.116	-11.43
335.329	70.48
335.541	19.29
335.754	-13.48
335.966	72.53
336.179	11.09
336.392	15.19
336.604	-7.34
336.817	35.67
337.029	41.81
337.242	-87.21
337.454	-19.63
337.667	-21.67
337.88	-21.67
338.092	39.76
338.305	95.06
338.517	-85.16
338.729	68.44
338.942	39.76
339.154	19.29
339.367	54.1
339.579	54.1
339.792	-3.24
340.004	13.14
340.217	13.14
340.429	-19.63
340.641	-5.29
340.854	45.91
341.066	21.33
341.278	37.72
341.491	-13.48
341.703	74.58
341.915	45.91
342.128	23.38
342.34	31.57
342.552	-3.24
342.764	-7.34
342.977	50
343.189	27.48
343.401	0.85
343.613	-17.58
343.826	-5.29
344.038	9.05
344.25	68.44
344.462	2.9
344.674	11.09
344.886	29.52
345.099	-36.01
345.311	-31.91
345.523	-9.39
345.735	-11.43
345.947	7
346.159	39.76
346.371	-46.25
346.583	19.29
346.795	7
347.007	29.52
347.219	76.63
347.431	11.09
347.643	-62.63
347.855	21.33
348.067	43.86
348.279	-33.96
348.491	66.39
348.703	-3.24
348.915	-83.11
349.127	35.67
349.339	39.76
349.551	7
349.763	35.67
349.975	21.33
350.187	43.86
350.399	74.58
350.61	-13.48
350.822	68.44
351.034	56.15
351.246	-33.96
351.458	60.24
351.669	45.91
351.881	138.07
352.093	-15.53
352.305	11.09
352.517	2.9
352.728	11.09
352.94	60.24
353.152	-15.53
353.363	56.15
353.575	23.38
353.787	11.09
353.999	17.24
354.21	31.57
354.422	25.43
354.633	-1.19
354.845	52.05
355.057	52.05
355.268	29.52
355.48	29.52
355.692	-46.25
355.903	-13.48
356.115	45.91
356.326	-74.92
356.538	56.15
356.749	78.68
356.961	11.09
357.172	62.29
357.384	-9.39
357.595	45.91
357.807	72.53
358.018	0.85
358.23	19.29
358.441	84.82
358.653	17.24
358.864	-9.39
359.075	-25.77
359.287	60.24
359.498	39.76
359.709	29.52
359.921	11.09
360.132	-11.43
360.344	29.52
360.555	50
360.766	29.52
360.977	-9.39
361.189	37.72
361.4	7
361.611	84.82
361.823	95.06
362.034	-21.67
362.245	-15.53
362.456	33.62
362.667	52.05
362.879	-29.87
363.09	-17.58
363.301	35.67
363.512	-27.82
363.723	19.29
363.935	-5.29
364.146	-13.48
364.357	68.44
364.568	-21.67
364.779	17.24
364.99	82.77
365.201	54.1
365.412	-13.48
365.623	-36.01
365.834	-5.29
366.045	7
366.256	52.05
366.467	45.91
366.678	35.67
366.889	56.15
367.1	-36.01
367.311	19.29
367.522	60.24
367.733	-5.29
367.944	27.48
368.155	-9.39
368.366	15.19
368.577	29.52
368.788	41.81
368.999	-1.19
369.209	-5.29
369.42	101.2
369.631	35.67
369.842	68.44
370.053	78.68
370.264	45.91
370.474	-68.78
370.685	-5.29
370.896	-19.63
371.107	11.09
371.317	17.24
371.528	-1.19
371.739	84.82
371.95	37.72
372.16	-70.83
372.371	52.05
372.582	45.91
372.792	60.24
373.003	9.05
373.214	101.2
373.424	31.57
373.635	-7.34
373.846	9.05
374.056	68.44
374.267	-5.29
374.477	58.2
374.688	27.48
374.898	2.9
375.109	-11.43
375.319	7
375.53	70.48
375.74	60.24
375.951	13.14
376.161	35.67
376.372	93.01
376.582	60.24
376.793	21.33
377.003	27.48
377.214	27.48
377.424	-52.39
377.635	45.91
377.845	66.39
378.055	127.83
378.266	-54.44
378.476	-42.15
378.686	-42.15
378.897	-29.87
379.107	39.76
379.317	60.24
379.528	-17.58
379.738	19.29
379.948	-38.06
380.158	13.14
380.369	-15.53
380.579	68.44
380.789	-9.39
380.999	2.9
381.21	-1.19
381.42	19.29
381.63	9.05
381.84	19.29
382.05	52.05
382.261	47.96
382.471	27.48
382.681	27.48
382.891	27.48
383.101	19.29
383.311	56.15
383.521	41.81
383.731	74.58
383.941	23.38
384.151	-56.49
384.361	47.96
384.571	64.34
384.781	23.38
384.991	101.2
385.201	78.68
385.411	-11.43
385.621	54.1
385.831	39.76
386.041	45.91
386.251	35.67
386.461	154.45
386.671	-3.24
386.881	-48.3
387.091	-38.06
387.301	54.1
387.511	19.29
387.72	-46.25
387.93	-17.58
388.14	-7.34
388.35	-13.48
388.56	41.81
388.769	31.57
388.979	25.43
389.189	47.96
389.399	29.52
389.609	54.1
389.818	7
390.028	21.33
390.238	2.9
390.447	-1.19
390.657	74.58
390.867	2.9
391.076	21.33
391.286	93.01
391.496	-1.19
391.705	56.15
391.915	4.95
392.125	39.76
392.334	13.14
392.544	-5.29
392.753	52.05
392.963	43.86
393.172	35.67
393.382	39.76
393.591	97.11
393.801	37.72
394.01	37.72
394.22	39.76
394.429	45.91
394.639	37.72
394.848	29.52
395.058	68.44
395.267	76.63
395.477	80.72
395.686	43.86
395.895	29.52
396.105	117.59
396.314	-21.67
396.524	70.48
396.733	103.25
396.942	86.87
397.152	64.34
397.361	43.86
397.57	-13.48
397.78	76.63
397.989	105.3
398.198	133.97
398.407	-23.72
398.617	-21.67
398.826	58.2
399.035	56.15
399.244	47.96
399.453	109.4
399.663	35.67
399.872	72.53
400.081	15.19
400.29	115.54
400.499	76.63
400.708	60.24
400.917	70.48
401.127	11.09
401.336	45.91
401.545	133.97
401.754	93.01
401.963	13.14
402.172	-36.01
402.381	109.4
402.59	29.52
402.799	17.24
403.008	58.2
403.217	-13.48
403.426	50
403.635	-5.29
403.844	76.63
404.053	109.4
404.262	52.05
404.471	162.64
404.68	80.72
404.888	13.14
405.097	21.33
405.306	62.29
405.515	95.06
405.724	95.06
405.933	62.29
406.142	29.52
406.35	113.49
406.559	76.63
406.768	133.97
406.977	119.64
407.185	62.29
407.394	105.3
407.603	95.06
407.812	150.36
408.02	138.07
408.229	138.07
408.438	166.74
408.646	150.36
408.855	109.4
409.064	105.3
409.272	144.21
409.481	195.41
409.69	105.3
409.898	45.91
410.107	136.02
410.315	174.93
410.524	129.88
410.733	240.47
410.941	170.83
411.15	166.74
411.358	203.6
411.567	314.19
411.775	199.51
411.984	289.62
412.192	242.51
412.401	203.6
412.609	291.66
412.818	322.38
413.026	248.66
413.234	287.57
413.443	297.81
413.651	240.47
413.86	244.56
414.068	355.15
414.276	361.3
414.485	320.34
414.693	334.67
414.901	432.97
415.11	375.63
415.318	389.97
415.526	426.83
415.734	387.92
415.943	406.35
416.151	527.18
416.359	441.17
416.567	422.73
416.776	469.84
416.984	508.75
417.192	494.41
417.4	531.28
417.608	447.31
417.817	611.15
418.025	654.16
418.233	566.09
418.441	639.82
418.649	693.07
418.857	625.48
419.065	727.88
419.273	748.36
419.481	627.53
419.689	789.32
419.897	834.38
420.105	789.32
420.313	856.9
420.521	875.34
420.729	869.19
420.937	944.97
421.145	1028.93
421.353	987.97
421.561	1026.89
421.769	959.3
421.977	1088.32
422.185	1041.22
422.393	1237.83
422.601	1225.54
422.809	1313.6
423.017	1252.16
423.224	1362.75
423.432	1297.22
423.64	1262.4
423.848	1444.67
424.056	1407.81
424.263	1452.86
424.471	1604.41
424.679	1633.08
424.887	1487.68
425.094	1702.72
425.302	1723.2
425.51	1747.77
425.718	1731.39
425.925	1813.31
426.133	1815.35
426.341	1907.51
426.548	2181.94
426.756	2149.17
426.964	2183.99
427.171	2286.39
427.379	2356.02
427.586	2173.75
427.794	2378.55
428.001	2562.86
428.209	2687.79
428.417	2616.11
428.624	2839.34
428.832	2743.08
429.039	2730.8
429.247	2814.76
429.454	3019.56
429.662	3230.5
429.869	3013.42
430.076	3205.92
430.284	3130.15
430.491	3279.65
430.699	3439.39
430.906	3380
431.114	3496.74
431.321	3666.72
431.528	3699.48
431.736	3996.44
431.943	4041.5
432.15	4033.3
432.358	4096.79
432.565	4305.68
432.772	4000.54
432.979	4459.28
433.187	4569.87
433.394	4494.1
433.601	4805.39
433.808	4948.75
434.016	4940.55
434.223	5090.06
434.43	5231.37
434.637	5131.02
434.844	5688.06
435.052	5665.53
435.259	5608.19
435.466	5626.62
435.673	5704.45
435.88	6044.41
436.087	6279.93
436.294	6302.45
436.501	6370.04
436.708	6261.49
436.915	6535.92
437.122	6753.01
437.329	6734.57
437.537	6798.06
437.743	7080.68
437.95	7197.42
438.157	7547.62
438.364	7424.74
438.571	7553.76
438.778	7658.21
438.985	8538.84
439.192	8035.03
439.399	8225.5
439.606	8166.1
439.813	8540.88
440.02	9030.35
440.227	9026.25
440.433	8964.81
440.64	9210.57
440.847	9206.47
441.054	9089.74
441.261	9827.01
441.467	9818.82
441.674	9921.21
441.881	10080.96
442.088	10160.83
442.294	10171.07
442.501	10468.02
442.708	10570.42
442.914	10926.77
443.121	11684.52
443.328	11266.73
443.534	12151.45
443.741	11653.8
443.948	11426.47
444.154	12307.1
444.361	12251.8
444.568	12378.78
444.774	12466.84
444.981	12489.37
445.187	12976.78
445.394	13083.28
445.6	13243.02
445.807	14305.92
446.013	13816.45
446.22	14086.78
446.426	14846.58
446.633	14703.22
446.839	15608.42
447.046	14690.93
447.252	15524.46
447.459	15669.86
447.665	15424.11
447.871	16011.87
448.078	17017.43
448.284	15956.58
448.491	16507.48
448.697	17279.57
448.903	17361.48
449.11	17322.57
449.316	17166.93
449.522	17463.88
449.728	17797.7
449.935	18321.98
450.141	18006.59
450.347	18489.92
450.553	17953.35
450.76	18264.64
450.966	19014.2
451.172	18762.3
451.378	19210.8
451.584	18629.18
451.791	19159.6
451.997	19216.94
452.203	19280.43
452.409	19429.93
452.615	19700.26
452.821	18586.17
453.027	18418.24
453.233	19714.6
453.44	18688.57
453.646	19008.05
453.852	19159.6
454.058	19431.98
454.264	18838.07
454.47	19442.22
454.676	18786.87
454.882	19608.11
455.088	17877.57
455.294	18233.92
455.5	18328.13
455.705	18704.95
455.911	17756.74
456.117	17349.2
456.323	17146.45
456.529	16411.23
456.735	17074.77
456.941	16915.03
457.147	16357.98
457.352	16018.02
457.558	15624.81
457.764	15852.13
457.97	15665.77
458.176	15178.35
458.381	15229.55
458.587	14578.29
458.793	14588.53
458.999	13867.65
459.204	14590.58
459.41	14348.92
459.616	13312.65
459.821	13415.05
460.027	13318.79
460.233	13142.67
460.438	12640.92
460.644	12823.19
460.85	12004
461.055	12047.01
461.261	11895.46
461.466	10807.98
461.672	10527.41
461.878	11285.16
462.083	10687.15
462.289	10384.05
462.494	10390.2
462.7	9814.72
462.905	9853.63
463.111	10117.82
463.316	9982.65
463.522	9554.63
463.727	9652.93
463.932	9726.66
464.138	9808.58
464.343	9480.9
464.549	9464.52
464.754	9632.45
464.959	9544.39
465.165	9603.78
465.37	8999.63
465.575	8975.05
465.781	9173.71
465.986	9149.13
466.191	8950.48
466.397	8860.37
466.602	8403.67
466.807	8665.81
467.012	8714.96
467.218	8491.73
467.423	8325.85
467.628	8555.22
467.833	8776.4
468.038	8497.88
468.244	8180.44
468.449	8575.7
468.654	8360.66
468.859	8284.89
469.064	8248.02
