Data from USB4F104151__295__14-23-54-234.txt Node

Date: Thu Mar 13 14:23:54 EDT 2025
User: louis
Spectrometer: USB4F10415
Trigger mode: 4
Integration Time (sec): 2.000000E-2
Scans to average: 1
Electric dark correction enabled: true
Nonlinearity correction enabled: false
Boxcar width: 0
XAxis mode: Wavelengths
Number of Pixels in Spectrum: 3648
>>>>>Begin Spectral Data<<<<<
178.204	-59.05
178.424	-59.05
178.644	-59.05
178.864	-194.22
179.084	-50.86
179.304	14.68
179.524	2.39
179.744	-5.8
179.964	57.68
180.184	53.59
180.404	-24.23
180.624	-7.85
180.844	-42.67
181.064	-57
181.283	-24.23
181.503	-13.99
181.723	47.44
181.943	-46.76
182.163	90.45
182.383	-9.9
182.602	39.25
182.822	59.73
183.042	57.68
183.262	35.16
183.482	31.06
183.701	18.77
183.921	10.58
184.141	-59.05
184.361	96.6
184.58	-46.76
184.8	63.83
185.02	94.55
185.239	67.92
185.459	94.55
185.679	88.4
185.898	16.73
186.118	55.64
186.338	57.68
186.557	72.02
186.777	-34.47
186.997	-18.09
187.216	-16.04
187.436	88.4
187.655	76.12
187.875	90.45
188.095	43.35
188.314	84.31
188.534	102.74
188.753	37.2
188.973	63.83
189.192	63.83
189.412	37.2
189.631	-18.09
189.851	2.39
190.07	117.08
190.29	47.44
190.509	94.55
190.729	-32.43
190.948	74.07
191.168	112.98
191.387	104.79
191.607	47.44
191.826	14.68
192.045	55.64
192.265	59.73
192.484	115.03
192.704	82.26
192.923	55.64
193.142	98.64
193.362	-18.09
193.581	80.21
193.8	22.87
194.02	24.92
194.239	-75.43
194.458	39.25
194.678	51.54
194.897	24.92
195.116	45.4
195.335	-79.53
195.555	106.84
195.774	80.21
195.993	51.54
196.212	31.06
196.432	41.3
196.651	110.93
196.87	41.3
197.089	72.02
197.308	-1.71
197.528	90.45
197.747	41.3
197.966	-9.9
198.185	100.69
198.404	-9.9
198.623	51.54
198.842	47.44
199.062	43.35
199.281	112.98
199.5	65.88
199.719	14.68
199.938	10.58
200.157	47.44
200.376	-1.71
200.595	59.73
200.814	6.49
201.033	20.82
201.252	112.98
201.471	2.39
201.69	104.79
201.909	31.06
202.128	47.44
202.347	14.68
202.566	37.2
202.785	-40.62
203.004	35.16
203.223	63.83
203.442	29.01
203.661	-9.9
203.879	22.87
204.098	20.82
204.317	22.87
204.536	80.21
204.755	55.64
204.974	-9.9
205.193	6.49
205.411	98.64
205.63	57.68
205.849	65.88
206.068	-24.23
206.287	47.44
206.505	63.83
206.724	47.44
206.943	6.49
207.162	67.92
207.381	18.77
207.599	55.64
207.818	84.31
208.037	67.92
208.255	63.83
208.474	47.44
208.693	-9.9
208.911	4.44
209.13	41.3
209.349	63.83
209.567	22.87
209.786	121.17
210.005	98.64
210.223	45.4
210.442	24.92
210.661	8.53
210.879	8.53
211.098	74.07
211.316	55.64
211.535	31.06
211.753	49.49
211.972	24.92
212.191	8.53
212.409	43.35
212.628	45.4
212.846	41.3
213.065	49.49
213.283	88.4
213.502	65.88
213.72	0.34
213.938	65.88
214.157	104.79
214.375	0.34
214.594	65.88
214.812	47.44
215.031	-1.71
215.249	-5.8
215.467	43.35
215.686	16.73
215.904	119.12
216.122	4.44
216.341	86.36
216.559	51.54
216.778	59.73
216.996	31.06
217.214	43.35
217.432	2.39
217.651	31.06
217.869	6.49
218.087	0.34
218.306	4.44
218.524	72.02
218.742	-16.04
218.96	39.25
219.179	14.68
219.397	65.88
219.615	84.31
219.833	22.87
220.051	24.92
220.27	67.92
220.488	90.45
220.706	84.31
220.924	-34.47
221.142	-1.71
221.36	0.34
221.578	20.82
221.796	14.68
222.015	20.82
222.233	-7.85
222.451	65.88
222.669	67.92
222.887	-48.81
223.105	-5.8
223.323	82.26
223.541	6.49
223.759	41.3
223.977	33.11
224.195	65.88
224.413	67.92
224.631	49.49
224.849	24.92
225.067	88.4
225.285	-34.47
225.503	6.49
225.721	-18.09
225.939	22.87
226.157	6.49
226.375	170.32
226.592	8.53
226.81	57.68
227.028	88.4
227.246	67.92
227.464	-7.85
227.682	96.6
227.9	-1.71
228.117	41.3
228.335	-26.28
228.553	53.59
228.771	45.4
228.989	16.73
229.206	47.44
229.424	96.6
229.642	-13.99
229.86	59.73
230.077	51.54
230.295	-1.71
230.513	12.63
230.731	14.68
230.948	88.4
231.166	166.23
231.384	-67.24
231.601	31.06
231.819	123.22
232.037	-13.99
232.254	-46.76
232.472	8.53
232.689	29.01
232.907	20.82
233.125	47.44
233.342	22.87
233.56	37.2
233.777	-26.28
233.995	-26.28
234.213	121.17
234.43	39.25
234.648	-48.81
234.865	31.06
235.083	39.25
235.3	53.59
235.518	-13.99
235.735	117.08
235.953	51.54
236.17	76.12
236.388	-71.34
236.605	31.06
236.822	80.21
237.04	8.53
237.257	90.45
237.475	-26.28
237.692	-7.85
237.909	41.3
238.127	-13.99
238.344	22.87
238.562	-11.95
238.779	-24.23
238.996	-22.19
239.214	-24.23
239.431	-42.67
239.648	74.07
239.865	31.06
240.083	49.49
240.3	72.02
240.517	6.49
240.735	31.06
240.952	45.4
241.169	57.68
241.386	-50.86
241.603	6.49
241.821	-24.23
242.038	49.49
242.255	108.88
242.472	76.12
242.689	-18.09
242.907	61.78
243.124	18.77
243.341	6.49
243.558	26.96
243.775	67.92
243.992	24.92
244.209	4.44
244.426	57.68
244.643	84.31
244.86	16.73
245.078	49.49
245.295	35.16
245.512	84.31
245.729	63.83
245.946	115.03
246.163	12.63
246.38	6.49
246.597	-9.9
246.814	63.83
247.031	2.39
247.248	53.59
247.464	35.16
247.681	-28.33
247.898	45.4
248.115	-9.9
248.332	26.96
248.549	4.44
248.766	67.92
248.983	2.39
249.2	20.82
249.417	108.88
249.633	92.5
249.85	53.59
250.067	14.68
250.284	96.6
250.501	104.79
250.717	45.4
250.934	14.68
251.151	57.68
251.368	55.64
251.585	65.88
251.801	12.63
252.018	-20.14
252.235	63.83
252.451	55.64
252.668	-36.52
252.885	57.68
253.102	6.49
253.318	55.64
253.535	18.77
253.752	33.11
253.968	20.82
254.185	-32.43
254.401	59.73
254.618	39.25
254.835	-16.04
255.051	92.5
255.268	65.88
255.484	59.73
255.701	8.53
255.917	63.83
256.134	10.58
256.351	10.58
256.567	65.88
256.784	67.92
257	-38.57
257.217	76.12
257.433	-3.75
257.65	76.12
257.866	100.69
258.082	43.35
258.299	63.83
258.515	-16.04
258.732	39.25
258.948	41.3
259.165	16.73
259.381	-1.71
259.597	80.21
259.814	74.07
260.03	26.96
260.246	14.68
260.463	-24.23
260.679	-16.04
260.895	6.49
261.112	112.98
261.328	16.73
261.544	96.6
261.761	123.22
261.977	84.31
262.193	22.87
262.409	90.45
262.626	121.17
262.842	72.02
263.058	-18.09
263.274	-42.67
263.49	57.68
263.707	22.87
263.923	18.77
264.139	-18.09
264.355	18.77
264.571	104.79
264.787	-36.52
265.004	33.11
265.22	55.64
265.436	6.49
265.652	31.06
265.868	24.92
266.084	14.68
266.3	39.25
266.516	-22.19
266.732	14.68
266.948	0.34
267.164	22.87
267.38	67.92
267.596	106.84
267.812	45.4
268.028	78.16
268.244	74.07
268.46	41.3
268.676	-1.71
268.892	6.49
269.108	-26.28
269.324	4.44
269.54	-7.85
269.756	14.68
269.972	-18.09
270.188	18.77
270.403	6.49
270.619	72.02
270.835	63.83
271.051	51.54
271.267	-5.8
271.483	39.25
271.698	14.68
271.914	41.3
272.13	49.49
272.346	41.3
272.562	14.68
272.777	39.25
272.993	16.73
273.209	-32.43
273.425	41.3
273.64	2.39
273.856	31.06
274.072	84.31
274.287	-3.75
274.503	119.12
274.719	35.16
274.934	-1.71
275.15	72.02
275.366	84.31
275.581	43.35
275.797	31.06
276.012	14.68
276.228	-40.62
276.444	18.77
276.659	100.69
276.875	24.92
277.09	24.92
277.306	-3.75
277.521	31.06
277.737	-9.9
277.952	98.64
278.168	8.53
278.383	57.68
278.599	51.54
278.814	26.96
279.03	31.06
279.245	80.21
279.461	14.68
279.676	55.64
279.892	-9.9
280.107	-24.23
280.322	-34.47
280.538	55.64
280.753	29.01
280.969	10.58
281.184	-7.85
281.399	22.87
281.615	55.64
281.83	22.87
282.045	-77.48
282.26	22.87
282.476	-16.04
282.691	82.26
282.906	59.73
283.122	51.54
283.337	33.11
283.552	26.96
283.767	45.4
283.983	47.44
284.198	26.96
284.413	43.35
284.628	-50.86
284.843	10.58
285.058	65.88
285.274	112.98
285.489	-34.47
285.704	57.68
285.919	147.8
286.134	24.92
286.349	51.54
286.564	2.39
286.779	37.2
286.995	31.06
287.21	29.01
287.425	8.53
287.64	33.11
287.855	96.6
288.07	16.73
288.285	74.07
288.5	112.98
288.715	72.02
288.93	47.44
289.145	-9.9
289.36	59.73
289.575	31.06
289.79	76.12
290.004	65.88
290.219	26.96
290.434	-24.23
290.649	-9.9
290.864	10.58
291.079	8.53
291.294	100.69
291.509	-7.85
291.724	20.82
291.938	35.16
292.153	59.73
292.368	67.92
292.583	47.44
292.798	47.44
293.012	88.4
293.227	-22.19
293.442	0.34
293.657	-1.71
293.871	-1.71
294.086	96.6
294.301	55.64
294.516	72.02
294.73	20.82
294.945	57.68
295.16	51.54
295.374	74.07
295.589	51.54
295.804	43.35
296.018	96.6
296.233	72.02
296.447	67.92
296.662	-24.23
296.877	51.54
297.091	59.73
297.306	-54.95
297.52	43.35
297.735	0.34
297.949	24.92
298.164	49.49
298.378	57.68
298.593	63.83
298.807	14.68
299.022	-24.23
299.236	12.63
299.451	76.12
299.665	74.07
299.88	-50.86
300.094	18.77
300.309	26.96
300.523	55.64
300.737	-7.85
300.952	22.87
301.166	76.12
301.381	-13.99
301.595	35.16
301.809	121.17
302.024	29.01
302.238	-7.85
302.452	18.77
302.667	94.55
302.881	106.84
303.095	47.44
303.309	100.69
303.524	6.49
303.738	22.87
303.952	-24.23
304.166	59.73
304.381	-9.9
304.595	129.36
304.809	4.44
305.023	33.11
305.237	18.77
305.452	24.92
305.666	106.84
305.88	47.44
306.094	67.92
306.308	65.88
306.522	49.49
306.736	80.21
306.95	67.92
307.164	18.77
307.379	24.92
307.593	-46.76
307.807	84.31
308.021	49.49
308.235	12.63
308.449	22.87
308.663	131.41
308.877	53.59
309.091	24.92
309.305	-3.75
309.519	-34.47
309.733	139.6
309.947	20.82
310.161	43.35
310.374	31.06
310.588	-1.71
310.802	24.92
311.016	57.68
311.23	4.44
311.444	-7.85
311.658	-42.67
311.872	-1.71
312.085	65.88
312.299	72.02
312.513	106.84
312.727	80.21
312.941	0.34
313.154	43.35
313.368	67.92
313.582	100.69
313.796	41.3
314.009	-7.85
314.223	84.31
314.437	43.35
314.651	80.21
314.864	80.21
315.078	43.35
315.292	-11.95
315.505	-34.47
315.719	-30.38
315.933	55.64
316.146	2.39
316.36	-46.76
316.573	78.16
316.787	76.12
317.001	76.12
317.214	-34.47
317.428	80.21
317.641	-5.8
317.855	74.07
318.068	33.11
318.282	92.5
318.495	100.69
318.709	63.83
318.922	24.92
319.136	65.88
319.349	90.45
319.563	53.59
319.776	-26.28
319.99	55.64
320.203	112.98
320.417	84.31
320.63	8.53
320.843	10.58
321.057	55.64
321.27	43.35
321.483	63.83
321.697	96.6
321.91	-59.05
322.124	20.82
322.337	51.54
322.55	-11.95
322.763	-13.99
322.977	-7.85
323.19	-42.67
323.403	84.31
323.617	0.34
323.83	106.84
324.043	8.53
324.256	33.11
324.469	-28.33
324.683	63.83
324.896	98.64
325.109	88.4
325.322	20.82
325.535	86.36
325.748	123.22
325.962	-1.71
326.175	14.68
326.388	51.54
326.601	96.6
326.814	69.97
327.027	74.07
327.24	106.84
327.453	-9.9
327.666	131.41
327.879	18.77
328.092	61.78
328.305	84.31
328.518	33.11
328.731	-3.75
328.944	121.17
329.157	63.83
329.37	24.92
329.583	63.83
329.796	104.79
330.009	31.06
330.222	72.02
330.435	49.49
330.648	61.78
330.861	43.35
331.073	61.78
331.286	26.96
331.499	39.25
331.712	57.68
331.925	33.11
332.138	6.49
332.35	112.98
332.563	31.06
332.776	125.27
332.989	47.44
333.202	84.31
333.414	-30.38
333.627	4.44
333.84	-1.71
334.053	16.73
334.265	112.98
334.478	57.68
334.691	2.39
334.903	18.77
335.116	18.77
335.329	47.44
335.541	51.54
335.754	63.83
335.966	65.88
336.179	63.83
336.392	106.84
336.604	8.53
336.817	76.12
337.029	-18.09
337.242	84.31
337.454	22.87
337.667	106.84
337.88	72.02
338.092	63.83
338.305	121.17
338.517	65.88
338.729	74.07
338.942	65.88
339.154	39.25
339.367	-1.71
339.579	-18.09
339.792	22.87
340.004	55.64
340.217	12.63
340.429	45.4
340.641	-32.43
340.854	72.02
341.066	61.78
341.278	72.02
341.491	47.44
341.703	-18.09
341.915	55.64
342.128	88.4
342.34	51.54
342.552	49.49
342.764	82.26
342.977	6.49
343.189	67.92
343.401	8.53
343.613	76.12
343.826	57.68
344.038	72.02
344.25	31.06
344.462	31.06
344.674	108.88
344.886	41.3
345.099	72.02
345.311	72.02
345.523	24.92
345.735	-22.19
345.947	63.83
346.159	-50.86
346.371	31.06
346.583	-3.75
346.795	98.64
347.007	-1.71
347.219	14.68
347.431	76.12
347.643	112.98
347.855	29.01
348.067	67.92
348.279	14.68
348.491	8.53
348.703	-22.19
348.915	110.93
349.127	59.73
349.339	41.3
349.551	35.16
349.763	39.25
349.975	94.55
350.187	94.55
350.399	117.08
350.61	41.3
350.822	41.3
351.034	82.26
351.246	22.87
351.458	82.26
351.669	76.12
351.881	145.75
352.093	69.97
352.305	129.36
352.517	57.68
352.728	31.06
352.94	63.83
353.152	24.92
353.363	33.11
353.575	49.49
353.787	39.25
353.999	31.06
354.21	98.64
354.422	-16.04
354.633	-22.19
354.845	22.87
355.057	51.54
355.268	47.44
355.48	49.49
355.692	18.77
355.903	14.68
356.115	104.79
356.326	-1.71
356.538	115.03
356.749	24.92
356.961	6.49
357.172	92.5
357.384	31.06
357.595	59.73
357.807	55.64
358.018	22.87
358.23	51.54
358.441	104.79
358.653	96.6
358.864	-7.85
359.075	88.4
359.287	-9.9
359.498	41.3
359.709	65.88
359.921	41.3
360.132	53.59
360.344	84.31
360.555	65.88
360.766	-22.19
360.977	141.65
361.189	39.25
361.4	112.98
361.611	55.64
361.823	49.49
362.034	63.83
362.245	49.49
362.456	35.16
362.667	4.44
362.879	63.83
363.09	76.12
363.301	76.12
363.512	35.16
363.723	59.73
363.935	76.12
364.146	6.49
364.357	63.83
364.568	65.88
364.779	47.44
364.99	63.83
365.201	-44.71
365.412	49.49
365.623	24.92
365.834	-13.99
366.045	-24.23
366.256	63.83
366.467	65.88
366.678	35.16
366.889	106.84
367.1	31.06
367.311	57.68
367.522	14.68
367.733	37.2
367.944	172.37
368.155	24.92
368.366	33.11
368.577	104.79
368.788	96.6
368.999	82.26
369.209	102.74
369.42	100.69
369.631	96.6
369.842	41.3
370.053	69.97
370.264	51.54
370.474	-32.43
370.685	121.17
370.896	76.12
371.107	69.97
371.317	112.98
371.528	-63.15
371.739	65.88
371.95	22.87
372.16	86.36
372.371	74.07
372.582	63.83
372.792	22.87
373.003	153.94
373.214	65.88
373.424	82.26
373.635	10.58
373.846	63.83
374.056	55.64
374.267	33.11
374.477	-13.99
374.688	22.87
374.898	72.02
375.109	153.94
375.319	88.4
375.53	84.31
375.74	90.45
375.951	96.6
376.161	55.64
376.372	102.74
376.582	88.4
376.793	131.41
377.003	43.35
377.214	166.23
377.424	135.51
377.635	-9.9
377.845	55.64
378.055	168.27
378.266	-48.81
378.476	69.97
378.686	92.5
378.897	35.16
379.107	82.26
379.317	80.21
379.528	55.64
379.738	67.92
379.948	59.73
380.158	57.68
380.369	74.07
380.579	78.16
380.789	22.87
380.999	31.06
381.21	59.73
381.42	65.88
381.63	86.36
381.84	72.02
382.05	82.26
382.261	65.88
382.471	182.61
382.681	57.68
382.891	104.79
383.101	47.44
383.311	6.49
383.521	57.68
383.731	84.31
383.941	49.49
384.151	35.16
384.361	72.02
384.571	74.07
384.781	90.45
384.991	129.36
385.201	125.27
385.411	47.44
385.621	24.92
385.831	100.69
386.041	110.93
386.251	67.92
386.461	65.88
386.671	43.35
386.881	67.92
387.091	47.44
387.301	121.17
387.511	90.45
387.72	117.08
387.93	72.02
388.14	24.92
388.35	-18.09
388.56	129.36
388.769	98.64
388.979	47.44
389.189	88.4
389.399	135.51
389.609	96.6
389.818	43.35
390.028	72.02
390.238	0.34
390.447	6.49
390.657	102.74
390.867	112.98
391.076	72.02
391.286	51.54
391.496	96.6
391.705	-7.85
391.915	100.69
392.125	39.25
392.334	2.39
392.544	90.45
392.753	119.12
392.963	92.5
393.172	16.73
393.382	47.44
393.591	86.36
393.801	59.73
394.01	147.8
394.22	80.21
394.429	10.58
394.639	18.77
394.848	84.31
395.058	26.96
395.267	82.26
395.477	74.07
395.686	57.68
395.895	80.21
396.105	174.42
396.314	117.08
396.524	110.93
396.733	80.21
396.942	43.35
397.152	112.98
397.361	137.56
397.57	117.08
397.78	51.54
397.989	119.12
398.198	172.37
398.407	108.88
398.617	112.98
398.826	96.6
399.035	121.17
399.244	125.27
399.453	65.88
399.663	84.31
399.872	121.17
400.081	10.58
400.29	178.51
400.499	98.64
400.708	33.11
400.917	137.56
401.127	129.36
401.336	104.79
401.545	158.03
401.754	84.31
401.963	125.27
402.172	106.84
402.381	57.68
402.59	115.03
402.799	160.08
403.008	139.6
403.217	158.03
403.426	172.37
403.635	137.56
403.844	139.6
404.053	115.03
404.262	108.88
404.471	176.47
404.68	123.22
404.888	112.98
405.097	123.22
405.306	180.56
405.515	143.7
405.724	153.94
405.933	207.19
406.142	186.71
406.35	198.99
406.559	119.12
406.768	180.56
406.977	278.87
407.185	227.67
407.394	194.9
407.603	180.56
407.812	248.15
408.02	278.87
408.229	291.15
408.438	301.39
408.646	252.24
408.855	201.04
409.064	268.63
409.272	237.91
409.481	350.54
409.69	285.01
409.898	297.3
410.107	330.06
410.315	385.36
410.524	278.87
410.733	407.89
410.941	330.06
411.15	393.55
411.358	352.59
411.567	457.04
411.775	352.59
411.984	350.54
412.192	473.42
412.401	448.85
412.609	438.61
412.818	522.57
413.026	448.85
413.234	512.33
413.443	571.72
413.651	538.96
413.86	598.35
414.068	569.68
414.276	643.4
414.485	624.97
414.693	704.84
414.901	758.09
415.11	784.71
415.318	688.46
415.526	743.75
415.734	829.77
415.943	739.66
416.151	880.97
416.359	817.48
416.567	948.55
416.776	948.55
416.984	956.74
417.192	989.51
417.4	1012.04
417.608	1046.85
417.817	1128.77
418.025	1212.74
418.233	1145.16
418.441	1161.54
418.649	1268.03
418.857	1317.19
419.065	1401.15
419.273	1349.95
419.481	1409.34
419.689	1440.06
419.897	1440.06
420.105	1677.63
420.313	1571.13
420.521	1710.4
420.729	1636.67
420.937	1780.03
421.145	1835.32
421.353	1827.13
421.561	1909.05
421.769	2019.64
421.977	2169.14
422.185	2042.17
422.393	2224.44
422.601	2412.85
422.809	2283.83
423.017	2378.03
423.224	2396.46
423.432	2496.82
423.64	2548.01
423.848	2783.53
424.056	2611.5
424.263	3035.43
424.471	2914.6
424.679	2992.42
424.887	3127.59
425.094	3365.15
425.302	3318.05
425.51	3416.35
425.718	3324.19
425.925	3498.27
426.133	3658.01
426.341	3840.28
426.548	4112.66
426.756	3780.89
426.964	4063.51
427.171	4380.95
427.379	4434.19
427.586	4479.25
427.794	4579.6
428.001	4747.53
428.209	5064.97
428.417	5015.82
428.624	5191.94
428.832	5320.96
429.039	5193.99
429.247	5183.75
429.454	5597.44
429.662	6207.73
429.869	5699.84
430.076	6029.56
430.284	5910.78
430.491	6160.63
430.699	6775.02
430.906	6551.79
431.114	6564.08
431.321	6985.96
431.528	7235.81
431.736	7452.9
431.943	7692.51
432.15	7706.85
432.358	7583.97
432.565	8091.87
432.772	8042.71
432.979	8448.21
433.187	8480.98
433.394	8726.74
433.601	9394.37
433.808	9423.05
434.016	9308.36
434.223	9750.72
434.43	10258.62
434.637	9869.5
434.844	10657.97
435.052	10918.06
435.259	10594.48
435.466	11016.37
435.673	10635.44
435.88	11423.91
436.087	11892.9
436.294	11804.83
436.501	11704.48
436.708	11974.81
436.915	12267.67
437.122	12796.05
437.329	12599.45
437.537	13172.88
437.743	13424.78
437.95	13093.01
438.157	14135.42
438.364	14645.37
438.571	14557.3
438.778	14686.33
438.985	15898.72
439.192	15341.68
439.399	15792.23
439.606	15304.81
439.813	16502.87
440.02	17217.61
440.227	16554.07
440.433	16808.02
440.64	17348.68
440.847	17293.39
441.054	17915.97
441.261	18675.77
441.467	18741.3
441.674	19034.16
441.881	19593.26
442.088	19630.12
442.294	19396.65
442.501	19925.03
442.708	20289.57
442.914	21018.64
443.121	22089.73
443.328	21487.63
443.534	22745.08
443.741	22251.52
443.948	21622.8
444.154	23666.67
444.361	23746.54
444.568	23812.07
444.774	23584.75
444.981	23527.41
445.187	24317.92
445.394	25462.74
445.6	25202.64
445.807	27393.97
446.013	26050.5
446.22	26759.1
446.426	27676.59
446.633	28022.7
446.839	29192.09
447.046	27781.04
447.252	29116.31
447.459	29372.31
447.665	29048.73
447.871	30390.15
448.078	31752.05
448.284	30351.24
448.491	30869.37
448.697	32339.82
448.903	33210.2
449.11	32948.06
449.316	32556.9
449.522	33214.3
449.728	33990.48
449.935	34068.3
450.141	34172.75
450.347	35112.77
450.553	33955.66
450.76	34498.37
450.966	35434.3
451.172	35235.64
451.378	35974.96
451.584	35024.7
451.791	36128.56
451.997	36048.69
452.203	36450.09
452.409	36597.54
452.615	36423.47
452.821	34717.51
453.027	34950.98
453.233	36628.26
453.44	35608.37
453.646	35581.75
453.852	35880.75
454.058	36474.66
454.264	35292.99
454.47	36507.43
454.676	35338.04
454.882	36486.95
455.088	33634.13
455.294	33945.42
455.5	34295.63
455.705	34926.4
455.911	33124.19
456.117	32802.66
456.323	32298.86
456.529	30529.41
456.735	32053.1
456.941	31090.55
457.147	30836.61
457.352	30085
457.558	29503.38
457.764	29745.04
457.97	28757.92
458.176	28426.15
458.381	28348.32
458.587	27207.61
458.793	27189.17
458.999	25530.32
459.204	27484.08
459.41	26656.7
459.616	25167.83
459.821	25163.73
460.027	24874.97
460.233	24500.19
460.438	23261.17
460.644	23668.72
460.85	22376.45
461.055	22212.61
461.261	22114.31
461.466	20414.49
461.672	19675.18
461.878	21336.08
462.083	20072.48
462.289	19499.05
462.494	19406.89
462.7	18339.9
462.905	17928.26
463.111	18599.99
463.316	18397.24
463.522	18278.46
463.727	18507.83
463.932	18165.82
464.138	18276.41
464.343	18169.92
464.549	17678.41
464.754	18280.51
464.959	17862.72
465.165	17737.8
465.37	17266.77
465.575	16668.76
465.781	17311.82
465.986	17309.77
466.191	16722.01
466.397	16552.02
466.602	15751.27
466.807	16132.19
467.012	16177.25
467.218	16480.35
