Data from USB4F104151__254__14-22-41-300.txt Node

Date: Thu Mar 13 14:22:41 EDT 2025
User: louis
Spectrometer: USB4F10415
Trigger mode: 4
Integration Time (sec): 2.000000E-2
Scans to average: 1
Electric dark correction enabled: true
Nonlinearity correction enabled: false
Boxcar width: 0
XAxis mode: Wavelengths
Number of Pixels in Spectrum: 3648
>>>>>Begin Spectral Data<<<<<
178.204	-65.19
178.424	-65.19
178.644	-65.19
178.864	-97.96
179.084	-93.87
179.304	-5.8
179.524	-89.77
179.744	-79.53
179.964	57.68
180.184	49.49
180.404	90.45
180.624	18.77
180.844	18.77
181.064	-40.62
181.283	-36.52
181.503	16.73
181.723	0.34
181.943	-18.09
182.163	76.12
182.383	35.16
182.602	-30.38
182.822	29.01
183.042	29.01
183.262	24.92
183.482	8.53
183.701	16.73
183.921	90.45
184.141	76.12
184.361	61.78
184.58	33.11
184.8	-7.85
185.02	0.34
185.239	8.53
185.459	-16.04
185.679	-18.09
185.898	-11.95
186.118	-38.57
186.338	-30.38
186.557	-7.85
186.777	84.31
186.997	31.06
187.216	26.96
187.436	82.26
187.655	45.4
187.875	16.73
188.095	41.3
188.314	24.92
188.534	94.55
188.753	-1.71
188.973	51.54
189.192	104.79
189.412	43.35
189.631	2.39
189.851	-44.71
190.07	115.03
190.29	41.3
190.509	65.88
190.729	59.73
190.948	90.45
191.168	147.8
191.387	24.92
191.607	-18.09
191.826	76.12
192.045	-30.38
192.265	24.92
192.484	-1.71
192.704	-7.85
192.923	-11.95
193.142	49.49
193.362	-5.8
193.581	37.2
193.8	65.88
194.02	61.78
194.239	82.26
194.458	20.82
194.678	26.96
194.897	26.96
195.116	57.68
195.335	82.26
195.555	-20.14
195.774	74.07
195.993	33.11
196.212	-16.04
196.432	14.68
196.651	49.49
196.87	33.11
197.089	137.56
197.308	-28.33
197.528	18.77
197.747	41.3
197.966	2.39
198.185	16.73
198.404	-22.19
198.623	10.58
198.842	57.68
199.062	57.68
199.281	49.49
199.5	16.73
199.719	41.3
199.938	59.73
200.157	51.54
200.376	24.92
200.595	16.73
200.814	37.2
201.033	37.2
201.252	141.65
201.471	8.53
201.69	0.34
201.909	0.34
202.128	37.2
202.347	33.11
202.566	37.2
202.785	-1.71
203.004	2.39
203.223	51.54
203.442	-20.14
203.661	4.44
203.879	47.44
204.098	57.68
204.317	-22.19
204.536	74.07
204.755	35.16
204.974	63.83
205.193	-13.99
205.411	98.64
205.63	-24.23
205.849	-28.33
206.068	-34.47
206.287	78.16
206.505	74.07
206.724	0.34
206.943	-30.38
207.162	-7.85
207.381	31.06
207.599	82.26
207.818	-16.04
208.037	33.11
208.255	-13.99
208.474	26.96
208.693	65.88
208.911	-52.91
209.13	43.35
209.349	-7.85
209.567	43.35
209.786	41.3
210.005	53.59
210.223	49.49
210.442	-11.95
210.661	-32.43
210.879	49.49
211.098	4.44
211.316	-26.28
211.535	26.96
211.753	-48.81
211.972	33.11
212.191	-32.43
212.409	16.73
212.628	29.01
212.846	0.34
213.065	24.92
213.283	20.82
213.502	110.93
213.72	-5.8
213.938	10.58
214.157	0.34
214.375	84.31
214.594	33.11
214.812	41.3
215.031	43.35
215.249	24.92
215.467	-5.8
215.686	47.44
215.904	29.01
216.122	67.92
216.341	69.97
216.559	8.53
216.778	115.03
216.996	37.2
217.214	49.49
217.432	-16.04
217.651	-22.19
217.869	59.73
218.087	-32.43
218.306	26.96
218.524	65.88
218.742	10.58
218.96	-9.9
219.179	33.11
219.397	98.64
219.615	115.03
219.833	18.77
220.051	67.92
220.27	82.26
220.488	8.53
220.706	29.01
220.924	74.07
221.142	24.92
221.36	16.73
221.578	16.73
221.796	65.88
222.015	33.11
222.233	-40.62
222.451	106.84
222.669	12.63
222.887	65.88
223.105	-32.43
223.323	-3.75
223.541	-36.52
223.759	18.77
223.977	33.11
224.195	131.41
224.413	-7.85
224.631	41.3
224.849	16.73
225.067	80.21
225.285	37.2
225.503	98.64
225.721	-61.1
225.939	53.59
226.157	119.12
226.375	90.45
226.592	-69.29
226.81	-16.04
227.028	49.49
227.246	104.79
227.464	6.49
227.682	57.68
227.9	39.25
228.117	43.35
228.335	18.77
228.553	47.44
228.771	24.92
228.989	8.53
229.206	-7.85
229.424	-7.85
229.642	-16.04
229.86	-9.9
230.077	37.2
230.295	117.08
230.513	29.01
230.731	-11.95
230.948	-5.8
231.166	49.49
231.384	69.97
231.601	33.11
231.819	59.73
232.037	37.2
232.254	0.34
232.472	16.73
232.689	0.34
232.907	67.92
233.125	51.54
233.342	67.92
233.56	-30.38
233.777	2.39
233.995	49.49
234.213	86.36
234.43	2.39
234.648	10.58
234.865	35.16
235.083	76.12
235.3	-3.75
235.518	24.92
235.735	98.64
235.953	-16.04
236.17	12.63
236.388	-13.99
236.605	78.16
236.822	155.99
237.04	78.16
237.257	-28.33
237.475	-28.33
237.692	-7.85
237.909	0.34
238.127	41.3
238.344	41.3
238.562	-7.85
238.779	-63.15
238.996	26.96
239.214	63.83
239.431	65.88
239.648	-63.15
239.865	-36.52
240.083	37.2
240.3	43.35
240.517	16.73
240.735	33.11
240.952	57.68
241.169	84.31
241.386	43.35
241.603	43.35
241.821	4.44
242.038	98.64
242.255	8.53
242.472	29.01
242.689	49.49
242.907	-42.67
243.124	8.53
243.341	45.4
243.558	49.49
243.775	-24.23
243.992	-30.38
244.209	37.2
244.426	74.07
244.643	35.16
244.86	74.07
245.078	-7.85
245.295	8.53
245.512	74.07
245.729	41.3
245.946	2.39
246.163	74.07
246.38	39.25
246.597	-7.85
246.814	-73.39
247.031	10.58
247.248	-5.8
247.464	-18.09
247.681	82.26
247.898	129.36
248.115	90.45
248.332	-16.04
248.549	43.35
248.766	53.59
248.983	10.58
249.2	61.78
249.417	82.26
249.633	4.44
249.85	41.3
250.067	-9.9
250.284	45.4
250.501	63.83
250.717	-13.99
250.934	51.54
251.151	57.68
251.368	33.11
251.585	51.54
251.801	14.68
252.018	-16.04
252.235	2.39
252.451	61.78
252.668	41.3
252.885	65.88
253.102	49.49
253.318	29.01
253.535	-24.23
253.752	33.11
253.968	20.82
254.185	-26.28
254.401	0.34
254.618	108.88
254.835	-38.57
255.051	117.08
255.268	16.73
255.484	12.63
255.701	2.39
255.917	45.4
256.134	49.49
256.351	65.88
256.567	-20.14
256.784	-11.95
257	-71.34
257.217	10.58
257.433	12.63
257.65	-7.85
257.866	59.73
258.082	24.92
258.299	26.96
258.515	33.11
258.732	-7.85
258.948	117.08
259.165	-32.43
259.381	24.92
259.597	4.44
259.814	86.36
260.03	6.49
260.246	16.73
260.463	37.2
260.679	55.64
260.895	49.49
261.112	90.45
261.328	4.44
261.544	49.49
261.761	76.12
261.977	69.97
262.193	-61.1
262.409	-26.28
262.626	0.34
262.842	4.44
263.058	16.73
263.274	22.87
263.49	59.73
263.707	45.4
263.923	49.49
264.139	-13.99
264.355	49.49
264.571	-13.99
264.787	94.55
265.004	51.54
265.22	35.16
265.436	39.25
265.652	63.83
265.868	102.74
266.084	29.01
266.3	84.31
266.516	-3.75
266.732	69.97
266.948	-34.47
267.164	67.92
267.38	57.68
267.596	0.34
267.812	59.73
268.028	82.26
268.244	-13.99
268.46	33.11
268.676	33.11
268.892	51.54
269.108	-11.95
269.324	-11.95
269.54	33.11
269.756	57.68
269.972	-34.47
270.188	49.49
270.403	20.82
270.619	45.4
270.835	20.82
271.051	69.97
271.267	16.73
271.483	-3.75
271.698	72.02
271.914	33.11
272.13	20.82
272.346	18.77
272.562	49.49
272.777	78.16
272.993	24.92
273.209	-24.23
273.425	-3.75
273.64	51.54
273.856	65.88
274.072	43.35
274.287	-32.43
274.503	43.35
274.719	90.45
274.934	69.97
275.15	43.35
275.366	43.35
275.581	22.87
275.797	10.58
276.012	-7.85
276.228	-3.75
276.444	-40.62
276.659	69.97
276.875	14.68
277.09	24.92
277.306	-38.57
277.521	51.54
277.737	10.58
277.952	-46.76
278.168	49.49
278.383	-13.99
278.599	24.92
278.814	-5.8
279.03	-22.19
279.245	82.26
279.461	10.58
279.676	51.54
279.892	-16.04
280.107	-7.85
280.322	-48.81
280.538	61.78
280.753	26.96
280.969	-3.75
281.184	-11.95
281.399	33.11
281.615	55.64
281.83	110.93
282.045	33.11
282.26	-32.43
282.476	35.16
282.691	57.68
282.906	90.45
283.122	8.53
283.337	24.92
283.552	82.26
283.767	33.11
283.983	49.49
284.198	41.3
284.413	67.92
284.628	2.39
284.843	102.74
285.058	-5.8
285.274	57.68
285.489	-46.76
285.704	57.68
285.919	84.31
286.134	51.54
286.349	-40.62
286.564	59.73
286.779	67.92
286.995	33.11
287.21	-42.67
287.425	24.92
287.64	29.01
287.855	-36.52
288.07	8.53
288.285	59.73
288.5	39.25
288.715	51.54
288.93	16.73
289.145	4.44
289.36	-36.52
289.575	2.39
289.79	18.77
290.004	35.16
290.219	10.58
290.434	74.07
290.649	-46.76
290.864	57.68
291.079	65.88
291.294	10.58
291.509	76.12
291.724	31.06
291.938	61.78
292.153	-57
292.368	33.11
292.583	74.07
292.798	61.78
293.012	74.07
293.227	2.39
293.442	65.88
293.657	26.96
293.871	80.21
294.086	-5.8
294.301	59.73
294.516	29.01
294.73	63.83
294.945	-9.9
295.16	43.35
295.374	100.69
295.589	47.44
295.804	12.63
296.018	43.35
296.233	84.31
296.447	86.36
296.662	78.16
296.877	76.12
297.091	72.02
297.306	14.68
297.52	8.53
297.735	90.45
297.949	98.64
298.164	39.25
298.378	-3.75
298.593	26.96
298.807	-30.38
299.022	31.06
299.236	20.82
299.451	33.11
299.665	26.96
299.88	24.92
300.094	22.87
300.309	33.11
300.523	8.53
300.737	18.77
300.952	16.73
301.166	57.68
301.381	-77.48
301.595	-3.75
301.809	-13.99
302.024	14.68
302.238	-28.33
302.452	86.36
302.667	8.53
302.881	100.69
303.095	74.07
303.309	6.49
303.524	20.82
303.738	8.53
303.952	20.82
304.166	86.36
304.381	10.58
304.595	82.26
304.809	74.07
305.023	4.44
305.237	24.92
305.452	-11.95
305.666	2.39
305.88	14.68
306.094	-24.23
306.308	47.44
306.522	67.92
306.736	43.35
306.95	92.5
307.164	37.2
307.379	59.73
307.593	69.97
307.807	8.53
308.021	-5.8
308.235	51.54
308.449	24.92
308.663	82.26
308.877	90.45
309.091	-22.19
309.305	37.2
309.519	-24.23
309.733	65.88
309.947	-18.09
310.161	49.49
310.374	67.92
310.588	53.59
310.802	-38.57
311.016	-13.99
311.23	24.92
311.444	-1.71
311.658	6.49
311.872	51.54
312.085	29.01
312.299	35.16
312.513	18.77
312.727	20.82
312.941	-20.14
313.154	43.35
313.368	-24.23
313.582	51.54
313.796	49.49
314.009	51.54
314.223	115.03
314.437	110.93
314.651	39.25
314.864	51.54
315.078	45.4
315.292	12.63
315.505	-22.19
315.719	-9.9
315.933	61.78
316.146	53.59
316.36	51.54
316.573	65.88
316.787	4.44
317.001	82.26
317.214	41.3
317.428	-5.8
317.641	-22.19
317.855	-16.04
318.068	10.58
318.282	24.92
318.495	53.59
318.709	4.44
318.922	78.16
319.136	78.16
319.349	-36.52
319.563	-5.8
319.776	-22.19
319.99	59.73
320.203	-85.67
320.417	96.6
320.63	74.07
320.843	74.07
321.057	41.3
321.27	39.25
321.483	-48.81
321.697	45.4
321.91	104.79
322.124	76.12
322.337	112.98
322.55	29.01
322.763	16.73
322.977	-5.8
323.19	18.77
323.403	33.11
323.617	69.97
323.83	16.73
324.043	22.87
324.256	-16.04
324.469	6.49
324.683	86.36
324.896	33.11
325.109	-3.75
325.322	-5.8
325.535	76.12
325.748	104.79
325.962	100.69
326.175	-11.95
326.388	10.58
326.601	35.16
326.814	31.06
327.027	16.73
327.24	84.31
327.453	16.73
327.666	90.45
327.879	88.4
328.092	18.77
328.305	65.88
328.518	6.49
328.731	-5.8
328.944	57.68
329.157	22.87
329.37	8.53
329.583	106.84
329.796	84.31
330.009	-30.38
330.222	65.88
330.435	69.97
330.648	33.11
330.861	37.2
331.073	-7.85
331.286	102.74
331.499	47.44
331.712	0.34
331.925	4.44
332.138	55.64
332.35	115.03
332.563	-7.85
332.776	102.74
332.989	-34.47
333.202	57.68
333.414	-26.28
333.627	74.07
333.84	8.53
334.053	-22.19
334.265	-13.99
334.478	-13.99
334.691	69.97
334.903	82.26
335.116	49.49
335.329	24.92
335.541	24.92
335.754	69.97
335.966	-5.8
336.179	90.45
336.392	-24.23
336.604	16.73
336.817	24.92
337.029	108.88
337.242	22.87
337.454	35.16
337.667	0.34
337.88	63.83
338.092	59.73
338.305	29.01
338.517	-5.8
338.729	33.11
338.942	55.64
339.154	16.73
339.367	53.59
339.579	-38.57
339.792	35.16
340.004	57.68
340.217	22.87
340.429	2.39
340.641	-30.38
340.854	-3.75
341.066	49.49
341.278	74.07
341.491	-16.04
341.703	65.88
341.915	35.16
342.128	26.96
342.34	-59.05
342.552	-11.95
342.764	0.34
342.977	43.35
343.189	18.77
343.401	59.73
343.613	-9.9
343.826	14.68
344.038	106.84
344.25	41.3
344.462	74.07
344.674	74.07
344.886	8.53
345.099	29.01
345.311	43.35
345.523	10.58
345.735	59.73
345.947	104.79
346.159	0.34
346.371	20.82
346.583	57.68
346.795	26.96
347.007	39.25
347.219	18.77
347.431	33.11
347.643	22.87
347.855	12.63
348.067	41.3
348.279	37.2
348.491	76.12
348.703	88.4
348.915	53.59
349.127	-42.67
349.339	26.96
349.551	35.16
349.763	74.07
349.975	-24.23
350.187	90.45
350.399	57.68
350.61	74.07
350.822	84.31
351.034	49.49
351.246	31.06
351.458	37.2
351.669	57.68
351.881	57.68
352.093	61.78
352.305	67.92
352.517	-57
352.728	72.02
352.94	45.4
353.152	84.31
353.363	37.2
353.575	90.45
353.787	65.88
353.999	47.44
354.21	37.2
354.422	39.25
354.633	-11.95
354.845	31.06
355.057	18.77
355.268	26.96
355.48	106.84
355.692	0.34
355.903	-9.9
356.115	106.84
356.326	-48.81
356.538	129.36
356.749	2.39
356.961	92.5
357.172	-30.38
357.384	0.34
357.595	84.31
357.807	115.03
358.018	82.26
358.23	37.2
358.441	53.59
358.653	88.4
358.864	106.84
359.075	2.39
359.287	26.96
359.498	49.49
359.709	35.16
359.921	-24.23
360.132	74.07
360.344	78.16
360.555	92.5
360.766	86.36
360.977	-22.19
361.189	8.53
361.4	-11.95
361.611	24.92
361.823	35.16
362.034	39.25
362.245	-16.04
362.456	41.3
362.667	115.03
362.879	74.07
363.09	112.98
363.301	-5.8
363.512	-16.04
363.723	-3.75
363.935	84.31
364.146	86.36
364.357	-28.33
364.568	76.12
364.779	29.01
364.99	123.22
365.201	45.4
365.412	37.2
365.623	39.25
365.834	4.44
366.045	76.12
366.256	127.32
366.467	67.92
366.678	-5.8
366.889	0.34
367.1	2.39
367.311	45.4
367.522	41.3
367.733	29.01
367.944	98.64
368.155	26.96
368.366	123.22
368.577	16.73
368.788	117.08
368.999	-5.8
369.209	33.11
369.42	112.98
369.631	135.51
369.842	84.31
370.053	49.49
370.264	26.96
370.474	22.87
370.685	2.39
370.896	8.53
371.107	86.36
371.317	74.07
371.528	41.3
371.739	41.3
371.95	49.49
372.16	90.45
372.371	35.16
372.582	-13.99
372.792	41.3
373.003	-16.04
373.214	96.6
373.424	-9.9
373.635	22.87
373.846	76.12
374.056	6.49
374.267	117.08
374.477	-20.14
374.688	49.49
374.898	72.02
375.109	76.12
375.319	24.92
375.53	72.02
375.74	65.88
375.951	16.73
376.161	47.44
376.372	-3.75
376.582	2.39
376.793	123.22
377.003	20.82
377.214	-44.71
377.424	16.73
377.635	45.4
377.845	18.77
378.055	88.4
378.266	57.68
378.476	-13.99
378.686	18.77
378.897	110.93
379.107	22.87
379.317	74.07
379.528	94.55
379.738	37.2
379.948	0.34
380.158	20.82
380.369	94.55
380.579	8.53
380.789	8.53
380.999	69.97
381.21	137.56
381.42	129.36
381.63	51.54
381.84	98.64
382.05	98.64
382.261	86.36
382.471	59.73
382.681	84.31
382.891	41.3
383.101	39.25
383.311	-40.62
383.521	33.11
383.731	33.11
383.941	86.36
384.151	10.58
384.361	37.2
384.571	98.64
384.781	10.58
384.991	72.02
385.201	16.73
385.411	65.88
385.621	78.16
385.831	16.73
386.041	49.49
386.251	37.2
386.461	72.02
386.671	98.64
386.881	51.54
387.091	49.49
387.301	41.3
387.511	45.4
387.72	108.88
387.93	49.49
388.14	8.53
388.35	53.59
388.56	69.97
388.769	22.87
388.979	98.64
389.189	51.54
389.399	16.73
389.609	82.26
389.818	106.84
390.028	41.3
390.238	12.63
390.447	102.74
390.657	2.39
390.867	41.3
391.076	-16.04
391.286	74.07
391.496	0.34
391.705	61.78
391.915	98.64
392.125	74.07
392.334	49.49
392.544	106.84
392.753	39.25
392.963	117.08
393.172	39.25
393.382	-24.23
393.591	-16.04
393.801	110.93
394.01	145.75
394.22	41.3
394.429	98.64
394.639	84.31
394.848	108.88
395.058	55.64
395.267	-20.14
395.477	106.84
395.686	69.97
395.895	51.54
396.105	53.59
396.314	29.01
396.524	78.16
396.733	-11.95
396.942	139.6
397.152	53.59
397.361	110.93
397.57	41.3
397.78	147.8
397.989	49.49
398.198	117.08
398.407	119.12
398.617	127.32
398.826	108.88
399.035	18.77
399.244	98.64
399.453	76.12
399.663	108.88
399.872	78.16
400.081	33.11
400.29	155.99
400.499	106.84
400.708	131.41
400.917	155.99
401.127	33.11
401.336	0.34
401.545	155.99
401.754	147.8
401.963	39.25
402.172	20.82
402.381	49.49
402.59	133.46
402.799	74.07
403.008	119.12
403.217	129.36
403.426	76.12
403.635	108.88
403.844	94.55
404.053	90.45
404.262	115.03
404.471	158.03
404.68	158.03
404.888	127.32
405.097	125.27
405.306	119.12
405.515	174.42
405.724	188.75
405.933	158.03
406.142	90.45
406.35	180.56
406.559	65.88
406.768	131.41
406.977	229.71
407.185	217.43
407.394	151.89
407.603	115.03
407.812	141.65
408.02	192.85
408.229	221.52
408.438	172.37
408.646	166.23
408.855	168.27
409.064	239.95
409.272	168.27
409.481	231.76
409.69	215.38
409.898	192.85
410.107	215.38
410.315	221.52
410.524	311.63
410.733	330.06
410.941	223.57
411.15	246.1
411.358	256.34
411.567	254.29
411.775	311.63
411.984	313.68
412.192	299.34
412.401	289.1
412.609	432.46
412.818	389.46
413.026	393.55
413.234	348.5
413.443	328.02
413.651	414.03
413.86	371.02
414.068	418.13
414.276	454.99
414.485	385.36
414.693	512.33
414.901	483.66
415.11	508.24
415.318	541.01
415.526	512.33
415.734	639.31
415.943	547.15
416.151	657.74
416.359	541.01
416.567	627.02
416.776	667.98
416.984	692.55
417.192	680.27
417.4	747.85
417.608	733.51
417.817	764.23
418.025	883.02
418.233	803.15
418.441	745.8
418.649	936.26
418.857	938.31
419.065	864.58
419.273	1007.94
419.481	938.31
419.689	1083.72
419.897	1098.05
420.105	1012.04
420.313	1130.82
420.521	1188.16
420.729	1255.75
420.937	1186.12
421.145	1286.47
421.353	1319.23
421.561	1333.57
421.769	1425.73
421.977	1380.67
422.185	1421.63
422.393	1573.18
422.601	1622.33
422.809	1706.3
423.017	1534.27
423.224	1671.48
423.432	1765.69
423.64	1827.13
423.848	1841.47
424.056	1990.97
424.263	2044.21
424.471	2056.5
424.679	2087.22
424.887	2222.39
425.094	2226.48
425.302	2351.41
425.51	2332.98
425.718	2365.75
425.925	2500.91
426.133	2429.23
426.341	2693.42
426.548	2769.2
426.756	2720.04
426.964	2871.59
427.171	3008.81
427.379	3109.16
427.586	2969.9
427.794	3146.02
428.001	3297.57
428.209	3535.14
428.417	3385.63
428.624	3645.73
428.832	3572
429.039	3655.97
429.247	3717.4
429.454	3967.26
429.662	4223.25
429.869	3965.21
430.076	4112.66
430.284	4186.39
430.491	4380.95
430.699	4704.53
430.906	4526.35
431.114	4518.16
431.321	4727.05
431.528	4827.4
431.736	5224.71
431.943	5409.03
432.15	5325.06
432.358	5187.85
432.565	5640.45
432.772	5619.97
432.979	5906.68
433.187	5955.83
433.394	5998.84
433.601	6490.35
433.808	6359.28
434.016	6308.09
434.223	6607.09
434.43	7035.11
434.637	6963.44
434.844	7348.45
435.052	7344.36
435.259	7510.24
435.466	7528.67
435.673	7356.65
435.88	7956.7
436.087	8192.22
436.294	8298.71
436.501	8038.62
436.708	8372.44
436.915	8614.1
437.122	8954.06
437.329	8681.68
437.537	9060.56
437.743	9353.41
437.95	9167.05
438.157	9857.21
438.364	10002.62
438.571	10137.79
438.778	10166.46
438.985	11032.75
439.192	10752.18
439.399	10766.51
439.606	10815.66
439.813	11528.36
440.02	11813.03
440.227	11813.03
440.433	11485.35
440.64	11915.42
440.847	11919.52
441.054	12239
441.261	12828.82
441.467	12744.85
441.674	12992.66
441.881	13729.92
442.088	13408.39
442.294	13271.18
442.501	13607.05
442.708	14135.42
442.914	14508.15
443.121	15159.41
443.328	14723.19
443.534	15872.1
443.741	15415.4
443.948	15054.96
444.154	16205.92
444.361	16105.57
444.568	16146.53
444.774	16291.93
444.981	16404.57
445.187	16762.97
445.394	17551.43
445.6	17322.06
445.807	18870.33
446.013	18073.67
446.22	18563.13
446.426	19234.86
446.633	19619.88
446.839	20293.66
447.046	19120.18
447.252	20240.42
447.459	20391.97
447.665	20193.31
447.871	21190.67
448.078	22091.78
448.284	20803.61
448.491	21538.83
448.697	22241.28
448.903	22884.34
449.11	23107.57
449.316	22794.23
449.522	22824.95
449.728	23877.61
449.935	23820.27
450.141	23742.44
450.347	23967.72
450.553	23502.83
450.76	23707.63
450.966	24410.08
451.172	24027.11
451.378	24807.39
451.584	24293.35
451.791	24975.32
451.997	24913.88
452.203	25417.68
452.409	25262.04
452.615	25352.15
452.821	24467.42
453.027	23850.99
453.233	25393.11
453.44	24311.78
453.646	24752.09
453.852	25059.29
454.058	25278.42
454.264	24297.44
454.47	24932.31
454.676	24227.81
454.882	25063.38
455.088	23171.06
455.294	23179.25
455.5	23586.8
455.705	23988.2
455.911	22804.47
456.117	22681.6
456.323	22509.57
456.529	21248.02
456.735	22134.79
456.941	21575.69
457.147	21223.44
457.352	20467.74
457.558	20236.32
457.764	20406.3
457.97	19965.99
458.176	19585.07
458.381	19456.04
458.587	18755.64
458.793	18643
458.999	17557.58
459.204	19005.49
459.41	18378.81
459.616	17254.48
459.821	17272.91
460.027	16957.52
460.233	16918.61
460.438	16234.59
460.644	16152.67
460.85	15302.76
461.055	15439.98
461.261	15210.61
461.466	14030.98
461.672	13805.7
461.878	14647.41
462.083	13772.93
462.289	13478.02
462.494	13166.73
462.7	12730.52
462.905	12296.35
463.111	13013.13
463.316	12877.97
463.522	12279.96
463.727	12599.45
463.932	12437.66
464.138	12359.83
464.343	12517.53
464.549	12028.06
464.754	12501.14
464.959	12306.59
465.165	12386.46
465.37	11792.55
465.575	11225.26
465.781	11847.84
465.986	11913.38
466.191	11753.63
466.397	11301.03
466.602	10774.7
466.807	11178.15
467.012	11264.17
467.218	10987.69
467.423	10989.74
467.628	11073.71
467.833	11409.58
468.038	10875.06
