Data from USB4F104151__201__14-20-32-346.txt Node

Date: Thu Mar 13 14:20:32 EDT 2025
User: louis
Spectrometer: USB4F10415
Trigger mode: 4
Integration Time (sec): 2.000000E-2
Scans to average: 1
Electric dark correction enabled: true
Nonlinearity correction enabled: false
Boxcar width: 0
XAxis mode: Wavelengths
Number of Pixels in Spectrum: 3648
>>>>>Begin Spectral Data<<<<<
178.204	-99.16
178.424	-99.16
178.644	-99.16
178.864	-129.88
179.084	-84.82
179.304	-31.57
179.524	-15.19
179.744	42.15
179.964	38.06
180.184	-11.09
180.404	-23.38
180.624	-52.05
180.844	-25.43
181.064	-21.33
181.283	50.35
181.503	-9.05
181.723	58.54
181.943	-45.91
182.163	38.06
182.383	29.87
182.602	52.39
182.822	107.69
183.042	42.15
183.262	48.3
183.482	42.15
183.701	-47.96
183.921	-41.81
184.141	-37.72
184.361	-9.05
184.58	1.19
184.8	-7
185.02	68.78
185.239	25.77
185.459	31.91
185.679	-31.57
185.898	-39.76
186.118	95.4
186.338	81.07
186.557	95.4
186.777	-80.72
186.997	-56.15
187.216	52.39
187.436	54.44
187.655	19.63
187.875	-31.57
188.095	-60.24
188.314	-7
188.534	87.21
188.753	52.39
188.973	66.73
189.192	13.48
189.412	-64.34
189.631	-0.85
189.851	-35.67
190.07	52.39
190.29	-35.67
190.509	42.15
190.729	-31.57
190.948	-27.48
191.168	115.88
191.387	1.19
191.607	60.59
191.826	66.73
192.045	-47.96
192.265	9.39
192.484	48.3
192.704	25.77
192.923	9.39
193.142	40.11
193.362	27.82
193.581	29.87
193.8	72.87
194.02	50.35
194.239	60.59
194.458	60.59
194.678	9.39
194.897	-15.19
195.116	-39.76
195.335	46.25
195.555	46.25
195.774	50.35
195.993	-2.9
196.212	21.67
196.432	1.19
196.651	-23.38
196.87	3.24
197.089	50.35
197.308	-19.29
197.528	76.97
197.747	-31.57
197.966	-0.85
198.185	33.96
198.404	-4.95
198.623	38.06
198.842	-4.95
199.062	-19.29
199.281	105.64
199.5	-15.19
199.719	-37.72
199.938	-13.14
200.157	52.39
200.376	33.96
200.595	-54.1
200.814	33.96
201.033	56.49
201.252	74.92
201.471	-0.85
201.69	52.39
201.909	56.49
202.128	81.07
202.347	25.77
202.566	-13.14
202.785	27.82
203.004	21.67
203.223	70.83
203.442	113.83
203.661	81.07
203.879	17.58
204.098	-27.48
204.317	36.01
204.536	17.58
204.755	5.29
204.974	87.21
205.193	66.73
205.411	9.39
205.63	-7
205.849	-56.15
206.068	-68.44
206.287	27.82
206.505	58.54
206.724	27.82
206.943	-7
207.162	66.73
207.381	13.48
207.599	33.96
207.818	54.44
208.037	-45.91
208.255	-11.09
208.474	27.82
208.693	58.54
208.911	46.25
209.13	-9.05
209.349	-7
209.567	-4.95
209.786	9.39
210.005	5.29
210.223	50.35
210.442	-31.57
210.661	9.39
210.879	-54.1
211.098	7.34
211.316	25.77
211.535	66.73
211.753	79.02
211.972	-4.95
212.191	1.19
212.409	-11.09
212.628	44.2
212.846	-72.53
213.065	36.01
213.283	72.87
213.502	-31.57
213.72	31.91
213.938	-21.33
214.157	-39.76
214.375	17.58
214.594	5.29
214.812	44.2
215.031	54.44
215.249	-25.43
215.467	33.96
215.686	-84.82
215.904	-7
216.122	33.96
216.341	29.87
216.559	58.54
216.778	70.83
216.996	38.06
217.214	9.39
217.432	17.58
217.651	48.3
217.869	-33.62
218.087	62.63
218.306	25.77
218.524	23.72
218.742	5.29
218.96	44.2
219.179	-2.9
219.397	-47.96
219.615	31.91
219.833	25.77
220.051	13.48
220.27	-7
220.488	-21.33
220.706	66.73
220.924	85.16
221.142	-37.72
221.36	52.39
221.578	33.96
221.796	-13.14
222.015	5.29
222.233	48.3
222.451	9.39
222.669	-29.52
222.887	23.72
223.105	-9.05
223.323	-54.1
223.541	-15.19
223.759	60.59
223.977	-4.95
224.195	15.53
224.413	33.96
224.631	58.54
224.849	33.96
225.067	-4.95
225.285	44.2
225.503	-29.52
225.721	-25.43
225.939	27.82
226.157	13.48
226.375	58.54
226.592	21.67
226.81	7.34
227.028	-21.33
227.246	91.31
227.464	79.02
227.682	70.83
227.9	58.54
228.117	11.43
228.335	25.77
228.553	76.97
228.771	-31.57
228.989	25.77
229.206	21.67
229.424	66.73
229.642	54.44
229.86	-62.29
230.077	-2.9
230.295	33.96
230.513	-23.38
230.731	60.59
230.948	9.39
231.166	-23.38
231.384	9.39
231.601	29.87
231.819	115.88
232.037	9.39
232.254	52.39
232.472	42.15
232.689	-25.43
232.907	42.15
233.125	11.43
233.342	-4.95
233.56	-54.1
233.777	1.19
233.995	-19.29
234.213	64.68
234.43	-15.19
234.648	36.01
234.865	33.96
235.083	-21.33
235.3	115.88
235.518	109.74
235.735	-37.72
235.953	56.49
236.17	-0.85
236.388	99.5
236.605	-84.82
236.822	58.54
237.04	38.06
237.257	-19.29
237.475	-13.14
237.692	-2.9
237.909	46.25
238.127	21.67
238.344	-7
238.562	3.24
238.779	66.73
238.996	48.3
239.214	-47.96
239.431	-11.09
239.648	11.43
239.865	15.53
240.083	-15.19
240.3	-23.38
240.517	-50
240.735	27.82
240.952	66.73
241.169	9.39
241.386	21.67
241.603	3.24
241.821	52.39
242.038	27.82
242.255	1.19
242.472	-23.38
242.689	42.15
242.907	13.48
243.124	13.48
243.341	72.87
243.558	-25.43
243.775	46.25
243.992	-17.24
244.209	3.24
244.426	40.11
244.643	36.01
244.86	1.19
245.078	68.78
245.295	74.92
245.512	62.63
245.729	17.58
245.946	1.19
246.163	3.24
246.38	50.35
246.597	50.35
246.814	9.39
247.031	21.67
247.248	81.07
247.464	-21.33
247.681	76.97
247.898	117.93
248.115	44.2
248.332	-11.09
248.549	60.59
248.766	48.3
248.983	19.63
249.2	27.82
249.417	81.07
249.633	46.25
249.85	58.54
250.067	-54.1
250.284	56.49
250.501	79.02
250.717	50.35
250.934	-4.95
251.151	76.97
251.368	-72.53
251.585	111.78
251.801	33.96
252.018	42.15
252.235	42.15
252.451	-0.85
252.668	-23.38
252.885	66.73
253.102	-19.29
253.318	27.82
253.535	-56.15
253.752	-4.95
253.968	52.39
254.185	-80.72
254.401	27.82
254.618	99.5
254.835	42.15
255.051	62.63
255.268	58.54
255.484	87.21
255.701	46.25
255.917	72.87
256.134	-13.14
256.351	33.96
256.567	1.19
256.784	50.35
257	-37.72
257.217	1.19
257.433	52.39
257.65	-11.09
257.866	-0.85
258.082	58.54
258.299	25.77
258.515	68.78
258.732	-2.9
258.948	17.58
259.165	13.48
259.381	36.01
259.597	-11.09
259.814	83.11
260.03	-23.38
260.246	-45.91
260.463	-0.85
260.679	62.63
260.895	17.58
261.112	60.59
261.328	33.96
261.544	17.58
261.761	81.07
261.977	-23.38
262.193	-15.19
262.409	-31.57
262.626	60.59
262.842	7.34
263.058	33.96
263.274	58.54
263.49	99.5
263.707	40.11
263.923	-39.76
264.139	48.3
264.355	-52.05
264.571	33.96
264.787	1.19
265.004	36.01
265.22	48.3
265.436	11.43
265.652	93.35
265.868	99.5
266.084	17.58
266.3	7.34
266.516	-52.05
266.732	25.77
266.948	1.19
267.164	91.31
267.38	33.96
267.596	44.2
267.812	23.72
268.028	-11.09
268.244	15.53
268.46	17.58
268.676	-25.43
268.892	54.44
269.108	3.24
269.324	-25.43
269.54	1.19
269.756	-23.38
269.972	-15.19
270.188	36.01
270.403	-54.1
270.619	36.01
270.835	-9.05
271.051	52.39
271.267	27.82
271.483	-58.2
271.698	33.96
271.914	5.29
272.13	7.34
272.346	-7
272.562	11.43
272.777	40.11
272.993	52.39
273.209	11.43
273.425	33.96
273.64	11.43
273.856	44.2
274.072	29.87
274.287	-29.52
274.503	33.96
274.719	52.39
274.934	29.87
275.15	-4.95
275.366	60.59
275.581	-13.14
275.797	58.54
276.012	38.06
276.228	19.63
276.444	38.06
276.659	74.92
276.875	44.2
277.09	3.24
277.306	33.96
277.521	83.11
277.737	-19.29
277.952	25.77
278.168	-99.16
278.383	83.11
278.599	-78.68
278.814	-39.76
279.03	44.2
279.245	60.59
279.461	1.19
279.676	107.69
279.892	25.77
280.107	-11.09
280.322	11.43
280.538	11.43
280.753	60.59
280.969	-4.95
281.184	-23.38
281.399	33.96
281.615	27.82
281.83	93.35
282.045	85.16
282.26	44.2
282.476	-2.9
282.691	36.01
282.906	25.77
283.122	17.58
283.337	13.48
283.552	36.01
283.767	-45.91
283.983	25.77
284.198	56.49
284.413	29.87
284.628	107.69
284.843	42.15
285.058	13.48
285.274	85.16
285.489	13.48
285.704	-15.19
285.919	13.48
286.134	-33.62
286.349	13.48
286.564	-80.72
286.779	83.11
286.995	9.39
287.21	-25.43
287.425	-31.57
287.64	7.34
287.855	66.73
288.07	19.63
288.285	11.43
288.5	62.63
288.715	31.91
288.93	-11.09
289.145	7.34
289.36	-62.29
289.575	60.59
289.79	50.35
290.004	-41.81
290.219	-4.95
290.434	74.92
290.649	19.63
290.864	66.73
291.079	29.87
291.294	19.63
291.509	56.49
291.724	36.01
291.938	-15.19
292.153	29.87
292.368	66.73
292.583	25.77
292.798	9.39
293.012	21.67
293.227	54.44
293.442	1.19
293.657	19.63
293.871	68.78
294.086	3.24
294.301	21.67
294.516	25.77
294.73	58.54
294.945	42.15
295.16	99.5
295.374	42.15
295.589	107.69
295.804	76.97
296.018	44.2
296.233	-9.05
296.447	25.77
296.662	-47.96
296.877	38.06
297.091	13.48
297.306	1.19
297.52	-56.15
297.735	-7
297.949	17.58
298.164	17.58
298.378	17.58
298.593	29.87
298.807	62.63
299.022	17.58
299.236	91.31
299.451	91.31
299.665	15.53
299.88	44.2
300.094	-19.29
300.309	25.77
300.523	-47.96
300.737	50.35
300.952	5.29
301.166	21.67
301.381	40.11
301.595	13.48
301.809	17.58
302.024	-43.86
302.238	19.63
302.452	1.19
302.667	27.82
302.881	17.58
303.095	29.87
303.309	9.39
303.524	40.11
303.738	-37.72
303.952	1.19
304.166	52.39
304.381	-31.57
304.595	68.78
304.809	33.96
305.023	50.35
305.237	36.01
305.452	-72.53
305.666	79.02
305.88	17.58
306.094	38.06
306.308	9.39
306.522	36.01
306.736	5.29
306.95	36.01
307.164	60.59
307.379	-45.91
307.593	62.63
307.807	33.96
308.021	52.39
308.235	-23.38
308.449	-29.52
308.663	38.06
308.877	42.15
309.091	66.73
309.305	17.58
309.519	-45.91
309.733	74.92
309.947	-7
310.161	144.55
310.374	-62.29
310.588	27.82
310.802	40.11
311.016	72.87
311.23	48.3
311.444	27.82
311.658	-15.19
311.872	-4.95
312.085	58.54
312.299	9.39
312.513	36.01
312.727	29.87
312.941	-47.96
313.154	89.26
313.368	-86.87
313.582	-15.19
313.796	-11.09
314.009	25.77
314.223	138.41
314.437	21.67
314.651	52.39
314.864	-0.85
315.078	54.44
315.292	-4.95
315.505	42.15
315.719	27.82
315.933	58.54
316.146	58.54
316.36	54.44
316.573	85.16
316.787	19.63
317.001	3.24
317.214	46.25
317.428	13.48
317.641	-80.72
317.855	-31.57
318.068	11.43
318.282	50.35
318.495	1.19
318.709	74.92
318.922	-50
319.136	81.07
319.349	15.53
319.563	-7
319.776	25.77
319.99	-0.85
320.203	79.02
320.417	13.48
320.63	50.35
320.843	79.02
321.057	19.63
321.27	1.19
321.483	11.43
321.697	66.73
321.91	42.15
322.124	83.11
322.337	38.06
322.55	-21.33
322.763	-17.24
322.977	79.02
323.19	11.43
323.403	27.82
323.617	-2.9
323.83	95.4
324.043	21.67
324.256	9.39
324.469	13.48
324.683	13.48
324.896	1.19
325.109	42.15
325.322	13.48
325.535	85.16
325.748	62.63
325.962	54.44
326.175	21.67
326.388	21.67
326.601	33.96
326.814	56.49
327.027	-4.95
327.24	76.97
327.453	13.48
327.666	46.25
327.879	62.63
328.092	-23.38
328.305	58.54
328.518	25.77
328.731	5.29
328.944	91.31
329.157	48.3
329.37	64.68
329.583	33.96
329.796	17.58
330.009	-56.15
330.222	79.02
330.435	52.39
330.648	66.73
330.861	99.5
331.073	9.39
331.286	56.49
331.499	46.25
331.712	-31.57
331.925	-21.33
332.138	21.67
332.35	85.16
332.563	29.87
332.776	89.26
332.989	27.82
333.202	27.82
333.414	1.19
333.627	27.82
333.84	52.39
334.053	38.06
334.265	-15.19
334.478	56.49
334.691	11.43
334.903	33.96
335.116	70.83
335.329	-13.14
335.541	60.59
335.754	95.4
335.966	-11.09
336.179	66.73
336.392	-47.96
336.604	109.74
336.817	38.06
337.029	74.92
337.242	15.53
337.454	122.02
337.667	79.02
337.88	68.78
338.092	21.67
338.305	42.15
338.517	48.3
338.729	60.59
338.942	13.48
339.154	58.54
339.367	-2.9
339.579	93.35
339.792	-21.33
340.004	58.54
340.217	38.06
340.429	91.31
340.641	5.29
340.854	50.35
341.066	-15.19
341.278	58.54
341.491	54.44
341.703	68.78
341.915	17.58
342.128	134.31
342.34	-11.09
342.552	1.19
342.764	33.96
342.977	42.15
343.189	-7
343.401	66.73
343.613	5.29
343.826	-39.76
344.038	-4.95
344.25	72.87
344.462	-29.52
344.674	54.44
344.886	60.59
345.099	-17.24
345.311	97.45
345.523	58.54
345.735	50.35
345.947	-31.57
346.159	13.48
346.371	33.96
346.583	21.67
346.795	99.5
347.007	33.96
347.219	58.54
347.431	13.48
347.643	44.2
347.855	27.82
348.067	87.21
348.279	52.39
348.491	9.39
348.703	29.87
348.915	83.11
349.127	9.39
349.339	128.17
349.551	42.15
349.763	17.58
349.975	46.25
350.187	83.11
350.399	66.73
350.61	50.35
350.822	-11.09
351.034	58.54
351.246	83.11
351.458	40.11
351.669	-4.95
351.881	27.82
352.093	79.02
352.305	44.2
352.517	13.48
352.728	93.35
352.94	52.39
353.152	66.73
353.363	9.39
353.575	29.87
353.787	54.44
353.999	42.15
354.21	-11.09
354.422	3.24
354.633	21.67
354.845	66.73
355.057	50.35
355.268	169.13
355.48	-2.9
355.692	76.97
355.903	3.24
356.115	42.15
356.326	-39.76
356.538	107.69
356.749	50.35
356.961	76.97
357.172	38.06
357.384	50.35
357.595	87.21
357.807	58.54
358.018	11.43
358.23	17.58
358.441	93.35
358.653	17.58
358.864	27.82
359.075	-0.85
359.287	46.25
359.498	38.06
359.709	19.63
359.921	79.02
360.132	36.01
360.344	62.63
360.555	36.01
360.766	70.83
360.977	27.82
361.189	68.78
361.4	81.07
361.611	40.11
361.823	42.15
362.034	83.11
362.245	44.2
362.456	95.4
362.667	83.11
362.879	29.87
363.09	103.59
363.301	31.91
363.512	36.01
363.723	54.44
363.935	89.26
364.146	23.72
364.357	17.58
364.568	89.26
364.779	1.19
364.99	148.65
365.201	17.58
365.412	60.59
365.623	-7
365.834	68.78
366.045	11.43
366.256	-23.38
366.467	19.63
366.678	1.19
366.889	56.49
367.1	62.63
367.311	70.83
367.522	68.78
367.733	64.68
367.944	19.63
368.155	17.58
368.366	36.01
368.577	66.73
368.788	36.01
368.999	19.63
369.209	46.25
369.42	58.54
369.631	56.49
369.842	56.49
370.053	132.26
370.264	99.5
370.474	76.97
370.685	15.53
370.896	11.43
371.107	-50
371.317	74.92
371.528	25.77
371.739	50.35
371.95	7.34
372.16	128.17
372.371	3.24
372.582	58.54
372.792	46.25
373.003	70.83
373.214	42.15
373.424	25.77
373.635	-66.39
373.846	91.31
374.056	11.43
374.267	5.29
374.477	83.11
374.688	115.88
374.898	107.69
375.109	-39.76
375.319	17.58
375.53	56.49
375.74	85.16
375.951	62.63
376.161	72.87
376.372	38.06
376.582	134.31
376.793	107.69
377.003	-29.52
377.214	25.77
377.424	95.4
377.635	21.67
377.845	58.54
378.055	46.25
378.266	81.07
378.476	23.72
378.686	56.49
378.897	115.88
379.107	19.63
379.317	68.78
379.528	-4.95
379.738	68.78
379.948	40.11
380.158	54.44
380.369	83.11
380.579	5.29
380.789	54.44
380.999	25.77
381.21	83.11
381.42	68.78
381.63	60.59
381.84	54.44
382.05	42.15
382.261	85.16
382.471	44.2
382.681	40.11
382.891	103.59
383.101	91.31
383.311	91.31
383.521	21.67
383.731	-21.33
383.941	44.2
384.151	31.91
384.361	42.15
384.571	33.96
384.781	85.16
384.991	89.26
385.201	132.26
385.411	31.91
385.621	31.91
385.831	-0.85
386.041	60.59
386.251	42.15
386.461	79.02
386.671	103.59
386.881	105.64
387.091	44.2
387.301	11.43
387.511	42.15
387.72	38.06
387.93	99.5
388.14	-11.09
388.35	68.78
388.56	91.31
388.769	42.15
388.979	33.96
389.189	38.06
389.399	9.39
389.609	160.94
389.818	66.73
390.028	95.4
390.238	101.55
390.447	25.77
390.657	40.11
390.867	76.97
391.076	101.55
391.286	83.11
391.496	19.63
391.705	21.67
391.915	111.78
392.125	58.54
392.334	99.5
392.544	97.45
392.753	-19.29
392.963	79.02
393.172	66.73
393.382	60.59
393.591	62.63
393.801	99.5
394.01	85.16
394.22	142.5
394.429	76.97
394.639	91.31
394.848	132.26
395.058	-2.9
395.267	62.63
395.477	117.93
395.686	101.55
395.895	138.41
396.105	187.56
396.314	-31.57
396.524	74.92
396.733	93.35
396.942	142.5
397.152	58.54
397.361	177.32
397.57	156.84
397.78	115.88
397.989	109.74
398.198	197.8
398.407	83.11
398.617	132.26
398.826	60.59
399.035	177.32
399.244	91.31
399.453	119.98
399.663	95.4
399.872	68.78
400.081	103.59
400.29	181.42
400.499	46.25
400.708	150.7
400.917	115.88
401.127	165.03
401.336	173.22
401.545	156.84
401.754	83.11
401.963	109.74
402.172	64.68
402.381	66.73
402.59	165.03
402.799	140.46
403.008	154.79
403.217	132.26
403.426	154.79
403.635	124.07
403.844	162.98
404.053	146.6
404.262	197.8
404.471	285.86
404.68	173.22
404.888	232.62
405.097	124.07
405.306	148.65
405.515	249
405.724	199.85
405.933	197.8
406.142	246.95
406.35	208.04
406.559	218.28
406.768	158.89
406.977	275.62
407.185	287.91
407.394	242.85
407.603	232.62
407.812	255.14
408.02	287.91
408.229	296.1
408.438	257.19
408.646	292.01
408.855	339.11
409.064	365.73
409.272	353.45
409.481	412.84
409.69	365.73
409.898	320.68
410.107	410.79
410.315	335.01
410.524	382.12
410.733	451.75
410.941	427.17
411.15	451.75
411.358	464.04
411.567	490.66
411.775	504.99
411.984	533.67
412.192	611.49
412.401	591.01
412.609	584.87
412.818	715.94
413.026	615.59
413.234	634.02
413.443	619.68
413.651	674.98
413.86	715.94
414.068	699.55
414.276	861.34
414.485	746.66
414.693	838.81
414.901	865.44
415.11	930.97
415.318	842.91
415.526	904.35
415.734	951.45
415.943	1057.95
416.151	1041.56
416.359	1039.51
416.567	1123.48
416.776	1197.21
416.984	1184.92
417.192	1410.2
417.4	1250.46
417.608	1334.42
417.817	1291.41
418.025	1434.77
418.233	1494.16
418.441	1492.12
418.649	1582.23
418.857	1688.72
419.065	1674.39
419.273	1690.77
419.481	1746.06
419.689	1868.94
419.897	1932.43
420.105	1993.87
420.313	2008.2
420.521	2178.19
420.729	1950.86
420.937	2282.63
421.145	2352.26
421.353	2354.31
421.561	2532.48
421.769	2616.45
421.977	2741.38
422.185	2632.83
422.393	2839.68
422.601	2909.31
422.809	3001.47
423.017	2933.89
423.224	3191.93
423.432	3288.18
423.64	3337.34
423.848	3583.09
424.056	3466.36
424.263	3665.01
424.471	3697.78
424.679	3927.15
424.887	3961.97
425.094	4078.7
425.302	4146.28
425.51	4162.67
425.718	4326.5
425.925	4531.3
426.133	4539.49
426.341	4877.41
426.548	5098.59
426.756	5223.51
426.964	5319.77
427.171	5502.04
427.379	5669.97
427.586	5682.26
427.794	6155.34
428.001	6034.51
428.209	6480.97
428.417	6378.57
428.624	6753.35
428.832	6704.2
429.039	6800.45
429.247	6786.12
429.454	7341.11
429.662	7996.46
429.869	7357.5
430.076	7853.11
430.284	7640.12
430.491	8113.2
430.699	8438.83
430.906	8414.25
431.114	8733.73
431.321	8899.62
431.528	8997.92
431.736	9548.82
431.943	10052.63
432.15	10013.71
432.358	9735.19
432.565	10546.19
432.772	10327.05
432.979	10961.92
433.187	11131.9
433.394	11430.91
433.601	11660.28
433.808	11856.89
434.016	11840.5
434.223	12184.56
434.43	12993.51
434.637	12719.08
434.844	13638.62
435.052	13689.82
435.259	13579.23
435.466	14052.31
435.673	13458.4
435.88	14576.59
436.087	15633.34
436.294	15418.3
436.501	15190.98
436.708	15432.64
436.915	15633.34
437.122	16505.77
437.329	16413.62
437.537	16847.79
437.743	17107.88
437.95	17120.17
438.157	18324.37
438.364	18781.07
438.571	18617.23
438.778	18903.95
438.985	20523.89
439.192	19520.38
439.399	20376.44
439.606	19846.01
439.813	20898.67
440.02	22268.76
440.227	21648.22
440.433	21322.6
440.64	22244.18
440.847	22111.07
441.054	22930.25
441.261	24134.46
441.467	23696.19
441.674	24326.97
441.881	25049.9
442.088	25281.32
442.294	24859.44
442.501	25426.73
442.708	26051.36
442.914	27169.55
443.121	28185.34
443.328	27421.45
443.534	29440.75
443.741	28609.27
443.948	28308.22
444.154	30057.18
444.361	30208.73
444.568	30153.44
444.774	30163.68
444.981	30395.1
445.187	31154.9
445.394	32764.6
445.6	32025.28
445.807	35570.32
446.013	33677.99
446.22	34372.25
446.426	35725.96
446.633	36037.25
446.839	37278.32
447.046	35818.12
447.252	37372.53
447.459	37593.71
447.665	37333.62
447.871	39125.59
448.078	41013.82
448.284	39201.36
448.491	39922.25
448.697	41622.06
448.903	42193.45
449.11	42179.11
449.316	41538.1
449.522	42379.81
449.728	43008.54
449.935	43659.79
450.141	43477.52
450.347	44890.62
450.553	43268.63
450.76	43751.95
450.966	45382.13
451.172	44907.01
451.378	46049.77
451.584	45330.93
451.791	45496.82
451.997	45758.96
452.203	46567.91
452.409	46746.08
452.615	46619.11
452.821	44489.22
453.027	44161.54
453.233	46582.24
453.44	44935.68
453.646	45273.59
453.852	45928.94
454.058	46385.64
454.264	44798.46
454.47	46363.11
454.676	44499.46
454.882	45990.38
455.088	42285.61
455.294	42861.08
455.5	43553.3
455.705	43670.03
455.911	42105.38
456.117	41386.55
456.323	40796.73
456.529	38724.19
456.735	40677.95
456.941	39217.75
457.147	38967.9
457.352	37685.87
457.558	37606
457.764	37245.55
457.97	36573.82
458.176	35666.57
458.381	35887.75
458.587	34382.49
458.793	34441.89
458.999	32854.71
459.204	34966.17
459.41	33634.99
459.616	31627.98
459.821	31861.44
460.027	31374.03
460.233	30737.11
460.438	29600.49
460.644	29788.9
460.85	28482.3
461.055	27972.35
461.261	28019.46
461.466	25467.69
461.672	25021.23
461.878	27077.39
462.083	24841.01
462.289	24851.25
462.494	24740.66
462.7	23118.67
462.905	22799.18
463.111	23380.81
463.316	23663.43
463.522	22913.87
463.727	22883.15
463.932	22723.41
464.138	22688.59
464.343	22727.5
464.549	22102.87
464.754	22938.44
464.959	22707.02
465.165	22647.63
465.37	21693.28
465.575	20990.83
465.781	21924.7
465.986	21982.04
466.191	21105.51
466.397	20734.83
466.602	19649.41
466.807	20783.98
467.012	20476.79
467.218	20394.87
467.423	20218.74
