Data from USB4F104151__86__14-17-50-844.txt Node

Date: Thu Mar 13 14:17:50 EDT 2025
User: louis
Spectrometer: USB4F10415
Trigger mode: 4
Integration Time (sec): 2.000000E-2
Scans to average: 1
Electric dark correction enabled: true
Nonlinearity correction enabled: false
Boxcar width: 0
XAxis mode: Wavelengths
Number of Pixels in Spectrum: 3648
>>>>>Begin Spectral Data<<<<<
178.204	-104.28
178.424	-104.28
178.644	-104.28
178.864	-124.76
179.084	-141.14
179.304	-83.8
179.524	-36.69
179.744	-40.79
179.964	16.55
180.184	22.7
180.404	57.51
180.624	6.31
180.844	32.94
181.064	-18.26
181.283	22.7
181.503	-22.36
181.723	43.18
181.943	-83.8
182.163	8.36
182.383	59.56
182.602	37.03
182.822	37.03
183.042	37.03
183.262	-14.17
183.482	32.94
183.701	84.14
183.921	8.36
184.141	39.08
184.361	18.6
184.58	28.84
184.8	18.6
185.02	92.33
185.239	32.94
185.459	37.03
185.679	65.71
185.898	-1.88
186.118	24.75
186.338	47.27
186.557	14.51
186.777	-30.55
186.997	-38.74
187.216	14.51
187.436	77.99
187.655	57.51
187.875	51.37
188.095	49.32
188.314	55.47
188.534	32.94
188.753	14.51
188.973	6.31
189.192	114.86
189.412	110.76
189.631	65.71
189.851	8.36
190.07	39.08
190.29	-51.03
190.509	6.31
190.729	-1.88
190.948	104.62
191.168	125.1
191.387	39.08
191.607	2.22
191.826	-14.17
192.045	-85.84
192.265	-18.26
192.484	-28.5
192.704	63.66
192.923	0.17
193.142	129.19
193.362	41.13
193.581	41.13
193.8	-16.21
194.02	2.22
194.239	4.27
194.458	20.65
194.678	6.31
194.897	118.95
195.116	22.7
195.335	14.51
195.555	-12.12
195.774	2.22
195.993	-16.21
196.212	57.51
196.432	104.62
196.651	-10.07
196.87	10.41
197.089	43.18
197.308	22.7
197.528	24.75
197.747	-18.26
197.966	-8.02
198.185	41.13
198.404	43.18
198.623	32.94
198.842	63.66
199.062	49.32
199.281	-3.93
199.5	22.7
199.719	22.7
199.938	49.32
200.157	65.71
200.376	104.62
200.595	47.27
200.814	-5.97
201.033	32.94
201.252	32.94
201.471	-51.03
201.69	73.9
201.909	43.18
202.128	51.37
202.347	49.32
202.566	24.75
202.785	37.03
203.004	22.7
203.223	94.38
203.442	6.31
203.661	12.46
203.879	-16.21
204.098	96.43
204.317	-12.12
204.536	32.94
204.755	41.13
204.974	-5.97
205.193	14.51
205.411	-1.88
205.63	-67.41
205.849	-36.69
206.068	-14.17
206.287	-8.02
206.505	30.89
206.724	6.31
206.943	-46.93
207.162	24.75
207.381	18.6
207.599	0.17
207.818	-18.26
208.037	-75.6
208.255	6.31
208.474	6.31
208.693	92.33
208.911	55.47
209.13	12.46
209.349	-30.55
209.567	112.81
209.786	84.14
210.005	43.18
210.223	57.51
210.442	14.51
210.661	55.47
210.879	24.75
211.098	8.36
211.316	-10.07
211.535	-18.26
211.753	-51.03
211.972	-3.93
212.191	49.32
212.409	16.55
212.628	-53.08
212.846	-16.21
213.065	47.27
213.283	22.7
213.502	37.03
213.72	-16.21
213.938	22.7
214.157	24.75
214.375	39.08
214.594	-36.69
214.812	16.55
215.031	14.51
215.249	61.61
215.467	-51.03
215.686	22.7
215.904	18.6
216.122	-18.26
216.341	65.71
216.559	-18.26
216.778	22.7
216.996	22.7
217.214	-14.17
217.432	6.31
217.651	-26.45
217.869	-16.21
218.087	39.08
218.306	28.84
218.524	0.17
218.742	-8.02
218.96	22.7
219.179	12.46
219.397	-14.17
219.615	39.08
219.833	55.47
220.051	14.51
220.27	0.17
220.488	88.23
220.706	43.18
220.924	16.55
221.142	-5.97
221.36	2.22
221.578	-1.88
221.796	-26.45
222.015	39.08
222.233	8.36
222.451	96.43
222.669	49.32
222.887	67.75
223.105	-18.26
223.323	-26.45
223.541	-1.88
223.759	80.04
223.977	37.03
224.195	135.34
224.413	-8.02
224.631	73.9
224.849	75.95
225.067	129.19
225.285	18.6
225.503	-30.55
225.721	-55.12
225.939	6.31
226.157	-10.07
226.375	106.67
226.592	-53.08
226.81	-8.02
227.028	63.66
227.246	55.47
227.464	10.41
227.682	100.52
227.9	-18.26
228.117	39.08
228.335	14.51
228.553	22.7
228.771	6.31
228.989	32.94
229.206	14.51
229.424	-24.4
229.642	-10.07
229.86	-73.56
230.077	90.28
230.295	43.18
230.513	63.66
230.731	-18.26
230.948	92.33
231.166	63.66
231.384	80.04
231.601	55.47
231.819	80.04
232.037	14.51
232.254	22.7
232.472	65.71
232.689	-14.17
232.907	2.22
233.125	-10.07
233.342	-38.74
233.56	57.51
233.777	-57.17
233.995	32.94
234.213	108.71
234.43	-3.93
234.648	30.89
234.865	-79.7
235.083	-1.88
235.3	30.89
235.518	-42.84
235.735	45.23
235.953	75.95
236.17	65.71
236.388	39.08
236.605	0.17
236.822	55.47
237.04	71.85
237.257	-36.69
237.475	39.08
237.692	22.7
237.909	28.84
238.127	55.47
238.344	55.47
238.562	-10.07
238.779	43.18
238.996	10.41
239.214	-3.93
239.431	37.03
239.648	-28.5
239.865	-18.26
240.083	-14.17
240.3	51.37
240.517	-106.32
240.735	8.36
240.952	55.47
241.169	88.23
241.386	-10.07
241.603	10.41
241.821	-16.21
242.038	65.71
242.255	47.27
242.472	-75.6
242.689	30.89
242.907	30.89
243.124	-8.02
243.341	47.27
243.558	14.51
243.775	-26.45
243.992	-40.79
244.209	30.89
244.426	73.9
244.643	39.08
244.86	4.27
245.078	16.55
245.295	-59.22
245.512	-22.36
245.729	-42.84
245.946	30.89
246.163	-63.32
246.38	34.99
246.597	-48.98
246.814	37.03
247.031	88.23
247.248	-1.88
247.464	55.47
247.681	16.55
247.898	6.31
248.115	-40.79
248.332	34.99
248.549	-18.26
248.766	47.27
248.983	63.66
249.2	-24.4
249.417	16.55
249.633	-14.17
249.85	84.14
250.067	24.75
250.284	-34.64
250.501	22.7
250.717	59.56
250.934	-53.08
251.151	10.41
251.368	-5.97
251.585	24.75
251.801	55.47
252.018	-36.69
252.235	63.66
252.451	-22.36
252.668	-1.88
252.885	20.65
253.102	63.66
253.318	30.89
253.535	-38.74
253.752	0.17
253.968	2.22
254.185	22.7
254.401	-22.36
254.618	-16.21
254.835	22.7
255.051	6.31
255.268	-28.5
255.484	77.99
255.701	-57.17
255.917	65.71
256.134	43.18
256.351	-32.6
256.567	2.22
256.784	57.51
257	47.27
257.217	47.27
257.433	112.81
257.65	0.17
257.866	26.79
258.082	51.37
258.299	-51.03
258.515	-1.88
258.732	47.27
258.948	8.36
259.165	10.41
259.381	0.17
259.597	65.71
259.814	47.27
260.03	-24.4
260.246	16.55
260.463	-24.4
260.679	71.85
260.895	84.14
261.112	90.28
261.328	-22.36
261.544	20.65
261.761	22.7
261.977	-51.03
262.193	-67.41
262.409	45.23
262.626	41.13
262.842	-14.17
263.058	30.89
263.274	47.27
263.49	24.75
263.707	-40.79
263.923	-22.36
264.139	8.36
264.355	69.8
264.571	37.03
264.787	-26.45
265.004	-1.88
265.22	30.89
265.436	51.37
265.652	41.13
265.868	39.08
266.084	4.27
266.3	24.75
266.516	-61.27
266.732	6.31
266.948	-10.07
267.164	28.84
267.38	69.8
267.596	6.31
267.812	69.8
268.028	-36.69
268.244	67.75
268.46	24.75
268.676	114.86
268.892	55.47
269.108	-44.88
269.324	-18.26
269.54	-16.21
269.756	49.32
269.972	6.31
270.188	-44.88
270.403	14.51
270.619	57.51
270.835	24.75
271.051	84.14
271.267	2.22
271.483	24.75
271.698	22.7
271.914	65.71
272.13	10.41
272.346	-18.26
272.562	39.08
272.777	53.42
272.993	-51.03
273.209	-18.26
273.425	-18.26
273.64	55.47
273.856	53.42
274.072	14.51
274.287	2.22
274.503	75.95
274.719	0.17
274.934	-42.84
275.15	43.18
275.366	41.13
275.581	-34.64
275.797	6.31
276.012	34.99
276.228	-32.6
276.444	8.36
276.659	73.9
276.875	18.6
277.09	10.41
277.306	-3.93
277.521	65.71
277.737	34.99
277.952	104.62
278.168	-24.4
278.383	47.27
278.599	14.51
278.814	98.47
279.03	47.27
279.245	71.85
279.461	18.6
279.676	16.55
279.892	-18.26
280.107	8.36
280.322	-3.93
280.538	47.27
280.753	59.56
280.969	-5.97
281.184	45.23
281.399	-5.97
281.615	-1.88
281.83	37.03
282.045	0.17
282.26	26.79
282.476	0.17
282.691	59.56
282.906	71.85
283.122	-20.31
283.337	47.27
283.552	-8.02
283.767	47.27
283.983	67.75
284.198	32.94
284.413	51.37
284.628	-46.93
284.843	47.27
285.058	18.6
285.274	-14.17
285.489	-79.7
285.704	57.51
285.919	-65.36
286.134	-44.88
286.349	14.51
286.564	80.04
286.779	82.09
286.995	71.85
287.21	10.41
287.425	24.75
287.64	16.55
287.855	20.65
288.07	71.85
288.285	112.81
288.5	-3.93
288.715	121
288.93	0.17
289.145	-26.45
289.36	71.85
289.575	37.03
289.79	18.6
290.004	-16.21
290.219	-63.32
290.434	14.51
290.649	53.42
290.864	2.22
291.079	-26.45
291.294	32.94
291.509	-16.21
291.724	24.75
291.938	18.6
292.153	28.84
292.368	-10.07
292.583	10.41
292.798	84.14
293.012	12.46
293.227	6.31
293.442	-8.02
293.657	8.36
293.871	61.61
294.086	6.31
294.301	51.37
294.516	-14.17
294.73	-8.02
294.945	39.08
295.16	45.23
295.374	32.94
295.589	6.31
295.804	73.9
296.018	28.84
296.233	32.94
296.447	57.51
296.662	-5.97
296.877	47.27
297.091	32.94
297.306	67.75
297.52	-5.97
297.735	63.66
297.949	39.08
298.164	-10.07
298.378	41.13
298.593	-55.12
298.807	-8.02
299.022	-26.45
299.236	39.08
299.451	-1.88
299.665	-57.17
299.88	-10.07
300.094	57.51
300.309	30.89
300.523	26.79
300.737	57.51
300.952	-1.88
301.166	-79.7
301.381	-75.6
301.595	61.61
301.809	80.04
302.024	-55.12
302.238	-42.84
302.452	-22.36
302.667	4.27
302.881	55.47
303.095	8.36
303.309	24.75
303.524	14.51
303.738	71.85
303.952	43.18
304.166	90.28
304.381	-46.93
304.595	57.51
304.809	2.22
305.023	-3.93
305.237	32.94
305.452	18.6
305.666	41.13
305.88	65.71
306.094	39.08
306.308	63.66
306.522	98.47
306.736	8.36
306.95	39.08
307.164	63.66
307.379	26.79
307.593	32.94
307.807	20.65
308.021	8.36
308.235	32.94
308.449	39.08
308.663	45.23
308.877	88.23
309.091	-24.4
309.305	67.75
309.519	-53.08
309.733	10.41
309.947	71.85
310.161	14.51
310.374	16.55
310.588	55.47
310.802	-8.02
311.016	47.27
311.23	-38.74
311.444	55.47
311.658	-8.02
311.872	73.9
312.085	90.28
312.299	63.66
312.513	-40.79
312.727	-71.51
312.941	-18.26
313.154	51.37
313.368	41.13
313.582	28.84
313.796	-57.17
314.009	39.08
314.223	55.47
314.437	0.17
314.651	47.27
314.864	43.18
315.078	-26.45
315.292	-1.88
315.505	10.41
315.719	28.84
315.933	12.46
316.146	73.9
316.36	-24.4
316.573	-51.03
316.787	63.66
317.001	20.65
317.214	-10.07
317.428	10.41
317.641	-34.64
317.855	-10.07
318.068	43.18
318.282	-10.07
318.495	55.47
318.709	57.51
318.922	-3.93
319.136	73.9
319.349	18.6
319.563	-12.12
319.776	57.51
319.99	-22.36
320.203	57.51
320.417	16.55
320.63	34.99
320.843	14.51
321.057	16.55
321.27	30.89
321.483	55.47
321.697	14.51
321.91	69.8
322.124	0.17
322.337	-16.21
322.55	-8.02
322.763	30.89
322.977	16.55
323.19	2.22
323.403	96.43
323.617	2.22
323.83	49.32
324.043	43.18
324.256	67.75
324.469	-3.93
324.683	20.65
324.896	39.08
325.109	-24.4
325.322	-57.17
325.535	10.41
325.748	39.08
325.962	100.52
326.175	82.09
326.388	67.75
326.601	-24.4
326.814	-63.32
327.027	41.13
327.24	22.7
327.453	-10.07
327.666	55.47
327.879	108.71
328.092	8.36
328.305	65.71
328.518	14.51
328.731	65.71
328.944	8.36
329.157	32.94
329.37	-5.97
329.583	14.51
329.796	157.86
330.009	39.08
330.222	39.08
330.435	71.85
330.648	12.46
330.861	-8.02
331.073	94.38
331.286	88.23
331.499	28.84
331.712	-18.26
331.925	84.14
332.138	65.71
332.35	84.14
332.563	18.6
332.776	55.47
332.989	-1.88
333.202	59.56
333.414	16.55
333.627	49.32
333.84	24.75
334.053	-10.07
334.265	47.27
334.478	-10.07
334.691	73.9
334.903	41.13
335.116	-38.74
335.329	0.17
335.541	-1.88
335.754	18.6
335.966	-10.07
336.179	-42.84
336.392	32.94
336.604	43.18
336.817	55.47
337.029	22.7
337.242	16.55
337.454	16.55
337.667	-26.45
337.88	84.14
338.092	-8.02
338.305	18.6
338.517	-10.07
338.729	39.08
338.942	30.89
339.154	55.47
339.367	10.41
339.579	-20.31
339.792	-42.84
340.004	88.23
340.217	-10.07
340.429	86.19
340.641	24.75
340.854	80.04
341.066	-10.07
341.278	-16.21
341.491	88.23
341.703	37.03
341.915	-3.93
342.128	32.94
342.34	63.66
342.552	-46.93
342.764	-32.6
342.977	30.89
343.189	61.61
343.401	22.7
343.613	45.23
343.826	2.22
344.038	61.61
344.25	71.85
344.462	-59.22
344.674	161.96
344.886	14.51
345.099	108.71
345.311	-1.88
345.523	-8.02
345.735	-46.93
345.947	6.31
346.159	30.89
346.371	24.75
346.583	77.99
346.795	92.33
347.007	75.95
347.219	10.41
347.431	18.6
347.643	114.86
347.855	2.22
348.067	67.75
348.279	2.22
348.491	47.27
348.703	71.85
348.915	4.27
349.127	41.13
349.339	39.08
349.551	30.89
349.763	47.27
349.975	39.08
350.187	133.29
350.399	30.89
350.61	96.43
350.822	-18.26
351.034	63.66
351.246	18.6
351.458	98.47
351.669	57.51
351.881	-16.21
352.093	129.19
352.305	67.75
352.517	37.03
352.728	51.37
352.94	6.31
353.152	22.7
353.363	55.47
353.575	65.71
353.787	110.76
353.999	69.8
354.21	-22.36
354.422	30.89
354.633	2.22
354.845	73.9
355.057	28.84
355.268	18.6
355.48	84.14
355.692	-75.6
355.903	-83.8
356.115	49.32
356.326	-30.55
356.538	141.48
356.749	-10.07
356.961	149.67
357.172	75.95
357.384	55.47
357.595	63.66
357.807	6.31
358.018	55.47
358.23	55.47
358.441	121
358.653	63.66
358.864	-18.26
359.075	71.85
359.287	71.85
359.498	39.08
359.709	28.84
359.921	61.61
360.132	-5.97
360.344	45.23
360.555	-18.26
360.766	137.38
360.977	-5.97
361.189	104.62
361.4	10.41
361.611	94.38
361.823	118.95
362.034	43.18
362.245	8.36
362.456	34.99
362.667	104.62
362.879	4.27
363.09	110.76
363.301	37.03
363.512	47.27
363.723	10.41
363.935	-3.93
364.146	63.66
364.357	8.36
364.568	37.03
364.779	-16.21
364.99	112.81
365.201	16.55
365.412	47.27
365.623	24.75
365.834	34.99
366.045	47.27
366.256	24.75
366.467	63.66
366.678	-48.98
366.889	14.51
367.1	30.89
367.311	-8.02
367.522	-46.93
367.733	75.95
367.944	24.75
368.155	18.6
368.366	106.67
368.577	73.9
368.788	161.96
368.999	16.55
369.209	30.89
369.42	75.95
369.631	133.29
369.842	26.79
370.053	28.84
370.264	47.27
370.474	6.31
370.685	59.56
370.896	49.32
371.107	137.38
371.317	0.17
371.528	57.51
371.739	92.33
371.95	24.75
372.16	82.09
372.371	-1.88
372.582	65.71
372.792	-1.88
373.003	98.47
373.214	-30.55
373.424	-32.6
373.635	55.47
373.846	28.84
374.056	28.84
374.267	51.37
374.477	34.99
374.688	24.75
374.898	39.08
375.109	-12.12
375.319	59.56
375.53	53.42
375.74	55.47
375.951	-3.93
376.161	90.28
376.372	6.31
376.582	24.75
376.793	-40.79
377.003	86.19
377.214	26.79
377.424	2.22
377.635	73.9
377.845	41.13
378.055	88.23
378.266	59.56
378.476	22.7
378.686	69.8
378.897	92.33
379.107	41.13
379.317	14.51
379.528	71.85
379.738	80.04
379.948	-18.26
380.158	41.13
380.369	63.66
380.579	49.32
380.789	-48.98
380.999	51.37
381.21	86.19
381.42	80.04
381.63	-34.64
381.84	57.51
382.05	47.27
382.261	114.86
382.471	63.66
382.681	63.66
382.891	49.32
383.101	98.47
383.311	0.17
383.521	49.32
383.731	59.56
383.941	49.32
384.151	8.36
384.361	-8.02
384.571	30.89
384.781	39.08
384.991	92.33
385.201	30.89
385.411	8.36
385.621	51.37
385.831	-32.6
386.041	10.41
386.251	0.17
386.461	110.76
386.671	14.51
386.881	67.75
387.091	90.28
387.301	53.42
387.511	32.94
387.72	112.81
387.93	47.27
388.14	41.13
388.35	6.31
388.56	139.43
388.769	37.03
388.979	37.03
389.189	-32.6
389.399	22.7
389.609	77.99
389.818	2.22
390.028	53.42
390.238	116.9
390.447	104.62
390.657	-14.17
390.867	121
391.076	55.47
391.286	34.99
391.496	53.42
391.705	-24.4
391.915	90.28
392.125	114.86
392.334	100.52
392.544	14.51
392.753	-1.88
392.963	-1.88
393.172	141.48
393.382	-26.45
393.591	51.37
393.801	41.13
394.01	104.62
394.22	30.89
394.429	102.57
394.639	82.09
394.848	63.66
395.058	51.37
395.267	22.7
395.477	86.19
395.686	57.51
395.895	55.47
396.105	125.1
396.314	104.62
396.524	14.51
396.733	88.23
396.942	84.14
397.152	51.37
397.361	90.28
397.57	51.37
397.78	92.33
397.989	71.85
398.198	84.14
398.407	102.57
398.617	77.99
398.826	16.55
399.035	71.85
399.244	43.18
399.453	55.47
399.663	71.85
399.872	112.81
400.081	65.71
400.29	20.65
400.499	30.89
400.708	164.01
400.917	57.51
401.127	41.13
401.336	41.13
401.545	114.86
401.754	96.43
401.963	71.85
402.172	98.47
402.381	6.31
402.59	125.1
402.799	53.42
403.008	-12.12
403.217	137.38
403.426	129.19
403.635	49.32
403.844	82.09
404.053	121
404.262	22.7
404.471	112.81
404.68	161.96
404.888	34.99
405.097	123.05
405.306	135.34
405.515	170.15
405.724	118.95
405.933	235.69
406.142	-16.21
406.35	63.66
406.559	104.62
406.768	170.15
406.977	239.78
407.185	166.06
407.394	153.77
407.603	211.11
407.812	182.44
408.02	231.59
408.229	235.69
408.438	198.82
408.646	186.54
408.855	172.2
409.064	194.73
409.272	225.45
409.481	188.58
409.69	221.35
409.898	268.45
410.107	331.94
410.315	237.74
410.524	250.02
410.733	243.88
410.941	278.69
411.15	262.31
411.358	254.12
411.567	237.74
411.775	342.18
411.984	331.94
412.192	360.61
412.401	329.89
412.609	407.72
412.818	405.67
413.026	374.95
413.234	397.48
413.443	370.85
413.651	358.57
413.86	489.64
414.068	477.35
414.276	463.01
414.485	465.06
414.693	467.11
414.901	673.95
415.11	555.17
415.318	557.22
415.526	614.56
415.734	632.99
415.943	669.86
416.151	663.71
416.359	628.9
416.567	678.05
416.776	712.86
416.984	796.83
417.192	807.07
417.4	805.02
417.608	807.07
417.817	833.69
418.025	854.17
418.233	956.57
418.441	919.71
418.649	952.48
418.857	1030.3
419.065	1114.27
419.273	1022.11
419.481	1144.99
419.689	1204.38
419.897	1149.08
420.105	1177.75
420.313	1355.93
420.521	1329.3
420.729	1439.89
420.937	1390.74
421.145	1484.95
421.353	1558.67
421.561	1546.39
421.769	1652.88
421.977	1810.58
422.185	1718.42
422.393	1755.28
422.601	1859.73
422.809	1874.06
423.017	1935.5
423.224	1917.07
423.432	2115.72
423.64	2138.25
423.848	2259.08
424.056	2209.93
424.263	2246.79
424.471	2359.43
424.679	2300.04
424.887	2390.15
425.094	2553.99
425.302	2488.45
425.51	2775.17
425.718	2756.74
425.925	2910.33
426.133	2928.77
426.341	3004.54
426.548	3242.11
426.756	3209.34
426.964	3031.16
427.171	3391.61
427.379	3520.63
427.586	3545.2
427.794	3674.23
428.001	3598.45
428.209	3868.78
428.417	3917.93
428.624	4298.86
428.832	4227.18
429.039	4210.79
429.247	4081.77
429.454	4571.24
429.662	4905.06
429.869	4694.12
430.076	4915.3
430.284	4808.8
430.491	4939.87
430.699	5159
430.906	5259.35
431.114	5335.13
431.321	5501.01
431.528	5634.13
431.736	5970
431.943	6365.26
432.15	6068.3
432.358	6199.37
432.565	6651.97
432.772	6348.87
432.979	6797.38
433.187	7028.8
433.394	6953.02
433.601	7346.23
433.808	7534.65
434.016	7381.05
434.223	7684.15
434.43	8067.12
434.637	8071.22
434.844	8456.23
435.052	8759.33
435.259	8509.48
435.466	8642.6
435.673	8581.16
435.88	9013.28
436.087	9660.44
436.294	9648.15
436.501	9480.22
436.708	9541.66
436.915	9895.96
437.122	10504.2
437.329	10424.33
437.537	10704.9
437.743	10776.58
437.95	10633.22
438.157	11182.08
438.364	11747.32
438.571	11585.53
438.778	11941.88
438.985	12836.84
439.192	12255.22
439.399	12699.62
439.606	12427.25
439.813	13033.44
440.02	13834.2
440.227	13737.95
440.433	13686.75
440.64	14067.67
440.847	13801.43
441.054	14342.1
441.261	15298.5
441.467	14884.81
441.674	15431.62
441.881	15763.39
442.088	15773.63
442.294	15613.88
442.501	16168.88
442.708	16476.08
442.914	17039.27
443.121	17917.85
443.328	17299.36
443.534	18558.86
443.741	18028.44
443.948	17825.69
444.154	19148.68
444.361	18839.44
444.568	19318.66
444.774	18921.35
444.981	19208.07
445.187	19414.91
445.394	20862.83
445.6	20404.08
445.807	22396.76
446.013	21469.03
446.22	21606.24
446.426	22286.17
446.633	22716.24
446.839	23717.7
447.046	22509.4
447.252	23899.97
447.459	23740.22
447.665	23633.73
447.871	24721.2
448.078	26064.67
448.284	24622.9
448.491	25458.47
448.697	26187.55
448.903	26941.2
449.11	26896.14
449.316	26421.02
449.522	26863.38
449.728	27774.72
449.935	27649.8
450.141	27965.18
450.347	28608.25
450.553	27461.38
450.76	27846.4
450.966	28743.41
451.172	28223.23
451.378	29284.08
451.584	28856.05
451.791	29820.64
451.997	29621.99
452.203	29810.4
452.409	29845.22
452.615	29941.47
452.821	28555
453.027	28509.94
453.233	29726.44
453.44	28421.88
453.646	29114.09
453.852	28974.83
454.058	29724.39
454.264	28499.7
454.47	29327.08
454.676	28485.37
454.882	29572.84
455.088	26930.96
455.294	27160.33
455.5	27696.9
455.705	28503.8
455.911	27062.03
456.117	26541.85
456.323	26447.64
456.529	24786.74
456.735	26359.58
456.941	25360.17
457.147	24938.29
457.352	24229.69
457.558	23803.71
457.764	23777.09
457.97	23723.84
458.176	23273.29
458.381	22880.08
458.587	21895
458.793	21845.85
458.999	20965.23
459.204	22517.59
459.41	21725.02
459.616	20483.95
459.821	20115.32
460.027	20256.63
460.233	19689.34
460.438	19095.43
460.644	19330.95
460.85	18347.92
461.055	18046.87
461.261	18079.64
461.466	16332.72
461.672	16039.86
461.878	17104.81
462.083	16107.44
462.289	15880.12
462.494	15574.97
462.7	14997.45
462.905	14604.24
463.111	15171.52
463.316	14972.87
463.522	14587.85
463.727	14751.69
463.932	14979.01
464.138	14411.73
464.343	14841.8
464.549	14313.42
464.754	14800.84
464.959	14712.78
465.165	14358.48
465.37	13817.82
465.575	13580.25
465.781	14002.13
465.986	14176.21
466.191	13477.85
466.397	13522.91
466.602	12748.78
466.807	13305.82
467.012	13262.82
467.218	13240.29
467.423	13006.82
467.628	13193.19
