Data from USB4F104151__186__14-20-18-631.txt Node

Date: Thu Mar 13 14:20:18 EDT 2025
User: louis
Spectrometer: USB4F10415
Trigger mode: 4
Integration Time (sec): 2.000000E-2
Scans to average: 1
Electric dark correction enabled: true
Nonlinearity correction enabled: false
Boxcar width: 0
XAxis mode: Wavelengths
Number of Pixels in Spectrum: 3648
>>>>>Begin Spectral Data<<<<<
178.204	-63.15
178.424	-63.15
178.644	-63.15
178.864	-134.82
179.084	-54.95
179.304	31.06
179.524	-24.23
179.744	4.44
179.964	57.68
180.184	33.11
180.404	-13.99
180.624	-9.9
180.844	-79.53
181.064	-42.67
181.283	35.16
181.503	-13.99
181.723	22.87
181.943	-11.95
182.163	72.02
182.383	8.53
182.602	110.93
182.822	-18.09
183.042	-13.99
183.262	-26.28
183.482	0.34
183.701	2.39
183.921	6.49
184.141	-30.38
184.361	69.97
184.58	24.92
184.8	-1.71
185.02	47.44
185.239	41.3
185.459	10.58
185.679	55.64
185.898	2.39
186.118	63.83
186.338	69.97
186.557	0.34
186.777	41.3
186.997	-24.23
187.216	8.53
187.436	51.54
187.655	31.06
187.875	76.12
188.095	-75.43
188.314	59.73
188.534	94.55
188.753	59.73
188.973	-1.71
189.192	24.92
189.412	16.73
189.631	31.06
189.851	72.02
190.07	43.35
190.29	53.59
190.509	24.92
190.729	24.92
190.948	139.6
191.168	162.13
191.387	16.73
191.607	-46.76
191.826	8.53
192.045	47.44
192.265	24.92
192.484	-18.09
192.704	39.25
192.923	8.53
193.142	59.73
193.362	88.4
193.581	115.03
193.8	69.97
194.02	43.35
194.239	49.49
194.458	-32.43
194.678	-16.04
194.897	63.83
195.116	43.35
195.335	31.06
195.555	2.39
195.774	6.49
195.993	100.69
196.212	90.45
196.432	43.35
196.651	72.02
196.87	51.54
197.089	80.21
197.308	-16.04
197.528	4.44
197.747	49.49
197.966	55.64
198.185	104.79
198.404	10.58
198.623	24.92
198.842	49.49
199.062	72.02
199.281	76.12
199.5	-40.62
199.719	41.3
199.938	-5.8
200.157	33.11
200.376	63.83
200.595	61.78
200.814	6.49
201.033	47.44
201.252	43.35
201.471	37.2
201.69	-34.47
201.909	31.06
202.128	88.4
202.347	-16.04
202.566	35.16
202.785	-11.95
203.004	33.11
203.223	41.3
203.442	14.68
203.661	33.11
203.879	65.88
204.098	57.68
204.317	-24.23
204.536	39.25
204.755	78.16
204.974	74.07
205.193	16.73
205.411	129.36
205.63	29.01
205.849	16.73
206.068	63.83
206.287	51.54
206.505	82.26
206.724	-26.28
206.943	12.63
207.162	125.27
207.381	78.16
207.599	33.11
207.818	33.11
208.037	35.16
208.255	49.49
208.474	22.87
208.693	69.97
208.911	22.87
209.13	31.06
209.349	96.6
209.567	8.53
209.786	72.02
210.005	0.34
210.223	26.96
210.442	47.44
210.661	-1.71
210.879	74.07
211.098	112.98
211.316	31.06
211.535	92.5
211.753	2.39
211.972	0.34
212.191	31.06
212.409	12.63
212.628	8.53
212.846	-18.09
213.065	33.11
213.283	63.83
213.502	57.68
213.72	-1.71
213.938	63.83
214.157	22.87
214.375	-91.82
214.594	39.25
214.812	65.88
215.031	-18.09
215.249	96.6
215.467	26.96
215.686	47.44
215.904	84.31
216.122	37.2
216.341	57.68
216.559	31.06
216.778	47.44
216.996	55.64
217.214	35.16
217.432	6.49
217.651	-22.19
217.869	-75.43
218.087	33.11
218.306	4.44
218.524	67.92
218.742	-16.04
218.96	57.68
219.179	31.06
219.397	14.68
219.615	51.54
219.833	22.87
220.051	29.01
220.27	33.11
220.488	49.49
220.706	24.92
220.924	-1.71
221.142	10.58
221.36	-7.85
221.578	63.83
221.796	18.77
222.015	80.21
222.233	57.68
222.451	65.88
222.669	33.11
222.887	63.83
223.105	22.87
223.323	20.82
223.541	4.44
223.759	121.17
223.977	-7.85
224.195	51.54
224.413	51.54
224.631	110.93
224.849	41.3
225.067	47.44
225.285	4.44
225.503	55.64
225.721	43.35
225.939	61.78
226.157	63.83
226.375	94.55
226.592	-30.38
226.81	20.82
227.028	72.02
227.246	51.54
227.464	51.54
227.682	49.49
227.9	92.5
228.117	14.68
228.335	49.49
228.553	-22.19
228.771	16.73
228.989	104.79
229.206	6.49
229.424	69.97
229.642	10.58
229.86	39.25
230.077	10.58
230.295	14.68
230.513	-9.9
230.731	57.68
230.948	65.88
231.166	76.12
231.384	37.2
231.601	24.92
231.819	43.35
232.037	35.16
232.254	43.35
232.472	18.77
232.689	49.49
232.907	35.16
233.125	24.92
233.342	-16.04
233.56	14.68
233.777	-16.04
233.995	80.21
234.213	6.49
234.43	41.3
234.648	35.16
234.865	24.92
235.083	55.64
235.3	14.68
235.518	18.77
235.735	51.54
235.953	104.79
236.17	14.68
236.388	-22.19
236.605	53.59
236.822	182.61
237.04	104.79
237.257	43.35
237.475	31.06
237.692	26.96
237.909	-44.71
238.127	14.68
238.344	63.83
238.562	112.98
238.779	-54.95
238.996	29.01
239.214	2.39
239.431	98.64
239.648	57.68
239.865	110.93
240.083	31.06
240.3	39.25
240.517	18.77
240.735	-18.09
240.952	22.87
241.169	0.34
241.386	-1.71
241.603	31.06
241.821	14.68
242.038	104.79
242.255	139.6
242.472	-26.28
242.689	63.83
242.907	22.87
243.124	55.64
243.341	78.16
243.558	-1.71
243.775	-54.95
243.992	-50.86
244.209	112.98
244.426	96.6
244.643	84.31
244.86	-22.19
245.078	18.77
245.295	82.26
245.512	16.73
245.729	-16.04
245.946	63.83
246.163	125.27
246.38	18.77
246.597	0.34
246.814	10.58
247.031	57.68
247.248	108.88
247.464	31.06
247.681	6.49
247.898	55.64
248.115	31.06
248.332	2.39
248.549	55.64
248.766	106.84
248.983	14.68
249.2	-3.75
249.417	65.88
249.633	-9.9
249.85	63.83
250.067	31.06
250.284	-46.76
250.501	80.21
250.717	-13.99
250.934	22.87
251.151	-16.04
251.368	47.44
251.585	-61.1
251.801	59.73
252.018	45.4
252.235	59.73
252.451	-9.9
252.668	-50.86
252.885	49.49
253.102	67.92
253.318	-32.43
253.535	6.49
253.752	22.87
253.968	31.06
254.185	-34.47
254.401	-34.47
254.618	14.68
254.835	10.58
255.051	80.21
255.268	22.87
255.484	39.25
255.701	16.73
255.917	47.44
256.134	14.68
256.351	35.16
256.567	0.34
256.784	31.06
257	55.64
257.217	22.87
257.433	96.6
257.65	63.83
257.866	-7.85
258.082	-5.8
258.299	74.07
258.515	14.68
258.732	-32.43
258.948	20.82
259.165	55.64
259.381	-48.81
259.597	86.36
259.814	94.55
260.03	57.68
260.246	155.99
260.463	88.4
260.679	63.83
260.895	55.64
261.112	51.54
261.328	2.39
261.544	80.21
261.761	88.4
261.977	-20.14
262.193	31.06
262.409	-38.57
262.626	33.11
262.842	94.55
263.058	33.11
263.274	61.78
263.49	-1.71
263.707	96.6
263.923	49.49
264.139	6.49
264.355	-7.85
264.571	88.4
264.787	47.44
265.004	63.83
265.22	-5.8
265.436	41.3
265.652	55.64
265.868	53.59
266.084	37.2
266.3	8.53
266.516	-73.39
266.732	-5.8
266.948	47.44
267.164	41.3
267.38	41.3
267.596	80.21
267.812	61.78
268.028	41.3
268.244	-32.43
268.46	84.31
268.676	-13.99
268.892	4.44
269.108	-34.47
269.324	76.12
269.54	-22.19
269.756	53.59
269.972	74.07
270.188	65.88
270.403	63.83
270.619	55.64
270.835	86.36
271.051	16.73
271.267	14.68
271.483	43.35
271.698	-34.47
271.914	49.49
272.13	98.64
272.346	33.11
272.562	-7.85
272.777	96.6
272.993	72.02
273.209	41.3
273.425	10.58
273.64	67.92
273.856	100.69
274.072	35.16
274.287	-9.9
274.503	2.39
274.719	-16.04
274.934	-5.8
275.15	59.73
275.366	26.96
275.581	26.96
275.797	96.6
276.012	53.59
276.228	-18.09
276.444	41.3
276.659	74.07
276.875	-1.71
277.09	57.68
277.306	-28.33
277.521	82.26
277.737	53.59
277.952	104.79
278.168	39.25
278.383	110.93
278.599	76.12
278.814	74.07
279.03	-1.71
279.245	176.47
279.461	-16.04
279.676	37.2
279.892	-34.47
280.107	10.58
280.322	18.77
280.538	59.73
280.753	104.79
280.969	63.83
281.184	-7.85
281.399	96.6
281.615	-5.8
281.83	0.34
282.045	41.3
282.26	55.64
282.476	47.44
282.691	102.74
282.906	-9.9
283.122	88.4
283.337	-42.67
283.552	106.84
283.767	2.39
283.983	6.49
284.198	63.83
284.413	74.07
284.628	-22.19
284.843	12.63
285.058	47.44
285.274	-18.09
285.489	-67.24
285.704	8.53
285.919	55.64
286.134	47.44
286.349	55.64
286.564	35.16
286.779	86.36
286.995	72.02
287.21	31.06
287.425	-1.71
287.64	18.77
287.855	106.84
288.07	39.25
288.285	141.65
288.5	57.68
288.715	8.53
288.93	14.68
289.145	55.64
289.36	22.87
289.575	100.69
289.79	2.39
290.004	-1.71
290.219	16.73
290.434	74.07
290.649	-24.23
290.864	20.82
291.079	49.49
291.294	80.21
291.509	39.25
291.724	41.3
291.938	-1.71
292.153	57.68
292.368	-9.9
292.583	55.64
292.798	26.96
293.012	22.87
293.227	24.92
293.442	96.6
293.657	31.06
293.871	76.12
294.086	125.27
294.301	141.65
294.516	100.69
294.73	39.25
294.945	43.35
295.16	35.16
295.374	69.97
295.589	65.88
295.804	-5.8
296.018	80.21
296.233	59.73
296.447	14.68
296.662	-42.67
296.877	90.45
297.091	72.02
297.306	65.88
297.52	51.54
297.735	-18.09
297.949	72.02
298.164	96.6
298.378	-13.99
298.593	6.49
298.807	57.68
299.022	16.73
299.236	63.83
299.451	31.06
299.665	33.11
299.88	104.79
300.094	10.58
300.309	22.87
300.523	41.3
300.737	49.49
300.952	88.4
301.166	55.64
301.381	59.73
301.595	131.41
301.809	74.07
302.024	55.64
302.238	-61.1
302.452	0.34
302.667	33.11
302.881	67.92
303.095	16.73
303.309	92.5
303.524	8.53
303.738	-63.15
303.952	35.16
304.166	69.97
304.381	2.39
304.595	72.02
304.809	-3.75
305.023	41.3
305.237	65.88
305.452	39.25
305.666	29.01
305.88	69.97
306.094	26.96
306.308	16.73
306.522	80.21
306.736	-36.52
306.95	22.87
307.164	-24.23
307.379	10.58
307.593	115.03
307.807	41.3
308.021	55.64
308.235	47.44
308.449	14.68
308.663	18.77
308.877	131.41
309.091	76.12
309.305	67.92
309.519	4.44
309.733	104.79
309.947	33.11
310.161	55.64
310.374	22.87
310.588	14.68
310.802	96.6
311.016	65.88
311.23	76.12
311.444	63.83
311.658	59.73
311.872	145.75
312.085	59.73
312.299	125.27
312.513	22.87
312.727	65.88
312.941	37.2
313.154	18.77
313.368	-32.43
313.582	80.21
313.796	49.49
314.009	35.16
314.223	82.26
314.437	39.25
314.651	-7.85
314.864	26.96
315.078	-18.09
315.292	20.82
315.505	51.54
315.719	55.64
315.933	47.44
316.146	72.02
316.36	0.34
316.573	78.16
316.787	45.4
317.001	106.84
317.214	-50.86
317.428	106.84
317.641	24.92
317.855	94.55
318.068	31.06
318.282	33.11
318.495	45.4
318.709	51.54
318.922	65.88
319.136	76.12
319.349	65.88
319.563	-16.04
319.776	33.11
319.99	-7.85
320.203	90.45
320.417	51.54
320.63	88.4
320.843	80.21
321.057	63.83
321.27	57.68
321.483	-5.8
321.697	31.06
321.91	84.31
322.124	63.83
322.337	88.4
322.55	-9.9
322.763	-9.9
322.977	80.21
323.19	76.12
323.403	33.11
323.617	39.25
323.83	59.73
324.043	63.83
324.256	115.03
324.469	-3.75
324.683	-26.28
324.896	67.92
325.109	72.02
325.322	10.58
325.535	47.44
325.748	49.49
325.962	41.3
326.175	2.39
326.388	39.25
326.601	49.49
326.814	51.54
327.027	41.3
327.24	65.88
327.453	-1.71
327.666	57.68
327.879	33.11
328.092	47.44
328.305	33.11
328.518	59.73
328.731	-9.9
328.944	39.25
329.157	20.82
329.37	74.07
329.583	88.4
329.796	55.64
330.009	-34.47
330.222	92.5
330.435	33.11
330.648	35.16
330.861	39.25
331.073	74.07
331.286	82.26
331.499	45.4
331.712	-9.9
331.925	121.17
332.138	26.96
332.35	82.26
332.563	63.83
332.776	12.63
332.989	63.83
333.202	106.84
333.414	39.25
333.627	22.87
333.84	16.73
334.053	18.77
334.265	61.78
334.478	63.83
334.691	98.64
334.903	63.83
335.116	14.68
335.329	53.59
335.541	55.64
335.754	141.65
335.966	37.2
336.179	59.73
336.392	80.21
336.604	65.88
336.817	88.4
337.029	0.34
337.242	35.16
337.454	29.01
337.667	-3.75
337.88	49.49
338.092	41.3
338.305	31.06
338.517	0.34
338.729	92.5
338.942	88.4
339.154	84.31
339.367	33.11
339.579	67.92
339.792	67.92
340.004	41.3
340.217	26.96
340.429	104.79
340.641	-9.9
340.854	37.2
341.066	129.36
341.278	49.49
341.491	137.56
341.703	41.3
341.915	72.02
342.128	33.11
342.34	6.49
342.552	45.4
342.764	65.88
342.977	213.33
343.189	24.92
343.401	-42.67
343.613	-16.04
343.826	88.4
344.038	106.84
344.25	33.11
344.462	29.01
344.674	12.63
344.886	12.63
345.099	133.46
345.311	41.3
345.523	20.82
345.735	-75.43
345.947	82.26
346.159	82.26
346.371	65.88
346.583	-7.85
346.795	39.25
347.007	-18.09
347.219	57.68
347.431	-65.19
347.643	43.35
347.855	-38.57
348.067	96.6
348.279	-71.34
348.491	69.97
348.703	74.07
348.915	31.06
349.127	22.87
349.339	72.02
349.551	14.68
349.763	26.96
349.975	51.54
350.187	14.68
350.399	10.58
350.61	10.58
350.822	49.49
351.034	72.02
351.246	59.73
351.458	92.5
351.669	55.64
351.881	86.36
352.093	72.02
352.305	88.4
352.517	47.44
352.728	47.44
352.94	-1.71
353.152	90.45
353.363	65.88
353.575	47.44
353.787	55.64
353.999	49.49
354.21	143.7
354.422	16.73
354.633	39.25
354.845	104.79
355.057	65.88
355.268	72.02
355.48	80.21
355.692	-16.04
355.903	129.36
356.115	22.87
356.326	49.49
356.538	63.83
356.749	22.87
356.961	26.96
357.172	-16.04
357.384	90.45
357.595	115.03
357.807	14.68
358.018	-54.95
358.23	80.21
358.441	125.27
358.653	41.3
358.864	80.21
359.075	49.49
359.287	53.59
359.498	47.44
359.709	110.93
359.921	45.4
360.132	106.84
360.344	41.3
360.555	133.46
360.766	-9.9
360.977	59.73
361.189	76.12
361.4	14.68
361.611	131.41
361.823	80.21
362.034	2.39
362.245	43.35
362.456	43.35
362.667	92.5
362.879	57.68
363.09	49.49
363.301	53.59
363.512	76.12
363.723	12.63
363.935	14.68
364.146	115.03
364.357	29.01
364.568	63.83
364.779	-16.04
364.99	59.73
365.201	14.68
365.412	94.55
365.623	47.44
365.834	-5.8
366.045	139.6
366.256	164.18
366.467	-9.9
366.678	127.32
366.889	67.92
367.1	72.02
367.311	33.11
367.522	74.07
367.733	108.88
367.944	72.02
368.155	74.07
368.366	133.46
368.577	72.02
368.788	84.31
368.999	-7.85
369.209	22.87
369.42	112.98
369.631	65.88
369.842	108.88
370.053	78.16
370.264	59.73
370.474	-22.19
370.685	88.4
370.896	90.45
371.107	88.4
371.317	106.84
371.528	86.36
371.739	26.96
371.95	35.16
372.16	67.92
372.371	8.53
372.582	33.11
372.792	49.49
373.003	0.34
373.214	47.44
373.424	51.54
373.635	57.68
373.846	82.26
374.056	37.2
374.267	26.96
374.477	51.54
374.688	-32.43
374.898	41.3
375.109	76.12
375.319	55.64
375.53	26.96
375.74	104.79
375.951	55.64
376.161	-42.67
376.372	123.22
376.582	100.69
376.793	37.2
377.003	-11.95
377.214	49.49
377.424	82.26
377.635	80.21
377.845	-50.86
378.055	92.5
378.266	-30.38
378.476	16.73
378.686	14.68
378.897	72.02
379.107	88.4
379.317	88.4
379.528	80.21
379.738	76.12
379.948	20.82
380.158	92.5
380.369	35.16
380.579	108.88
380.789	63.83
380.999	96.6
381.21	22.87
381.42	90.45
381.63	45.4
381.84	100.69
382.05	65.88
382.261	158.03
382.471	63.83
382.681	-50.86
382.891	67.92
383.101	29.01
383.311	72.02
383.521	41.3
383.731	55.64
383.941	61.78
384.151	92.5
384.361	33.11
384.571	22.87
384.781	102.74
384.991	86.36
385.201	65.88
385.411	82.26
385.621	112.98
385.831	35.16
386.041	121.17
386.251	125.27
386.461	76.12
386.671	100.69
386.881	125.27
387.091	92.5
387.301	80.21
387.511	76.12
387.72	90.45
387.93	80.21
388.14	35.16
388.35	67.92
388.56	72.02
388.769	-26.28
388.979	94.55
389.189	59.73
389.399	35.16
389.609	121.17
389.818	67.92
390.028	10.58
390.238	39.25
390.447	104.79
390.657	145.75
390.867	47.44
391.076	67.92
391.286	31.06
391.496	72.02
391.705	80.21
391.915	92.5
392.125	145.75
392.334	84.31
392.544	188.75
392.753	76.12
392.963	67.92
393.172	55.64
393.382	-32.43
393.591	115.03
393.801	100.69
394.01	153.94
394.22	78.16
394.429	88.4
394.639	55.64
394.848	135.51
395.058	106.84
395.267	88.4
395.477	110.93
395.686	63.83
395.895	143.7
396.105	127.32
396.314	108.88
396.524	125.27
396.733	76.12
396.942	115.03
397.152	92.5
397.361	174.42
397.57	65.88
397.78	90.45
397.989	158.03
398.198	129.36
398.407	67.92
398.617	55.64
398.826	170.32
399.035	129.36
399.244	69.97
399.453	98.64
399.663	61.78
399.872	139.6
400.081	35.16
400.29	162.13
400.499	100.69
400.708	125.27
400.917	104.79
401.127	133.46
401.336	125.27
401.545	207.19
401.754	108.88
401.963	115.03
402.172	121.17
402.381	106.84
402.59	135.51
402.799	121.17
403.008	164.18
403.217	92.5
403.426	145.75
403.635	145.75
403.844	121.17
404.053	145.75
404.262	115.03
404.471	131.41
404.68	153.94
404.888	104.79
405.097	190.8
405.306	209.23
405.515	196.95
405.724	235.86
405.933	237.91
406.142	219.47
406.35	213.33
406.559	121.17
406.768	194.9
406.977	252.24
407.185	235.86
407.394	256.34
407.603	248.15
407.812	278.87
408.02	262.48
408.229	231.76
408.438	176.47
408.646	297.3
408.855	293.2
409.064	297.3
409.272	293.2
409.481	344.4
409.69	254.29
409.898	278.87
410.107	354.64
410.315	334.16
410.524	383.31
410.733	313.68
410.941	336.21
411.15	360.78
411.358	393.55
411.567	520.53
411.775	432.46
411.984	440.65
412.192	528.72
412.401	547.15
412.609	516.43
412.818	510.29
413.026	518.48
413.234	641.36
413.443	508.24
413.651	530.77
413.86	606.54
414.068	694.6
414.276	641.36
414.485	604.49
414.693	700.75
414.901	803.15
415.11	768.33
415.318	760.14
415.526	844.1
415.734	858.44
415.943	784.71
416.151	844.1
416.359	940.36
416.567	940.36
416.776	989.51
416.984	997.7
417.192	1046.85
417.4	997.7
417.608	1067.33
417.817	1030.47
418.025	1126.72
418.233	1296.71
418.441	1255.75
418.649	1171.78
418.857	1274.18
419.065	1382.72
419.273	1360.19
419.481	1429.82
419.689	1601.85
419.897	1532.22
420.105	1530.17
420.313	1689.92
420.521	1646.91
420.729	1745.21
420.937	1679.68
421.145	1874.23
421.353	1863.99
421.561	2040.12
421.769	2185.52
421.977	2218.29
422.185	2105.65
422.393	2330.93
422.601	2482.48
422.809	2427.18
423.017	2398.51
423.224	2607.41
423.432	2687.28
423.64	2738.48
423.848	2898.22
424.056	2703.66
424.263	3084.58
424.471	2982.18
424.679	3156.26
424.887	3307.81
425.094	3322.15
425.302	3367.2
425.51	3416.35
425.718	3606.81
425.925	3758.36
426.133	3817.76
426.341	3909.91
426.548	4239.64
426.756	4122.9
426.964	4317.46
427.171	4434.19
427.379	4573.46
427.586	4589.84
427.794	4835.6
428.001	4876.55
428.209	5259.53
428.417	5150.98
428.624	5513.47
428.832	5398.79
429.039	5345.54
429.247	5296.39
429.454	5939.45
429.662	6263.03
429.869	5835
430.076	6371.57
430.284	6244.6
430.491	6633.71
430.699	6828.27
430.906	6703.34
431.114	7006.44
431.321	7137.51
431.528	7342.31
431.736	7688.42
431.943	8091.87
432.15	7831.77
432.358	8100.06
432.565	8415.44
432.772	8255.7
432.979	8921.29
433.187	8960.2
433.394	9017.55
433.601	9697.47
433.808	9570.5
434.016	9609.41
434.223	10049.72
434.43	10451.13
434.637	10266.81
434.844	11184.3
435.052	11135.15
435.259	11116.72
435.466	11182.25
435.673	11059.37
435.88	11903.14
436.087	12646.55
436.294	12447.9
436.501	12101.79
436.708	12562.58
436.915	12736.66
437.122	13502.6
437.329	13457.54
437.537	13682.82
437.743	14049.41
437.95	13848.71
438.157	14923.89
438.364	15267.95
438.571	15011.95
438.778	15151.21
438.985	16648.28
439.192	15650.92
439.399	16599.13
439.606	16050.27
439.813	16924.76
440.02	17641.54
440.227	17745.99
440.433	17457.23
440.64	18067.52
440.847	17870.92
441.054	18356.29
441.261	19392.56
441.467	19429.42
441.674	19863.59
441.881	20138.02
442.088	20258.85
442.294	20049.96
442.501	20731.93
442.708	21071.89
442.914	21956.61
443.121	22704.12
443.328	21952.52
443.534	23990.25
443.741	22980.6
443.948	22956.02
444.154	24854.49
444.361	24125.41
444.568	24537.05
444.774	24467.42
444.981	24606.69
445.187	25278.42
445.394	26922.94
445.6	26343.36
445.807	28506.02
446.013	27324.34
446.22	27924.4
446.426	28821.41
446.633	29243.29
446.839	30181.26
447.046	28905.37
447.252	30506.88
447.459	30752.64
447.665	30406.53
447.871	31903.6
448.078	33025.89
448.284	31651.7
448.491	32343.91
448.697	33740.63
448.903	34391.88
449.11	34457.42
449.316	34031.44
449.522	34228.04
449.728	35237.69
449.935	35612.47
450.141	35346.23
450.347	36077.36
450.553	35170.11
450.76	35655.48
450.966	36671.27
451.172	36204.33
451.378	37482.27
451.584	36525.86
451.791	37281.56
451.997	37103.39
452.203	38168.33
452.409	38145.81
452.615	37771.03
452.821	36425.51
453.027	35897.14
453.233	37588.76
453.44	36589.35
453.646	36818.72
453.852	37306.14
454.058	37709.59
454.264	36474.66
454.47	37293.85
454.676	36476.71
454.882	37529.37
455.088	34469.7
455.294	34764.61
455.5	35604.28
455.705	35913.52
455.911	34559.81
456.117	33752.91
456.323	33347.42
456.529	31530.87
456.735	32968.54
456.941	32323.43
457.147	31524.72
457.352	30846.85
457.558	30398.34
457.764	30465.92
457.97	29683.6
458.176	29290.39
458.381	29218.71
458.587	27924.4
458.793	27656.11
458.999	26435.52
459.204	28444.58
459.41	27445.17
459.616	25702.35
459.821	25540.56
460.027	25544.66
460.233	25026.52
460.438	23877.61
460.644	24164.32
460.85	23117.81
461.055	22857.72
461.261	22724.6
461.466	21078.04
461.672	20125.73
461.878	21927.94
462.083	20453.41
462.289	19816.49
462.494	19877.93
462.7	18798.65
462.905	18446.4
463.111	19202.1
463.316	18997.3
463.522	18733.11
463.727	18491.45
463.932	18901.04
464.138	18661.43
464.343	18608.19
464.549	18253.89
464.754	18651.19
464.959	18546.75
465.165	18208.83
465.37	17594.44
465.575	17104.98
465.781	17915.97
465.986	17930.31
466.191	17162.32
466.397	17055.83
466.602	16167.01
466.807	16760.92
467.012	16502.87
467.218	16537.69
467.423	16468.06
