Data from USB4F104151__245__14-22-30-043.txt Node

Date: Thu Mar 13 14:22:30 EDT 2025
User: louis
Spectrometer: USB4F10415
Trigger mode: 4
Integration Time (sec): 2.000000E-2
Scans to average: 1
Electric dark correction enabled: true
Nonlinearity correction enabled: false
Boxcar width: 0
XAxis mode: Wavelengths
Number of Pixels in Spectrum: 3648
>>>>>Begin Spectral Data<<<<<
178.204	-156.5
178.424	-156.5
178.644	-156.5
178.864	-170.83
179.084	-50
179.304	-19.29
179.524	-7
179.744	-25.43
179.964	13.48
180.184	-37.72
180.404	-29.52
180.624	40.11
180.844	58.54
181.064	-15.19
181.283	11.43
181.503	-47.96
181.723	58.54
181.943	-0.85
182.163	42.15
182.383	13.48
182.602	91.31
182.822	40.11
183.042	87.21
183.262	-15.19
183.482	23.72
183.701	-66.39
183.921	31.91
184.141	-39.76
184.361	72.87
184.58	-39.76
184.8	21.67
185.02	-7
185.239	44.2
185.459	42.15
185.679	13.48
185.898	-0.85
186.118	29.87
186.338	13.48
186.557	-9.05
186.777	-97.11
186.997	76.97
187.216	38.06
187.436	68.78
187.655	54.44
187.875	64.68
188.095	29.87
188.314	21.67
188.534	46.25
188.753	13.48
188.973	85.16
189.192	62.63
189.412	9.39
189.631	-68.44
189.851	17.58
190.07	46.25
190.29	-33.62
190.509	13.48
190.729	-60.24
190.948	66.73
191.168	130.22
191.387	87.21
191.607	79.02
191.826	111.78
192.045	-17.24
192.265	62.63
192.484	23.72
192.704	79.02
192.923	-11.09
193.142	95.4
193.362	-15.19
193.581	-7
193.8	97.45
194.02	83.11
194.239	72.87
194.458	44.2
194.678	74.92
194.897	52.39
195.116	31.91
195.335	-45.91
195.555	81.07
195.774	21.67
195.993	-2.9
196.212	-9.05
196.432	3.24
196.651	29.87
196.87	-0.85
197.089	-11.09
197.308	56.49
197.528	38.06
197.747	-68.44
197.966	40.11
198.185	50.35
198.404	7.34
198.623	-11.09
198.842	85.16
199.062	62.63
199.281	31.91
199.5	17.58
199.719	33.96
199.938	81.07
200.157	48.3
200.376	29.87
200.595	62.63
200.814	46.25
201.033	21.67
201.252	-11.09
201.471	42.15
201.69	-17.24
201.909	7.34
202.128	7.34
202.347	-0.85
202.566	5.29
202.785	-7
203.004	-0.85
203.223	93.35
203.442	-27.48
203.661	31.91
203.879	62.63
204.098	-11.09
204.317	46.25
204.536	70.83
204.755	-27.48
204.974	79.02
205.193	27.82
205.411	128.17
205.63	-41.81
205.849	95.4
206.068	-31.57
206.287	38.06
206.505	122.02
206.724	-19.29
206.943	42.15
207.162	5.29
207.381	23.72
207.599	15.53
207.818	29.87
208.037	31.91
208.255	-15.19
208.474	17.58
208.693	54.44
208.911	-9.05
209.13	27.82
209.349	-21.33
209.567	91.31
209.786	13.48
210.005	-2.9
210.223	38.06
210.442	-58.2
210.661	33.96
210.879	50.35
211.098	-19.29
211.316	-9.05
211.535	56.49
211.753	3.24
211.972	54.44
212.191	5.29
212.409	-41.81
212.628	11.43
212.846	-47.96
213.065	-2.9
213.283	109.74
213.502	-19.29
213.72	15.53
213.938	46.25
214.157	-17.24
214.375	21.67
214.594	46.25
214.812	40.11
215.031	21.67
215.249	-68.44
215.467	-15.19
215.686	54.44
215.904	54.44
216.122	9.39
216.341	38.06
216.559	-31.57
216.778	44.2
216.996	29.87
217.214	-0.85
217.432	-35.67
217.651	38.06
217.869	5.29
218.087	-7
218.306	52.39
218.524	79.02
218.742	-50
218.96	50.35
219.179	1.19
219.397	-50
219.615	99.5
219.833	29.87
220.051	97.45
220.27	54.44
220.488	42.15
220.706	9.39
220.924	-27.48
221.142	31.91
221.36	50.35
221.578	1.19
221.796	-27.48
222.015	-17.24
222.233	9.39
222.451	72.87
222.669	29.87
222.887	117.93
223.105	13.48
223.323	21.67
223.541	-31.57
223.759	-23.38
223.977	7.34
224.195	54.44
224.413	40.11
224.631	13.48
224.849	17.58
225.067	93.35
225.285	-35.67
225.503	38.06
225.721	-7
225.939	5.29
226.157	40.11
226.375	111.78
226.592	-80.72
226.81	5.29
227.028	105.64
227.246	40.11
227.464	95.4
227.682	70.83
227.9	-9.05
228.117	-39.76
228.335	15.53
228.553	15.53
228.771	-60.24
228.989	56.49
229.206	58.54
229.424	5.29
229.642	48.3
229.86	66.73
230.077	17.58
230.295	-17.24
230.513	46.25
230.731	13.48
230.948	7.34
231.166	99.5
231.384	25.77
231.601	64.68
231.819	25.77
232.037	13.48
232.254	-15.19
232.472	-15.19
232.689	74.92
232.907	72.87
233.125	11.43
233.342	-31.57
233.56	-13.14
233.777	5.29
233.995	38.06
234.213	66.73
234.43	25.77
234.648	54.44
234.865	-11.09
235.083	89.26
235.3	9.39
235.518	-17.24
235.735	5.29
235.953	66.73
236.17	46.25
236.388	-9.05
236.605	66.73
236.822	103.59
237.04	-17.24
237.257	83.11
237.475	-52.05
237.692	70.83
237.909	83.11
238.127	29.87
238.344	97.45
238.562	44.2
238.779	-15.19
238.996	46.25
239.214	48.3
239.431	1.19
239.648	1.19
239.865	48.3
240.083	5.29
240.3	-50
240.517	1.19
240.735	42.15
240.952	50.35
241.169	40.11
241.386	-0.85
241.603	-2.9
241.821	15.53
242.038	115.88
242.255	-41.81
242.472	29.87
242.689	-17.24
242.907	27.82
243.124	-31.57
243.341	33.96
243.558	-23.38
243.775	27.82
243.992	-17.24
244.209	95.4
244.426	-9.05
244.643	-0.85
244.86	52.39
245.078	66.73
245.295	54.44
245.512	38.06
245.729	31.91
245.946	54.44
246.163	50.35
246.38	27.82
246.597	-13.14
246.814	54.44
247.031	5.29
247.248	48.3
247.464	19.63
247.681	58.54
247.898	70.83
248.115	31.91
248.332	-80.72
248.549	3.24
248.766	70.83
248.983	62.63
249.2	5.29
249.417	13.48
249.633	-43.86
249.85	58.54
250.067	11.43
250.284	48.3
250.501	-25.43
250.717	56.49
250.934	-4.95
251.151	-19.29
251.368	-7
251.585	29.87
251.801	13.48
252.018	25.77
252.235	7.34
252.451	-119.64
252.668	-2.9
252.885	15.53
253.102	103.59
253.318	9.39
253.535	19.63
253.752	9.39
253.968	25.77
254.185	-2.9
254.401	21.67
254.618	70.83
254.835	-23.38
255.051	87.21
255.268	99.5
255.484	111.78
255.701	-41.81
255.917	64.68
256.134	15.53
256.351	23.72
256.567	-9.05
256.784	81.07
257	-52.05
257.217	95.4
257.433	5.29
257.65	-60.24
257.866	64.68
258.082	13.48
258.299	23.72
258.515	36.01
258.732	-35.67
258.948	-43.86
259.165	13.48
259.381	113.83
259.597	48.3
259.814	-0.85
260.03	-35.67
260.246	38.06
260.463	38.06
260.679	79.02
260.895	-41.81
261.112	13.48
261.328	5.29
261.544	-15.19
261.761	66.73
261.977	46.25
262.193	29.87
262.409	70.83
262.626	115.88
262.842	5.29
263.058	27.82
263.274	19.63
263.49	62.63
263.707	-15.19
263.923	15.53
264.139	13.48
264.355	25.77
264.571	-17.24
264.787	52.39
265.004	-25.43
265.22	-19.29
265.436	-9.05
265.652	-9.05
265.868	17.58
266.084	-27.48
266.3	-15.19
266.516	79.02
266.732	46.25
266.948	21.67
267.164	140.46
267.38	95.4
267.596	46.25
267.812	83.11
268.028	38.06
268.244	25.77
268.46	7.34
268.676	7.34
268.892	62.63
269.108	-60.24
269.324	-13.14
269.54	64.68
269.756	23.72
269.972	-31.57
270.188	13.48
270.403	27.82
270.619	66.73
270.835	17.58
271.051	38.06
271.267	25.77
271.483	-9.05
271.698	56.49
271.914	25.77
272.13	9.39
272.346	5.29
272.562	-101.2
272.777	50.35
272.993	58.54
273.209	-9.05
273.425	60.59
273.64	-9.05
273.856	-15.19
274.072	-41.81
274.287	40.11
274.503	-2.9
274.719	13.48
274.934	-2.9
275.15	-9.05
275.366	56.49
275.581	5.29
275.797	56.49
276.012	23.72
276.228	-9.05
276.444	79.02
276.659	38.06
276.875	-0.85
277.09	87.21
277.306	31.91
277.521	-17.24
277.737	-31.57
277.952	89.26
278.168	19.63
278.383	72.87
278.599	83.11
278.814	7.34
279.03	1.19
279.245	62.63
279.461	27.82
279.676	105.64
279.892	33.96
280.107	38.06
280.322	-17.24
280.538	25.77
280.753	-29.52
280.969	38.06
281.184	56.49
281.399	-19.29
281.615	42.15
281.83	21.67
282.045	-17.24
282.26	11.43
282.476	-25.43
282.691	7.34
282.906	25.77
283.122	-11.09
283.337	-11.09
283.552	15.53
283.767	62.63
283.983	66.73
284.198	-15.19
284.413	21.67
284.628	1.19
284.843	13.48
285.058	9.39
285.274	23.72
285.489	-52.05
285.704	29.87
285.919	5.29
286.134	-27.48
286.349	66.73
286.564	-31.57
286.779	122.02
286.995	81.07
287.21	62.63
287.425	52.39
287.64	13.48
287.855	50.35
288.07	33.96
288.285	79.02
288.5	79.02
288.715	29.87
288.93	-47.96
289.145	62.63
289.36	42.15
289.575	7.34
289.79	72.87
290.004	21.67
290.219	72.87
290.434	27.82
290.649	29.87
290.864	17.58
291.079	-0.85
291.294	33.96
291.509	-50
291.724	-50
291.938	-35.67
292.153	1.19
292.368	-62.29
292.583	-19.29
292.798	5.29
293.012	119.98
293.227	111.78
293.442	-21.33
293.657	79.02
293.871	91.31
294.086	54.44
294.301	76.97
294.516	62.63
294.73	66.73
294.945	9.39
295.16	62.63
295.374	70.83
295.589	-21.33
295.804	-11.09
296.018	13.48
296.233	54.44
296.447	44.2
296.662	-25.43
296.877	-0.85
297.091	93.35
297.306	5.29
297.52	66.73
297.735	15.53
297.949	-9.05
298.164	-0.85
298.378	13.48
298.593	-7
298.807	5.29
299.022	-35.67
299.236	29.87
299.451	3.24
299.665	-0.85
299.88	40.11
300.094	29.87
300.309	1.19
300.523	72.87
300.737	-17.24
300.952	-9.05
301.166	21.67
301.381	36.01
301.595	-25.43
301.809	13.48
302.024	19.63
302.238	17.58
302.452	56.49
302.667	21.67
302.881	85.16
303.095	33.96
303.309	29.87
303.524	-41.81
303.738	-0.85
303.952	17.58
304.166	107.69
304.381	13.48
304.595	48.3
304.809	119.98
305.023	38.06
305.237	-52.05
305.452	54.44
305.666	25.77
305.88	-0.85
306.094	-19.29
306.308	128.17
306.522	23.72
306.736	40.11
306.95	46.25
307.164	31.91
307.379	-15.19
307.593	46.25
307.807	46.25
308.021	-2.9
308.235	64.68
308.449	33.96
308.663	-11.09
308.877	29.87
309.091	1.19
309.305	29.87
309.519	11.43
309.733	15.53
309.947	-127.83
310.161	54.44
310.374	87.21
310.588	111.78
310.802	-31.57
311.016	38.06
311.23	62.63
311.444	79.02
311.658	19.63
311.872	62.63
312.085	54.44
312.299	87.21
312.513	64.68
312.727	7.34
312.941	3.24
313.154	70.83
313.368	52.39
313.582	13.48
313.796	40.11
314.009	9.39
314.223	52.39
314.437	40.11
314.651	29.87
314.864	40.11
315.078	31.91
315.292	33.96
315.505	-47.96
315.719	-23.38
315.933	29.87
316.146	1.19
316.36	46.25
316.573	17.58
316.787	58.54
317.001	44.2
317.214	50.35
317.428	-2.9
317.641	13.48
317.855	97.45
318.068	70.83
318.282	122.02
318.495	58.54
318.709	36.01
318.922	70.83
319.136	5.29
319.349	72.87
319.563	-31.57
319.776	42.15
319.99	-66.39
320.203	72.87
320.417	58.54
320.63	62.63
320.843	95.4
321.057	87.21
321.27	21.67
321.483	40.11
321.697	85.16
321.91	21.67
322.124	66.73
322.337	15.53
322.55	38.06
322.763	56.49
322.977	46.25
323.19	5.29
323.403	23.72
323.617	29.87
323.83	29.87
324.043	48.3
324.256	56.49
324.469	-7
324.683	117.93
324.896	-41.81
325.109	36.01
325.322	11.43
325.535	64.68
325.748	19.63
325.962	46.25
326.175	62.63
326.388	29.87
326.601	23.72
326.814	29.87
327.027	21.67
327.24	48.3
327.453	-27.48
327.666	17.58
327.879	54.44
328.092	-27.48
328.305	29.87
328.518	-68.44
328.731	-72.53
328.944	15.53
329.157	-11.09
329.37	46.25
329.583	42.15
329.796	64.68
330.009	3.24
330.222	85.16
330.435	50.35
330.648	-58.2
330.861	9.39
331.073	38.06
331.286	79.02
331.499	9.39
331.712	17.58
331.925	-2.9
332.138	3.24
332.35	83.11
332.563	-13.14
332.776	87.21
332.989	66.73
333.202	44.2
333.414	54.44
333.627	-25.43
333.84	21.67
334.053	23.72
334.265	15.53
334.478	44.2
334.691	3.24
334.903	-9.05
335.116	-17.24
335.329	72.87
335.541	56.49
335.754	68.78
335.966	79.02
336.179	40.11
336.392	54.44
336.604	17.58
336.817	54.44
337.029	48.3
337.242	9.39
337.454	46.25
337.667	-2.9
337.88	9.39
338.092	40.11
338.305	29.87
338.517	38.06
338.729	160.94
338.942	-52.05
339.154	-33.62
339.367	-27.48
339.579	25.77
339.792	13.48
340.004	62.63
340.217	-0.85
340.429	-2.9
340.641	15.53
340.854	62.63
341.066	-56.15
341.278	64.68
341.491	40.11
341.703	31.91
341.915	9.39
342.128	111.78
342.34	-15.19
342.552	-54.1
342.764	-72.53
342.977	11.43
343.189	62.63
343.401	74.92
343.613	-41.81
343.826	-39.76
344.038	29.87
344.25	111.78
344.462	50.35
344.674	21.67
344.886	40.11
345.099	62.63
345.311	42.15
345.523	13.48
345.735	-43.86
345.947	128.17
346.159	-41.81
346.371	23.72
346.583	64.68
346.795	29.87
347.007	83.11
347.219	91.31
347.431	-11.09
347.643	-9.05
347.855	50.35
348.067	46.25
348.279	-27.48
348.491	40.11
348.703	91.31
348.915	66.73
349.127	-19.29
349.339	29.87
349.551	7.34
349.763	48.3
349.975	50.35
350.187	79.02
350.399	29.87
350.61	154.79
350.822	38.06
351.034	36.01
351.246	87.21
351.458	17.58
351.669	54.44
351.881	70.83
352.093	5.29
352.305	48.3
352.517	50.35
352.728	95.4
352.94	-9.05
353.152	15.53
353.363	1.19
353.575	44.2
353.787	68.78
353.999	144.55
354.21	42.15
354.422	56.49
354.633	42.15
354.845	-19.29
355.057	33.96
355.268	3.24
355.48	81.07
355.692	7.34
355.903	40.11
356.115	46.25
356.326	-27.48
356.538	-64.34
356.749	48.3
356.961	21.67
357.172	23.72
357.384	23.72
357.595	9.39
357.807	64.68
358.018	-4.95
358.23	9.39
358.441	81.07
358.653	1.19
358.864	-19.29
359.075	21.67
359.287	23.72
359.498	-15.19
359.709	21.67
359.921	21.67
360.132	25.77
360.344	70.83
360.555	103.59
360.766	58.54
360.977	79.02
361.189	9.39
361.4	46.25
361.611	87.21
361.823	113.83
362.034	13.48
362.245	-23.38
362.456	31.91
362.667	29.87
362.879	62.63
363.09	31.91
363.301	56.49
363.512	54.44
363.723	15.53
363.935	5.29
364.146	13.48
364.357	83.11
364.568	54.44
364.779	23.72
364.99	64.68
365.201	15.53
365.412	119.98
365.623	33.96
365.834	38.06
366.045	5.29
366.256	5.29
366.467	48.3
366.678	74.92
366.889	115.88
367.1	15.53
367.311	40.11
367.522	1.19
367.733	17.58
367.944	105.64
368.155	-0.85
368.366	-7
368.577	17.58
368.788	25.77
368.999	48.3
369.209	40.11
369.42	103.59
369.631	136.36
369.842	-2.9
370.053	-7
370.264	103.59
370.474	31.91
370.685	38.06
370.896	31.91
371.107	27.82
371.317	-19.29
371.528	33.96
371.739	9.39
371.95	40.11
372.16	44.2
372.371	7.34
372.582	42.15
372.792	33.96
373.003	40.11
373.214	48.3
373.424	5.29
373.635	29.87
373.846	136.36
374.056	46.25
374.267	107.69
374.477	83.11
374.688	11.43
374.898	-0.85
375.109	23.72
375.319	54.44
375.53	7.34
375.74	-21.33
375.951	95.4
376.161	74.92
376.372	111.78
376.582	13.48
376.793	48.3
377.003	-11.09
377.214	60.59
377.424	21.67
377.635	15.53
377.845	62.63
378.055	87.21
378.266	-19.29
378.476	-9.05
378.686	46.25
378.897	111.78
379.107	3.24
379.317	48.3
379.528	38.06
379.738	42.15
379.948	-11.09
380.158	48.3
380.369	-25.43
380.579	-13.14
380.789	13.48
380.999	99.5
381.21	119.98
381.42	38.06
381.63	-9.05
381.84	128.17
382.05	15.53
382.261	64.68
382.471	70.83
382.681	-15.19
382.891	21.67
383.101	13.48
383.311	40.11
383.521	48.3
383.731	5.29
383.941	79.02
384.151	87.21
384.361	9.39
384.571	56.49
384.781	33.96
384.991	38.06
385.201	83.11
385.411	111.78
385.621	42.15
385.831	-19.29
386.041	91.31
386.251	115.88
386.461	87.21
386.671	42.15
386.881	81.07
387.091	23.72
387.301	87.21
387.511	48.3
387.72	1.19
387.93	36.01
388.14	-2.9
388.35	23.72
388.56	81.07
388.769	38.06
388.979	58.54
389.189	38.06
389.399	29.87
389.609	-50
389.818	44.2
390.028	76.97
390.238	48.3
390.447	68.78
390.657	89.26
390.867	81.07
391.076	56.49
391.286	-15.19
391.496	56.49
391.705	70.83
391.915	66.73
392.125	97.45
392.334	60.59
392.544	115.88
392.753	-19.29
392.963	21.67
393.172	89.26
393.382	29.87
393.591	62.63
393.801	76.97
394.01	160.94
394.22	31.91
394.429	44.2
394.639	25.77
394.848	128.17
395.058	70.83
395.267	21.67
395.477	33.96
395.686	50.35
395.895	70.83
396.105	89.26
396.314	95.4
396.524	48.3
396.733	124.07
396.942	31.91
397.152	17.58
397.361	95.4
397.57	-33.62
397.78	81.07
397.989	19.63
398.198	68.78
398.407	13.48
398.617	42.15
398.826	11.43
399.035	21.67
399.244	72.87
399.453	46.25
399.663	76.97
399.872	46.25
400.081	21.67
400.29	128.17
400.499	70.83
400.708	58.54
400.917	29.87
401.127	62.63
401.336	-0.85
401.545	119.98
401.754	103.59
401.963	146.6
402.172	62.63
402.381	72.87
402.59	119.98
402.799	64.68
403.008	144.55
403.217	62.63
403.426	40.11
403.635	130.22
403.844	148.65
404.053	-45.91
404.262	58.54
404.471	146.6
404.68	56.49
404.888	169.13
405.097	87.21
405.306	85.16
405.515	148.65
405.724	111.78
405.933	128.17
406.142	119.98
406.35	119.98
406.559	138.41
406.768	40.11
406.977	169.13
407.185	105.64
407.394	216.23
407.603	119.98
407.812	169.13
408.02	171.18
408.229	136.36
408.438	195.75
408.646	97.45
408.855	152.74
409.064	136.36
409.272	191.66
409.481	210.09
409.69	119.98
409.898	128.17
410.107	294.05
410.315	210.09
410.524	246.95
410.733	195.75
410.941	187.56
411.15	251.05
411.358	244.9
411.567	255.14
411.775	220.33
411.984	294.05
412.192	259.24
412.401	193.7
412.609	357.54
412.818	349.35
413.026	222.38
413.234	269.48
413.443	249
413.651	431.27
413.86	308.39
414.068	386.21
414.276	441.51
414.485	339.11
414.693	429.22
414.901	431.27
415.11	480.42
415.318	425.12
415.526	464.04
415.734	455.84
415.943	502.95
416.151	556.19
416.359	576.67
416.567	570.53
416.776	576.67
416.984	531.62
417.192	619.68
417.4	629.92
417.608	597.15
417.817	656.54
418.025	724.13
418.233	787.61
418.441	627.87
418.649	754.85
418.857	806.05
419.065	824.48
419.273	838.81
419.481	935.07
419.689	955.55
419.897	908.44
420.105	980.12
420.313	1043.61
420.521	1113.24
420.729	1008.8
420.937	1103
421.145	1180.82
421.353	1260.7
421.561	1299.61
421.769	1283.22
421.977	1285.27
422.185	1236.12
422.393	1332.37
422.601	1430.68
422.809	1481.88
423.017	1471.64
423.224	1547.41
423.432	1660.05
423.64	1528.98
423.848	1674.39
424.056	1596.56
424.263	1766.54
424.471	1791.12
424.679	1924.24
424.887	1963.15
425.094	1963.15
425.302	2038.92
425.51	2026.64
425.718	2102.41
425.925	2174.09
426.133	2344.07
426.341	2366.6
426.548	2507.91
426.756	2581.64
426.964	2530.44
427.171	2595.97
427.379	2892.93
427.586	2806.91
427.794	2839.68
428.001	2923.65
428.209	3140.73
428.417	3056.76
428.624	3292.28
428.832	3206.27
429.039	3323
429.247	3308.66
429.454	3486.84
429.662	3562.61
429.869	3490.93
430.076	3816.56
430.284	3880.05
430.491	3775.6
430.699	4134
430.906	4109.42
431.114	4076.65
431.321	4326.5
431.528	4389.99
431.736	4457.57
431.943	4830.3
432.15	4625.51
432.358	4813.92
432.565	5125.21
432.772	4930.66
432.979	5194.84
433.187	5389.4
433.394	5350.49
433.601	5571.67
433.808	5715.03
434.016	5776.47
434.223	5903.44
434.43	6290.51
434.637	6114.38
434.844	6560.84
435.052	6628.42
435.259	6515.78
435.466	6530.12
435.673	6571.08
435.88	7115.84
436.087	7402.55
436.294	7435.32
436.501	7287.87
436.708	7324.73
436.915	7638.07
437.122	7959.6
437.329	7963.7
437.537	8240.17
437.743	8373.29
437.95	8201.26
438.157	8766.5
438.364	8844.32
438.571	9077.79
438.778	8827.94
438.985	9794.58
439.192	9559.06
439.399	9905.17
439.606	9438.23
439.813	10003.47
440.02	10806.28
440.227	10376.2
440.433	10384.4
440.64	10540.04
440.847	10413.07
441.054	10755.08
441.261	11523.07
441.467	11428.86
441.674	11641.85
441.881	11949.04
442.088	12041.2
442.294	11893.75
442.501	12401.65
442.708	12712.94
442.914	12932.07
443.121	13376.48
443.328	13165.54
443.534	14187.47
443.741	13687.77
443.948	13415.39
444.154	14443.47
444.361	14300.11
444.568	14328.78
444.774	14214.1
444.981	14672.84
445.187	14844.87
445.394	15717.31
445.6	15494.08
445.807	16917.42
446.013	16343.99
446.22	16311.22
446.426	17007.53
446.633	17058.73
446.839	17699.74
447.046	17234.85
447.252	18037.66
447.459	18097.05
447.665	18135.96
447.871	18639.76
448.078	19587.97
448.284	18525.07
448.491	19327.88
448.697	19741.57
448.903	20214.65
449.11	20659.06
449.316	20007.8
449.522	20472.69
449.728	20970.35
449.935	21082.98
450.141	20976.49
450.347	21529.44
450.553	20853.61
450.76	20945.77
450.966	22078.3
451.172	21822.3
451.378	21949.28
451.584	21701.47
451.791	22106.97
451.997	22182.74
452.203	22604.63
452.409	22707.02
452.615	22672.21
452.821	21500.77
453.027	21295.97
453.233	22469.46
453.44	21545.83
453.646	21760.86
453.852	22201.18
454.058	22494.04
454.264	21738.33
454.47	22481.75
454.676	21742.43
454.882	22315.86
455.088	20448.11
455.294	20857.71
455.5	21087.08
455.705	21255.01
455.911	20126.58
456.117	19987.32
456.323	19803
456.529	18736.01
456.735	19682.17
456.941	19200.9
457.147	18670.48
457.352	18066.33
457.558	18416.53
457.764	17957.78
457.97	17580.96
458.176	17318.82
458.381	17421.22
458.587	16421.81
458.793	16567.21
458.999	15449.02
459.204	16839.59
459.41	16372.66
459.616	15487.93
459.821	15199.17
460.027	15356.86
460.233	14898.12
460.438	14259.15
460.644	14455.76
460.85	13683.67
461.055	13548.51
461.261	13503.45
461.466	12534.76
461.672	11938.8
461.878	12868.58
462.083	11959.28
462.289	11660.28
462.494	11572.22
462.7	11228.16
462.905	10775.56
463.111	11279.36
463.316	11328.51
463.522	10886.15
463.727	11162.62
463.932	11197.44
464.138	10982.4
464.343	10986.5
464.549	10769.41
464.754	11090.95
464.959	10886.15
465.165	10890.24
465.37	10505.23
465.575	10263.57
465.781	10609.67
465.986	10646.54
466.191	10212.37
466.397	10140.69
466.602	9514.01
466.807	10091.54
467.012	9933.84
467.218	10032.15
467.423	9845.78
467.628	9753.62
467.833	10150.93
468.038	9733.14
468.244	9567.26
468.449	9948.18
