Data from USB4F104151__54__14-17-01-301.txt Node

Date: Thu Mar 13 14:17:01 EDT 2025
User: louis
Spectrometer: USB4F10415
Trigger mode: 4
Integration Time (sec): 2.000000E-2
Scans to average: 1
Electric dark correction enabled: true
Nonlinearity correction enabled: false
Boxcar width: 0
XAxis mode: Wavelengths
Number of Pixels in Spectrum: 3648
>>>>>Begin Spectral Data<<<<<
178.204	-111.61
178.424	-111.61
178.644	-111.61
178.864	-87.04
179.084	-128
179.304	9.22
179.524	-37.89
179.744	-52.22
179.964	13.31
180.184	-11.26
180.404	44.03
180.624	-7.17
180.844	21.5
181.064	-19.46
181.283	-27.65
181.503	50.18
181.723	17.41
181.943	-3.07
182.163	103.42
182.383	62.46
182.602	74.75
182.822	15.36
183.042	31.74
183.262	33.79
183.482	60.42
183.701	1.02
183.921	54.27
184.141	44.03
184.361	-46.08
184.58	19.46
184.8	68.61
185.02	-3.07
185.239	37.89
185.459	48.13
185.679	78.85
185.898	-46.08
186.118	82.94
186.338	-11.26
186.557	58.37
186.777	125.95
186.997	64.51
187.216	-19.46
187.436	21.5
187.655	21.5
187.875	-11.26
188.095	48.13
188.314	74.75
188.534	107.52
188.753	-1.02
188.973	58.37
189.192	25.6
189.412	35.84
189.631	23.55
189.851	27.65
190.07	46.08
190.29	44.03
190.509	76.8
190.729	15.36
190.948	25.6
191.168	76.8
191.387	44.03
191.607	5.12
191.826	23.55
192.045	27.65
192.265	7.17
192.484	84.99
192.704	84.99
192.923	29.7
193.142	117.76
193.362	21.5
193.581	121.85
193.8	89.09
194.02	29.7
194.239	41.98
194.458	17.41
194.678	39.94
194.897	105.47
195.116	-11.26
195.335	27.65
195.555	101.37
195.774	44.03
195.993	37.89
196.212	19.46
196.432	37.89
196.651	3.07
196.87	31.74
197.089	84.99
197.308	58.37
197.528	64.51
197.747	15.36
197.966	11.26
198.185	52.22
198.404	31.74
198.623	54.27
198.842	76.8
199.062	21.5
199.281	117.76
199.5	52.22
199.719	-21.5
199.938	62.46
200.157	101.37
200.376	-3.07
200.595	11.26
200.814	109.57
201.033	3.07
201.252	68.61
201.471	56.32
201.69	68.61
201.909	39.94
202.128	78.85
202.347	21.5
202.566	25.6
202.785	-5.12
203.004	27.65
203.223	78.85
203.442	48.13
203.661	3.07
203.879	27.65
204.098	142.33
204.317	-29.7
204.536	78.85
204.755	84.99
204.974	44.03
205.193	76.8
205.411	82.94
205.63	54.27
205.849	64.51
206.068	9.22
206.287	7.17
206.505	3.07
206.724	70.65
206.943	52.22
207.162	35.84
207.381	72.7
207.599	54.27
207.818	35.84
208.037	23.55
208.255	37.89
208.474	56.32
208.693	33.79
208.911	-7.17
209.13	64.51
209.349	39.94
209.567	74.75
209.786	64.51
210.005	48.13
210.223	54.27
210.442	-9.22
210.661	64.51
210.879	68.61
211.098	78.85
211.316	46.08
211.535	37.89
211.753	21.5
211.972	21.5
212.191	-3.07
212.409	41.98
212.628	33.79
212.846	44.03
213.065	97.28
213.283	60.42
213.502	48.13
213.72	70.65
213.938	-11.26
214.157	-1.02
214.375	50.18
214.594	19.46
214.812	35.84
215.031	101.37
215.249	21.5
215.467	27.65
215.686	19.46
215.904	93.18
216.122	78.85
216.341	56.32
216.559	62.46
216.778	109.57
216.996	68.61
217.214	52.22
217.432	19.46
217.651	60.42
217.869	56.32
218.087	52.22
218.306	50.18
218.524	29.7
218.742	5.12
218.96	66.56
219.179	35.84
219.397	-9.22
219.615	76.8
219.833	27.65
220.051	52.22
220.27	11.26
220.488	48.13
220.706	175.1
220.924	31.74
221.142	21.5
221.36	64.51
221.578	84.99
221.796	23.55
222.015	27.65
222.233	103.42
222.451	82.94
222.669	-5.12
222.887	27.65
223.105	72.7
223.323	72.7
223.541	44.03
223.759	9.22
223.977	50.18
224.195	68.61
224.413	58.37
224.631	84.99
224.849	21.5
225.067	66.56
225.285	56.32
225.503	68.61
225.721	70.65
225.939	64.51
226.157	78.85
226.375	84.99
226.592	31.74
226.81	35.84
227.028	117.76
227.246	60.42
227.464	60.42
227.682	64.51
227.9	13.31
228.117	70.65
228.335	80.89
228.553	21.5
228.771	39.94
228.989	48.13
229.206	21.5
229.424	-58.37
229.642	109.57
229.86	68.61
230.077	46.08
230.295	37.89
230.513	37.89
230.731	35.84
230.948	76.8
231.166	44.03
231.384	44.03
231.601	173.05
231.819	58.37
232.037	29.7
232.254	54.27
232.472	-3.07
232.689	78.85
232.907	50.18
233.125	95.23
233.342	78.85
233.56	35.84
233.777	48.13
233.995	70.65
234.213	136.19
234.43	48.13
234.648	62.46
234.865	-19.46
235.083	44.03
235.3	60.42
235.518	3.07
235.735	-19.46
235.953	128
236.17	41.98
236.388	37.89
236.605	54.27
236.822	72.7
237.04	84.99
237.257	89.09
237.475	-9.22
237.692	48.13
237.909	39.94
238.127	82.94
238.344	74.75
238.562	52.22
238.779	-29.7
238.996	-5.12
239.214	76.8
239.431	101.37
239.648	103.42
239.865	158.72
240.083	-21.5
240.3	68.61
240.517	44.03
240.735	70.65
240.952	95.23
241.169	39.94
241.386	89.09
241.603	3.07
241.821	23.55
242.038	105.47
242.255	39.94
242.472	-3.07
242.689	7.17
242.907	44.03
243.124	78.85
243.341	93.18
243.558	60.42
243.775	46.08
243.992	23.55
244.209	5.12
244.426	84.99
244.643	130.05
244.86	60.42
245.078	68.61
245.295	101.37
245.512	105.47
245.729	19.46
245.946	70.65
246.163	52.22
246.38	76.8
246.597	-3.07
246.814	35.84
247.031	5.12
247.248	82.94
247.464	33.79
247.681	35.84
247.898	97.28
248.115	31.74
248.332	-23.55
248.549	37.89
248.766	158.72
248.983	44.03
249.2	76.8
249.417	60.42
249.633	46.08
249.85	117.76
250.067	11.26
250.284	-25.6
250.501	29.7
250.717	-19.46
250.934	76.8
251.151	97.28
251.368	103.42
251.585	54.27
251.801	87.04
252.018	17.41
252.235	93.18
252.451	-46.08
252.668	68.61
252.885	97.28
253.102	89.09
253.318	-9.22
253.535	68.61
253.752	15.36
253.968	46.08
254.185	-37.89
254.401	39.94
254.618	56.32
254.835	3.07
255.051	99.33
255.268	39.94
255.484	48.13
255.701	54.27
255.917	46.08
256.134	29.7
256.351	84.99
256.567	58.37
256.784	39.94
257	39.94
257.217	115.71
257.433	44.03
257.65	93.18
257.866	68.61
258.082	60.42
258.299	13.31
258.515	27.65
258.732	39.94
258.948	5.12
259.165	-3.07
259.381	15.36
259.597	13.31
259.814	44.03
260.03	128
260.246	113.66
260.463	27.65
260.679	60.42
260.895	-3.07
261.112	91.13
261.328	19.46
261.544	50.18
261.761	78.85
261.977	9.22
262.193	-17.41
262.409	109.57
262.626	101.37
262.842	41.98
263.058	27.65
263.274	58.37
263.49	21.5
263.707	54.27
263.923	74.75
264.139	117.76
264.355	-1.02
264.571	142.33
264.787	95.23
265.004	78.85
265.22	19.46
265.436	37.89
265.652	44.03
265.868	70.65
266.084	9.22
266.3	60.42
266.516	19.46
266.732	25.6
266.948	101.37
267.164	70.65
267.38	-29.7
267.596	-11.26
267.812	93.18
268.028	50.18
268.244	95.23
268.46	21.5
268.676	93.18
268.892	76.8
269.108	13.31
269.324	15.36
269.54	3.07
269.756	68.61
269.972	-64.51
270.188	60.42
270.403	50.18
270.619	62.46
270.835	9.22
271.051	76.8
271.267	121.85
271.483	19.46
271.698	117.76
271.914	103.42
272.13	58.37
272.346	3.07
272.562	72.7
272.777	76.8
272.993	17.41
273.209	29.7
273.425	117.76
273.64	11.26
273.856	70.65
274.072	44.03
274.287	11.26
274.503	29.7
274.719	46.08
274.934	-21.5
275.15	-29.7
275.366	56.32
275.581	-23.55
275.797	21.5
276.012	41.98
276.228	-41.98
276.444	64.51
276.659	27.65
276.875	56.32
277.09	48.13
277.306	13.31
277.521	138.24
277.737	23.55
277.952	-5.12
278.168	62.46
278.383	84.99
278.599	84.99
278.814	101.37
279.03	76.8
279.245	103.42
279.461	56.32
279.676	93.18
279.892	56.32
280.107	70.65
280.322	-33.79
280.538	-21.5
280.753	-27.65
280.969	117.76
281.184	44.03
281.399	58.37
281.615	80.89
281.83	91.13
282.045	7.17
282.26	-27.65
282.476	64.51
282.691	50.18
282.906	21.5
283.122	39.94
283.337	50.18
283.552	136.19
283.767	58.37
283.983	134.14
284.198	68.61
284.413	103.42
284.628	-11.26
284.843	37.89
285.058	-29.7
285.274	78.85
285.489	60.42
285.704	70.65
285.919	31.74
286.134	87.04
286.349	31.74
286.564	-37.89
286.779	11.26
286.995	3.07
287.21	48.13
287.425	130.05
287.64	-5.12
287.855	21.5
288.07	37.89
288.285	78.85
288.5	48.13
288.715	72.7
288.93	15.36
289.145	46.08
289.36	62.46
289.575	76.8
289.79	74.75
290.004	13.31
290.219	101.37
290.434	48.13
290.649	25.6
290.864	15.36
291.079	87.04
291.294	35.84
291.509	117.76
291.724	62.46
291.938	-7.17
292.153	64.51
292.368	-3.07
292.583	134.14
292.798	39.94
293.012	19.46
293.227	27.65
293.442	68.61
293.657	64.51
293.871	99.33
294.086	27.65
294.301	60.42
294.516	54.27
294.73	21.5
294.945	52.22
295.16	29.7
295.374	44.03
295.589	35.84
295.804	60.42
296.018	138.24
296.233	52.22
296.447	80.89
296.662	-25.6
296.877	103.42
297.091	99.33
297.306	37.89
297.52	21.5
297.735	-46.08
297.949	107.52
298.164	39.94
298.378	146.43
298.593	66.56
298.807	-3.07
299.022	-27.65
299.236	113.66
299.451	72.7
299.665	44.03
299.88	95.23
300.094	21.5
300.309	33.79
300.523	27.65
300.737	84.99
300.952	84.99
301.166	44.03
301.381	52.22
301.595	29.7
301.809	62.46
302.024	3.07
302.238	17.41
302.452	-3.07
302.667	68.61
302.881	27.65
303.095	29.7
303.309	93.18
303.524	7.17
303.738	109.57
303.952	11.26
304.166	76.8
304.381	-15.36
304.595	99.33
304.809	52.22
305.023	-29.7
305.237	54.27
305.452	80.89
305.666	15.36
305.88	84.99
306.094	95.23
306.308	109.57
306.522	60.42
306.736	76.8
306.95	93.18
307.164	31.74
307.379	95.23
307.593	93.18
307.807	138.24
308.021	56.32
308.235	17.41
308.449	-17.41
308.663	19.46
308.877	46.08
309.091	70.65
309.305	17.41
309.519	11.26
309.733	68.61
309.947	60.42
310.161	27.65
310.374	72.7
310.588	103.42
310.802	23.55
311.016	27.65
311.23	76.8
311.444	35.84
311.658	64.51
311.872	25.6
312.085	50.18
312.299	109.57
312.513	121.85
312.727	37.89
312.941	17.41
313.154	134.14
313.368	27.65
313.582	50.18
313.796	48.13
314.009	99.33
314.223	-5.12
314.437	101.37
314.651	48.13
314.864	23.55
315.078	39.94
315.292	58.37
315.505	41.98
315.719	46.08
315.933	132.09
316.146	37.89
316.36	-13.31
316.573	13.31
316.787	109.57
317.001	84.99
317.214	15.36
317.428	31.74
317.641	50.18
317.855	52.22
318.068	21.5
318.282	107.52
318.495	132.09
318.709	105.47
318.922	35.84
319.136	76.8
319.349	52.22
319.563	-9.22
319.776	21.5
319.99	17.41
320.203	113.66
320.417	19.46
320.63	119.81
320.843	117.76
321.057	31.74
321.27	64.51
321.483	1.02
321.697	44.03
321.91	99.33
322.124	44.03
322.337	27.65
322.55	23.55
322.763	27.65
322.977	11.26
323.19	60.42
323.403	21.5
323.617	44.03
323.83	52.22
324.043	66.56
324.256	68.61
324.469	93.18
324.683	37.89
324.896	99.33
325.109	27.65
325.322	46.08
325.535	44.03
325.748	44.03
325.962	19.46
326.175	64.51
326.388	60.42
326.601	117.76
326.814	29.7
327.027	41.98
327.24	134.14
327.453	35.84
327.666	56.32
327.879	-39.94
328.092	54.27
328.305	54.27
328.518	9.22
328.731	76.8
328.944	46.08
329.157	68.61
329.37	52.22
329.583	76.8
329.796	52.22
330.009	62.46
330.222	93.18
330.435	-11.26
330.648	39.94
330.861	31.74
331.073	50.18
331.286	11.26
331.499	93.18
331.712	17.41
331.925	35.84
332.138	56.32
332.35	80.89
332.563	33.79
332.776	-13.31
332.989	-3.07
333.202	134.14
333.414	9.22
333.627	46.08
333.84	52.22
334.053	17.41
334.265	5.12
334.478	17.41
334.691	66.56
334.903	76.8
335.116	3.07
335.329	68.61
335.541	31.74
335.754	99.33
335.966	87.04
336.179	80.89
336.392	84.99
336.604	21.5
336.817	31.74
337.029	35.84
337.242	-23.55
337.454	84.99
337.667	25.6
337.88	240.64
338.092	125.95
338.305	76.8
338.517	109.57
338.729	15.36
338.942	60.42
339.154	33.79
339.367	84.99
339.579	37.89
339.792	35.84
340.004	113.66
340.217	101.37
340.429	76.8
340.641	41.98
340.854	-5.12
341.066	31.74
341.278	136.19
341.491	62.46
341.703	27.65
341.915	44.03
342.128	54.27
342.34	52.22
342.552	44.03
342.764	48.13
342.977	-3.07
343.189	54.27
343.401	-33.79
343.613	29.7
343.826	46.08
344.038	-66.56
344.25	37.89
344.462	56.32
344.674	72.7
344.886	64.51
345.099	152.57
345.311	3.07
345.523	44.03
345.735	91.13
345.947	87.04
346.159	13.31
346.371	11.26
346.583	76.8
346.795	46.08
347.007	17.41
347.219	68.61
347.431	62.46
347.643	50.18
347.855	46.08
348.067	130.05
348.279	19.46
348.491	84.99
348.703	17.41
348.915	105.47
349.127	21.5
349.339	11.26
349.551	68.61
349.763	-13.31
349.975	56.32
350.187	70.65
350.399	23.55
350.61	58.37
350.822	101.37
351.034	25.6
351.246	23.55
351.458	93.18
351.669	117.76
351.881	144.38
352.093	25.6
352.305	54.27
352.517	70.65
352.728	68.61
352.94	41.98
353.152	37.89
353.363	-11.26
353.575	117.76
353.787	23.55
353.999	130.05
354.21	13.31
354.422	105.47
354.633	27.65
354.845	52.22
355.057	31.74
355.268	76.8
355.48	46.08
355.692	25.6
355.903	64.51
356.115	5.12
356.326	17.41
356.538	68.61
356.749	44.03
356.961	93.18
357.172	19.46
357.384	13.31
357.595	119.81
357.807	72.7
358.018	27.65
358.23	64.51
358.441	152.57
358.653	84.99
358.864	44.03
359.075	35.84
359.287	19.46
359.498	113.66
359.709	54.27
359.921	117.76
360.132	78.85
360.344	27.65
360.555	-9.22
360.766	130.05
360.977	11.26
361.189	142.33
361.4	35.84
361.611	105.47
361.823	93.18
362.034	48.13
362.245	15.36
362.456	35.84
362.667	113.66
362.879	39.94
363.09	35.84
363.301	60.42
363.512	64.51
363.723	31.74
363.935	97.28
364.146	117.76
364.357	64.51
364.568	54.27
364.779	11.26
364.99	84.99
365.201	5.12
365.412	35.84
365.623	64.51
365.834	93.18
366.045	23.55
366.256	-7.17
366.467	93.18
366.678	31.74
366.889	-13.31
367.1	97.28
367.311	64.51
367.522	54.27
367.733	117.76
367.944	113.66
368.155	-3.07
368.366	80.89
368.577	56.32
368.788	76.8
368.999	35.84
369.209	68.61
369.42	113.66
369.631	150.53
369.842	52.22
370.053	37.89
370.264	107.52
370.474	72.7
370.685	76.8
370.896	21.5
371.107	82.94
371.317	95.23
371.528	62.46
371.739	84.99
371.95	68.61
372.16	87.04
372.371	-5.12
372.582	35.84
372.792	128
373.003	101.37
373.214	76.8
373.424	140.29
373.635	56.32
373.846	109.57
374.056	101.37
374.267	23.55
374.477	7.17
374.688	33.79
374.898	62.46
375.109	17.41
375.319	64.51
375.53	93.18
375.74	66.56
375.951	52.22
376.161	117.76
376.372	93.18
376.582	64.51
376.793	62.46
377.003	68.61
377.214	60.42
377.424	128
377.635	31.74
377.845	60.42
378.055	74.75
378.266	44.03
378.476	27.65
378.686	84.99
378.897	121.85
379.107	87.04
379.317	150.53
379.528	31.74
379.738	125.95
379.948	-25.6
380.158	89.09
380.369	46.08
380.579	107.52
380.789	117.76
380.999	93.18
381.21	82.94
381.42	11.26
381.63	134.14
381.84	101.37
382.05	95.23
382.261	29.7
382.471	41.98
382.681	87.04
382.891	109.57
383.101	56.32
383.311	7.17
383.521	89.09
383.731	99.33
383.941	125.95
384.151	111.61
384.361	68.61
384.571	146.43
384.781	60.42
384.991	60.42
385.201	72.7
385.411	-1.02
385.621	117.76
385.831	70.65
386.041	46.08
386.251	9.22
386.461	58.37
386.671	35.84
386.881	33.79
387.091	125.95
387.301	111.61
387.511	93.18
387.72	107.52
387.93	44.03
388.14	50.18
388.35	78.85
388.56	70.65
388.769	138.24
388.979	62.46
389.189	66.56
389.399	68.61
389.609	162.81
389.818	138.24
390.028	41.98
390.238	103.42
390.447	72.7
390.657	60.42
390.867	62.46
391.076	-13.31
391.286	76.8
391.496	60.42
391.705	89.09
391.915	93.18
392.125	146.43
392.334	113.66
392.544	27.65
392.753	50.18
392.963	44.03
393.172	101.37
393.382	48.13
393.591	144.38
393.801	60.42
394.01	168.96
394.22	99.33
394.429	93.18
394.639	58.37
394.848	99.33
395.058	76.8
395.267	138.24
395.477	99.33
395.686	128
395.895	117.76
396.105	162.81
396.314	82.94
396.524	35.84
396.733	101.37
396.942	158.72
397.152	93.18
397.361	177.15
397.57	58.37
397.78	78.85
397.989	62.46
398.198	183.29
398.407	78.85
398.617	111.61
398.826	154.62
399.035	87.04
399.244	130.05
399.453	144.38
399.663	136.19
399.872	146.43
400.081	7.17
400.29	134.14
400.499	136.19
400.708	158.72
400.917	150.53
401.127	84.99
401.336	35.84
401.545	199.68
401.754	103.42
401.963	76.8
402.172	101.37
402.381	113.66
402.59	166.91
402.799	183.29
403.008	109.57
403.217	117.76
403.426	128
403.635	130.05
403.844	162.81
404.053	103.42
404.262	111.61
404.471	189.44
404.68	91.13
404.888	150.53
405.097	171.01
405.306	259.07
405.515	166.91
405.724	199.68
405.933	130.05
406.142	171.01
406.35	220.16
406.559	109.57
406.768	171.01
406.977	275.45
407.185	181.25
407.394	246.78
407.603	181.25
407.812	230.4
408.02	220.16
408.229	273.4
408.438	179.2
408.646	211.96
408.855	257.02
409.064	265.21
409.272	302.08
409.481	289.79
409.69	281.6
409.898	334.84
410.107	306.17
410.315	316.41
410.524	365.56
410.733	248.83
410.941	310.27
411.15	371.71
411.358	326.65
411.567	373.75
411.775	418.81
411.984	359.42
412.192	437.24
412.401	359.42
412.609	392.19
412.818	523.26
413.026	463.86
413.234	480.25
413.443	515.06
413.651	472.06
413.86	539.64
414.068	556.02
414.276	562.17
414.485	580.6
414.693	660.47
414.901	715.77
415.11	609.27
415.318	662.52
415.526	715.77
415.734	695.29
415.943	769.01
416.151	840.69
416.359	807.92
416.567	779.25
416.776	742.39
416.984	887.79
417.192	994.29
417.4	859.12
417.608	881.65
417.817	881.65
418.025	994.29
418.233	1158.13
418.441	1051.63
418.649	1039.34
418.857	1176.56
419.065	1166.32
419.273	1176.56
419.481	1297.39
419.689	1272.81
419.897	1330.16
420.105	1446.89
420.313	1440.75
420.521	1555.43
420.729	1463.27
420.937	1463.27
421.145	1584.1
421.353	1539.05
421.561	1749.99
421.769	1817.57
421.977	1780.71
422.185	1833.96
422.393	1991.65
422.601	2122.72
422.809	1995.75
423.017	2067.42
423.224	2157.54
423.432	2229.21
423.64	2178.01
423.848	2454.49
424.056	2427.87
424.263	2501.59
424.471	2560.98
424.679	2675.67
424.887	2722.77
425.094	2862.04
425.302	2886.61
425.51	2870.23
425.718	2960.34
425.925	2931.67
426.133	3134.42
426.341	3292.11
426.548	3572.68
426.756	3564.49
426.964	3494.86
427.171	3718.09
427.379	3834.82
427.586	3771.33
427.794	3836.87
428.001	4242.37
428.209	4287.42
428.417	4232.13
428.624	4578.23
428.832	4658.1
429.039	4592.57
429.247	4672.44
429.454	5032.88
429.662	5270.45
429.869	4889.53
430.076	5344.17
430.284	5282.74
430.491	5489.58
430.699	5741.48
430.906	5860.26
431.114	5786.54
431.321	5977
431.528	6091.68
431.736	6544.28
431.943	6898.58
432.15	6640.54
432.358	6673.31
432.565	7142.29
432.772	7037.84
432.979	7367.57
433.187	7519.12
433.394	7648.14
433.601	7992.2
433.808	7920.52
434.016	8090.5
434.223	8203.14
434.43	8756.09
434.637	8788.86
434.844	9255.79
435.052	9370.48
435.259	9255.79
435.466	9456.5
435.673	9243.51
435.88	9952.1
436.087	10398.56
436.294	10623.84
436.501	10220.39
436.708	10206.05
436.915	10924.89
437.122	11262.8
437.329	11238.23
437.537	11619.15
437.743	11905.87
437.95	11692.88
438.157	11948.87
438.364	12856.12
438.571	12561.22
438.778	12714.81
438.985	13925.16
439.192	13206.33
439.399	13884.2
439.606	13415.22
439.813	14252.84
440.02	15121.18
440.227	14707.49
440.433	14582.56
440.64	15147.8
440.847	15096.6
441.054	15422.23
441.261	16386.82
441.467	16511.75
441.674	16550.66
441.881	17126.14
442.088	17238.78
442.294	16964.35
442.501	17599.22
442.708	17674.99
442.914	18418.41
443.121	19210.97
443.328	18752.23
443.534	20286.15
443.741	19456.73
443.948	19172.06
444.154	20419.27
444.361	20255.43
444.568	20757.19
444.774	20685.51
444.981	20880.07
445.187	21279.42
445.394	22211.25
445.6	21854.9
445.807	24111.76
446.013	23042.72
446.22	23347.87
446.426	24337.04
446.633	24470.15
446.839	25602.68
447.046	24300.17
447.252	25614.97
447.459	25674.36
447.665	25893.49
447.871	26853.99
448.078	27554.4
448.284	26649.19
448.491	27398.75
448.697	28484.17
448.903	28854.86
449.11	28736.07
449.316	28506.7
449.522	29071.94
449.728	29577.79
449.935	29796.92
450.141	29956.66
450.347	30542.38
450.553	29811.26
450.76	30016.05
450.966	31054.37
451.172	30788.14
451.378	31197.73
451.584	30599.73
451.791	31676.96
451.997	31732.25
452.203	32180.76
452.409	32221.72
452.615	31877.66
452.821	31009.32
453.027	30270
453.233	32094.74
453.44	30628.4
453.646	31146.53
453.852	31210.02
454.058	31685.15
454.264	30652.97
454.47	31836.7
454.676	30802.47
454.882	31783.45
455.088	29041.22
455.294	29268.55
455.5	29717.05
455.705	30140.98
455.911	28963.4
456.117	28334.67
456.323	28531.28
456.529	26563.18
456.735	27843.16
456.941	27058.79
457.147	26856.04
457.352	25834.1
457.558	25688.7
457.764	25660.02
457.97	25197.18
458.176	24736.39
458.381	24982.15
458.587	23562.9
458.793	23374.49
458.999	22416.04
459.204	23646.87
459.41	23218.85
459.616	21701.3
459.821	21734.07
460.027	21979.82
460.233	21213.88
460.438	20306.63
460.644	20476.62
460.85	19385.05
461.055	19026.65
461.261	19204.83
461.466	17629.94
461.672	17330.94
461.878	18469.61
462.083	17005.31
462.289	16874.24
462.494	16769.79
462.7	15987.47
462.905	15629.07
463.111	16059.15
463.316	16016.14
463.522	15665.94
463.727	15878.93
463.932	15842.06
464.138	15516.44
464.343	15563.54
464.549	14957.34
464.754	15784.72
464.959	15530.77
465.165	15280.92
465.37	14869.28
465.575	14215.98
465.781	15006.49
465.986	14994.2
466.191	14600.99
466.397	14396.2
466.602	13470.51
466.807	14023.47
467.012	14134.06
467.218	14138.15
467.423	13798.19
467.628	14146.34
