Data from USB4F104151__269__14-23-13-828.txt Node

Date: Thu Mar 13 14:23:13 EDT 2025
User: louis
Spectrometer: USB4F10415
Trigger mode: 4
Integration Time (sec): 2.000000E-2
Scans to average: 1
Electric dark correction enabled: true
Nonlinearity correction enabled: false
Boxcar width: 0
XAxis mode: Wavelengths
Number of Pixels in Spectrum: 3648
>>>>>Begin Spectral Data<<<<<
178.204	-42.32
178.424	-42.32
178.644	-42.32
178.864	-118.1
179.084	-154.96
179.304	-56.66
179.524	-11.61
179.744	27.31
179.964	45.74
180.184	25.26
180.404	90.79
180.624	-23.89
180.844	64.17
181.064	6.83
181.283	-30.04
181.503	-101.72
181.723	-36.18
181.943	-81.24
182.163	37.55
182.383	15.02
182.602	8.87
182.822	78.51
183.042	53.93
183.262	-13.65
183.482	-17.75
183.701	-36.18
183.921	-1.37
184.141	12.97
184.361	39.59
184.58	29.35
184.8	-1.37
185.02	-34.13
185.239	-23.89
185.459	84.65
185.679	68.27
185.898	-44.37
186.118	62.12
186.338	-13.65
186.557	29.35
186.777	-52.56
186.997	21.16
187.216	72.36
187.436	82.6
187.655	-27.99
187.875	62.12
188.095	-15.7
188.314	60.07
188.534	-3.41
188.753	8.87
188.973	17.07
189.192	10.92
189.412	37.55
189.631	-32.08
189.851	49.83
190.07	55.98
190.29	-58.71
190.509	37.55
190.729	-89.43
190.948	37.55
191.168	121.51
191.387	68.27
191.607	86.7
191.826	17.07
192.045	6.83
192.265	-27.99
192.484	-1.37
192.704	12.97
192.923	25.26
193.142	88.75
193.362	-7.51
193.581	96.94
193.8	12.97
194.02	41.64
194.239	37.55
194.458	-17.75
194.678	37.55
194.897	-40.28
195.116	-58.71
195.335	-36.18
195.555	94.89
195.774	37.55
195.993	98.99
196.212	62.12
196.432	-21.85
196.651	35.5
196.87	4.78
197.089	62.12
197.308	78.51
197.528	4.78
197.747	12.97
197.966	4.78
198.185	78.51
198.404	-27.99
198.623	-68.95
198.842	80.55
199.062	58.03
199.281	4.78
199.5	-60.76
199.719	-7.51
199.938	-15.7
200.157	-36.18
200.376	49.83
200.595	53.93
200.814	-15.7
201.033	-21.85
201.252	17.07
201.471	21.16
201.69	27.31
201.909	25.26
202.128	23.21
202.347	-48.47
202.566	-38.23
202.785	-3.41
203.004	0.68
203.223	53.93
203.442	-11.61
203.661	-46.42
203.879	23.21
204.098	80.55
204.317	-27.99
204.536	10.92
204.755	4.78
204.974	6.83
205.193	-27.99
205.411	33.45
205.63	12.97
205.849	33.45
206.068	-9.56
206.287	-11.61
206.505	37.55
206.724	-77.14
206.943	-17.75
207.162	4.78
207.381	8.87
207.599	0.68
207.818	31.4
208.037	4.78
208.255	-19.8
208.474	41.64
208.693	84.65
208.911	72.36
209.13	-52.56
209.349	21.16
209.567	-19.8
209.786	78.51
210.005	41.64
210.223	31.4
210.442	-27.99
210.661	47.79
210.879	-9.56
211.098	21.16
211.316	-36.18
211.535	45.74
211.753	78.51
211.972	21.16
212.191	6.83
212.409	-81.24
212.628	23.21
212.846	-32.08
213.065	74.41
213.283	64.17
213.502	21.16
213.72	60.07
213.938	-17.75
214.157	-32.08
214.375	37.55
214.594	15.02
214.812	23.21
215.031	-19.8
215.249	-1.37
215.467	62.12
215.686	-17.75
215.904	88.75
216.122	-7.51
216.341	25.26
216.559	33.45
216.778	127.66
216.996	8.87
217.214	-19.8
217.432	23.21
217.651	-50.52
217.869	-58.71
218.087	90.79
218.306	55.98
218.524	113.32
218.742	74.41
218.96	49.83
219.179	-27.99
219.397	66.22
219.615	78.51
219.833	62.12
220.051	-3.41
220.27	-27.99
220.488	37.55
220.706	35.5
220.924	-9.56
221.142	-36.18
221.36	47.79
221.578	41.64
221.796	47.79
222.015	-7.51
222.233	47.79
222.451	25.26
222.669	37.55
222.887	74.41
223.105	-3.41
223.323	-64.85
223.541	-3.41
223.759	82.6
223.977	-58.71
224.195	76.46
224.413	6.83
224.631	27.31
224.849	-1.37
225.067	74.41
225.285	-50.52
225.503	-40.28
225.721	29.35
225.939	12.97
226.157	21.16
226.375	86.7
226.592	-30.04
226.81	37.55
227.028	-1.37
227.246	66.22
227.464	29.35
227.682	-11.61
227.9	4.78
228.117	17.07
228.335	-56.66
228.553	-36.18
228.771	45.74
228.989	21.16
229.206	21.16
229.424	60.07
229.642	-23.89
229.86	33.45
230.077	60.07
230.295	4.78
230.513	29.35
230.731	-1.37
230.948	86.7
231.166	111.27
231.384	66.22
231.601	-36.18
231.819	0.68
232.037	-9.56
232.254	-19.8
232.472	49.83
232.689	15.02
232.907	119.46
233.125	-60.76
233.342	25.26
233.56	-21.85
233.777	-40.28
233.995	103.08
234.213	19.11
234.43	21.16
234.648	6.83
234.865	41.64
235.083	21.16
235.3	-17.75
235.518	47.79
235.735	86.7
235.953	31.4
236.17	-36.18
236.388	37.55
236.605	-19.8
236.822	119.46
237.04	88.75
237.257	37.55
237.475	64.17
237.692	17.07
237.909	8.87
238.127	29.35
238.344	0.68
238.562	29.35
238.779	-13.65
238.996	-27.99
239.214	23.21
239.431	4.78
239.648	-11.61
239.865	-25.94
240.083	-3.41
240.3	39.59
240.517	21.16
240.735	12.97
240.952	25.26
241.169	21.16
241.386	-25.94
241.603	37.55
241.821	10.92
242.038	-3.41
242.255	21.16
242.472	-17.75
242.689	35.5
242.907	-11.61
243.124	23.21
243.341	-36.18
243.558	-3.41
243.775	-60.76
243.992	-11.61
244.209	78.51
244.426	4.78
244.643	23.21
244.86	6.83
245.078	70.31
245.295	19.11
245.512	21.16
245.729	53.93
245.946	21.16
246.163	82.6
246.38	41.64
246.597	0.68
246.814	4.78
247.031	0.68
247.248	47.79
247.464	-5.46
247.681	-1.37
247.898	33.45
248.115	37.55
248.332	74.41
248.549	43.69
248.766	72.36
248.983	107.18
249.2	58.03
249.417	60.07
249.633	21.16
249.85	6.83
250.067	17.07
250.284	78.51
250.501	98.99
250.717	94.89
250.934	-7.51
251.151	39.59
251.368	-7.51
251.585	62.12
251.801	12.97
252.018	-56.66
252.235	76.46
252.451	12.97
252.668	12.97
252.885	78.51
253.102	55.98
253.318	-7.51
253.535	58.03
253.752	-19.8
253.968	4.78
254.185	2.73
254.401	58.03
254.618	-42.32
254.835	-30.04
255.051	21.16
255.268	-44.37
255.484	21.16
255.701	-50.52
255.917	84.65
256.134	25.26
256.351	6.83
256.567	-1.37
256.784	-3.41
257	29.35
257.217	4.78
257.433	6.83
257.65	72.36
257.866	47.79
258.082	-60.76
258.299	-1.37
258.515	-17.75
258.732	41.64
258.948	21.16
259.165	55.98
259.381	-1.37
259.597	70.31
259.814	15.02
260.03	-11.61
260.246	-23.89
260.463	41.64
260.679	25.26
260.895	-13.65
261.112	29.35
261.328	27.31
261.544	12.97
261.761	62.12
261.977	33.45
262.193	49.83
262.409	29.35
262.626	-21.85
262.842	76.46
263.058	58.03
263.274	78.51
263.49	-11.61
263.707	80.55
263.923	15.02
264.139	-9.56
264.355	-68.95
264.571	43.69
264.787	49.83
265.004	-1.37
265.22	4.78
265.436	-52.56
265.652	17.07
265.868	31.4
266.084	-46.42
266.3	-27.99
266.516	8.87
266.732	39.59
266.948	23.21
267.164	80.55
267.38	17.07
267.596	53.93
267.812	119.46
268.028	29.35
268.244	27.31
268.46	31.4
268.676	90.79
268.892	-1.37
269.108	15.02
269.324	31.4
269.54	-23.89
269.756	-15.7
269.972	-13.65
270.188	4.78
270.403	-25.94
270.619	37.55
270.835	-5.46
271.051	19.11
271.267	12.97
271.483	-7.51
271.698	70.31
271.914	25.26
272.13	6.83
272.346	23.21
272.562	29.35
272.777	-42.32
272.993	70.31
273.209	-15.7
273.425	58.03
273.64	15.02
273.856	37.55
274.072	-15.7
274.287	23.21
274.503	-17.75
274.719	49.83
274.934	49.83
275.15	-1.37
275.366	-3.41
275.581	-25.94
275.797	4.78
276.012	31.4
276.228	-44.37
276.444	-34.13
276.659	15.02
276.875	-52.56
277.09	23.21
277.306	-56.66
277.521	78.51
277.737	-36.18
277.952	51.88
278.168	15.02
278.383	72.36
278.599	-17.75
278.814	41.64
279.03	12.97
279.245	111.27
279.461	8.87
279.676	84.65
279.892	6.83
280.107	-5.46
280.322	-85.33
280.538	-25.94
280.753	-17.75
280.969	74.41
281.184	-40.28
281.399	94.89
281.615	51.88
281.83	-36.18
282.045	-1.37
282.26	29.35
282.476	25.26
282.691	25.26
282.906	-7.51
283.122	66.22
283.337	33.45
283.552	4.78
283.767	29.35
283.983	-68.95
284.198	-11.61
284.413	62.12
284.628	-107.86
284.843	55.98
285.058	86.7
285.274	-56.66
285.489	-19.8
285.704	53.93
285.919	-19.8
286.134	45.74
286.349	0.68
286.564	58.03
286.779	15.02
286.995	-19.8
287.21	12.97
287.425	12.97
287.64	-40.28
287.855	31.4
288.07	-3.41
288.285	15.02
288.5	17.07
288.715	58.03
288.93	37.55
289.145	66.22
289.36	62.12
289.575	45.74
289.79	15.02
290.004	-58.71
290.219	-7.51
290.434	-3.41
290.649	-52.56
290.864	-11.61
291.079	31.4
291.294	64.17
291.509	-50.52
291.724	82.6
291.938	17.07
292.153	21.16
292.368	76.46
292.583	4.78
292.798	12.97
293.012	49.83
293.227	37.55
293.442	64.17
293.657	37.55
293.871	37.55
294.086	-27.99
294.301	74.41
294.516	21.16
294.73	29.35
294.945	-19.8
295.16	15.02
295.374	17.07
295.589	12.97
295.804	-68.95
296.018	-34.13
296.233	21.16
296.447	70.31
296.662	8.87
296.877	45.74
297.091	-15.7
297.306	49.83
297.52	17.07
297.735	-9.56
297.949	55.98
298.164	64.17
298.378	-9.56
298.593	0.68
298.807	29.35
299.022	4.78
299.236	74.41
299.451	-11.61
299.665	-3.41
299.88	39.59
300.094	37.55
300.309	82.6
300.523	41.64
300.737	4.78
300.952	31.4
301.166	-3.41
301.381	86.7
301.595	12.97
301.809	15.02
302.024	-60.76
302.238	45.74
302.452	37.55
302.667	47.79
302.881	88.75
303.095	29.35
303.309	10.92
303.524	10.92
303.738	8.87
303.952	53.93
304.166	15.02
304.381	-73.04
304.595	86.7
304.809	-15.7
305.023	-19.8
305.237	66.22
305.452	70.31
305.666	10.92
305.88	45.74
306.094	37.55
306.308	55.98
306.522	17.07
306.736	-23.89
306.95	51.88
307.164	12.97
307.379	68.27
307.593	-1.37
307.807	37.55
308.021	29.35
308.235	8.87
308.449	45.74
308.663	-17.75
308.877	45.74
309.091	-17.75
309.305	60.07
309.519	-42.32
309.733	111.27
309.947	-7.51
310.161	72.36
310.374	8.87
310.588	25.26
310.802	-3.41
311.016	80.55
311.23	29.35
311.444	39.59
311.658	31.4
311.872	45.74
312.085	62.12
312.299	51.88
312.513	47.79
312.727	-58.71
312.941	-23.89
313.154	-7.51
313.368	90.79
313.582	90.79
313.796	92.84
314.009	-19.8
314.223	25.26
314.437	12.97
314.651	29.35
314.864	6.83
315.078	-11.61
315.292	41.64
315.505	27.31
315.719	39.59
315.933	25.26
316.146	33.45
316.36	-44.37
316.573	68.27
316.787	58.03
317.001	-23.89
317.214	15.02
317.428	39.59
317.641	94.89
317.855	23.21
318.068	62.12
318.282	25.26
318.495	45.74
318.709	-1.37
318.922	78.51
319.136	58.03
319.349	47.79
319.563	2.73
319.776	53.93
319.99	15.02
320.203	55.98
320.417	37.55
320.63	21.16
320.843	41.64
321.057	-44.37
321.27	-15.7
321.483	86.7
321.697	-1.37
321.91	-17.75
322.124	17.07
322.337	33.45
322.55	-13.65
322.763	-17.75
322.977	-25.94
323.19	25.26
323.403	66.22
323.617	23.21
323.83	4.78
324.043	92.84
324.256	29.35
324.469	-3.41
324.683	8.87
324.896	86.7
325.109	49.83
325.322	-19.8
325.535	137.9
325.748	62.12
325.962	45.74
326.175	37.55
326.388	53.93
326.601	-11.61
326.814	12.97
327.027	17.07
327.24	88.75
327.453	6.83
327.666	12.97
327.879	101.03
328.092	66.22
328.305	66.22
328.518	-66.9
328.731	29.35
328.944	25.26
329.157	53.93
329.37	37.55
329.583	111.27
329.796	25.26
330.009	19.11
330.222	0.68
330.435	0.68
330.648	35.5
330.861	33.45
331.073	90.79
331.286	37.55
331.499	23.21
331.712	0.68
331.925	-13.65
332.138	55.98
332.35	58.03
332.563	60.07
332.776	35.5
332.989	15.02
333.202	86.7
333.414	66.22
333.627	62.12
333.84	55.98
334.053	80.55
334.265	21.16
334.478	4.78
334.691	-11.61
334.903	31.4
335.116	62.12
335.329	-34.13
335.541	53.93
335.754	66.22
335.966	37.55
336.179	45.74
336.392	-19.8
336.604	4.78
336.817	53.93
337.029	41.64
337.242	25.26
337.454	-7.51
337.667	78.51
337.88	6.83
338.092	47.79
338.305	51.88
338.517	4.78
338.729	43.69
338.942	131.75
339.154	45.74
339.367	43.69
339.579	144.04
339.792	-27.99
340.004	47.79
340.217	-1.37
340.429	41.64
340.641	8.87
340.854	-3.41
341.066	55.98
341.278	146.09
341.491	164.52
341.703	-34.13
341.915	-7.51
342.128	27.31
342.34	2.73
342.552	-34.13
342.764	0.68
342.977	31.4
343.189	-11.61
343.401	4.78
343.613	6.83
343.826	29.35
344.038	31.4
344.25	15.02
344.462	2.73
344.674	90.79
344.886	-1.37
345.099	12.97
345.311	70.31
345.523	-3.41
345.735	-73.04
345.947	2.73
346.159	45.74
346.371	33.45
346.583	25.26
346.795	39.59
347.007	21.16
347.219	58.03
347.431	-27.99
347.643	80.55
347.855	8.87
348.067	64.17
348.279	27.31
348.491	88.75
348.703	115.37
348.915	-25.94
349.127	31.4
349.339	10.92
349.551	-19.8
349.763	64.17
349.975	-7.51
350.187	-7.51
350.399	-9.56
350.61	94.89
350.822	21.16
351.034	37.55
351.246	23.21
351.458	86.7
351.669	-11.61
351.881	90.79
352.093	64.17
352.305	-21.85
352.517	-15.7
352.728	62.12
352.94	86.7
353.152	53.93
353.363	15.02
353.575	31.4
353.787	49.83
353.999	96.94
354.21	90.79
354.422	-36.18
354.633	-95.57
354.845	70.31
355.057	60.07
355.268	47.79
355.48	53.93
355.692	-15.7
355.903	19.11
356.115	58.03
356.326	-23.89
356.538	45.74
356.749	25.26
356.961	17.07
357.172	21.16
357.384	12.97
357.595	41.64
357.807	6.83
358.018	15.02
358.23	33.45
358.441	33.45
358.653	123.56
358.864	8.87
359.075	-52.56
359.287	103.08
359.498	19.11
359.709	45.74
359.921	-7.51
360.132	37.55
360.344	23.21
360.555	25.26
360.766	41.64
360.977	60.07
361.189	-30.04
361.4	2.73
361.611	53.93
361.823	19.11
362.034	62.12
362.245	-1.37
362.456	64.17
362.667	25.26
362.879	39.59
363.09	37.55
363.301	33.45
363.512	21.16
363.723	51.88
363.935	41.64
364.146	78.51
364.357	-3.41
364.568	37.55
364.779	15.02
364.99	137.9
365.201	-3.41
365.412	47.79
365.623	29.35
365.834	92.84
366.045	37.55
366.256	53.93
366.467	35.5
366.678	12.97
366.889	-19.8
367.1	-5.46
367.311	23.21
367.522	-1.37
367.733	6.83
367.944	103.08
368.155	64.17
368.366	129.7
368.577	12.97
368.788	12.97
368.999	37.55
369.209	45.74
369.42	74.41
369.631	105.13
369.842	12.97
370.053	-11.61
370.264	90.79
370.474	43.69
370.685	23.21
370.896	-19.8
371.107	66.22
371.317	129.7
371.528	45.74
371.739	41.64
371.95	53.93
372.16	62.12
372.371	10.92
372.582	-36.18
372.792	53.93
373.003	113.32
373.214	55.98
373.424	-7.51
373.635	10.92
373.846	70.31
374.056	39.59
374.267	162.47
374.477	92.84
374.688	-11.61
374.898	51.88
375.109	19.11
375.319	53.93
375.53	80.55
375.74	27.31
375.951	78.51
376.161	49.83
376.372	37.55
376.582	15.02
376.793	29.35
377.003	-21.85
377.214	62.12
377.424	-13.65
377.635	55.98
377.845	49.83
378.055	4.78
378.266	68.27
378.476	82.6
378.686	111.27
378.897	94.89
379.107	98.99
379.317	86.7
379.528	53.93
379.738	66.22
379.948	-34.13
380.158	53.93
380.369	21.16
380.579	25.26
380.789	80.55
380.999	25.26
381.21	-11.61
381.42	111.27
381.63	27.31
381.84	60.07
382.05	12.97
382.261	60.07
382.471	66.22
382.681	4.78
382.891	88.75
383.101	45.74
383.311	53.93
383.521	-48.47
383.731	19.11
383.941	-17.75
384.151	-19.8
384.361	-52.56
384.571	58.03
384.781	98.99
384.991	45.74
385.201	152.23
385.411	62.12
385.621	41.64
385.831	31.4
386.041	-50.52
386.251	-11.61
386.461	66.22
386.671	0.68
386.881	60.07
387.091	60.07
387.301	58.03
387.511	86.7
387.72	4.78
387.93	94.89
388.14	88.75
388.35	60.07
388.56	111.27
388.769	41.64
388.979	23.21
389.189	17.07
389.399	53.93
389.609	49.83
389.818	111.27
390.028	60.07
390.238	53.93
390.447	17.07
390.657	37.55
390.867	-27.99
391.076	-58.71
391.286	58.03
391.496	29.35
391.705	39.59
391.915	55.98
392.125	4.78
392.334	-7.51
392.544	12.97
392.753	41.64
392.963	70.31
393.172	49.83
393.382	86.7
393.591	78.51
393.801	19.11
394.01	49.83
394.22	113.32
394.429	21.16
394.639	10.92
394.848	80.55
395.058	27.31
395.267	94.89
395.477	117.42
395.686	141.99
395.895	58.03
396.105	78.51
396.314	62.12
396.524	55.98
396.733	92.84
396.942	82.6
397.152	98.99
397.361	92.84
397.57	133.8
397.78	101.03
397.989	70.31
398.198	115.37
398.407	62.12
398.617	82.6
398.826	80.55
399.035	66.22
399.244	137.9
399.453	72.36
399.663	58.03
399.872	62.12
400.081	78.51
400.29	176.81
400.499	144.04
400.708	72.36
400.917	150.18
401.127	107.18
401.336	119.46
401.545	137.9
401.754	168.62
401.963	78.51
402.172	98.99
402.381	66.22
402.59	62.12
402.799	94.89
403.008	121.51
403.217	141.99
403.426	160.42
403.635	119.46
403.844	123.56
404.053	53.93
404.262	127.66
404.471	152.23
404.68	170.66
404.888	58.03
405.097	135.85
405.306	137.9
405.515	135.85
405.724	135.85
405.933	129.7
406.142	191.14
406.35	197.29
406.559	133.8
406.768	121.51
406.977	189.1
407.185	191.14
407.394	254.63
407.603	217.77
407.812	234.15
408.02	307.88
408.229	250.53
408.438	178.86
408.646	195.24
408.855	260.77
409.064	211.62
409.272	252.58
409.481	299.69
409.69	277.16
409.898	213.67
410.107	242.34
410.315	334.5
410.524	316.07
410.733	283.3
410.941	375.46
411.15	430.76
411.358	373.41
411.567	373.41
411.775	377.51
411.984	441
412.192	385.7
412.401	484
412.609	484
412.818	416.42
413.026	494.24
413.234	473.76
413.443	492.2
413.651	471.72
413.86	508.58
414.068	576.16
414.276	625.31
414.485	594.59
414.693	602.79
414.901	686.75
415.11	584.35
415.318	719.52
415.526	684.7
415.734	653.98
415.943	787.1
416.151	844.45
416.359	793.25
416.567	836.25
416.776	813.73
416.984	860.83
417.192	998.04
417.4	922.27
417.608	918.17
417.817	922.27
418.025	1022.62
418.233	1110.68
418.441	1094.3
418.649	1092.25
418.857	1266.33
419.065	1213.08
419.273	1241.75
419.481	1149.59
419.689	1331.86
419.897	1401.49
420.105	1311.38
420.313	1512.08
420.521	1485.46
420.729	1520.28
420.937	1542.8
421.145	1569.43
421.353	1712.78
421.561	1864.33
421.769	1888.91
421.977	1907.34
422.185	1899.15
422.393	2167.43
422.601	2095.75
422.809	2177.67
423.017	2149
423.224	2159.24
423.432	2341.51
423.64	2253.45
423.848	2593.41
424.056	2470.53
424.263	2667.14
424.471	2603.65
424.679	2765.44
424.887	2906.75
425.094	2888.32
425.302	3005.05
425.51	3062.4
425.718	3207.8
425.925	3181.18
426.133	3232.38
426.341	3560.05
426.548	3721.84
426.756	3543.67
426.964	3768.95
427.171	3986.03
427.379	4037.23
427.586	4119.15
427.794	4135.53
428.001	4412.01
428.209	4602.47
428.417	4461.16
428.624	4924
428.832	4911.71
429.039	4764.26
429.247	4864.61
429.454	5349.98
429.662	5698.13
429.869	5257.82
430.076	5751.38
430.284	5339.74
430.491	5628.5
430.699	6060.62
430.906	6101.58
431.114	6181.45
431.321	6361.67
431.528	6345.29
431.736	6754.88
431.943	7250.49
432.15	6883.91
432.358	7076.41
432.565	7402.04
432.772	7324.22
432.979	7670.33
433.187	8000.05
433.394	7813.68
433.601	8499.75
433.808	8581.67
434.016	8208.94
434.223	8745.51
434.43	9331.23
434.637	9179.68
434.844	9636.38
435.052	9726.49
435.259	9822.74
435.466	9959.95
435.673	9810.45
435.88	10383.88
436.087	10957.32
436.294	11002.37
436.501	10627.59
436.708	10940.93
436.915	11198.98
437.122	11880.95
437.329	11690.49
437.537	12186.1
437.743	12528.11
437.95	12431.85
438.157	12962.28
438.364	13308.38
438.571	13361.63
438.778	13201.89
438.985	14619.08
439.192	14105.04
439.399	14502.35
439.606	14113.24
439.813	15198.66
440.02	16159.16
440.227	15561.15
440.433	15593.92
440.64	15966.65
440.847	15786.43
441.054	16363.95
441.261	17240.48
441.467	17246.63
441.674	17564.06
441.881	18063.77
442.088	18370.96
442.294	18002.33
442.501	18149.78
442.708	18614.67
442.914	19034.5
443.121	19911.03
443.328	19536.26
443.534	21006.7
443.741	20363.64
443.948	20093.3
444.154	21510.5
444.361	21420.39
444.568	21516.64
444.774	21602.66
444.981	21684.58
445.187	22561.11
445.394	23501.12
445.6	23195.98
445.807	25487.65
446.013	24187.19
446.22	24772.91
446.426	25741.6
446.633	25739.55
446.839	26798.35
447.046	25405.74
447.252	27146.51
447.459	26999.05
447.665	26921.23
447.871	28176.64
448.078	29462.76
448.284	27719.94
448.491	28717.3
448.697	29655.27
448.903	30253.28
449.11	30552.28
449.316	29769.96
449.522	30568.66
449.728	31117.52
449.935	31396.04
450.141	31469.77
450.347	31705.29
450.553	30888.15
450.76	31535.31
450.966	32534.71
451.172	32639.16
451.378	33085.62
451.584	32503.99
451.791	33048.75
451.997	33081.52
452.203	33718.44
452.409	33421.48
452.615	33380.53
452.821	32090.3
453.027	31912.13
453.233	33783.98
453.44	32592.06
453.646	32491.71
453.852	32866.49
454.058	33114.29
454.264	32643.26
454.47	33292.46
454.676	32266.43
454.882	33427.63
455.088	30773.46
455.294	30746.84
455.5	31611.08
455.705	31336.65
455.911	30314.72
456.117	29831.4
456.323	29729
456.529	28156.16
456.735	29442.28
456.941	28639.48
457.147	27977.98
457.352	27121.93
457.558	26902.8
457.764	26980.62
457.97	26351.9
458.176	25987.36
458.381	26056.99
458.587	24391.99
458.793	24594.74
458.999	23181.64
459.204	25235.75
459.41	24260.92
459.616	22847.82
459.821	22835.53
460.027	22507.86
460.233	22215
460.438	21367.14
460.644	21700.96
460.85	20613.49
461.055	20519.28
461.261	20105.59
461.466	18895.24
461.672	17914.27
461.878	19579.26
462.083	18194.84
462.289	17889.69
462.494	17535.39
462.7	16761.26
462.905	16615.85
463.111	17285.54
463.316	17041.83
463.522	16937.38
463.727	16724.4
463.932	16753.07
464.138	16413.1
464.343	16787.88
464.549	16028.09
464.754	16513.45
464.959	16218.55
465.165	16306.61
465.37	15825.34
465.575	15217.09
465.781	15980.98
465.986	16261.55
466.191	15317.44
466.397	15206.85
466.602	14197.2
466.807	14940.61
467.012	14948.81
467.218	14787.02
467.423	14631.37
