Data from USB4F104151__105__14-18-12-176.txt Node

Date: Thu Mar 13 14:18:12 EDT 2025
User: louis
Spectrometer: USB4F10415
Trigger mode: 4
Integration Time (sec): 2.000000E-2
Scans to average: 1
Electric dark correction enabled: true
Nonlinearity correction enabled: false
Boxcar width: 0
XAxis mode: Wavelengths
Number of Pixels in Spectrum: 3648
>>>>>Begin Spectral Data<<<<<
178.204	-54.27
178.424	-54.27
178.644	-54.27
178.864	-158.72
179.084	-111.61
179.304	9.22
179.524	-107.52
179.744	17.41
179.964	-9.22
180.184	27.65
180.404	17.41
180.624	64.51
180.844	-37.89
181.064	25.6
181.283	15.36
181.503	-56.32
181.723	33.79
181.943	-113.66
182.163	39.94
182.383	17.41
182.602	58.37
182.822	56.32
183.042	25.6
183.262	-60.42
183.482	21.5
183.701	23.55
183.921	9.22
184.141	-11.26
184.361	13.31
184.58	-1.02
184.8	-37.89
185.02	-9.22
185.239	-1.02
185.459	-13.31
185.679	-1.02
185.898	-62.46
186.118	13.31
186.338	-39.94
186.557	58.37
186.777	-41.98
186.997	48.13
187.216	-52.22
187.436	56.32
187.655	52.22
187.875	9.22
188.095	7.17
188.314	27.65
188.534	11.26
188.753	48.13
188.973	91.13
189.192	99.33
189.412	41.98
189.631	64.51
189.851	-11.26
190.07	-27.65
190.29	-1.02
190.509	31.74
190.729	-1.02
190.948	35.84
191.168	87.04
191.387	56.32
191.607	23.55
191.826	54.27
192.045	-35.84
192.265	17.41
192.484	-21.5
192.704	56.32
192.923	27.65
193.142	60.42
193.362	17.41
193.581	39.94
193.8	39.94
194.02	101.37
194.239	-29.7
194.458	27.65
194.678	17.41
194.897	76.8
195.116	58.37
195.335	-44.03
195.555	1.02
195.774	72.7
195.993	-35.84
196.212	-1.02
196.432	-17.41
196.651	-9.22
196.87	-70.65
197.089	111.61
197.308	21.5
197.528	99.33
197.747	-41.98
197.966	-33.79
198.185	35.84
198.404	62.46
198.623	15.36
198.842	-19.46
199.062	-5.12
199.281	50.18
199.5	-46.08
199.719	39.94
199.938	66.56
200.157	68.61
200.376	17.41
200.595	46.08
200.814	62.46
201.033	13.31
201.252	-1.02
201.471	-17.41
201.69	13.31
201.909	35.84
202.128	33.79
202.347	23.55
202.566	-48.13
202.785	31.74
203.004	80.89
203.223	113.66
203.442	-44.03
203.661	7.17
203.879	31.74
204.098	29.7
204.317	35.84
204.536	-33.79
204.755	23.55
204.974	-60.42
205.193	-23.55
205.411	113.66
205.63	-39.94
205.849	-17.41
206.068	-9.22
206.287	-17.41
206.505	3.07
206.724	7.17
206.943	-3.07
207.162	-9.22
207.381	23.55
207.599	-25.6
207.818	48.13
208.037	-23.55
208.255	19.46
208.474	64.51
208.693	-5.12
208.911	35.84
209.13	-5.12
209.349	29.7
209.567	39.94
209.786	-17.41
210.005	11.26
210.223	44.03
210.442	-7.17
210.661	-9.22
210.879	-5.12
211.098	17.41
211.316	19.46
211.535	44.03
211.753	3.07
211.972	-21.5
212.191	39.94
212.409	58.37
212.628	13.31
212.846	44.03
213.065	64.51
213.283	113.66
213.502	17.41
213.72	-39.94
213.938	39.94
214.157	-37.89
214.375	-9.22
214.594	27.65
214.812	87.04
215.031	-23.55
215.249	44.03
215.467	-23.55
215.686	-7.17
215.904	41.98
216.122	11.26
216.341	72.7
216.559	-33.79
216.778	93.18
216.996	68.61
217.214	50.18
217.432	15.36
217.651	-39.94
217.869	13.31
218.087	7.17
218.306	-37.89
218.524	5.12
218.742	-25.6
218.96	50.18
219.179	29.7
219.397	21.5
219.615	52.22
219.833	19.46
220.051	3.07
220.27	23.55
220.488	1.02
220.706	72.7
220.924	31.74
221.142	-15.36
221.36	23.55
221.578	1.02
221.796	-25.6
222.015	-21.5
222.233	7.17
222.451	-15.36
222.669	-44.03
222.887	39.94
223.105	-9.22
223.323	33.79
223.541	-29.7
223.759	-1.02
223.977	33.79
224.195	50.18
224.413	84.99
224.631	48.13
224.849	31.74
225.067	72.7
225.285	-17.41
225.503	50.18
225.721	19.46
225.939	48.13
226.157	-5.12
226.375	87.04
226.592	-33.79
226.81	17.41
227.028	41.98
227.246	56.32
227.464	-29.7
227.682	50.18
227.9	17.41
228.117	7.17
228.335	15.36
228.553	9.22
228.771	56.32
228.989	9.22
229.206	48.13
229.424	-23.55
229.642	-23.55
229.86	21.5
230.077	7.17
230.295	-1.02
230.513	105.47
230.731	58.37
230.948	68.61
231.166	-37.89
231.384	-70.65
231.601	-13.31
231.819	76.8
232.037	15.36
232.254	-9.22
232.472	-41.98
232.689	-19.46
232.907	9.22
233.125	11.26
233.342	76.8
233.56	-48.13
233.777	-21.5
233.995	41.98
234.213	70.65
234.43	72.7
234.648	27.65
234.865	48.13
235.083	48.13
235.3	1.02
235.518	-29.7
235.735	117.76
235.953	-9.22
236.17	64.51
236.388	-74.75
236.605	21.5
236.822	39.94
237.04	-11.26
237.257	-17.41
237.475	-35.84
237.692	-19.46
237.909	27.65
238.127	23.55
238.344	41.98
238.562	41.98
238.779	-13.31
238.996	-52.22
239.214	-9.22
239.431	50.18
239.648	-23.55
239.865	3.07
240.083	80.89
240.3	23.55
240.517	-58.37
240.735	80.89
240.952	27.65
241.169	23.55
241.386	48.13
241.603	15.36
241.821	15.36
242.038	41.98
242.255	1.02
242.472	33.79
242.689	3.07
242.907	66.56
243.124	80.89
243.341	48.13
243.558	33.79
243.775	11.26
243.992	31.74
244.209	84.99
244.426	60.42
244.643	-3.07
244.86	46.08
245.078	-17.41
245.295	-25.6
245.512	48.13
245.729	-29.7
245.946	7.17
246.163	15.36
246.38	50.18
246.597	44.03
246.814	-66.56
247.031	1.02
247.248	19.46
247.464	39.94
247.681	13.31
247.898	46.08
248.115	50.18
248.332	5.12
248.549	3.07
248.766	78.85
248.983	48.13
249.2	33.79
249.417	27.65
249.633	-72.7
249.85	130.05
250.067	-17.41
250.284	64.51
250.501	35.84
250.717	29.7
250.934	25.6
251.151	-17.41
251.368	27.65
251.585	46.08
251.801	-5.12
252.018	-50.18
252.235	35.84
252.451	-7.17
252.668	3.07
252.885	64.51
253.102	7.17
253.318	-33.79
253.535	31.74
253.752	-3.07
253.968	-39.94
254.185	-33.79
254.401	39.94
254.618	17.41
254.835	74.75
255.051	48.13
255.268	101.37
255.484	23.55
255.701	-7.17
255.917	15.36
256.134	-33.79
256.351	58.37
256.567	-17.41
256.784	-1.02
257	-25.6
257.217	52.22
257.433	60.42
257.65	58.37
257.866	33.79
258.082	-1.02
258.299	23.55
258.515	66.56
258.732	23.55
258.948	87.04
259.165	76.8
259.381	-25.6
259.597	11.26
259.814	13.31
260.03	-37.89
260.246	48.13
260.463	13.31
260.679	82.94
260.895	33.79
261.112	-25.6
261.328	13.31
261.544	89.09
261.761	130.05
261.977	80.89
262.193	-25.6
262.409	-25.6
262.626	31.74
262.842	80.89
263.058	23.55
263.274	-13.31
263.49	19.46
263.707	56.32
263.923	44.03
264.139	33.79
264.355	-19.46
264.571	31.74
264.787	3.07
265.004	68.61
265.22	58.37
265.436	31.74
265.652	21.5
265.868	41.98
266.084	-25.6
266.3	115.71
266.516	11.26
266.732	-17.41
266.948	-7.17
267.164	9.22
267.38	50.18
267.596	17.41
267.812	46.08
268.028	39.94
268.244	21.5
268.46	-9.22
268.676	-99.33
268.892	93.18
269.108	-7.17
269.324	-80.89
269.54	-29.7
269.756	9.22
269.972	56.32
270.188	25.6
270.403	1.02
270.619	11.26
270.835	44.03
271.051	109.57
271.267	-9.22
271.483	-25.6
271.698	23.55
271.914	1.02
272.13	35.84
272.346	-5.12
272.562	-35.84
272.777	54.27
272.993	46.08
273.209	1.02
273.425	29.7
273.64	52.22
273.856	52.22
274.072	-9.22
274.287	-29.7
274.503	31.74
274.719	97.28
274.934	35.84
275.15	11.26
275.366	-3.07
275.581	-15.36
275.797	15.36
276.012	1.02
276.228	5.12
276.444	64.51
276.659	58.37
276.875	-33.79
277.09	-5.12
277.306	-33.79
277.521	103.42
277.737	-50.18
277.952	39.94
278.168	-9.22
278.383	7.17
278.599	41.98
278.814	-13.31
279.03	39.94
279.245	56.32
279.461	130.05
279.676	89.09
279.892	-1.02
280.107	39.94
280.322	56.32
280.538	39.94
280.753	-27.65
280.969	7.17
281.184	-29.7
281.399	87.04
281.615	9.22
281.83	78.85
282.045	-5.12
282.26	19.46
282.476	-17.41
282.691	-3.07
282.906	-29.7
283.122	-7.17
283.337	15.36
283.552	39.94
283.767	-21.5
283.983	-21.5
284.198	82.94
284.413	-41.98
284.628	39.94
284.843	78.85
285.058	56.32
285.274	15.36
285.489	48.13
285.704	82.94
285.919	-7.17
286.134	-13.31
286.349	-15.36
286.564	-7.17
286.779	78.85
286.995	7.17
287.21	19.46
287.425	19.46
287.64	-23.55
287.855	58.37
288.07	27.65
288.285	115.71
288.5	68.61
288.715	15.36
288.93	15.36
289.145	23.55
289.36	97.28
289.575	48.13
289.79	39.94
290.004	-29.7
290.219	56.32
290.434	-23.55
290.649	60.42
290.864	5.12
291.079	27.65
291.294	97.28
291.509	74.75
291.724	78.85
291.938	50.18
292.153	-1.02
292.368	15.36
292.583	64.51
292.798	48.13
293.012	68.61
293.227	13.31
293.442	7.17
293.657	72.7
293.871	138.24
294.086	23.55
294.301	27.65
294.516	5.12
294.73	-48.13
294.945	-78.85
295.16	-9.22
295.374	23.55
295.589	25.6
295.804	-25.6
296.018	-15.36
296.233	39.94
296.447	15.36
296.662	64.51
296.877	82.94
297.091	-23.55
297.306	115.71
297.52	54.27
297.735	80.89
297.949	60.42
298.164	15.36
298.378	19.46
298.593	-1.02
298.807	17.41
299.022	64.51
299.236	70.65
299.451	-31.74
299.665	74.75
299.88	19.46
300.094	64.51
300.309	-41.98
300.523	19.46
300.737	123.9
300.952	72.7
301.166	31.74
301.381	48.13
301.595	31.74
301.809	-62.46
302.024	-21.5
302.238	31.74
302.452	-41.98
302.667	56.32
302.881	23.55
303.095	58.37
303.309	25.6
303.524	-9.22
303.738	39.94
303.952	-9.22
304.166	3.07
304.381	50.18
304.595	130.05
304.809	-31.74
305.023	-27.65
305.237	50.18
305.452	46.08
305.666	15.36
305.88	23.55
306.094	1.02
306.308	21.5
306.522	58.37
306.736	-9.22
306.95	66.56
307.164	54.27
307.379	52.22
307.593	58.37
307.807	31.74
308.021	23.55
308.235	31.74
308.449	-15.36
308.663	19.46
308.877	148.48
309.091	41.98
309.305	66.56
309.519	3.07
309.733	54.27
309.947	21.5
310.161	48.13
310.374	9.22
310.588	68.61
310.802	31.74
311.016	-41.98
311.23	9.22
311.444	21.5
311.658	33.79
311.872	-31.74
312.085	56.32
312.299	78.85
312.513	56.32
312.727	13.31
312.941	-7.17
313.154	19.46
313.368	44.03
313.582	31.74
313.796	17.41
314.009	1.02
314.223	41.98
314.437	-5.12
314.651	27.65
314.864	15.36
315.078	27.65
315.292	72.7
315.505	52.22
315.719	39.94
315.933	-19.46
316.146	23.55
316.36	15.36
316.573	58.37
316.787	-17.41
317.001	15.36
317.214	33.79
317.428	-25.6
317.641	-3.07
317.855	56.32
318.068	60.42
318.282	48.13
318.495	130.05
318.709	41.98
318.922	60.42
319.136	21.5
319.349	97.28
319.563	105.47
319.776	60.42
319.99	-39.94
320.203	39.94
320.417	87.04
320.63	15.36
320.843	91.13
321.057	41.98
321.27	-5.12
321.483	17.41
321.697	27.65
321.91	9.22
322.124	21.5
322.337	-9.22
322.55	-11.26
322.763	80.89
322.977	35.84
323.19	25.6
323.403	1.02
323.617	15.36
323.83	58.37
324.043	46.08
324.256	117.76
324.469	33.79
324.683	64.51
324.896	72.7
325.109	76.8
325.322	-58.37
325.535	5.12
325.748	52.22
325.962	44.03
326.175	31.74
326.388	37.89
326.601	58.37
326.814	15.36
327.027	25.6
327.24	23.55
327.453	15.36
327.666	23.55
327.879	70.65
328.092	87.04
328.305	15.36
328.518	9.22
328.731	5.12
328.944	72.7
329.157	5.12
329.37	50.18
329.583	44.03
329.796	66.56
330.009	33.79
330.222	25.6
330.435	1.02
330.648	23.55
330.861	13.31
331.073	80.89
331.286	27.65
331.499	56.32
331.712	39.94
331.925	27.65
332.138	1.02
332.35	74.75
332.563	-39.94
332.776	50.18
332.989	-3.07
333.202	39.94
333.414	58.37
333.627	54.27
333.84	27.65
334.053	46.08
334.265	3.07
334.478	31.74
334.691	44.03
334.903	82.94
335.116	19.46
335.329	-17.41
335.541	50.18
335.754	93.18
335.966	3.07
336.179	27.65
336.392	9.22
336.604	17.41
336.817	7.17
337.029	76.8
337.242	39.94
337.454	64.51
337.667	9.22
337.88	68.61
338.092	41.98
338.305	82.94
338.517	-15.36
338.729	52.22
338.942	154.62
339.154	56.32
339.367	99.33
339.579	60.42
339.792	35.84
340.004	5.12
340.217	9.22
340.429	35.84
340.641	15.36
340.854	31.74
341.066	19.46
341.278	23.55
341.491	44.03
341.703	132.09
341.915	54.27
342.128	31.74
342.34	99.33
342.552	93.18
342.764	74.75
342.977	48.13
343.189	78.85
343.401	-13.31
343.613	35.84
343.826	3.07
344.038	84.99
344.25	35.84
344.462	31.74
344.674	56.32
344.886	19.46
345.099	97.28
345.311	13.31
345.523	35.84
345.735	41.98
345.947	56.32
346.159	68.61
346.371	74.75
346.583	-7.17
346.795	31.74
347.007	27.65
347.219	-46.08
347.431	-17.41
347.643	97.28
347.855	23.55
348.067	64.51
348.279	56.32
348.491	-5.12
348.703	56.32
348.915	-21.5
349.127	21.5
349.339	140.29
349.551	-29.7
349.763	64.51
349.975	50.18
350.187	58.37
350.399	17.41
350.61	-31.74
350.822	72.7
351.034	52.22
351.246	-1.02
351.458	74.75
351.669	50.18
351.881	54.27
352.093	23.55
352.305	76.8
352.517	7.17
352.728	48.13
352.94	84.99
353.152	35.84
353.363	-1.02
353.575	-41.98
353.787	74.75
353.999	33.79
354.21	54.27
354.422	134.14
354.633	-13.31
354.845	66.56
355.057	44.03
355.268	66.56
355.48	37.89
355.692	7.17
355.903	76.8
356.115	105.47
356.326	7.17
356.538	35.84
356.749	-7.17
356.961	113.66
357.172	21.5
357.384	23.55
357.595	146.43
357.807	39.94
358.018	-31.74
358.23	70.65
358.441	171.01
358.653	58.37
358.864	93.18
359.075	15.36
359.287	66.56
359.498	27.65
359.709	64.51
359.921	64.51
360.132	72.7
360.344	7.17
360.555	50.18
360.766	15.36
360.977	60.42
361.189	76.8
361.4	107.52
361.611	82.94
361.823	15.36
362.034	48.13
362.245	11.26
362.456	89.09
362.667	44.03
362.879	44.03
363.09	-35.84
363.301	44.03
363.512	74.75
363.723	1.02
363.935	74.75
364.146	99.33
364.357	-25.6
364.568	56.32
364.779	91.13
364.99	56.32
365.201	93.18
365.412	144.38
365.623	54.27
365.834	-23.55
366.045	1.02
366.256	37.89
366.467	107.52
366.678	7.17
366.889	44.03
367.1	58.37
367.311	60.42
367.522	41.98
367.733	-21.5
367.944	46.08
368.155	41.98
368.366	91.13
368.577	91.13
368.788	60.42
368.999	39.94
369.209	146.43
369.42	105.47
369.631	101.37
369.842	39.94
370.053	-25.6
370.264	9.22
370.474	140.29
370.685	105.47
370.896	1.02
371.107	109.57
371.317	66.56
371.528	60.42
371.739	173.05
371.95	-19.46
372.16	113.66
372.371	1.02
372.582	70.65
372.792	97.28
373.003	-25.6
373.214	109.57
373.424	82.94
373.635	33.79
373.846	105.47
374.056	13.31
374.267	60.42
374.477	97.28
374.688	52.22
374.898	19.46
375.109	29.7
375.319	35.84
375.53	103.42
375.74	48.13
375.951	-17.41
376.161	17.41
376.372	80.89
376.582	52.22
376.793	130.05
377.003	-13.31
377.214	11.26
377.424	56.32
377.635	52.22
377.845	23.55
378.055	99.33
378.266	19.46
378.476	103.42
378.686	-9.22
378.897	48.13
379.107	19.46
379.317	82.94
379.528	-7.17
379.738	89.09
379.948	-72.7
380.158	17.41
380.369	109.57
380.579	27.65
380.789	93.18
380.999	62.46
381.21	58.37
381.42	64.51
381.63	13.31
381.84	-5.12
382.05	25.6
382.261	93.18
382.471	142.33
382.681	60.42
382.891	119.81
383.101	54.27
383.311	60.42
383.521	15.36
383.731	136.19
383.941	138.24
384.151	13.31
384.361	48.13
384.571	66.56
384.781	17.41
384.991	109.57
385.201	115.71
385.411	52.22
385.621	-17.41
385.831	-9.22
386.041	35.84
386.251	64.51
386.461	224.25
386.671	-39.94
386.881	107.52
387.091	64.51
387.301	89.09
387.511	89.09
387.72	97.28
387.93	37.89
388.14	60.42
388.35	111.61
388.56	33.79
388.769	48.13
388.979	105.47
389.189	56.32
389.399	15.36
389.609	105.47
389.818	91.13
390.028	97.28
390.238	31.74
390.447	7.17
390.657	91.13
390.867	87.04
391.076	105.47
391.286	-17.41
391.496	125.95
391.705	64.51
391.915	134.14
392.125	209.92
392.334	-5.12
392.544	93.18
392.753	64.51
392.963	56.32
393.172	68.61
393.382	50.18
393.591	148.48
393.801	93.18
394.01	119.81
394.22	140.29
394.429	80.89
394.639	72.7
394.848	113.66
395.058	91.13
395.267	84.99
395.477	31.74
395.686	146.43
395.895	113.66
396.105	138.24
396.314	99.33
396.524	150.53
396.733	52.22
396.942	148.48
397.152	132.09
397.361	179.2
397.57	142.33
397.78	89.09
397.989	109.57
398.198	117.76
398.407	56.32
398.617	134.14
398.826	97.28
399.035	97.28
399.244	113.66
399.453	107.52
399.663	68.61
399.872	138.24
400.081	146.43
400.29	158.72
400.499	89.09
400.708	191.49
400.917	113.66
401.127	91.13
401.336	195.58
401.545	123.9
401.754	152.57
401.963	222.2
402.172	164.86
402.381	123.9
402.59	80.89
402.799	158.72
403.008	162.81
403.217	154.62
403.426	236.54
403.635	197.63
403.844	195.58
404.053	146.43
404.262	185.34
404.471	201.72
404.68	156.67
404.888	136.19
405.097	179.2
405.306	193.53
405.515	211.96
405.724	236.54
405.933	240.64
406.142	240.64
406.35	257.02
406.559	179.2
406.768	150.53
406.977	248.83
407.185	236.54
407.394	310.27
407.603	289.79
407.812	267.26
408.02	306.17
408.229	314.36
408.438	320.51
408.646	279.55
408.855	263.16
409.064	371.71
409.272	279.55
409.481	338.94
409.69	359.42
409.898	388.09
410.107	402.43
410.315	494.58
410.524	482.3
410.733	504.82
410.941	463.86
411.15	519.16
411.358	541.69
411.567	478.2
411.775	619.51
411.984	596.98
412.192	525.3
412.401	607.22
412.609	695.29
412.818	695.29
413.026	693.24
413.234	750.58
413.443	744.44
413.651	779.25
413.86	740.34
414.068	822.26
414.276	883.7
414.485	885.75
414.693	973.81
414.901	1022.96
415.11	936.95
415.318	1022.96
415.526	1047.54
415.734	1096.69
415.943	1135.6
416.151	1162.22
416.359	1190.89
416.567	1192.94
416.776	1278.96
416.984	1356.78
417.192	1448.94
417.4	1410.03
417.608	1332.2
417.817	1510.38
418.025	1483.75
418.233	1614.82
418.441	1545.19
418.649	1653.73
418.857	1801.19
419.065	1801.19
419.273	1768.42
419.481	1883.11
419.689	2053.09
419.897	2094.05
420.105	2212.83
420.313	2030.56
420.521	2348
420.729	2317.28
420.937	2382.81
421.145	2556.89
421.353	2616.28
421.561	2796.5
421.769	2726.87
421.977	2898.9
422.185	3027.92
422.393	2960.34
422.601	3134.42
422.809	3189.71
423.017	3388.36
423.224	3396.56
423.432	3658.7
423.64	3597.26
423.848	3832.77
424.056	3859.4
424.263	4031.43
424.471	4070.34
424.679	4262.85
424.887	4516.8
425.094	4522.94
425.302	4334.53
425.51	4686.78
425.718	4840.37
425.925	4797.37
426.133	5071.79
426.341	5307.31
426.548	5579.69
426.756	5524.4
426.964	5675.95
427.171	5850.02
427.379	6138.79
427.586	6409.12
427.794	6468.51
428.001	6710.17
428.209	7056.28
428.417	6929.3
428.624	7347.09
428.832	7431.05
429.039	7230.35
429.247	7199.63
429.454	8223.62
429.662	8489.85
429.869	8074.12
430.076	8584.06
430.284	8287.11
430.491	8754.04
430.699	9157.49
430.906	9229.17
431.114	9247.6
431.321	9548.65
431.528	9874.28
431.736	10322.79
431.943	10781.53
432.15	10701.66
432.358	10623.84
432.565	11303.76
432.772	11379.54
432.979	11733.84
433.187	12020.55
433.394	11834.19
433.601	13044.54
433.808	12983.1
434.016	12901.18
434.223	13599.54
434.43	14289.7
434.637	13783.85
434.844	14682.91
435.052	14756.64
435.259	15166.23
435.466	15127.32
435.673	14934.81
435.88	15948.56
436.087	16505.6
436.294	16691.97
436.501	16184.07
436.708	16780.03
436.915	17509.11
437.122	18090.73
437.329	17984.24
437.537	18475.75
437.743	18832.1
437.95	18442.98
438.157	19565.27
438.364	20452.04
438.571	19921.62
438.778	20200.14
438.985	21895.86
439.192	21392.06
439.399	21799.6
439.606	21537.46
439.813	22803.11
440.02	24189.58
440.227	23517.85
440.433	23440.03
440.64	24328.84
440.847	23749.27
441.054	24750.73
441.261	26192.5
441.467	25721.46
441.674	26413.68
441.881	27374.17
442.088	27271.78
442.294	27173.47
442.501	27507.29
442.708	28482.13
442.914	28994.12
443.121	30614.06
443.328	29977.14
443.534	31722.01
443.741	30974.5
443.948	30218.8
444.154	32852.49
444.361	32832.01
444.568	32678.41
444.774	32850.44
444.981	32483.86
445.187	33823.23
445.394	35588.58
445.6	34943.47
445.807	37974.46
446.013	36532.69
446.22	37071.31
446.426	38574.52
446.633	39176.62
446.839	40495.51
447.046	38193.59
447.252	40833.42
447.459	40784.27
447.665	40827.28
447.871	42393.98
448.078	44157.28
448.284	42068.35
448.491	43358.57
448.697	44788.05
448.903	45449.55
449.11	45678.92
449.316	44863.83
449.522	45703.49
449.728	46934.32
449.935	47257.9
450.141	47139.12
450.347	48124.19
450.553	47081.78
450.76	47386.92
450.966	49066.26
451.172	48709.91
451.378	50012.42
451.584	48111.91
451.791	49490.19
451.997	49553.68
452.203	50268.42
452.409	50252.03
452.615	50100.48
452.821	48417.05
453.027	47726.89
453.233	50213.12
453.44	48431.39
453.646	48838.93
453.852	48978.2
454.058	50163.97
454.264	48386.33
454.47	49467.66
454.676	48173.34
454.882	49692.94
455.088	45621.58
455.294	46537.02
455.5	46919.99
455.705	47315.25
455.911	45650.25
456.117	44919.12
456.323	44274.01
456.529	41947.52
456.735	43954.53
456.941	42486.14
457.147	42101.12
457.352	41013.65
457.558	40372.63
457.764	40735.12
457.97	39870.88
458.176	38633.91
458.381	39350.7
458.587	37177.8
458.793	37087.69
458.999	35135.98
459.204	37528
459.41	36495.83
459.616	34322.93
459.821	34363.89
460.027	34038.26
460.233	33411.59
460.438	32184.85
460.644	32109.08
460.85	30612.01
461.055	30218.8
461.261	30237.23
461.466	27804.25
461.672	27384.41
461.878	28949.06
462.083	27247.2
462.289	26829.41
462.494	26532.46
462.7	25346.69
462.905	24633.99
463.111	25330.3
463.316	25631.35
463.522	24875.65
463.727	24937.09
463.932	25248.38
464.138	24431.24
464.343	24816.26
464.549	24332.94
464.754	24935.04
464.959	24431.24
465.165	24455.82
465.37	23331.48
465.575	22766.24
465.781	23847.57
465.986	24003.22
466.191	22889.12
466.397	22547.11
466.602	21596.85
466.807	22420.14
