Data from USB4F104151__176__14-20-05-055.txt Node

Date: Thu Mar 13 14:20:05 EDT 2025
User: louis
Spectrometer: USB4F10415
Trigger mode: 4
Integration Time (sec): 2.000000E-2
Scans to average: 1
Electric dark correction enabled: true
Nonlinearity correction enabled: false
Boxcar width: 0
XAxis mode: Wavelengths
Number of Pixels in Spectrum: 3648
>>>>>Begin Spectral Data<<<<<
178.204	-71.17
178.424	-71.17
178.644	-71.17
178.864	-126.46
179.084	8.7
179.304	-19.97
179.524	-17.92
179.744	102.91
179.964	8.7
180.184	-30.21
180.404	37.38
180.624	-28.16
180.844	20.99
181.064	-83.45
181.283	29.18
181.503	-54.78
181.723	35.33
181.943	-13.82
182.163	64
182.383	18.94
182.602	10.75
182.822	29.18
183.042	43.52
183.262	-75.26
183.482	29.18
183.701	51.71
183.921	47.62
184.141	14.85
184.361	49.66
184.58	-11.78
184.8	61.95
185.02	-38.4
185.239	51.71
185.459	41.47
185.679	51.71
185.898	-32.26
186.118	29.18
186.338	18.94
186.557	-9.73
186.777	45.57
186.997	2.56
187.216	-19.97
187.436	84.48
187.655	59.9
187.875	51.71
188.095	43.52
188.314	20.99
188.534	45.57
188.753	35.33
188.973	12.8
189.192	23.04
189.412	61.95
189.631	29.18
189.851	2.56
190.07	78.33
190.29	59.9
190.509	4.61
190.729	55.81
190.948	61.95
191.168	55.81
191.387	68.09
191.607	-19.97
191.826	74.24
192.045	-28.16
192.265	33.28
192.484	-58.88
192.704	31.23
192.923	-69.12
193.142	66.05
193.362	-17.92
193.581	59.9
193.8	47.62
194.02	74.24
194.239	20.99
194.458	-19.97
194.678	61.95
194.897	64
195.116	78.33
195.335	-7.68
195.555	68.09
195.774	70.14
195.993	76.29
196.212	-13.82
196.432	2.56
196.651	64
196.87	27.14
197.089	68.09
197.308	102.91
197.528	57.86
197.747	-7.68
197.966	53.76
198.185	88.57
198.404	23.04
198.623	-9.73
198.842	27.14
199.062	29.18
199.281	66.05
199.5	-13.82
199.719	47.62
199.938	47.62
200.157	27.14
200.376	55.81
200.595	45.57
200.814	10.75
201.033	84.48
201.252	123.39
201.471	78.33
201.69	-9.73
201.909	109.05
202.128	-13.82
202.347	-11.78
202.566	-75.26
202.785	12.8
203.004	61.95
203.223	84.48
203.442	-22.02
203.661	84.48
203.879	2.56
204.098	59.9
204.317	-17.92
204.536	92.67
204.755	31.23
204.974	27.14
205.193	-1.54
205.411	74.24
205.63	25.09
205.849	-17.92
206.068	35.33
206.287	-52.74
206.505	12.8
206.724	18.94
206.943	23.04
207.162	68.09
207.381	47.62
207.599	35.33
207.818	18.94
208.037	39.42
208.255	-36.35
208.474	45.57
208.693	55.81
208.911	-26.11
209.13	-75.26
209.349	-79.36
209.567	59.9
209.786	109.05
210.005	88.57
210.223	35.33
210.442	35.33
210.661	6.66
210.879	-1.54
211.098	29.18
211.316	10.75
211.535	53.76
211.753	-5.63
211.972	14.85
212.191	12.8
212.409	68.09
212.628	100.86
212.846	27.14
213.065	-34.3
213.283	45.57
213.502	123.39
213.72	37.38
213.938	55.81
214.157	68.09
214.375	72.19
214.594	27.14
214.812	37.38
215.031	-28.16
215.249	12.8
215.467	29.18
215.686	43.52
215.904	74.24
216.122	92.67
216.341	29.18
216.559	-1.54
216.778	18.94
216.996	18.94
217.214	18.94
217.432	51.71
217.651	51.71
217.869	-3.58
218.087	35.33
218.306	55.81
218.524	-22.02
218.742	23.04
218.96	35.33
219.179	23.04
219.397	10.75
219.615	55.81
219.833	16.9
220.051	27.14
220.27	80.38
220.488	86.53
220.706	8.7
220.924	45.57
221.142	23.04
221.36	27.14
221.578	76.29
221.796	31.23
222.015	20.99
222.233	-17.92
222.451	51.71
222.669	10.75
222.887	35.33
223.105	55.81
223.323	14.85
223.541	18.94
223.759	4.61
223.977	72.19
224.195	35.33
224.413	18.94
224.631	80.38
224.849	41.47
225.067	41.47
225.285	45.57
225.503	-19.97
225.721	-36.35
225.939	61.95
226.157	53.76
226.375	74.24
226.592	27.14
226.81	6.66
227.028	-19.97
227.246	25.09
227.464	-5.63
227.682	8.7
227.9	61.95
228.117	39.42
228.335	10.75
228.553	35.33
228.771	-46.59
228.989	18.94
229.206	-17.92
229.424	-22.02
229.642	16.9
229.86	-42.5
230.077	70.14
230.295	88.57
230.513	37.38
230.731	55.81
230.948	152.06
231.166	68.09
231.384	10.75
231.601	-13.82
231.819	72.19
232.037	41.47
232.254	-69.12
232.472	53.76
232.689	14.85
232.907	-17.92
233.125	80.38
233.342	76.29
233.56	-26.11
233.777	61.95
233.995	55.81
234.213	8.7
234.43	20.99
234.648	-1.54
234.865	35.33
235.083	-54.78
235.3	-3.58
235.518	45.57
235.735	51.71
235.953	35.33
236.17	-42.5
236.388	51.71
236.605	70.14
236.822	51.71
237.04	8.7
237.257	94.72
237.475	51.71
237.692	55.81
237.909	47.62
238.127	0.51
238.344	53.76
238.562	102.91
238.779	-38.4
238.996	-3.58
239.214	37.38
239.431	53.76
239.648	59.9
239.865	35.33
240.083	102.91
240.3	86.53
240.517	16.9
240.735	51.71
240.952	27.14
241.169	-24.06
241.386	-5.63
241.603	74.24
241.821	35.33
242.038	10.75
242.255	88.57
242.472	-28.16
242.689	18.94
242.907	94.72
243.124	8.7
243.341	16.9
243.558	27.14
243.775	25.09
243.992	-67.07
244.209	-42.5
244.426	27.14
244.643	20.99
244.86	12.8
245.078	-13.82
245.295	14.85
245.512	6.66
245.729	2.56
245.946	-54.78
246.163	10.75
246.38	14.85
246.597	-15.87
246.814	84.48
247.031	59.9
247.248	57.86
247.464	-5.63
247.681	39.42
247.898	66.05
248.115	92.67
248.332	14.85
248.549	70.14
248.766	27.14
248.983	59.9
249.2	0.51
249.417	51.71
249.633	-46.59
249.85	23.04
250.067	-19.97
250.284	-13.82
250.501	43.52
250.717	0.51
250.934	-7.68
251.151	45.57
251.368	27.14
251.585	96.77
251.801	27.14
252.018	-42.5
252.235	55.81
252.451	39.42
252.668	-83.45
252.885	18.94
253.102	-11.78
253.318	61.95
253.535	23.04
253.752	16.9
253.968	37.38
254.185	76.29
254.401	37.38
254.618	43.52
254.835	-3.58
255.051	119.29
255.268	-9.73
255.484	-1.54
255.701	10.75
255.917	41.47
256.134	-60.93
256.351	-9.73
256.567	18.94
256.784	43.52
257	-15.87
257.217	41.47
257.433	18.94
257.65	53.76
257.866	59.9
258.082	27.14
258.299	59.9
258.515	70.14
258.732	-5.63
258.948	100.86
259.165	80.38
259.381	4.61
259.597	-54.78
259.814	-13.82
260.03	2.56
260.246	-38.4
260.463	98.81
260.679	92.67
260.895	51.71
261.112	-44.54
261.328	-46.59
261.544	76.29
261.761	-13.82
261.977	-3.58
262.193	6.66
262.409	100.86
262.626	43.52
262.842	27.14
263.058	4.61
263.274	47.62
263.49	27.14
263.707	-26.11
263.923	18.94
264.139	-60.93
264.355	-50.69
264.571	84.48
264.787	33.28
265.004	68.09
265.22	-11.78
265.436	27.14
265.652	0.51
265.868	53.76
266.084	72.19
266.3	43.52
266.516	45.57
266.732	43.52
266.948	61.95
267.164	14.85
267.38	23.04
267.596	0.51
267.812	18.94
268.028	25.09
268.244	23.04
268.46	-44.54
268.676	0.51
268.892	53.76
269.108	41.47
269.324	-3.58
269.54	33.28
269.756	84.48
269.972	6.66
270.188	86.53
270.403	-26.11
270.619	-19.97
270.835	10.75
271.051	37.38
271.267	-11.78
271.483	-28.16
271.698	12.8
271.914	27.14
272.13	29.18
272.346	37.38
272.562	29.18
272.777	12.8
272.993	12.8
273.209	39.42
273.425	-5.63
273.64	-30.21
273.856	51.71
274.072	-26.11
274.287	27.14
274.503	107.01
274.719	109.05
274.934	53.76
275.15	-28.16
275.366	68.09
275.581	41.47
275.797	6.66
276.012	37.38
276.228	47.62
276.444	-42.5
276.659	150.01
276.875	-26.11
277.09	35.33
277.306	37.38
277.521	82.43
277.737	43.52
277.952	35.33
278.168	0.51
278.383	2.56
278.599	43.52
278.814	86.53
279.03	64
279.245	18.94
279.461	-13.82
279.676	68.09
279.892	-1.54
280.107	6.66
280.322	-11.78
280.538	61.95
280.753	51.71
280.969	45.57
281.184	72.19
281.399	90.62
281.615	39.42
281.83	39.42
282.045	-7.68
282.26	37.38
282.476	68.09
282.691	78.33
282.906	55.81
283.122	41.47
283.337	-11.78
283.552	59.9
283.767	18.94
283.983	72.19
284.198	-11.78
284.413	12.8
284.628	-3.58
284.843	12.8
285.058	29.18
285.274	35.33
285.489	47.62
285.704	102.91
285.919	35.33
286.134	29.18
286.349	45.57
286.564	49.66
286.779	88.57
286.995	-3.58
287.21	29.18
287.425	-19.97
287.64	4.61
287.855	16.9
288.07	-36.35
288.285	90.62
288.5	72.19
288.715	37.38
288.93	6.66
289.145	2.56
289.36	59.9
289.575	8.7
289.79	104.96
290.004	-3.58
290.219	59.9
290.434	61.95
290.649	20.99
290.864	51.71
291.079	33.28
291.294	-5.63
291.509	10.75
291.724	84.48
291.938	37.38
292.153	74.24
292.368	57.86
292.583	74.24
292.798	18.94
293.012	27.14
293.227	80.38
293.442	-13.82
293.657	70.14
293.871	18.94
294.086	4.61
294.301	78.33
294.516	109.05
294.73	10.75
294.945	61.95
295.16	-3.58
295.374	100.86
295.589	31.23
295.804	2.56
296.018	129.53
296.233	31.23
296.447	51.71
296.662	20.99
296.877	70.14
297.091	68.09
297.306	64
297.52	23.04
297.735	92.67
297.949	4.61
298.164	20.99
298.378	92.67
298.593	61.95
298.807	-58.88
299.022	25.09
299.236	80.38
299.451	59.9
299.665	-15.87
299.88	-36.35
300.094	39.42
300.309	-11.78
300.523	37.38
300.737	27.14
300.952	55.81
301.166	37.38
301.381	14.85
301.595	-7.68
301.809	12.8
302.024	39.42
302.238	59.9
302.452	43.52
302.667	29.18
302.881	84.48
303.095	43.52
303.309	45.57
303.524	23.04
303.738	6.66
303.952	-9.73
304.166	94.72
304.381	4.61
304.595	72.19
304.809	-26.11
305.023	86.53
305.237	55.81
305.452	84.48
305.666	2.56
305.88	72.19
306.094	51.71
306.308	23.04
306.522	37.38
306.736	2.56
306.95	-7.68
307.164	61.95
307.379	37.38
307.593	92.67
307.807	88.57
308.021	96.77
308.235	29.18
308.449	72.19
308.663	41.47
308.877	57.86
309.091	4.61
309.305	113.15
309.519	-26.11
309.733	61.95
309.947	61.95
310.161	18.94
310.374	78.33
310.588	59.9
310.802	4.61
311.016	45.57
311.23	88.57
311.444	78.33
311.658	45.57
311.872	45.57
312.085	-5.63
312.299	35.33
312.513	43.52
312.727	47.62
312.941	-17.92
313.154	31.23
313.368	55.81
313.582	92.67
313.796	39.42
314.009	4.61
314.223	47.62
314.437	94.72
314.651	31.23
314.864	-11.78
315.078	-58.88
315.292	10.75
315.505	-34.3
315.719	14.85
315.933	-5.63
316.146	53.76
316.36	68.09
316.573	72.19
316.787	51.71
317.001	78.33
317.214	61.95
317.428	-3.58
317.641	39.42
317.855	18.94
318.068	31.23
318.282	29.18
318.495	59.9
318.709	107.01
318.922	37.38
319.136	96.77
319.349	68.09
319.563	76.29
319.776	25.09
319.99	-22.02
320.203	35.33
320.417	-19.97
320.63	4.61
320.843	59.9
321.057	68.09
321.27	-22.02
321.483	53.76
321.697	59.9
321.91	74.24
322.124	18.94
322.337	-24.06
322.55	4.61
322.763	55.81
322.977	47.62
323.19	43.52
323.403	-42.5
323.617	51.71
323.83	68.09
324.043	4.61
324.256	96.77
324.469	27.14
324.683	39.42
324.896	66.05
325.109	61.95
325.322	-60.93
325.535	27.14
325.748	-9.73
325.962	-5.63
326.175	27.14
326.388	51.71
326.601	45.57
326.814	39.42
327.027	12.8
327.24	76.29
327.453	-11.78
327.666	14.85
327.879	109.05
328.092	57.86
328.305	78.33
328.518	4.61
328.731	55.81
328.944	47.62
329.157	61.95
329.37	-15.87
329.583	59.9
329.796	78.33
330.009	-34.3
330.222	84.48
330.435	88.57
330.648	70.14
330.861	53.76
331.073	51.71
331.286	39.42
331.499	39.42
331.712	-44.54
331.925	61.95
332.138	51.71
332.35	104.96
332.563	14.85
332.776	102.91
332.989	-26.11
333.202	8.7
333.414	20.99
333.627	41.47
333.84	68.09
334.053	20.99
334.265	-71.17
334.478	100.86
334.691	145.92
334.903	55.81
335.116	23.04
335.329	96.77
335.541	72.19
335.754	78.33
335.966	4.61
336.179	31.23
336.392	61.95
336.604	29.18
336.817	154.11
337.029	61.95
337.242	51.71
337.454	86.53
337.667	51.71
337.88	78.33
338.092	98.81
338.305	12.8
338.517	4.61
338.729	27.14
338.942	29.18
339.154	61.95
339.367	27.14
339.579	70.14
339.792	-34.3
340.004	72.19
340.217	49.66
340.429	37.38
340.641	4.61
340.854	27.14
341.066	27.14
341.278	14.85
341.491	29.18
341.703	72.19
341.915	2.56
342.128	12.8
342.34	123.39
342.552	76.29
342.764	70.14
342.977	88.57
343.189	61.95
343.401	92.67
343.613	-34.3
343.826	2.56
344.038	-13.82
344.25	96.77
344.462	-38.4
344.674	84.48
344.886	35.33
345.099	82.43
345.311	-40.45
345.523	43.52
345.735	-28.16
345.947	29.18
346.159	6.66
346.371	162.3
346.583	-36.35
346.795	61.95
347.007	51.71
347.219	29.18
347.431	31.23
347.643	68.09
347.855	-26.11
348.067	27.14
348.279	18.94
348.491	68.09
348.703	10.75
348.915	43.52
349.127	-38.4
349.339	51.71
349.551	74.24
349.763	29.18
349.975	41.47
350.187	141.82
350.399	117.25
350.61	82.43
350.822	6.66
351.034	14.85
351.246	92.67
351.458	18.94
351.669	27.14
351.881	94.72
352.093	90.62
352.305	4.61
352.517	33.28
352.728	117.25
352.94	18.94
353.152	-22.02
353.363	18.94
353.575	117.25
353.787	107.01
353.999	2.56
354.21	96.77
354.422	-13.82
354.633	59.9
354.845	29.18
355.057	0.51
355.268	27.14
355.48	117.25
355.692	-5.63
355.903	29.18
356.115	76.29
356.326	55.81
356.538	59.9
356.749	92.67
356.961	70.14
357.172	-40.45
357.384	16.9
357.595	29.18
357.807	47.62
358.018	2.56
358.23	-3.58
358.441	72.19
358.653	119.29
358.864	49.66
359.075	12.8
359.287	68.09
359.498	64
359.709	43.52
359.921	76.29
360.132	20.99
360.344	25.09
360.555	-19.97
360.766	88.57
360.977	-9.73
361.189	51.71
361.4	107.01
361.611	76.29
361.823	68.09
362.034	76.29
362.245	-9.73
362.456	12.8
362.667	8.7
362.879	66.05
363.09	29.18
363.301	45.57
363.512	23.04
363.723	84.48
363.935	20.99
364.146	121.34
364.357	43.52
364.568	51.71
364.779	76.29
364.99	70.14
365.201	53.76
365.412	23.04
365.623	72.19
365.834	-1.54
366.045	-3.58
366.256	78.33
366.467	-13.82
366.678	37.38
366.889	-7.68
367.1	10.75
367.311	43.52
367.522	47.62
367.733	113.15
367.944	74.24
368.155	8.7
368.366	72.19
368.577	31.23
368.788	84.48
368.999	39.42
369.209	68.09
369.42	51.71
369.631	96.77
369.842	23.04
370.053	43.52
370.264	55.81
370.474	-22.02
370.685	-13.82
370.896	12.8
371.107	47.62
371.317	37.38
371.528	39.42
371.739	109.05
371.95	33.28
372.16	59.9
372.371	43.52
372.582	64
372.792	59.9
373.003	117.25
373.214	64
373.424	96.77
373.635	-11.78
373.846	94.72
374.056	45.57
374.267	23.04
374.477	70.14
374.688	100.86
374.898	35.33
375.109	18.94
375.319	-19.97
375.53	76.29
375.74	33.28
375.951	68.09
376.161	12.8
376.372	96.77
376.582	-42.5
376.793	111.1
377.003	82.43
377.214	68.09
377.424	113.15
377.635	51.71
377.845	23.04
378.055	104.96
378.266	12.8
378.476	49.66
378.686	35.33
378.897	72.19
379.107	70.14
379.317	115.2
379.528	-3.58
379.738	55.81
379.948	-1.54
380.158	117.25
380.369	49.66
380.579	76.29
380.789	53.76
380.999	109.05
381.21	57.86
381.42	109.05
381.63	37.38
381.84	49.66
382.05	84.48
382.261	37.38
382.471	80.38
382.681	100.86
382.891	43.52
383.101	25.09
383.311	72.19
383.521	12.8
383.731	76.29
383.941	86.53
384.151	10.75
384.361	2.56
384.571	64
384.781	125.44
384.991	31.23
385.201	107.01
385.411	66.05
385.621	84.48
385.831	-13.82
386.041	88.57
386.251	29.18
386.461	51.71
386.671	37.38
386.881	92.67
387.091	49.66
387.301	84.48
387.511	78.33
387.72	78.33
387.93	53.76
388.14	37.38
388.35	43.52
388.56	88.57
388.769	66.05
388.979	43.52
389.189	100.86
389.399	2.56
389.609	59.9
389.818	33.28
390.028	61.95
390.238	133.63
390.447	2.56
390.657	51.71
390.867	117.25
391.076	100.86
391.286	125.44
391.496	141.82
391.705	66.05
391.915	64
392.125	92.67
392.334	76.29
392.544	41.47
392.753	20.99
392.963	82.43
393.172	68.09
393.382	27.14
393.591	111.1
393.801	88.57
394.01	84.48
394.22	109.05
394.429	39.42
394.639	119.29
394.848	43.52
395.058	43.52
395.267	113.15
395.477	80.38
395.686	76.29
395.895	121.34
396.105	121.34
396.314	72.19
396.524	117.25
396.733	104.96
396.942	133.63
397.152	176.64
397.361	84.48
397.57	37.38
397.78	150.01
397.989	84.48
398.198	88.57
398.407	92.67
398.617	223.74
398.826	102.91
399.035	160.25
399.244	162.3
399.453	68.09
399.663	121.34
399.872	92.67
400.081	70.14
400.29	174.59
400.499	20.99
400.708	160.25
400.917	51.71
401.127	104.96
401.336	111.1
401.545	209.4
401.754	113.15
401.963	111.1
402.172	137.73
402.381	119.29
402.59	143.87
402.799	88.57
403.008	127.49
403.217	109.05
403.426	113.15
403.635	115.2
403.844	135.68
404.053	178.69
404.262	201.21
404.471	238.08
404.68	174.59
404.888	57.86
405.097	186.88
405.306	88.57
405.515	184.83
405.724	176.64
405.933	141.82
406.142	231.93
406.35	215.55
406.559	240.12
406.768	242.17
406.977	295.42
407.185	305.66
407.394	272.89
407.603	203.26
407.812	250.36
408.02	297.47
408.229	176.64
408.438	264.7
408.646	285.18
408.855	180.73
409.064	283.13
409.272	264.7
409.481	358.91
409.69	238.08
409.898	291.32
410.107	293.37
410.315	303.61
410.524	322.04
410.733	346.62
410.941	346.62
411.15	373.24
411.358	383.48
411.567	393.72
411.775	399.87
411.984	502.26
412.192	455.16
412.401	537.08
412.609	506.36
412.818	582.14
413.026	571.9
413.234	530.94
413.443	543.22
413.651	584.18
413.86	643.57
414.068	672.25
414.276	670.2
414.485	555.51
414.693	698.87
414.901	692.73
415.11	752.12
415.318	870.9
415.526	764.4
415.734	881.14
415.943	838.13
416.151	901.62
416.359	987.63
416.567	901.62
416.776	989.68
416.984	1051.12
417.192	1126.89
417.4	1051.12
417.608	1008.11
417.817	1153.52
418.025	1190.38
418.233	1274.35
418.441	1341.93
418.649	1280.49
418.857	1327.6
419.065	1397.23
419.273	1362.41
419.481	1356.27
419.689	1493.48
419.897	1559.02
420.105	1534.44
420.313	1534.44
420.521	1722.85
420.729	1712.61
420.937	1731.05
421.145	1929.7
421.353	1993.19
421.561	2036.19
421.769	2128.35
421.977	2181.6
422.185	2138.59
422.393	2394.59
422.601	2501.08
422.809	2468.31
423.017	2509.27
423.224	2517.47
423.432	2603.48
423.64	2714.07
423.848	2820.56
424.056	2779.61
424.263	3131.86
424.471	3115.47
424.679	3088.85
424.887	3310.03
425.094	3332.56
425.302	3418.57
425.51	3588.55
425.718	3625.42
425.925	3590.6
426.133	3750.34
426.341	4059.59
426.548	4215.23
426.756	4133.31
426.964	4147.65
427.171	4413.88
427.379	4651.45
427.586	4706.74
427.794	4807.09
428.001	4936.12
428.209	5286.32
428.417	5157.3
428.624	5464.49
428.832	5484.97
429.039	5513.64
429.247	5466.54
429.454	5843.37
429.662	6271.39
429.869	5863.85
430.076	6480.29
430.284	6123.94
430.491	6463.9
430.699	6883.73
430.906	7076.24
431.114	6861.21
431.321	7352.72
431.528	7166.35
431.736	7786.89
431.943	8044.93
432.15	7901.58
432.358	8049.03
432.565	8321.41
432.772	8362.37
432.979	8649.08
433.187	8954.23
433.394	9107.83
433.601	9498.99
433.808	9550.19
434.016	9587.05
434.223	9992.55
434.43	10586.46
434.637	10381.67
434.844	11073.88
435.052	11184.47
435.259	11061.59
435.466	11153.75
435.673	11139.41
435.88	11901.26
436.087	12544.32
436.294	12454.21
436.501	12202.31
436.708	12454.21
436.915	13082.94
437.122	13429.04
437.329	13283.64
437.537	13773.1
437.743	14178.6
437.95	13838.64
438.157	14715.17
438.364	15180.06
438.571	15042.84
438.778	15194.39
438.985	16767.23
439.192	15851.79
439.399	16402.69
439.606	16044.3
439.813	16746.75
440.02	18194.67
440.227	17877.23
440.433	17418.49
440.64	17957.1
440.847	17991.92
441.054	18286.82
441.261	19732.69
441.467	19435.74
441.674	19835.09
441.881	20463.82
442.088	20408.52
442.294	20349.13
442.501	20742.34
442.708	20949.18
442.914	21907.63
443.121	22694.05
443.328	22018.22
443.534	23750.81
443.741	23068.83
443.948	22837.41
444.154	24721.54
444.361	24195.21
444.568	24361.1
444.774	24322.19
444.981	24819.85
445.187	25389.18
445.394	26306.67
445.6	26194.03
445.807	28729.42
446.013	27480.16
446.22	28158.03
446.426	29067.33
446.633	29132.87
446.839	30564.4
447.046	28956.74
447.252	30937.13
447.459	30685.23
447.665	30539.82
447.871	32006.17
448.078	33110.02
448.284	31361.06
448.491	32569.36
448.697	33961.98
448.903	34494.45
449.11	34377.72
449.316	33615.87
449.522	34359.28
449.728	35559.39
449.935	35330.02
450.141	35348.45
450.347	36540.37
450.553	35307.49
450.76	35653.6
450.966	36888.53
451.172	36681.68
451.378	37468.1
451.584	36480.98
451.791	37552.07
451.997	37070.79
452.203	38219.7
452.409	38062.01
452.615	38027.2
452.821	36687.82
453.027	35846.11
453.233	38356.92
453.44	36460.5
453.646	37040.07
453.852	37232.58
454.058	37539.78
454.264	36566.99
454.47	37531.59
454.676	36435.92
454.882	38082.49
455.088	34586.61
455.294	35086.31
455.5	35594.21
455.705	35751.9
455.911	34521.07
456.117	33925.11
456.323	33554.43
456.529	31807.51
456.735	33318.92
456.941	31950.87
457.147	31817.75
457.352	30629.93
457.558	30007.35
457.764	30287.92
457.97	29730.87
458.176	29261.89
458.381	29331.52
458.587	27650.14
458.793	27828.31
458.999	26454.12
459.204	28229.71
459.41	27574.36
459.616	26091.63
459.821	25860.21
460.027	25727.1
460.233	25262.21
460.438	23961.75
460.644	24277.13
460.85	23269.53
461.055	22931.62
461.261	22796.45
461.466	20682.95
461.672	20437.19
461.878	21885.11
462.083	20713.67
462.289	20003.02
462.494	19960.02
462.7	19087.58
462.905	18557.16
463.111	19226.84
463.316	19052.77
463.522	18753.76
463.727	18606.31
463.932	18690.27
464.138	18454.76
464.343	18749.67
464.549	18018.54
464.754	18735.33
464.959	18643.17
465.165	18030.83
465.37	17582.32
465.575	16861.44
465.781	17957.1
465.986	18018.54
466.191	17246.46
466.397	16955.65
466.602	16169.23
466.807	16976.12
467.012	16791.81
467.218	16515.33
467.423	16228.62
467.628	16646.4
