Data from USB4F104151__96__14-18-01-000.txt Node

Date: Thu Mar 13 14:18:01 EDT 2025
User: louis
Spectrometer: USB4F10415
Trigger mode: 4
Integration Time (sec): 2.000000E-2
Scans to average: 1
Electric dark correction enabled: true
Nonlinearity correction enabled: false
Boxcar width: 0
XAxis mode: Wavelengths
Number of Pixels in Spectrum: 3648
>>>>>Begin Spectral Data<<<<<
178.204	-97.62
178.424	-97.62
178.644	-97.62
178.864	-105.81
179.084	-144.72
179.304	41.64
179.524	-15.7
179.744	-1.37
179.964	70.31
180.184	-17.75
180.404	33.45
180.624	-38.23
180.844	-5.46
181.064	-46.42
181.283	-83.28
181.503	25.26
181.723	37.55
181.943	17.07
182.163	84.65
182.383	27.31
182.602	98.99
182.822	39.59
183.042	-1.37
183.262	35.5
183.482	4.78
183.701	0.68
183.921	94.89
184.141	-5.46
184.361	68.27
184.58	10.92
184.8	25.26
185.02	2.73
185.239	129.7
185.459	-48.47
185.679	49.83
185.898	-85.33
186.118	148.14
186.338	43.69
186.557	27.31
186.777	107.18
186.997	82.6
187.216	12.97
187.436	27.31
187.655	-3.41
187.875	94.89
188.095	51.88
188.314	70.31
188.534	90.79
188.753	4.78
188.973	6.83
189.192	25.26
189.412	68.27
189.631	2.73
189.851	43.69
190.07	117.42
190.29	-3.41
190.509	2.73
190.729	43.69
190.948	21.16
191.168	139.94
191.387	92.84
191.607	4.78
191.826	60.07
192.045	25.26
192.265	2.73
192.484	19.11
192.704	31.4
192.923	39.59
193.142	131.75
193.362	49.83
193.581	21.16
193.8	49.83
194.02	33.45
194.239	19.11
194.458	90.79
194.678	37.55
194.897	84.65
195.116	66.22
195.335	66.22
195.555	41.64
195.774	10.92
195.993	58.03
196.212	17.07
196.432	-7.51
196.651	27.31
196.87	-15.7
197.089	72.36
197.308	23.21
197.528	29.35
197.747	-77.14
197.966	23.21
198.185	66.22
198.404	53.93
198.623	49.83
198.842	82.6
199.062	70.31
199.281	117.42
199.5	-19.8
199.719	17.07
199.938	127.66
200.157	68.27
200.376	17.07
200.595	-36.18
200.814	23.21
201.033	72.36
201.252	105.13
201.471	74.41
201.69	68.27
201.909	98.99
202.128	27.31
202.347	41.64
202.566	-32.08
202.785	6.83
203.004	8.87
203.223	150.18
203.442	66.22
203.661	17.07
203.879	62.12
204.098	92.84
204.317	-15.7
204.536	41.64
204.755	49.83
204.974	25.26
205.193	60.07
205.411	76.46
205.63	49.83
205.849	72.36
206.068	-7.51
206.287	51.88
206.505	76.46
206.724	41.64
206.943	51.88
207.162	55.98
207.381	33.45
207.599	60.07
207.818	58.03
208.037	-27.99
208.255	-30.04
208.474	82.6
208.693	41.64
208.911	76.46
209.13	133.8
209.349	8.87
209.567	74.41
209.786	45.74
210.005	33.45
210.223	58.03
210.442	17.07
210.661	115.37
210.879	8.87
211.098	-7.51
211.316	-40.28
211.535	86.7
211.753	74.41
211.972	60.07
212.191	-5.46
212.409	72.36
212.628	45.74
212.846	33.45
213.065	86.7
213.283	76.46
213.502	27.31
213.72	-23.89
213.938	21.16
214.157	0.68
214.375	4.78
214.594	-15.7
214.812	41.64
215.031	41.64
215.249	21.16
215.467	39.59
215.686	41.64
215.904	105.13
216.122	37.55
216.341	60.07
216.559	98.99
216.778	98.99
216.996	33.45
217.214	2.73
217.432	51.88
217.651	74.41
217.869	115.37
218.087	27.31
218.306	-13.65
218.524	-13.65
218.742	33.45
218.96	66.22
219.179	25.26
219.397	-13.65
219.615	2.73
219.833	70.31
220.051	-32.08
220.27	53.93
220.488	19.11
220.706	129.7
220.924	6.83
221.142	21.16
221.36	49.83
221.578	35.5
221.796	17.07
222.015	76.46
222.233	-5.46
222.451	58.03
222.669	0.68
222.887	90.79
223.105	64.17
223.323	58.03
223.541	-23.89
223.759	49.83
223.977	8.87
224.195	45.74
224.413	109.22
224.631	27.31
224.849	60.07
225.067	33.45
225.285	10.92
225.503	12.97
225.721	-13.65
225.939	19.11
226.157	0.68
226.375	197.29
226.592	-40.28
226.81	25.26
227.028	51.88
227.246	10.92
227.464	6.83
227.682	8.87
227.9	66.22
228.117	66.22
228.335	49.83
228.553	10.92
228.771	-32.08
228.989	76.46
229.206	25.26
229.424	43.69
229.642	33.45
229.86	53.93
230.077	33.45
230.295	68.27
230.513	62.12
230.731	76.46
230.948	21.16
231.166	103.08
231.384	0.68
231.601	82.6
231.819	49.83
232.037	41.64
232.254	62.12
232.472	103.08
232.689	105.13
232.907	53.93
233.125	49.83
233.342	53.93
233.56	21.16
233.777	43.69
233.995	27.31
234.213	25.26
234.43	94.89
234.648	0.68
234.865	4.78
235.083	117.42
235.3	-21.85
235.518	53.93
235.735	90.79
235.953	-32.08
236.17	12.97
236.388	45.74
236.605	84.65
236.822	78.51
237.04	82.6
237.257	4.78
237.475	-32.08
237.692	27.31
237.909	66.22
238.127	33.45
238.344	74.41
238.562	2.73
238.779	62.12
238.996	-15.7
239.214	90.79
239.431	8.87
239.648	-30.04
239.865	35.5
240.083	94.89
240.3	101.03
240.517	35.5
240.735	17.07
240.952	74.41
241.169	82.6
241.386	-36.18
241.603	-34.13
241.821	39.59
242.038	47.79
242.255	47.79
242.472	27.31
242.689	129.7
242.907	25.26
243.124	-52.56
243.341	21.16
243.558	12.97
243.775	0.68
243.992	-38.23
244.209	33.45
244.426	70.31
244.643	41.64
244.86	21.16
245.078	0.68
245.295	0.68
245.512	53.93
245.729	-11.61
245.946	-7.51
246.163	58.03
246.38	12.97
246.597	58.03
246.814	27.31
247.031	-27.99
247.248	49.83
247.464	68.27
247.681	6.83
247.898	29.35
248.115	92.84
248.332	27.31
248.549	76.46
248.766	158.38
248.983	-23.89
249.2	35.5
249.417	41.64
249.633	41.64
249.85	33.45
250.067	8.87
250.284	25.26
250.501	82.6
250.717	78.51
250.934	66.22
251.151	2.73
251.368	62.12
251.585	72.36
251.801	90.79
252.018	25.26
252.235	127.66
252.451	-23.89
252.668	8.87
252.885	98.99
253.102	68.27
253.318	10.92
253.535	29.35
253.752	39.59
253.968	-25.94
254.185	41.64
254.401	-15.7
254.618	27.31
254.835	12.97
255.051	68.27
255.268	21.16
255.484	-13.65
255.701	31.4
255.917	98.99
256.134	84.65
256.351	29.35
256.567	49.83
256.784	23.21
257	74.41
257.217	82.6
257.433	17.07
257.65	86.7
257.866	53.93
258.082	68.27
258.299	10.92
258.515	66.22
258.732	-40.28
258.948	60.07
259.165	68.27
259.381	2.73
259.597	74.41
259.814	2.73
260.03	76.46
260.246	98.99
260.463	41.64
260.679	49.83
260.895	23.21
261.112	68.27
261.328	10.92
261.544	27.31
261.761	82.6
261.977	6.83
262.193	-11.61
262.409	80.55
262.626	21.16
262.842	27.31
263.058	17.07
263.274	53.93
263.49	76.46
263.707	115.37
263.923	43.69
264.139	82.6
264.355	51.88
264.571	41.64
264.787	35.5
265.004	47.79
265.22	41.64
265.436	66.22
265.652	51.88
265.868	70.31
266.084	6.83
266.3	45.74
266.516	-30.04
266.732	-30.04
266.948	0.68
267.164	55.98
267.38	10.92
267.596	17.07
267.812	156.33
268.028	88.75
268.244	90.79
268.46	35.5
268.676	64.17
268.892	41.64
269.108	-15.7
269.324	8.87
269.54	-7.51
269.756	133.8
269.972	-3.41
270.188	66.22
270.403	37.55
270.619	74.41
270.835	113.32
271.051	60.07
271.267	33.45
271.483	2.73
271.698	2.73
271.914	58.03
272.13	12.97
272.346	-11.61
272.562	66.22
272.777	51.88
272.993	0.68
273.209	27.31
273.425	53.93
273.64	98.99
273.856	103.08
274.072	76.46
274.287	12.97
274.503	96.94
274.719	82.6
274.934	-56.66
275.15	76.46
275.366	19.11
275.581	58.03
275.797	21.16
276.012	-9.56
276.228	19.11
276.444	-23.89
276.659	51.88
276.875	27.31
277.09	15.02
277.306	64.17
277.521	39.59
277.737	92.84
277.952	19.11
278.168	6.83
278.383	64.17
278.599	10.92
278.814	119.46
279.03	58.03
279.245	109.22
279.461	-1.37
279.676	4.78
279.892	90.79
280.107	68.27
280.322	53.93
280.538	17.07
280.753	109.22
280.969	131.75
281.184	33.45
281.399	92.84
281.615	78.51
281.83	33.45
282.045	-23.89
282.26	17.07
282.476	45.74
282.691	141.99
282.906	41.64
283.122	60.07
283.337	0.68
283.552	27.31
283.767	25.26
283.983	33.45
284.198	43.69
284.413	166.57
284.628	8.87
284.843	74.41
285.058	6.83
285.274	98.99
285.489	82.6
285.704	10.92
285.919	-15.7
286.134	4.78
286.349	29.35
286.564	90.79
286.779	74.41
286.995	60.07
287.21	19.11
287.425	49.83
287.64	92.84
287.855	43.69
288.07	8.87
288.285	72.36
288.5	74.41
288.715	45.74
288.93	21.16
289.145	58.03
289.36	21.16
289.575	49.83
289.79	27.31
290.004	37.55
290.219	43.69
290.434	25.26
290.649	-40.28
290.864	-1.37
291.079	0.68
291.294	66.22
291.509	88.75
291.724	78.51
291.938	74.41
292.153	-40.28
292.368	-17.75
292.583	55.98
292.798	21.16
293.012	82.6
293.227	86.7
293.442	49.83
293.657	49.83
293.871	66.22
294.086	45.74
294.301	53.93
294.516	15.02
294.73	82.6
294.945	74.41
295.16	41.64
295.374	70.31
295.589	133.8
295.804	33.45
296.018	37.55
296.233	29.35
296.447	92.84
296.662	-17.75
296.877	107.18
297.091	74.41
297.306	55.98
297.52	27.31
297.735	137.9
297.949	41.64
298.164	103.08
298.378	-7.51
298.593	64.17
298.807	25.26
299.022	76.46
299.236	76.46
299.451	-73.04
299.665	25.26
299.88	10.92
300.094	66.22
300.309	53.93
300.523	43.69
300.737	29.35
300.952	101.03
301.166	76.46
301.381	-11.61
301.595	12.97
301.809	58.03
302.024	-5.46
302.238	37.55
302.452	107.18
302.667	31.4
302.881	107.18
303.095	49.83
303.309	68.27
303.524	-7.51
303.738	105.13
303.952	58.03
304.166	66.22
304.381	8.87
304.595	12.97
304.809	12.97
305.023	41.64
305.237	31.4
305.452	-32.08
305.666	35.5
305.88	21.16
306.094	35.5
306.308	88.75
306.522	29.35
306.736	62.12
306.95	96.94
307.164	-50.52
307.379	-27.99
307.593	19.11
307.807	58.03
308.021	68.27
308.235	15.02
308.449	55.98
308.663	21.16
308.877	84.65
309.091	86.7
309.305	10.92
309.519	17.07
309.733	82.6
309.947	-7.51
310.161	0.68
310.374	60.07
310.588	25.26
310.802	31.4
311.016	4.78
311.23	90.79
311.444	27.31
311.658	17.07
311.872	76.46
312.085	74.41
312.299	84.65
312.513	101.03
312.727	82.6
312.941	92.84
313.154	98.99
313.368	60.07
313.582	90.79
313.796	37.55
314.009	25.26
314.223	96.94
314.437	58.03
314.651	33.45
314.864	0.68
315.078	78.51
315.292	2.73
315.505	47.79
315.719	66.22
315.933	74.41
316.146	39.59
316.36	-17.75
316.573	109.22
316.787	84.65
317.001	-5.46
317.214	21.16
317.428	41.64
317.641	-23.89
317.855	70.31
318.068	27.31
318.282	98.99
318.495	58.03
318.709	35.5
318.922	113.32
319.136	84.65
319.349	98.99
319.563	58.03
319.776	103.08
319.99	-48.47
320.203	84.65
320.417	51.88
320.63	129.7
320.843	113.32
321.057	107.18
321.27	49.83
321.483	129.7
321.697	133.8
321.91	86.7
322.124	45.74
322.337	-5.46
322.55	0.68
322.763	37.55
322.977	60.07
323.19	64.17
323.403	-17.75
323.617	58.03
323.83	109.22
324.043	70.31
324.256	68.27
324.469	17.07
324.683	98.99
324.896	66.22
325.109	-21.85
325.322	51.88
325.535	86.7
325.748	-19.8
325.962	8.87
326.175	137.9
326.388	27.31
326.601	33.45
326.814	74.41
327.027	-17.75
327.24	74.41
327.453	25.26
327.666	109.22
327.879	84.65
328.092	70.31
328.305	41.64
328.518	98.99
328.731	-7.51
328.944	123.56
329.157	45.74
329.37	68.27
329.583	189.1
329.796	115.37
330.009	10.92
330.222	78.51
330.435	98.99
330.648	92.84
330.861	58.03
331.073	41.64
331.286	53.93
331.499	119.46
331.712	0.68
331.925	-19.8
332.138	82.6
332.35	84.65
332.563	-11.61
332.776	43.69
332.989	12.97
333.202	74.41
333.414	-17.75
333.627	27.31
333.84	33.45
334.053	55.98
334.265	92.84
334.478	6.83
334.691	60.07
334.903	72.36
335.116	41.64
335.329	8.87
335.541	-13.65
335.754	23.21
335.966	-48.47
336.179	27.31
336.392	27.31
336.604	25.26
336.817	86.7
337.029	21.16
337.242	107.18
337.454	115.37
337.667	58.03
337.88	117.42
338.092	15.02
338.305	111.27
338.517	17.07
338.729	150.18
338.942	70.31
339.154	-15.7
339.367	58.03
339.579	88.75
339.792	-13.65
340.004	86.7
340.217	-44.37
340.429	98.99
340.641	74.41
340.854	4.78
341.066	8.87
341.278	58.03
341.491	148.14
341.703	98.99
341.915	76.46
342.128	-21.85
342.34	17.07
342.552	2.73
342.764	-30.04
342.977	4.78
343.189	43.69
343.401	105.13
343.613	68.27
343.826	58.03
344.038	8.87
344.25	135.85
344.462	58.03
344.674	35.5
344.886	29.35
345.099	41.64
345.311	131.75
345.523	37.55
345.735	55.98
345.947	45.74
346.159	78.51
346.371	101.03
346.583	27.31
346.795	76.46
347.007	60.07
347.219	8.87
347.431	-23.89
347.643	101.03
347.855	66.22
348.067	60.07
348.279	17.07
348.491	90.79
348.703	49.83
348.915	60.07
349.127	33.45
349.339	45.74
349.551	8.87
349.763	119.46
349.975	107.18
350.187	82.6
350.399	84.65
350.61	37.55
350.822	58.03
351.034	103.08
351.246	96.94
351.458	80.55
351.669	131.75
351.881	37.55
352.093	53.93
352.305	152.23
352.517	33.45
352.728	45.74
352.94	86.7
353.152	43.69
353.363	-5.46
353.575	43.69
353.787	117.42
353.999	123.56
354.21	72.36
354.422	51.88
354.633	86.7
354.845	72.36
355.057	49.83
355.268	49.83
355.48	107.18
355.692	15.02
355.903	68.27
356.115	-19.8
356.326	-17.75
356.538	144.04
356.749	49.83
356.961	35.5
357.172	68.27
357.384	68.27
357.595	74.41
357.807	4.78
358.018	41.64
358.23	109.22
358.441	94.89
358.653	41.64
358.864	129.7
359.075	123.56
359.287	86.7
359.498	168.62
359.709	35.5
359.921	62.12
360.132	86.7
360.344	98.99
360.555	103.08
360.766	119.46
360.977	53.93
361.189	86.7
361.4	98.99
361.611	49.83
361.823	45.74
362.034	64.17
362.245	2.73
362.456	123.56
362.667	17.07
362.879	76.46
363.09	41.64
363.301	37.55
363.512	64.17
363.723	8.87
363.935	51.88
364.146	115.37
364.357	144.04
364.568	47.79
364.779	2.73
364.99	12.97
365.201	43.69
365.412	98.99
365.623	-13.65
365.834	76.46
366.045	53.93
366.256	107.18
366.467	90.79
366.678	92.84
366.889	82.6
367.1	8.87
367.311	60.07
367.522	41.64
367.733	74.41
367.944	33.45
368.155	33.45
368.366	84.65
368.577	51.88
368.788	129.7
368.999	92.84
369.209	107.18
369.42	176.81
369.631	135.85
369.842	33.45
370.053	90.79
370.264	96.94
370.474	17.07
370.685	43.69
370.896	6.83
371.107	60.07
371.317	53.93
371.528	76.46
371.739	109.22
371.95	80.55
372.16	78.51
372.371	-15.7
372.582	51.88
372.792	86.7
373.003	15.02
373.214	4.78
373.424	49.83
373.635	10.92
373.846	60.07
374.056	-5.46
374.267	94.89
374.477	-34.13
374.688	90.79
374.898	31.4
375.109	62.12
375.319	60.07
375.53	62.12
375.74	72.36
375.951	70.31
376.161	33.45
376.372	76.46
376.582	62.12
376.793	185
377.003	-7.51
377.214	80.55
377.424	27.31
377.635	53.93
377.845	35.5
378.055	187.05
378.266	-23.89
378.476	8.87
378.686	121.51
378.897	105.13
379.107	160.42
379.317	53.93
379.528	41.64
379.738	152.23
379.948	19.11
380.158	180.9
380.369	37.55
380.579	62.12
380.789	17.07
380.999	62.12
381.21	80.55
381.42	66.22
381.63	92.84
381.84	0.68
382.05	86.7
382.261	88.75
382.471	64.17
382.681	37.55
382.891	82.6
383.101	86.7
383.311	68.27
383.521	53.93
383.731	74.41
383.941	117.42
384.151	119.46
384.361	123.56
384.571	90.79
384.781	58.03
384.991	74.41
385.201	129.7
385.411	103.08
385.621	139.94
385.831	49.83
386.041	111.27
386.251	105.13
386.461	174.76
386.671	64.17
386.881	117.42
387.091	60.07
387.301	115.37
387.511	66.22
387.72	78.51
387.93	78.51
388.14	101.03
388.35	49.83
388.56	135.85
388.769	107.18
388.979	41.64
389.189	74.41
389.399	90.79
389.609	86.7
389.818	92.84
390.028	88.75
390.238	96.94
390.447	76.46
390.657	98.99
390.867	6.83
391.076	115.37
391.286	25.26
391.496	31.4
391.705	86.7
391.915	139.94
392.125	131.75
392.334	60.07
392.544	135.85
392.753	33.45
392.963	70.31
393.172	27.31
393.382	101.03
393.591	64.17
393.801	66.22
394.01	160.42
394.22	127.66
394.429	119.46
394.639	96.94
394.848	117.42
395.058	84.65
395.267	66.22
395.477	148.14
395.686	72.36
395.895	123.56
396.105	113.32
396.314	113.32
396.524	129.7
396.733	115.37
396.942	160.42
397.152	58.03
397.361	139.94
397.57	111.27
397.78	141.99
397.989	90.79
398.198	176.81
398.407	156.33
398.617	60.07
398.826	96.94
399.035	135.85
399.244	156.33
399.453	68.27
399.663	176.81
399.872	123.56
400.081	82.6
400.29	166.57
400.499	60.07
400.708	139.94
400.917	133.8
401.127	164.52
401.336	90.79
401.545	223.91
401.754	209.58
401.963	199.34
402.172	141.99
402.381	144.04
402.59	154.28
402.799	137.9
403.008	154.28
403.217	133.8
403.426	197.29
403.635	164.52
403.844	189.1
404.053	123.56
404.262	135.85
404.471	187.05
404.68	236.2
404.888	217.77
405.097	185
405.306	217.77
405.515	207.53
405.724	238.25
405.933	240.29
406.142	293.54
406.35	158.38
406.559	213.67
406.768	250.53
406.977	240.29
407.185	242.34
407.394	279.21
407.603	242.34
407.812	230.06
408.02	279.21
408.229	254.63
408.438	223.91
408.646	275.11
408.855	295.59
409.064	307.88
409.272	297.64
409.481	305.83
409.69	328.36
409.898	354.98
410.107	328.36
410.315	410.28
410.524	410.28
410.733	455.33
410.941	412.32
411.15	445.09
411.358	363.17
411.567	535.2
411.775	477.86
411.984	492.2
412.192	481.96
412.401	555.68
412.609	617.12
412.818	615.07
413.026	549.54
413.234	641.7
413.443	602.79
413.651	709.28
413.86	680.61
414.068	748.19
414.276	651.94
414.485	721.57
414.693	819.87
414.901	787.1
415.11	830.11
415.318	887.45
415.526	885.41
415.734	846.49
415.943	922.27
416.151	993.95
416.359	1016.48
416.567	983.71
416.776	1114.78
416.984	1073.82
417.192	1174.17
417.4	1106.59
417.608	1233.56
417.817	1217.18
418.025	1282.71
418.233	1401.49
418.441	1303.19
418.649	1419.92
418.857	1606.29
419.065	1608.34
419.273	1575.57
419.481	1657.49
419.689	1716.88
419.897	1727.12
420.105	1831.57
420.313	1888.91
420.521	1860.24
420.729	1989.26
420.937	2030.22
421.145	2065.04
421.353	2226.82
421.561	2327.18
421.769	2226.82
421.977	2392.71
422.185	2454.15
422.393	2560.64
422.601	2706.05
422.809	2626.18
423.017	2779.78
423.224	2878.08
423.432	3019.39
423.64	3062.4
423.848	3246.71
424.056	3170.94
424.263	3371.64
424.471	3281.53
424.679	3445.37
424.887	3723.89
425.094	3744.37
425.302	3793.52
425.51	3957.36
425.718	3959.41
425.925	4072.04
426.133	4285.03
426.341	4393.58
426.548	4665.96
426.756	4661.86
426.964	4575.84
427.171	4962.91
427.379	5028.45
427.586	5235.29
427.794	5304.92
428.001	5562.97
428.209	5696.08
428.417	5757.52
428.624	6156.88
428.832	6226.51
429.039	6120.01
429.247	6054.48
429.454	6603.33
429.662	7072.32
429.869	6761.03
430.076	7144
430.284	6941.25
430.491	7285.31
430.699	7635.51
430.906	7756.34
431.114	7658.04
431.321	8186.41
431.528	8251.95
431.736	8593.96
431.943	9128.48
432.15	8741.41
432.358	8809
432.565	9529.88
432.772	9427.48
432.979	9888.28
433.187	10093.07
433.394	10252.81
433.601	10748.42
433.808	10930.69
434.016	10957.32
434.223	11184.64
434.43	11803.13
434.637	11604.47
434.844	12247.54
435.052	12593.64
435.259	12648.94
435.466	12554.73
435.673	12370.41
435.88	13140.45
436.087	13992.41
436.294	13912.53
436.501	13570.52
436.708	13890.01
436.915	14397.9
437.122	14983.62
437.329	15174.08
437.537	15473.09
437.743	15708.6
437.95	15841.72
438.157	16282.03
438.364	17011.11
438.571	16796.07
438.778	17162.66
438.985	18340.24
439.192	17801.63
439.399	18221.46
439.606	17818.01
439.813	18917.77
440.02	19951.99
440.227	19749.25
440.433	19456.39
440.64	19859.84
440.847	20015.48
441.054	20527.47
441.261	22045.02
441.467	21483.87
441.674	22098.27
441.881	22569.3
442.088	22724.94
442.294	22690.13
442.501	22638.93
442.708	23732.54
442.914	24600.88
443.121	25678.11
443.328	24750.38
443.534	26597.65
443.741	25712.93
443.948	25340.2
444.154	27726.08
444.361	27146.51
444.568	27527.43
444.774	27511.05
444.981	27457.8
445.187	28168.44
445.394	30034.14
445.6	29049.07
445.807	31979.71
446.013	30765.27
446.22	30972.11
446.426	32211.14
446.633	32420.03
446.839	33700.01
447.046	32413.88
447.252	33587.37
447.459	34326.69
447.665	33904.81
447.871	35481.74
448.078	36745.34
448.284	35211.41
448.491	36407.42
448.697	37126.26
448.903	38162.53
449.11	38047.85
449.316	37507.18
449.522	38191.2
449.728	39489.62
449.935	39653.45
450.141	39225.43
450.347	40441.92
450.553	38856.79
450.76	39841.87
450.966	41074.74
451.172	40759.36
451.378	41183.29
451.584	40894.52
451.791	41834.54
451.997	41797.68
452.203	42170.41
452.409	42264.61
452.615	42256.42
452.821	40253.51
453.027	39876.68
453.233	42553.38
453.44	40562.75
453.646	40874.04
453.852	41189.43
454.058	42242.09
454.264	40616
454.47	41330.74
454.676	40497.22
454.882	41799.72
455.088	37630.06
455.294	38817.88
455.5	39499.86
455.705	39897.16
455.911	38195.3
456.117	37574.77
456.323	37095.54
456.529	35537.04
456.735	36696.19
456.941	35684.49
457.147	35508.36
457.352	34435.23
457.558	33763.5
457.764	34082.98
457.97	33249.46
458.176	32708.79
458.381	32446.65
458.587	30892.24
458.793	31166.67
458.999	29133.04
459.204	31416.52
459.41	30544.09
459.616	28401.91
459.821	28471.54
460.027	28762.36
460.233	27994.37
460.438	26601.75
460.644	27001.1
460.85	25628.96
461.055	25399.59
461.261	25205.03
461.466	23304.52
461.672	22868.3
461.878	24021.31
462.083	22743.38
462.289	22077.79
462.494	22124.89
462.7	20904.3
462.905	20408.69
463.111	21248.36
463.316	21426.53
463.522	20908.4
463.727	20818.28
463.932	21039.47
464.138	20310.39
464.343	20666.74
464.549	20277.62
464.754	20531.57
464.959	20767.09
465.165	20482.42
465.37	19483.01
465.575	18938.25
465.781	19812.73
465.986	19908.99
466.191	19143.05
466.397	18981.26
466.602	17791.39
466.807	18737.55
467.012	18733.45
467.218	18680.21
