Data from USB4F104151__180__14-20-06-755.txt Node

Date: Thu Mar 13 14:20:06 EDT 2025
User: louis
Spectrometer: USB4F10415
Trigger mode: 4
Integration Time (sec): 2.000000E-2
Scans to average: 1
Electric dark correction enabled: true
Nonlinearity correction enabled: false
Boxcar width: 0
XAxis mode: Wavelengths
Number of Pixels in Spectrum: 3648
>>>>>Begin Spectral Data<<<<<
178.204	-25.77
178.424	-25.77
178.644	-25.77
178.864	-50.35
179.084	-46.25
179.304	-3.24
179.524	50
179.744	-60.59
179.964	64.34
180.184	17.24
180.404	-21.67
180.624	-17.58
180.844	25.43
181.064	-9.39
181.283	0.85
181.503	-29.87
181.723	-15.53
181.943	-64.68
182.163	64.34
182.383	68.44
182.602	123.73
182.822	113.49
183.042	17.24
183.262	113.49
183.482	47.96
183.701	90.96
183.921	52.05
184.141	39.76
184.361	144.21
184.58	62.29
184.8	113.49
185.02	68.44
185.239	115.54
185.459	45.91
185.679	56.15
185.898	64.34
186.118	105.3
186.338	58.2
186.557	113.49
186.777	31.57
186.997	25.43
187.216	72.53
187.436	113.49
187.655	90.96
187.875	146.26
188.095	68.44
188.314	54.1
188.534	121.68
188.753	56.15
188.973	88.92
189.192	131.92
189.412	80.72
189.631	33.62
189.851	58.2
190.07	47.96
190.29	121.68
190.509	25.43
190.729	117.59
190.948	97.11
191.168	191.31
191.387	88.92
191.607	39.76
191.826	60.24
192.045	50
192.265	105.3
192.484	35.67
192.704	82.77
192.923	13.14
193.142	127.83
193.362	58.2
193.581	113.49
193.8	80.72
194.02	146.26
194.239	31.57
194.458	78.68
194.678	88.92
194.897	86.87
195.116	17.24
195.335	31.57
195.555	111.44
195.774	80.72
195.993	146.26
196.212	99.16
196.432	80.72
196.651	80.72
196.87	56.15
197.089	172.88
197.308	84.82
197.528	105.3
197.747	17.24
197.966	-5.29
198.185	72.53
198.404	80.72
198.623	99.16
198.842	146.26
199.062	123.73
199.281	93.01
199.5	15.19
199.719	23.38
199.938	138.07
200.157	115.54
200.376	56.15
200.595	99.16
200.814	41.81
201.033	56.15
201.252	101.2
201.471	41.81
201.69	68.44
201.909	39.76
202.128	74.58
202.347	88.92
202.566	45.91
202.785	50
203.004	45.91
203.223	97.11
203.442	88.92
203.661	66.39
203.879	56.15
204.098	129.88
204.317	-3.24
204.536	107.35
204.755	64.34
204.974	99.16
205.193	-13.48
205.411	148.31
205.63	168.79
205.849	93.01
206.068	88.92
206.287	-17.58
206.505	97.11
206.724	78.68
206.943	31.57
207.162	41.81
207.381	43.86
207.599	-48.3
207.818	33.62
208.037	123.73
208.255	97.11
208.474	80.72
208.693	99.16
208.911	64.34
209.13	23.38
209.349	125.78
209.567	27.48
209.786	82.77
210.005	117.59
210.223	39.76
210.442	66.39
210.661	-23.72
210.879	78.68
211.098	84.82
211.316	25.43
211.535	101.2
211.753	64.34
211.972	170.83
212.191	31.57
212.409	50
212.628	101.2
212.846	115.54
213.065	113.49
213.283	131.92
213.502	74.58
213.72	97.11
213.938	111.44
214.157	58.2
214.375	82.77
214.594	41.81
214.812	66.39
215.031	56.15
215.249	50
215.467	121.68
215.686	84.82
215.904	93.01
216.122	105.3
216.341	88.92
216.559	97.11
216.778	131.92
216.996	123.73
217.214	72.53
217.432	39.76
217.651	33.62
217.869	70.48
218.087	146.26
218.306	58.2
218.524	97.11
218.742	93.01
218.96	125.78
219.179	80.72
219.397	86.87
219.615	72.53
219.833	97.11
220.051	86.87
220.27	43.86
220.488	58.2
220.706	113.49
220.924	101.2
221.142	82.77
221.36	158.55
221.578	64.34
221.796	9.05
222.015	109.4
222.233	111.44
222.451	113.49
222.669	-23.72
222.887	-1.19
223.105	82.77
223.323	64.34
223.541	60.24
223.759	60.24
223.977	58.2
224.195	129.88
224.413	105.3
224.631	50
224.849	47.96
225.067	45.91
225.285	17.24
225.503	64.34
225.721	13.14
225.939	7
226.157	54.1
226.375	88.92
226.592	-31.91
226.81	113.49
227.028	107.35
227.246	121.68
227.464	52.05
227.682	88.92
227.9	113.49
228.117	99.16
228.335	56.15
228.553	93.01
228.771	80.72
228.989	93.01
229.206	25.43
229.424	97.11
229.642	50
229.86	72.53
230.077	140.12
230.295	80.72
230.513	52.05
230.731	99.16
230.948	105.3
231.166	107.35
231.384	56.15
231.601	56.15
231.819	88.92
232.037	33.62
232.254	125.78
232.472	107.35
232.689	45.91
232.907	78.68
233.125	39.76
233.342	23.38
233.56	113.49
233.777	35.67
233.995	43.86
234.213	107.35
234.43	45.91
234.648	113.49
234.865	50
235.083	41.81
235.3	74.58
235.518	66.39
235.735	129.88
235.953	113.49
236.17	37.72
236.388	19.29
236.605	64.34
236.822	113.49
237.04	54.1
237.257	66.39
237.475	64.34
237.692	90.96
237.909	31.57
238.127	13.14
238.344	97.11
238.562	70.48
238.779	80.72
238.996	117.59
239.214	95.06
239.431	68.44
239.648	84.82
239.865	84.82
240.083	99.16
240.3	86.87
240.517	-3.24
240.735	15.19
240.952	72.53
241.169	80.72
241.386	58.2
241.603	74.58
241.821	74.58
242.038	164.69
242.255	88.92
242.472	25.43
242.689	154.45
242.907	99.16
243.124	13.14
243.341	119.64
243.558	56.15
243.775	23.38
243.992	-42.15
244.209	121.68
244.426	121.68
244.643	95.06
244.86	64.34
245.078	33.62
245.295	84.82
245.512	97.11
245.729	-9.39
245.946	74.58
246.163	60.24
246.38	19.29
246.597	84.82
246.814	47.96
247.031	99.16
247.248	23.38
247.464	107.35
247.681	-7.34
247.898	54.1
248.115	70.48
248.332	66.39
248.549	105.3
248.766	29.52
248.983	93.01
249.2	25.43
249.417	88.92
249.633	121.68
249.85	39.76
250.067	29.52
250.284	7
250.501	64.34
250.717	60.24
250.934	97.11
251.151	74.58
251.368	127.83
251.585	70.48
251.801	121.68
252.018	17.24
252.235	99.16
252.451	-23.72
252.668	84.82
252.885	62.29
253.102	37.72
253.318	80.72
253.535	15.19
253.752	88.92
253.968	25.43
254.185	0.85
254.401	39.76
254.618	31.57
254.835	111.44
255.051	62.29
255.268	60.24
255.484	119.64
255.701	52.05
255.917	103.25
256.134	35.67
256.351	58.2
256.567	13.14
256.784	105.3
257	0.85
257.217	121.68
257.433	70.48
257.65	39.76
257.866	52.05
258.082	70.48
258.299	33.62
258.515	97.11
258.732	105.3
258.948	121.68
259.165	29.52
259.381	64.34
259.597	103.25
259.814	95.06
260.03	97.11
260.246	64.34
260.463	66.39
260.679	105.3
260.895	72.53
261.112	121.68
261.328	72.53
261.544	35.67
261.761	121.68
261.977	70.48
262.193	21.33
262.409	25.43
262.626	142.16
262.842	52.05
263.058	56.15
263.274	113.49
263.49	39.76
263.707	50
263.923	35.67
264.139	58.2
264.355	50
264.571	97.11
264.787	47.96
265.004	82.77
265.22	66.39
265.436	23.38
265.652	-3.24
265.868	117.59
266.084	25.43
266.3	33.62
266.516	103.25
266.732	56.15
266.948	35.67
267.164	97.11
267.38	107.35
267.596	23.38
267.812	84.82
268.028	72.53
268.244	66.39
268.46	-1.19
268.676	88.92
268.892	64.34
269.108	58.2
269.324	23.38
269.54	47.96
269.756	121.68
269.972	41.81
270.188	82.77
270.403	117.59
270.619	123.73
270.835	109.4
271.051	21.33
271.267	52.05
271.483	25.43
271.698	74.58
271.914	2.9
272.13	-23.72
272.346	99.16
272.562	97.11
272.777	88.92
272.993	23.38
273.209	72.53
273.425	74.58
273.64	-7.34
273.856	121.68
274.072	56.15
274.287	101.2
274.503	97.11
274.719	99.16
274.934	88.92
275.15	7
275.366	41.81
275.581	72.53
275.797	11.09
276.012	70.48
276.228	113.49
276.444	31.57
276.659	78.68
276.875	35.67
277.09	31.57
277.306	11.09
277.521	144.21
277.737	90.96
277.952	138.07
278.168	52.05
278.383	52.05
278.599	99.16
278.814	226.13
279.03	15.19
279.245	78.68
279.461	43.86
279.676	121.68
279.892	31.57
280.107	66.39
280.322	41.81
280.538	76.63
280.753	43.86
280.969	27.48
281.184	9.05
281.399	-17.58
281.615	142.16
281.83	7
282.045	56.15
282.26	50
282.476	56.15
282.691	121.68
282.906	95.06
283.122	72.53
283.337	64.34
283.552	64.34
283.767	-1.19
283.983	117.59
284.198	82.77
284.413	23.38
284.628	90.96
284.843	64.34
285.058	-23.72
285.274	74.58
285.489	60.24
285.704	74.58
285.919	25.43
286.134	33.62
286.349	76.63
286.564	50
286.779	93.01
286.995	90.96
287.21	27.48
287.425	115.54
287.64	33.62
287.855	58.2
288.07	43.86
288.285	97.11
288.5	80.72
288.715	80.72
288.93	97.11
289.145	47.96
289.36	82.77
289.575	64.34
289.79	107.35
290.004	15.19
290.219	72.53
290.434	93.01
290.649	39.76
290.864	80.72
291.079	72.53
291.294	27.48
291.509	84.82
291.724	76.63
291.938	131.92
292.153	62.29
292.368	90.96
292.583	9.05
292.798	90.96
293.012	119.64
293.227	97.11
293.442	105.3
293.657	97.11
293.871	74.58
294.086	60.24
294.301	113.49
294.516	97.11
294.73	39.76
294.945	47.96
295.16	56.15
295.374	127.83
295.589	80.72
295.804	80.72
296.018	66.39
296.233	33.62
296.447	68.44
296.662	99.16
296.877	29.52
297.091	25.43
297.306	105.3
297.52	-17.58
297.735	50
297.949	129.88
298.164	138.07
298.378	37.72
298.593	60.24
298.807	129.88
299.022	4.95
299.236	113.49
299.451	70.48
299.665	15.19
299.88	119.64
300.094	41.81
300.309	7
300.523	88.92
300.737	62.29
300.952	52.05
301.166	68.44
301.381	88.92
301.595	82.77
301.809	41.81
302.024	41.81
302.238	113.49
302.452	76.63
302.667	113.49
302.881	113.49
303.095	146.26
303.309	90.96
303.524	9.05
303.738	109.4
303.952	93.01
304.166	109.4
304.381	9.05
304.595	84.82
304.809	154.45
305.023	45.91
305.237	43.86
305.452	64.34
305.666	25.43
305.88	105.3
306.094	84.82
306.308	84.82
306.522	88.92
306.736	35.67
306.95	76.63
307.164	4.95
307.379	111.44
307.593	115.54
307.807	60.24
308.021	72.53
308.235	23.38
308.449	0.85
308.663	0.85
308.877	86.87
309.091	97.11
309.305	74.58
309.519	56.15
309.733	86.87
309.947	80.72
310.161	119.64
310.374	78.68
310.588	93.01
310.802	86.87
311.016	136.02
311.23	84.82
311.444	43.86
311.658	80.72
311.872	64.34
312.085	99.16
312.299	113.49
312.513	101.2
312.727	64.34
312.941	37.72
313.154	105.3
313.368	72.53
313.582	11.09
313.796	88.92
314.009	45.91
314.223	170.83
314.437	25.43
314.651	117.59
314.864	117.59
315.078	117.59
315.292	60.24
315.505	31.57
315.719	101.2
315.933	107.35
316.146	121.68
316.36	21.33
316.573	64.34
316.787	115.54
317.001	21.33
317.214	31.57
317.428	101.2
317.641	-13.48
317.855	47.96
318.068	39.76
318.282	35.67
318.495	146.26
318.709	52.05
318.922	64.34
319.136	29.52
319.349	121.68
319.563	70.48
319.776	146.26
319.99	86.87
320.203	97.11
320.417	140.12
320.63	109.4
320.843	160.59
321.057	97.11
321.27	142.16
321.483	90.96
321.697	113.49
321.91	31.57
322.124	74.58
322.337	117.59
322.55	50
322.763	52.05
322.977	121.68
323.19	21.33
323.403	80.72
323.617	90.96
323.83	144.21
324.043	52.05
324.256	82.77
324.469	33.62
324.683	109.4
324.896	43.86
325.109	93.01
325.322	76.63
325.535	117.59
325.748	54.1
325.962	78.68
326.175	107.35
326.388	162.64
326.601	43.86
326.814	78.68
327.027	50
327.24	119.64
327.453	45.91
327.666	109.4
327.879	17.24
328.092	66.39
328.305	97.11
328.518	80.72
328.731	39.76
328.944	66.39
329.157	103.25
329.37	129.88
329.583	105.3
329.796	158.55
330.009	19.29
330.222	90.96
330.435	27.48
330.648	119.64
330.861	101.2
331.073	101.2
331.286	68.44
331.499	47.96
331.712	72.53
331.925	88.92
332.138	86.87
332.35	68.44
332.563	70.48
332.776	158.55
332.989	9.05
333.202	109.4
333.414	129.88
333.627	82.77
333.84	52.05
334.053	76.63
334.265	56.15
334.478	72.53
334.691	88.92
334.903	93.01
335.116	27.48
335.329	72.53
335.541	72.53
335.754	111.44
335.966	25.43
336.179	117.59
336.392	103.25
336.604	158.55
336.817	72.53
337.029	80.72
337.242	47.96
337.454	105.3
337.667	117.59
337.88	154.45
338.092	80.72
338.305	70.48
338.517	29.52
338.729	60.24
338.942	119.64
339.154	88.92
339.367	15.19
339.579	50
339.792	58.2
340.004	117.59
340.217	127.83
340.429	64.34
340.641	31.57
340.854	64.34
341.066	66.39
341.278	64.34
341.491	142.16
341.703	47.96
341.915	105.3
342.128	131.92
342.34	154.45
342.552	25.43
342.764	50
342.977	33.62
343.189	80.72
343.401	72.53
343.613	25.43
343.826	64.34
344.038	21.33
344.25	103.25
344.462	62.29
344.674	50
344.886	70.48
345.099	113.49
345.311	140.12
345.523	62.29
345.735	50
345.947	72.53
346.159	99.16
346.371	74.58
346.583	78.68
346.795	154.45
347.007	41.81
347.219	113.49
347.431	66.39
347.643	127.83
347.855	23.38
348.067	121.68
348.279	47.96
348.491	129.88
348.703	39.76
348.915	115.54
349.127	64.34
349.339	181.07
349.551	127.83
349.763	133.97
349.975	31.57
350.187	138.07
350.399	88.92
350.61	105.3
350.822	136.02
351.034	129.88
351.246	45.91
351.458	90.96
351.669	107.35
351.881	47.96
352.093	113.49
352.305	50
352.517	88.92
352.728	121.68
352.94	23.38
353.152	195.41
353.363	56.15
353.575	76.63
353.787	109.4
353.999	115.54
354.21	105.3
354.422	-25.77
354.633	41.81
354.845	41.81
355.057	7
355.268	84.82
355.48	117.59
355.692	17.24
355.903	47.96
356.115	146.26
356.326	-1.19
356.538	64.34
356.749	105.3
356.961	150.36
357.172	9.05
357.384	123.73
357.595	76.63
357.807	125.78
358.018	-17.58
358.23	66.39
358.441	107.35
358.653	66.39
358.864	68.44
359.075	68.44
359.287	23.38
359.498	172.88
359.709	93.01
359.921	123.73
360.132	131.92
360.344	72.53
360.555	27.48
360.766	99.16
360.977	82.77
361.189	78.68
361.4	129.88
361.611	80.72
361.823	99.16
362.034	142.16
362.245	105.3
362.456	109.4
362.667	84.82
362.879	99.16
363.09	68.44
363.301	97.11
363.512	41.81
363.723	39.76
363.935	15.19
364.146	142.16
364.357	60.24
364.568	52.05
364.779	54.1
364.99	115.54
365.201	88.92
365.412	103.25
365.623	47.96
365.834	72.53
366.045	64.34
366.256	74.58
366.467	66.39
366.678	58.2
366.889	27.48
367.1	72.53
367.311	125.78
367.522	17.24
367.733	74.58
367.944	113.49
368.155	88.92
368.366	93.01
368.577	70.48
368.788	113.49
368.999	23.38
369.209	90.96
369.42	97.11
369.631	131.92
369.842	60.24
370.053	138.07
370.264	138.07
370.474	82.77
370.685	33.62
370.896	115.54
371.107	88.92
371.317	107.35
371.528	27.48
371.739	115.54
371.95	95.06
372.16	88.92
372.371	66.39
372.582	113.49
372.792	140.12
373.003	80.72
373.214	154.45
373.424	105.3
373.635	150.36
373.846	129.88
374.056	146.26
374.267	97.11
374.477	121.68
374.688	127.83
374.898	84.82
375.109	140.12
375.319	121.68
375.53	113.49
375.74	35.67
375.951	76.63
376.161	74.58
376.372	140.12
376.582	121.68
376.793	125.78
377.003	66.39
377.214	56.15
377.424	58.2
377.635	103.25
377.845	64.34
378.055	123.73
378.266	41.81
378.476	64.34
378.686	37.72
378.897	27.48
379.107	179.03
379.317	142.16
379.528	82.77
379.738	142.16
379.948	109.4
380.158	86.87
380.369	187.22
380.579	43.86
380.789	123.73
380.999	58.2
381.21	133.97
381.42	88.92
381.63	27.48
381.84	97.11
382.05	140.12
382.261	64.34
382.471	154.45
382.681	76.63
382.891	191.31
383.101	72.53
383.311	33.62
383.521	93.01
383.731	78.68
383.941	131.92
384.151	125.78
384.361	115.54
384.571	70.48
384.781	123.73
384.991	101.2
385.201	93.01
385.411	117.59
385.621	74.58
385.831	37.72
386.041	164.69
386.251	86.87
386.461	105.3
386.671	33.62
386.881	88.92
387.091	84.82
387.301	74.58
387.511	35.67
387.72	121.68
387.93	123.73
388.14	41.81
388.35	76.63
388.56	129.88
388.769	109.4
388.979	31.57
389.189	101.2
389.399	95.06
389.609	115.54
389.818	101.2
390.028	105.3
390.238	150.36
390.447	76.63
390.657	115.54
390.867	80.72
391.076	125.78
391.286	127.83
391.496	164.69
391.705	170.83
391.915	74.58
392.125	125.78
392.334	144.21
392.544	125.78
392.753	105.3
392.963	27.48
393.172	105.3
393.382	133.97
393.591	136.02
393.801	31.57
394.01	129.88
394.22	187.22
394.429	105.3
394.639	97.11
394.848	82.77
395.058	82.77
395.267	129.88
395.477	213.84
395.686	154.45
395.895	158.55
396.105	232.27
396.314	129.88
396.524	193.36
396.733	68.44
396.942	138.07
397.152	121.68
397.361	170.83
397.57	117.59
397.78	146.26
397.989	140.12
398.198	234.32
398.407	136.02
398.617	185.17
398.826	101.2
399.035	172.88
399.244	174.93
399.453	121.68
399.663	146.26
399.872	185.17
400.081	187.22
400.29	123.73
400.499	170.83
400.708	154.45
400.917	131.92
401.127	162.64
401.336	222.03
401.545	203.6
401.754	230.23
401.963	205.65
402.172	187.22
402.381	105.3
402.59	119.64
402.799	187.22
403.008	213.84
403.217	213.84
403.426	121.68
403.635	207.7
403.844	250.71
404.053	140.12
404.262	201.55
404.471	222.03
404.68	119.64
404.888	205.65
405.097	252.75
405.306	219.99
405.515	181.07
405.724	195.41
405.933	228.18
406.142	211.79
406.35	273.23
406.559	301.9
406.768	158.55
406.977	211.79
407.185	271.19
407.394	187.22
407.603	277.33
407.812	306
408.02	269.14
408.229	271.19
408.438	297.81
408.646	262.99
408.855	269.14
409.064	371.54
409.272	289.62
409.481	383.82
409.69	260.95
409.898	318.29
410.107	357.2
410.315	402.26
410.524	426.83
410.733	342.86
410.941	336.72
411.15	475.98
411.358	443.21
411.567	449.36
411.775	449.36
411.984	445.26
412.192	531.28
412.401	498.51
412.609	539.47
412.818	600.91
413.026	574.28
413.234	633.68
413.443	615.24
413.651	592.72
413.86	598.86
414.068	693.07
414.276	676.68
414.485	762.7
414.693	768.84
414.901	809.8
415.11	742.22
415.318	811.85
415.526	750.41
415.734	914.25
415.943	879.43
416.151	854.86
416.359	973.64
416.567	944.97
416.776	1049.41
416.984	1092.42
417.192	1016.65
417.4	1055.56
417.608	1006.41
417.817	1110.85
418.025	1155.91
418.233	1243.97
418.441	1221.44
418.649	1299.27
418.857	1366.85
419.065	1436.48
419.273	1393.47
419.481	1467.2
419.689	1628.99
419.897	1612.6
420.105	1727.29
420.313	1764.15
420.521	1774.39
420.729	1868.6
420.937	1794.87
421.145	1927.99
421.353	1958.71
421.561	2065.21
421.769	2321.2
421.977	2308.91
422.185	2122.55
422.393	2218.8
422.601	2589.49
422.809	2442.03
423.017	2423.6
423.224	2526
423.432	2726.7
423.64	2757.42
423.848	2769.71
424.056	2743.08
424.263	3111.72
424.471	3013.42
424.679	3078.95
424.887	3355.43
425.094	3359.52
425.302	3377.95
425.51	3482.4
425.718	3719.96
425.925	3490.59
426.133	3826.46
426.341	4031.26
426.548	4152.09
426.756	4195.09
426.964	4307.73
427.171	4555.54
427.379	4520.72
427.586	4604.69
427.794	4768.52
428.001	4930.31
428.209	5176.07
428.417	5055.24
428.624	5452.55
428.832	5389.06
429.039	5470.98
429.247	5376.77
429.454	6048.51
429.662	6284.02
429.869	6036.22
430.076	6464.24
430.284	6152.95
430.491	6507.25
430.699	7049.96
430.906	6963.95
431.114	7045.87
431.321	7207.66
431.528	7389.92
431.736	7822.05
431.943	8094.43
432.15	7826.14
432.358	7965.4
432.565	8391.38
432.772	8368.85
432.979	8786.64
433.187	9018.06
433.394	8907.47
433.601	9622.21
433.808	9513.67
434.016	9552.58
434.223	10035.9
434.43	10418.87
434.637	10515.12
434.844	10967.73
435.052	11236.01
435.259	11223.72
435.466	11328.17
435.673	11156.14
435.88	11831.97
436.087	12561.05
436.294	12591.77
436.501	12090.01
436.708	12360.34
436.915	12903.06
437.122	13503.11
437.329	13490.82
437.537	14000.77
437.743	14074.49
437.95	13965.95
438.157	14629.49
438.364	15129.2
438.571	15102.57
438.778	15065.71
438.985	16491.1
439.192	15913.57
439.399	16411.23
439.606	16071.26
439.813	16904.79
440.02	17871.43
440.227	17611.34
440.433	17363.53
440.64	18086.47
440.847	18195.01
441.054	18555.45
441.261	19722.79
441.467	19122.74
441.674	19796.52
441.881	20564.51
442.088	20064.8
442.294	20402.72
442.501	20877.85
442.708	20931.09
442.914	21912.07
443.121	22901.24
443.328	22182.4
443.534	23634.41
443.741	23099.89
443.948	22594.04
444.154	24365.54
444.361	24429.02
444.568	24635.87
444.774	24832.47
444.981	24719.84
445.187	25465.3
445.394	26724.8
445.6	25856.46
445.807	28733.85
446.013	27408.82
446.22	27892.14
446.426	29133.21
446.633	29477.27
446.839	30417.29
447.046	28981.66
447.252	30794.11
447.459	30589.31
447.665	30300.55
447.871	31672.69
448.078	32749.92
448.284	31529.33
448.491	32622.95
448.697	33954.13
448.903	34369.86
449.11	34120.01
449.316	33804.63
449.522	34363.72
449.728	35408.19
449.935	35402.04
450.141	35672.37
450.347	36278.57
450.553	35189.05
450.76	35787.06
450.966	37103.9
451.172	36434.22
451.378	37275.93
451.584	36538.66
451.791	37499.16
451.997	37198.11
452.203	38072.59
452.409	38222.09
452.615	38285.58
452.821	36438.31
453.027	35883.31
453.233	37892.37
453.44	36538.66
453.646	36899.11
453.852	37202.21
454.058	37884.18
454.264	36378.92
454.47	37253.4
454.676	36057.39
454.882	37460.25
455.088	34486.6
455.294	34914.62
455.5	35326.27
455.705	36057.39
455.911	34392.39
456.117	33943.89
456.323	33276.25
456.529	31324.54
456.735	33153.37
456.941	32395.62
457.147	31768.94
457.352	30892.41
457.558	30345.61
457.764	30687.62
457.97	29915.53
458.176	29157.78
458.381	29200.79
458.587	28051.88
458.793	28115.37
458.999	26335.68
459.204	28279.21
459.41	27523.51
459.616	25797.07
459.821	26261.96
460.027	25680.33
460.233	25309.65
460.438	23849.45
460.644	24041.96
460.85	23194.1
461.055	23022.07
461.261	22649.34
461.466	20982.29
461.672	20505.12
461.878	21860.87
462.083	20247.07
462.289	20339.23
462.494	19978.79
462.7	19006
462.905	18514.49
463.111	19288.62
463.316	19184.18
463.522	18868.79
463.727	18936.37
463.932	18326.08
464.138	18543.16
464.343	18758.2
464.549	17916.48
464.754	18926.13
464.959	18530.87
465.165	18199.1
465.37	17588.81
465.575	17023.57
465.781	18018.88
