Data from USB4F104151__262__14-22-46-418.txt Node

Date: Thu Mar 13 14:22:46 EDT 2025
User: louis
Spectrometer: USB4F10415
Trigger mode: 4
Integration Time (sec): 2.000000E-2
Scans to average: 1
Electric dark correction enabled: true
Nonlinearity correction enabled: false
Boxcar width: 0
XAxis mode: Wavelengths
Number of Pixels in Spectrum: 3648
>>>>>Begin Spectral Data<<<<<
178.204	-139.77
178.424	-139.77
178.644	-139.77
178.864	-141.82
179.084	-158.21
179.304	-25.09
179.524	-33.28
179.744	-18.94
179.964	22.02
180.184	65.02
180.404	97.79
180.624	-33.28
180.844	22.02
181.064	-35.33
181.283	13.82
181.503	-41.47
181.723	-33.28
181.943	-6.66
182.163	56.83
182.383	26.11
182.602	38.4
182.822	-18.94
183.042	22.02
183.262	-14.85
183.482	40.45
183.701	24.06
183.921	103.93
184.141	-59.9
184.361	46.59
184.58	-0.51
184.8	48.64
185.02	40.45
185.239	62.98
185.459	40.45
185.679	58.88
185.898	-33.28
186.118	7.68
186.338	13.82
186.557	-8.7
186.777	-6.66
186.997	13.82
187.216	38.4
187.436	89.6
187.655	-51.71
187.875	-6.66
188.095	1.54
188.314	9.73
188.534	48.64
188.753	-0.51
188.973	32.26
189.192	38.4
189.412	1.54
189.631	-35.33
189.851	-14.85
190.07	87.55
190.29	-33.28
190.509	-14.85
190.729	13.82
190.948	5.63
191.168	124.41
191.387	85.5
191.607	69.12
191.826	38.4
192.045	-41.47
192.265	71.17
192.484	54.78
192.704	79.36
192.923	54.78
193.142	99.84
193.362	-59.9
193.581	17.92
193.8	9.73
194.02	120.32
194.239	11.78
194.458	15.87
194.678	40.45
194.897	-23.04
195.116	15.87
195.335	62.98
195.555	-31.23
195.774	24.06
195.993	87.55
196.212	15.87
196.432	50.69
196.651	5.63
196.87	50.69
197.089	32.26
197.308	73.21
197.528	58.88
197.747	5.63
197.966	71.17
198.185	65.02
198.404	36.35
198.623	22.02
198.842	13.82
199.062	105.98
199.281	54.78
199.5	19.97
199.719	42.5
199.938	13.82
200.157	-27.14
200.376	13.82
200.595	-55.81
200.814	-49.66
201.033	79.36
201.252	46.59
201.471	54.78
201.69	-2.56
201.909	-2.56
202.128	112.13
202.347	71.17
202.566	3.58
202.785	-35.33
203.004	-2.56
203.223	69.12
203.442	34.3
203.661	-35.33
203.879	42.5
204.098	40.45
204.317	-45.57
204.536	22.02
204.755	46.59
204.974	56.83
205.193	19.97
205.411	71.17
205.63	38.4
205.849	56.83
206.068	-2.56
206.287	28.16
206.505	56.83
206.724	13.82
206.943	-72.19
207.162	-27.14
207.381	-6.66
207.599	48.64
207.818	40.45
208.037	42.5
208.255	46.59
208.474	52.74
208.693	-8.7
208.911	34.3
209.13	26.11
209.349	-2.56
209.567	13.82
209.786	24.06
210.005	46.59
210.223	30.21
210.442	-18.94
210.661	24.06
210.879	58.88
211.098	-2.56
211.316	-6.66
211.535	22.02
211.753	-18.94
211.972	26.11
212.191	5.63
212.409	-18.94
212.628	42.5
212.846	-10.75
213.065	48.64
213.283	-10.75
213.502	32.26
213.72	38.4
213.938	7.68
214.157	44.54
214.375	-0.51
214.594	-6.66
214.812	48.64
215.031	15.87
215.249	-25.09
215.467	65.02
215.686	34.3
215.904	5.63
216.122	40.45
216.341	5.63
216.559	1.54
216.778	38.4
216.996	30.21
217.214	60.93
217.432	-76.29
217.651	13.82
217.869	-27.14
218.087	48.64
218.306	1.54
218.524	40.45
218.742	-35.33
218.96	48.64
219.179	-49.66
219.397	-4.61
219.615	93.69
219.833	13.82
220.051	7.68
220.27	-31.23
220.488	99.84
220.706	24.06
220.924	22.02
221.142	-33.28
221.36	67.07
221.578	52.74
221.796	26.11
222.015	62.98
222.233	-20.99
222.451	17.92
222.669	-31.23
222.887	30.21
223.105	-39.42
223.323	-8.7
223.541	32.26
223.759	-0.51
223.977	-90.62
224.195	99.84
224.413	13.82
224.631	15.87
224.849	7.68
225.067	50.69
225.285	-18.94
225.503	13.82
225.721	34.3
225.939	71.17
226.157	73.21
226.375	108.03
226.592	1.54
226.81	-10.75
227.028	50.69
227.246	71.17
227.464	87.55
227.682	62.98
227.9	54.78
228.117	17.92
228.335	-43.52
228.553	7.68
228.771	50.69
228.989	7.68
229.206	89.6
229.424	44.54
229.642	-10.75
229.86	54.78
230.077	7.68
230.295	22.02
230.513	67.07
230.731	-0.51
230.948	52.74
231.166	79.36
231.384	22.02
231.601	-16.9
231.819	24.06
232.037	7.68
232.254	3.58
232.472	-16.9
232.689	-10.75
232.907	-0.51
233.125	-18.94
233.342	62.98
233.56	-68.09
233.777	-14.85
233.995	-23.04
234.213	22.02
234.43	-14.85
234.648	79.36
234.865	38.4
235.083	48.64
235.3	30.21
235.518	24.06
235.735	126.46
235.953	34.3
236.17	7.68
236.388	19.97
236.605	22.02
236.822	50.69
237.04	71.17
237.257	79.36
237.475	-6.66
237.692	13.82
237.909	19.97
238.127	-6.66
238.344	26.11
238.562	62.98
238.779	-35.33
238.996	11.78
239.214	56.83
239.431	103.93
239.648	-64
239.865	69.12
240.083	87.55
240.3	38.4
240.517	38.4
240.735	46.59
240.952	32.26
241.169	46.59
241.386	-27.14
241.603	-10.75
241.821	40.45
242.038	99.84
242.255	93.69
242.472	50.69
242.689	-10.75
242.907	-68.09
243.124	-2.56
243.341	38.4
243.558	-55.81
243.775	-2.56
243.992	-41.47
244.209	67.07
244.426	79.36
244.643	5.63
244.86	-18.94
245.078	60.93
245.295	9.73
245.512	58.88
245.729	62.98
245.946	38.4
246.163	-27.14
246.38	13.82
246.597	73.21
246.814	-12.8
247.031	-41.47
247.248	95.74
247.464	54.78
247.681	1.54
247.898	50.69
248.115	97.79
248.332	-45.57
248.549	1.54
248.766	30.21
248.983	62.98
249.2	30.21
249.417	40.45
249.633	62.98
249.85	-18.94
250.067	15.87
250.284	7.68
250.501	62.98
250.717	62.98
250.934	-8.7
251.151	38.4
251.368	56.83
251.585	-2.56
251.801	-25.09
252.018	40.45
252.235	83.45
252.451	-43.52
252.668	-6.66
252.885	42.5
253.102	46.59
253.318	30.21
253.535	26.11
253.752	-16.9
253.968	-64
254.185	-6.66
254.401	38.4
254.618	-25.09
254.835	-68.09
255.051	146.94
255.268	79.36
255.484	56.83
255.701	28.16
255.917	48.64
256.134	13.82
256.351	62.98
256.567	-51.71
256.784	62.98
257	-10.75
257.217	38.4
257.433	5.63
257.65	40.45
257.866	52.74
258.082	44.54
258.299	30.21
258.515	-18.94
258.732	22.02
258.948	-12.8
259.165	42.5
259.381	17.92
259.597	79.36
259.814	-41.47
260.03	54.78
260.246	50.69
260.463	62.98
260.679	81.41
260.895	-76.29
261.112	22.02
261.328	-12.8
261.544	-57.86
261.761	56.83
261.977	38.4
262.193	-0.51
262.409	-27.14
262.626	85.5
262.842	-10.75
263.058	9.73
263.274	85.5
263.49	15.87
263.707	-6.66
263.923	-33.28
264.139	30.21
264.355	13.82
264.571	30.21
264.787	-23.04
265.004	73.21
265.22	-10.75
265.436	-20.99
265.652	19.97
265.868	9.73
266.084	22.02
266.3	-14.85
266.516	-35.33
266.732	42.5
266.948	-27.14
267.164	-2.56
267.38	34.3
267.596	-41.47
267.812	46.59
268.028	46.59
268.244	48.64
268.46	48.64
268.676	-6.66
268.892	40.45
269.108	13.82
269.324	1.54
269.54	-2.56
269.756	17.92
269.972	-18.94
270.188	1.54
270.403	5.63
270.619	-35.33
270.835	-12.8
271.051	-68.09
271.267	13.82
271.483	30.21
271.698	28.16
271.914	62.98
272.13	9.73
272.346	67.07
272.562	30.21
272.777	26.11
272.993	-37.38
273.209	-16.9
273.425	58.88
273.64	46.59
273.856	-10.75
274.072	54.78
274.287	30.21
274.503	22.02
274.719	38.4
274.934	30.21
275.15	-31.23
275.366	1.54
275.581	34.3
275.797	13.82
276.012	32.26
276.228	120.32
276.444	7.68
276.659	124.41
276.875	38.4
277.09	38.4
277.306	-41.47
277.521	38.4
277.737	36.35
277.952	-4.61
278.168	28.16
278.383	50.69
278.599	32.26
278.814	24.06
279.03	112.13
279.245	83.45
279.461	-2.56
279.676	-2.56
279.892	-41.47
280.107	-10.75
280.322	42.5
280.538	48.64
280.753	1.54
280.969	19.97
281.184	13.82
281.399	30.21
281.615	7.68
281.83	-14.85
282.045	7.68
282.26	22.02
282.476	28.16
282.691	48.64
282.906	-14.85
283.122	60.93
283.337	-51.71
283.552	24.06
283.767	11.78
283.983	46.59
284.198	-2.56
284.413	112.13
284.628	-64
284.843	42.5
285.058	36.35
285.274	32.26
285.489	22.02
285.704	71.17
285.919	22.02
286.134	56.83
286.349	30.21
286.564	42.5
286.779	28.16
286.995	105.98
287.21	-20.99
287.425	62.98
287.64	13.82
287.855	1.54
288.07	-31.23
288.285	118.27
288.5	105.98
288.715	44.54
288.93	17.92
289.145	1.54
289.36	54.78
289.575	38.4
289.79	17.92
290.004	15.87
290.219	65.02
290.434	-10.75
290.649	-2.56
290.864	13.82
291.079	19.97
291.294	15.87
291.509	38.4
291.724	79.36
291.938	62.98
292.153	48.64
292.368	81.41
292.583	17.92
292.798	32.26
293.012	22.02
293.227	65.02
293.442	28.16
293.657	24.06
293.871	46.59
294.086	67.07
294.301	54.78
294.516	40.45
294.73	-29.18
294.945	62.98
295.16	38.4
295.374	56.83
295.589	77.31
295.804	-10.75
296.018	-18.94
296.233	15.87
296.447	71.17
296.662	-18.94
296.877	40.45
297.091	-8.7
297.306	87.55
297.52	56.83
297.735	-2.56
297.949	30.21
298.164	60.93
298.378	-12.8
298.593	-10.75
298.807	50.69
299.022	62.98
299.236	71.17
299.451	7.68
299.665	62.98
299.88	65.02
300.094	-31.23
300.309	13.82
300.523	22.02
300.737	-16.9
300.952	52.74
301.166	95.74
301.381	-35.33
301.595	-84.48
301.809	30.21
302.024	-57.86
302.238	1.54
302.452	124.41
302.667	-80.38
302.881	42.5
303.095	83.45
303.309	17.92
303.524	-0.51
303.738	9.73
303.952	-33.28
304.166	75.26
304.381	-29.18
304.595	67.07
304.809	11.78
305.023	24.06
305.237	-10.75
305.452	-10.75
305.666	40.45
305.88	38.4
306.094	1.54
306.308	26.11
306.522	-0.51
306.736	17.92
306.95	38.4
307.164	54.78
307.379	1.54
307.593	54.78
307.807	13.82
308.021	22.02
308.235	-27.14
308.449	-27.14
308.663	-0.51
308.877	-14.85
309.091	32.26
309.305	5.63
309.519	-41.47
309.733	87.55
309.947	-27.14
310.161	56.83
310.374	54.78
310.588	95.74
310.802	-37.38
311.016	-20.99
311.23	-0.51
311.444	38.4
311.658	-57.86
311.872	83.45
312.085	13.82
312.299	-16.9
312.513	28.16
312.727	-51.71
312.941	40.45
313.154	48.64
313.368	-10.75
313.582	-18.94
313.796	-27.14
314.009	48.64
314.223	24.06
314.437	22.02
314.651	7.68
314.864	-27.14
315.078	36.35
315.292	7.68
315.505	32.26
315.719	-25.09
315.933	34.3
316.146	11.78
316.36	5.63
316.573	65.02
316.787	65.02
317.001	5.63
317.214	3.58
317.428	7.68
317.641	17.92
317.855	-14.85
318.068	1.54
318.282	-6.66
318.495	89.6
318.709	30.21
318.922	73.21
319.136	46.59
319.349	30.21
319.563	15.87
319.776	-6.66
319.99	13.82
320.203	56.83
320.417	-10.75
320.63	85.5
320.843	38.4
321.057	-2.56
321.27	62.98
321.483	11.78
321.697	22.02
321.91	24.06
322.124	38.4
322.337	-27.14
322.55	-49.66
322.763	-27.14
322.977	11.78
323.19	-8.7
323.403	87.55
323.617	13.82
323.83	62.98
324.043	38.4
324.256	-0.51
324.469	3.58
324.683	38.4
324.896	26.11
325.109	122.37
325.322	-35.33
325.535	5.63
325.748	-18.94
325.962	75.26
326.175	38.4
326.388	50.69
326.601	28.16
326.814	32.26
327.027	46.59
327.24	-18.94
327.453	13.82
327.666	-10.75
327.879	71.17
328.092	71.17
328.305	-0.51
328.518	69.12
328.731	58.88
328.944	17.92
329.157	5.63
329.37	38.4
329.583	83.45
329.796	48.64
330.009	-25.09
330.222	54.78
330.435	40.45
330.648	108.03
330.861	-25.09
331.073	42.5
331.286	54.78
331.499	54.78
331.712	9.73
331.925	-12.8
332.138	-35.33
332.35	93.69
332.563	-51.71
332.776	-2.56
332.989	5.63
333.202	114.17
333.414	7.68
333.627	28.16
333.84	26.11
334.053	52.74
334.265	22.02
334.478	42.5
334.691	95.74
334.903	40.45
335.116	3.58
335.329	36.35
335.541	81.41
335.754	87.55
335.966	38.4
336.179	56.83
336.392	58.88
336.604	54.78
336.817	26.11
337.029	13.82
337.242	5.63
337.454	34.3
337.667	-10.75
337.88	87.55
338.092	22.02
338.305	38.4
338.517	-39.42
338.729	17.92
338.942	87.55
339.154	38.4
339.367	-16.9
339.579	114.17
339.792	-31.23
340.004	26.11
340.217	-18.94
340.429	48.64
340.641	-20.99
340.854	19.97
341.066	5.63
341.278	71.17
341.491	97.79
341.703	30.21
341.915	-14.85
342.128	40.45
342.34	-23.04
342.552	-18.94
342.764	38.4
342.977	-74.24
343.189	22.02
343.401	13.82
343.613	22.02
343.826	3.58
344.038	-41.47
344.25	34.3
344.462	1.54
344.674	-6.66
344.886	13.82
345.099	103.93
345.311	-27.14
345.523	30.21
345.735	44.54
345.947	89.6
346.159	24.06
346.371	17.92
346.583	-8.7
346.795	65.02
347.007	17.92
347.219	30.21
347.431	105.98
347.643	62.98
347.855	-49.66
348.067	24.06
348.279	-31.23
348.491	-10.75
348.703	116.22
348.915	73.21
349.127	48.64
349.339	-23.04
349.551	42.5
349.763	42.5
349.975	46.59
350.187	89.6
350.399	91.65
350.61	7.68
350.822	-2.56
351.034	95.74
351.246	1.54
351.458	48.64
351.669	13.82
351.881	73.21
352.093	56.83
352.305	-16.9
352.517	-10.75
352.728	75.26
352.94	28.16
353.152	17.92
353.363	5.63
353.575	32.26
353.787	97.79
353.999	42.5
354.21	83.45
354.422	103.93
354.633	38.4
354.845	-23.04
355.057	-37.38
355.268	77.31
355.48	26.11
355.692	62.98
355.903	-23.04
356.115	30.21
356.326	-33.28
356.538	15.87
356.749	73.21
356.961	-2.56
357.172	38.4
357.384	7.68
357.595	38.4
357.807	30.21
358.018	30.21
358.23	24.06
358.441	42.5
358.653	46.59
358.864	93.69
359.075	-35.33
359.287	40.45
359.498	32.26
359.709	17.92
359.921	-31.23
360.132	24.06
360.344	17.92
360.555	-25.09
360.766	40.45
360.977	15.87
361.189	46.59
361.4	-12.8
361.611	13.82
361.823	103.93
362.034	5.63
362.245	-33.28
362.456	48.64
362.667	1.54
362.879	-59.9
363.09	-16.9
363.301	71.17
363.512	-12.8
363.723	48.64
363.935	71.17
364.146	15.87
364.357	-0.51
364.568	62.98
364.779	-27.14
364.99	87.55
365.201	-16.9
365.412	54.78
365.623	-0.51
365.834	46.59
366.045	-2.56
366.256	62.98
366.467	24.06
366.678	54.78
366.889	44.54
367.1	40.45
367.311	38.4
367.522	15.87
367.733	50.69
367.944	95.74
368.155	-18.94
368.366	69.12
368.577	71.17
368.788	7.68
368.999	-14.85
369.209	65.02
369.42	62.98
369.631	95.74
369.842	56.83
370.053	24.06
370.264	17.92
370.474	-18.94
370.685	15.87
370.896	-57.86
371.107	54.78
371.317	24.06
371.528	62.98
371.739	32.26
371.95	46.59
372.16	46.59
372.371	-16.9
372.582	22.02
372.792	71.17
373.003	-6.66
373.214	-39.42
373.424	46.59
373.635	54.78
373.846	-12.8
374.056	-78.33
374.267	46.59
374.477	26.11
374.688	54.78
374.898	32.26
375.109	7.68
375.319	38.4
375.53	87.55
375.74	58.88
375.951	32.26
376.161	-35.33
376.372	128.51
376.582	60.93
376.793	24.06
377.003	38.4
377.214	56.83
377.424	75.26
377.635	44.54
377.845	50.69
378.055	65.02
378.266	22.02
378.476	58.88
378.686	65.02
378.897	15.87
379.107	-6.66
379.317	116.22
379.528	22.02
379.738	77.31
379.948	5.63
380.158	-4.61
380.369	24.06
380.579	38.4
380.789	24.06
380.999	48.64
381.21	46.59
381.42	42.5
381.63	60.93
381.84	22.02
382.05	-35.33
382.261	101.89
382.471	22.02
382.681	62.98
382.891	87.55
383.101	22.02
383.311	91.65
383.521	17.92
383.731	-18.94
383.941	87.55
384.151	54.78
384.361	81.41
384.571	52.74
384.781	46.59
384.991	58.88
385.201	44.54
385.411	79.36
385.621	46.59
385.831	42.5
386.041	1.54
386.251	22.02
386.461	13.82
386.671	-72.19
386.881	34.3
387.091	-18.94
387.301	-74.24
387.511	-14.85
387.72	50.69
387.93	9.73
388.14	65.02
388.35	71.17
388.56	13.82
388.769	30.21
388.979	34.3
389.189	56.83
389.399	-4.61
389.609	7.68
389.818	62.98
390.028	15.87
390.238	-18.94
390.447	-12.8
390.657	-20.99
390.867	22.02
391.076	-27.14
391.286	79.36
391.496	56.83
391.705	71.17
391.915	38.4
392.125	83.45
392.334	-6.66
392.544	15.87
392.753	62.98
392.963	-33.28
393.172	58.88
393.382	22.02
393.591	71.17
393.801	24.06
394.01	26.11
394.22	-72.19
394.429	-39.42
394.639	79.36
394.848	71.17
395.058	38.4
395.267	62.98
395.477	-64
395.686	-10.75
395.895	69.12
396.105	48.64
396.314	75.26
396.524	62.98
396.733	34.3
396.942	79.36
397.152	22.02
397.361	110.08
397.57	124.41
397.78	54.78
397.989	116.22
398.198	148.99
398.407	54.78
398.617	95.74
398.826	101.89
399.035	56.83
399.244	85.5
399.453	48.64
399.663	83.45
399.872	58.88
400.081	46.59
400.29	60.93
400.499	77.31
400.708	103.93
400.917	97.79
401.127	24.06
401.336	15.87
401.545	128.51
401.754	42.5
401.963	56.83
402.172	79.36
402.381	40.45
402.59	91.65
402.799	89.6
403.008	62.98
403.217	42.5
403.426	56.83
403.635	87.55
403.844	95.74
404.053	103.93
404.262	159.23
404.471	171.52
404.68	73.21
404.888	97.79
405.097	62.98
405.306	87.55
405.515	122.37
405.724	161.28
405.933	50.69
406.142	99.84
406.35	93.69
406.559	130.56
406.768	97.79
406.977	108.03
407.185	103.93
407.394	75.26
407.603	101.89
407.812	81.41
408.02	171.52
408.229	144.89
408.438	120.32
408.646	83.45
408.855	185.85
409.064	146.94
409.272	87.55
409.481	173.57
409.69	153.09
409.898	138.75
410.107	171.52
410.315	128.51
410.524	138.75
410.733	173.57
410.941	210.43
411.15	218.62
411.358	212.48
411.567	261.63
411.775	232.96
411.984	296.44
412.192	263.68
412.401	257.53
412.609	323.07
412.818	318.97
413.026	230.91
413.234	226.81
413.443	304.64
413.651	255.48
413.86	368.12
414.068	370.17
414.276	374.27
414.485	302.59
414.693	327.16
414.901	493.05
415.11	353.79
415.318	378.36
415.526	429.56
415.734	450.04
415.943	402.94
416.151	443.9
416.359	464.38
416.567	427.51
416.776	472.57
416.984	517.62
417.192	525.82
417.4	562.68
417.608	423.42
417.817	574.97
418.025	626.17
418.233	652.79
418.441	630.26
418.649	607.73
418.857	695.8
419.065	736.76
419.273	667.13
419.481	730.61
419.689	689.65
419.897	777.72
420.105	751.09
420.313	835.06
420.521	804.34
420.729	894.45
420.937	927.22
421.145	900.59
421.353	982.51
421.561	1058.29
421.769	1033.71
421.977	1152.49
422.185	1111.54
422.393	1107.44
422.601	1195.5
422.809	1213.93
423.017	1097.2
423.224	1316.33
423.432	1334.76
423.64	1340.91
423.848	1467.88
424.056	1418.73
424.263	1557.99
424.471	1517.03
424.679	1562.09
424.887	1623.53
425.094	1717.73
425.302	1732.07
425.51	1754.6
425.718	1693.16
425.925	1730.02
426.133	1762.79
426.341	1998.31
426.548	2022.88
426.756	2112.99
426.964	2061.79
427.171	2147.81
427.379	2227.68
427.586	2201.05
427.794	2268.64
428.001	2434.52
428.209	2457.05
428.417	2512.35
428.624	2616.79
428.832	2731.48
429.039	2749.91
429.247	2751.96
429.454	2880.98
429.662	3139.02
429.869	2835.92
430.076	3028.43
430.284	3022.29
430.491	3143.12
430.699	3229.13
430.906	3526.09
431.114	3372.49
431.321	3515.85
431.528	3558.86
431.736	3806.66
431.943	4048.32
432.15	3884.48
432.358	3888.58
432.565	4165.06
432.772	4036.03
432.979	4302.27
433.187	4453.82
433.394	4220.35
433.601	4617.66
433.808	4709.82
434.016	4619.71
434.223	4830.65
434.43	5062.07
434.637	4924.85
434.844	5408.17
435.052	5359.02
435.259	5408.17
435.466	5438.89
435.673	5498.28
435.88	5731.75
436.087	6090.15
436.294	6034.85
436.501	5946.79
436.708	6116.77
436.915	6215.07
437.122	6512.03
437.329	6399.39
437.537	6669.72
437.743	6657.43
437.95	6765.98
438.157	7150.99
438.364	7306.64
438.571	7230.87
438.778	7447.95
438.985	8050.05
439.192	7710.09
439.399	8033.67
439.606	7792.01
439.813	8148.36
440.02	8676.73
440.227	8459.65
440.433	8529.28
440.64	8729.98
440.847	8566.14
441.054	8871.29
441.261	9438.58
441.467	9502.06
441.674	9411.95
441.881	9655.66
442.088	9895.27
442.294	9864.55
442.501	10059.11
442.708	10149.22
442.914	10585.44
443.121	11189.59
443.328	10820.95
443.534	11588.94
443.741	11099.48
443.948	10982.74
444.154	11758.92
444.361	11640.14
444.568	11793.74
444.774	11910.47
444.981	11867.47
445.187	12444.99
445.394	12549.44
445.6	12506.43
445.807	13985.07
446.013	13196.6
446.22	13606.19
446.426	13860.14
446.633	14087.47
446.839	14716.19
447.046	14001.45
447.252	14654.75
447.459	15013.15
447.665	14796.06
447.871	15267.1
448.078	16090.38
448.284	15164.7
448.491	15754.51
448.697	16164.11
448.903	16446.73
449.11	16801.02
449.316	16581.89
449.522	16655.62
449.728	17030.4
449.935	17450.23
450.141	17196.28
450.347	17550.58
450.553	17145.08
450.76	17429.75
450.966	18128.11
451.172	17943.79
451.378	18547.94
451.584	17728.75
451.791	18435.3
451.997	18257.13
452.203	18523.37
452.409	18607.33
452.615	18697.44
452.821	17761.52
453.027	17423.61
453.233	18873.57
453.44	18185.45
453.646	18459.88
453.852	18117.87
454.058	18519.27
454.264	17915.12
454.47	18429.16
454.676	17896.69
454.882	18697.44
455.088	17208.57
455.294	17376.5
455.5	17628.4
455.705	17894.64
455.911	16872.7
456.117	16798.98
456.323	16729.34
456.529	15422.74
456.735	16471.3
456.941	15947.02
457.147	15697.17
457.352	15338.77
457.558	15095.07
457.764	15111.45
457.97	14974.24
458.176	14738.72
458.381	14595.36
458.587	13983.02
458.793	13980.97
458.999	13208.89
459.204	14153
459.41	13765.93
459.616	12750.14
459.821	12999.99
460.027	12580.16
460.233	12602.69
460.438	11986.25
460.644	12207.43
460.85	11629.9
461.055	11427.15
461.261	11335
461.466	10263.91
461.672	10280.29
461.878	11052.38
462.083	10069.35
462.289	9866.6
462.494	9993.58
462.7	9411.95
462.905	9268.59
463.111	9678.19
463.316	9547.12
463.522	9049.46
463.727	9360.75
463.932	9387.38
464.138	9295.22
464.343	9117.04
464.549	8856.95
464.754	9401.71
464.959	9000.31
465.165	9188.72
465.37	8826.23
465.575	8459.65
465.781	8918.39
465.986	9018.74
466.191	8547.71
466.397	8396.16
466.602	8041.86
466.807	8187.27
467.012	8283.52
467.218	8308.1
467.423	8107.4
467.628	8011.14
467.833	8588.67
468.038	8213.89
468.244	8009.09
468.449	8273.28
468.654	7921.03
