Data from USB4F104151__115__14-18-20-413.txt Node

Date: Thu Mar 13 14:18:20 EDT 2025
User: louis
Spectrometer: USB4F10415
Trigger mode: 4
Integration Time (sec): 2.000000E-2
Scans to average: 1
Electric dark correction enabled: true
Nonlinearity correction enabled: false
Boxcar width: 0
XAxis mode: Wavelengths
Number of Pixels in Spectrum: 3648
>>>>>Begin Spectral Data<<<<<
178.204	-107.69
178.424	-107.69
178.644	-107.69
178.864	-95.4
179.084	-183.46
179.304	-31.91
179.524	-3.24
179.744	33.62
179.964	-5.29
180.184	-52.39
180.404	70.48
180.624	2.9
180.844	13.14
181.064	-101.55
181.283	109.4
181.503	-76.97
181.723	41.81
181.943	31.57
182.163	37.72
182.383	21.33
182.602	45.91
182.822	58.2
183.042	70.48
183.262	13.14
183.482	47.96
183.701	45.91
183.921	19.29
184.141	-66.73
184.361	68.44
184.58	-13.48
184.8	21.33
185.02	62.29
185.239	52.05
185.459	95.06
185.679	50
185.898	72.53
186.118	41.81
186.338	62.29
186.557	41.81
186.777	54.1
186.997	-7.34
187.216	-56.49
187.436	74.58
187.655	33.62
187.875	56.15
188.095	56.15
188.314	78.68
188.534	-9.39
188.753	-27.82
188.973	-33.96
189.192	80.72
189.412	-9.39
189.631	29.52
189.851	111.44
190.07	95.06
190.29	11.09
190.509	86.87
190.729	88.92
190.948	15.19
191.168	131.92
191.387	103.25
191.607	35.67
191.826	-1.19
192.045	15.19
192.265	7
192.484	21.33
192.704	64.34
192.923	21.33
193.142	154.45
193.362	86.87
193.581	136.02
193.8	35.67
194.02	54.1
194.239	-7.34
194.458	64.34
194.678	52.05
194.897	72.53
195.116	54.1
195.335	29.52
195.555	66.39
195.774	62.29
195.993	56.15
196.212	80.72
196.432	-50.35
196.651	-17.58
196.87	64.34
197.089	60.24
197.308	33.62
197.528	21.33
197.747	27.48
197.966	4.95
198.185	60.24
198.404	21.33
198.623	72.53
198.842	21.33
199.062	39.76
199.281	29.52
199.5	-44.2
199.719	23.38
199.938	95.06
200.157	54.1
200.376	138.07
200.595	72.53
200.814	-40.11
201.033	50
201.252	13.14
201.471	-25.77
201.69	4.95
201.909	103.25
202.128	66.39
202.347	-3.24
202.566	64.34
202.785	39.76
203.004	-13.48
203.223	29.52
203.442	47.96
203.661	74.58
203.879	2.9
204.098	82.77
204.317	-56.49
204.536	82.77
204.755	35.67
204.974	70.48
205.193	80.72
205.411	88.92
205.63	101.2
205.849	-15.53
206.068	13.14
206.287	-11.43
206.505	82.77
206.724	43.86
206.943	-3.24
207.162	29.52
207.381	35.67
207.599	47.96
207.818	15.19
208.037	52.05
208.255	80.72
208.474	37.72
208.693	-7.34
208.911	52.05
209.13	29.52
209.349	70.48
209.567	45.91
209.786	119.64
210.005	19.29
210.223	13.14
210.442	37.72
210.661	66.39
210.879	33.62
211.098	56.15
211.316	19.29
211.535	25.43
211.753	84.82
211.972	64.34
212.191	0.85
212.409	13.14
212.628	-7.34
212.846	39.76
213.065	99.16
213.283	45.91
213.502	70.48
213.72	39.76
213.938	60.24
214.157	86.87
214.375	70.48
214.594	105.3
214.812	-5.29
215.031	-3.24
215.249	23.38
215.467	-9.39
215.686	31.57
215.904	119.64
216.122	72.53
216.341	31.57
216.559	119.64
216.778	72.53
216.996	21.33
217.214	37.72
217.432	-25.77
217.651	86.87
217.869	0.85
218.087	13.14
218.306	64.34
218.524	54.1
218.742	4.95
218.96	-9.39
219.179	43.86
219.397	4.95
219.615	33.62
219.833	62.29
220.051	7
220.27	23.38
220.488	-46.25
220.706	54.1
220.924	109.4
221.142	25.43
221.36	60.24
221.578	13.14
221.796	21.33
222.015	74.58
222.233	50
222.451	-9.39
222.669	-7.34
222.887	119.64
223.105	25.43
223.323	15.19
223.541	-1.19
223.759	93.01
223.977	33.62
224.195	47.96
224.413	103.25
224.631	45.91
224.849	95.06
225.067	58.2
225.285	-11.43
225.503	70.48
225.721	-3.24
225.939	50
226.157	58.2
226.375	129.88
226.592	33.62
226.81	62.29
227.028	17.24
227.246	25.43
227.464	31.57
227.682	37.72
227.9	131.92
228.117	-27.82
228.335	4.95
228.553	84.82
228.771	21.33
228.989	86.87
229.206	58.2
229.424	27.48
229.642	-29.87
229.86	66.39
230.077	64.34
230.295	-1.19
230.513	45.91
230.731	103.25
230.948	56.15
231.166	39.76
231.384	-1.19
231.601	56.15
231.819	4.95
232.037	62.29
232.254	4.95
232.472	15.19
232.689	-19.63
232.907	88.92
233.125	17.24
233.342	-42.15
233.56	107.35
233.777	74.58
233.995	144.21
234.213	64.34
234.43	66.39
234.648	-3.24
234.865	29.52
235.083	43.86
235.3	23.38
235.518	54.1
235.735	-21.67
235.953	131.92
236.17	29.52
236.388	9.05
236.605	-9.39
236.822	121.68
237.04	37.72
237.257	25.43
237.475	-5.29
237.692	29.52
237.909	70.48
238.127	19.29
238.344	47.96
238.562	54.1
238.779	41.81
238.996	31.57
239.214	17.24
239.431	144.21
239.648	68.44
239.865	45.91
240.083	39.76
240.3	66.39
240.517	29.52
240.735	56.15
240.952	74.58
241.169	131.92
241.386	37.72
241.603	25.43
241.821	-25.77
242.038	50
242.255	37.72
242.472	-52.39
242.689	29.52
242.907	27.48
243.124	80.72
243.341	86.87
243.558	54.1
243.775	-15.53
243.992	-27.82
244.209	58.2
244.426	25.43
244.643	31.57
244.86	50
245.078	37.72
245.295	13.14
245.512	-3.24
245.729	-3.24
245.946	105.3
246.163	37.72
246.38	90.96
246.597	45.91
246.814	7
247.031	56.15
247.248	76.63
247.464	9.05
247.681	4.95
247.898	-13.48
248.115	19.29
248.332	-15.53
248.549	95.06
248.766	107.35
248.983	45.91
249.2	88.92
249.417	70.48
249.633	90.96
249.85	58.2
250.067	21.33
250.284	-25.77
250.501	35.67
250.717	68.44
250.934	50
251.151	-56.49
251.368	58.2
251.585	54.1
251.801	50
252.018	31.57
252.235	21.33
252.451	19.29
252.668	74.58
252.885	119.64
253.102	-64.68
253.318	29.52
253.535	13.14
253.752	-27.82
253.968	74.58
254.185	-44.2
254.401	4.95
254.618	84.82
254.835	37.72
255.051	74.58
255.268	-31.91
255.484	43.86
255.701	58.2
255.917	39.76
256.134	35.67
256.351	119.64
256.567	-74.92
256.784	-23.72
257	13.14
257.217	41.81
257.433	33.62
257.65	93.01
257.866	31.57
258.082	15.19
258.299	9.05
258.515	103.25
258.732	-91.31
258.948	58.2
259.165	58.2
259.381	15.19
259.597	15.19
259.814	97.11
260.03	68.44
260.246	68.44
260.463	62.29
260.679	107.35
260.895	37.72
261.112	-19.63
261.328	4.95
261.544	-1.19
261.761	78.68
261.977	-3.24
262.193	-56.49
262.409	119.64
262.626	58.2
262.842	95.06
263.058	35.67
263.274	47.96
263.49	4.95
263.707	113.49
263.923	41.81
264.139	72.53
264.355	80.72
264.571	50
264.787	78.68
265.004	93.01
265.22	62.29
265.436	50
265.652	64.34
265.868	58.2
266.084	33.62
266.3	17.24
266.516	2.9
266.732	86.87
266.948	-42.15
267.164	86.87
267.38	82.77
267.596	56.15
267.812	82.77
268.028	115.54
268.244	29.52
268.46	64.34
268.676	58.2
268.892	50
269.108	76.63
269.324	25.43
269.54	58.2
269.756	105.3
269.972	-31.91
270.188	9.05
270.403	23.38
270.619	45.91
270.835	68.44
271.051	19.29
271.267	-5.29
271.483	64.34
271.698	56.15
271.914	86.87
272.13	31.57
272.346	13.14
272.562	13.14
272.777	140.12
272.993	70.48
273.209	70.48
273.425	88.92
273.64	39.76
273.856	103.25
274.072	11.09
274.287	23.38
274.503	4.95
274.719	119.64
274.934	41.81
275.15	-13.48
275.366	64.34
275.581	103.25
275.797	-3.24
276.012	56.15
276.228	62.29
276.444	39.76
276.659	56.15
276.875	-31.91
277.09	21.33
277.306	52.05
277.521	97.11
277.737	9.05
277.952	101.2
278.168	0.85
278.383	50
278.599	52.05
278.814	88.92
279.03	56.15
279.245	131.92
279.461	17.24
279.676	2.9
279.892	-11.43
280.107	23.38
280.322	35.67
280.538	45.91
280.753	86.87
280.969	25.43
281.184	70.48
281.399	29.52
281.615	45.91
281.83	17.24
282.045	31.57
282.26	56.15
282.476	33.62
282.691	66.39
282.906	52.05
283.122	23.38
283.337	25.43
283.552	105.3
283.767	50
283.983	50
284.198	-66.73
284.413	45.91
284.628	2.9
284.843	39.76
285.058	-17.58
285.274	-27.82
285.489	-5.29
285.704	105.3
285.919	64.34
286.134	115.54
286.349	95.06
286.564	70.48
286.779	72.53
286.995	99.16
287.21	-5.29
287.425	66.39
287.64	119.64
287.855	123.73
288.07	-72.87
288.285	52.05
288.5	95.06
288.715	113.49
288.93	37.72
289.145	7
289.36	66.39
289.575	56.15
289.79	127.83
290.004	-9.39
290.219	50
290.434	58.2
290.649	45.91
290.864	50
291.079	-27.82
291.294	54.1
291.509	19.29
291.724	70.48
291.938	78.68
292.153	-19.63
292.368	15.19
292.583	25.43
292.798	121.68
293.012	62.29
293.227	39.76
293.442	41.81
293.657	115.54
293.871	111.44
294.086	9.05
294.301	21.33
294.516	0.85
294.73	29.52
294.945	4.95
295.16	70.48
295.374	37.72
295.589	7
295.804	39.76
296.018	-1.19
296.233	103.25
296.447	86.87
296.662	25.43
296.877	29.52
297.091	4.95
297.306	78.68
297.52	50
297.735	-15.53
297.949	23.38
298.164	60.24
298.378	37.72
298.593	60.24
298.807	21.33
299.022	-11.43
299.236	111.44
299.451	105.3
299.665	35.67
299.88	37.72
300.094	74.58
300.309	62.29
300.523	47.96
300.737	13.14
300.952	-15.53
301.166	35.67
301.381	41.81
301.595	41.81
301.809	66.39
302.024	29.52
302.238	62.29
302.452	103.25
302.667	144.21
302.881	127.83
303.095	39.76
303.309	68.44
303.524	47.96
303.738	-11.43
303.952	4.95
304.166	64.34
304.381	-3.24
304.595	62.29
304.809	70.48
305.023	-48.3
305.237	101.2
305.452	37.72
305.666	86.87
305.88	31.57
306.094	97.11
306.308	70.48
306.522	121.68
306.736	111.44
306.95	23.38
307.164	101.2
307.379	70.48
307.593	97.11
307.807	86.87
308.021	-29.87
308.235	97.11
308.449	4.95
308.663	88.92
308.877	156.5
309.091	54.1
309.305	66.39
309.519	-1.19
309.733	86.87
309.947	-1.19
310.161	88.92
310.374	23.38
310.588	62.29
310.802	31.57
311.016	78.68
311.23	62.29
311.444	111.44
311.658	64.34
311.872	39.76
312.085	41.81
312.299	164.69
312.513	82.77
312.727	78.68
312.941	4.95
313.154	37.72
313.368	54.1
313.582	31.57
313.796	82.77
314.009	97.11
314.223	56.15
314.437	66.39
314.651	25.43
314.864	-66.73
315.078	37.72
315.292	31.57
315.505	47.96
315.719	78.68
315.933	-3.24
316.146	4.95
316.36	41.81
316.573	58.2
316.787	74.58
317.001	47.96
317.214	35.67
317.428	23.38
317.641	50
317.855	144.21
318.068	129.88
318.282	21.33
318.495	86.87
318.709	160.59
318.922	37.72
319.136	95.06
319.349	78.68
319.563	19.29
319.776	86.87
319.99	-11.43
320.203	23.38
320.417	78.68
320.63	4.95
320.843	107.35
321.057	-42.15
321.27	19.29
321.483	19.29
321.697	62.29
321.91	70.48
322.124	56.15
322.337	13.14
322.55	37.72
322.763	50
322.977	62.29
323.19	39.76
323.403	140.12
323.617	7
323.83	54.1
324.043	-1.19
324.256	31.57
324.469	56.15
324.683	37.72
324.896	125.78
325.109	82.77
325.322	25.43
325.535	31.57
325.748	52.05
325.962	13.14
326.175	74.58
326.388	70.48
326.601	45.91
326.814	74.58
327.027	47.96
327.24	97.11
327.453	21.33
327.666	80.72
327.879	80.72
328.092	62.29
328.305	-19.63
328.518	15.19
328.731	13.14
328.944	13.14
329.157	9.05
329.37	78.68
329.583	76.63
329.796	76.63
330.009	33.62
330.222	47.96
330.435	4.95
330.648	19.29
330.861	80.72
331.073	86.87
331.286	76.63
331.499	-27.82
331.712	-27.82
331.925	54.1
332.138	-19.63
332.35	160.59
332.563	41.81
332.776	70.48
332.989	-27.82
333.202	9.05
333.414	-9.39
333.627	78.68
333.84	21.33
334.053	95.06
334.265	37.72
334.478	66.39
334.691	62.29
334.903	-27.82
335.116	33.62
335.329	78.68
335.541	78.68
335.754	187.22
335.966	21.33
336.179	41.81
336.392	13.14
336.604	-7.34
336.817	133.97
337.029	54.1
337.242	56.15
337.454	13.14
337.667	4.95
337.88	111.44
338.092	72.53
338.305	103.25
338.517	-38.06
338.729	80.72
338.942	52.05
339.154	0.85
339.367	9.05
339.579	62.29
339.792	70.48
340.004	103.25
340.217	23.38
340.429	15.19
340.641	52.05
340.854	13.14
341.066	45.91
341.278	82.77
341.491	45.91
341.703	107.35
341.915	33.62
342.128	105.3
342.34	105.3
342.552	4.95
342.764	13.14
342.977	64.34
343.189	80.72
343.401	72.53
343.613	11.09
343.826	127.83
344.038	80.72
344.25	68.44
344.462	62.29
344.674	-5.29
344.886	154.45
345.099	23.38
345.311	97.11
345.523	-15.53
345.735	37.72
345.947	62.29
346.159	33.62
346.371	31.57
346.583	66.39
346.795	105.3
347.007	47.96
347.219	127.83
347.431	-19.63
347.643	144.21
347.855	-11.43
348.067	123.73
348.279	-15.53
348.491	82.77
348.703	68.44
348.915	146.26
349.127	-3.24
349.339	97.11
349.551	47.96
349.763	39.76
349.975	37.72
350.187	113.49
350.399	123.73
350.61	86.87
350.822	111.44
351.034	105.3
351.246	56.15
351.458	47.96
351.669	88.92
351.881	101.2
352.093	39.76
352.305	121.68
352.517	66.39
352.728	88.92
352.94	-1.19
353.152	66.39
353.363	119.64
353.575	78.68
353.787	82.77
353.999	64.34
354.21	148.31
354.422	80.72
354.633	39.76
354.845	29.52
355.057	62.29
355.268	52.05
355.48	129.88
355.692	64.34
355.903	88.92
356.115	62.29
356.326	90.96
356.538	27.48
356.749	35.67
356.961	95.06
357.172	39.76
357.384	47.96
357.595	78.68
357.807	56.15
358.018	37.72
358.23	35.67
358.441	78.68
358.653	95.06
358.864	25.43
359.075	29.52
359.287	103.25
359.498	97.11
359.709	11.09
359.921	0.85
360.132	95.06
360.344	86.87
360.555	-3.24
360.766	50
360.977	9.05
361.189	105.3
361.4	17.24
361.611	109.4
361.823	86.87
362.034	64.34
362.245	-23.72
362.456	62.29
362.667	33.62
362.879	99.16
363.09	62.29
363.301	13.14
363.512	56.15
363.723	45.91
363.935	17.24
364.146	64.34
364.357	-3.24
364.568	133.97
364.779	9.05
364.99	66.39
365.201	4.95
365.412	4.95
365.623	43.86
365.834	37.72
366.045	78.68
366.256	115.54
366.467	47.96
366.678	13.14
366.889	62.29
367.1	119.64
367.311	64.34
367.522	84.82
367.733	103.25
367.944	136.02
368.155	72.53
368.366	9.05
368.577	31.57
368.788	56.15
368.999	50
369.209	56.15
369.42	97.11
369.631	101.2
369.842	82.77
370.053	72.53
370.264	50
370.474	90.96
370.685	21.33
370.896	111.44
371.107	58.2
371.317	86.87
371.528	62.29
371.739	105.3
371.95	66.39
372.16	168.79
372.371	-58.54
372.582	50
372.792	66.39
373.003	119.64
373.214	146.26
373.424	138.07
373.635	119.64
373.846	176.98
374.056	0.85
374.267	54.1
374.477	164.69
374.688	78.68
374.898	2.9
375.109	70.48
375.319	70.48
375.53	82.77
375.74	107.35
375.951	127.83
376.161	50
376.372	105.3
376.582	45.91
376.793	78.68
377.003	109.4
377.214	-42.15
377.424	60.24
377.635	121.68
377.845	21.33
378.055	86.87
378.266	82.77
378.476	62.29
378.686	82.77
378.897	103.25
379.107	54.1
379.317	31.57
379.528	113.49
379.738	140.12
379.948	80.72
380.158	25.43
380.369	37.72
380.579	-7.34
380.789	70.48
380.999	97.11
381.21	84.82
381.42	152.4
381.63	97.11
381.84	88.92
382.05	129.88
382.261	47.96
382.471	41.81
382.681	111.44
382.891	121.68
383.101	88.92
383.311	58.2
383.521	123.73
383.731	138.07
383.941	78.68
384.151	158.55
384.361	95.06
384.571	99.16
384.781	95.06
384.991	172.88
385.201	121.68
385.411	88.92
385.621	150.36
385.831	115.54
386.041	64.34
386.251	15.19
386.461	140.12
386.671	93.01
386.881	93.01
387.091	82.77
387.301	95.06
387.511	158.55
387.72	74.58
387.93	45.91
388.14	90.96
388.35	88.92
388.56	127.83
388.769	115.54
388.979	121.68
389.189	21.33
389.399	70.48
389.609	93.01
389.818	136.02
390.028	80.72
390.238	103.25
390.447	109.4
390.657	103.25
390.867	88.92
391.076	-13.48
391.286	45.91
391.496	111.44
391.705	121.68
391.915	45.91
392.125	103.25
392.334	86.87
392.544	146.26
392.753	127.83
392.963	111.44
393.172	107.35
393.382	86.87
393.591	105.3
393.801	101.2
394.01	123.73
394.22	119.64
394.429	136.02
394.639	123.73
394.848	142.16
395.058	74.58
395.267	111.44
395.477	152.4
395.686	140.12
395.895	129.88
396.105	127.83
396.314	193.36
396.524	144.21
396.733	131.92
396.942	133.97
397.152	162.64
397.361	152.4
397.57	146.26
397.78	176.98
397.989	88.92
398.198	158.55
398.407	115.54
398.617	150.36
398.826	127.83
399.035	99.16
399.244	29.52
399.453	121.68
399.663	127.83
399.872	146.26
400.081	121.68
400.29	160.59
400.499	95.06
400.708	201.55
400.917	185.17
401.127	136.02
401.336	129.88
401.545	211.79
401.754	164.69
401.963	312.14
402.172	170.83
402.381	168.79
402.59	148.31
402.799	144.21
403.008	170.83
403.217	170.83
403.426	226.13
403.635	144.21
403.844	195.41
404.053	234.32
404.262	166.74
404.471	236.37
404.68	213.84
404.888	201.55
405.097	213.84
405.306	252.75
405.515	226.13
405.724	189.27
405.933	162.64
406.142	242.51
406.35	222.03
406.559	267.09
406.768	246.61
406.977	326.48
407.185	293.71
407.394	301.9
407.603	262.99
407.812	318.29
408.02	308.05
408.229	277.33
408.438	365.39
408.646	365.39
408.855	328.53
409.064	324.43
409.272	398.16
409.481	340.82
409.69	488.27
409.898	424.78
410.107	478.03
410.315	455.5
410.524	471.89
410.733	480.08
410.941	459.6
411.15	482.13
411.358	557.9
411.567	557.9
411.775	605
411.984	570.19
412.192	535.37
412.401	584.52
412.609	594.76
412.818	666.44
413.026	719.69
413.234	734.03
413.443	766.79
413.651	748.36
413.86	770.89
414.068	889.67
414.276	834.38
414.485	809.8
414.693	930.63
414.901	1014.6
415.11	1014.6
415.318	889.67
415.526	1080.13
415.734	1110.85
415.943	1096.52
416.151	1205.06
416.359	1024.84
416.567	1172.29
416.776	1196.87
416.984	1295.17
417.192	1334.08
417.4	1391.42
417.608	1448.77
417.817	1422.14
418.025	1585.98
418.233	1528.64
418.441	1557.31
418.649	1669.95
418.857	1813.31
419.065	1788.73
419.273	1743.67
419.481	1942.33
419.689	1936.18
419.897	1968.95
420.105	2054.97
420.313	2210.61
420.521	2163.51
420.729	2339.63
420.937	2327.35
421.145	2403.12
421.353	2673.45
421.561	2601.77
421.769	2759.47
421.977	2808.62
422.185	2790.19
422.393	3029.8
422.601	3140.39
422.809	3130.15
423.017	3224.36
423.224	3392.29
423.432	3351.33
423.64	3359.52
423.848	3857.18
424.056	3736.35
424.263	3996.44
424.471	3949.34
424.679	3959.58
424.887	4291.35
425.094	4311.83
425.302	4326.16
425.51	4524.82
425.718	4580.11
425.925	4623.12
426.133	5008.14
426.341	5196.55
426.548	5468.93
426.756	5477.12
426.964	5544.7
427.171	5792.51
427.379	5853.95
427.586	6003.45
427.794	6107.9
428.001	6454
428.209	6818.54
428.417	6675.18
428.624	7004.91
428.832	7133.93
429.039	7058.15
429.247	6914.8
429.454	7725.79
429.662	8145.63
429.869	7820
430.076	8389.33
430.284	7975.64
430.491	8424.15
430.699	8729.3
430.906	8927.95
431.114	8901.33
431.321	9337.54
431.528	9505.48
431.736	10097.34
431.943	10490.55
432.15	10437.3
432.358	10414.77
432.565	10672.82
432.772	10701.49
432.979	11535.01
433.187	11541.16
433.394	11578.02
433.601	12468.89
433.808	12845.71
434.016	12585.62
434.223	12917.39
434.43	13742.72
434.637	13324.94
434.844	14373.5
435.052	14533.24
435.259	14328.44
435.466	14537.34
435.673	14531.19
435.88	15512.17
436.087	16030.3
436.294	16040.54
436.501	15594.09
436.708	16171.61
436.915	16763.48
437.122	17412.68
437.329	17388.11
437.537	17982.02
437.743	18092.61
437.95	17896
438.157	18809.4
438.364	19780.14
438.571	19419.69
438.778	19558.95
438.985	21119.51
439.192	20388.38
439.399	21445.13
439.606	20574.75
439.813	22168.07
440.02	23202.29
440.227	22700.54
440.433	22878.71
440.64	23294.45
440.847	23319.03
441.054	23828.97
441.261	25166.29
441.467	25067.99
441.674	25377.23
441.881	26106.31
442.088	26327.49
442.294	26038.73
442.501	26827.2
442.708	27134.39
442.914	28098.98
443.121	29581.71
443.328	29057.43
443.534	30583.17
443.741	29884.81
443.948	29409.68
444.154	31715.7
444.361	31621.49
444.568	31668.59
444.774	31451.51
444.981	31619.44
445.187	32995.68
445.394	34142.54
445.6	33984.85
445.807	37089.57
446.013	35391.8
446.22	36133.17
446.426	37368.09
446.633	37468.44
446.839	38824.2
447.046	37349.66
447.252	39399.68
447.459	39442.68
447.665	39209.22
447.871	40700.14
448.078	42445.01
448.284	40538.35
448.491	42139.86
448.697	43370.69
448.903	44273.84
449.11	44253.36
449.316	43573.44
449.522	44050.61
449.728	45238.44
449.935	45316.26
450.141	45695.13
450.347	46774.41
450.553	45203.62
450.76	45488.29
450.966	47073.42
451.172	46680.21
451.378	48169.08
451.584	47038.6
451.791	47978.62
451.997	47958.14
452.203	49125.48
452.409	48613.49
452.615	48484.47
452.821	46803.08
453.027	46686.35
453.233	48621.68
453.44	46692.49
453.646	47456.39
453.852	47800.44
454.058	48683.12
454.264	47011.98
454.47	47741.05
454.676	46868.62
454.882	47964.28
455.088	44179.64
455.294	45121.7
455.5	45361.31
455.705	45754.52
455.911	44007.61
456.117	43194.56
456.323	42754.25
456.529	40390.89
456.735	42477.77
456.941	41187.55
457.147	41023.72
457.352	39332.09
457.558	39332.09
457.764	39500.03
457.97	38639.88
458.176	37542.17
458.381	37742.87
458.587	35817.78
458.793	35617.08
458.999	33968.46
459.204	36481.32
459.41	35520.82
459.616	33007.97
459.821	33071.45
460.027	32690.53
460.233	32405.86
460.438	30808.45
460.644	31041.92
460.85	29671.82
461.055	29393.3
461.261	29376.92
461.466	26997.18
461.672	26483.14
461.878	27828.65
462.083	26266.05
462.289	25962.95
462.494	25440.72
462.7	24207.84
462.905	23693.8
463.111	25029.08
463.316	24715.74
463.522	24211.94
463.727	24271.33
463.932	24211.94
464.138	23970.28
464.343	23874.03
464.549	23042.55
464.754	23874.03
464.959	23998.95
465.165	23497.2
465.37	22776.31
465.575	21854.73
465.781	22682.11
465.986	23017.97
466.191	22178.31
466.397	21631.5
466.602	20656.67
466.807	21402.13
467.012	21537.29
467.218	21264.91
