Data from USB4F104151__142__14-19-18-432.txt Node

Date: Thu Mar 13 14:19:18 EDT 2025
User: louis
Spectrometer: USB4F10415
Trigger mode: 4
Integration Time (sec): 2.000000E-2
Scans to average: 1
Electric dark correction enabled: true
Nonlinearity correction enabled: false
Boxcar width: 0
XAxis mode: Wavelengths
Number of Pixels in Spectrum: 3648
>>>>>Begin Spectral Data<<<<<
178.204	-121
178.424	-121
178.644	-121
178.864	-131.24
179.084	-161.96
179.304	12.12
179.524	40.79
179.744	-24.75
179.964	28.5
180.184	-10.41
180.404	-24.75
180.624	24.4
180.844	-67.75
181.064	-16.55
181.283	26.45
181.503	-12.46
181.723	24.4
181.943	-47.27
182.163	42.84
182.383	40.79
182.602	108.37
182.822	40.79
183.042	-6.31
183.262	32.6
183.482	-12.46
183.701	-20.65
183.921	36.69
184.141	-32.94
184.361	57.17
184.58	1.88
184.8	-57.51
185.02	51.03
185.239	44.88
185.459	61.27
185.679	106.32
185.898	-37.03
186.118	-16.55
186.338	18.26
186.557	40.79
186.777	20.31
186.997	-16.55
187.216	57.17
187.436	73.56
187.655	20.31
187.875	34.64
188.095	102.23
188.314	26.45
188.534	98.13
188.753	24.4
188.973	-24.75
189.192	104.28
189.412	14.17
189.631	42.84
189.851	24.4
190.07	81.75
190.29	40.79
190.509	8.02
190.729	53.08
190.948	106.32
191.168	102.23
191.387	94.04
191.607	34.64
191.826	46.93
192.045	26.45
192.265	26.45
192.484	-32.94
192.704	57.17
192.923	-37.03
193.142	81.75
193.362	1.88
193.581	26.45
193.8	63.32
194.02	73.56
194.239	71.51
194.458	69.46
194.678	-24.75
194.897	63.32
195.116	53.08
195.335	-26.79
195.555	108.37
195.774	-28.84
195.993	8.02
196.212	16.21
196.432	-24.75
196.651	-20.65
196.87	36.69
197.089	12.12
197.308	73.56
197.528	61.27
197.747	18.26
197.966	55.12
198.185	147.28
198.404	8.02
198.623	16.21
198.842	120.66
199.062	22.36
199.281	55.12
199.5	-10.41
199.719	-16.55
199.938	65.36
200.157	26.45
200.376	102.23
200.595	100.18
200.814	32.6
201.033	38.74
201.252	24.4
201.471	73.56
201.69	67.41
201.909	24.4
202.128	-16.55
202.347	10.07
202.566	16.21
202.785	-14.51
203.004	10.07
203.223	112.47
203.442	108.37
203.661	-55.47
203.879	-12.46
204.098	42.84
204.317	-59.56
204.536	44.88
204.755	40.79
204.974	10.07
205.193	59.22
205.411	139.09
205.63	73.56
205.849	89.94
206.068	-14.51
206.287	8.02
206.505	40.79
206.724	-18.6
206.943	26.45
207.162	59.22
207.381	-24.75
207.599	65.36
207.818	24.4
208.037	24.4
208.255	28.5
208.474	26.45
208.693	75.6
208.911	98.13
209.13	53.08
209.349	-8.36
209.567	22.36
209.786	85.84
210.005	128.85
210.223	24.4
210.442	8.02
210.661	22.36
210.879	14.17
211.098	67.41
211.316	40.79
211.535	48.98
211.753	10.07
211.972	89.94
212.191	28.5
212.409	100.18
212.628	-71.85
212.846	57.17
213.065	59.22
213.283	42.84
213.502	-55.47
213.72	22.36
213.938	20.31
214.157	-55.47
214.375	18.26
214.594	1.88
214.812	34.64
215.031	26.45
215.249	53.08
215.467	32.6
215.686	-0.17
215.904	48.98
216.122	8.02
216.341	20.31
216.559	40.79
216.778	81.75
216.996	40.79
217.214	65.36
217.432	53.08
217.651	48.98
217.869	44.88
218.087	10.07
218.306	42.84
218.524	16.21
218.742	-12.46
218.96	32.6
219.179	48.98
219.397	61.27
219.615	16.21
219.833	69.46
220.051	-39.08
220.27	79.7
220.488	-0.17
220.706	98.13
220.924	-24.75
221.142	53.08
221.36	3.93
221.578	32.6
221.796	40.79
222.015	8.02
222.233	65.36
222.451	30.55
222.669	40.79
222.887	61.27
223.105	20.31
223.323	8.02
223.541	-14.51
223.759	16.21
223.977	-6.31
224.195	151.38
224.413	75.6
224.631	83.8
224.849	48.98
225.067	102.23
225.285	34.64
225.503	12.12
225.721	32.6
225.939	59.22
226.157	26.45
226.375	157.52
226.592	36.69
226.81	75.6
227.028	141.14
227.246	36.69
227.464	87.89
227.682	91.99
227.9	69.46
228.117	38.74
228.335	77.65
228.553	20.31
228.771	75.6
228.989	-2.22
229.206	-8.36
229.424	12.12
229.642	42.84
229.86	-6.31
230.077	40.79
230.295	18.26
230.513	-22.7
230.731	65.36
230.948	-8.36
231.166	32.6
231.384	3.93
231.601	20.31
231.819	-26.79
232.037	59.22
232.254	55.12
232.472	46.93
232.689	69.46
232.907	26.45
233.125	73.56
233.342	8.02
233.56	1.88
233.777	8.02
233.995	46.93
234.213	61.27
234.43	16.21
234.648	-0.17
234.865	-8.36
235.083	94.04
235.3	55.12
235.518	32.6
235.735	26.45
235.953	28.5
236.17	81.75
236.388	-6.31
236.605	-16.55
236.822	89.94
237.04	87.89
237.257	38.74
237.475	1.88
237.692	14.17
237.909	89.94
238.127	36.69
238.344	108.37
238.562	12.12
238.779	-30.89
238.996	-73.9
239.214	16.21
239.431	65.36
239.648	44.88
239.865	85.84
240.083	30.55
240.3	71.51
240.517	22.36
240.735	75.6
240.952	75.6
241.169	71.51
241.386	61.27
241.603	-49.32
241.821	8.02
242.038	-8.36
242.255	53.08
242.472	-6.31
242.689	53.08
242.907	116.56
243.124	75.6
243.341	12.12
243.558	38.74
243.775	8.02
243.992	-14.51
244.209	61.27
244.426	130.9
244.643	40.79
244.86	26.45
245.078	46.93
245.295	32.6
245.512	-4.27
245.729	40.79
245.946	18.26
246.163	28.5
246.38	81.75
246.597	40.79
246.814	40.79
247.031	48.98
247.248	42.84
247.464	157.52
247.681	-10.41
247.898	18.26
248.115	-16.55
248.332	38.74
248.549	5.97
248.766	34.64
248.983	55.12
249.2	36.69
249.417	10.07
249.633	-8.36
249.85	63.32
250.067	1.88
250.284	32.6
250.501	53.08
250.717	59.22
250.934	57.17
251.151	16.21
251.368	24.4
251.585	59.22
251.801	1.88
252.018	81.75
252.235	59.22
252.451	16.21
252.668	14.17
252.885	69.46
253.102	22.36
253.318	40.79
253.535	3.93
253.752	69.46
253.968	-16.55
254.185	75.6
254.401	36.69
254.618	61.27
254.835	26.45
255.051	40.79
255.268	28.5
255.484	32.6
255.701	42.84
255.917	18.26
256.134	38.74
256.351	30.55
256.567	38.74
256.784	1.88
257	-57.51
257.217	48.98
257.433	42.84
257.65	48.98
257.866	81.75
258.082	36.69
258.299	5.97
258.515	59.22
258.732	-0.17
258.948	48.98
259.165	59.22
259.381	28.5
259.597	71.51
259.814	141.14
260.03	5.97
260.246	12.12
260.463	48.98
260.679	94.04
260.895	61.27
261.112	61.27
261.328	16.21
261.544	55.12
261.761	75.6
261.977	38.74
262.193	48.98
262.409	1.88
262.626	18.26
262.842	73.56
263.058	3.93
263.274	57.17
263.49	42.84
263.707	48.98
263.923	122.71
264.139	-65.71
264.355	32.6
264.571	57.17
264.787	-41.13
265.004	-2.22
265.22	42.84
265.436	34.64
265.652	-24.75
265.868	67.41
266.084	-2.22
266.3	3.93
266.516	38.74
266.732	81.75
266.948	69.46
267.164	59.22
267.38	40.79
267.596	24.4
267.812	114.52
268.028	-20.65
268.244	16.21
268.46	30.55
268.676	-4.27
268.892	73.56
269.108	-6.31
269.324	40.79
269.54	-32.94
269.756	5.97
269.972	65.36
270.188	30.55
270.403	36.69
270.619	59.22
270.835	20.31
271.051	18.26
271.267	69.46
271.483	108.37
271.698	96.08
271.914	65.36
272.13	32.6
272.346	-0.17
272.562	59.22
272.777	40.79
272.993	55.12
273.209	46.93
273.425	34.64
273.64	3.93
273.856	48.98
274.072	28.5
274.287	-8.36
274.503	59.22
274.719	87.89
274.934	20.31
275.15	32.6
275.366	65.36
275.581	16.21
275.797	104.28
276.012	53.08
276.228	48.98
276.444	44.88
276.659	71.51
276.875	-65.71
277.09	-30.89
277.306	20.31
277.521	67.41
277.737	34.64
277.952	32.6
278.168	-32.94
278.383	65.36
278.599	59.22
278.814	57.17
279.03	3.93
279.245	44.88
279.461	-0.17
279.676	57.17
279.892	-63.66
280.107	42.84
280.322	65.36
280.538	44.88
280.753	32.6
280.969	69.46
281.184	34.64
281.399	26.45
281.615	8.02
281.83	57.17
282.045	-57.51
282.26	73.56
282.476	14.17
282.691	32.6
282.906	46.93
283.122	32.6
283.337	10.07
283.552	53.08
283.767	8.02
283.983	65.36
284.198	-32.94
284.413	38.74
284.628	-20.65
284.843	83.8
285.058	59.22
285.274	48.98
285.489	16.21
285.704	51.03
285.919	-10.41
286.134	104.28
286.349	81.75
286.564	48.98
286.779	53.08
286.995	16.21
287.21	26.45
287.425	1.88
287.64	-12.46
287.855	40.79
288.07	57.17
288.285	57.17
288.5	67.41
288.715	12.12
288.93	-14.51
289.145	-12.46
289.36	114.52
289.575	53.08
289.79	24.4
290.004	24.4
290.219	-14.51
290.434	-41.13
290.649	65.36
290.864	40.79
291.079	18.26
291.294	59.22
291.509	26.45
291.724	-4.27
291.938	22.36
292.153	48.98
292.368	-16.55
292.583	40.79
292.798	12.12
293.012	42.84
293.227	28.5
293.442	18.26
293.657	77.65
293.871	73.56
294.086	98.13
294.301	8.02
294.516	3.93
294.73	16.21
294.945	-14.51
295.16	53.08
295.374	32.6
295.589	57.17
295.804	57.17
296.018	-16.55
296.233	89.94
296.447	81.75
296.662	30.55
296.877	69.46
297.091	8.02
297.306	-12.46
297.52	24.4
297.735	38.74
297.949	51.03
298.164	83.8
298.378	77.65
298.593	8.02
298.807	-0.17
299.022	-8.36
299.236	53.08
299.451	83.8
299.665	32.6
299.88	30.55
300.094	20.31
300.309	24.4
300.523	24.4
300.737	-12.46
300.952	106.32
301.166	69.46
301.381	-32.94
301.595	28.5
301.809	-22.7
302.024	3.93
302.238	24.4
302.452	48.98
302.667	16.21
302.881	61.27
303.095	-4.27
303.309	122.71
303.524	8.02
303.738	-8.36
303.952	30.55
304.166	42.84
304.381	-22.7
304.595	42.84
304.809	12.12
305.023	8.02
305.237	89.94
305.452	57.17
305.666	106.32
305.88	65.36
306.094	65.36
306.308	67.41
306.522	73.56
306.736	122.71
306.95	26.45
307.164	-18.6
307.379	65.36
307.593	57.17
307.807	44.88
308.021	98.13
308.235	79.7
308.449	-77.99
308.663	26.45
308.877	81.75
309.091	-6.31
309.305	96.08
309.519	-0.17
309.733	67.41
309.947	-12.46
310.161	32.6
310.374	26.45
310.588	106.32
310.802	12.12
311.016	16.21
311.23	34.64
311.444	-41.13
311.658	10.07
311.872	65.36
312.085	122.71
312.299	126.8
312.513	59.22
312.727	51.03
312.941	28.5
313.154	65.36
313.368	59.22
313.582	-16.55
313.796	18.26
314.009	69.46
314.223	10.07
314.437	32.6
314.651	42.84
314.864	67.41
315.078	20.31
315.292	32.6
315.505	81.75
315.719	69.46
315.933	-10.41
316.146	26.45
316.36	-6.31
316.573	87.89
316.787	30.55
317.001	26.45
317.214	36.69
317.428	-16.55
317.641	-16.55
317.855	-20.65
318.068	-12.46
318.282	65.36
318.495	53.08
318.709	40.79
318.922	12.12
319.136	40.79
319.349	48.98
319.563	-14.51
319.776	100.18
319.99	-71.85
320.203	96.08
320.417	16.21
320.63	98.13
320.843	81.75
321.057	51.03
321.27	51.03
321.483	46.93
321.697	67.41
321.91	-2.22
322.124	34.64
322.337	71.51
322.55	8.02
322.763	-4.27
322.977	44.88
323.19	-12.46
323.403	65.36
323.617	36.69
323.83	81.75
324.043	26.45
324.256	67.41
324.469	73.56
324.683	53.08
324.896	22.36
325.109	69.46
325.322	44.88
325.535	65.36
325.748	44.88
325.962	3.93
326.175	-41.13
326.388	30.55
326.601	24.4
326.814	48.98
327.027	81.75
327.24	57.17
327.453	24.4
327.666	65.36
327.879	114.52
328.092	-32.94
328.305	65.36
328.518	-0.17
328.731	108.37
328.944	46.93
329.157	-20.65
329.37	40.79
329.583	51.03
329.796	75.6
330.009	24.4
330.222	34.64
330.435	-6.31
330.648	44.88
330.861	12.12
331.073	57.17
331.286	81.75
331.499	32.6
331.712	-61.61
331.925	18.26
332.138	26.45
332.35	-41.13
332.563	-0.17
332.776	77.65
332.989	63.32
333.202	-6.31
333.414	63.32
333.627	32.6
333.84	85.84
334.053	106.32
334.265	67.41
334.478	8.02
334.691	32.6
334.903	26.45
335.116	-12.46
335.329	81.75
335.541	100.18
335.754	34.64
335.966	53.08
336.179	18.26
336.392	40.79
336.604	28.5
336.817	71.51
337.029	59.22
337.242	57.17
337.454	-57.51
337.667	55.12
337.88	-28.84
338.092	26.45
338.305	57.17
338.517	46.93
338.729	48.98
338.942	18.26
339.154	-12.46
339.367	12.12
339.579	83.8
339.792	-51.37
340.004	51.03
340.217	57.17
340.429	63.32
340.641	16.21
340.854	65.36
341.066	-22.7
341.278	102.23
341.491	100.18
341.703	73.56
341.915	44.88
342.128	130.9
342.34	106.32
342.552	16.21
342.764	-55.47
342.977	48.98
343.189	42.84
343.401	12.12
343.613	75.6
343.826	67.41
344.038	-4.27
344.25	40.79
344.462	24.4
344.674	73.56
344.886	10.07
345.099	18.26
345.311	24.4
345.523	48.98
345.735	55.12
345.947	100.18
346.159	-10.41
346.371	38.74
346.583	-0.17
346.795	87.89
347.007	1.88
347.219	8.02
347.431	57.17
347.643	114.52
347.855	67.41
348.067	69.46
348.279	-24.75
348.491	51.03
348.703	1.88
348.915	77.65
349.127	-32.94
349.339	122.71
349.551	16.21
349.763	65.36
349.975	34.64
350.187	-10.41
350.399	73.56
350.61	87.89
350.822	59.22
351.034	79.7
351.246	42.84
351.458	59.22
351.669	67.41
351.881	48.98
352.093	83.8
352.305	83.8
352.517	63.32
352.728	110.42
352.94	28.5
353.152	8.02
353.363	53.08
353.575	34.64
353.787	77.65
353.999	40.79
354.21	53.08
354.422	124.76
354.633	32.6
354.845	67.41
355.057	55.12
355.268	114.52
355.48	100.18
355.692	34.64
355.903	91.99
356.115	65.36
356.326	67.41
356.538	91.99
356.749	65.36
356.961	57.17
357.172	96.08
357.384	-24.75
357.595	79.7
357.807	18.26
358.018	16.21
358.23	83.8
358.441	114.52
358.653	32.6
358.864	24.4
359.075	-8.36
359.287	-20.65
359.498	51.03
359.709	69.46
359.921	24.4
360.132	24.4
360.344	139.09
360.555	3.93
360.766	8.02
360.977	145.24
361.189	51.03
361.4	8.02
361.611	108.37
361.823	96.08
362.034	75.6
362.245	24.4
362.456	34.64
362.667	28.5
362.879	34.64
363.09	24.4
363.301	114.52
363.512	28.5
363.723	65.36
363.935	79.7
364.146	65.36
364.357	26.45
364.568	20.31
364.779	5.97
364.99	57.17
365.201	46.93
365.412	98.13
365.623	-8.36
365.834	48.98
366.045	42.84
366.256	42.84
366.467	42.84
366.678	10.07
366.889	40.79
367.1	28.5
367.311	48.98
367.522	44.88
367.733	44.88
367.944	98.13
368.155	28.5
368.366	73.56
368.577	122.71
368.788	26.45
368.999	-49.32
369.209	57.17
369.42	67.41
369.631	34.64
369.842	89.94
370.053	14.17
370.264	24.4
370.474	-4.27
370.685	59.22
370.896	22.36
371.107	48.98
371.317	114.52
371.528	57.17
371.739	57.17
371.95	184.15
372.16	42.84
372.371	73.56
372.582	83.8
372.792	48.98
373.003	51.03
373.214	-41.13
373.424	-45.23
373.635	-12.46
373.846	44.88
374.056	83.8
374.267	-0.17
374.477	77.65
374.688	3.93
374.898	38.74
375.109	124.76
375.319	-8.36
375.53	5.97
375.74	85.84
375.951	16.21
376.161	51.03
376.372	83.8
376.582	16.21
376.793	24.4
377.003	75.6
377.214	139.09
377.424	20.31
377.635	139.09
377.845	-4.27
378.055	48.98
378.266	16.21
378.476	65.36
378.686	24.4
378.897	149.33
379.107	61.27
379.317	110.42
379.528	67.41
379.738	26.45
379.948	30.55
380.158	20.31
380.369	83.8
380.579	124.76
380.789	28.5
380.999	85.84
381.21	26.45
381.42	96.08
381.63	77.65
381.84	108.37
382.05	36.69
382.261	85.84
382.471	59.22
382.681	10.07
382.891	89.94
383.101	100.18
383.311	71.51
383.521	26.45
383.731	65.36
383.941	61.27
384.151	71.51
384.361	28.5
384.571	18.26
384.781	71.51
384.991	147.28
385.201	106.32
385.411	44.88
385.621	61.27
385.831	-24.75
386.041	-8.36
386.251	24.4
386.461	98.13
386.671	40.79
386.881	44.88
387.091	67.41
387.301	67.41
387.511	65.36
387.72	89.94
387.93	69.46
388.14	59.22
388.35	77.65
388.56	48.98
388.769	65.36
388.979	75.6
389.189	32.6
389.399	67.41
389.609	108.37
389.818	135
390.028	5.97
390.238	-6.31
390.447	40.79
390.657	114.52
390.867	67.41
391.076	-20.65
391.286	114.52
391.496	61.27
391.705	53.08
391.915	51.03
392.125	28.5
392.334	61.27
392.544	104.28
392.753	81.75
392.963	1.88
393.172	122.71
393.382	83.8
393.591	77.65
393.801	48.98
394.01	87.89
394.22	65.36
394.429	79.7
394.639	65.36
394.848	85.84
395.058	65.36
395.267	81.75
395.477	36.69
395.686	61.27
395.895	96.08
396.105	106.32
396.314	3.93
396.524	89.94
396.733	44.88
396.942	114.52
397.152	139.09
397.361	163.67
397.57	96.08
397.78	57.17
397.989	94.04
398.198	118.61
398.407	114.52
398.617	79.7
398.826	69.46
399.035	77.65
399.244	124.76
399.453	98.13
399.663	120.66
399.872	24.4
400.081	73.56
400.29	182.1
400.499	55.12
400.708	67.41
400.917	114.52
401.127	114.52
401.336	114.52
401.545	159.57
401.754	98.13
401.963	106.32
402.172	96.08
402.381	42.84
402.59	83.8
402.799	102.23
403.008	171.86
403.217	51.03
403.426	51.03
403.635	116.56
403.844	69.46
404.053	98.13
404.262	106.32
404.471	231.25
404.68	114.52
404.888	89.94
405.097	237.39
405.306	239.44
405.515	208.72
405.724	130.9
405.933	155.47
406.142	155.47
406.35	229.2
406.559	124.76
406.768	200.53
406.977	261.97
407.185	200.53
407.394	188.24
407.603	204.63
407.812	118.61
408.02	225.11
408.229	167.76
408.438	196.43
408.646	171.86
408.855	194.39
409.064	186.19
409.272	251.73
409.481	212.82
409.69	167.76
409.898	223.06
410.107	243.54
410.315	266.07
410.524	221.01
410.733	253.78
410.941	253.78
411.15	325.46
411.358	229.2
411.567	288.59
411.775	313.17
411.984	352.08
412.192	343.89
412.401	354.13
412.609	347.98
412.818	370.51
413.026	364.37
413.234	401.23
413.443	370.51
413.651	311.12
413.86	485.2
414.068	436.05
414.276	517.97
414.485	454.48
414.693	565.07
414.901	536.4
415.11	532.3
415.318	466.77
415.526	614.22
415.734	595.79
415.943	595.79
416.151	546.64
416.359	622.41
416.567	638.8
416.776	706.38
416.984	761.67
417.192	704.33
417.4	829.26
417.608	724.81
417.817	810.82
418.025	769.87
418.233	843.59
418.441	835.4
418.649	929.61
418.857	1013.57
419.065	974.66
419.273	935.75
419.481	1005.38
419.689	1085.25
419.897	1040.2
420.105	1130.31
420.313	1142.6
420.521	1206.08
420.729	1247.04
420.937	1120.07
421.145	1361.73
421.353	1443.65
421.561	1439.55
421.769	1425.22
421.977	1507.13
422.185	1517.37
422.393	1589.05
422.601	1748.79
422.809	1693.5
423.017	1683.26
423.224	1779.51
423.432	1806.14
423.64	1894.2
423.848	2021.17
424.056	1867.58
424.263	2096.95
424.471	2127.67
424.679	2262.83
424.887	2402.1
425.094	2289.46
425.302	2309.94
425.51	2404.14
425.718	2621.23
425.925	2565.93
426.133	2639.66
426.341	2754.35
426.548	2828.07
426.756	2799.4
426.964	3000.1
427.171	3069.73
427.379	3112.74
427.586	3221.28
427.794	3321.63
428.001	3442.46
428.209	3624.73
428.417	3600.16
428.624	3761.95
428.832	3950.36
429.039	3761.95
429.247	3880.73
429.454	4128.53
429.662	4431.63
429.869	4196.12
430.076	4468.5
430.284	4345.62
430.491	4390.67
430.699	4720.4
430.906	4794.12
431.114	4783.88
431.321	5021.45
431.528	5226.25
431.736	5428.99
431.943	5637.89
432.15	5547.78
432.358	5582.59
432.565	5957.37
432.772	5793.53
432.979	6108.92
433.187	6248.18
433.394	6258.42
433.601	6487.79
433.808	6495.99
434.016	6692.59
434.223	6987.5
434.43	7382.76
434.637	7108.33
434.844	7782.11
435.052	7700.19
435.259	7679.71
435.466	7853.79
435.673	7581.41
435.88	8333.01
436.087	8570.58
436.294	8765.14
436.501	8478.42
436.708	8615.63
436.915	8812.24
437.122	9225.93
437.329	9359.05
437.537	9479.88
437.743	9912
437.95	9619.14
438.157	10200.76
438.364	10546.87
438.571	10516.15
438.778	10479.29
438.985	11740.83
439.192	11058.86
439.399	11421.35
439.606	10923.69
439.813	11767.46
440.02	12347.03
440.227	12355.22
440.433	12086.94
440.64	12469.91
440.847	12517.01
441.054	12723.86
441.261	13381.26
441.467	13598.34
441.674	13749.89
441.881	14274.17
442.088	13971.07
442.294	13880.96
442.501	14460.54
442.708	14663.29
442.914	15279.72
443.121	15926.88
443.328	15447.66
443.534	16379.48
443.741	16039.52
443.948	15734.37
444.154	16911.96
444.361	16832.08
444.568	17065.55
444.774	16967.25
444.981	17172.05
445.187	17751.62
445.394	18265.66
445.6	18308.67
445.807	19904.04
446.013	18906.68
446.22	19332.65
446.426	20418.08
446.633	20383.26
446.839	20928.02
447.046	19998.24
447.252	21270.03
447.459	21325.33
447.665	21192.21
447.871	21968.39
448.078	22943.22
448.284	21962.25
448.491	22382.08
448.697	23743.98
448.903	24135.14
449.11	24038.89
449.316	23315.95
449.522	24094.18
449.728	24585.69
449.935	24794.59
450.141	24675.8
450.347	25396.69
450.553	24716.76
450.76	24970.71
450.966	25697.74
451.172	25329.11
451.378	26181.06
451.584	25646.54
451.791	26195.4
451.997	26301.89
452.203	26484.16
452.409	26668.48
452.615	26676.67
452.821	25533.9
453.027	25689.55
453.233	26561.98
453.44	25525.71
453.646	26197.45
453.852	26054.09
454.058	26398.15
454.264	25396.69
454.47	26435.01
454.676	25904.59
454.882	26736.06
455.088	24030.69
455.294	24704.48
455.5	25116.12
455.705	25136.6
455.911	24208.87
456.117	23766.51
456.323	23590.38
456.529	21960.2
456.735	23250.42
456.941	22734.33
457.147	22521.34
457.352	21798.41
457.558	21663.24
457.764	21659.15
457.97	20964.89
458.176	20637.21
458.381	20706.84
458.587	19594.79
458.793	19711.53
458.999	18886.2
459.204	20004.39
459.41	19369.52
459.616	18343.49
459.821	18351.68
460.027	18366.01
460.233	17774.15
460.438	16782.93
460.644	17151.57
460.85	16588.38
461.055	16197.21
461.261	15855.2
461.466	15011.44
461.672	14458.49
461.878	15509.1
462.083	14478.97
462.289	14098.05
462.494	14198.4
462.7	13426.31
462.905	13055.63
463.111	13354.63
463.316	13442.7
463.522	13295.24
463.727	13233.8
463.932	13219.47
464.138	13115.02
464.343	13057.68
464.549	12537.49
464.754	12990.1
464.959	12723.86
465.165	12881.55
465.37	12564.12
465.575	11857.57
465.781	12447.38
465.986	12478.1
466.191	12121.76
466.397	11783.84
466.602	11247.27
466.807	11789.99
467.012	11511.46
467.218	11763.36
467.423	11650.72
467.628	11742.88
467.833	11843.23
468.038	11603.62
468.244	11318.95
