Data from USB4F104151__229__14-21-49-738.txt Node

Date: Thu Mar 13 14:21:49 EDT 2025
User: louis
Spectrometer: USB4F10415
Trigger mode: 4
Integration Time (sec): 2.000000E-2
Scans to average: 1
Electric dark correction enabled: true
Nonlinearity correction enabled: false
Boxcar width: 0
XAxis mode: Wavelengths
Number of Pixels in Spectrum: 3648
>>>>>Begin Spectral Data<<<<<
178.204	-52.22
178.424	-52.22
178.644	-52.22
178.864	-160.77
179.084	-171.01
179.304	31.74
179.524	-3.07
179.744	-46.08
179.964	35.84
180.184	21.5
180.404	70.65
180.624	9.22
180.844	-17.41
181.064	-64.51
181.283	5.12
181.503	-60.42
181.723	17.41
181.943	-56.32
182.163	31.74
182.383	-44.03
182.602	19.46
182.822	50.18
183.042	62.46
183.262	-31.74
183.482	44.03
183.701	15.36
183.921	21.5
184.141	46.08
184.361	68.61
184.58	35.84
184.8	-7.17
185.02	-21.5
185.239	58.37
185.459	1.02
185.679	-33.79
185.898	13.31
186.118	-23.55
186.338	3.07
186.557	46.08
186.777	-19.46
186.997	25.6
187.216	15.36
187.436	80.89
187.655	-3.07
187.875	70.65
188.095	-99.33
188.314	91.13
188.534	23.55
188.753	-11.26
188.973	-56.32
189.192	60.42
189.412	-15.36
189.631	-19.46
189.851	33.79
190.07	50.18
190.29	-11.26
190.509	23.55
190.729	13.31
190.948	119.81
191.168	125.95
191.387	29.7
191.607	-23.55
191.826	31.74
192.045	41.98
192.265	70.65
192.484	29.7
192.704	39.94
192.923	66.56
193.142	15.36
193.362	84.99
193.581	-1.02
193.8	74.75
194.02	97.28
194.239	29.7
194.458	-7.17
194.678	33.79
194.897	52.22
195.116	-50.18
195.335	13.31
195.555	3.07
195.774	-15.36
195.993	7.17
196.212	23.55
196.432	62.46
196.651	72.7
196.87	-3.07
197.089	46.08
197.308	-50.18
197.528	21.5
197.747	17.41
197.966	-54.27
198.185	74.75
198.404	23.55
198.623	29.7
198.842	64.51
199.062	72.7
199.281	17.41
199.5	-41.98
199.719	17.41
199.938	27.65
200.157	84.99
200.376	27.65
200.595	39.94
200.814	62.46
201.033	37.89
201.252	64.51
201.471	78.85
201.69	56.32
201.909	21.5
202.128	15.36
202.347	9.22
202.566	-48.13
202.785	23.55
203.004	-35.84
203.223	68.61
203.442	50.18
203.661	9.22
203.879	68.61
204.098	87.04
204.317	-27.65
204.536	91.13
204.755	46.08
204.974	25.6
205.193	-15.36
205.411	136.19
205.63	41.98
205.849	13.31
206.068	5.12
206.287	-7.17
206.505	89.09
206.724	23.55
206.943	37.89
207.162	-35.84
207.381	-25.6
207.599	21.5
207.818	1.02
208.037	9.22
208.255	17.41
208.474	7.17
208.693	-9.22
208.911	62.46
209.13	13.31
209.349	39.94
209.567	54.27
209.786	31.74
210.005	-11.26
210.223	15.36
210.442	-31.74
210.661	5.12
210.879	13.31
211.098	-1.02
211.316	-39.94
211.535	29.7
211.753	-17.41
211.972	-35.84
212.191	-35.84
212.409	13.31
212.628	-3.07
212.846	-19.46
213.065	48.13
213.283	50.18
213.502	41.98
213.72	5.12
213.938	46.08
214.157	48.13
214.375	44.03
214.594	66.56
214.812	15.36
215.031	37.89
215.249	-7.17
215.467	-33.79
215.686	60.42
215.904	78.85
216.122	27.65
216.341	82.94
216.559	-23.55
216.778	68.61
216.996	46.08
217.214	91.13
217.432	-60.42
217.651	74.75
217.869	87.04
218.087	-9.22
218.306	41.98
218.524	76.8
218.742	-31.74
218.96	-3.07
219.179	29.7
219.397	19.46
219.615	58.37
219.833	13.31
220.051	23.55
220.27	60.42
220.488	-37.89
220.706	46.08
220.924	-27.65
221.142	21.5
221.36	70.65
221.578	-9.22
221.796	46.08
222.015	46.08
222.233	17.41
222.451	87.04
222.669	46.08
222.887	87.04
223.105	-25.6
223.323	-41.98
223.541	-39.94
223.759	29.7
223.977	44.03
224.195	68.61
224.413	21.5
224.631	46.08
224.849	5.12
225.067	138.24
225.285	17.41
225.503	21.5
225.721	-7.17
225.939	95.23
226.157	-11.26
226.375	-15.36
226.592	9.22
226.81	89.09
227.028	72.7
227.246	74.75
227.464	15.36
227.682	103.42
227.9	78.85
228.117	52.22
228.335	15.36
228.553	-25.6
228.771	11.26
228.989	78.85
229.206	13.31
229.424	-9.22
229.642	-37.89
229.86	-54.27
230.077	-17.41
230.295	-7.17
230.513	41.98
230.731	29.7
230.948	25.6
231.166	-15.36
231.384	-3.07
231.601	-44.03
231.819	44.03
232.037	46.08
232.254	27.65
232.472	-41.98
232.689	60.42
232.907	31.74
233.125	-19.46
233.342	33.79
233.56	-11.26
233.777	-39.94
233.995	-25.6
234.213	93.18
234.43	13.31
234.648	21.5
234.865	-19.46
235.083	-3.07
235.3	7.17
235.518	-33.79
235.735	62.46
235.953	95.23
236.17	-48.13
236.388	117.76
236.605	-9.22
236.822	103.42
237.04	5.12
237.257	99.33
237.475	-27.65
237.692	-33.79
237.909	21.5
238.127	72.7
238.344	80.89
238.562	41.98
238.779	21.5
238.996	-60.42
239.214	15.36
239.431	95.23
239.648	-27.65
239.865	25.6
240.083	72.7
240.3	62.46
240.517	9.22
240.735	-7.17
240.952	-1.02
241.169	66.56
241.386	37.89
241.603	-7.17
241.821	-33.79
242.038	62.46
242.255	70.65
242.472	13.31
242.689	-19.46
242.907	17.41
243.124	-56.32
243.341	-11.26
243.558	15.36
243.775	78.85
243.992	-3.07
244.209	23.55
244.426	23.55
244.643	64.51
244.86	21.5
245.078	-7.17
245.295	11.26
245.512	23.55
245.729	-35.84
245.946	78.85
246.163	23.55
246.38	1.02
246.597	62.46
246.814	13.31
247.031	54.27
247.248	15.36
247.464	5.12
247.681	-31.74
247.898	-27.65
248.115	-27.65
248.332	-46.08
248.549	70.65
248.766	156.67
248.983	9.22
249.2	35.84
249.417	7.17
249.633	46.08
249.85	105.47
250.067	31.74
250.284	21.5
250.501	15.36
250.717	21.5
250.934	-3.07
251.151	31.74
251.368	21.5
251.585	29.7
251.801	54.27
252.018	17.41
252.235	54.27
252.451	54.27
252.668	-3.07
252.885	54.27
253.102	11.26
253.318	-17.41
253.535	-15.36
253.752	15.36
253.968	13.31
254.185	-35.84
254.401	-21.5
254.618	-27.65
254.835	-25.6
255.051	105.47
255.268	-64.51
255.484	39.94
255.701	19.46
255.917	87.04
256.134	33.79
256.351	70.65
256.567	21.5
256.784	41.98
257	-39.94
257.217	29.7
257.433	17.41
257.65	64.51
257.866	17.41
258.082	-58.37
258.299	7.17
258.515	-1.02
258.732	56.32
258.948	35.84
259.165	-35.84
259.381	33.79
259.597	21.5
259.814	7.17
260.03	64.51
260.246	84.99
260.463	3.07
260.679	136.19
260.895	1.02
261.112	7.17
261.328	15.36
261.544	5.12
261.761	89.09
261.977	3.07
262.193	48.13
262.409	101.37
262.626	37.89
262.842	33.79
263.058	1.02
263.274	-3.07
263.49	5.12
263.707	58.37
263.923	1.02
264.139	-17.41
264.355	35.84
264.571	101.37
264.787	95.23
265.004	58.37
265.22	-15.36
265.436	29.7
265.652	-33.79
265.868	39.94
266.084	7.17
266.3	3.07
266.516	-9.22
266.732	5.12
266.948	95.23
267.164	17.41
267.38	56.32
267.596	7.17
267.812	-21.5
268.028	72.7
268.244	-11.26
268.46	15.36
268.676	5.12
268.892	35.84
269.108	-50.18
269.324	-91.13
269.54	15.36
269.756	66.56
269.972	-48.13
270.188	9.22
270.403	-68.61
270.619	21.5
270.835	33.79
271.051	25.6
271.267	-44.03
271.483	60.42
271.698	15.36
271.914	-50.18
272.13	-13.31
272.346	19.46
272.562	5.12
272.777	78.85
272.993	-41.98
273.209	-41.98
273.425	7.17
273.64	-11.26
273.856	46.08
274.072	7.17
274.287	72.7
274.503	48.13
274.719	62.46
274.934	19.46
275.15	31.74
275.366	9.22
275.581	-39.94
275.797	29.7
276.012	48.13
276.228	91.13
276.444	44.03
276.659	13.31
276.875	23.55
277.09	9.22
277.306	-13.31
277.521	13.31
277.737	74.75
277.952	27.65
278.168	-1.02
278.383	80.89
278.599	-17.41
278.814	15.36
279.03	46.08
279.245	76.8
279.461	7.17
279.676	29.7
279.892	-27.65
280.107	54.27
280.322	54.27
280.538	5.12
280.753	21.5
280.969	-1.02
281.184	-7.17
281.399	48.13
281.615	-1.02
281.83	70.65
282.045	7.17
282.26	-27.65
282.476	13.31
282.691	9.22
282.906	41.98
283.122	13.31
283.337	56.32
283.552	37.89
283.767	-46.08
283.983	-29.7
284.198	91.13
284.413	-19.46
284.628	-25.6
284.843	-11.26
285.058	27.65
285.274	25.6
285.489	-25.6
285.704	70.65
285.919	25.6
286.134	25.6
286.349	13.31
286.564	46.08
286.779	60.42
286.995	-48.13
287.21	17.41
287.425	3.07
287.64	25.6
287.855	-29.7
288.07	-27.65
288.285	101.37
288.5	-7.17
288.715	103.42
288.93	-3.07
289.145	25.6
289.36	64.51
289.575	-15.36
289.79	58.37
290.004	-7.17
290.219	70.65
290.434	13.31
290.649	115.71
290.864	17.41
291.079	25.6
291.294	29.7
291.509	37.89
291.724	31.74
291.938	-48.13
292.153	-9.22
292.368	-35.84
292.583	64.51
292.798	140.29
293.012	-19.46
293.227	-25.6
293.442	23.55
293.657	41.98
293.871	72.7
294.086	19.46
294.301	91.13
294.516	-7.17
294.73	87.04
294.945	-72.7
295.16	-58.37
295.374	5.12
295.589	87.04
295.804	25.6
296.018	70.65
296.233	103.42
296.447	7.17
296.662	9.22
296.877	39.94
297.091	23.55
297.306	5.12
297.52	50.18
297.735	54.27
297.949	-44.03
298.164	9.22
298.378	-1.02
298.593	7.17
298.807	-29.7
299.022	-21.5
299.236	76.8
299.451	21.5
299.665	13.31
299.88	35.84
300.094	-21.5
300.309	13.31
300.523	50.18
300.737	23.55
300.952	25.6
301.166	1.02
301.381	-3.07
301.595	-1.02
301.809	37.89
302.024	3.07
302.238	29.7
302.452	62.46
302.667	25.6
302.881	89.09
303.095	95.23
303.309	13.31
303.524	68.61
303.738	-72.7
303.952	17.41
304.166	13.31
304.381	29.7
304.595	29.7
304.809	-15.36
305.023	33.79
305.237	37.89
305.452	41.98
305.666	48.13
305.88	29.7
306.094	-3.07
306.308	21.5
306.522	60.42
306.736	89.09
306.95	46.08
307.164	17.41
307.379	-1.02
307.593	74.75
307.807	21.5
308.021	19.46
308.235	31.74
308.449	25.6
308.663	-5.12
308.877	54.27
309.091	21.5
309.305	7.17
309.519	5.12
309.733	78.85
309.947	-11.26
310.161	70.65
310.374	52.22
310.588	132.09
310.802	-19.46
311.016	11.26
311.23	31.74
311.444	-11.26
311.658	62.46
311.872	95.23
312.085	46.08
312.299	39.94
312.513	56.32
312.727	-25.6
312.941	7.17
313.154	87.04
313.368	11.26
313.582	50.18
313.796	80.89
314.009	-66.56
314.223	56.32
314.437	105.47
314.651	48.13
314.864	-11.26
315.078	60.42
315.292	17.41
315.505	46.08
315.719	48.13
315.933	-11.26
316.146	23.55
316.36	-35.84
316.573	54.27
316.787	80.89
317.001	50.18
317.214	21.5
317.428	62.46
317.641	-52.22
317.855	15.36
318.068	21.5
318.282	54.27
318.495	144.38
318.709	111.61
318.922	7.17
319.136	31.74
319.349	23.55
319.563	-11.26
319.776	29.7
319.99	-13.31
320.203	17.41
320.417	-7.17
320.63	66.56
320.843	181.25
321.057	64.51
321.27	-25.6
321.483	7.17
321.697	35.84
321.91	-15.36
322.124	-44.03
322.337	-35.84
322.55	-25.6
322.763	7.17
322.977	19.46
323.19	31.74
323.403	-19.46
323.617	60.42
323.83	9.22
324.043	-19.46
324.256	-1.02
324.469	-56.32
324.683	5.12
324.896	31.74
325.109	115.71
325.322	5.12
325.535	23.55
325.748	33.79
325.962	44.03
326.175	29.7
326.388	23.55
326.601	46.08
326.814	5.12
327.027	15.36
327.24	-15.36
327.453	-48.13
327.666	13.31
327.879	-3.07
328.092	48.13
328.305	-15.36
328.518	13.31
328.731	54.27
328.944	5.12
329.157	13.31
329.37	27.65
329.583	11.26
329.796	78.85
330.009	13.31
330.222	50.18
330.435	60.42
330.648	-1.02
330.861	7.17
331.073	29.7
331.286	37.89
331.499	70.65
331.712	-41.98
331.925	74.75
332.138	17.41
332.35	11.26
332.563	-27.65
332.776	97.28
332.989	-1.02
333.202	111.61
333.414	39.94
333.627	19.46
333.84	37.89
334.053	62.46
334.265	111.61
334.478	54.27
334.691	-9.22
334.903	54.27
335.116	-19.46
335.329	39.94
335.541	-3.07
335.754	64.51
335.966	50.18
336.179	48.13
336.392	66.56
336.604	9.22
336.817	5.12
337.029	46.08
337.242	-3.07
337.454	15.36
337.667	-29.7
337.88	17.41
338.092	31.74
338.305	1.02
338.517	-46.08
338.729	33.79
338.942	48.13
339.154	15.36
339.367	39.94
339.579	7.17
339.792	-82.94
340.004	23.55
340.217	56.32
340.429	7.17
340.641	29.7
340.854	-35.84
341.066	113.66
341.278	128
341.491	74.75
341.703	-3.07
341.915	95.23
342.128	74.75
342.34	1.02
342.552	-25.6
342.764	62.46
342.977	50.18
343.189	-31.74
343.401	35.84
343.613	50.18
343.826	64.51
344.038	29.7
344.25	99.33
344.462	29.7
344.674	37.89
344.886	74.75
345.099	140.29
345.311	103.42
345.523	68.61
345.735	31.74
345.947	39.94
346.159	17.41
346.371	-25.6
346.583	13.31
346.795	134.14
347.007	35.84
347.219	11.26
347.431	15.36
347.643	107.52
347.855	-17.41
348.067	41.98
348.279	31.74
348.491	-23.55
348.703	56.32
348.915	-19.46
349.127	31.74
349.339	-11.26
349.551	87.04
349.763	41.98
349.975	64.51
350.187	113.66
350.399	17.41
350.61	19.46
350.822	111.61
351.034	70.65
351.246	91.13
351.458	31.74
351.669	17.41
351.881	70.65
352.093	48.13
352.305	44.03
352.517	39.94
352.728	46.08
352.94	13.31
353.152	76.8
353.363	48.13
353.575	31.74
353.787	80.89
353.999	46.08
354.21	37.89
354.422	-27.65
354.633	17.41
354.845	-3.07
355.057	-9.22
355.268	56.32
355.48	84.99
355.692	-27.65
355.903	80.89
356.115	97.28
356.326	-58.37
356.538	70.65
356.749	21.5
356.961	93.18
357.172	91.13
357.384	31.74
357.595	78.85
357.807	107.52
358.018	15.36
358.23	80.89
358.441	-9.22
358.653	31.74
358.864	115.71
359.075	66.56
359.287	7.17
359.498	78.85
359.709	5.12
359.921	48.13
360.132	29.7
360.344	25.6
360.555	37.89
360.766	21.5
360.977	101.37
361.189	66.56
361.4	48.13
361.611	-39.94
361.823	7.17
362.034	66.56
362.245	46.08
362.456	-62.46
362.667	29.7
362.879	5.12
363.09	-9.22
363.301	56.32
363.512	13.31
363.723	66.56
363.935	-9.22
364.146	78.85
364.357	48.13
364.568	62.46
364.779	13.31
364.99	105.47
365.201	37.89
365.412	17.41
365.623	15.36
365.834	99.33
366.045	56.32
366.256	72.7
366.467	41.98
366.678	21.5
366.889	11.26
367.1	15.36
367.311	95.23
367.522	54.27
367.733	-3.07
367.944	70.65
368.155	44.03
368.366	29.7
368.577	66.56
368.788	21.5
368.999	54.27
369.209	50.18
369.42	13.31
369.631	25.6
369.842	56.32
370.053	21.5
370.264	-17.41
370.474	-21.5
370.685	54.27
370.896	64.51
371.107	37.89
371.317	54.27
371.528	-13.31
371.739	25.6
371.95	37.89
372.16	154.62
372.371	50.18
372.582	-35.84
372.792	-1.02
373.003	50.18
373.214	29.7
373.424	5.12
373.635	41.98
373.846	60.42
374.056	25.6
374.267	89.09
374.477	64.51
374.688	35.84
374.898	95.23
375.109	-7.17
375.319	23.55
375.53	48.13
375.74	25.6
375.951	46.08
376.161	66.56
376.372	89.09
376.582	-1.02
376.793	76.8
377.003	-3.07
377.214	119.81
377.424	64.51
377.635	78.85
377.845	-27.65
378.055	95.23
378.266	33.79
378.476	-3.07
378.686	35.84
378.897	82.94
379.107	54.27
379.317	-9.22
379.528	82.94
379.738	56.32
379.948	15.36
380.158	78.85
380.369	66.56
380.579	23.55
380.789	64.51
380.999	113.66
381.21	78.85
381.42	58.37
381.63	25.6
381.84	64.51
382.05	107.52
382.261	-9.22
382.471	-1.02
382.681	46.08
382.891	121.85
383.101	103.42
383.311	3.07
383.521	54.27
383.731	41.98
383.941	58.37
384.151	84.99
384.361	39.94
384.571	87.04
384.781	74.75
384.991	82.94
385.201	70.65
385.411	39.94
385.621	15.36
385.831	70.65
386.041	3.07
386.251	54.27
386.461	-11.26
386.671	113.66
386.881	46.08
387.091	62.46
387.301	105.47
387.511	39.94
387.72	54.27
387.93	66.56
388.14	23.55
388.35	82.94
388.56	84.99
388.769	29.7
388.979	123.9
389.189	19.46
389.399	35.84
389.609	97.28
389.818	-15.36
390.028	41.98
390.238	25.6
390.447	-35.84
390.657	33.79
390.867	33.79
391.076	78.85
391.286	48.13
391.496	48.13
391.705	46.08
391.915	154.62
392.125	62.46
392.334	93.18
392.544	56.32
392.753	78.85
392.963	37.89
393.172	95.23
393.382	-15.36
393.591	87.04
393.801	-35.84
394.01	144.38
394.22	-27.65
394.429	89.09
394.639	56.32
394.848	74.75
395.058	117.76
395.267	103.42
395.477	23.55
395.686	132.09
395.895	121.85
396.105	56.32
396.314	101.37
396.524	78.85
396.733	70.65
396.942	48.13
397.152	128
397.361	209.92
397.57	29.7
397.78	62.46
397.989	107.52
398.198	144.38
398.407	37.89
398.617	95.23
398.826	93.18
399.035	121.85
399.244	173.05
399.453	70.65
399.663	84.99
399.872	119.81
400.081	97.28
400.29	74.75
400.499	46.08
400.708	152.57
400.917	113.66
401.127	87.04
401.336	130.05
401.545	179.2
401.754	111.61
401.963	226.3
402.172	152.57
402.381	128
402.59	111.61
402.799	91.13
403.008	132.09
403.217	113.66
403.426	140.29
403.635	52.22
403.844	113.66
404.053	162.81
404.262	70.65
404.471	179.2
404.68	146.43
404.888	179.2
405.097	46.08
405.306	99.33
405.515	199.68
405.724	136.19
405.933	259.07
406.142	228.35
406.35	193.53
406.559	146.43
406.768	128
406.977	234.49
407.185	211.96
407.394	211.96
407.603	113.66
407.812	191.49
408.02	236.54
408.229	238.59
408.438	242.68
408.646	265.21
408.855	252.92
409.064	252.92
409.272	277.5
409.481	297.98
409.69	234.49
409.898	259.07
410.107	185.34
410.315	349.18
410.524	316.41
410.733	373.75
410.941	312.32
411.15	383.99
411.358	392.19
411.567	388.09
411.775	363.51
411.984	394.23
412.192	439.29
412.401	435.19
412.609	492.54
412.818	521.21
413.026	564.22
413.234	525.3
413.443	451.58
413.651	517.11
413.86	564.22
414.068	639.99
414.276	683
414.485	588.79
414.693	693.24
414.901	711.67
415.11	709.62
415.318	726
415.526	744.44
415.734	826.36
415.943	777.2
416.151	840.69
416.359	910.32
416.567	898.03
416.776	926.71
416.984	807.92
417.192	977.91
417.4	996.34
417.608	984.05
417.817	1108.98
418.025	1086.45
418.233	1162.22
418.441	1186.8
418.649	1129.45
418.857	1250.28
419.065	1364.97
419.273	1297.39
419.481	1344.49
419.689	1496.04
419.897	1422.31
420.105	1483.75
420.313	1598.44
420.521	1596.39
420.729	1631.21
420.937	1684.45
421.145	1815.52
421.353	1827.81
421.561	1973.22
421.769	1944.55
421.977	2077.66
422.185	2098.14
422.393	2157.54
422.601	2350.04
422.809	2358.24
423.017	2307.04
423.224	2388.96
423.432	2515.93
423.64	2536.41
423.848	2741.21
424.056	2548.7
424.263	2886.61
424.471	2800.6
424.679	2855.89
424.887	3034.07
425.094	3208.14
425.302	3126.22
425.51	3199.95
425.718	3347.4
425.925	3490.76
426.133	3535.82
426.341	3707.85
426.548	3978.18
426.756	3972.04
426.964	4043.71
427.171	4203.46
427.379	4363.2
427.586	4400.06
427.794	4543.42
428.001	4688.82
428.209	4955.06
428.417	4789.17
428.624	5190.58
428.832	5075.89
429.039	4967.35
429.247	5026.74
429.454	5604.27
429.662	5899.17
429.869	5639.08
430.076	5907.37
430.284	5823.4
430.491	6149.03
430.699	6550.43
430.906	6448.03
431.114	6411.17
431.321	6912.92
431.528	6843.29
431.736	7189.39
431.943	7760.78
432.15	7492.49
432.358	7574.41
432.565	7926.66
432.772	7979.91
432.979	8156.04
433.187	8387.46
433.394	8436.61
433.601	9061.24
433.808	8977.27
434.016	9022.33
434.223	9374.58
434.43	9802.6
434.637	9749.36
434.844	10341.22
435.052	10548.06
435.259	10388.32
435.466	10558.3
435.673	10390.37
435.88	11109.21
436.087	11670.35
436.294	11744.08
436.501	11678.54
436.708	11680.59
436.915	12010.31
437.122	12901.18
437.329	12493.63
437.537	12960.57
437.743	13361.97
437.95	13026.11
438.157	14050.09
438.364	14238.5
438.571	14152.49
438.778	14545.7
438.985	15713.04
439.192	14936.86
439.399	15633.17
439.606	15086.36
439.813	16030.48
440.02	16694.02
440.227	16612.1
440.433	16626.43
440.64	16966.4
440.847	17079.04
441.054	17373.94
441.261	18201.32
441.467	18100.97
441.674	18719.46
441.881	19331.8
442.088	19360.47
442.294	18877.15
442.501	19536.6
442.708	19903.18
442.914	20531.91
443.121	21672.63
443.328	21058.24
443.534	22735.53
443.741	22016.69
443.948	21392.06
444.154	22903.46
444.361	22868.64
444.568	23335.58
444.774	23098.02
444.981	23433.88
445.187	24197.77
445.394	25113.22
445.6	25006.72
445.807	27114.08
446.013	26018.42
446.22	26608.23
446.426	27214.43
446.633	27519.58
446.839	28899.91
447.046	27234.91
447.252	28867.14
447.459	29006.41
447.665	28770.89
447.871	30069.3
448.078	31097.38
448.284	29776.44
448.491	30716.46
448.697	32055.83
448.903	32385.55
449.11	32442.9
449.316	32174.61
449.522	32696.85
449.728	33284.61
449.935	33556.99
450.141	33819.13
450.347	34646.51
450.553	33583.62
450.76	33927.67
450.966	35002.86
451.172	34548.21
451.378	35060.2
451.584	34740.72
451.791	35432.93
451.997	35531.23
452.203	35873.24
452.409	35725.79
452.615	36041.18
452.821	34480.63
453.027	34136.57
453.233	35938.78
453.44	34738.67
453.646	35115.5
453.852	35230.18
454.058	36010.46
454.264	34535.92
454.47	35688.93
454.676	34480.63
454.882	35752.41
455.088	32668.17
455.294	33272.32
455.5	33561.09
455.705	34003.45
455.911	32528.91
456.117	32223.76
456.323	32158.23
456.529	30157.36
456.735	31324.71
456.941	30304.82
457.147	30048.82
457.352	29028.93
457.558	28850.76
457.764	28914.25
457.97	28265.04
458.176	27914.84
458.381	27767.38
458.587	26624.62
458.793	26548.84
458.999	25279.1
459.204	26864.23
459.41	26255.98
459.616	24457.87
459.821	24677
460.027	24527.5
460.233	23788.18
460.438	23032.48
460.644	23241.37
460.85	21955.25
461.055	21930.67
461.261	21783.22
461.466	20054.73
461.672	19563.22
461.878	20845.25
462.083	19569.37
462.289	18989.79
462.494	18989.79
462.7	18105.07
462.905	17443.57
463.111	18025.2
463.316	18090.73
463.522	18074.35
463.727	17842.93
463.932	17804.02
464.138	17703.67
464.343	17928.94
464.549	17294.07
464.754	17851.12
464.959	17777.39
465.165	17425.14
465.37	16704.26
465.575	16304.9
465.781	17148.67
465.986	17011.45
466.191	16569.09
466.397	16306.95
466.602	15256.34
466.807	15893.26
467.012	16112.39
467.218	16149.26
467.423	15635.22
467.628	15989.52
467.833	16505.6
