Data from USB4F104151__193__14-20-24-808.txt Node

Date: Thu Mar 13 14:20:24 EDT 2025
User: louis
Spectrometer: USB4F10415
Trigger mode: 4
Integration Time (sec): 2.000000E-2
Scans to average: 1
Electric dark correction enabled: true
Nonlinearity correction enabled: false
Boxcar width: 0
XAxis mode: Wavelengths
Number of Pixels in Spectrum: 3648
>>>>>Begin Spectral Data<<<<<
178.204	-115.88
178.424	-115.88
178.644	-115.88
178.864	-144.55
179.084	-122.02
179.304	-48.3
179.524	9.05
179.744	35.67
179.964	90.96
180.184	-15.53
180.404	-19.63
180.624	-15.53
180.844	58.2
181.064	-9.39
181.283	-13.48
181.503	-56.49
181.723	-15.53
181.943	19.29
182.163	43.86
182.383	107.35
182.602	9.05
182.822	41.81
183.042	25.43
183.262	-44.2
183.482	19.29
183.701	27.48
183.921	25.43
184.141	-33.96
184.361	52.05
184.58	-7.34
184.8	-19.63
185.02	-19.63
185.239	84.82
185.459	-23.72
185.679	37.72
185.898	-56.49
186.118	52.05
186.338	-36.01
186.557	33.62
186.777	-64.68
186.997	-23.72
187.216	54.1
187.436	9.05
187.655	4.95
187.875	62.29
188.095	4.95
188.314	-5.29
188.534	0.85
188.753	11.09
188.973	4.95
189.192	95.06
189.412	21.33
189.631	17.24
189.851	27.48
190.07	115.54
190.29	27.48
190.509	11.09
190.729	-56.49
190.948	-7.34
191.168	105.3
191.387	0.85
191.607	-48.3
191.826	52.05
192.045	21.33
192.265	45.91
192.484	-15.53
192.704	-48.3
192.923	7
193.142	109.4
193.362	19.29
193.581	82.77
193.8	37.72
194.02	-13.48
194.239	-40.11
194.458	-56.49
194.678	11.09
194.897	-64.68
195.116	0.85
195.335	-1.19
195.555	17.24
195.774	41.81
195.993	31.57
196.212	-115.88
196.432	-19.63
196.651	-13.48
196.87	31.57
197.089	97.11
197.308	-50.35
197.528	9.05
197.747	-48.3
197.966	25.43
198.185	0.85
198.404	-23.72
198.623	4.95
198.842	0.85
199.062	45.91
199.281	33.62
199.5	29.52
199.719	-3.24
199.938	74.58
200.157	95.06
200.376	52.05
200.595	19.29
200.814	78.68
201.033	-13.48
201.252	56.15
201.471	-15.53
201.69	78.68
201.909	-23.72
202.128	50
202.347	62.29
202.566	-15.53
202.785	-19.63
203.004	-7.34
203.223	97.11
203.442	23.38
203.661	-15.53
203.879	-13.48
204.098	41.81
204.317	-5.29
204.536	35.67
204.755	17.24
204.974	-21.67
205.193	-44.2
205.411	117.59
205.63	9.05
205.849	62.29
206.068	25.43
206.287	-40.11
206.505	41.81
206.724	-23.72
206.943	29.52
207.162	29.52
207.381	2.9
207.599	-5.29
207.818	103.25
208.037	-48.3
208.255	56.15
208.474	-9.39
208.693	11.09
208.911	11.09
209.13	-21.67
209.349	17.24
209.567	-52.39
209.786	4.95
210.005	11.09
210.223	15.19
210.442	-21.67
210.661	7
210.879	2.9
211.098	-5.29
211.316	66.39
211.535	31.57
211.753	-31.91
211.972	13.14
212.191	-13.48
212.409	-38.06
212.628	-5.29
212.846	0.85
213.065	60.24
213.283	-13.48
213.502	50
213.72	-13.48
213.938	56.15
214.157	-11.43
214.375	41.81
214.594	-13.48
214.812	45.91
215.031	17.24
215.249	-40.11
215.467	35.67
215.686	-13.48
215.904	25.43
216.122	-48.3
216.341	62.29
216.559	4.95
216.778	0.85
216.996	90.96
217.214	76.63
217.432	21.33
217.651	-17.58
217.869	-44.2
218.087	19.29
218.306	17.24
218.524	80.72
218.742	25.43
218.96	35.67
219.179	68.44
219.397	17.24
219.615	70.48
219.833	39.76
220.051	41.81
220.27	33.62
220.488	11.09
220.706	-70.83
220.924	72.53
221.142	-54.44
221.36	35.67
221.578	52.05
221.796	39.76
222.015	-36.01
222.233	25.43
222.451	37.72
222.669	-1.19
222.887	90.96
223.105	-31.91
223.323	25.43
223.541	-72.87
223.759	76.63
223.977	-15.53
224.195	25.43
224.413	29.52
224.631	4.95
224.849	54.1
225.067	66.39
225.285	45.91
225.503	25.43
225.721	-11.43
225.939	15.19
226.157	-7.34
226.375	99.16
226.592	-93.35
226.81	17.24
227.028	-29.87
227.246	21.33
227.464	11.09
227.682	17.24
227.9	9.05
228.117	-36.01
228.335	-7.34
228.553	68.44
228.771	50
228.989	58.2
229.206	29.52
229.424	86.87
229.642	9.05
229.86	45.91
230.077	17.24
230.295	43.86
230.513	11.09
230.731	45.91
230.948	107.35
231.166	119.64
231.384	25.43
231.601	33.62
231.819	13.14
232.037	-17.58
232.254	-9.39
232.472	-3.24
232.689	-76.97
232.907	43.86
233.125	29.52
233.342	-42.15
233.56	-40.11
233.777	123.73
233.995	-62.63
234.213	60.24
234.43	-9.39
234.648	25.43
234.865	4.95
235.083	27.48
235.3	-17.58
235.518	68.44
235.735	0.85
235.953	60.24
236.17	37.72
236.388	-5.29
236.605	-7.34
236.822	39.76
237.04	62.29
237.257	99.16
237.475	29.52
237.692	115.54
237.909	35.67
238.127	35.67
238.344	15.19
238.562	58.2
238.779	-72.87
238.996	-62.63
239.214	13.14
239.431	58.2
239.648	-7.34
239.865	-56.49
240.083	-5.29
240.3	-60.59
240.517	56.15
240.735	2.9
240.952	54.1
241.169	99.16
241.386	-11.43
241.603	68.44
241.821	-38.06
242.038	11.09
242.255	33.62
242.472	-31.91
242.689	-23.72
242.907	-56.49
243.124	43.86
243.341	-42.15
243.558	17.24
243.775	-15.53
243.992	11.09
244.209	17.24
244.426	70.48
244.643	41.81
244.86	-3.24
245.078	-15.53
245.295	60.24
245.512	15.19
245.729	9.05
245.946	37.72
246.163	66.39
246.38	52.05
246.597	19.29
246.814	17.24
247.031	13.14
247.248	9.05
247.464	39.76
247.681	15.19
247.898	27.48
248.115	33.62
248.332	17.24
248.549	35.67
248.766	19.29
248.983	33.62
249.2	74.58
249.417	23.38
249.633	7
249.85	72.53
250.067	0.85
250.284	41.81
250.501	19.29
250.717	-7.34
250.934	76.63
251.151	-31.91
251.368	54.1
251.585	35.67
251.801	-15.53
252.018	101.2
252.235	54.1
252.451	-3.24
252.668	54.1
252.885	88.92
253.102	13.14
253.318	-7.34
253.535	17.24
253.752	45.91
253.968	2.9
254.185	19.29
254.401	-33.96
254.618	-9.39
254.835	-21.67
255.051	-5.29
255.268	41.81
255.484	9.05
255.701	-25.77
255.917	4.95
256.134	23.38
256.351	37.72
256.567	-7.34
256.784	-1.19
257	-38.06
257.217	0.85
257.433	33.62
257.65	80.72
257.866	35.67
258.082	-19.63
258.299	37.72
258.515	21.33
258.732	13.14
258.948	0.85
259.165	0.85
259.381	50
259.597	45.91
259.814	21.33
260.03	0.85
260.246	52.05
260.463	50
260.679	64.34
260.895	58.2
261.112	50
261.328	-48.3
261.544	-31.91
261.761	25.43
261.977	17.24
262.193	17.24
262.409	103.25
262.626	-7.34
262.842	0.85
263.058	31.57
263.274	54.1
263.49	19.29
263.707	56.15
263.923	21.33
264.139	68.44
264.355	109.4
264.571	93.01
264.787	37.72
265.004	109.4
265.22	27.48
265.436	43.86
265.652	45.91
265.868	66.39
266.084	23.38
266.3	21.33
266.516	-40.11
266.732	95.06
266.948	17.24
267.164	-11.43
267.38	2.9
267.596	-27.82
267.812	15.19
268.028	25.43
268.244	54.1
268.46	-27.82
268.676	17.24
268.892	58.2
269.108	-3.24
269.324	17.24
269.54	-23.72
269.756	72.53
269.972	-33.96
270.188	29.52
270.403	25.43
270.619	19.29
270.835	11.09
271.051	39.76
271.267	4.95
271.483	-44.2
271.698	66.39
271.914	80.72
272.13	45.91
272.346	17.24
272.562	45.91
272.777	33.62
272.993	-29.87
273.209	2.9
273.425	39.76
273.64	2.9
273.856	131.92
274.072	0.85
274.287	-70.83
274.503	111.44
274.719	17.24
274.934	-21.67
275.15	-7.34
275.366	78.68
275.581	-31.91
275.797	68.44
276.012	41.81
276.228	41.81
276.444	-23.72
276.659	2.9
276.875	41.81
277.09	58.2
277.306	-38.06
277.521	101.2
277.737	-21.67
277.952	0.85
278.168	2.9
278.383	0.85
278.599	-46.25
278.814	31.57
279.03	88.92
279.245	-15.53
279.461	56.15
279.676	47.96
279.892	-52.39
280.107	43.86
280.322	-15.53
280.538	60.24
280.753	-31.91
280.969	-15.53
281.184	35.67
281.399	78.68
281.615	72.53
281.83	62.29
282.045	41.81
282.26	19.29
282.476	50
282.691	19.29
282.906	-11.43
283.122	41.81
283.337	-29.87
283.552	119.64
283.767	7
283.983	60.24
284.198	-25.77
284.413	74.58
284.628	17.24
284.843	23.38
285.058	11.09
285.274	-36.01
285.489	9.05
285.704	47.96
285.919	25.43
286.134	19.29
286.349	0.85
286.564	25.43
286.779	60.24
286.995	13.14
287.21	-42.15
287.425	58.2
287.64	-23.72
287.855	66.39
288.07	35.67
288.285	-42.15
288.5	64.34
288.715	68.44
288.93	9.05
289.145	58.2
289.36	68.44
289.575	13.14
289.79	13.14
290.004	2.9
290.219	60.24
290.434	9.05
290.649	50
290.864	66.39
291.079	-15.53
291.294	107.35
291.509	50
291.724	21.33
291.938	-7.34
292.153	-5.29
292.368	-29.87
292.583	101.2
292.798	35.67
293.012	23.38
293.227	15.19
293.442	33.62
293.657	84.82
293.871	66.39
294.086	-15.53
294.301	35.67
294.516	-17.58
294.73	25.43
294.945	50
295.16	-87.21
295.374	19.29
295.589	33.62
295.804	-3.24
296.018	2.9
296.233	45.91
296.447	9.05
296.662	-72.87
296.877	11.09
297.091	33.62
297.306	21.33
297.52	-48.3
297.735	-3.24
297.949	101.2
298.164	-7.34
298.378	-19.63
298.593	-76.97
298.807	-19.63
299.022	29.52
299.236	88.92
299.451	2.9
299.665	-13.48
299.88	2.9
300.094	74.58
300.309	45.91
300.523	-7.34
300.737	-7.34
300.952	39.76
301.166	4.95
301.381	-36.01
301.595	50
301.809	66.39
302.024	50
302.238	-13.48
302.452	43.86
302.667	-48.3
302.881	90.96
303.095	47.96
303.309	50
303.524	13.14
303.738	45.91
303.952	15.19
304.166	58.2
304.381	-19.63
304.595	29.52
304.809	-5.29
305.023	-54.44
305.237	60.24
305.452	-56.49
305.666	50
305.88	50
306.094	74.58
306.308	54.1
306.522	17.24
306.736	76.63
306.95	27.48
307.164	50
307.379	-7.34
307.593	111.44
307.807	54.1
308.021	35.67
308.235	41.81
308.449	2.9
308.663	0.85
308.877	72.53
309.091	-76.97
309.305	-1.19
309.519	2.9
309.733	52.05
309.947	41.81
310.161	60.24
310.374	68.44
310.588	56.15
310.802	-15.53
311.016	-25.77
311.23	68.44
311.444	-11.43
311.658	29.52
311.872	60.24
312.085	66.39
312.299	82.77
312.513	82.77
312.727	50
312.941	-27.82
313.154	37.72
313.368	-31.91
313.582	35.67
313.796	13.14
314.009	25.43
314.223	33.62
314.437	31.57
314.651	-68.78
314.864	-31.91
315.078	13.14
315.292	-54.44
315.505	35.67
315.719	-46.25
315.933	23.38
316.146	82.77
316.36	19.29
316.573	15.19
316.787	29.52
317.001	-11.43
317.214	9.05
317.428	-36.01
317.641	-50.35
317.855	41.81
318.068	58.2
318.282	-64.68
318.495	93.01
318.709	43.86
318.922	50
319.136	86.87
319.349	-40.11
319.563	-11.43
319.776	66.39
319.99	13.14
320.203	-23.72
320.417	33.62
320.63	-3.24
320.843	-5.29
321.057	-15.53
321.27	82.77
321.483	41.81
321.697	113.49
321.91	27.48
322.124	39.76
322.337	41.81
322.55	84.82
322.763	103.25
322.977	88.92
323.19	33.62
323.403	45.91
323.617	43.86
323.83	7
324.043	9.05
324.256	13.14
324.469	0.85
324.683	74.58
324.896	29.52
325.109	-23.72
325.322	13.14
325.535	115.54
325.748	41.81
325.962	66.39
326.175	21.33
326.388	76.63
326.601	17.24
326.814	43.86
327.027	29.52
327.24	43.86
327.453	-29.87
327.666	119.64
327.879	-7.34
328.092	25.43
328.305	0.85
328.518	45.91
328.731	7
328.944	50
329.157	50
329.37	15.19
329.583	9.05
329.796	41.81
330.009	17.24
330.222	15.19
330.435	52.05
330.648	-27.82
330.861	9.05
331.073	-15.53
331.286	86.87
331.499	37.72
331.712	25.43
331.925	66.39
332.138	37.72
332.35	37.72
332.563	9.05
332.776	70.48
332.989	11.09
333.202	33.62
333.414	37.72
333.627	74.58
333.84	21.33
334.053	103.25
334.265	21.33
334.478	66.39
334.691	52.05
334.903	58.2
335.116	-44.2
335.329	33.62
335.541	2.9
335.754	78.68
335.966	29.52
336.179	35.67
336.392	50
336.604	2.9
336.817	43.86
337.029	41.81
337.242	58.2
337.454	4.95
337.667	-5.29
337.88	62.29
338.092	84.82
338.305	117.59
338.517	9.05
338.729	9.05
338.942	-3.24
339.154	17.24
339.367	66.39
339.579	84.82
339.792	9.05
340.004	62.29
340.217	-60.59
340.429	29.52
340.641	-17.58
340.854	41.81
341.066	9.05
341.278	54.1
341.491	70.48
341.703	13.14
341.915	25.43
342.128	43.86
342.34	19.29
342.552	17.24
342.764	4.95
342.977	90.96
343.189	4.95
343.401	41.81
343.613	11.09
343.826	0.85
344.038	90.96
344.25	9.05
344.462	33.62
344.674	-33.96
344.886	-17.58
345.099	-11.43
345.311	-31.91
345.523	-13.48
345.735	13.14
345.947	-13.48
346.159	-40.11
346.371	41.81
346.583	60.24
346.795	101.2
347.007	70.48
347.219	99.16
347.431	23.38
347.643	70.48
347.855	4.95
348.067	50
348.279	25.43
348.491	29.52
348.703	86.87
348.915	76.63
349.127	50
349.339	76.63
349.551	74.58
349.763	93.01
349.975	66.39
350.187	17.24
350.399	43.86
350.61	41.81
350.822	68.44
351.034	31.57
351.246	58.2
351.458	74.58
351.669	54.1
351.881	150.36
352.093	56.15
352.305	80.72
352.517	17.24
352.728	93.01
352.94	74.58
353.152	25.43
353.363	64.34
353.575	74.58
353.787	25.43
353.999	-1.19
354.21	80.72
354.422	-5.29
354.633	-31.91
354.845	33.62
355.057	86.87
355.268	-15.53
355.48	119.64
355.692	37.72
355.903	-9.39
356.115	-7.34
356.326	-44.2
356.538	43.86
356.749	82.77
356.961	78.68
357.172	50
357.384	0.85
357.595	64.34
357.807	2.9
358.018	68.44
358.23	-9.39
358.441	52.05
358.653	58.2
358.864	19.29
359.075	-5.29
359.287	52.05
359.498	17.24
359.709	41.81
359.921	43.86
360.132	25.43
360.344	13.14
360.555	7
360.766	2.9
360.977	54.1
361.189	9.05
361.4	33.62
361.611	86.87
361.823	43.86
362.034	68.44
362.245	27.48
362.456	-23.72
362.667	27.48
362.879	13.14
363.09	74.58
363.301	41.81
363.512	54.1
363.723	-70.83
363.935	7
364.146	76.63
364.357	62.29
364.568	66.39
364.779	23.38
364.99	64.34
365.201	-23.72
365.412	97.11
365.623	-70.83
365.834	33.62
366.045	84.82
366.256	35.67
366.467	84.82
366.678	19.29
366.889	47.96
367.1	9.05
367.311	95.06
367.522	-7.34
367.733	99.16
367.944	60.24
368.155	41.81
368.366	0.85
368.577	-1.19
368.788	58.2
368.999	-7.34
369.209	-1.19
369.42	76.63
369.631	99.16
369.842	41.81
370.053	29.52
370.264	68.44
370.474	84.82
370.685	45.91
370.896	7
371.107	66.39
371.317	58.2
371.528	80.72
371.739	29.52
371.95	113.49
372.16	58.2
372.371	-7.34
372.582	19.29
372.792	72.53
373.003	76.63
373.214	58.2
373.424	19.29
373.635	13.14
373.846	41.81
374.056	54.1
374.267	9.05
374.477	9.05
374.688	31.57
374.898	-13.48
375.109	60.24
375.319	-3.24
375.53	25.43
375.74	33.62
375.951	37.72
376.161	99.16
376.372	123.73
376.582	17.24
376.793	13.14
377.003	2.9
377.214	45.91
377.424	39.76
377.635	54.1
377.845	19.29
378.055	72.53
378.266	52.05
378.476	13.14
378.686	50
378.897	58.2
379.107	76.63
379.317	2.9
379.528	-11.43
379.738	58.2
379.948	35.67
380.158	58.2
380.369	27.48
380.579	-15.53
380.789	25.43
380.999	66.39
381.21	58.2
381.42	148.31
381.63	21.33
381.84	52.05
382.05	-7.34
382.261	74.58
382.471	58.2
382.681	76.63
382.891	97.11
383.101	60.24
383.311	41.81
383.521	82.77
383.731	35.67
383.941	66.39
384.151	37.72
384.361	41.81
384.571	82.77
384.781	60.24
384.991	76.63
385.201	66.39
385.411	74.58
385.621	107.35
385.831	43.86
386.041	70.48
386.251	-7.34
386.461	62.29
386.671	-3.24
386.881	101.2
387.091	13.14
387.301	35.67
387.511	9.05
387.72	103.25
387.93	93.01
388.14	-27.82
388.35	76.63
388.56	33.62
388.769	66.39
388.979	62.29
389.189	84.82
389.399	162.64
389.609	17.24
389.818	101.2
390.028	45.91
390.238	113.49
390.447	-19.63
390.657	93.01
390.867	-17.58
391.076	9.05
391.286	74.58
391.496	70.48
391.705	45.91
391.915	101.2
392.125	70.48
392.334	-3.24
392.544	33.62
392.753	45.91
392.963	99.16
393.172	60.24
393.382	-21.67
393.591	78.68
393.801	62.29
394.01	84.82
394.22	82.77
394.429	50
394.639	41.81
394.848	-31.91
395.058	168.79
395.267	99.16
395.477	29.52
395.686	152.4
395.895	78.68
396.105	109.4
396.314	129.88
396.524	90.96
396.733	80.72
396.942	125.78
397.152	107.35
397.361	84.82
397.57	107.35
397.78	52.05
397.989	68.44
398.198	140.12
398.407	93.01
398.617	142.16
398.826	174.93
399.035	133.97
399.244	88.92
399.453	140.12
399.663	97.11
399.872	74.58
400.081	142.16
400.29	199.51
400.499	41.81
400.708	150.36
400.917	66.39
401.127	156.5
401.336	-38.06
401.545	205.65
401.754	107.35
401.963	99.16
402.172	99.16
402.381	90.96
402.59	117.59
402.799	144.21
403.008	123.73
403.217	119.64
403.426	78.68
403.635	154.45
403.844	133.97
404.053	125.78
404.262	99.16
404.471	101.2
404.68	183.12
404.888	136.02
405.097	156.5
405.306	101.2
405.515	189.27
405.724	86.87
405.933	232.27
406.142	156.5
406.35	222.03
406.559	181.07
406.768	115.54
406.977	250.71
407.185	181.07
407.394	316.24
407.603	183.12
407.812	172.88
408.02	191.31
408.229	164.69
408.438	238.42
408.646	166.74
408.855	240.47
409.064	160.59
409.272	230.23
409.481	303.95
409.69	262.99
409.898	267.09
410.107	336.72
410.315	353.1
410.524	242.51
410.733	381.78
410.941	320.34
411.15	402.26
411.358	418.64
411.567	365.39
411.775	355.15
411.984	402.26
412.192	369.49
412.401	467.79
412.609	447.31
412.818	475.98
413.026	500.56
413.234	508.75
413.443	469.84
413.651	525.13
413.86	543.57
414.068	605
414.276	527.18
414.485	594.76
414.693	688.97
414.901	768.84
415.11	736.07
415.318	680.78
415.526	719.69
415.734	697.16
415.943	801.61
416.151	754.51
416.359	832.33
416.567	918.34
416.776	826.18
416.984	910.15
417.192	959.3
417.4	912.2
417.608	877.38
417.817	1004.36
418.025	1098.56
418.233	1188.68
418.441	1026.89
418.649	1123.14
418.857	1188.68
419.065	1262.4
419.273	1215.3
419.481	1329.99
419.689	1389.38
419.897	1557.31
420.105	1403.71
420.313	1524.54
420.521	1581.89
420.729	1602.36
420.937	1688.38
421.145	1704.76
421.353	1735.48
421.561	1901.37
421.769	2011.96
421.977	2106.17
422.185	1903.42
422.393	2003.77
422.601	2196.28
422.809	2353.97
423.017	2198.32
423.224	2331.44
423.432	2437.94
423.64	2394.93
423.848	2581.29
424.056	2607.92
424.263	2855.72
424.471	2794.28
424.679	3013.42
424.887	2900.78
425.094	3081
425.302	3162.92
425.51	3121.96
425.718	3308.32
425.925	3318.56
426.133	3486.5
426.341	3668.77
426.548	3918.62
426.756	3777.31
426.964	3875.61
427.171	4012.82
427.379	4244.24
427.586	4301.59
427.794	4317.97
428.001	4543.25
428.209	4760.33
428.417	4905.74
428.624	5106.44
428.832	5051.14
429.039	4967.18
429.247	5147.4
429.454	5444.35
429.662	5944.06
429.869	5542.66
430.076	5925.63
430.284	5821.18
430.491	5915.39
430.699	6310.65
430.906	6357.75
431.114	6324.98
431.321	6619.89
431.528	6873.84
431.736	7203.56
431.943	7662.3
432.15	7391.97
432.358	7373.54
432.565	7817.95
432.772	7570.15
432.979	8086.23
433.187	8409.81
433.394	8135.39
433.601	8923.85
433.808	8946.38
434.016	8835.79
434.223	9175.75
434.43	9710.27
434.637	9485
434.844	10298.04
435.052	10312.38
435.259	10164.92
435.466	10480.31
435.673	10355.38
435.88	11012.78
436.087	11455.14
436.294	11297.45
436.501	11453.09
436.708	11467.43
436.915	11846.3
437.122	12440.22
437.329	12370.58
437.537	12575.38
437.743	12804.75
437.95	12819.09
438.157	13298.31
438.364	14021.25
438.571	14013.06
438.778	13914.75
438.985	15616.62
439.192	14594.68
439.399	15237.74
439.606	14873.2
439.813	15655.53
440.02	16388.7
440.227	16323.16
440.433	16048.74
440.64	16816.72
440.847	16753.24
441.054	16900.69
441.261	18180.67
441.467	17734.21
441.674	18213.44
441.881	18586.17
442.088	18950.71
442.294	18547.26
442.501	19069.49
442.708	19456.56
442.914	20234.78
443.121	20967.96
443.328	20806.17
443.534	21979.65
443.741	21293.58
443.948	21137.94
444.154	22608.38
444.361	22366.72
444.568	22397.44
444.774	22528.51
444.981	22688.25
445.187	23558.64
445.394	24457.7
445.6	24297.95
445.807	26624.45
446.013	25235.92
446.22	25876.94
446.426	26573.25
446.633	26902.97
446.839	27828.65
447.046	26601.92
447.252	28359.08
447.459	28451.24
447.665	28500.39
447.871	29370.77
448.078	30738.82
448.284	29276.57
448.491	29858.19
448.697	31205.75
448.903	31478.13
449.11	31797.62
449.316	31205.75
449.522	31973.74
449.728	32827.74
449.935	32702.82
450.141	32813.41
450.347	33741.14
450.553	32547.17
450.76	32760.16
450.966	33804.63
451.172	33835.35
451.378	34560.33
451.584	34214.22
451.791	34527.56
451.997	34732.36
452.203	35105.09
452.409	35170.62
452.615	34734.4
452.821	33845.58
453.027	33589.59
453.233	35287.35
453.44	33843.54
453.646	34502.98
453.852	34529.61
454.058	34951.49
454.264	33818.96
454.47	34220.36
454.676	33786.19
454.882	34840.9
455.088	31619.44
455.294	32426.34
455.5	32905.57
455.705	33194.33
455.911	31723.89
456.117	31424.89
456.323	30814.59
456.529	29188.5
456.735	30579.07
456.941	29815.18
457.147	29065.63
457.352	28557.73
457.558	28172.71
457.764	28002.73
457.97	27402.68
458.176	26757.57
458.381	27021.75
458.587	25622.99
458.793	25709.01
458.999	24381.92
459.204	26063.3
459.41	25166.29
459.616	23802.35
459.821	23810.54
460.027	23935.46
460.233	23024.12
460.438	21965.32
460.644	22434.3
460.85	21447.18
461.055	21013.01
461.261	20810.26
461.466	19233.33
461.672	18907.7
461.878	20113.95
462.083	18860.6
462.289	18285.12
462.494	18418.24
462.7	17578.57
462.905	17093.2
463.111	17631.82
463.316	17795.65
463.522	17375.82
463.727	17207.89
463.932	17185.36
464.138	17140.3
464.343	16986.71
464.549	16648.79
464.754	17185.36
464.959	16761.43
465.165	16894.55
465.37	16130.66
465.575	15913.57
465.781	16204.38
465.986	16579.16
466.191	15733.35
466.397	15428.2
466.602	14998.13
466.807	15512.17
467.012	15444.59
467.218	15446.63
467.423	15188.59
467.628	15059.57
467.833	15909.47
468.038	15309.42
468.244	14789.24
468.449	15463.02
468.654	14819.96
