Data from USB4F104151__81__14-17-43-447.txt Node

Date: Thu Mar 13 14:17:43 EDT 2025
User: louis
Spectrometer: USB4F10415
Trigger mode: 4
Integration Time (sec): 2.000000E-2
Scans to average: 1
Electric dark correction enabled: true
Nonlinearity correction enabled: false
Boxcar width: 0
XAxis mode: Wavelengths
Number of Pixels in Spectrum: 3648
>>>>>Begin Spectral Data<<<<<
178.204	-164.52
178.424	-164.52
178.644	-164.52
178.864	-162.47
179.084	-144.04
179.304	11.61
179.524	42.32
179.744	-47.79
179.964	-6.83
180.184	17.75
180.404	-10.92
180.624	46.42
180.844	-12.97
181.064	-37.55
181.283	-21.16
181.503	-64.17
181.723	83.28
181.943	-15.02
182.163	118.1
182.383	38.23
182.602	21.85
182.822	91.48
183.042	30.04
183.262	-2.73
183.482	19.8
183.701	34.13
183.921	34.13
184.141	54.61
184.361	99.67
184.58	-43.69
184.8	-2.73
185.02	-15.02
185.239	144.72
185.459	-2.73
185.679	-64.17
185.898	-55.98
186.118	25.94
186.338	-23.21
186.557	93.52
186.777	-31.4
186.997	9.56
187.216	21.85
187.436	-10.92
187.655	-6.83
187.875	36.18
188.095	27.99
188.314	95.57
188.534	54.61
188.753	19.8
188.973	77.14
189.192	93.52
189.412	-4.78
189.631	42.32
189.851	13.65
190.07	52.56
190.29	-8.87
190.509	60.76
190.729	3.41
190.948	25.94
191.168	124.24
191.387	13.65
191.607	44.37
191.826	54.61
192.045	1.37
192.265	11.61
192.484	30.04
192.704	-8.87
192.923	-39.59
193.142	75.09
193.362	54.61
193.581	40.28
193.8	9.56
194.02	60.76
194.239	3.41
194.458	-10.92
194.678	5.46
194.897	42.32
195.116	17.75
195.335	25.94
195.555	50.52
195.774	-6.83
195.993	58.71
196.212	1.37
196.432	-15.02
196.651	75.09
196.87	-25.26
197.089	91.48
197.308	-27.31
197.528	73.04
197.747	-35.5
197.966	-27.31
198.185	79.19
198.404	-15.02
198.623	1.37
198.842	36.18
199.062	58.71
199.281	5.46
199.5	42.32
199.719	66.9
199.938	-68.27
200.157	75.09
200.376	99.67
200.595	44.37
200.814	50.52
201.033	36.18
201.252	40.28
201.471	25.94
201.69	62.8
201.909	48.47
202.128	77.14
202.347	62.8
202.566	75.09
202.785	-8.87
203.004	-47.79
203.223	25.94
203.442	40.28
203.661	-15.02
203.879	-6.83
204.098	-12.97
204.317	1.37
204.536	58.71
204.755	-62.12
204.974	34.13
205.193	-10.92
205.411	83.28
205.63	19.8
205.849	87.38
206.068	38.23
206.287	68.95
206.505	52.56
206.724	-55.98
206.943	52.56
207.162	25.94
207.381	54.61
207.599	17.75
207.818	19.8
208.037	-39.59
208.255	48.47
208.474	17.75
208.693	36.18
208.911	-58.03
209.13	50.52
209.349	34.13
209.567	-2.73
209.786	38.23
210.005	42.32
210.223	36.18
210.442	-64.17
210.661	7.51
210.879	15.7
211.098	34.13
211.316	83.28
211.535	54.61
211.753	23.89
211.972	-12.97
212.191	75.09
212.409	68.95
212.628	50.52
212.846	-27.31
213.065	50.52
213.283	77.14
213.502	40.28
213.72	15.7
213.938	97.62
214.157	25.94
214.375	95.57
214.594	-31.4
214.812	60.76
215.031	60.76
215.249	36.18
215.467	44.37
215.686	62.8
215.904	32.08
216.122	19.8
216.341	25.94
216.559	34.13
216.778	58.71
216.996	-0.68
217.214	-23.21
217.432	25.94
217.651	-4.78
217.869	-15.02
218.087	3.41
218.306	3.41
218.524	62.8
218.742	-6.83
218.96	60.76
219.179	-2.73
219.397	19.8
219.615	89.43
219.833	-4.78
220.051	21.85
220.27	58.71
220.488	17.75
220.706	157.01
220.924	34.13
221.142	19.8
221.36	75.09
221.578	101.72
221.796	3.41
222.015	40.28
222.233	13.65
222.451	126.29
222.669	-12.97
222.887	32.08
223.105	38.23
223.323	54.61
223.541	-10.92
223.759	-33.45
223.977	62.8
224.195	-19.11
224.413	19.8
224.631	71
224.849	13.65
225.067	30.04
225.285	25.94
225.503	25.94
225.721	56.66
225.939	11.61
226.157	27.99
226.375	150.87
226.592	-19.11
226.81	-23.21
227.028	44.37
227.246	1.37
227.464	17.75
227.682	-39.59
227.9	58.71
228.117	-8.87
228.335	-6.83
228.553	-10.92
228.771	27.99
228.989	91.48
229.206	-4.78
229.424	40.28
229.642	-8.87
229.86	46.42
230.077	50.52
230.295	58.71
230.513	75.09
230.731	54.61
230.948	107.86
231.166	42.32
231.384	-2.73
231.601	-39.59
231.819	99.67
232.037	-19.11
232.254	-10.92
232.472	60.76
232.689	-37.55
232.907	66.9
233.125	-21.16
233.342	-10.92
233.56	42.32
233.777	68.95
233.995	25.94
234.213	83.28
234.43	85.33
234.648	-15.02
234.865	30.04
235.083	17.75
235.3	13.65
235.518	30.04
235.735	42.32
235.953	107.86
236.17	1.37
236.388	17.75
236.605	17.75
236.822	50.52
237.04	25.94
237.257	-35.5
237.475	91.48
237.692	-25.26
237.909	15.7
238.127	9.56
238.344	79.19
238.562	75.09
238.779	25.94
238.996	9.56
239.214	46.42
239.431	-15.02
239.648	30.04
239.865	-15.02
240.083	-86.7
240.3	75.09
240.517	-15.02
240.735	42.32
240.952	-29.35
241.169	38.23
241.386	68.95
241.603	3.41
241.821	79.19
242.038	52.56
242.255	38.23
242.472	3.41
242.689	46.42
242.907	73.04
243.124	52.56
243.341	-6.83
243.558	-23.21
243.775	91.48
243.992	-19.11
244.209	27.99
244.426	52.56
244.643	85.33
244.86	-27.31
245.078	-12.97
245.295	-70.31
245.512	73.04
245.729	-47.79
245.946	42.32
246.163	36.18
246.38	77.14
246.597	3.41
246.814	52.56
247.031	32.08
247.248	32.08
247.464	64.85
247.681	40.28
247.898	15.7
248.115	30.04
248.332	38.23
248.549	99.67
248.766	75.09
248.983	23.89
249.2	15.7
249.417	1.37
249.633	89.43
249.85	58.71
250.067	58.71
250.284	50.52
250.501	83.28
250.717	46.42
250.934	-43.69
251.151	-51.88
251.368	46.42
251.585	34.13
251.801	-27.31
252.018	21.85
252.235	-0.68
252.451	-29.35
252.668	73.04
252.885	50.52
253.102	17.75
253.318	46.42
253.535	11.61
253.752	58.71
253.968	3.41
254.185	-23.21
254.401	17.75
254.618	64.85
254.835	48.47
255.051	107.86
255.268	64.85
255.484	25.94
255.701	27.99
255.917	73.04
256.134	-10.92
256.351	77.14
256.567	23.89
256.784	17.75
257	-31.4
257.217	9.56
257.433	7.51
257.65	54.61
257.866	71
258.082	-2.73
258.299	-23.21
258.515	13.65
258.732	13.65
258.948	32.08
259.165	54.61
259.381	-35.5
259.597	-17.07
259.814	-19.11
260.03	54.61
260.246	11.61
260.463	42.32
260.679	107.86
260.895	-23.21
261.112	17.75
261.328	-23.21
261.544	-6.83
261.761	19.8
261.977	13.65
262.193	-0.68
262.409	-0.68
262.626	54.61
262.842	1.37
263.058	-15.02
263.274	-21.16
263.49	25.94
263.707	34.13
263.923	52.56
264.139	42.32
264.355	30.04
264.571	83.28
264.787	-6.83
265.004	54.61
265.22	27.99
265.436	54.61
265.652	38.23
265.868	13.65
266.084	21.85
266.3	107.86
266.516	-6.83
266.732	66.9
266.948	1.37
267.164	73.04
267.38	42.32
267.596	3.41
267.812	15.7
268.028	50.52
268.244	-6.83
268.46	9.56
268.676	-37.55
268.892	62.8
269.108	7.51
269.324	19.8
269.54	1.37
269.756	83.28
269.972	9.56
270.188	34.13
270.403	30.04
270.619	54.61
270.835	21.85
271.051	15.7
271.267	-4.78
271.483	19.8
271.698	34.13
271.914	68.95
272.13	27.99
272.346	-31.4
272.562	-12.97
272.777	-37.55
272.993	36.18
273.209	-6.83
273.425	62.8
273.64	-39.59
273.856	50.52
274.072	-64.17
274.287	1.37
274.503	75.09
274.719	21.85
274.934	77.14
275.15	-8.87
275.366	40.28
275.581	36.18
275.797	42.32
276.012	30.04
276.228	36.18
276.444	42.32
276.659	66.9
276.875	30.04
277.09	-19.11
277.306	42.32
277.521	11.61
277.737	-8.87
277.952	15.7
278.168	9.56
278.383	-47.79
278.599	34.13
278.814	36.18
279.03	46.42
279.245	114
279.461	11.61
279.676	91.48
279.892	-4.78
280.107	54.61
280.322	23.89
280.538	42.32
280.753	-17.07
280.969	19.8
281.184	42.32
281.399	71
281.615	-33.45
281.83	32.08
282.045	9.56
282.26	11.61
282.476	1.37
282.691	19.8
282.906	25.94
283.122	60.76
283.337	5.46
283.552	44.37
283.767	9.56
283.983	-6.83
284.198	-8.87
284.413	56.66
284.628	38.23
284.843	34.13
285.058	-12.97
285.274	75.09
285.489	-62.12
285.704	60.76
285.919	71
286.134	79.19
286.349	40.28
286.564	-37.55
286.779	15.7
286.995	-4.78
287.21	-37.55
287.425	83.28
287.64	71
287.855	-31.4
288.07	-10.92
288.285	27.99
288.5	60.76
288.715	17.75
288.93	52.56
289.145	19.8
289.36	75.09
289.575	-10.92
289.79	-21.16
290.004	15.7
290.219	5.46
290.434	32.08
290.649	38.23
290.864	9.56
291.079	-8.87
291.294	46.42
291.509	-37.55
291.724	-4.78
291.938	34.13
292.153	52.56
292.368	-64.17
292.583	17.75
292.798	83.28
293.012	38.23
293.227	11.61
293.442	-45.74
293.657	54.61
293.871	58.71
294.086	34.13
294.301	50.52
294.516	64.85
294.73	103.76
294.945	25.94
295.16	83.28
295.374	66.9
295.589	-19.11
295.804	3.41
296.018	99.67
296.233	91.48
296.447	120.15
296.662	-58.03
296.877	-29.35
297.091	62.8
297.306	-47.79
297.52	-37.55
297.735	58.71
297.949	-15.02
298.164	-29.35
298.378	27.99
298.593	3.41
298.807	1.37
299.022	5.46
299.236	-21.16
299.451	38.23
299.665	68.95
299.88	58.71
300.094	23.89
300.309	120.15
300.523	-4.78
300.737	25.94
300.952	-4.78
301.166	27.99
301.381	-55.98
301.595	1.37
301.809	-27.31
302.024	32.08
302.238	-19.11
302.452	77.14
302.667	77.14
302.881	-10.92
303.095	62.8
303.309	25.94
303.524	1.37
303.738	19.8
303.952	85.33
304.166	66.9
304.381	-60.07
304.595	85.33
304.809	54.61
305.023	79.19
305.237	-6.83
305.452	68.95
305.666	50.52
305.88	42.32
306.094	66.9
306.308	17.75
306.522	27.99
306.736	50.52
306.95	1.37
307.164	21.85
307.379	-12.97
307.593	111.96
307.807	30.04
308.021	19.8
308.235	25.94
308.449	13.65
308.663	34.13
308.877	83.28
309.091	25.94
309.305	68.95
309.519	-43.69
309.733	9.56
309.947	-15.02
310.161	32.08
310.374	19.8
310.588	114
310.802	-6.83
311.016	42.32
311.23	36.18
311.444	-64.17
311.658	46.42
311.872	93.52
312.085	9.56
312.299	132.44
312.513	101.72
312.727	-10.92
312.941	21.85
313.154	-27.31
313.368	-0.68
313.582	60.76
313.796	54.61
314.009	-39.59
314.223	58.71
314.437	-10.92
314.651	120.15
314.864	25.94
315.078	56.66
315.292	1.37
315.505	17.75
315.719	58.71
315.933	66.9
316.146	116.05
316.36	25.94
316.573	79.19
316.787	44.37
317.001	68.95
317.214	34.13
317.428	34.13
317.641	62.8
317.855	11.61
318.068	21.85
318.282	79.19
318.495	95.57
318.709	38.23
318.922	44.37
319.136	91.48
319.349	50.52
319.563	42.32
319.776	58.71
319.99	-6.83
320.203	81.24
320.417	48.47
320.63	54.61
320.843	64.85
321.057	-12.97
321.27	-2.73
321.483	50.52
321.697	36.18
321.91	81.24
322.124	42.32
322.337	66.9
322.55	42.32
322.763	-25.26
322.977	89.43
323.19	52.56
323.403	-6.83
323.617	11.61
323.83	68.95
324.043	25.94
324.256	19.8
324.469	-55.98
324.683	7.51
324.896	62.8
325.109	25.94
325.322	81.24
325.535	17.75
325.748	128.34
325.962	68.95
326.175	34.13
326.388	38.23
326.601	44.37
326.814	-10.92
327.027	58.71
327.24	99.67
327.453	-27.31
327.666	75.09
327.879	87.38
328.092	62.8
328.305	34.13
328.518	58.71
328.731	75.09
328.944	46.42
329.157	-45.74
329.37	36.18
329.583	130.39
329.796	9.56
330.009	13.65
330.222	42.32
330.435	-23.21
330.648	60.76
330.861	58.71
331.073	60.76
331.286	107.86
331.499	58.71
331.712	58.71
331.925	-64.17
332.138	-12.97
332.35	44.37
332.563	30.04
332.776	44.37
332.989	11.61
333.202	-29.35
333.414	50.52
333.627	-0.68
333.84	-17.07
334.053	109.91
334.265	-2.73
334.478	34.13
334.691	9.56
334.903	34.13
335.116	107.86
335.329	-15.02
335.541	85.33
335.754	1.37
335.966	66.9
336.179	-0.68
336.392	34.13
336.604	11.61
336.817	21.85
337.029	52.56
337.242	-6.83
337.454	56.66
337.667	44.37
337.88	38.23
338.092	46.42
338.305	93.52
338.517	30.04
338.729	111.96
338.942	11.61
339.154	9.56
339.367	68.95
339.579	13.65
339.792	-49.83
340.004	30.04
340.217	30.04
340.429	36.18
340.641	3.41
340.854	1.37
341.066	7.51
341.278	-37.55
341.491	68.95
341.703	68.95
341.915	-15.02
342.128	34.13
342.34	-15.02
342.552	-12.97
342.764	32.08
342.977	44.37
343.189	25.94
343.401	19.8
343.613	-2.73
343.826	19.8
344.038	-62.12
344.25	13.65
344.462	9.56
344.674	25.94
344.886	13.65
345.099	77.14
345.311	13.65
345.523	15.7
345.735	85.33
345.947	36.18
346.159	50.52
346.371	54.61
346.583	58.71
346.795	50.52
347.007	-39.59
347.219	107.86
347.431	75.09
347.643	42.32
347.855	-2.73
348.067	126.29
348.279	52.56
348.491	-4.78
348.703	62.8
348.915	34.13
349.127	50.52
349.339	62.8
349.551	-23.21
349.763	103.76
349.975	132.44
350.187	58.71
350.399	134.48
350.61	34.13
350.822	11.61
351.034	75.09
351.246	75.09
351.458	21.85
351.669	42.32
351.881	50.52
352.093	-2.73
352.305	1.37
352.517	73.04
352.728	32.08
352.94	-15.02
353.152	30.04
353.363	32.08
353.575	9.56
353.787	132.44
353.999	42.32
354.21	60.76
354.422	32.08
354.633	44.37
354.845	-12.97
355.057	46.42
355.268	44.37
355.48	83.28
355.692	128.34
355.903	15.7
356.115	40.28
356.326	7.51
356.538	116.05
356.749	93.52
356.961	9.56
357.172	103.76
357.384	-51.88
357.595	128.34
357.807	38.23
358.018	-2.73
358.23	-12.97
358.441	91.48
358.653	-0.68
358.864	5.46
359.075	87.38
359.287	48.47
359.498	93.52
359.709	36.18
359.921	-4.78
360.132	-12.97
360.344	116.05
360.555	3.41
360.766	71
360.977	13.65
361.189	79.19
361.4	36.18
361.611	132.44
361.823	83.28
362.034	99.67
362.245	9.56
362.456	34.13
362.667	46.42
362.879	3.41
363.09	54.61
363.301	32.08
363.512	1.37
363.723	-10.92
363.935	-27.31
364.146	32.08
364.357	13.65
364.568	13.65
364.779	7.51
364.99	93.52
365.201	42.32
365.412	-43.69
365.623	-35.5
365.834	111.96
366.045	34.13
366.256	38.23
366.467	19.8
366.678	50.52
366.889	34.13
367.1	44.37
367.311	-21.16
367.522	81.24
367.733	30.04
367.944	50.52
368.155	56.66
368.366	36.18
368.577	64.85
368.788	19.8
368.999	58.71
369.209	99.67
369.42	142.68
369.631	71
369.842	34.13
370.053	-8.87
370.264	105.81
370.474	5.46
370.685	54.61
370.896	62.8
371.107	17.75
371.317	40.28
371.528	40.28
371.739	48.47
371.95	62.8
372.16	60.76
372.371	42.32
372.582	91.48
372.792	75.09
373.003	36.18
373.214	-8.87
373.424	83.28
373.635	3.41
373.846	48.47
374.056	25.94
374.267	68.95
374.477	58.71
374.688	50.52
374.898	15.7
375.109	103.76
375.319	50.52
375.53	128.34
375.74	-21.16
375.951	32.08
376.161	5.46
376.372	64.85
376.582	46.42
376.793	36.18
377.003	44.37
377.214	27.99
377.424	30.04
377.635	40.28
377.845	1.37
378.055	50.52
378.266	-15.02
378.476	-27.31
378.686	66.9
378.897	-15.02
379.107	71
379.317	75.09
379.528	42.32
379.738	118.1
379.948	-4.78
380.158	81.24
380.369	83.28
380.579	-10.92
380.789	73.04
380.999	185.68
381.21	81.24
381.42	83.28
381.63	42.32
381.84	73.04
382.05	71
382.261	116.05
382.471	75.09
382.681	48.47
382.891	68.95
383.101	5.46
383.311	-4.78
383.521	27.99
383.731	62.8
383.941	116.05
384.151	66.9
384.361	30.04
384.571	44.37
384.781	5.46
384.991	50.52
385.201	120.15
385.411	77.14
385.621	46.42
385.831	52.56
386.041	27.99
386.251	48.47
386.461	75.09
386.671	-21.16
386.881	25.94
387.091	52.56
387.301	71
387.511	52.56
387.72	-15.02
387.93	21.85
388.14	91.48
388.35	56.66
388.56	50.52
388.769	66.9
388.979	101.72
389.189	1.37
389.399	-39.59
389.609	56.66
389.818	62.8
390.028	13.65
390.238	73.04
390.447	56.66
390.657	66.9
390.867	-2.73
391.076	19.8
391.286	50.52
391.496	101.72
391.705	42.32
391.915	99.67
392.125	44.37
392.334	52.56
392.544	111.96
392.753	91.48
392.963	50.52
393.172	-31.4
393.382	-47.79
393.591	93.52
393.801	34.13
394.01	97.62
394.22	50.52
394.429	27.99
394.639	116.05
394.848	95.57
395.058	62.8
395.267	81.24
395.477	124.24
395.686	58.71
395.895	126.29
396.105	107.86
396.314	202.07
396.524	87.38
396.733	83.28
396.942	85.33
397.152	111.96
397.361	66.9
397.57	73.04
397.78	103.76
397.989	66.9
398.198	167.25
398.407	54.61
398.617	-0.68
398.826	19.8
399.035	34.13
399.244	124.24
399.453	132.44
399.663	124.24
399.872	122.2
400.081	56.66
400.29	50.52
400.499	32.08
400.708	134.48
400.917	118.1
401.127	64.85
401.336	48.47
401.545	165.2
401.754	150.87
401.963	50.52
402.172	126.29
402.381	132.44
402.59	85.33
402.799	109.91
403.008	85.33
403.217	181.59
403.426	128.34
403.635	68.95
403.844	99.67
404.053	114
404.262	152.92
404.471	95.57
404.68	99.67
404.888	142.68
405.097	122.2
405.306	122.2
405.515	193.87
405.724	159.06
405.933	152.92
406.142	132.44
406.35	195.92
406.559	116.05
406.768	173.39
406.977	91.48
407.185	185.68
407.394	177.49
407.603	177.49
407.812	197.97
408.02	220.5
408.229	202.07
408.438	134.48
408.646	171.35
408.855	259.41
409.064	326.99
409.272	245.07
409.481	224.59
409.69	265.55
409.898	183.63
410.107	273.75
410.315	292.18
410.524	218.45
410.733	271.7
410.941	193.87
411.15	398.67
411.358	283.99
411.567	361.81
411.775	324.94
411.984	378.19
412.192	394.58
412.401	437.58
412.609	402.77
412.818	476.49
413.026	394.58
413.234	415.06
413.443	476.49
413.651	439.63
413.86	427.34
414.068	548.17
414.276	574.8
414.485	587.08
414.693	599.37
414.901	566.6
415.11	560.46
415.318	675.15
415.526	562.51
415.734	634.19
415.943	693.58
416.151	767.31
416.359	691.53
416.567	775.5
416.776	734.54
416.984	847.18
417.192	863.56
417.4	804.17
417.608	789.83
417.817	1025.35
418.025	853.32
418.233	1013.06
418.441	906.57
418.649	980.29
418.857	1168.71
419.065	1111.36
419.273	1066.31
419.481	1041.73
419.689	1279.3
419.897	1305.92
420.105	1264.96
420.313	1312.07
420.521	1369.41
420.729	1451.33
420.937	1389.89
421.145	1561.92
421.353	1555.77
421.561	1615.16
421.769	1647.93
421.977	1774.91
422.185	1733.95
422.393	1891.64
422.601	1918.26
422.809	2028.85
423.017	2000.18
423.224	1975.61
423.432	2043.19
423.64	2075.96
423.848	2307.38
424.056	2217.27
424.263	2454.83
424.471	2477.36
424.679	2542.89
424.887	2671.92
425.094	2639.15
425.302	2790.7
425.51	2819.37
425.718	2899.24
425.925	3026.22
426.133	3063.08
426.341	3302.69
426.548	3403.04
426.756	3476.77
426.964	3487.01
427.171	3644.7
427.379	3679.52
427.586	3738.91
427.794	3794.2
428.001	4048.15
428.209	4105.49
428.417	4082.97
428.624	4486.42
428.832	4513.04
429.039	4312.34
429.247	4308.24
429.454	4760.84
429.662	5039.37
429.869	4717.84
430.076	5231.88
430.284	5004.55
430.491	5395.72
430.699	5543.17
430.906	5506.31
431.114	5555.46
431.321	5727.49
431.528	5958.91
431.736	6214.9
431.943	6743.28
432.15	6339.83
432.358	6466.8
432.565	6829.29
432.772	6769.9
432.979	7116.01
433.187	7113.96
433.394	7191.78
433.601	7742.69
433.808	7816.41
434.016	7861.47
434.223	8041.69
434.43	8588.5
434.637	8471.76
434.844	8725.71
435.052	8936.65
435.259	9120.97
435.466	9053.39
435.673	8996.04
435.88	9604.29
436.087	10112.19
436.294	10261.69
436.501	9991.36
436.708	10003.64
436.915	10527.92
437.122	10785.97
437.329	10939.57
437.537	10966.19
437.743	11465.89
437.95	11293.86
438.157	11871.39
438.364	12111
438.571	12481.69
438.778	12371.1
438.985	13528.2
439.192	12919.95
439.399	13218.96
439.606	13118.61
439.813	13646.98
440.02	14607.48
440.227	14144.64
440.433	14339.19
440.64	14902.39
440.847	14494.84
441.054	15025.26
441.261	15996
441.467	15631.46
441.674	15959.14
441.881	16143.45
442.088	16395.36
442.294	16532.57
442.501	16802.9
442.708	17114.19
442.914	17630.28
443.121	18607.16
443.328	18089.03
443.534	19295.28
443.741	18830.39
443.948	18428.99
444.154	19940.39
444.361	19801.13
444.568	19797.03
444.774	19745.83
444.981	20302.88
445.187	20648.99
445.394	21560.33
445.6	21199.89
445.807	23436.27
446.013	22242.31
446.22	22516.73
446.426	23413.74
446.633	23671.79
446.839	24781.79
447.046	23372.78
447.252	24564.7
447.459	24783.84
447.665	24759.26
447.871	25732.04
448.078	27153.33
448.284	25535.44
448.491	26747.84
448.697	27376.56
448.903	28210.09
449.11	28076.97
449.316	27526.07
449.522	27962.28
449.728	28631.97
449.935	28912.54
450.141	28961.69
450.347	29655.95
450.553	28500.9
450.76	28869.53
450.966	30104.46
451.172	30006.16
451.378	30550.92
451.584	30260.1
451.791	30686.08
451.997	30512
452.203	30974.84
452.409	31163.26
452.615	31075.2
452.821	29516.69
453.027	29254.55
453.233	30993.28
453.44	29696.91
453.646	30167.94
453.852	30120.84
454.058	30669.7
454.264	29600.66
454.47	30628.74
454.676	29619.09
454.882	30395.27
455.088	28052.39
455.294	28525.47
455.5	28945.31
455.705	29410.2
455.911	27741.1
456.117	27724.72
456.323	27165.62
456.529	25871.31
456.735	27001.79
456.941	25961.42
457.147	25988.04
457.352	24982.49
457.558	24724.44
457.764	25000.92
457.97	24564.7
458.176	23983.08
458.381	23878.63
458.587	22608.89
458.793	22955
458.999	21650.44
459.204	23270.39
459.41	22506.49
459.616	21181.46
459.821	21050.39
460.027	20943.89
460.233	20276.26
460.438	19516.46
460.644	19717.16
460.85	18836.53
461.055	18400.32
461.261	18445.37
461.466	16938.07
461.672	16573.53
461.878	17888.32
462.083	16577.62
462.289	16237.66
462.494	16006.24
462.7	15402.09
462.905	15305.84
463.111	15557.74
463.316	15510.63
463.522	15346.8
463.727	15070.32
463.932	15309.93
464.138	14969.97
464.343	15221.87
464.549	14838.9
464.754	15211.63
464.959	15322.22
465.165	14894.19
465.37	14457.98
465.575	13821.06
465.781	14337.15
465.986	14439.54
466.191	14128.25
466.397	13712.52
466.602	12983.44
466.807	13448.33
467.012	13505.67
467.218	13481.1
467.423	13474.95
467.628	13382.79
467.833	14226.56
468.038	13487.24
