Data from USB4F104151__53__14-17-00-881.txt Node

Date: Thu Mar 13 14:17:00 EDT 2025
User: louis
Spectrometer: USB4F10415
Trigger mode: 4
Integration Time (sec): 2.000000E-2
Scans to average: 1
Electric dark correction enabled: true
Nonlinearity correction enabled: false
Boxcar width: 0
XAxis mode: Wavelengths
Number of Pixels in Spectrum: 3648
>>>>>Begin Spectral Data<<<<<
178.204	-88.4
178.424	-88.4
178.644	-88.4
178.864	-92.5
179.084	-104.79
179.304	26.28
179.524	-12.63
179.744	-24.92
179.964	13.99
180.184	48.81
180.404	54.95
180.624	42.67
180.844	-33.11
181.064	-47.44
181.283	-18.77
181.503	-10.58
181.723	-39.25
181.943	-10.58
182.163	83.63
182.383	38.57
182.602	50.86
182.822	42.67
183.042	38.57
183.262	-6.49
183.482	89.77
183.701	-18.77
183.921	-10.58
184.141	-24.92
184.361	54.95
184.58	13.99
184.8	46.76
185.02	-14.68
185.239	42.67
185.459	79.53
185.679	40.62
185.898	-86.36
186.118	30.38
186.338	67.24
186.557	57
186.777	-24.92
186.997	54.95
187.216	13.99
187.436	24.23
187.655	16.04
187.875	24.23
188.095	34.47
188.314	52.91
188.534	102.06
188.753	30.38
188.973	26.28
189.192	75.43
189.412	-6.49
189.631	89.77
189.851	32.43
190.07	34.47
190.29	-18.77
190.509	46.76
190.729	30.38
190.948	65.19
191.168	73.39
191.387	95.91
191.607	79.53
191.826	87.72
192.045	3.75
192.265	18.09
192.484	112.3
192.704	71.34
192.923	30.38
193.142	26.28
193.362	50.86
193.581	71.34
193.8	7.85
194.02	85.67
194.239	-6.49
194.458	77.48
194.678	5.8
194.897	13.99
195.116	48.81
195.335	7.85
195.555	-29.01
195.774	32.43
195.993	71.34
196.212	38.57
196.432	42.67
196.651	34.47
196.87	22.19
197.089	65.19
197.308	50.86
197.528	77.48
197.747	95.91
197.966	40.62
198.185	112.3
198.404	38.57
198.623	26.28
198.842	32.43
199.062	124.58
199.281	87.72
199.5	5.8
199.719	118.44
199.938	57
200.157	65.19
200.376	77.48
200.595	124.58
200.814	73.39
201.033	40.62
201.252	67.24
201.471	57
201.69	77.48
201.909	61.1
202.128	38.57
202.347	75.43
202.566	-12.63
202.785	-4.44
203.004	46.76
203.223	89.77
203.442	118.44
203.661	22.19
203.879	54.95
204.098	112.3
204.317	3.75
204.536	83.63
204.755	22.19
204.974	24.23
205.193	83.63
205.411	67.24
205.63	89.77
205.849	120.49
206.068	-0.34
206.287	9.9
206.505	95.91
206.724	3.75
206.943	-2.39
207.162	100.01
207.381	-6.49
207.599	22.19
207.818	91.82
208.037	63.15
208.255	22.19
208.474	38.57
208.693	65.19
208.911	28.33
209.13	89.77
209.349	106.15
209.567	93.87
209.786	65.19
210.005	30.38
210.223	48.81
210.442	1.71
210.661	102.06
210.879	18.09
211.098	9.9
211.316	91.82
211.535	26.28
211.753	65.19
211.972	-0.34
212.191	63.15
212.409	20.14
212.628	30.38
212.846	-14.68
213.065	38.57
213.283	63.15
213.502	-14.68
213.72	24.23
213.938	22.19
214.157	63.15
214.375	7.85
214.594	116.39
214.812	22.19
215.031	145.06
215.249	48.81
215.467	-10.58
215.686	77.48
215.904	18.09
216.122	44.71
216.341	34.47
216.559	100.01
216.778	116.39
216.996	38.57
217.214	-33.11
217.432	61.1
217.651	59.05
217.869	18.09
218.087	116.39
218.306	-20.82
218.524	69.29
218.742	28.33
218.96	30.38
219.179	-49.49
219.397	65.19
219.615	134.82
219.833	48.81
220.051	46.76
220.27	42.67
220.488	9.9
220.706	9.9
220.924	44.71
221.142	-2.39
221.36	110.25
221.578	42.67
221.796	28.33
222.015	32.43
222.233	24.23
222.451	63.15
222.669	40.62
222.887	-12.63
223.105	22.19
223.323	40.62
223.541	46.76
223.759	63.15
223.977	5.8
224.195	91.82
224.413	22.19
224.631	3.75
224.849	61.1
225.067	120.49
225.285	11.95
225.503	30.38
225.721	9.9
225.939	-0.34
226.157	-0.34
226.375	114.34
226.592	30.38
226.81	-14.68
227.028	112.3
227.246	116.39
227.464	1.71
227.682	38.57
227.9	50.86
228.117	83.63
228.335	7.85
228.553	67.24
228.771	63.15
228.989	52.91
229.206	13.99
229.424	34.47
229.642	69.29
229.86	38.57
230.077	50.86
230.295	91.82
230.513	73.39
230.731	73.39
230.948	128.68
231.166	104.11
231.384	16.04
231.601	-4.44
231.819	149.16
232.037	-0.34
232.254	7.85
232.472	44.71
232.689	-14.68
232.907	71.34
233.125	48.81
233.342	13.99
233.56	-26.96
233.777	-2.39
233.995	-10.58
234.213	79.53
234.43	38.57
234.648	13.99
234.865	-39.25
235.083	18.09
235.3	38.57
235.518	22.19
235.735	134.82
235.953	134.82
236.17	24.23
236.388	22.19
236.605	54.95
236.822	26.28
237.04	81.58
237.257	32.43
237.475	-8.53
237.692	18.09
237.909	42.67
238.127	7.85
238.344	30.38
238.562	100.01
238.779	34.47
238.996	5.8
239.214	30.38
239.431	71.34
239.648	104.11
239.865	48.81
240.083	-2.39
240.3	104.11
240.517	34.47
240.735	67.24
240.952	89.77
241.169	120.49
241.386	22.19
241.603	24.23
241.821	-22.87
242.038	79.53
242.255	26.28
242.472	22.19
242.689	95.91
242.907	89.77
243.124	-18.77
243.341	40.62
243.558	57
243.775	16.04
243.992	1.71
244.209	52.91
244.426	95.91
244.643	22.19
244.86	-20.82
245.078	-37.2
245.295	48.81
245.512	38.57
245.729	13.99
245.946	38.57
246.163	20.14
246.38	52.91
246.597	67.24
246.814	-12.63
247.031	65.19
247.248	57
247.464	132.78
247.681	54.95
247.898	52.91
248.115	100.01
248.332	79.53
248.549	104.11
248.766	95.91
248.983	38.57
249.2	50.86
249.417	1.71
249.633	24.23
249.85	136.87
250.067	81.58
250.284	-0.34
250.501	18.09
250.717	5.8
250.934	65.19
251.151	16.04
251.368	63.15
251.585	83.63
251.801	5.8
252.018	9.9
252.235	1.71
252.451	30.38
252.668	30.38
252.885	30.38
253.102	-22.87
253.318	-6.49
253.535	46.76
253.752	50.86
253.968	16.04
254.185	22.19
254.401	63.15
254.618	-43.35
254.835	7.85
255.051	134.82
255.268	100.01
255.484	-41.3
255.701	3.75
255.917	124.58
256.134	-8.53
256.351	67.24
256.567	102.06
256.784	69.29
257	63.15
257.217	79.53
257.433	89.77
257.65	46.76
257.866	30.38
258.082	-65.88
258.299	-14.68
258.515	36.52
258.732	-10.58
258.948	24.23
259.165	102.06
259.381	54.95
259.597	102.06
259.814	79.53
260.03	28.33
260.246	57
260.463	73.39
260.679	93.87
260.895	97.96
261.112	120.49
261.328	-6.49
261.544	1.71
261.761	54.95
261.977	-24.92
262.193	46.76
262.409	100.01
262.626	30.38
262.842	9.9
263.058	5.8
263.274	38.57
263.49	63.15
263.707	59.05
263.923	77.48
264.139	18.09
264.355	-18.77
264.571	30.38
264.787	79.53
265.004	63.15
265.22	87.72
265.436	38.57
265.652	-67.92
265.868	65.19
266.084	-0.34
266.3	138.92
266.516	20.14
266.732	38.57
266.948	106.15
267.164	65.19
267.38	32.43
267.596	102.06
267.812	89.77
268.028	71.34
268.244	16.04
268.46	63.15
268.676	50.86
268.892	46.76
269.108	5.8
269.324	59.05
269.54	95.91
269.756	42.67
269.972	18.09
270.188	38.57
270.403	13.99
270.619	67.24
270.835	102.06
271.051	81.58
271.267	13.99
271.483	63.15
271.698	75.43
271.914	42.67
272.13	83.63
272.346	22.19
272.562	26.28
272.777	57
272.993	93.87
273.209	57
273.425	30.38
273.64	-26.96
273.856	16.04
274.072	59.05
274.287	32.43
274.503	-12.63
274.719	57
274.934	5.8
275.15	-2.39
275.366	9.9
275.581	20.14
275.797	67.24
276.012	91.82
276.228	46.76
276.444	42.67
276.659	54.95
276.875	40.62
277.09	5.8
277.306	18.09
277.521	28.33
277.737	40.62
277.952	116.39
278.168	106.15
278.383	18.09
278.599	87.72
278.814	83.63
279.03	34.47
279.245	97.96
279.461	67.24
279.676	104.11
279.892	-8.53
280.107	5.8
280.322	46.76
280.538	81.58
280.753	22.19
280.969	171.69
281.184	30.38
281.399	48.81
281.615	79.53
281.83	97.96
282.045	-65.88
282.26	83.63
282.476	24.23
282.691	71.34
282.906	108.2
283.122	20.14
283.337	7.85
283.552	5.8
283.767	95.91
283.983	7.85
284.198	-39.25
284.413	75.43
284.628	59.05
284.843	67.24
285.058	30.38
285.274	52.91
285.489	57
285.704	48.81
285.919	13.99
286.134	65.19
286.349	38.57
286.564	26.28
286.779	106.15
286.995	1.71
287.21	52.91
287.425	89.77
287.64	9.9
287.855	50.86
288.07	50.86
288.285	87.72
288.5	59.05
288.715	28.33
288.93	3.75
289.145	48.81
289.36	95.91
289.575	59.05
289.79	145.06
290.004	-2.39
290.219	100.01
290.434	13.99
290.649	128.68
290.864	-8.53
291.079	-0.34
291.294	50.86
291.509	7.85
291.724	7.85
291.938	28.33
292.153	30.38
292.368	30.38
292.583	32.43
292.798	18.09
293.012	67.24
293.227	32.43
293.442	73.39
293.657	126.63
293.871	71.34
294.086	7.85
294.301	128.68
294.516	3.75
294.73	42.67
294.945	46.76
295.16	46.76
295.374	89.77
295.589	50.86
295.804	126.63
296.018	30.38
296.233	149.16
296.447	42.67
296.662	71.34
296.877	38.57
297.091	57
297.306	9.9
297.52	44.71
297.735	46.76
297.949	13.99
298.164	63.15
298.378	11.95
298.593	22.19
298.807	65.19
299.022	38.57
299.236	38.57
299.451	97.96
299.665	65.19
299.88	67.24
300.094	22.19
300.309	61.1
300.523	32.43
300.737	38.57
300.952	63.15
301.166	67.24
301.381	-0.34
301.595	89.77
301.809	104.11
302.024	132.78
302.238	36.52
302.452	54.95
302.667	87.72
302.881	46.76
303.095	52.91
303.309	83.63
303.524	95.91
303.738	77.48
303.952	42.67
304.166	-22.87
304.381	71.34
304.595	50.86
304.809	-59.73
305.023	13.99
305.237	26.28
305.452	42.67
305.666	44.71
305.88	87.72
306.094	69.29
306.308	75.43
306.522	122.54
306.736	40.62
306.95	30.38
307.164	44.71
307.379	97.96
307.593	128.68
307.807	83.63
308.021	34.47
308.235	5.8
308.449	22.19
308.663	36.52
308.877	157.35
309.091	13.99
309.305	42.67
309.519	40.62
309.733	34.47
309.947	24.23
310.161	59.05
310.374	26.28
310.588	110.25
310.802	-22.87
311.016	-14.68
311.23	-8.53
311.444	106.15
311.658	63.15
311.872	18.09
312.085	104.11
312.299	81.58
312.513	75.43
312.727	48.81
312.941	26.28
313.154	87.72
313.368	42.67
313.582	28.33
313.796	13.99
314.009	120.49
314.223	54.95
314.437	95.91
314.651	91.82
314.864	-51.54
315.078	77.48
315.292	67.24
315.505	-10.58
315.719	91.82
315.933	16.04
316.146	57
316.36	46.76
316.573	40.62
316.787	46.76
317.001	104.11
317.214	63.15
317.428	30.38
317.641	46.76
317.855	110.25
318.068	11.95
318.282	79.53
318.495	89.77
318.709	100.01
318.922	81.58
319.136	24.23
319.349	110.25
319.563	26.28
319.776	57
319.99	85.67
320.203	54.95
320.417	50.86
320.63	50.86
320.843	138.92
321.057	38.57
321.27	138.92
321.483	79.53
321.697	48.81
321.91	87.72
322.124	42.67
322.337	112.3
322.55	67.24
322.763	59.05
322.977	116.39
323.19	13.99
323.403	63.15
323.617	145.06
323.83	114.34
324.043	46.76
324.256	32.43
324.469	-2.39
324.683	69.29
324.896	38.57
325.109	1.71
325.322	34.47
325.535	95.91
325.748	67.24
325.962	61.1
326.175	46.76
326.388	100.01
326.601	126.63
326.814	114.34
327.027	36.52
327.24	122.54
327.453	7.85
327.666	-33.11
327.879	71.34
328.092	40.62
328.305	69.29
328.518	97.96
328.731	16.04
328.944	81.58
329.157	18.09
329.37	67.24
329.583	67.24
329.796	87.72
330.009	28.33
330.222	57
330.435	57
330.648	54.95
330.861	38.57
331.073	38.57
331.286	52.91
331.499	73.39
331.712	52.91
331.925	36.52
332.138	30.38
332.35	106.15
332.563	81.58
332.776	87.72
332.989	-0.34
333.202	30.38
333.414	52.91
333.627	38.57
333.84	102.06
334.053	63.15
334.265	1.71
334.478	67.24
334.691	71.34
334.903	28.33
335.116	57
335.329	116.39
335.541	22.19
335.754	145.06
335.966	-8.53
336.179	147.11
336.392	87.72
336.604	52.91
336.817	7.85
337.029	18.09
337.242	24.23
337.454	118.44
337.667	26.28
337.88	22.19
338.092	83.63
338.305	46.76
338.517	50.86
338.729	87.72
338.942	46.76
339.154	52.91
339.367	20.14
339.579	79.53
339.792	93.87
340.004	106.15
340.217	75.43
340.429	46.76
340.641	16.04
340.854	89.77
341.066	3.75
341.278	13.99
341.491	54.95
341.703	67.24
341.915	13.99
342.128	5.8
342.34	63.15
342.552	106.15
342.764	30.38
342.977	73.39
343.189	46.76
343.401	128.68
343.613	32.43
343.826	97.96
344.038	28.33
344.25	48.81
344.462	18.09
344.674	30.38
344.886	87.72
345.099	75.43
345.311	73.39
345.523	44.71
345.735	7.85
345.947	61.1
346.159	24.23
346.371	87.72
346.583	50.86
346.795	75.43
347.007	-4.44
347.219	30.38
347.431	32.43
347.643	18.09
347.855	61.1
348.067	79.53
348.279	81.58
348.491	81.58
348.703	22.19
348.915	67.24
349.127	132.78
349.339	63.15
349.551	71.34
349.763	79.53
349.975	50.86
350.187	67.24
350.399	89.77
350.61	59.05
350.822	30.38
351.034	59.05
351.246	46.76
351.458	22.19
351.669	54.95
351.881	104.11
352.093	52.91
352.305	5.8
352.517	114.34
352.728	89.77
352.94	71.34
353.152	97.96
353.363	5.8
353.575	87.72
353.787	57
353.999	112.3
354.21	71.34
354.422	71.34
354.633	-8.53
354.845	16.04
355.057	67.24
355.268	114.34
355.48	128.68
355.692	83.63
355.903	85.67
356.115	5.8
356.326	-2.39
356.538	114.34
356.749	79.53
356.961	104.11
357.172	52.91
357.384	50.86
357.595	130.73
357.807	75.43
358.018	-2.39
358.23	136.87
358.441	120.49
358.653	18.09
358.864	40.62
359.075	22.19
359.287	136.87
359.498	104.11
359.709	67.24
359.921	89.77
360.132	157.35
360.344	108.2
360.555	7.85
360.766	28.33
360.977	57
361.189	65.19
361.4	57
361.611	116.39
361.823	104.11
362.034	30.38
362.245	-6.49
362.456	32.43
362.667	118.44
362.879	87.72
363.09	46.76
363.301	61.1
363.512	124.58
363.723	69.29
363.935	73.39
364.146	22.19
364.357	112.3
364.568	120.49
364.779	26.28
364.99	120.49
365.201	42.67
365.412	153.26
365.623	71.34
365.834	83.63
366.045	104.11
366.256	54.95
366.467	100.01
366.678	28.33
366.889	67.24
367.1	63.15
367.311	46.76
367.522	57
367.733	110.25
367.944	77.48
368.155	85.67
368.366	128.68
368.577	54.95
368.788	54.95
368.999	59.05
369.209	63.15
369.42	159.4
369.631	138.92
369.842	32.43
370.053	-14.68
370.264	73.39
370.474	30.38
370.685	38.57
370.896	79.53
371.107	112.3
371.317	71.34
371.528	20.14
371.739	71.34
371.95	149.16
372.16	122.54
372.371	46.76
372.582	61.1
372.792	46.76
373.003	24.23
373.214	57
373.424	89.77
373.635	143.02
373.846	63.15
374.056	42.67
374.267	67.24
374.477	124.58
374.688	38.57
374.898	128.68
375.109	95.91
375.319	69.29
375.53	34.47
375.74	26.28
375.951	85.67
376.161	147.11
376.372	85.67
376.582	59.05
376.793	16.04
377.003	46.76
377.214	167.59
377.424	42.67
377.635	1.71
377.845	42.67
378.055	22.19
378.266	54.95
378.476	52.91
378.686	7.85
378.897	89.77
379.107	108.2
379.317	83.63
379.528	81.58
379.738	104.11
379.948	16.04
380.158	20.14
380.369	40.62
380.579	67.24
380.789	48.81
380.999	106.15
381.21	114.34
381.42	-2.39
381.63	87.72
381.84	124.58
382.05	128.68
382.261	75.43
382.471	190.12
382.681	34.47
382.891	61.1
383.101	91.82
383.311	67.24
383.521	106.15
383.731	73.39
383.941	97.96
384.151	134.82
384.361	100.01
384.571	20.14
384.781	75.43
384.991	46.76
385.201	114.34
385.411	114.34
385.621	93.87
385.831	65.19
386.041	16.04
386.251	161.45
386.461	69.29
386.671	81.58
386.881	91.82
387.091	91.82
387.301	65.19
387.511	32.43
387.72	52.91
387.93	50.86
388.14	114.34
388.35	59.05
388.56	104.11
388.769	73.39
388.979	67.24
389.189	30.38
389.399	50.86
389.609	42.67
389.818	95.91
390.028	83.63
390.238	63.15
390.447	46.76
390.657	91.82
390.867	83.63
391.076	18.09
391.286	69.29
391.496	63.15
391.705	46.76
391.915	38.57
392.125	71.34
392.334	46.76
392.544	128.68
392.753	89.77
392.963	97.96
393.172	134.82
393.382	46.76
393.591	171.69
393.801	52.91
394.01	112.3
394.22	120.49
394.429	79.53
394.639	128.68
394.848	122.54
395.058	63.15
395.267	77.48
395.477	59.05
395.686	100.01
395.895	126.63
396.105	128.68
396.314	95.91
396.524	136.87
396.733	110.25
396.942	122.54
397.152	175.78
397.361	100.01
397.57	95.91
397.78	104.11
397.989	57
398.198	233.13
398.407	38.57
398.617	36.52
398.826	163.5
399.035	143.02
399.244	108.2
399.453	145.06
399.663	130.73
399.872	122.54
400.081	48.81
400.29	181.93
400.499	120.49
400.708	89.77
400.917	77.48
401.127	114.34
401.336	87.72
401.545	140.97
401.754	151.21
401.963	204.46
402.172	95.91
402.381	108.2
402.59	153.26
402.799	143.02
403.008	120.49
403.217	204.46
403.426	122.54
403.635	106.15
403.844	112.3
404.053	194.22
404.262	226.98
404.471	198.31
404.68	136.87
404.888	186.02
405.097	65.19
405.306	194.22
405.515	132.78
405.724	196.26
405.933	204.46
406.142	192.17
406.35	255.65
406.559	272.04
406.768	202.41
406.977	210.6
407.185	186.02
407.394	272.04
407.603	210.6
407.812	208.55
408.02	267.94
408.229	245.41
408.438	259.75
408.646	247.46
408.855	229.03
409.064	204.46
409.272	290.47
409.481	394.92
409.69	321.19
409.898	284.33
410.107	345.77
410.315	343.72
410.524	292.52
410.733	278.18
410.941	315.05
411.15	319.14
411.358	448.16
411.567	370.34
411.775	442.02
411.984	446.12
412.192	513.7
412.401	399.01
412.609	550.56
412.818	517.79
413.026	497.32
413.234	450.21
413.443	530.08
413.651	448.16
413.86	560.8
414.068	564.9
414.276	634.53
414.485	587.43
414.693	679.58
414.901	650.91
415.11	663.2
415.318	693.92
415.526	736.93
415.734	769.69
415.943	708.26
416.151	800.41
416.359	863.9
416.567	808.61
416.776	855.71
416.984	943.77
417.192	951.96
417.4	925.34
417.608	870.05
417.817	941.72
418.025	1121.95
418.233	1062.55
418.441	1087.13
418.649	1066.65
418.857	1199.77
419.065	1214.1
419.273	1234.58
419.481	1312.41
419.689	1316.5
419.897	1386.13
420.105	1429.14
420.313	1525.4
420.521	1517.2
420.729	1629.84
420.937	1572.5
421.145	1635.99
421.353	1703.57
421.561	1777.3
421.769	1848.97
421.977	1959.56
422.185	1808.02
422.393	1982.09
422.601	2119.31
422.809	2150.03
423.017	2129.55
423.224	2287.24
423.432	2363.01
423.64	2307.72
423.848	2524.8
424.056	2446.98
424.263	2553.48
424.471	2629.25
424.679	2766.46
424.887	2934.4
425.094	3030.65
425.302	2885.25
425.51	3032.7
425.718	3192.44
425.925	3167.87
426.133	3348.09
426.341	3579.51
426.548	3622.52
426.756	3599.99
426.964	3669.62
427.171	3948.14
427.379	4144.75
427.586	4238.95
427.794	4214.38
428.001	4462.18
428.209	4419.18
428.417	4415.08
428.624	4806.24
428.832	4771.43
429.039	4859.49
429.247	4832.86
429.454	5287.51
429.662	5455.45
429.869	5209.69
430.076	5656.15
430.284	5248.6
430.491	5666.39
430.699	6082.13
430.906	5875.28
431.114	6084.17
431.321	6348.36
431.528	6403.66
431.736	6725.19
431.943	7153.21
432.15	6952.51
432.358	7030.34
432.565	7685.69
432.772	7315
432.979	7818.8
433.187	7800.37
433.394	7870
433.601	8513.06
433.808	8433.19
434.016	8343.08
434.223	8832.55
434.43	9340.44
434.637	9006.63
434.844	9623.06
435.052	9815.57
435.259	9803.29
435.466	9864.72
435.673	9721.37
435.88	10255.89
436.087	10776.07
436.294	10993.15
436.501	10470.92
436.708	10886.66
436.915	11021.83
437.122	11869.69
437.329	11589.11
437.537	12099.06
437.743	12418.54
437.95	12174.83
438.157	12783.08
438.364	13333.98
438.571	13172.19
438.778	13186.53
438.985	14579.15
439.192	13899.22
439.399	14323.15
439.606	13966.81
439.813	14955.97
440.02	15766.97
440.227	15367.62
440.433	15418.82
440.64	15719.87
440.847	15525.31
441.054	16276.91
441.261	17106.34
441.467	16743.85
441.674	17333.67
441.881	17911.19
442.088	17780.12
442.294	17702.3
442.501	18044.31
442.708	18617.74
442.914	19416.45
443.121	19830.14
443.328	19539.33
443.534	20788.59
443.741	20178.29
443.948	19957.11
444.154	21417.32
444.361	21570.91
444.568	21552.48
444.774	21173.61
444.981	21624.16
445.187	21982.56
445.394	23104.84
445.6	22904.14
445.807	24980.78
446.013	24134.97
446.22	24552.76
446.426	26164.51
446.633	25654.56
446.839	26598.68
447.046	25197.87
447.252	26445.08
447.459	27075.85
447.665	26451.22
447.871	28028.16
448.078	28943.6
448.284	27782.4
448.491	28507.38
448.697	29773.03
448.903	30356.7
449.11	30016.74
449.316	29568.23
449.522	30256.35
449.728	31036.63
449.935	30901.46
450.141	31347.92
450.347	31812.81
450.553	30940.37
450.76	31188.17
450.966	32482.49
451.172	32101.57
451.378	32842.93
451.584	32314.56
451.791	33268.91
451.997	32746.68
452.203	33266.86
452.409	33367.21
452.615	33434.8
452.821	31773.89
453.027	31534.28
453.233	33092.79
453.44	31886.53
453.646	32220.35
453.852	32548.03
454.058	33469.61
454.264	32126.14
454.47	32732.34
454.676	31845.57
454.882	33062.07
455.088	30239.97
455.294	30997.71
455.5	31360.2
455.705	31653.06
455.911	30561.5
456.117	29857
456.323	29439.21
456.529	27798.79
456.735	29367.53
456.941	28251.39
457.147	28167.42
457.352	27032.85
457.558	26803.47
457.764	26907.92
457.97	26510.61
458.176	25572.64
458.381	25922.85
458.587	24483.13
458.793	24282.42
458.999	23307.59
459.204	24927.53
459.41	24208.7
459.616	22869.33
459.821	22642
460.027	22525.27
460.233	22289.75
460.438	21112.17
460.644	21280.1
460.85	20309.36
461.055	20116.86
461.261	20012.41
461.466	18470.29
461.672	18144.66
461.878	19432.83
462.083	17931.67
462.289	17835.42
462.494	17663.39
462.7	16776.62
462.905	16117.17
463.111	16733.61
463.316	16743.85
463.522	16364.98
463.727	16487.86
463.932	16438.7
464.138	16352.69
464.343	16623.02
464.549	15873.46
464.754	16338.35
464.959	16356.79
465.165	16047.54
465.37	15322.56
465.575	14906.82
465.781	15521.21
465.986	15517.12
466.191	14947.78
466.397	14808.52
466.602	14104.02
466.807	14714.31
467.012	14829
467.218	14704.07
467.423	14169.55
467.628	14507.47
467.833	15078.85
