Data from USB4F104151__134__14-19-07-456.txt Node

Date: Thu Mar 13 14:19:07 EDT 2025
User: louis
Spectrometer: USB4F10415
Trigger mode: 4
Integration Time (sec): 2.000000E-2
Scans to average: 1
Electric dark correction enabled: true
Nonlinearity correction enabled: false
Boxcar width: 0
XAxis mode: Wavelengths
Number of Pixels in Spectrum: 3648
>>>>>Begin Spectral Data<<<<<
178.204	-139.94
178.424	-139.94
178.644	-139.94
178.864	-70.31
179.084	-39.59
179.304	-21.16
179.524	52.56
179.744	52.56
179.964	-123.56
180.184	11.61
180.404	-17.07
180.624	-10.92
180.844	-12.97
181.064	-21.16
181.283	27.99
181.503	40.28
181.723	21.85
181.943	3.41
182.163	36.18
182.383	13.65
182.602	101.72
182.822	19.8
183.042	120.15
183.262	-23.21
183.482	11.61
183.701	19.8
183.921	122.2
184.141	-6.83
184.361	-4.78
184.58	-8.87
184.8	105.81
185.02	79.19
185.239	111.96
185.459	-15.02
185.679	52.56
185.898	-8.87
186.118	1.37
186.338	42.32
186.557	46.42
186.777	54.61
186.997	-21.16
187.216	46.42
187.436	95.57
187.655	95.57
187.875	89.43
188.095	73.04
188.314	56.66
188.534	46.42
188.753	-43.69
188.973	11.61
189.192	60.76
189.412	5.46
189.631	34.13
189.851	40.28
190.07	77.14
190.29	30.04
190.509	-0.68
190.729	-29.35
190.948	71
191.168	126.29
191.387	56.66
191.607	-27.31
191.826	19.8
192.045	3.41
192.265	-12.97
192.484	75.09
192.704	34.13
192.923	36.18
193.142	105.81
193.362	32.08
193.581	48.47
193.8	81.24
194.02	79.19
194.239	15.7
194.458	124.24
194.678	36.18
194.897	68.95
195.116	-25.26
195.335	44.37
195.555	36.18
195.774	93.52
195.993	52.56
196.212	-8.87
196.432	-4.78
196.651	56.66
196.87	-37.55
197.089	99.67
197.308	60.76
197.528	91.48
197.747	17.75
197.966	56.66
198.185	38.23
198.404	40.28
198.623	23.89
198.842	79.19
199.062	40.28
199.281	48.47
199.5	11.61
199.719	34.13
199.938	21.85
200.157	46.42
200.376	85.33
200.595	73.04
200.814	46.42
201.033	38.23
201.252	32.08
201.471	44.37
201.69	81.24
201.909	25.94
202.128	7.51
202.347	-25.26
202.566	40.28
202.785	-41.64
203.004	19.8
203.223	77.14
203.442	23.89
203.661	89.43
203.879	1.37
204.098	66.9
204.317	-6.83
204.536	52.56
204.755	-37.55
204.974	99.67
205.193	85.33
205.411	71
205.63	68.95
205.849	60.76
206.068	7.51
206.287	89.43
206.505	17.75
206.724	-45.74
206.943	-2.73
207.162	48.47
207.381	93.52
207.599	83.28
207.818	56.66
208.037	85.33
208.255	11.61
208.474	44.37
208.693	38.23
208.911	62.8
209.13	60.76
209.349	118.1
209.567	30.04
209.786	114
210.005	66.9
210.223	38.23
210.442	3.41
210.661	52.56
210.879	52.56
211.098	-10.92
211.316	-2.73
211.535	79.19
211.753	40.28
211.972	87.38
212.191	85.33
212.409	52.56
212.628	-37.55
212.846	48.47
213.065	38.23
213.283	93.52
213.502	21.85
213.72	11.61
213.938	114
214.157	81.24
214.375	-12.97
214.594	25.94
214.812	50.52
215.031	77.14
215.249	34.13
215.467	62.8
215.686	27.99
215.904	126.29
216.122	60.76
216.341	44.37
216.559	73.04
216.778	15.7
216.996	46.42
217.214	40.28
217.432	21.85
217.651	-21.16
217.869	-58.03
218.087	13.65
218.306	64.85
218.524	48.47
218.742	-37.55
218.96	60.76
219.179	-21.16
219.397	11.61
219.615	52.56
219.833	54.61
220.051	27.99
220.27	89.43
220.488	97.62
220.706	68.95
220.924	19.8
221.142	-2.73
221.36	42.32
221.578	56.66
221.796	32.08
222.015	-12.97
222.233	-21.16
222.451	85.33
222.669	-10.92
222.887	62.8
223.105	-45.74
223.323	60.76
223.541	15.7
223.759	56.66
223.977	73.04
224.195	97.62
224.413	3.41
224.631	73.04
224.849	-2.73
225.067	109.91
225.285	85.33
225.503	60.76
225.721	-23.21
225.939	87.38
226.157	36.18
226.375	85.33
226.592	17.75
226.81	71
227.028	15.7
227.246	44.37
227.464	27.99
227.682	44.37
227.9	21.85
228.117	56.66
228.335	27.99
228.553	-2.73
228.771	89.43
228.989	50.52
229.206	64.85
229.424	-21.16
229.642	32.08
229.86	38.23
230.077	109.91
230.295	32.08
230.513	36.18
230.731	-17.07
230.948	152.92
231.166	36.18
231.384	25.94
231.601	38.23
231.819	150.87
232.037	-17.07
232.254	48.47
232.472	60.76
232.689	23.89
232.907	62.8
233.125	9.56
233.342	42.32
233.56	7.51
233.777	-0.68
233.995	60.76
234.213	142.68
234.43	71
234.648	95.57
234.865	21.85
235.083	19.8
235.3	56.66
235.518	7.51
235.735	-27.31
235.953	103.76
236.17	5.46
236.388	68.95
236.605	15.7
236.822	40.28
237.04	77.14
237.257	21.85
237.475	3.41
237.692	62.8
237.909	56.66
238.127	15.7
238.344	19.8
238.562	109.91
238.779	13.65
238.996	-74.41
239.214	48.47
239.431	114
239.648	3.41
239.865	101.72
240.083	17.75
240.3	-12.97
240.517	23.89
240.735	19.8
240.952	124.24
241.169	40.28
241.386	-51.88
241.603	7.51
241.821	-2.73
242.038	11.61
242.255	54.61
242.472	-19.11
242.689	42.32
242.907	68.95
243.124	38.23
243.341	103.76
243.558	7.51
243.775	118.1
243.992	-19.11
244.209	93.52
244.426	85.33
244.643	122.2
244.86	54.61
245.078	99.67
245.295	56.66
245.512	-12.97
245.729	17.75
245.946	81.24
246.163	60.76
246.38	68.95
246.597	19.8
246.814	17.75
247.031	17.75
247.248	13.65
247.464	3.41
247.681	3.41
247.898	68.95
248.115	81.24
248.332	-25.26
248.549	105.81
248.766	73.04
248.983	-0.68
249.2	111.96
249.417	36.18
249.633	32.08
249.85	48.47
250.067	-4.78
250.284	38.23
250.501	19.8
250.717	134.48
250.934	7.51
251.151	-4.78
251.368	87.38
251.585	146.77
251.801	3.41
252.018	17.75
252.235	19.8
252.451	-10.92
252.668	64.85
252.885	-29.35
253.102	23.89
253.318	93.52
253.535	77.14
253.752	-4.78
253.968	21.85
254.185	-10.92
254.401	-10.92
254.618	46.42
254.835	21.85
255.051	95.57
255.268	64.85
255.484	85.33
255.701	11.61
255.917	73.04
256.134	-12.97
256.351	25.94
256.567	5.46
256.784	85.33
257	71
257.217	60.76
257.433	56.66
257.65	19.8
257.866	42.32
258.082	-23.21
258.299	9.56
258.515	79.19
258.732	40.28
258.948	40.28
259.165	116.05
259.381	77.14
259.597	75.09
259.814	52.56
260.03	-4.78
260.246	64.85
260.463	40.28
260.679	75.09
260.895	77.14
261.112	83.28
261.328	19.8
261.544	27.99
261.761	77.14
261.977	-21.16
262.193	1.37
262.409	56.66
262.626	30.04
262.842	81.24
263.058	52.56
263.274	15.7
263.49	85.33
263.707	23.89
263.923	101.72
264.139	21.85
264.355	17.75
264.571	60.76
264.787	48.47
265.004	62.8
265.22	54.61
265.436	44.37
265.652	44.37
265.868	79.19
266.084	23.89
266.3	23.89
266.516	27.99
266.732	-17.07
266.948	27.99
267.164	5.46
267.38	27.99
267.596	-2.73
267.812	71
268.028	36.18
268.244	-0.68
268.46	77.14
268.676	15.7
268.892	46.42
269.108	30.04
269.324	27.99
269.54	-25.26
269.756	19.8
269.972	-10.92
270.188	7.51
270.403	-12.97
270.619	44.37
270.835	-2.73
271.051	60.76
271.267	32.08
271.483	1.37
271.698	52.56
271.914	60.76
272.13	-12.97
272.346	36.18
272.562	-4.78
272.777	48.47
272.993	23.89
273.209	19.8
273.425	50.52
273.64	21.85
273.856	93.52
274.072	27.99
274.287	1.37
274.503	99.67
274.719	109.91
274.934	36.18
275.15	-33.45
275.366	83.28
275.581	3.41
275.797	30.04
276.012	44.37
276.228	-12.97
276.444	85.33
276.659	120.15
276.875	-21.16
277.09	38.23
277.306	32.08
277.521	46.42
277.737	75.09
277.952	68.95
278.168	77.14
278.383	30.04
278.599	66.9
278.814	38.23
279.03	64.85
279.245	85.33
279.461	52.56
279.676	68.95
279.892	-27.31
280.107	52.56
280.322	95.57
280.538	3.41
280.753	23.89
280.969	34.13
281.184	-25.26
281.399	93.52
281.615	-27.31
281.83	40.28
282.045	-55.98
282.26	-0.68
282.476	44.37
282.691	68.95
282.906	-39.59
283.122	-27.31
283.337	25.94
283.552	109.91
283.767	-10.92
283.983	48.47
284.198	-10.92
284.413	38.23
284.628	44.37
284.843	120.15
285.058	52.56
285.274	64.85
285.489	-0.68
285.704	130.39
285.919	36.18
286.134	44.37
286.349	68.95
286.564	27.99
286.779	50.52
286.995	36.18
287.21	-60.07
287.425	30.04
287.64	87.38
287.855	138.58
288.07	32.08
288.285	64.85
288.5	36.18
288.715	40.28
288.93	27.99
289.145	36.18
289.36	34.13
289.575	23.89
289.79	71
290.004	34.13
290.219	48.47
290.434	30.04
290.649	-33.45
290.864	95.57
291.079	-6.83
291.294	79.19
291.509	17.75
291.724	93.52
291.938	34.13
292.153	54.61
292.368	-25.26
292.583	40.28
292.798	128.34
293.012	87.38
293.227	54.61
293.442	52.56
293.657	77.14
293.871	114
294.086	27.99
294.301	68.95
294.516	52.56
294.73	62.8
294.945	-6.83
295.16	23.89
295.374	89.43
295.589	93.52
295.804	-33.45
296.018	36.18
296.233	3.41
296.447	73.04
296.662	52.56
296.877	71
297.091	21.85
297.306	134.48
297.52	58.71
297.735	21.85
297.949	52.56
298.164	60.76
298.378	40.28
298.593	38.23
298.807	-0.68
299.022	79.19
299.236	52.56
299.451	23.89
299.665	5.46
299.88	-2.73
300.094	-0.68
300.309	159.06
300.523	58.71
300.737	36.18
300.952	52.56
301.166	3.41
301.381	11.61
301.595	77.14
301.809	73.04
302.024	36.18
302.238	54.61
302.452	101.72
302.667	30.04
302.881	128.34
303.095	79.19
303.309	87.38
303.524	19.8
303.738	44.37
303.952	46.42
304.166	44.37
304.381	7.51
304.595	71
304.809	56.66
305.023	71
305.237	46.42
305.452	13.65
305.666	60.76
305.88	146.77
306.094	17.75
306.308	93.52
306.522	9.56
306.736	75.09
306.95	68.95
307.164	46.42
307.379	-19.11
307.593	73.04
307.807	36.18
308.021	30.04
308.235	-27.31
308.449	-10.92
308.663	40.28
308.877	116.05
309.091	19.8
309.305	52.56
309.519	-21.16
309.733	3.41
309.947	5.46
310.161	58.71
310.374	3.41
310.588	169.3
310.802	46.42
311.016	38.23
311.23	42.32
311.444	48.47
311.658	40.28
311.872	95.57
312.085	62.8
312.299	101.72
312.513	118.1
312.727	79.19
312.941	30.04
313.154	36.18
313.368	23.89
313.582	-0.68
313.796	11.61
314.009	52.56
314.223	-2.73
314.437	32.08
314.651	44.37
314.864	71
315.078	73.04
315.292	5.46
315.505	79.19
315.719	13.65
315.933	13.65
316.146	11.61
316.36	21.85
316.573	85.33
316.787	64.85
317.001	54.61
317.214	40.28
317.428	85.33
317.641	60.76
317.855	109.91
318.068	116.05
318.282	38.23
318.495	73.04
318.709	140.63
318.922	122.2
319.136	116.05
319.349	81.24
319.563	7.51
319.776	91.48
319.99	-35.5
320.203	75.09
320.417	-17.07
320.63	48.47
320.843	21.85
321.057	15.7
321.27	34.13
321.483	23.89
321.697	3.41
321.91	-0.68
322.124	77.14
322.337	116.05
322.55	103.76
322.763	50.52
322.977	77.14
323.19	-27.31
323.403	34.13
323.617	7.51
323.83	126.29
324.043	40.28
324.256	44.37
324.469	13.65
324.683	101.72
324.896	36.18
325.109	81.24
325.322	5.46
325.535	19.8
325.748	-2.73
325.962	13.65
326.175	40.28
326.388	103.76
326.601	68.95
326.814	85.33
327.027	103.76
327.24	89.43
327.453	-21.16
327.666	89.43
327.879	101.72
328.092	83.28
328.305	-2.73
328.518	114
328.731	-4.78
328.944	36.18
329.157	25.94
329.37	91.48
329.583	130.39
329.796	93.52
330.009	38.23
330.222	32.08
330.435	87.38
330.648	62.8
330.861	27.99
331.073	3.41
331.286	25.94
331.499	38.23
331.712	40.28
331.925	58.71
332.138	7.51
332.35	-8.87
332.563	42.32
332.776	3.41
332.989	-15.02
333.202	15.7
333.414	23.89
333.627	54.61
333.84	60.76
334.053	52.56
334.265	-12.97
334.478	9.56
334.691	46.42
334.903	87.38
335.116	19.8
335.329	44.37
335.541	19.8
335.754	75.09
335.966	13.65
336.179	-12.97
336.392	-37.55
336.604	44.37
336.817	99.67
337.029	-29.35
337.242	68.95
337.454	56.66
337.667	77.14
337.88	32.08
338.092	54.61
338.305	62.8
338.517	48.47
338.729	124.24
338.942	44.37
339.154	50.52
339.367	19.8
339.579	62.8
339.792	58.71
340.004	95.57
340.217	3.41
340.429	19.8
340.641	-45.74
340.854	15.7
341.066	38.23
341.278	68.95
341.491	60.76
341.703	85.33
341.915	66.9
342.128	150.87
342.34	30.04
342.552	87.38
342.764	-15.02
342.977	3.41
343.189	89.43
343.401	75.09
343.613	44.37
343.826	21.85
344.038	93.52
344.25	21.85
344.462	56.66
344.674	44.37
344.886	38.23
345.099	62.8
345.311	54.61
345.523	-10.92
345.735	32.08
345.947	44.37
346.159	44.37
346.371	40.28
346.583	36.18
346.795	126.29
347.007	30.04
347.219	46.42
347.431	81.24
347.643	52.56
347.855	-29.35
348.067	79.19
348.279	-4.78
348.491	71
348.703	99.67
348.915	60.76
349.127	-35.5
349.339	40.28
349.551	75.09
349.763	122.2
349.975	-21.16
350.187	109.91
350.399	85.33
350.61	85.33
350.822	66.9
351.034	77.14
351.246	71
351.458	93.52
351.669	34.13
351.881	64.85
352.093	54.61
352.305	105.81
352.517	62.8
352.728	85.33
352.94	1.37
353.152	27.99
353.363	21.85
353.575	101.72
353.787	81.24
353.999	154.96
354.21	52.56
354.422	77.14
354.633	34.13
354.845	-45.74
355.057	58.71
355.268	89.43
355.48	46.42
355.692	17.75
355.903	44.37
356.115	25.94
356.326	68.95
356.538	97.62
356.749	34.13
356.961	93.52
357.172	68.95
357.384	-19.11
357.595	89.43
357.807	87.38
358.018	128.34
358.23	44.37
358.441	144.72
358.653	11.61
358.864	71
359.075	77.14
359.287	15.7
359.498	60.76
359.709	36.18
359.921	87.38
360.132	38.23
360.344	23.89
360.555	64.85
360.766	134.48
360.977	-53.93
361.189	85.33
361.4	32.08
361.611	36.18
361.823	52.56
362.034	167.25
362.245	42.32
362.456	40.28
362.667	42.32
362.879	7.51
363.09	13.65
363.301	11.61
363.512	48.47
363.723	71
363.935	97.62
364.146	114
364.357	21.85
364.568	-4.78
364.779	54.61
364.99	56.66
365.201	36.18
365.412	118.1
365.623	60.76
365.834	68.95
366.045	36.18
366.256	99.67
366.467	17.75
366.678	71
366.889	36.18
367.1	38.23
367.311	138.58
367.522	109.91
367.733	13.65
367.944	-4.78
368.155	-0.68
368.366	83.28
368.577	85.33
368.788	44.37
368.999	5.46
369.209	27.99
369.42	54.61
369.631	95.57
369.842	36.18
370.053	87.38
370.264	93.52
370.474	7.51
370.685	44.37
370.896	109.91
371.107	97.62
371.317	89.43
371.528	-27.31
371.739	83.28
371.95	87.38
372.16	42.32
372.371	54.61
372.582	71
372.792	68.95
373.003	81.24
373.214	73.04
373.424	161.11
373.635	-19.11
373.846	68.95
374.056	124.24
374.267	60.76
374.477	7.51
374.688	60.76
374.898	64.85
375.109	-17.07
375.319	60.76
375.53	111.96
375.74	44.37
375.951	21.85
376.161	134.48
376.372	120.15
376.582	54.61
376.793	-37.55
377.003	-2.73
377.214	32.08
377.424	32.08
377.635	60.76
377.845	-10.92
378.055	44.37
378.266	19.8
378.476	40.28
378.686	71
378.897	27.99
379.107	56.66
379.317	60.76
379.528	21.85
379.738	27.99
379.948	60.76
380.158	71
380.369	-2.73
380.579	13.65
380.789	71
380.999	62.8
381.21	97.62
381.42	66.9
381.63	40.28
381.84	118.1
382.05	21.85
382.261	130.39
382.471	83.28
382.681	5.46
382.891	93.52
383.101	-53.93
383.311	64.85
383.521	46.42
383.731	99.67
383.941	81.24
384.151	79.19
384.361	79.19
384.571	36.18
384.781	9.56
384.991	64.85
385.201	75.09
385.411	52.56
385.621	36.18
385.831	36.18
386.041	73.04
386.251	62.8
386.461	77.14
386.671	-15.02
386.881	97.62
387.091	11.61
387.301	97.62
387.511	44.37
387.72	101.72
387.93	93.52
388.14	87.38
388.35	85.33
388.56	-12.97
388.769	159.06
388.979	38.23
389.189	68.95
389.399	44.37
389.609	124.24
389.818	83.28
390.028	60.76
390.238	105.81
390.447	114
390.657	19.8
390.867	93.52
391.076	64.85
391.286	44.37
391.496	107.86
391.705	62.8
391.915	71
392.125	83.28
392.334	3.41
392.544	87.38
392.753	71
392.963	85.33
393.172	103.76
393.382	85.33
393.591	46.42
393.801	122.2
394.01	36.18
394.22	25.94
394.429	130.39
394.639	77.14
394.848	126.29
395.058	111.96
395.267	97.62
395.477	105.81
395.686	54.61
395.895	97.62
396.105	210.26
396.314	97.62
396.524	77.14
396.733	169.3
396.942	68.95
397.152	77.14
397.361	187.73
397.57	159.06
397.78	128.34
397.989	111.96
398.198	150.87
398.407	79.19
398.617	140.63
398.826	101.72
399.035	122.2
399.244	136.53
399.453	130.39
399.663	132.44
399.872	105.81
400.081	103.76
400.29	87.38
400.499	130.39
400.708	97.62
400.917	111.96
401.127	105.81
401.336	136.53
401.545	163.15
401.754	116.05
401.963	77.14
402.172	118.1
402.381	122.2
402.59	66.9
402.799	175.44
403.008	114
403.217	122.2
403.426	109.91
403.635	128.34
403.844	75.09
404.053	89.43
404.262	101.72
404.471	216.4
404.68	103.76
404.888	169.3
405.097	204.11
405.306	118.1
405.515	167.25
405.724	185.68
405.933	191.83
406.142	161.11
406.35	243.03
406.559	177.49
406.768	210.26
406.977	195.92
407.185	249.17
407.394	177.49
407.603	204.11
407.812	249.17
408.02	251.22
408.229	185.68
408.438	240.98
408.646	249.17
408.855	240.98
409.064	316.75
409.272	236.88
409.481	240.98
409.69	265.55
409.898	306.51
410.107	372.05
410.315	245.07
410.524	341.33
410.733	439.63
410.941	312.66
411.15	339.28
411.358	441.68
411.567	425.29
411.775	365.9
411.984	400.72
412.192	427.34
412.401	380.24
412.609	472.4
412.818	464.21
413.026	505.17
413.234	439.63
413.443	433.49
413.651	494.93
413.86	480.59
414.068	470.35
414.276	626
414.485	507.21
414.693	576.84
414.901	617.8
415.11	695.63
415.318	621.9
415.526	693.58
415.734	748.87
415.943	679.24
416.151	881.99
416.359	804.17
416.567	785.74
416.776	920.9
416.984	920.9
417.192	937.29
417.4	931.14
417.608	857.42
417.817	896.33
418.025	1066.31
418.233	1160.52
418.441	990.53
418.649	980.29
418.857	1172.8
419.065	1174.85
419.273	1127.75
419.481	1267.01
419.689	1299.78
419.897	1375.55
420.105	1307.97
420.313	1439.04
420.521	1535.29
420.729	1502.53
420.937	1490.24
421.145	1674.56
421.353	1742.14
421.561	1740.09
421.769	1731.9
421.977	1813.82
422.185	1848.63
422.393	2010.42
422.601	2035
422.809	2061.62
423.017	2002.23
423.224	2295.09
423.432	2204.98
423.64	2284.85
423.848	2487.6
424.056	2387.25
424.263	2633.01
424.471	2684.2
424.679	2698.54
424.887	2772.27
425.094	2774.31
425.302	2893.1
425.51	2979.11
425.718	3132.71
425.925	3083.56
426.133	3243.3
426.341	3464.48
426.548	3538.21
426.756	3411.23
426.964	3644.7
427.171	3833.11
427.379	3755.29
427.586	3941.66
427.794	4066.58
428.001	4265.24
428.209	4486.42
428.417	4279.57
428.624	4691.21
428.832	4592.91
429.039	4820.24
429.247	4625.68
429.454	5149.96
429.662	5375.24
429.869	5174.53
430.076	5385.48
430.284	5164.29
430.491	5387.52
430.699	5926.14
430.906	5840.12
431.114	5944.57
431.321	6032.63
431.528	6292.73
431.736	6776.05
431.943	6849.77
432.15	6728.94
432.358	6935.79
432.565	7292.13
432.772	7097.58
432.979	7734.5
433.187	7636.19
433.394	7666.91
433.601	8156.38
433.808	8275.16
434.016	8269.02
434.223	8617.17
434.43	9002.19
434.637	8991.95
434.844	9153.74
435.052	9602.24
435.259	9399.49
435.466	9696.45
435.673	9573.57
435.88	10382.52
436.087	10503.35
436.294	10646.71
436.501	10292.41
436.708	10937.52
436.915	11031.73
437.122	11535.53
437.329	11371.69
437.537	11715.75
437.743	11975.84
437.95	11898.02
438.157	12579.99
438.364	12956.82
438.571	12831.89
438.778	12973.2
438.985	14296.19
439.192	13345.93
439.399	14148.73
439.606	13583.49
439.813	14414.97
440.02	15322.22
440.227	15156.33
440.433	14842.99
440.64	15510.63
440.847	15246.44
441.054	15846.5
441.261	16696.41
441.467	16413.79
441.674	16895.06
441.881	17470.54
442.088	17292.37
442.294	16985.17
442.501	17697.86
442.708	18089.03
442.914	18658.36
443.121	19633.19
443.328	18750.52
443.534	20276.26
443.741	19633.19
443.948	19190.83
444.154	20698.14
444.361	20851.74
444.568	20935.7
444.774	21187.6
444.981	21031.96
445.187	21664.78
445.394	22328.32
445.6	22281.22
445.807	24484.83
446.013	23161.84
446.22	24089.57
446.426	24601.57
446.633	24814.55
446.839	25918.41
447.046	24783.84
447.252	26041.29
447.459	26137.54
447.665	25889.74
447.871	26956.73
448.078	28369.83
448.284	27085.75
448.491	27909.04
448.697	28695.46
448.903	29307.8
449.11	29326.23
449.316	29084.57
449.522	29715.34
449.728	30270.34
449.935	30438.28
450.141	30387.08
450.347	31327.1
450.553	30036.88
450.76	30671.75
450.966	31474.55
451.172	31488.88
451.378	31699.83
451.584	31245.18
451.791	32070.51
451.997	31998.83
452.203	32709.47
452.409	32639.84
452.615	32482.15
452.821	31273.85
453.027	30946.17
453.233	32465.77
453.44	31480.69
453.646	31622
453.852	31777.65
454.058	32125.8
454.264	31271.8
454.47	32260.97
454.676	31816.56
454.882	32699.23
455.088	29414.29
455.294	30155.66
455.5	30419.85
455.705	30997.37
455.911	29725.58
456.117	29103
456.323	28670.88
456.529	27112.38
456.735	28394.4
456.941	27794.35
457.147	27128.76
457.352	26555.33
457.558	26096.58
457.764	25979.85
457.97	25742.28
458.176	25295.83
458.381	25166.81
458.587	24079.33
458.793	24138.72
458.999	22748.15
459.204	24368.1
459.41	23768.04
459.616	22328.32
459.821	22254.59
460.027	22039.56
460.233	21607.44
460.438	20593.69
460.644	20644.89
460.85	19870.76
461.055	19541.04
461.261	19407.92
461.466	18123.84
461.672	17630.28
461.878	18996.28
462.083	17472.59
462.289	17192.01
462.494	17353.8
462.7	16280.67
462.905	15819.88
463.111	16464.99
463.316	16479.32
463.522	16133.22
463.727	16026.72
463.932	16069.73
464.138	15981.67
464.343	16016.48
464.549	15574.12
464.754	16270.43
464.959	15748.2
465.165	15748.2
465.37	15115.37
465.575	14777.46
465.781	15293.55
465.986	15463.53
466.191	14842.99
466.397	14543.99
466.602	14072.96
466.807	14083.2
467.012	14451.83
467.218	14378.11
467.423	14115.97
467.628	14234.75
467.833	14756.98
468.038	14210.17
468.244	13988.99
