Data from USB4F104151__147__14-19-23-710.txt Node

Date: Thu Mar 13 14:19:23 EDT 2025
User: louis
Spectrometer: USB4F10415
Trigger mode: 4
Integration Time (sec): 2.000000E-2
Scans to average: 1
Electric dark correction enabled: true
Nonlinearity correction enabled: false
Boxcar width: 0
XAxis mode: Wavelengths
Number of Pixels in Spectrum: 3648
>>>>>Begin Spectral Data<<<<<
178.204	-97.28
178.424	-97.28
178.644	-97.28
178.864	-150.53
179.084	-64.51
179.304	-7.17
179.524	50.18
179.744	-35.84
179.964	17.41
180.184	23.55
180.404	-3.07
180.624	-35.84
180.844	-15.36
181.064	3.07
181.283	13.31
181.503	17.41
181.723	-27.65
181.943	3.07
182.163	76.8
182.383	9.22
182.602	37.89
182.822	44.03
183.042	91.13
183.262	13.31
183.482	13.31
183.701	46.08
183.921	37.89
184.141	-19.46
184.361	87.04
184.58	23.55
184.8	80.89
185.02	3.07
185.239	29.7
185.459	-62.46
185.679	52.22
185.898	74.75
186.118	58.37
186.338	33.79
186.557	68.61
186.777	-7.17
186.997	78.85
187.216	37.89
187.436	46.08
187.655	27.65
187.875	105.47
188.095	29.7
188.314	101.37
188.534	95.23
188.753	9.22
188.973	29.7
189.192	99.33
189.412	70.65
189.631	19.46
189.851	44.03
190.07	66.56
190.29	33.79
190.509	72.7
190.729	66.56
190.948	121.85
191.168	164.86
191.387	13.31
191.607	80.89
191.826	50.18
192.045	58.37
192.265	87.04
192.484	128
192.704	119.81
192.923	11.26
193.142	175.1
193.362	58.37
193.581	103.42
193.8	52.22
194.02	97.28
194.239	39.94
194.458	54.27
194.678	80.89
194.897	23.55
195.116	25.6
195.335	50.18
195.555	99.33
195.774	33.79
195.993	29.7
196.212	91.13
196.432	9.22
196.651	13.31
196.87	33.79
197.089	72.7
197.308	58.37
197.528	1.02
197.747	-11.26
197.966	15.36
198.185	80.89
198.404	54.27
198.623	21.5
198.842	115.71
199.062	64.51
199.281	54.27
199.5	-13.31
199.719	41.98
199.938	111.61
200.157	37.89
200.376	113.66
200.595	115.71
200.814	76.8
201.033	17.41
201.252	101.37
201.471	41.98
201.69	117.76
201.909	84.99
202.128	52.22
202.347	5.12
202.566	74.75
202.785	3.07
203.004	27.65
203.223	76.8
203.442	76.8
203.661	41.98
203.879	50.18
204.098	50.18
204.317	68.61
204.536	68.61
204.755	46.08
204.974	19.46
205.193	33.79
205.411	107.52
205.63	62.46
205.849	41.98
206.068	23.55
206.287	76.8
206.505	52.22
206.724	29.7
206.943	33.79
207.162	54.27
207.381	46.08
207.599	21.5
207.818	-13.31
208.037	50.18
208.255	60.42
208.474	1.02
208.693	13.31
208.911	50.18
209.13	99.33
209.349	64.51
209.567	-23.55
209.786	44.03
210.005	15.36
210.223	58.37
210.442	-44.03
210.661	-19.46
210.879	68.61
211.098	54.27
211.316	35.84
211.535	103.42
211.753	29.7
211.972	35.84
212.191	11.26
212.409	76.8
212.628	41.98
212.846	17.41
213.065	50.18
213.283	123.9
213.502	46.08
213.72	80.89
213.938	29.7
214.157	-19.46
214.375	99.33
214.594	41.98
214.812	74.75
215.031	-15.36
215.249	13.31
215.467	31.74
215.686	60.42
215.904	62.46
216.122	11.26
216.341	41.98
216.559	123.9
216.778	74.75
216.996	29.7
217.214	82.94
217.432	-3.07
217.651	41.98
217.869	29.7
218.087	39.94
218.306	-21.5
218.524	33.79
218.742	95.23
218.96	48.13
219.179	68.61
219.397	109.57
219.615	123.9
219.833	70.65
220.051	52.22
220.27	111.61
220.488	48.13
220.706	62.46
220.924	7.17
221.142	123.9
221.36	74.75
221.578	76.8
221.796	109.57
222.015	7.17
222.233	128
222.451	95.23
222.669	3.07
222.887	50.18
223.105	25.6
223.323	74.75
223.541	87.04
223.759	50.18
223.977	62.46
224.195	101.37
224.413	1.02
224.631	50.18
224.849	41.98
225.067	68.61
225.285	82.94
225.503	37.89
225.721	41.98
225.939	74.75
226.157	64.51
226.375	125.95
226.592	-23.55
226.81	91.13
227.028	103.42
227.246	80.89
227.464	5.12
227.682	52.22
227.9	-1.02
228.117	91.13
228.335	9.22
228.553	91.13
228.771	66.56
228.989	25.6
229.206	21.5
229.424	29.7
229.642	37.89
229.86	68.61
230.077	5.12
230.295	50.18
230.513	66.56
230.731	27.65
230.948	66.56
231.166	115.71
231.384	60.42
231.601	58.37
231.819	82.94
232.037	13.31
232.254	70.65
232.472	-7.17
232.689	1.02
232.907	-23.55
233.125	113.66
233.342	-3.07
233.56	21.5
233.777	-25.6
233.995	68.61
234.213	72.7
234.43	50.18
234.648	84.99
234.865	-3.07
235.083	33.79
235.3	46.08
235.518	21.5
235.735	111.61
235.953	93.18
236.17	39.94
236.388	19.46
236.605	68.61
236.822	27.65
237.04	25.6
237.257	93.18
237.475	58.37
237.692	95.23
237.909	76.8
238.127	17.41
238.344	54.27
238.562	37.89
238.779	82.94
238.996	19.46
239.214	41.98
239.431	48.13
239.648	-7.17
239.865	99.33
240.083	7.17
240.3	50.18
240.517	50.18
240.735	29.7
240.952	50.18
241.169	68.61
241.386	17.41
241.603	74.75
241.821	21.5
242.038	50.18
242.255	33.79
242.472	87.04
242.689	31.74
242.907	17.41
243.124	93.18
243.341	66.56
243.558	19.46
243.775	60.42
243.992	-41.98
244.209	103.42
244.426	48.13
244.643	11.26
244.86	41.98
245.078	11.26
245.295	66.56
245.512	-39.94
245.729	21.5
245.946	107.52
246.163	33.79
246.38	-7.17
246.597	31.74
246.814	109.57
247.031	13.31
247.248	52.22
247.464	95.23
247.681	66.56
247.898	105.47
248.115	80.89
248.332	84.99
248.549	46.08
248.766	13.31
248.983	91.13
249.2	91.13
249.417	39.94
249.633	37.89
249.85	111.61
250.067	78.85
250.284	152.57
250.501	52.22
250.717	101.37
250.934	66.56
251.151	41.98
251.368	21.5
251.585	91.13
251.801	58.37
252.018	48.13
252.235	76.8
252.451	23.55
252.668	76.8
252.885	50.18
253.102	9.22
253.318	23.55
253.535	37.89
253.752	35.84
253.968	60.42
254.185	52.22
254.401	11.26
254.618	115.71
254.835	19.46
255.051	84.99
255.268	97.28
255.484	62.46
255.701	54.27
255.917	46.08
256.134	-7.17
256.351	27.65
256.567	9.22
256.784	-13.31
257	19.46
257.217	74.75
257.433	37.89
257.65	76.8
257.866	111.61
258.082	84.99
258.299	-64.51
258.515	33.79
258.732	58.37
258.948	5.12
259.165	74.75
259.381	68.61
259.597	82.94
259.814	11.26
260.03	21.5
260.246	115.71
260.463	74.75
260.679	82.94
260.895	115.71
261.112	1.02
261.328	52.22
261.544	-3.07
261.761	84.99
261.977	41.98
262.193	41.98
262.409	41.98
262.626	29.7
262.842	68.61
263.058	107.52
263.274	23.55
263.49	70.65
263.707	82.94
263.923	52.22
264.139	13.31
264.355	1.02
264.571	109.57
264.787	119.81
265.004	74.75
265.22	-5.12
265.436	37.89
265.652	-21.5
265.868	50.18
266.084	66.56
266.3	111.61
266.516	-3.07
266.732	68.61
266.948	111.61
267.164	62.46
267.38	-31.74
267.596	87.04
267.812	93.18
268.028	117.76
268.244	48.13
268.46	62.46
268.676	27.65
268.892	93.18
269.108	82.94
269.324	19.46
269.54	-9.22
269.756	50.18
269.972	17.41
270.188	76.8
270.403	66.56
270.619	76.8
270.835	99.33
271.051	70.65
271.267	41.98
271.483	27.65
271.698	27.65
271.914	52.22
272.13	82.94
272.346	99.33
272.562	74.75
272.777	58.37
272.993	46.08
273.209	-7.17
273.425	70.65
273.64	-70.65
273.856	107.52
274.072	76.8
274.287	-7.17
274.503	41.98
274.719	105.47
274.934	64.51
275.15	-1.02
275.366	87.04
275.581	80.89
275.797	48.13
276.012	78.85
276.228	142.33
276.444	54.27
276.659	70.65
276.875	58.37
277.09	39.94
277.306	62.46
277.521	-1.02
277.737	-23.55
277.952	66.56
278.168	128
278.383	97.28
278.599	33.79
278.814	78.85
279.03	48.13
279.245	33.79
279.461	-15.36
279.676	91.13
279.892	31.74
280.107	19.46
280.322	25.6
280.538	27.65
280.753	52.22
280.969	62.46
281.184	78.85
281.399	107.52
281.615	27.65
281.83	68.61
282.045	50.18
282.26	64.51
282.476	58.37
282.691	39.94
282.906	93.18
283.122	52.22
283.337	-52.22
283.552	33.79
283.767	74.75
283.983	148.48
284.198	80.89
284.413	99.33
284.628	33.79
284.843	52.22
285.058	33.79
285.274	82.94
285.489	99.33
285.704	66.56
285.919	95.23
286.134	44.03
286.349	-5.12
286.564	33.79
286.779	41.98
286.995	3.07
287.21	58.37
287.425	21.5
287.64	66.56
287.855	107.52
288.07	-11.26
288.285	66.56
288.5	-17.41
288.715	25.6
288.93	11.26
289.145	13.31
289.36	1.02
289.575	-23.55
289.79	15.36
290.004	37.89
290.219	50.18
290.434	60.42
290.649	48.13
290.864	17.41
291.079	37.89
291.294	74.75
291.509	74.75
291.724	66.56
291.938	23.55
292.153	123.9
292.368	89.09
292.583	35.84
292.798	56.32
293.012	66.56
293.227	121.85
293.442	132.09
293.657	107.52
293.871	29.7
294.086	158.72
294.301	56.32
294.516	82.94
294.73	37.89
294.945	29.7
295.16	41.98
295.374	93.18
295.589	117.76
295.804	27.65
296.018	37.89
296.233	152.57
296.447	89.09
296.662	35.84
296.877	58.37
297.091	56.32
297.306	58.37
297.52	74.75
297.735	62.46
297.949	82.94
298.164	99.33
298.378	48.13
298.593	142.33
298.807	99.33
299.022	66.56
299.236	95.23
299.451	80.89
299.665	-3.07
299.88	95.23
300.094	70.65
300.309	-15.36
300.523	68.61
300.737	91.13
300.952	58.37
301.166	68.61
301.381	27.65
301.595	70.65
301.809	109.57
302.024	37.89
302.238	-21.5
302.452	82.94
302.667	52.22
302.881	54.27
303.095	68.61
303.309	50.18
303.524	29.7
303.738	23.55
303.952	54.27
304.166	91.13
304.381	-15.36
304.595	115.71
304.809	17.41
305.023	109.57
305.237	13.31
305.452	41.98
305.666	3.07
305.88	50.18
306.094	13.31
306.308	41.98
306.522	76.8
306.736	91.13
306.95	48.13
307.164	9.22
307.379	46.08
307.593	142.33
307.807	103.42
308.021	62.46
308.235	84.99
308.449	-31.74
308.663	95.23
308.877	125.95
309.091	70.65
309.305	37.89
309.519	-39.94
309.733	109.57
309.947	25.6
310.161	107.52
310.374	125.95
310.588	27.65
310.802	21.5
311.016	103.42
311.23	27.65
311.444	-9.22
311.658	48.13
311.872	52.22
312.085	66.56
312.299	103.42
312.513	60.42
312.727	115.71
312.941	91.13
313.154	56.32
313.368	74.75
313.582	52.22
313.796	21.5
314.009	84.99
314.223	134.14
314.437	17.41
314.651	35.84
314.864	-7.17
315.078	13.31
315.292	68.61
315.505	17.41
315.719	27.65
315.933	74.75
316.146	13.31
316.36	39.94
316.573	101.37
316.787	39.94
317.001	33.79
317.214	80.89
317.428	95.23
317.641	52.22
317.855	27.65
318.068	-5.12
318.282	91.13
318.495	44.03
318.709	29.7
318.922	111.61
319.136	128
319.349	84.99
319.563	19.46
319.776	70.65
319.99	25.6
320.203	66.56
320.417	17.41
320.63	82.94
320.843	123.9
321.057	5.12
321.27	91.13
321.483	95.23
321.697	91.13
321.91	25.6
322.124	41.98
322.337	56.32
322.55	31.74
322.763	74.75
322.977	68.61
323.19	56.32
323.403	58.37
323.617	66.56
323.83	68.61
324.043	68.61
324.256	11.26
324.469	25.6
324.683	101.37
324.896	76.8
325.109	76.8
325.322	17.41
325.535	54.27
325.748	76.8
325.962	11.26
326.175	56.32
326.388	48.13
326.601	76.8
326.814	9.22
327.027	9.22
327.24	109.57
327.453	5.12
327.666	76.8
327.879	52.22
328.092	58.37
328.305	54.27
328.518	9.22
328.731	-15.36
328.944	56.32
329.157	-13.31
329.37	-15.36
329.583	50.18
329.796	107.52
330.009	9.22
330.222	76.8
330.435	37.89
330.648	54.27
330.861	-9.22
331.073	87.04
331.286	74.75
331.499	25.6
331.712	-7.17
331.925	74.75
332.138	39.94
332.35	103.42
332.563	35.84
332.776	107.52
332.989	37.89
333.202	50.18
333.414	74.75
333.627	95.23
333.84	111.61
334.053	25.6
334.265	66.56
334.478	70.65
334.691	9.22
334.903	140.29
335.116	70.65
335.329	5.12
335.541	21.5
335.754	99.33
335.966	99.33
336.179	74.75
336.392	64.51
336.604	48.13
336.817	41.98
337.029	48.13
337.242	5.12
337.454	95.23
337.667	62.46
337.88	107.52
338.092	84.99
338.305	66.56
338.517	-1.02
338.729	74.75
338.942	37.89
339.154	50.18
339.367	33.79
339.579	3.07
339.792	97.28
340.004	117.76
340.217	17.41
340.429	52.22
340.641	132.09
340.854	91.13
341.066	31.74
341.278	37.89
341.491	-7.17
341.703	50.18
341.915	52.22
342.128	164.86
342.34	23.55
342.552	41.98
342.764	119.81
342.977	-11.26
343.189	35.84
343.401	115.71
343.613	35.84
343.826	9.22
344.038	9.22
344.25	142.33
344.462	50.18
344.674	74.75
344.886	3.07
345.099	29.7
345.311	56.32
345.523	68.61
345.735	25.6
345.947	87.04
346.159	35.84
346.371	52.22
346.583	27.65
346.795	44.03
347.007	60.42
347.219	19.46
347.431	25.6
347.643	41.98
347.855	1.02
348.067	33.79
348.279	78.85
348.491	60.42
348.703	46.08
348.915	103.42
349.127	58.37
349.339	99.33
349.551	35.84
349.763	117.76
349.975	68.61
350.187	74.75
350.399	74.75
350.61	80.89
350.822	9.22
351.034	105.47
351.246	95.23
351.458	9.22
351.669	-7.17
351.881	91.13
352.093	74.75
352.305	158.72
352.517	95.23
352.728	33.79
352.94	41.98
353.152	119.81
353.363	44.03
353.575	115.71
353.787	111.61
353.999	91.13
354.21	35.84
354.422	48.13
354.633	123.9
354.845	72.7
355.057	33.79
355.268	111.61
355.48	78.85
355.692	62.46
355.903	54.27
356.115	70.65
356.326	27.65
356.538	140.29
356.749	125.95
356.961	134.14
357.172	103.42
357.384	168.96
357.595	123.9
357.807	78.85
358.018	76.8
358.23	134.14
358.441	123.9
358.653	17.41
358.864	99.33
359.075	74.75
359.287	56.32
359.498	142.33
359.709	58.37
359.921	164.86
360.132	62.46
360.344	52.22
360.555	-19.46
360.766	41.98
360.977	107.52
361.189	132.09
361.4	17.41
361.611	37.89
361.823	70.65
362.034	58.37
362.245	37.89
362.456	130.05
362.667	46.08
362.879	52.22
363.09	82.94
363.301	95.23
363.512	54.27
363.723	29.7
363.935	41.98
364.146	9.22
364.357	23.55
364.568	115.71
364.779	68.61
364.99	60.42
365.201	35.84
365.412	76.8
365.623	41.98
365.834	27.65
366.045	-19.46
366.256	107.52
366.467	132.09
366.678	37.89
366.889	64.51
367.1	9.22
367.311	115.71
367.522	46.08
367.733	72.7
367.944	93.18
368.155	50.18
368.366	146.43
368.577	84.99
368.788	74.75
368.999	-52.22
369.209	54.27
369.42	158.72
369.631	158.72
369.842	111.61
370.053	66.56
370.264	99.33
370.474	19.46
370.685	99.33
370.896	41.98
371.107	46.08
371.317	95.23
371.528	29.7
371.739	25.6
371.95	58.37
372.16	99.33
372.371	-54.27
372.582	62.46
372.792	54.27
373.003	33.79
373.214	82.94
373.424	58.37
373.635	-29.7
373.846	64.51
374.056	111.61
374.267	72.7
374.477	93.18
374.688	99.33
374.898	95.23
375.109	128
375.319	50.18
375.53	50.18
375.74	33.79
375.951	68.61
376.161	97.28
376.372	125.95
376.582	3.07
376.793	125.95
377.003	13.31
377.214	76.8
377.424	138.24
377.635	25.6
377.845	87.04
378.055	66.56
378.266	58.37
378.476	13.31
378.686	150.53
378.897	91.13
379.107	84.99
379.317	72.7
379.528	46.08
379.738	95.23
379.948	58.37
380.158	68.61
380.369	99.33
380.579	29.7
380.789	134.14
380.999	115.71
381.21	56.32
381.42	82.94
381.63	76.8
381.84	21.5
382.05	58.37
382.261	56.32
382.471	93.18
382.681	113.66
382.891	62.46
383.101	115.71
383.311	87.04
383.521	109.57
383.731	84.99
383.941	44.03
384.151	80.89
384.361	82.94
384.571	134.14
384.781	113.66
384.991	132.09
385.201	140.29
385.411	125.95
385.621	70.65
385.831	132.09
386.041	76.8
386.251	21.5
386.461	52.22
386.671	93.18
386.881	107.52
387.091	21.5
387.301	152.57
387.511	11.26
387.72	76.8
387.93	101.37
388.14	25.6
388.35	54.27
388.56	93.18
388.769	99.33
388.979	80.89
389.189	52.22
389.399	66.56
389.609	66.56
389.818	107.52
390.028	70.65
390.238	144.38
390.447	25.6
390.657	95.23
390.867	15.36
391.076	99.33
391.286	76.8
391.496	105.47
391.705	25.6
391.915	35.84
392.125	72.7
392.334	132.09
392.544	103.42
392.753	142.33
392.963	56.32
393.172	95.23
393.382	27.65
393.591	164.86
393.801	60.42
394.01	93.18
394.22	62.46
394.429	95.23
394.639	58.37
394.848	142.33
395.058	80.89
395.267	123.9
395.477	148.48
395.686	76.8
395.895	134.14
396.105	168.96
396.314	119.81
396.524	78.85
396.733	89.09
396.942	140.29
397.152	115.71
397.361	168.96
397.57	115.71
397.78	91.13
397.989	121.85
398.198	136.19
398.407	140.29
398.617	66.56
398.826	66.56
399.035	181.25
399.244	148.48
399.453	162.81
399.663	101.37
399.872	123.9
400.081	173.05
400.29	177.15
400.499	103.42
400.708	211.96
400.917	146.43
401.127	99.33
401.336	82.94
401.545	130.05
401.754	211.96
401.963	109.57
402.172	154.62
402.381	136.19
402.59	148.48
402.799	70.65
403.008	197.63
403.217	117.76
403.426	123.9
403.635	144.38
403.844	183.29
404.053	191.49
404.262	119.81
404.471	115.71
404.68	197.63
404.888	171.01
405.097	171.01
405.306	164.86
405.515	228.35
405.724	214.01
405.933	224.25
406.142	175.1
406.35	164.86
406.559	222.2
406.768	271.36
406.977	240.64
407.185	224.25
407.394	224.25
407.603	142.33
407.812	222.2
408.02	257.02
408.229	377.85
408.438	257.02
408.646	232.44
408.855	250.88
409.064	263.16
409.272	261.12
409.481	394.23
409.69	263.16
409.898	295.93
410.107	404.47
410.315	365.56
410.524	371.71
410.733	386.04
410.941	412.67
411.15	453.63
411.358	361.47
411.567	451.58
411.775	377.85
411.984	478.2
412.192	486.39
412.401	545.78
412.609	492.54
412.818	553.98
413.026	617.46
413.234	476.15
413.443	584.7
413.651	570.36
413.86	582.65
414.068	689.14
414.276	648.18
414.485	648.18
414.693	623.61
414.901	713.72
415.11	814.07
415.318	699.38
415.526	631.8
415.734	844.79
415.943	830.45
416.151	879.6
416.359	982
416.567	863.22
416.776	1004.53
416.984	953.33
417.192	1041.39
417.4	1059.82
417.608	988.14
417.817	1057.78
418.025	1151.98
418.233	1258.48
418.441	1102.83
418.649	1127.41
418.857	1307.63
419.065	1395.69
419.273	1375.21
419.481	1397.74
419.689	1496.04
419.897	1514.47
420.105	1625.06
420.313	1532.9
420.521	1684.45
420.729	1717.22
420.937	1752.04
421.145	1864.68
421.353	1915.87
421.561	1950.69
421.769	2016.23
421.977	2153.44
422.185	2057.18
422.393	2186.21
422.601	2352.09
422.809	2376.67
423.017	2376.67
423.224	2483.16
423.432	2503.64
423.64	2624.47
423.848	2837.46
424.056	2798.55
424.263	2855.89
424.471	2921.43
424.679	2978.77
424.887	3206.1
425.094	3257.29
425.302	3259.34
425.51	3367.88
425.718	3429.32
425.925	3394.51
426.133	3593.16
426.341	3742.66
426.548	4006.85
426.756	3982.28
426.964	4123.59
427.171	4234.18
427.379	4465.6
427.586	4484.03
427.794	4733.88
428.001	4858.81
428.209	4996.02
428.417	4899.77
428.624	5329.84
428.832	5260.21
429.039	5378.99
429.247	5161.91
429.454	5845.93
429.662	6124.45
429.869	5630.89
430.076	6069.16
430.284	5931.94
430.491	6069.16
430.699	6419.36
430.906	6443.93
431.114	6628.25
431.321	6792.09
431.528	7019.41
431.736	7617.42
431.943	7791.5
432.15	7562.12
432.358	7709.58
432.565	8203.14
432.772	8153.99
432.979	8407.94
433.187	8733.56
433.394	8704.89
433.601	9261.94
433.808	9282.42
434.016	9169.78
434.223	9399.15
434.43	10007.4
434.637	9786.22
434.844	10750.81
435.052	10959.7
435.259	10552.16
435.466	10900.31
435.673	10759
435.88	11447.12
436.087	12161.86
436.294	12143.43
436.501	11666.25
436.708	11846.48
436.915	12401.47
437.122	12888.89
437.329	12571.46
437.537	13157.18
437.743	13390.64
437.95	13392.69
438.157	14213.93
438.364	14379.81
438.571	14299.94
438.778	14416.68
438.985	15885.07
439.192	15270.68
439.399	15797.01
439.606	15438.61
439.813	16048.91
440.02	17066.75
440.227	16898.81
440.433	16657.15
440.64	17257.21
440.847	16974.59
441.054	17484.53
441.261	18932.45
441.467	18467.56
441.674	18936.54
441.881	19587.8
442.088	19692.24
442.294	19352.28
442.501	19645.14
442.708	20140.75
442.914	21160.64
443.121	21709.49
443.328	21154.49
443.534	22715.05
443.741	21914.29
443.948	21893.81
444.154	23272.09
444.361	23149.21
444.568	23466.65
444.774	23380.64
444.981	23841.43
445.187	24318.6
445.394	25506.43
445.6	25033.35
445.807	27507.29
446.013	26176.11
446.22	26786.41
446.426	27669.08
446.633	27959.89
446.839	29147.72
447.046	27542.11
447.252	29366.85
447.459	29336.13
447.665	29096.52
447.871	30276.15
448.078	31855.13
448.284	30149.17
448.491	30794.28
448.697	32377.36
448.903	32621.07
449.11	32743.95
449.316	32399.89
449.522	33098.25
449.728	33657.34
449.935	33976.83
450.141	33946.11
450.347	34775.53
450.553	33925.63
450.76	34001.4
450.966	35164.65
451.172	34732.53
451.378	35512.8
451.584	34712.05
451.791	35617.25
451.997	35867.1
452.203	36317.65
452.409	36671.95
452.615	36256.21
452.821	35000.81
453.027	34509.3
453.233	36346.33
453.44	34804.2
453.646	35740.13
453.852	35400.16
454.058	36045.27
454.264	34875.88
454.47	35621.34
454.676	34908.65
454.882	35994.07
455.088	33456.64
455.294	33659.39
455.5	34181.62
455.705	34599.41
455.911	32987.66
456.117	32451.09
456.323	31828.51
456.529	30487.09
456.735	31670.81
456.941	31017.51
457.147	30175.8
457.352	29311.55
457.558	29139.52
457.764	29108.8
457.97	28287.57
458.176	27638.36
458.381	27914.84
458.587	26628.71
458.793	26659.43
458.999	24965.76
459.204	26987.11
459.41	26303.09
459.616	24554.12
459.821	24535.69
460.027	24478.35
460.233	24107.66
460.438	23052.96
460.644	23290.52
460.85	22108.85
461.055	21504.7
461.261	21799.6
461.466	20202.19
461.672	19182.3
461.878	20693.7
462.083	19444.44
462.289	19122.91
462.494	18866.91
462.7	17877.74
462.905	17408.76
463.111	17984.24
463.316	18178.79
463.522	17941.23
463.727	17738.48
463.932	17908.46
464.138	17791.73
464.343	17720.05
464.549	17238.78
464.754	18012.91
464.959	17484.53
465.165	17586.93
465.37	16737.02
465.575	16206.6
465.781	16954.11
465.986	17328.89
466.191	16648.96
466.397	16179.98
466.602	15510.29
466.807	15737.62
467.012	15938.32
467.218	15952.65
467.423	15786.77
