Data from USB4F104151__28__14-16-27-333.txt Node

Date: Thu Mar 13 14:16:27 EDT 2025
User: louis
Spectrometer: USB4F10415
Trigger mode: 4
Integration Time (sec): 2.000000E-2
Scans to average: 1
Electric dark correction enabled: true
Nonlinearity correction enabled: false
Boxcar width: 0
XAxis mode: Wavelengths
Number of Pixels in Spectrum: 3648
>>>>>Begin Spectral Data<<<<<
178.204	-68.44
178.424	-68.44
178.644	-68.44
178.864	-105.3
179.084	-117.59
179.304	-17.24
179.524	13.48
179.744	-27.48
179.964	99.5
180.184	-7
180.404	54.44
180.624	-9.05
180.844	-2.9
181.064	-60.24
181.283	-43.86
181.503	-66.39
181.723	66.73
181.943	-43.86
182.163	48.3
182.383	5.29
182.602	58.54
182.822	11.43
183.042	21.67
183.262	23.72
183.482	70.83
183.701	-15.19
183.921	21.67
184.141	7.34
184.361	-19.29
184.58	64.68
184.8	23.72
185.02	19.63
185.239	60.59
185.459	40.11
185.679	-2.9
185.898	-21.33
186.118	38.06
186.338	29.87
186.557	95.4
186.777	70.83
186.997	17.58
187.216	40.11
187.436	5.29
187.655	64.68
187.875	21.67
188.095	1.19
188.314	56.49
188.534	1.19
188.753	7.34
188.973	74.92
189.192	91.31
189.412	56.49
189.631	38.06
189.851	17.58
190.07	15.53
190.29	-64.34
190.509	-23.38
190.729	-9.05
190.948	-4.95
191.168	64.68
191.387	64.68
191.607	-41.81
191.826	13.48
192.045	103.59
192.265	38.06
192.484	81.07
192.704	5.29
192.923	-0.85
193.142	72.87
193.362	64.68
193.581	38.06
193.8	58.54
194.02	13.48
194.239	54.44
194.458	40.11
194.678	-23.38
194.897	17.58
195.116	29.87
195.335	62.63
195.555	54.44
195.774	-52.05
195.993	9.39
196.212	-19.29
196.432	-11.09
196.651	23.72
196.87	-31.57
197.089	128.17
197.308	62.63
197.528	29.87
197.747	-19.29
197.966	-2.9
198.185	68.78
198.404	5.29
198.623	25.77
198.842	50.35
199.062	115.88
199.281	66.73
199.5	81.07
199.719	50.35
199.938	60.59
200.157	-7
200.376	87.21
200.595	38.06
200.814	42.15
201.033	64.68
201.252	64.68
201.471	17.58
201.69	142.5
201.909	62.63
202.128	85.16
202.347	29.87
202.566	79.02
202.785	36.01
203.004	70.83
203.223	89.26
203.442	-7
203.661	36.01
203.879	11.43
204.098	46.25
204.317	11.43
204.536	-0.85
204.755	-11.09
204.974	46.25
205.193	62.63
205.411	70.83
205.63	17.58
205.849	11.43
206.068	-17.24
206.287	-17.24
206.505	1.19
206.724	5.29
206.943	29.87
207.162	31.91
207.381	56.49
207.599	-62.29
207.818	5.29
208.037	46.25
208.255	48.3
208.474	17.58
208.693	48.3
208.911	101.55
209.13	38.06
209.349	29.87
209.567	60.59
209.786	21.67
210.005	17.58
210.223	5.29
210.442	-11.09
210.661	33.96
210.879	9.39
211.098	66.73
211.316	21.67
211.535	81.07
211.753	9.39
211.972	29.87
212.191	111.78
212.409	-7
212.628	54.44
212.846	-0.85
213.065	-33.62
213.283	87.21
213.502	19.63
213.72	-47.96
213.938	-52.05
214.157	62.63
214.375	54.44
214.594	-25.43
214.812	66.73
215.031	-58.2
215.249	5.29
215.467	-39.76
215.686	38.06
215.904	42.15
216.122	-7
216.341	70.83
216.559	27.82
216.778	-9.05
216.996	21.67
217.214	56.49
217.432	23.72
217.651	52.39
217.869	76.97
218.087	42.15
218.306	-2.9
218.524	40.11
218.742	38.06
218.96	-45.91
219.179	-13.14
219.397	72.87
219.615	95.4
219.833	79.02
220.051	46.25
220.27	134.31
220.488	50.35
220.706	62.63
220.924	-27.48
221.142	62.63
221.36	-7
221.578	111.78
221.796	122.02
222.015	91.31
222.233	-43.86
222.451	95.4
222.669	-25.43
222.887	40.11
223.105	36.01
223.323	38.06
223.541	-54.1
223.759	1.19
223.977	66.73
224.195	107.69
224.413	29.87
224.631	72.87
224.849	79.02
225.067	87.21
225.285	-0.85
225.503	66.73
225.721	-21.33
225.939	21.67
226.157	-52.05
226.375	38.06
226.592	23.72
226.81	115.88
227.028	76.97
227.246	58.54
227.464	58.54
227.682	58.54
227.9	5.29
228.117	-19.29
228.335	95.4
228.553	9.39
228.771	-2.9
228.989	72.87
229.206	62.63
229.424	38.06
229.642	-33.62
229.86	-27.48
230.077	21.67
230.295	38.06
230.513	70.83
230.731	25.77
230.948	89.26
231.166	99.5
231.384	-11.09
231.601	-11.09
231.819	21.67
232.037	1.19
232.254	31.91
232.472	19.63
232.689	-37.72
232.907	54.44
233.125	56.49
233.342	40.11
233.56	-52.05
233.777	31.91
233.995	46.25
234.213	33.96
234.43	54.44
234.648	-7
234.865	48.3
235.083	15.53
235.3	119.98
235.518	3.24
235.735	60.59
235.953	66.73
236.17	-56.15
236.388	7.34
236.605	115.88
236.822	66.73
237.04	79.02
237.257	56.49
237.475	-56.15
237.692	66.73
237.909	19.63
238.127	-7
238.344	-11.09
238.562	17.58
238.779	1.19
238.996	-9.05
239.214	1.19
239.431	54.44
239.648	81.07
239.865	83.11
240.083	15.53
240.3	46.25
240.517	85.16
240.735	38.06
240.952	-2.9
241.169	15.53
241.386	42.15
241.603	15.53
241.821	-39.76
242.038	48.3
242.255	33.96
242.472	7.34
242.689	103.59
242.907	72.87
243.124	66.73
243.341	70.83
243.558	-11.09
243.775	21.67
243.992	50.35
244.209	38.06
244.426	89.26
244.643	46.25
244.86	19.63
245.078	19.63
245.295	36.01
245.512	70.83
245.729	1.19
245.946	87.21
246.163	62.63
246.38	46.25
246.597	46.25
246.814	33.96
247.031	5.29
247.248	-9.05
247.464	-2.9
247.681	87.21
247.898	62.63
248.115	46.25
248.332	-41.81
248.549	81.07
248.766	40.11
248.983	136.36
249.2	38.06
249.417	52.39
249.633	31.91
249.85	64.68
250.067	15.53
250.284	76.97
250.501	15.53
250.717	25.77
250.934	-0.85
251.151	46.25
251.368	66.73
251.585	54.44
251.801	13.48
252.018	17.58
252.235	130.22
252.451	-25.43
252.668	-31.57
252.885	95.4
253.102	46.25
253.318	29.87
253.535	25.77
253.752	50.35
253.968	83.11
254.185	66.73
254.401	56.49
254.618	33.96
254.835	42.15
255.051	21.67
255.268	21.67
255.484	40.11
255.701	-21.33
255.917	81.07
256.134	-4.95
256.351	58.54
256.567	29.87
256.784	64.68
257	-27.48
257.217	17.58
257.433	19.63
257.65	-52.05
257.866	23.72
258.082	-19.29
258.299	21.67
258.515	-25.43
258.732	38.06
258.948	54.44
259.165	-31.57
259.381	-45.91
259.597	29.87
259.814	38.06
260.03	-0.85
260.246	-17.24
260.463	56.49
260.679	29.87
260.895	-35.67
261.112	21.67
261.328	13.48
261.544	13.48
261.761	79.02
261.977	17.58
262.193	31.91
262.409	-27.48
262.626	33.96
262.842	7.34
263.058	-9.05
263.274	56.49
263.49	-33.62
263.707	5.29
263.923	42.15
264.139	3.24
264.355	17.58
264.571	50.35
264.787	99.5
265.004	23.72
265.22	40.11
265.436	76.97
265.652	21.67
265.868	7.34
266.084	-43.86
266.3	21.67
266.516	-74.58
266.732	21.67
266.948	-39.76
267.164	21.67
267.38	5.29
267.596	21.67
267.812	27.82
268.028	70.83
268.244	21.67
268.46	54.44
268.676	40.11
268.892	48.3
269.108	-13.14
269.324	42.15
269.54	46.25
269.756	38.06
269.972	124.07
270.188	-33.62
270.403	-66.39
270.619	72.87
270.835	40.11
271.051	7.34
271.267	48.3
271.483	23.72
271.698	29.87
271.914	11.43
272.13	23.72
272.346	68.78
272.562	7.34
272.777	70.83
272.993	33.96
273.209	-13.14
273.425	-2.9
273.64	46.25
273.856	89.26
274.072	-15.19
274.287	56.49
274.503	38.06
274.719	58.54
274.934	50.35
275.15	-27.48
275.366	46.25
275.581	-43.86
275.797	64.68
276.012	72.87
276.228	119.98
276.444	95.4
276.659	83.11
276.875	13.48
277.09	42.15
277.306	-0.85
277.521	15.53
277.737	-23.38
277.952	33.96
278.168	33.96
278.383	-11.09
278.599	13.48
278.814	23.72
279.03	25.77
279.245	93.35
279.461	-19.29
279.676	13.48
279.892	-4.95
280.107	54.44
280.322	-52.05
280.538	60.59
280.753	52.39
280.969	56.49
281.184	33.96
281.399	132.26
281.615	13.48
281.83	95.4
282.045	21.67
282.26	52.39
282.476	91.31
282.691	5.29
282.906	13.48
283.122	103.59
283.337	13.48
283.552	21.67
283.767	40.11
283.983	97.45
284.198	-19.29
284.413	27.82
284.628	11.43
284.843	38.06
285.058	58.54
285.274	66.73
285.489	62.63
285.704	21.67
285.919	-9.05
286.134	54.44
286.349	48.3
286.564	36.01
286.779	93.35
286.995	29.87
287.21	-15.19
287.425	119.98
287.64	-15.19
287.855	29.87
288.07	15.53
288.285	74.92
288.5	40.11
288.715	31.91
288.93	23.72
289.145	54.44
289.36	44.2
289.575	62.63
289.79	54.44
290.004	29.87
290.219	107.69
290.434	9.39
290.649	-11.09
290.864	52.39
291.079	9.39
291.294	46.25
291.509	7.34
291.724	79.02
291.938	38.06
292.153	13.48
292.368	-0.85
292.583	-11.09
292.798	48.3
293.012	17.58
293.227	7.34
293.442	50.35
293.657	56.49
293.871	66.73
294.086	27.82
294.301	70.83
294.516	33.96
294.73	38.06
294.945	68.78
295.16	13.48
295.374	85.16
295.589	62.63
295.804	44.2
296.018	62.63
296.233	95.4
296.447	144.55
296.662	-27.48
296.877	52.39
297.091	85.16
297.306	33.96
297.52	-19.29
297.735	113.83
297.949	46.25
298.164	95.4
298.378	58.54
298.593	33.96
298.807	87.21
299.022	-9.05
299.236	5.29
299.451	44.2
299.665	23.72
299.88	56.49
300.094	13.48
300.309	83.11
300.523	25.77
300.737	-11.09
300.952	72.87
301.166	87.21
301.381	21.67
301.595	54.44
301.809	15.53
302.024	58.54
302.238	-25.43
302.452	79.02
302.667	9.39
302.881	74.92
303.095	70.83
303.309	15.53
303.524	46.25
303.738	46.25
303.952	27.82
304.166	-4.95
304.381	52.39
304.595	5.29
304.809	46.25
305.023	40.11
305.237	-27.48
305.452	-27.48
305.666	31.91
305.88	-7
306.094	99.5
306.308	-31.57
306.522	70.83
306.736	7.34
306.95	58.54
307.164	-11.09
307.379	79.02
307.593	17.58
307.807	56.49
308.021	5.29
308.235	99.5
308.449	-37.72
308.663	-9.05
308.877	111.78
309.091	38.06
309.305	46.25
309.519	38.06
309.733	115.88
309.947	3.24
310.161	70.83
310.374	33.96
310.588	95.4
310.802	70.83
311.016	-7
311.23	66.73
311.444	-23.38
311.658	31.91
311.872	103.59
312.085	40.11
312.299	44.2
312.513	56.49
312.727	72.87
312.941	15.53
313.154	21.67
313.368	48.3
313.582	31.91
313.796	15.53
314.009	21.67
314.223	-7
314.437	58.54
314.651	52.39
314.864	21.67
315.078	54.44
315.292	-21.33
315.505	-4.95
315.719	58.54
315.933	60.59
316.146	1.19
316.36	-21.33
316.573	91.31
316.787	5.29
317.001	25.77
317.214	48.3
317.428	31.91
317.641	-19.29
317.855	-33.62
318.068	70.83
318.282	23.72
318.495	81.07
318.709	-17.24
318.922	38.06
319.136	52.39
319.349	103.59
319.563	36.01
319.776	-9.05
319.99	70.83
320.203	48.3
320.417	54.44
320.63	23.72
320.843	99.5
321.057	72.87
321.27	79.02
321.483	-13.14
321.697	38.06
321.91	38.06
322.124	-0.85
322.337	46.25
322.55	9.39
322.763	33.96
322.977	44.2
323.19	-13.14
323.403	87.21
323.617	-9.05
323.83	72.87
324.043	72.87
324.256	25.77
324.469	-33.62
324.683	31.91
324.896	21.67
325.109	15.53
325.322	31.91
325.535	-17.24
325.748	79.02
325.962	5.29
326.175	29.87
326.388	31.91
326.601	27.82
326.814	31.91
327.027	44.2
327.24	54.44
327.453	11.43
327.666	60.59
327.879	83.11
328.092	31.91
328.305	1.19
328.518	17.58
328.731	42.15
328.944	46.25
329.157	1.19
329.37	23.72
329.583	42.15
329.796	31.91
330.009	17.58
330.222	46.25
330.435	36.01
330.648	46.25
330.861	95.4
331.073	95.4
331.286	54.44
331.499	23.72
331.712	29.87
331.925	79.02
332.138	-15.19
332.35	40.11
332.563	107.69
332.776	62.63
332.989	62.63
333.202	56.49
333.414	-17.24
333.627	54.44
333.84	29.87
334.053	25.77
334.265	46.25
334.478	83.11
334.691	5.29
334.903	62.63
335.116	15.53
335.329	44.2
335.541	38.06
335.754	87.21
335.966	38.06
336.179	31.91
336.392	19.63
336.604	15.53
336.817	46.25
337.029	72.87
337.242	58.54
337.454	76.97
337.667	9.39
337.88	46.25
338.092	70.83
338.305	83.11
338.517	-31.57
338.729	81.07
338.942	48.3
339.154	56.49
339.367	29.87
339.579	50.35
339.792	68.78
340.004	54.44
340.217	3.24
340.429	81.07
340.641	46.25
340.854	64.68
341.066	17.58
341.278	89.26
341.491	130.22
341.703	-0.85
341.915	-35.67
342.128	46.25
342.34	7.34
342.552	21.67
342.764	-4.95
342.977	5.29
343.189	79.02
343.401	87.21
343.613	-39.76
343.826	64.68
344.038	-35.67
344.25	74.92
344.462	-9.05
344.674	29.87
344.886	25.77
345.099	91.31
345.311	97.45
345.523	-7
345.735	-50
345.947	128.17
346.159	107.69
346.371	72.87
346.583	97.45
346.795	44.2
347.007	52.39
347.219	7.34
347.431	74.92
347.643	56.49
347.855	-4.95
348.067	56.49
348.279	-15.19
348.491	72.87
348.703	46.25
348.915	-2.9
349.127	-0.85
349.339	62.63
349.551	115.88
349.763	70.83
349.975	5.29
350.187	40.11
350.399	87.21
350.61	87.21
350.822	19.63
351.034	48.3
351.246	-25.43
351.458	42.15
351.669	27.82
351.881	70.83
352.093	111.78
352.305	31.91
352.517	79.02
352.728	40.11
352.94	-19.29
353.152	54.44
353.363	72.87
353.575	54.44
353.787	87.21
353.999	83.11
354.21	15.53
354.422	5.29
354.633	38.06
354.845	68.78
355.057	-27.48
355.268	31.91
355.48	38.06
355.692	-2.9
355.903	70.83
356.115	42.15
356.326	9.39
356.538	29.87
356.749	17.58
356.961	99.5
357.172	-0.85
357.384	50.35
357.595	74.92
357.807	64.68
358.018	-74.58
358.23	29.87
358.441	66.73
358.653	40.11
358.864	48.3
359.075	40.11
359.287	13.48
359.498	74.92
359.709	9.39
359.921	95.4
360.132	54.44
360.344	56.49
360.555	36.01
360.766	46.25
360.977	95.4
361.189	-0.85
361.4	13.48
361.611	111.78
361.823	3.24
362.034	66.73
362.245	-27.48
362.456	50.35
362.667	89.26
362.879	44.2
363.09	29.87
363.301	33.96
363.512	33.96
363.723	105.64
363.935	54.44
364.146	54.44
364.357	-31.57
364.568	122.02
364.779	23.72
364.99	124.07
365.201	33.96
365.412	50.35
365.623	-0.85
365.834	79.02
366.045	29.87
366.256	27.82
366.467	132.26
366.678	11.43
366.889	21.67
367.1	62.63
367.311	91.31
367.522	5.29
367.733	138.41
367.944	46.25
368.155	-11.09
368.366	48.3
368.577	91.31
368.788	7.34
368.999	66.73
369.209	13.48
369.42	66.73
369.631	48.3
369.842	15.53
370.053	56.49
370.264	74.92
370.474	42.15
370.685	62.63
370.896	64.68
371.107	79.02
371.317	128.17
371.528	7.34
371.739	97.45
371.95	85.16
372.16	17.58
372.371	46.25
372.582	56.49
372.792	11.43
373.003	91.31
373.214	93.35
373.424	17.58
373.635	46.25
373.846	101.55
374.056	74.92
374.267	81.07
374.477	66.73
374.688	40.11
374.898	56.49
375.109	48.3
375.319	79.02
375.53	81.07
375.74	70.83
375.951	52.39
376.161	15.53
376.372	91.31
376.582	38.06
376.793	42.15
377.003	-15.19
377.214	79.02
377.424	7.34
377.635	13.48
377.845	66.73
378.055	58.54
378.266	15.53
378.476	-19.29
378.686	21.67
378.897	40.11
379.107	29.87
379.317	72.87
379.528	62.63
379.738	21.67
379.948	40.11
380.158	95.4
380.369	91.31
380.579	70.83
380.789	83.11
380.999	113.83
381.21	46.25
381.42	89.26
381.63	99.5
381.84	119.98
382.05	54.44
382.261	17.58
382.471	29.87
382.681	72.87
382.891	74.92
383.101	70.83
383.311	-7
383.521	97.45
383.731	109.74
383.941	50.35
384.151	89.26
384.361	56.49
384.571	40.11
384.781	17.58
384.991	128.17
385.201	134.31
385.411	72.87
385.621	95.4
385.831	50.35
386.041	42.15
386.251	95.4
386.461	40.11
386.671	66.73
386.881	54.44
387.091	15.53
387.301	97.45
387.511	72.87
387.72	-0.85
387.93	87.21
388.14	50.35
388.35	-4.95
388.56	54.44
388.769	109.74
388.979	48.3
389.189	62.63
389.399	83.11
389.609	76.97
389.818	-35.67
390.028	74.92
390.238	132.26
390.447	62.63
390.657	70.83
390.867	5.29
391.076	5.29
391.286	103.59
391.496	58.54
391.705	64.68
391.915	195.75
392.125	48.3
392.334	33.96
392.544	87.21
392.753	29.87
392.963	25.77
393.172	46.25
393.382	-9.05
393.591	33.96
393.801	56.49
394.01	76.97
394.22	56.49
394.429	119.98
394.639	42.15
394.848	87.21
395.058	79.02
395.267	87.21
395.477	54.44
395.686	93.35
395.895	81.07
396.105	167.08
396.314	109.74
396.524	89.26
396.733	46.25
396.942	144.55
397.152	107.69
397.361	128.17
397.57	99.5
397.78	62.63
397.989	107.69
398.198	185.51
398.407	79.02
398.617	76.97
398.826	97.45
399.035	117.93
399.244	115.88
399.453	152.74
399.663	124.07
399.872	148.65
400.081	93.35
400.29	64.68
400.499	46.25
400.708	130.22
400.917	140.46
401.127	148.65
401.336	79.02
401.545	130.22
401.754	160.94
401.963	130.22
402.172	58.54
402.381	103.59
402.59	132.26
402.799	136.36
403.008	158.89
403.217	93.35
403.426	136.36
403.635	72.87
403.844	103.59
404.053	70.83
404.262	171.18
404.471	105.64
404.68	105.64
404.888	165.03
405.097	132.26
405.306	177.32
405.515	197.8
405.724	134.31
405.933	195.75
406.142	103.59
406.35	152.74
406.559	152.74
406.768	160.94
406.977	218.28
407.185	214.18
407.394	187.56
407.603	195.75
407.812	255.14
408.02	261.29
408.229	230.57
408.438	279.72
408.646	226.47
408.855	283.81
409.064	259.24
409.272	261.29
409.481	287.91
409.69	283.81
409.898	220.33
410.107	289.96
410.315	255.14
410.524	351.4
410.733	277.67
410.941	341.16
411.15	296.1
411.358	369.83
411.567	402.6
411.775	361.64
411.984	341.16
412.192	425.12
412.401	388.26
412.609	496.8
412.818	410.79
413.026	464.04
413.234	482.47
413.443	507.04
413.651	498.85
413.86	570.53
414.068	656.54
414.276	548
414.485	631.97
414.693	654.5
414.901	629.92
415.11	644.26
415.318	711.84
415.526	717.98
415.734	777.37
415.943	775.33
416.151	783.52
416.359	742.56
416.567	851.1
416.776	789.66
416.984	918.68
417.192	971.93
417.4	918.68
417.608	855.2
417.817	1014.94
418.025	1012.89
418.233	1096.86
418.441	1047.71
418.649	1062.04
418.857	1176.73
419.065	1238.17
419.273	1203.35
419.481	1402.01
419.689	1381.53
419.897	1434.77
420.105	1365.14
420.313	1514.64
420.521	1555.6
420.729	1561.75
420.937	1637.52
421.145	1713.3
421.353	1658
421.561	1866.89
421.769	1995.92
421.977	2012.3
422.185	1920.14
422.393	2036.88
422.601	2268.3
422.809	2227.34
423.017	2190.47
423.224	2280.58
423.432	2462.85
423.64	2378.89
423.848	2667.65
424.056	2552.96
424.263	2667.65
424.471	2679.94
424.679	2849.92
424.887	2987.13
425.094	3040.38
425.302	3093.63
425.51	3077.24
425.718	3359.86
425.925	3267.7
426.133	3232.89
426.341	3568.76
426.548	3777.65
426.756	3746.93
426.964	3839.09
427.171	3941.49
427.379	4101.23
427.586	4193.39
427.794	4275.31
428.001	4539.49
428.209	4772.96
428.417	4570.21
428.624	4996.19
428.832	4918.37
429.039	5055.58
429.247	4916.32
429.454	5391.45
429.662	5768.27
429.869	5289.05
430.076	5829.71
430.284	5483.61
430.491	5889.1
430.699	6143.05
430.906	6005.84
431.114	6388.81
431.321	6534.21
431.528	6722.63
431.736	7124.03
431.943	7316.54
432.15	7058.49
432.358	7173.18
432.565	7593.01
432.772	7459.9
432.979	7961.65
433.187	8074.29
433.394	8014.9
433.601	8610.86
433.808	8887.33
434.016	8766.5
434.223	8942.63
434.43	9456.67
434.637	9405.47
434.844	9868.31
435.052	10128.4
435.259	10083.34
435.466	10105.87
435.673	9856.02
435.88	10458.12
436.087	11189.25
436.294	11260.93
436.501	10910.72
436.708	11271.17
436.915	11637.75
437.122	12035.06
437.329	12012.53
437.537	12325.87
437.743	12585.96
437.95	12538.86
438.157	13224.93
438.364	13822.94
438.571	13769.69
438.778	13671.39
438.985	14949.32
439.192	14408.65
439.399	14941.13
439.606	14482.38
439.813	15424.45
440.02	16159.67
440.227	15850.42
440.433	15713.21
440.64	16274.35
440.847	16284.59
441.054	16817.07
441.261	17533.86
441.467	17636.25
441.674	17826.71
441.881	18559.89
442.088	18758.54
442.294	18402.19
442.501	18629.52
442.708	19022.73
442.914	19780.48
443.121	20712.3
443.328	20081.53
443.534	21429.09
443.741	20726.64
443.948	20667.25
444.154	22180.7
444.361	22008.67
444.568	22313.81
444.774	22336.34
444.981	22426.45
445.187	23212.87
445.394	24070.97
445.6	23751.49
445.807	25869.09
446.013	24763.18
446.22	25144.11
446.426	26536.73
446.633	26544.92
446.839	27613.96
447.046	26174.24
447.252	27691.78
447.459	27327.24
447.665	27792.13
447.871	28920.56
448.078	30024.42
448.284	28660.47
448.491	29410.03
448.697	30466.78
448.903	31027.92
449.11	31242.96
449.316	30825.17
449.522	31265.49
449.728	32094.91
449.935	32383.68
450.141	32459.45
450.347	32715.45
450.553	31883.97
450.76	32187.07
450.966	33174.19
451.172	33067.7
451.378	34185.89
451.584	33170.1
451.791	34482.84
451.997	33852.07
452.203	34587.29
452.409	34538.14
452.615	34155.17
452.821	32967.35
453.027	32688.82
453.233	34464.41
453.44	33319.6
453.646	33485.48
453.852	33604.27
454.058	34259.62
454.264	32813.75
454.47	33903.27
454.676	32948.92
454.882	33938.08
455.088	31148.75
455.294	31507.15
455.5	32410.3
455.705	32287.42
455.911	31245.01
456.117	30790.36
456.323	30251.74
456.529	28713.72
456.735	29551.34
456.941	29059.82
457.147	28625.65
457.352	27919.1
457.558	27464.46
457.764	28041.98
457.97	26888.98
458.176	26235.67
458.381	26626.84
458.587	25436.97
458.793	25029.42
458.999	23878.46
459.204	25492.26
459.41	24752.94
459.616	23374.66
459.821	23432.01
460.027	23202.63
460.233	22526.8
460.438	21724
460.644	21992.28
460.85	20994.92
461.055	20415.35
461.261	20421.49
461.466	18969.48
461.672	18647.95
461.878	19620.74
462.083	18563.98
462.289	18207.64
462.494	17730.46
462.7	17226.66
462.905	16581.55
463.111	17038.25
463.316	17175.46
463.522	16788.39
463.727	16931.75
463.932	16962.47
464.138	16597.93
464.343	16878.51
464.549	16393.14
464.754	16939.94
464.959	16686
465.165	16706.48
465.37	15729.59
465.575	15590.33
465.781	15924.15
465.986	16270.26
466.191	15561.66
466.397	15578.04
466.602	14447.57
466.807	15178.69
467.012	15156.16
467.218	14939.08
467.423	14943.17
467.628	14912.46
467.833	15352.77
468.038	15023.05
