Data from USB4F104151__251__14-22-36-861.txt Node

Date: Thu Mar 13 14:22:36 EDT 2025
User: louis
Spectrometer: USB4F10415
Trigger mode: 4
Integration Time (sec): 2.000000E-2
Scans to average: 1
Electric dark correction enabled: true
Nonlinearity correction enabled: false
Boxcar width: 0
XAxis mode: Wavelengths
Number of Pixels in Spectrum: 3648
>>>>>Begin Spectral Data<<<<<
178.204	-117.25
178.424	-117.25
178.644	-117.25
178.864	-135.68
179.084	-168.45
179.304	-57.86
179.524	-25.09
179.744	-14.85
179.964	15.87
180.184	-27.14
180.404	40.45
180.624	7.68
180.844	38.4
181.064	11.78
181.283	-16.9
181.503	-12.8
181.723	40.45
181.943	-45.57
182.163	83.45
182.383	-82.43
182.602	85.5
182.822	-0.51
183.042	50.69
183.262	91.65
183.482	26.11
183.701	32.26
183.921	-14.85
184.141	24.06
184.361	81.41
184.58	56.83
184.8	-2.56
185.02	65.02
185.239	97.79
185.459	5.63
185.679	24.06
185.898	-16.9
186.118	50.69
186.338	67.07
186.557	1.54
186.777	-14.85
186.997	-10.75
187.216	-33.28
187.436	24.06
187.655	26.11
187.875	24.06
188.095	112.13
188.314	3.58
188.534	93.69
188.753	-4.61
188.973	24.06
189.192	85.5
189.412	-6.66
189.631	73.21
189.851	11.78
190.07	15.87
190.29	-8.7
190.509	40.45
190.729	-0.51
190.948	73.21
191.168	79.36
191.387	85.5
191.607	7.68
191.826	32.26
192.045	1.54
192.265	28.16
192.484	85.5
192.704	26.11
192.923	9.73
193.142	46.59
193.362	24.06
193.581	17.92
193.8	34.3
194.02	34.3
194.239	40.45
194.458	26.11
194.678	30.21
194.897	-2.56
195.116	-20.99
195.335	17.92
195.555	-74.24
195.774	48.64
195.993	-0.51
196.212	65.02
196.432	32.26
196.651	-25.09
196.87	26.11
197.089	148.99
197.308	52.74
197.528	9.73
197.747	52.74
197.966	1.54
198.185	132.61
198.404	46.59
198.623	77.31
198.842	120.32
199.062	62.98
199.281	89.6
199.5	-39.42
199.719	42.5
199.938	79.36
200.157	65.02
200.376	24.06
200.595	48.64
200.814	7.68
201.033	7.68
201.252	60.93
201.471	-10.75
201.69	58.88
201.909	42.5
202.128	40.45
202.347	1.54
202.566	34.3
202.785	-27.14
203.004	-16.9
203.223	79.36
203.442	32.26
203.661	7.68
203.879	-45.57
204.098	81.41
204.317	-20.99
204.536	73.21
204.755	50.69
204.974	65.02
205.193	44.54
205.411	42.5
205.63	11.78
205.849	69.12
206.068	-12.8
206.287	40.45
206.505	22.02
206.724	65.02
206.943	-49.66
207.162	-53.76
207.381	7.68
207.599	48.64
207.818	44.54
208.037	67.07
208.255	-14.85
208.474	-49.66
208.693	67.07
208.911	17.92
209.13	40.45
209.349	44.54
209.567	65.02
209.786	101.89
210.005	73.21
210.223	32.26
210.442	44.54
210.661	7.68
210.879	28.16
211.098	3.58
211.316	40.45
211.535	65.02
211.753	-8.7
211.972	-25.09
212.191	-57.86
212.409	50.69
212.628	-37.38
212.846	15.87
213.065	77.31
213.283	159.23
213.502	58.88
213.72	36.35
213.938	11.78
214.157	83.45
214.375	38.4
214.594	50.69
214.812	-16.9
215.031	38.4
215.249	42.5
215.467	40.45
215.686	56.83
215.904	1.54
216.122	-0.51
216.341	-12.8
216.559	77.31
216.778	3.58
216.996	32.26
217.214	13.82
217.432	52.74
217.651	-61.95
217.869	-51.71
218.087	83.45
218.306	36.35
218.524	44.54
218.742	-0.51
218.96	9.73
219.179	36.35
219.397	83.45
219.615	52.74
219.833	56.83
220.051	-2.56
220.27	93.69
220.488	36.35
220.706	56.83
220.924	65.02
221.142	34.3
221.36	38.4
221.578	69.12
221.796	24.06
222.015	1.54
222.233	65.02
222.451	85.5
222.669	9.73
222.887	19.97
223.105	93.69
223.323	60.93
223.541	69.12
223.759	67.07
223.977	15.87
224.195	46.59
224.413	13.82
224.631	54.78
224.849	9.73
225.067	99.84
225.285	26.11
225.503	-8.7
225.721	-23.04
225.939	15.87
226.157	-37.38
226.375	58.88
226.592	7.68
226.81	-14.85
227.028	122.37
227.246	99.84
227.464	17.92
227.682	-49.66
227.9	19.97
228.117	22.02
228.335	-41.47
228.553	-12.8
228.771	36.35
228.989	15.87
229.206	-27.14
229.424	69.12
229.642	13.82
229.86	-16.9
230.077	-8.7
230.295	50.69
230.513	-0.51
230.731	26.11
230.948	67.07
231.166	97.79
231.384	-74.24
231.601	-12.8
231.819	17.92
232.037	24.06
232.254	24.06
232.472	15.87
232.689	-4.61
232.907	3.58
233.125	-39.42
233.342	3.58
233.56	28.16
233.777	-0.51
233.995	24.06
234.213	75.26
234.43	-47.62
234.648	-18.94
234.865	38.4
235.083	56.83
235.3	-2.56
235.518	60.93
235.735	110.08
235.953	9.73
236.17	-20.99
236.388	95.74
236.605	-0.51
236.822	11.78
237.04	89.6
237.257	-14.85
237.475	13.82
237.692	48.64
237.909	69.12
238.127	56.83
238.344	5.63
238.562	32.26
238.779	-49.66
238.996	7.68
239.214	3.58
239.431	73.21
239.648	15.87
239.865	71.17
240.083	58.88
240.3	11.78
240.517	-70.14
240.735	42.5
240.952	48.64
241.169	56.83
241.386	24.06
241.603	44.54
241.821	1.54
242.038	85.5
242.255	22.02
242.472	9.73
242.689	60.93
242.907	65.02
243.124	40.45
243.341	-23.04
243.558	15.87
243.775	36.35
243.992	-80.38
244.209	-25.09
244.426	114.17
244.643	56.83
244.86	58.88
245.078	-0.51
245.295	44.54
245.512	-47.62
245.729	40.45
245.946	105.98
246.163	34.3
246.38	-74.24
246.597	73.21
246.814	-16.9
247.031	15.87
247.248	42.5
247.464	1.54
247.681	36.35
247.898	-8.7
248.115	42.5
248.332	38.4
248.549	-8.7
248.766	58.88
248.983	7.68
249.2	5.63
249.417	89.6
249.633	1.54
249.85	-16.9
250.067	-61.95
250.284	17.92
250.501	65.02
250.717	65.02
250.934	-20.99
251.151	15.87
251.368	-57.86
251.585	60.93
251.801	17.92
252.018	-57.86
252.235	83.45
252.451	7.68
252.668	-12.8
252.885	93.69
253.102	-8.7
253.318	-14.85
253.535	11.78
253.752	15.87
253.968	-8.7
254.185	-12.8
254.401	7.68
254.618	15.87
254.835	52.74
255.051	73.21
255.268	67.07
255.484	91.65
255.701	19.97
255.917	3.58
256.134	15.87
256.351	99.84
256.567	19.97
256.784	34.3
257	9.73
257.217	83.45
257.433	-0.51
257.65	77.31
257.866	97.79
258.082	-8.7
258.299	-2.56
258.515	1.54
258.732	11.78
258.948	-6.66
259.165	13.82
259.381	-23.04
259.597	58.88
259.814	-33.28
260.03	42.5
260.246	15.87
260.463	-0.51
260.679	32.26
260.895	15.87
261.112	7.68
261.328	11.78
261.544	48.64
261.761	24.06
261.977	58.88
262.193	5.63
262.409	75.26
262.626	40.45
262.842	11.78
263.058	7.68
263.274	73.21
263.49	36.35
263.707	26.11
263.923	-10.75
264.139	36.35
264.355	15.87
264.571	15.87
264.787	32.26
265.004	124.41
265.22	22.02
265.436	-6.66
265.652	60.93
265.868	73.21
266.084	-16.9
266.3	36.35
266.516	-2.56
266.732	7.68
266.948	-25.09
267.164	40.45
267.38	79.36
267.596	60.93
267.812	62.98
268.028	71.17
268.244	-61.95
268.46	15.87
268.676	-0.51
268.892	65.02
269.108	-47.62
269.324	-39.42
269.54	11.78
269.756	26.11
269.972	3.58
270.188	40.45
270.403	91.65
270.619	1.54
270.835	-10.75
271.051	40.45
271.267	19.97
271.483	15.87
271.698	26.11
271.914	13.82
272.13	-4.61
272.346	32.26
272.562	52.74
272.777	28.16
272.993	83.45
273.209	36.35
273.425	-4.61
273.64	24.06
273.856	7.68
274.072	26.11
274.287	44.54
274.503	114.17
274.719	50.69
274.934	7.68
275.15	-41.47
275.366	3.58
275.581	7.68
275.797	60.93
276.012	60.93
276.228	-14.85
276.444	-6.66
276.659	58.88
276.875	48.64
277.09	32.26
277.306	-23.04
277.521	17.92
277.737	34.3
277.952	73.21
278.168	56.83
278.383	7.68
278.599	52.74
278.814	11.78
279.03	34.3
279.245	60.93
279.461	67.07
279.676	28.16
279.892	-0.51
280.107	15.87
280.322	32.26
280.538	48.64
280.753	56.83
280.969	-45.57
281.184	56.83
281.399	118.27
281.615	-53.76
281.83	42.5
282.045	-90.62
282.26	-12.8
282.476	3.58
282.691	122.37
282.906	50.69
283.122	13.82
283.337	34.3
283.552	26.11
283.767	-16.9
283.983	17.92
284.198	38.4
284.413	42.5
284.628	42.5
284.843	1.54
285.058	15.87
285.274	17.92
285.489	42.5
285.704	81.41
285.919	32.26
286.134	42.5
286.349	9.73
286.564	48.64
286.779	24.06
286.995	67.07
287.21	17.92
287.425	48.64
287.64	32.26
287.855	15.87
288.07	-16.9
288.285	-33.28
288.5	99.84
288.715	128.51
288.93	-14.85
289.145	22.02
289.36	91.65
289.575	28.16
289.79	17.92
290.004	-12.8
290.219	36.35
290.434	28.16
290.649	-82.43
290.864	-4.61
291.079	-16.9
291.294	-12.8
291.509	24.06
291.724	108.03
291.938	11.78
292.153	7.68
292.368	17.92
292.583	9.73
292.798	58.88
293.012	36.35
293.227	-39.42
293.442	62.98
293.657	5.63
293.871	73.21
294.086	52.74
294.301	62.98
294.516	110.08
294.73	-8.7
294.945	-41.47
295.16	60.93
295.374	56.83
295.589	44.54
295.804	15.87
296.018	65.02
296.233	48.64
296.447	58.88
296.662	91.65
296.877	54.78
297.091	15.87
297.306	5.63
297.52	-47.62
297.735	9.73
297.949	17.92
298.164	71.17
298.378	7.68
298.593	89.6
298.807	-23.04
299.022	-8.7
299.236	-8.7
299.451	17.92
299.665	-8.7
299.88	-16.9
300.094	52.74
300.309	-12.8
300.523	48.64
300.737	81.41
300.952	24.06
301.166	28.16
301.381	-8.7
301.595	9.73
301.809	-70.14
302.024	7.68
302.238	85.5
302.452	36.35
302.667	32.26
302.881	71.17
303.095	-10.75
303.309	24.06
303.524	7.68
303.738	38.4
303.952	-18.94
304.166	30.21
304.381	-41.47
304.595	34.3
304.809	19.97
305.023	65.02
305.237	34.3
305.452	-4.61
305.666	32.26
305.88	79.36
306.094	26.11
306.308	-20.99
306.522	46.59
306.736	34.3
306.95	7.68
307.164	65.02
307.379	15.87
307.593	122.37
307.807	3.58
308.021	32.26
308.235	65.02
308.449	-23.04
308.663	-18.94
308.877	97.79
309.091	40.45
309.305	69.12
309.519	1.54
309.733	-23.04
309.947	1.54
310.161	26.11
310.374	48.64
310.588	62.98
310.802	28.16
311.016	67.07
311.23	58.88
311.444	-20.99
311.658	50.69
311.872	52.74
312.085	79.36
312.299	26.11
312.513	30.21
312.727	-16.9
312.941	22.02
313.154	-0.51
313.368	24.06
313.582	-6.66
313.796	17.92
314.009	-20.99
314.223	114.17
314.437	32.26
314.651	3.58
314.864	58.88
315.078	1.54
315.292	-0.51
315.505	-0.51
315.719	50.69
315.933	67.07
316.146	155.13
316.36	15.87
316.573	24.06
316.787	71.17
317.001	42.5
317.214	-33.28
317.428	54.78
317.641	-25.09
317.855	65.02
318.068	-25.09
318.282	5.63
318.495	54.78
318.709	91.65
318.922	58.88
319.136	114.17
319.349	15.87
319.563	73.21
319.776	93.69
319.99	-37.38
320.203	95.74
320.417	67.07
320.63	40.45
320.843	62.98
321.057	56.83
321.27	40.45
321.483	62.98
321.697	28.16
321.91	28.16
322.124	24.06
322.337	32.26
322.55	83.45
322.763	-45.57
322.977	40.45
323.19	95.74
323.403	15.87
323.617	58.88
323.83	9.73
324.043	77.31
324.256	-8.7
324.469	13.82
324.683	30.21
324.896	-6.66
325.109	-0.51
325.322	-64
325.535	65.02
325.748	69.12
325.962	-25.09
326.175	42.5
326.388	91.65
326.601	40.45
326.814	-29.18
327.027	7.68
327.24	142.85
327.453	9.73
327.666	38.4
327.879	-10.75
328.092	48.64
328.305	34.3
328.518	-0.51
328.731	-2.56
328.944	15.87
329.157	-14.85
329.37	42.5
329.583	50.69
329.796	83.45
330.009	40.45
330.222	22.02
330.435	56.83
330.648	3.58
330.861	-8.7
331.073	116.22
331.286	62.98
331.499	36.35
331.712	67.07
331.925	-0.51
332.138	52.74
332.35	83.45
332.563	56.83
332.776	32.26
332.989	-49.66
333.202	7.68
333.414	7.68
333.627	36.35
333.84	-25.09
334.053	15.87
334.265	-31.23
334.478	-0.51
334.691	-8.7
334.903	67.07
335.116	-16.9
335.329	75.26
335.541	-14.85
335.754	11.78
335.966	28.16
336.179	40.45
336.392	40.45
336.604	-12.8
336.817	11.78
337.029	81.41
337.242	-0.51
337.454	22.02
337.667	-0.51
337.88	67.07
338.092	103.93
338.305	54.78
338.517	124.41
338.729	48.64
338.942	34.3
339.154	-55.81
339.367	-16.9
339.579	46.59
339.792	-8.7
340.004	26.11
340.217	44.54
340.429	97.79
340.641	-33.28
340.854	15.87
341.066	9.73
341.278	79.36
341.491	60.93
341.703	56.83
341.915	-37.38
342.128	60.93
342.34	87.55
342.552	1.54
342.764	60.93
342.977	48.64
343.189	-57.86
343.401	50.69
343.613	-20.99
343.826	-0.51
344.038	22.02
344.25	36.35
344.462	-4.61
344.674	7.68
344.886	24.06
345.099	9.73
345.311	40.45
345.523	42.5
345.735	1.54
345.947	7.68
346.159	65.02
346.371	67.07
346.583	-0.51
346.795	56.83
347.007	17.92
347.219	69.12
347.431	1.54
347.643	-6.66
347.855	17.92
348.067	79.36
348.279	7.68
348.491	-14.85
348.703	-37.38
348.915	15.87
349.127	32.26
349.339	71.17
349.551	32.26
349.763	71.17
349.975	32.26
350.187	56.83
350.399	38.4
350.61	28.16
350.822	81.41
351.034	65.02
351.246	52.74
351.458	56.83
351.669	75.26
351.881	110.08
352.093	-8.7
352.305	175.61
352.517	40.45
352.728	56.83
352.94	73.21
353.152	-18.94
353.363	-41.47
353.575	81.41
353.787	42.5
353.999	-16.9
354.21	36.35
354.422	7.68
354.633	-2.56
354.845	32.26
355.057	116.22
355.268	32.26
355.48	19.97
355.692	-0.51
355.903	81.41
356.115	3.58
356.326	32.26
356.538	67.07
356.749	69.12
356.961	99.84
357.172	56.83
357.384	-25.09
357.595	114.17
357.807	46.59
358.018	26.11
358.23	32.26
358.441	81.41
358.653	9.73
358.864	67.07
359.075	-12.8
359.287	9.73
359.498	-27.14
359.709	-49.66
359.921	60.93
360.132	46.59
360.344	32.26
360.555	101.89
360.766	9.73
360.977	15.87
361.189	89.6
361.4	-4.61
361.611	146.94
361.823	65.02
362.034	48.64
362.245	-12.8
362.456	26.11
362.667	77.31
362.879	13.82
363.09	105.98
363.301	26.11
363.512	-61.95
363.723	30.21
363.935	32.26
364.146	42.5
364.357	34.3
364.568	52.74
364.779	-16.9
364.99	85.5
365.201	-6.66
365.412	54.78
365.623	5.63
365.834	9.73
366.045	85.5
366.256	89.6
366.467	56.83
366.678	-33.28
366.889	9.73
367.1	114.17
367.311	19.97
367.522	44.54
367.733	15.87
367.944	34.3
368.155	34.3
368.366	42.5
368.577	-39.42
368.788	114.17
368.999	-16.9
369.209	-10.75
369.42	130.56
369.631	36.35
369.842	36.35
370.053	48.64
370.264	46.59
370.474	40.45
370.685	-20.99
370.896	32.26
371.107	34.3
371.317	48.64
371.528	1.54
371.739	81.41
371.95	-18.94
372.16	69.12
372.371	-10.75
372.582	15.87
372.792	81.41
373.003	-0.51
373.214	24.06
373.424	40.45
373.635	15.87
373.846	40.45
374.056	28.16
374.267	26.11
374.477	67.07
374.688	28.16
374.898	26.11
375.109	50.69
375.319	7.68
375.53	73.21
375.74	7.68
375.951	28.16
376.161	112.13
376.372	97.79
376.582	105.98
376.793	26.11
377.003	54.78
377.214	89.6
377.424	7.68
377.635	110.08
377.845	7.68
378.055	75.26
378.266	17.92
378.476	56.83
378.686	22.02
378.897	40.45
379.107	58.88
379.317	48.64
379.528	42.5
379.738	81.41
379.948	26.11
380.158	97.79
380.369	26.11
380.579	58.88
380.789	40.45
380.999	60.93
381.21	32.26
381.42	-29.18
381.63	-37.38
381.84	-4.61
382.05	-20.99
382.261	11.78
382.471	71.17
382.681	-18.94
382.891	9.73
383.101	-31.23
383.311	40.45
383.521	38.4
383.731	19.97
383.941	52.74
384.151	97.79
384.361	26.11
384.571	40.45
384.781	56.83
384.991	79.36
385.201	108.03
385.411	34.3
385.621	83.45
385.831	11.78
386.041	67.07
386.251	73.21
386.461	46.59
386.671	-0.51
386.881	32.26
387.091	44.54
387.301	69.12
387.511	-25.09
387.72	-4.61
387.93	73.21
388.14	54.78
388.35	159.23
388.56	32.26
388.769	36.35
388.979	46.59
389.189	19.97
389.399	60.93
389.609	24.06
389.818	114.17
390.028	30.21
390.238	120.32
390.447	-8.7
390.657	-16.9
390.867	52.74
391.076	71.17
391.286	32.26
391.496	71.17
391.705	9.73
391.915	77.31
392.125	65.02
392.334	95.74
392.544	93.69
392.753	67.07
392.963	28.16
393.172	52.74
393.382	-16.9
393.591	142.85
393.801	15.87
394.01	73.21
394.22	56.83
394.429	65.02
394.639	-12.8
394.848	77.31
395.058	38.4
395.267	77.31
395.477	87.55
395.686	24.06
395.895	110.08
396.105	138.75
396.314	38.4
396.524	15.87
396.733	44.54
396.942	97.79
397.152	19.97
397.361	42.5
397.57	142.85
397.78	42.5
397.989	56.83
398.198	101.89
398.407	77.31
398.617	81.41
398.826	108.03
399.035	77.31
399.244	73.21
399.453	-12.8
399.663	34.3
399.872	148.99
400.081	58.88
400.29	159.23
400.499	58.88
400.708	91.65
400.917	73.21
401.127	50.69
401.336	81.41
401.545	183.81
401.754	81.41
401.963	163.33
402.172	73.21
402.381	56.83
402.59	65.02
402.799	48.64
403.008	67.07
403.217	146.94
403.426	77.31
403.635	9.73
403.844	81.41
404.053	89.6
404.262	85.5
404.471	204.28
404.68	140.8
404.888	175.61
405.097	142.85
405.306	124.41
405.515	142.85
405.724	101.89
405.933	89.6
406.142	87.55
406.35	206.33
406.559	173.57
406.768	126.46
406.977	153.09
407.185	171.52
407.394	118.27
407.603	148.99
407.812	65.02
408.02	237.05
408.229	157.18
408.438	204.28
408.646	161.28
408.855	97.79
409.064	271.87
409.272	165.37
409.481	265.72
409.69	165.37
409.898	232.96
410.107	97.79
410.315	247.29
410.524	122.37
410.733	261.63
410.941	222.72
411.15	290.3
411.358	224.76
411.567	253.44
411.775	343.55
411.984	237.05
412.192	304.64
412.401	294.4
412.609	321.02
412.818	343.55
413.026	333.31
413.234	306.68
413.443	370.17
413.651	366.07
413.86	380.41
414.068	368.12
414.276	431.61
414.485	407.03
414.693	478.71
414.901	523.77
415.11	531.96
415.318	491
415.526	478.71
415.734	552.44
415.943	564.73
416.151	605.69
416.359	536.06
416.567	554.49
416.776	630.26
416.984	564.73
417.192	663.03
417.4	640.5
417.608	550.39
417.817	632.31
418.025	736.76
418.233	790
418.441	722.42
418.649	728.56
418.857	800.24
419.065	859.63
419.273	902.64
419.481	951.79
419.689	892.4
419.897	1027.57
420.105	986.61
420.313	1015.28
420.521	1033.71
420.729	1123.82
420.937	1072.62
421.145	1056.24
421.353	1211.89
421.561	1236.46
421.769	1230.32
421.977	1316.33
422.185	1345
422.393	1295.85
422.601	1457.64
422.809	1467.88
423.017	1623.53
423.224	1555.94
423.432	1625.58
423.64	1631.72
423.848	1822.18
424.056	1744.36
424.263	1811.94
424.471	1689.06
424.679	1875.43
424.887	1975.78
425.094	1994.21
425.302	2031.07
425.51	2121.18
425.718	2293.21
425.925	2213.34
426.133	2319.84
426.341	2477.53
426.548	2549.21
426.756	2575.83
426.964	2633.18
427.171	2743.77
427.379	2801.11
427.586	2799.06
427.794	2907.6
428.001	3077.59
428.209	3120.59
428.417	3040.72
428.624	3392.97
428.832	3323.34
429.039	3298.77
429.247	3206.61
429.454	3739.08
429.662	3980.74
429.869	3616.2
430.076	3777.99
430.284	3710.41
430.491	4072.9
430.699	4138.43
430.906	4142.53
431.114	4134.34
431.321	4273.6
431.528	4505.02
431.736	4767.16
431.943	4826.55
432.15	4844.98
432.358	4924.85
432.565	5105.07
432.772	5037.49
432.979	5393.84
433.187	5467.56
433.394	5324.21
433.601	5819.82
433.808	5926.31
434.016	5723.56
434.223	6079.91
434.43	6364.57
434.637	6071.72
434.844	6684.06
435.052	6692.25
435.259	6679.96
435.466	6825.37
435.673	6733.21
435.88	7126.42
436.087	7626.12
436.294	7603.6
436.501	7316.88
436.708	7413.13
436.915	7757.19
437.122	7947.65
437.329	8043.91
437.537	8430.98
437.743	8478.08
437.95	8412.54
438.157	8758.65
438.364	9094.52
438.571	9108.85
438.778	8996.21
438.985	10104.17
439.192	9553.26
439.399	9866.6
439.606	9575.79
439.813	10181.99
440.02	10841.43
440.227	10757.47
440.433	10698.08
440.64	10792.28
440.847	10716.51
441.054	11064.66
441.261	11820.36
441.467	11634
441.674	12072.26
441.881	12232.01
442.088	12346.69
442.294	12156.23
442.501	12254.53
442.708	12676.41
442.914	13190.45
443.121	13802.8
443.328	13653.3
443.534	14476.58
443.741	14034.22
443.948	13708.59
444.154	14765.34
444.361	14925.08
444.568	14740.77
444.774	14695.71
444.981	14689.57
445.187	15127.83
445.394	15998.22
445.6	15846.67
445.807	17409.27
446.013	16309.51
446.22	16803.07
446.426	17532.15
446.633	17546.48
446.839	18226.41
447.046	17505.52
447.252	18595.04
447.459	18570.47
447.665	18316.52
447.871	19264.73
448.078	20126.92
448.284	19188.96
448.491	19311.83
448.697	20427.98
448.903	20393.16
449.11	20702.4
449.316	20561.09
449.522	20899.01
449.728	21411
449.935	21458.1
450.141	21474.49
450.347	21986.48
450.553	21525.69
450.76	21695.67
450.966	22578.34
451.172	22160.56
451.378	22707.37
451.584	21937.33
451.791	22840.48
451.997	22717.61
452.203	23219.36
452.409	23329.95
452.615	22865.06
452.821	22267.05
453.027	22121.65
453.233	22955.17
453.44	22363.31
453.646	22686.89
453.852	22934.69
454.058	23262.37
454.264	22213.81
454.47	22709.41
454.676	22049.97
454.882	23053.47
455.088	21230.78
455.294	21490.87
455.5	21771.44
455.705	21927.09
455.911	20929.73
456.117	20604.1
456.323	20440.26
456.529	19442.9
456.735	20219.08
456.941	19475.67
457.147	19473.62
457.352	18883.81
457.558	18695.39
457.764	18586.85
457.97	18296.04
458.176	17908.97
458.381	18158.83
458.587	16940.29
458.793	17009.92
458.999	16205.06
459.204	17337.59
459.41	16956.67
459.616	15514.9
459.821	15803.66
460.027	15797.52
460.233	15410.45
460.438	14783.77
460.644	14986.52
460.85	14318.89
461.055	14001.45
461.261	14019.88
461.466	13110.58
461.672	12275.01
461.878	13532.47
462.083	12498.24
462.289	12082.5
462.494	12180.81
462.7	11720.01
462.905	11124.05
463.111	11734.35
463.316	11578.7
463.522	11421.01
463.727	11468.11
463.932	11414.87
464.138	11525.46
464.343	11562.32
464.549	11101.53
464.754	11128.15
464.959	11248.98
465.165	11074.9
465.37	10659.17
465.575	10425.7
465.781	10919.26
465.986	11117.91
466.191	10505.57
466.397	10616.16
466.602	9790.83
466.807	10339.68
467.012	10368.35
467.218	10163.56
467.423	9921.9
467.628	10083.69
467.833	10483.04
468.038	9962.86
468.244	9794.92
468.449	10280.29
468.654	9811.31
468.859	9766.25
469.064	9696.62
