Data from USB4F104151__118__14-18-35-427.txt Node

Date: Thu Mar 13 14:18:35 EDT 2025
User: louis
Spectrometer: USB4F10415
Trigger mode: 4
Integration Time (sec): 2.000000E-2
Scans to average: 1
Electric dark correction enabled: true
Nonlinearity correction enabled: false
Boxcar width: 0
XAxis mode: Wavelengths
Number of Pixels in Spectrum: 3648
>>>>>Begin Spectral Data<<<<<
178.204	-57
178.424	-57
178.644	-57
178.864	-69.29
179.084	-91.82
179.304	-65.19
179.524	-1.71
179.744	12.63
179.964	65.88
180.184	4.44
180.404	-13.99
180.624	-44.71
180.844	33.11
181.064	-16.04
181.283	-42.67
181.503	-9.9
181.723	78.16
181.943	12.63
182.163	49.49
182.383	41.3
182.602	33.11
182.822	104.79
183.042	49.49
183.262	26.96
183.482	0.34
183.701	-16.04
183.921	12.63
184.141	-28.33
184.361	110.93
184.58	51.54
184.8	-11.95
185.02	41.3
185.239	12.63
185.459	29.01
185.679	53.59
185.898	-73.39
186.118	43.35
186.338	41.3
186.557	43.35
186.777	63.83
186.997	31.06
187.216	41.3
187.436	-16.04
187.655	20.82
187.875	-1.71
188.095	63.83
188.314	29.01
188.534	86.36
188.753	31.06
188.973	0.34
189.192	24.92
189.412	78.16
189.631	45.4
189.851	-3.75
190.07	94.55
190.29	-24.23
190.509	4.44
190.729	20.82
190.948	96.6
191.168	143.7
191.387	112.98
191.607	-54.95
191.826	-1.71
192.045	-20.14
192.265	43.35
192.484	-52.91
192.704	-3.75
192.923	-42.67
193.142	102.74
193.362	0.34
193.581	39.25
193.8	45.4
194.02	41.3
194.239	61.78
194.458	61.78
194.678	31.06
194.897	-1.71
195.116	14.68
195.335	61.78
195.555	41.3
195.774	37.2
195.993	39.25
196.212	55.64
196.432	29.01
196.651	74.07
196.87	12.63
197.089	26.96
197.308	53.59
197.528	-5.8
197.747	-18.09
197.966	78.16
198.185	65.88
198.404	-3.75
198.623	51.54
198.842	4.44
199.062	-20.14
199.281	72.02
199.5	53.59
199.719	55.64
199.938	37.2
200.157	41.3
200.376	69.97
200.595	33.11
200.814	-34.47
201.033	4.44
201.252	53.59
201.471	31.06
201.69	43.35
201.909	20.82
202.128	-46.76
202.347	69.97
202.566	100.69
202.785	18.77
203.004	-50.86
203.223	12.63
203.442	69.97
203.661	8.53
203.879	-24.23
204.098	39.25
204.317	-26.28
204.536	63.83
204.755	-1.71
204.974	88.4
205.193	94.55
205.411	135.51
205.63	20.82
205.849	-3.75
206.068	49.49
206.287	4.44
206.505	57.68
206.724	24.92
206.943	20.82
207.162	61.78
207.381	16.73
207.599	53.59
207.818	20.82
208.037	69.97
208.255	39.25
208.474	29.01
208.693	178.51
208.911	12.63
209.13	67.92
209.349	18.77
209.567	110.93
209.786	123.22
210.005	65.88
210.223	82.26
210.442	26.96
210.661	-7.85
210.879	31.06
211.098	-20.14
211.316	31.06
211.535	49.49
211.753	4.44
211.972	8.53
212.191	-9.9
212.409	57.68
212.628	41.3
212.846	31.06
213.065	18.77
213.283	22.87
213.502	-20.14
213.72	39.25
213.938	-3.75
214.157	35.16
214.375	61.78
214.594	20.82
214.812	35.16
215.031	26.96
215.249	29.01
215.467	57.68
215.686	-16.04
215.904	112.98
216.122	22.87
216.341	37.2
216.559	65.88
216.778	29.01
216.996	86.36
217.214	72.02
217.432	4.44
217.651	37.2
217.869	20.82
218.087	-28.33
218.306	49.49
218.524	127.32
218.742	0.34
218.96	63.83
219.179	6.49
219.397	31.06
219.615	69.97
219.833	39.25
220.051	-77.48
220.27	22.87
220.488	22.87
220.706	-11.95
220.924	-20.14
221.142	4.44
221.36	88.4
221.578	55.64
221.796	80.21
222.015	-24.23
222.233	-3.75
222.451	37.2
222.669	-20.14
222.887	53.59
223.105	22.87
223.323	20.82
223.541	-3.75
223.759	41.3
223.977	8.53
224.195	51.54
224.413	49.49
224.631	29.01
224.849	-11.95
225.067	63.83
225.285	-9.9
225.503	2.39
225.721	-93.87
225.939	57.68
226.157	74.07
226.375	86.36
226.592	0.34
226.81	4.44
227.028	61.78
227.246	141.65
227.464	-20.14
227.682	10.58
227.9	47.44
228.117	96.6
228.335	37.2
228.553	-18.09
228.771	110.93
228.989	4.44
229.206	35.16
229.424	39.25
229.642	20.82
229.86	49.49
230.077	-36.52
230.295	29.01
230.513	45.4
230.731	31.06
230.948	31.06
231.166	78.16
231.384	35.16
231.601	-11.95
231.819	0.34
232.037	2.39
232.254	-7.85
232.472	-69.29
232.689	-52.91
232.907	59.73
233.125	35.16
233.342	43.35
233.56	55.64
233.777	-44.71
233.995	63.83
234.213	37.2
234.43	55.64
234.648	102.74
234.865	0.34
235.083	78.16
235.3	6.49
235.518	82.26
235.735	51.54
235.953	80.21
236.17	45.4
236.388	6.49
236.605	4.44
236.822	98.64
237.04	20.82
237.257	57.68
237.475	8.53
237.692	57.68
237.909	-9.9
238.127	8.53
238.344	55.64
238.562	16.73
238.779	12.63
238.996	-69.29
239.214	33.11
239.431	20.82
239.648	-102.06
239.865	20.82
240.083	14.68
240.3	82.26
240.517	12.63
240.735	24.92
240.952	24.92
241.169	96.6
241.386	43.35
241.603	24.92
241.821	26.96
242.038	0.34
242.255	90.45
242.472	37.2
242.689	92.5
242.907	45.4
243.124	41.3
243.341	90.45
243.558	-3.75
243.775	20.82
243.992	-3.75
244.209	72.02
244.426	98.64
244.643	53.59
244.86	45.4
245.078	-11.95
245.295	51.54
245.512	41.3
245.729	39.25
245.946	112.98
246.163	31.06
246.38	-26.28
246.597	55.64
246.814	22.87
247.031	33.11
247.248	-5.8
247.464	22.87
247.681	78.16
247.898	-20.14
248.115	47.44
248.332	51.54
248.549	69.97
248.766	37.2
248.983	39.25
249.2	49.49
249.417	90.45
249.633	-18.09
249.85	72.02
250.067	0.34
250.284	29.01
250.501	-32.43
250.717	55.64
250.934	-1.71
251.151	55.64
251.368	45.4
251.585	24.92
251.801	-24.23
252.018	22.87
252.235	37.2
252.451	12.63
252.668	-7.85
252.885	41.3
253.102	10.58
253.318	55.64
253.535	-20.14
253.752	88.4
253.968	20.82
254.185	-22.19
254.401	-5.8
254.618	4.44
254.835	43.35
255.051	69.97
255.268	96.6
255.484	26.96
255.701	-5.8
255.917	131.41
256.134	-26.28
256.351	29.01
256.567	-5.8
256.784	20.82
257	-20.14
257.217	78.16
257.433	20.82
257.65	22.87
257.866	41.3
258.082	-26.28
258.299	22.87
258.515	24.92
258.732	4.44
258.948	41.3
259.165	29.01
259.381	10.58
259.597	-13.99
259.814	12.63
260.03	47.44
260.246	67.92
260.463	33.11
260.679	88.4
260.895	24.92
261.112	61.78
261.328	-30.38
261.544	45.4
261.761	86.36
261.977	61.78
262.193	-36.52
262.409	-18.09
262.626	88.4
262.842	33.11
263.058	-18.09
263.274	49.49
263.49	20.82
263.707	-20.14
263.923	24.92
264.139	-28.33
264.355	90.45
264.571	125.27
264.787	37.2
265.004	80.21
265.22	29.01
265.436	29.01
265.652	12.63
265.868	18.77
266.084	-28.33
266.3	-7.85
266.516	24.92
266.732	6.49
266.948	98.64
267.164	92.5
267.38	86.36
267.596	55.64
267.812	98.64
268.028	67.92
268.244	-46.76
268.46	39.25
268.676	24.92
268.892	35.16
269.108	0.34
269.324	8.53
269.54	-11.95
269.756	14.68
269.972	-42.67
270.188	80.21
270.403	20.82
270.619	55.64
270.835	49.49
271.051	86.36
271.267	8.53
271.483	-69.29
271.698	20.82
271.914	45.4
272.13	12.63
272.346	86.36
272.562	8.53
272.777	39.25
272.993	49.49
273.209	96.6
273.425	12.63
273.64	-20.14
273.856	49.49
274.072	31.06
274.287	-7.85
274.503	41.3
274.719	29.01
274.934	82.26
275.15	-24.23
275.366	57.68
275.581	31.06
275.797	14.68
276.012	65.88
276.228	53.59
276.444	-24.23
276.659	155.99
276.875	0.34
277.09	4.44
277.306	69.97
277.521	137.56
277.737	16.73
277.952	49.49
278.168	-1.71
278.383	96.6
278.599	33.11
278.814	-7.85
279.03	-44.71
279.245	-9.9
279.461	-20.14
279.676	29.01
279.892	45.4
280.107	-5.8
280.322	43.35
280.538	37.2
280.753	-22.19
280.969	45.4
281.184	41.3
281.399	33.11
281.615	24.92
281.83	96.6
282.045	20.82
282.26	37.2
282.476	-3.75
282.691	121.17
282.906	76.12
283.122	-7.85
283.337	8.53
283.552	102.74
283.767	-5.8
283.983	16.73
284.198	-3.75
284.413	72.02
284.628	-22.19
284.843	39.25
285.058	121.17
285.274	82.26
285.489	10.58
285.704	72.02
285.919	61.78
286.134	47.44
286.349	-7.85
286.564	-28.33
286.779	53.59
286.995	24.92
287.21	0.34
287.425	8.53
287.64	-54.95
287.855	33.11
288.07	-1.71
288.285	22.87
288.5	65.88
288.715	78.16
288.93	37.2
289.145	37.2
289.36	55.64
289.575	41.3
289.79	53.59
290.004	43.35
290.219	96.6
290.434	12.63
290.649	59.73
290.864	-9.9
291.079	45.4
291.294	84.31
291.509	63.83
291.724	-3.75
291.938	18.77
292.153	51.54
292.368	2.39
292.583	22.87
292.798	112.98
293.012	72.02
293.227	24.92
293.442	-7.85
293.657	119.12
293.871	49.49
294.086	49.49
294.301	65.88
294.516	72.02
294.73	33.11
294.945	16.73
295.16	69.97
295.374	53.59
295.589	-7.85
295.804	20.82
296.018	20.82
296.233	47.44
296.447	69.97
296.662	-30.38
296.877	12.63
297.091	90.45
297.306	37.2
297.52	82.26
297.735	20.82
297.949	78.16
298.164	-22.19
298.378	-42.67
298.593	-3.75
298.807	-46.76
299.022	135.51
299.236	29.01
299.451	39.25
299.665	-52.91
299.88	72.02
300.094	65.88
300.309	20.82
300.523	110.93
300.737	72.02
300.952	82.26
301.166	69.97
301.381	-42.67
301.595	-18.09
301.809	35.16
302.024	31.06
302.238	-42.67
302.452	96.6
302.667	29.01
302.881	61.78
303.095	90.45
303.309	0.34
303.524	2.39
303.738	22.87
303.952	31.06
304.166	35.16
304.381	-75.43
304.595	82.26
304.809	96.6
305.023	41.3
305.237	53.59
305.452	69.97
305.666	53.59
305.88	20.82
306.094	82.26
306.308	55.64
306.522	98.64
306.736	69.97
306.95	61.78
307.164	69.97
307.379	24.92
307.593	35.16
307.807	72.02
308.021	86.36
308.235	67.92
308.449	22.87
308.663	55.64
308.877	67.92
309.091	65.88
309.305	33.11
309.519	12.63
309.733	57.68
309.947	20.82
310.161	55.64
310.374	96.6
310.588	80.21
310.802	-44.71
311.016	78.16
311.23	106.84
311.444	16.73
311.658	31.06
311.872	69.97
312.085	37.2
312.299	112.98
312.513	74.07
312.727	90.45
312.941	90.45
313.154	78.16
313.368	102.74
313.582	88.4
313.796	-28.33
314.009	74.07
314.223	-9.9
314.437	47.44
314.651	72.02
314.864	16.73
315.078	49.49
315.292	37.2
315.505	-7.85
315.719	16.73
315.933	8.53
316.146	49.49
316.36	4.44
316.573	63.83
316.787	24.92
317.001	12.63
317.214	-18.09
317.428	16.73
317.641	-46.76
317.855	57.68
318.068	31.06
318.282	51.54
318.495	86.36
318.709	29.01
318.922	-34.47
319.136	61.78
319.349	53.59
319.563	-3.75
319.776	61.78
319.99	29.01
320.203	76.12
320.417	12.63
320.63	12.63
320.843	121.17
321.057	121.17
321.27	6.49
321.483	4.44
321.697	86.36
321.91	24.92
322.124	20.82
322.337	4.44
322.55	53.59
322.763	-28.33
322.977	24.92
323.19	45.4
323.403	115.03
323.617	45.4
323.83	53.59
324.043	12.63
324.256	-18.09
324.469	12.63
324.683	82.26
324.896	37.2
325.109	-81.58
325.322	-24.23
325.535	55.64
325.748	-20.14
325.962	24.92
326.175	-3.75
326.388	37.2
326.601	37.2
326.814	-24.23
327.027	41.3
327.24	65.88
327.453	-50.86
327.666	74.07
327.879	31.06
328.092	12.63
328.305	67.92
328.518	22.87
328.731	-24.23
328.944	90.45
329.157	45.4
329.37	-44.71
329.583	39.25
329.796	82.26
330.009	4.44
330.222	67.92
330.435	-34.47
330.648	6.49
330.861	-16.04
331.073	104.79
331.286	74.07
331.499	51.54
331.712	-16.04
331.925	53.59
332.138	53.59
332.35	135.51
332.563	-65.19
332.776	78.16
332.989	-77.48
333.202	61.78
333.414	-20.14
333.627	98.64
333.84	33.11
334.053	55.64
334.265	16.73
334.478	-40.62
334.691	4.44
334.903	72.02
335.116	35.16
335.329	135.51
335.541	37.2
335.754	10.58
335.966	-24.23
336.179	20.82
336.392	72.02
336.604	22.87
336.817	74.07
337.029	96.6
337.242	78.16
337.454	76.12
337.667	61.78
337.88	98.64
338.092	45.4
338.305	67.92
338.517	41.3
338.729	4.44
338.942	110.93
339.154	0.34
339.367	78.16
339.579	88.4
339.792	94.55
340.004	63.83
340.217	57.68
340.429	110.93
340.641	-50.86
340.854	24.92
341.066	-28.33
341.278	69.97
341.491	74.07
341.703	57.68
341.915	-9.9
342.128	8.53
342.34	92.5
342.552	-5.8
342.764	41.3
342.977	49.49
343.189	-9.9
343.401	57.68
343.613	-34.47
343.826	29.01
344.038	18.77
344.25	96.6
344.462	-26.28
344.674	61.78
344.886	69.97
345.099	61.78
345.311	59.73
345.523	14.68
345.735	20.82
345.947	39.25
346.159	33.11
346.371	37.2
346.583	51.54
346.795	119.12
347.007	-28.33
347.219	57.68
347.431	18.77
347.643	65.88
347.855	6.49
348.067	135.51
348.279	39.25
348.491	78.16
348.703	84.31
348.915	-9.9
349.127	8.53
349.339	67.92
349.551	14.68
349.763	82.26
349.975	-1.71
350.187	86.36
350.399	57.68
350.61	4.44
350.822	4.44
351.034	55.64
351.246	22.87
351.458	49.49
351.669	-16.04
351.881	88.4
352.093	65.88
352.305	-34.47
352.517	-28.33
352.728	51.54
352.94	-18.09
353.152	33.11
353.363	26.96
353.575	-18.09
353.787	119.12
353.999	92.5
354.21	78.16
354.422	18.77
354.633	45.4
354.845	39.25
355.057	29.01
355.268	37.2
355.48	-26.28
355.692	24.92
355.903	8.53
356.115	-5.8
356.326	22.87
356.538	24.92
356.749	143.7
356.961	88.4
357.172	14.68
357.384	20.82
357.595	90.45
357.807	49.49
358.018	18.77
358.23	31.06
358.441	96.6
358.653	-3.75
358.864	72.02
359.075	-11.95
359.287	-42.67
359.498	37.2
359.709	-5.8
359.921	-7.85
360.132	-11.95
360.344	37.2
360.555	72.02
360.766	84.31
360.977	-48.81
361.189	14.68
361.4	22.87
361.611	98.64
361.823	65.88
362.034	20.82
362.245	49.49
362.456	-7.85
362.667	22.87
362.879	53.59
363.09	88.4
363.301	53.59
363.512	33.11
363.723	29.01
363.935	59.73
364.146	98.64
364.357	45.4
364.568	43.35
364.779	37.2
364.99	143.7
365.201	-11.95
365.412	102.74
365.623	43.35
365.834	-24.23
366.045	115.03
366.256	88.4
366.467	33.11
366.678	76.12
366.889	14.68
367.1	-36.52
367.311	20.82
367.522	63.83
367.733	12.63
367.944	20.82
368.155	-36.52
368.366	69.97
368.577	100.69
368.788	39.25
368.999	22.87
369.209	61.78
369.42	14.68
369.631	39.25
369.842	65.88
370.053	33.11
370.264	86.36
370.474	55.64
370.685	35.16
370.896	-34.47
371.107	47.44
371.317	31.06
371.528	6.49
371.739	51.54
371.95	69.97
372.16	86.36
372.371	37.2
372.582	61.78
372.792	90.45
373.003	74.07
373.214	119.12
373.424	35.16
373.635	33.11
373.846	33.11
374.056	-61.1
374.267	-42.67
374.477	4.44
374.688	-3.75
374.898	4.44
375.109	147.8
375.319	78.16
375.53	78.16
375.74	65.88
375.951	49.49
376.161	29.01
376.372	80.21
376.582	69.97
376.793	72.02
377.003	29.01
377.214	2.39
377.424	80.21
377.635	90.45
377.845	22.87
378.055	127.32
378.266	31.06
378.476	94.55
378.686	29.01
378.897	39.25
379.107	18.77
379.317	55.64
379.528	20.82
379.738	22.87
379.948	12.63
380.158	22.87
380.369	2.39
380.579	37.2
380.789	8.53
380.999	51.54
381.21	80.21
381.42	121.17
381.63	49.49
381.84	160.08
382.05	41.3
382.261	115.03
382.471	65.88
382.681	8.53
382.891	82.26
383.101	37.2
383.311	78.16
383.521	72.02
383.731	47.44
383.941	33.11
384.151	100.69
384.361	14.68
384.571	88.4
384.781	-26.28
384.991	69.97
385.201	63.83
385.411	112.98
385.621	55.64
385.831	61.78
386.041	112.98
386.251	6.49
386.461	104.79
386.671	74.07
386.881	39.25
387.091	24.92
387.301	92.5
387.511	31.06
387.72	47.44
387.93	16.73
388.14	45.4
388.35	82.26
388.56	41.3
388.769	139.6
388.979	69.97
389.189	69.97
389.399	49.49
389.609	0.34
389.818	37.2
390.028	43.35
390.238	12.63
390.447	2.39
390.657	65.88
390.867	31.06
391.076	-7.85
391.286	86.36
391.496	72.02
391.705	47.44
391.915	57.68
392.125	78.16
392.334	53.59
392.544	112.98
392.753	35.16
392.963	4.44
393.172	78.16
393.382	20.82
393.591	72.02
393.801	74.07
394.01	123.22
394.22	49.49
394.429	45.4
394.639	74.07
394.848	31.06
395.058	55.64
395.267	35.16
395.477	37.2
395.686	72.02
395.895	110.93
396.105	115.03
396.314	106.84
396.524	129.36
396.733	82.26
396.942	100.69
397.152	47.44
397.361	92.5
397.57	12.63
397.78	119.12
397.989	61.78
398.198	121.17
398.407	94.55
398.617	104.79
398.826	63.83
399.035	145.75
399.244	12.63
399.453	125.27
399.663	131.41
399.872	127.32
400.081	80.21
400.29	69.97
400.499	104.79
400.708	63.83
400.917	-3.75
401.127	37.2
401.336	22.87
401.545	196.95
401.754	117.08
401.963	94.55
402.172	149.84
402.381	104.79
402.59	145.75
402.799	129.36
403.008	69.97
403.217	96.6
403.426	110.93
403.635	94.55
403.844	96.6
404.053	137.56
404.262	41.3
404.471	139.6
404.68	153.94
404.888	129.36
405.097	88.4
405.306	201.04
405.515	164.18
405.724	155.99
405.933	139.6
406.142	176.47
406.35	178.51
406.559	149.84
406.768	106.84
406.977	131.41
407.185	209.23
407.394	211.28
407.603	176.47
407.812	227.67
408.02	244.05
408.229	211.28
408.438	258.39
408.646	223.57
408.855	244.05
409.064	278.87
409.272	260.43
409.481	260.43
409.69	246.1
409.898	260.43
410.107	229.71
410.315	315.73
410.524	328.02
410.733	368.98
410.941	266.58
411.15	332.11
411.358	332.11
411.567	432.46
411.775	274.77
411.984	397.65
412.192	397.65
412.401	332.11
412.609	424.27
412.818	418.13
413.026	448.85
413.234	524.62
413.443	452.94
413.651	450.89
413.86	475.47
414.068	493.9
414.276	586.06
414.485	547.15
414.693	606.54
414.901	741.71
415.11	661.84
415.318	618.83
415.526	692.55
415.734	616.78
415.943	717.13
416.151	708.94
416.359	710.99
416.567	676.17
416.776	786.76
416.984	782.67
417.192	854.34
417.4	823.62
417.608	819.53
417.817	946.5
418.025	940.36
418.233	975.17
418.441	987.46
418.649	1014.09
418.857	1091.91
419.065	1190.21
419.273	1214.79
419.481	1130.82
419.689	1235.27
419.897	1331.52
420.105	1315.14
420.313	1409.34
420.521	1503.55
420.729	1366.34
420.937	1466.69
421.145	1470.78
421.353	1577.28
421.561	1759.55
421.769	1745.21
421.977	1775.93
422.185	1818.94
422.393	1880.38
422.601	1888.57
422.809	1863.99
423.017	1950.01
423.224	2097.46
423.432	2224.44
423.64	2232.63
423.848	2414.9
424.056	2310.45
424.263	2523.44
424.471	2507.06
424.679	2505.01
424.887	2578.73
425.094	2736.43
425.302	2824.49
425.51	2834.73
425.718	2883.88
425.925	2924.84
426.133	3123.49
426.341	3219.75
426.548	3277.09
426.756	3451.17
426.964	3496.22
427.171	3537.18
427.379	3748.12
427.586	3709.21
427.794	3891.48
428.001	4018.46
428.209	4231.44
428.417	4200.73
428.624	4477.2
428.832	4653.33
429.039	4509.97
429.247	4544.78
429.454	4858.12
429.662	5099.78
429.869	4700.43
430.076	5175.56
430.284	5107.98
430.491	5237
430.699	5640.45
430.906	5456.13
431.114	5576.96
431.321	5900.54
431.528	5787.9
431.736	6467.83
431.943	6512.88
432.15	6373.62
432.358	6537.46
432.565	6803.69
432.772	6805.74
432.979	7264.49
433.187	7334.12
433.394	7356.65
433.601	7801.05
433.808	7936.22
434.016	7799.01
434.223	8075.48
434.43	8577.23
434.637	8440.02
434.844	8995.02
435.052	9003.21
435.259	9033.93
435.466	9212.1
435.673	9081.03
435.88	9670.85
436.087	10105.02
436.294	10143.93
436.501	9961.66
436.708	10156.22
436.915	10401.97
437.122	11042.99
437.329	10819.76
437.537	11210.92
437.743	11663.52
437.95	11450.53
438.157	12085.4
438.364	12136.6
438.571	12380.31
438.778	12396.7
438.985	13465.74
439.192	13035.66
439.399	13514.89
439.606	12986.51
439.813	13734.02
440.02	14839.92
440.227	14426.23
440.433	14231.68
440.64	14667.89
440.847	14663.8
441.054	14913.65
441.261	15804.52
441.467	15794.28
441.674	16042.08
441.881	16656.47
442.088	16685.14
442.294	16437.34
442.501	17119.31
442.708	17119.31
442.914	18200.64
443.121	18716.73
443.328	18153.54
443.534	19554.35
443.741	18718.78
443.948	18718.78
444.154	19785.77
444.361	19535.92
444.568	19863.59
444.774	20289.57
444.981	20297.76
445.187	20887.57
445.394	21594.12
445.6	21342.22
445.807	23492.59
446.013	22360.06
446.22	22904.82
446.426	23635.95
446.633	23834.6
446.839	24457.18
447.046	23635.95
447.252	24778.72
447.459	24874.97
447.665	24883.16
447.871	26554.3
448.078	27035.58
448.284	25853.9
448.491	26513.34
448.697	27627.44
448.903	28215.21
449.11	28002.22
449.316	27326.39
449.522	28301.22
449.728	28757.92
449.935	28759.97
450.141	28972.96
450.347	29808.53
450.553	28805.02
450.76	29349.78
450.966	30199.69
451.172	29722.51
451.378	30670.72
451.584	29628.31
451.791	30584.71
451.997	30965.63
452.203	31270.78
452.409	31264.63
452.615	30846.85
452.821	29867.92
453.027	29753.23
453.233	31528.82
453.44	30404.49
453.646	30297.99
453.852	30556.04
454.058	30881.66
454.264	29972.36
454.47	30625.67
454.676	30171.02
454.882	30982.01
455.088	28225.45
455.294	28911.52
455.5	29054.87
455.705	29474.71
455.911	28420
456.117	27852.72
456.323	27783.09
456.529	26173.38
456.735	27262.9
456.941	26548.16
457.147	25878.47
457.352	25497.55
457.558	25016.28
457.764	25288.66
457.97	24879.07
458.176	24217.57
458.381	24147.94
458.587	22892.54
458.793	23173.11
458.999	21915.65
459.204	23705.58
459.41	22695.93
459.616	21405.71
459.821	21368.85
460.027	21198.87
460.233	20504.6
460.438	19916.84
460.644	20236.32
460.85	19200.05
461.055	18884.66
461.261	18704.44
461.466	17397.84
461.672	16904.28
461.878	18268.22
462.083	16994.39
462.289	16785.49
462.494	16490.59
462.7	15804.52
462.905	15368.3
463.111	15741.03
463.316	15945.83
463.522	15448.17
463.727	15603.82
463.932	15390.83
464.138	15306.86
464.343	15257.71
464.549	14864.5
464.754	15532.14
464.959	15118.45
465.165	15042.67
465.37	14440.57
465.575	14211.2
465.781	14809.2
465.986	15048.82
466.191	14162.05
466.397	14121.09
466.602	13369.48
466.807	13768.84
467.012	13760.64
467.218	13625.48
467.423	13658.24
467.628	13553.8
467.833	14192.76
468.038	13736.07
468.244	13267.08
468.449	13674.63
