Data from USB4F104151__243__14-22-29-064.txt Node

Date: Thu Mar 13 14:22:29 EDT 2025
User: louis
Spectrometer: USB4F10415
Trigger mode: 4
Integration Time (sec): 2.000000E-2
Scans to average: 1
Electric dark correction enabled: true
Nonlinearity correction enabled: false
Boxcar width: 0
XAxis mode: Wavelengths
Number of Pixels in Spectrum: 3648
>>>>>Begin Spectral Data<<<<<
178.204	-39.94
178.424	-39.94
178.644	-39.94
178.864	-171.01
179.084	-97.28
179.304	19.46
179.524	-35.84
179.744	-29.7
179.964	50.18
180.184	-27.65
180.404	-7.17
180.624	68.61
180.844	-31.74
181.064	13.31
181.283	72.7
181.503	-58.37
181.723	-33.79
181.943	-15.36
182.163	21.5
182.383	25.6
182.602	9.22
182.822	41.98
183.042	-48.13
183.262	-121.85
183.482	19.46
183.701	-7.17
183.921	-3.07
184.141	-39.94
184.361	74.75
184.58	25.6
184.8	7.17
185.02	-29.7
185.239	29.7
185.459	-19.46
185.679	29.7
185.898	-39.94
186.118	23.55
186.338	50.18
186.557	54.27
186.777	-87.04
186.997	17.41
187.216	25.6
187.436	115.71
187.655	-25.6
187.875	17.41
188.095	-23.55
188.314	-54.27
188.534	44.03
188.753	-7.17
188.973	76.8
189.192	46.08
189.412	17.41
189.631	64.51
189.851	-62.46
190.07	19.46
190.29	-9.22
190.509	-46.08
190.729	-15.36
190.948	109.57
191.168	54.27
191.387	21.5
191.607	-44.03
191.826	-13.31
192.045	50.18
192.265	-46.08
192.484	-25.6
192.704	-17.41
192.923	-66.56
193.142	25.6
193.362	-48.13
193.581	68.61
193.8	41.98
194.02	56.32
194.239	50.18
194.458	35.84
194.678	-5.12
194.897	70.65
195.116	17.41
195.335	17.41
195.555	74.75
195.774	17.41
195.993	29.7
196.212	41.98
196.432	-27.65
196.651	5.12
196.87	-29.7
197.089	158.72
197.308	-7.17
197.528	46.08
197.747	1.02
197.966	-29.7
198.185	52.22
198.404	-33.79
198.623	13.31
198.842	78.85
199.062	21.5
199.281	74.75
199.5	29.7
199.719	17.41
199.938	-3.07
200.157	41.98
200.376	72.7
200.595	91.13
200.814	-21.5
201.033	-7.17
201.252	13.31
201.471	19.46
201.69	-3.07
201.909	13.31
202.128	23.55
202.347	66.56
202.566	54.27
202.785	-64.51
203.004	9.22
203.223	50.18
203.442	11.26
203.661	-31.74
203.879	15.36
204.098	60.42
204.317	-3.07
204.536	70.65
204.755	27.65
204.974	66.56
205.193	29.7
205.411	64.51
205.63	46.08
205.849	17.41
206.068	-3.07
206.287	17.41
206.505	29.7
206.724	25.6
206.943	17.41
207.162	-5.12
207.381	46.08
207.599	29.7
207.818	29.7
208.037	-21.5
208.255	25.6
208.474	119.81
208.693	-7.17
208.911	-7.17
209.13	-11.26
209.349	99.33
209.567	9.22
209.786	33.79
210.005	3.07
210.223	64.51
210.442	33.79
210.661	17.41
210.879	-37.89
211.098	41.98
211.316	-29.7
211.535	17.41
211.753	-56.32
211.972	13.31
212.191	-17.41
212.409	1.02
212.628	13.31
212.846	99.33
213.065	58.37
213.283	107.52
213.502	54.27
213.72	-13.31
213.938	54.27
214.157	105.47
214.375	-33.79
214.594	3.07
214.812	13.31
215.031	-11.26
215.249	-46.08
215.467	-54.27
215.686	-17.41
215.904	99.33
216.122	-13.31
216.341	-19.46
216.559	48.13
216.778	119.81
216.996	5.12
217.214	91.13
217.432	-56.32
217.651	-5.12
217.869	-1.02
218.087	-21.5
218.306	-44.03
218.524	41.98
218.742	-3.07
218.96	31.74
219.179	33.79
219.397	25.6
219.615	25.6
219.833	72.7
220.051	5.12
220.27	41.98
220.488	41.98
220.706	-37.89
220.924	-13.31
221.142	46.08
221.36	39.94
221.578	64.51
221.796	23.55
222.015	1.02
222.233	37.89
222.451	109.57
222.669	33.79
222.887	7.17
223.105	-23.55
223.323	25.6
223.541	82.94
223.759	15.36
223.977	1.02
224.195	66.56
224.413	-37.89
224.631	66.56
224.849	9.22
225.067	66.56
225.285	7.17
225.503	19.46
225.721	-103.42
225.939	-29.7
226.157	-23.55
226.375	115.71
226.592	-44.03
226.81	17.41
227.028	9.22
227.246	107.52
227.464	1.02
227.682	84.99
227.9	41.98
228.117	-56.32
228.335	33.79
228.553	-21.5
228.771	21.5
228.989	7.17
229.206	-7.17
229.424	9.22
229.642	5.12
229.86	66.56
230.077	44.03
230.295	27.65
230.513	70.65
230.731	37.89
230.948	35.84
231.166	58.37
231.384	-95.23
231.601	-17.41
231.819	97.28
232.037	37.89
232.254	-13.31
232.472	37.89
232.689	46.08
232.907	62.46
233.125	21.5
233.342	17.41
233.56	-21.5
233.777	50.18
233.995	-3.07
234.213	11.26
234.43	-62.46
234.648	-13.31
234.865	27.65
235.083	58.37
235.3	9.22
235.518	31.74
235.735	121.85
235.953	-13.31
236.17	37.89
236.388	103.42
236.605	1.02
236.822	66.56
237.04	39.94
237.257	27.65
237.475	11.26
237.692	-39.94
237.909	21.5
238.127	25.6
238.344	13.31
238.562	29.7
238.779	41.98
238.996	41.98
239.214	-23.55
239.431	41.98
239.648	-72.7
239.865	3.07
240.083	68.61
240.3	66.56
240.517	-41.98
240.735	62.46
240.952	52.22
241.169	-5.12
241.386	46.08
241.603	1.02
241.821	-50.18
242.038	62.46
242.255	41.98
242.472	37.89
242.689	33.79
242.907	5.12
243.124	25.6
243.341	64.51
243.558	-37.89
243.775	70.65
243.992	-23.55
244.209	-7.17
244.426	82.94
244.643	44.03
244.86	-54.27
245.078	-19.46
245.295	-31.74
245.512	-56.32
245.729	-5.12
245.946	-23.55
246.163	-56.32
246.38	82.94
246.597	-1.02
246.814	29.7
247.031	31.74
247.248	-15.36
247.464	-11.26
247.681	25.6
247.898	-3.07
248.115	1.02
248.332	33.79
248.549	66.56
248.766	78.85
248.983	-39.94
249.2	50.18
249.417	107.52
249.633	50.18
249.85	35.84
250.067	74.75
250.284	15.36
250.501	25.6
250.717	58.37
250.934	60.42
251.151	21.5
251.368	-23.55
251.585	9.22
251.801	29.7
252.018	17.41
252.235	82.94
252.451	-5.12
252.668	-7.17
252.885	58.37
253.102	17.41
253.318	-11.26
253.535	15.36
253.752	35.84
253.968	-91.13
254.185	-3.07
254.401	13.31
254.618	33.79
254.835	1.02
255.051	17.41
255.268	-3.07
255.484	-23.55
255.701	19.46
255.917	41.98
256.134	35.84
256.351	-3.07
256.567	-23.55
256.784	54.27
257	-25.6
257.217	41.98
257.433	25.6
257.65	29.7
257.866	33.79
258.082	-31.74
258.299	-3.07
258.515	21.5
258.732	1.02
258.948	9.22
259.165	13.31
259.381	-9.22
259.597	-5.12
259.814	50.18
260.03	58.37
260.246	-27.65
260.463	27.65
260.679	95.23
260.895	-3.07
261.112	60.42
261.328	-1.02
261.544	-17.41
261.761	46.08
261.977	68.61
262.193	25.6
262.409	-31.74
262.626	41.98
262.842	54.27
263.058	27.65
263.274	35.84
263.49	66.56
263.707	-52.22
263.923	1.02
264.139	-15.36
264.355	-72.7
264.571	19.46
264.787	87.04
265.004	60.42
265.22	56.32
265.436	91.13
265.652	9.22
265.868	19.46
266.084	-44.03
266.3	33.79
266.516	-52.22
266.732	58.37
266.948	54.27
267.164	41.98
267.38	37.89
267.596	31.74
267.812	-23.55
268.028	46.08
268.244	39.94
268.46	-13.31
268.676	-3.07
268.892	-15.36
269.108	17.41
269.324	-11.26
269.54	-7.17
269.756	29.7
269.972	-5.12
270.188	17.41
270.403	9.22
270.619	-21.5
270.835	52.22
271.051	-7.17
271.267	-44.03
271.483	1.02
271.698	11.26
271.914	17.41
272.13	19.46
272.346	-21.5
272.562	-3.07
272.777	15.36
272.993	50.18
273.209	41.98
273.425	-7.17
273.64	-15.36
273.856	-19.46
274.072	27.65
274.287	35.84
274.503	25.6
274.719	29.7
274.934	37.89
275.15	25.6
275.366	46.08
275.581	-9.22
275.797	-23.55
276.012	9.22
276.228	13.31
276.444	1.02
276.659	91.13
276.875	3.07
277.09	-44.03
277.306	50.18
277.521	66.56
277.737	21.5
277.952	21.5
278.168	35.84
278.383	1.02
278.599	66.56
278.814	11.26
279.03	33.79
279.245	-7.17
279.461	1.02
279.676	13.31
279.892	-52.22
280.107	-48.13
280.322	-52.22
280.538	29.7
280.753	41.98
280.969	-54.27
281.184	11.26
281.399	119.81
281.615	-23.55
281.83	35.84
282.045	19.46
282.26	25.6
282.476	-48.13
282.691	17.41
282.906	52.22
283.122	91.13
283.337	-105.47
283.552	-5.12
283.767	-29.7
283.983	-1.02
284.198	13.31
284.413	74.75
284.628	17.41
284.843	1.02
285.058	33.79
285.274	66.56
285.489	33.79
285.704	19.46
285.919	-23.55
286.134	17.41
286.349	52.22
286.564	-23.55
286.779	25.6
286.995	-19.46
287.21	33.79
287.425	74.75
287.64	-3.07
287.855	5.12
288.07	-56.32
288.285	58.37
288.5	11.26
288.715	15.36
288.93	-29.7
289.145	41.98
289.36	76.8
289.575	33.79
289.79	-9.22
290.004	11.26
290.219	105.47
290.434	21.5
290.649	7.17
290.864	-31.74
291.079	9.22
291.294	19.46
291.509	21.5
291.724	41.98
291.938	25.6
292.153	27.65
292.368	29.7
292.583	-46.08
292.798	29.7
293.012	3.07
293.227	-23.55
293.442	5.12
293.657	-27.65
293.871	58.37
294.086	-31.74
294.301	33.79
294.516	-56.32
294.73	-35.84
294.945	17.41
295.16	60.42
295.374	19.46
295.589	-5.12
295.804	3.07
296.018	44.03
296.233	35.84
296.447	35.84
296.662	21.5
296.877	9.22
297.091	-19.46
297.306	33.79
297.52	-13.31
297.735	62.46
297.949	1.02
298.164	68.61
298.378	-60.42
298.593	13.31
298.807	-7.17
299.022	19.46
299.236	17.41
299.451	52.22
299.665	76.8
299.88	1.02
300.094	27.65
300.309	62.46
300.523	-21.5
300.737	-23.55
300.952	-80.89
301.166	-23.55
301.381	-99.33
301.595	35.84
301.809	-13.31
302.024	33.79
302.238	-39.94
302.452	68.61
302.667	19.46
302.881	64.51
303.095	82.94
303.309	17.41
303.524	-54.27
303.738	35.84
303.952	-46.08
304.166	37.89
304.381	-13.31
304.595	46.08
304.809	-54.27
305.023	-1.02
305.237	9.22
305.452	3.07
305.666	27.65
305.88	62.46
306.094	-5.12
306.308	11.26
306.522	68.61
306.736	11.26
306.95	91.13
307.164	-60.42
307.379	50.18
307.593	50.18
307.807	58.37
308.021	64.51
308.235	39.94
308.449	-29.7
308.663	-70.65
308.877	50.18
309.091	17.41
309.305	107.52
309.519	-7.17
309.733	9.22
309.947	-54.27
310.161	25.6
310.374	13.31
310.588	58.37
310.802	27.65
311.016	-3.07
311.23	66.56
311.444	41.98
311.658	54.27
311.872	148.48
312.085	15.36
312.299	54.27
312.513	33.79
312.727	72.7
312.941	5.12
313.154	15.36
313.368	-9.22
313.582	-7.17
313.796	13.31
314.009	-74.75
314.223	21.5
314.437	35.84
314.651	19.46
314.864	-3.07
315.078	60.42
315.292	29.7
315.505	9.22
315.719	50.18
315.933	17.41
316.146	1.02
316.36	13.31
316.573	68.61
316.787	-52.22
317.001	33.79
317.214	-21.5
317.428	-76.8
317.641	19.46
317.855	44.03
318.068	9.22
318.282	82.94
318.495	27.65
318.709	68.61
318.922	17.41
319.136	15.36
319.349	91.13
319.563	11.26
319.776	-3.07
319.99	44.03
320.203	9.22
320.417	-37.89
320.63	25.6
320.843	58.37
321.057	13.31
321.27	9.22
321.483	27.65
321.697	109.57
321.91	11.26
322.124	3.07
322.337	39.94
322.55	13.31
322.763	109.57
322.977	-5.12
323.19	37.89
323.403	-19.46
323.617	46.08
323.83	25.6
324.043	31.74
324.256	21.5
324.469	-52.22
324.683	74.75
324.896	25.6
325.109	17.41
325.322	-52.22
325.535	-21.5
325.748	25.6
325.962	95.23
326.175	76.8
326.388	95.23
326.601	-15.36
326.814	-15.36
327.027	-44.03
327.24	19.46
327.453	-87.04
327.666	44.03
327.879	46.08
328.092	50.18
328.305	15.36
328.518	-17.41
328.731	1.02
328.944	-5.12
329.157	-31.74
329.37	-27.65
329.583	111.61
329.796	17.41
330.009	-7.17
330.222	41.98
330.435	87.04
330.648	52.22
330.861	54.27
331.073	3.07
331.286	60.42
331.499	25.6
331.712	-58.37
331.925	1.02
332.138	-19.46
332.35	21.5
332.563	-25.6
332.776	-23.55
332.989	-31.74
333.202	-19.46
333.414	39.94
333.627	48.13
333.84	-72.7
334.053	54.27
334.265	5.12
334.478	-44.03
334.691	33.79
334.903	5.12
335.116	25.6
335.329	48.13
335.541	58.37
335.754	62.46
335.966	-64.51
336.179	66.56
336.392	35.84
336.604	-25.6
336.817	56.32
337.029	48.13
337.242	9.22
337.454	17.41
337.667	-15.36
337.88	-46.08
338.092	7.17
338.305	50.18
338.517	-33.79
338.729	140.29
338.942	41.98
339.154	35.84
339.367	44.03
339.579	-3.07
339.792	23.55
340.004	74.75
340.217	-64.51
340.429	-31.74
340.641	-29.7
340.854	-31.74
341.066	9.22
341.278	93.18
341.491	9.22
341.703	17.41
341.915	-3.07
342.128	44.03
342.34	25.6
342.552	25.6
342.764	44.03
342.977	33.79
343.189	37.89
343.401	41.98
343.613	-29.7
343.826	3.07
344.038	66.56
344.25	41.98
344.462	-9.22
344.674	9.22
344.886	33.79
345.099	33.79
345.311	74.75
345.523	5.12
345.735	-31.74
345.947	-3.07
346.159	3.07
346.371	1.02
346.583	-5.12
346.795	80.89
347.007	11.26
347.219	44.03
347.431	17.41
347.643	125.95
347.855	33.79
348.067	68.61
348.279	-19.46
348.491	60.42
348.703	-7.17
348.915	44.03
349.127	50.18
349.339	27.65
349.551	-23.55
349.763	15.36
349.975	13.31
350.187	41.98
350.399	-15.36
350.61	105.47
350.822	-19.46
351.034	70.65
351.246	-31.74
351.458	41.98
351.669	107.52
351.881	17.41
352.093	107.52
352.305	21.5
352.517	44.03
352.728	56.32
352.94	74.75
353.152	13.31
353.363	-27.65
353.575	62.46
353.787	82.94
353.999	13.31
354.21	52.22
354.422	-7.17
354.633	23.55
354.845	27.65
355.057	1.02
355.268	-27.65
355.48	68.61
355.692	9.22
355.903	39.94
356.115	17.41
356.326	-3.07
356.538	3.07
356.749	50.18
356.961	11.26
357.172	37.89
357.384	80.89
357.595	91.13
357.807	35.84
358.018	-31.74
358.23	33.79
358.441	95.23
358.653	74.75
358.864	19.46
359.075	44.03
359.287	62.46
359.498	66.56
359.709	9.22
359.921	41.98
360.132	25.6
360.344	50.18
360.555	-5.12
360.766	68.61
360.977	5.12
361.189	41.98
361.4	19.46
361.611	132.09
361.823	72.7
362.034	60.42
362.245	-39.94
362.456	117.76
362.667	3.07
362.879	-21.5
363.09	7.17
363.301	27.65
363.512	-5.12
363.723	13.31
363.935	-7.17
364.146	-11.26
364.357	25.6
364.568	11.26
364.779	-13.31
364.99	91.13
365.201	62.46
365.412	48.13
365.623	52.22
365.834	50.18
366.045	15.36
366.256	27.65
366.467	66.56
366.678	25.6
366.889	-91.13
367.1	27.65
367.311	-15.36
367.522	52.22
367.733	-7.17
367.944	60.42
368.155	41.98
368.366	44.03
368.577	33.79
368.788	1.02
368.999	19.46
369.209	78.85
369.42	91.13
369.631	111.61
369.842	-37.89
370.053	-13.31
370.264	78.85
370.474	13.31
370.685	82.94
370.896	3.07
371.107	19.46
371.317	56.32
371.528	31.74
371.739	95.23
371.95	35.84
372.16	84.99
372.371	-5.12
372.582	-35.84
372.792	121.85
373.003	70.65
373.214	-3.07
373.424	25.6
373.635	31.74
373.846	62.46
374.056	5.12
374.267	19.46
374.477	29.7
374.688	56.32
374.898	7.17
375.109	17.41
375.319	35.84
375.53	50.18
375.74	33.79
375.951	48.13
376.161	25.6
376.372	89.09
376.582	-3.07
376.793	3.07
377.003	-3.07
377.214	-3.07
377.424	66.56
377.635	46.08
377.845	25.6
378.055	125.95
378.266	70.65
378.476	82.94
378.686	56.32
378.897	103.42
379.107	62.46
379.317	3.07
379.528	9.22
379.738	-19.46
379.948	5.12
380.158	21.5
380.369	23.55
380.579	95.23
380.789	-3.07
380.999	103.42
381.21	62.46
381.42	156.67
381.63	46.08
381.84	78.85
382.05	13.31
382.261	1.02
382.471	66.56
382.681	35.84
382.891	46.08
383.101	119.81
383.311	13.31
383.521	-17.41
383.731	25.6
383.941	5.12
384.151	41.98
384.361	60.42
384.571	5.12
384.781	11.26
384.991	50.18
385.201	19.46
385.411	9.22
385.621	9.22
385.831	-7.17
386.041	62.46
386.251	-56.32
386.461	33.79
386.671	82.94
386.881	33.79
387.091	-7.17
387.301	74.75
387.511	58.37
387.72	1.02
387.93	17.41
388.14	46.08
388.35	-3.07
388.56	70.65
388.769	-19.46
388.979	56.32
389.189	-23.55
389.399	-60.42
389.609	74.75
389.818	66.56
390.028	9.22
390.238	62.46
390.447	-7.17
390.657	58.37
390.867	82.94
391.076	-13.31
391.286	150.53
391.496	19.46
391.705	-21.5
391.915	50.18
392.125	58.37
392.334	41.98
392.544	9.22
392.753	17.41
392.963	-44.03
393.172	1.02
393.382	33.79
393.591	68.61
393.801	15.36
394.01	99.33
394.22	105.47
394.429	74.75
394.639	17.41
394.848	1.02
395.058	27.65
395.267	13.31
395.477	103.42
395.686	70.65
395.895	41.98
396.105	62.46
396.314	74.75
396.524	76.8
396.733	62.46
396.942	72.7
397.152	80.89
397.361	87.04
397.57	62.46
397.78	66.56
397.989	60.42
398.198	111.61
398.407	33.79
398.617	78.85
398.826	60.42
399.035	87.04
399.244	-39.94
399.453	72.7
399.663	41.98
399.872	82.94
400.081	64.51
400.29	82.94
400.499	60.42
400.708	132.09
400.917	70.65
401.127	82.94
401.336	29.7
401.545	99.33
401.754	74.75
401.963	78.85
402.172	27.65
402.381	62.46
402.59	107.52
402.799	128
403.008	121.85
403.217	39.94
403.426	58.37
403.635	99.33
403.844	41.98
404.053	41.98
404.262	70.65
404.471	140.29
404.68	68.61
404.888	134.14
405.097	132.09
405.306	48.13
405.515	82.94
405.724	60.42
405.933	134.14
406.142	128
406.35	91.13
406.559	156.67
406.768	191.49
406.977	107.52
407.185	93.18
407.394	123.9
407.603	82.94
407.812	226.3
408.02	181.25
408.229	199.68
408.438	130.05
408.646	82.94
408.855	156.67
409.064	142.33
409.272	138.24
409.481	201.72
409.69	144.38
409.898	195.58
410.107	177.15
410.315	211.96
410.524	117.76
410.733	205.82
410.941	234.49
411.15	259.07
411.358	295.93
411.567	211.96
411.775	240.64
411.984	246.78
412.192	246.78
412.401	273.4
412.609	271.36
412.818	363.51
413.026	306.17
413.234	328.7
413.443	394.23
413.651	336.89
413.86	369.66
414.068	451.58
414.276	404.47
414.485	424.95
414.693	394.23
414.901	523.26
415.11	470.01
415.318	492.54
415.526	445.43
415.734	502.78
415.943	521.21
416.151	500.73
416.359	467.96
416.567	496.63
416.776	615.41
416.984	629.75
417.192	635.89
417.4	625.65
417.608	611.32
417.817	713.72
418.025	685.05
418.233	828.4
418.441	691.19
418.649	742.39
418.857	783.35
419.065	857.07
419.273	824.31
419.481	863.22
419.689	1000.43
419.897	1006.58
420.105	986.1
420.313	916.47
420.521	998.38
420.729	1076.21
420.937	1029.1
421.145	1106.93
421.353	1215.47
421.561	1330.16
421.769	1301.48
421.977	1360.88
422.185	1291.24
422.393	1328.11
422.601	1496.04
422.809	1532.9
423.017	1459.18
423.224	1584.1
423.432	1541.1
423.64	1631.21
423.848	1711.08
424.056	1706.98
424.263	1844.2
424.471	1885.16
424.679	1852.39
424.887	2026.47
425.094	2067.42
425.302	2036.7
425.51	2008.03
425.718	2122.72
425.925	2051.04
426.133	2237.41
426.341	2442.2
426.548	2524.12
426.756	2440.15
426.964	2479.07
427.171	2649.05
427.379	2804.69
427.586	2712.53
427.794	2968.53
428.001	2915.28
428.209	2974.67
428.417	3173.33
428.624	3220.43
428.832	3371.98
429.039	3122.13
429.247	3294.16
429.454	3605.45
429.662	3877.83
429.869	3521.48
430.076	3785.67
430.284	3679.18
430.491	3892.16
430.699	4096.96
430.906	4074.43
431.114	4039.62
431.321	4369.34
431.528	4352.96
431.736	4527.03
431.943	4705.21
432.15	4731.83
432.358	4737.98
432.565	5073.84
432.772	5106.61
432.979	5319.6
433.187	5239.73
433.394	5272.5
433.601	5721
433.808	5653.42
434.016	5833.64
434.223	5936.04
434.43	6210.47
434.637	6192.03
434.844	6572.96
435.052	6618.01
435.259	6579.1
435.466	6648.73
435.673	6661.02
435.88	7023.51
436.087	7345.04
436.294	7410.57
436.501	7334.8
436.708	7410.57
436.915	7746.44
437.122	7824.26
437.329	7799.69
437.537	8213.38
437.743	8391.55
437.95	8205.19
438.157	8616.83
438.364	8948.6
438.571	8962.94
438.778	9028.47
438.985	9646.96
439.192	9618.29
439.399	9816.94
439.606	9421.68
439.813	9962.34
440.02	10609.5
440.227	10443.62
440.433	10355.55
440.64	10556.25
440.847	10599.26
441.054	11053.91
441.261	11703.12
441.467	11471.7
441.674	11559.76
441.881	12012.36
442.088	12010.31
442.294	12088.14
442.501	12096.33
442.708	12510.02
442.914	12979
443.121	13497.14
443.328	13196.09
443.534	14226.21
443.741	13763.37
443.948	13378.36
444.154	14394.15
444.361	14351.14
444.568	14467.88
444.774	14588.71
444.981	14568.23
445.187	15133.47
445.394	15622.93
445.6	15557.39
445.807	17109.75
446.013	16268.04
446.22	16505.6
446.426	17148.67
446.633	17246.97
446.839	18074.35
447.046	16904.96
447.252	18023.15
447.459	18229.99
447.665	18014.96
447.871	18950.88
448.078	19704.53
448.284	18879.2
448.491	19206.87
448.697	19976.91
448.903	20419.27
449.11	20675.27
449.316	19890.9
449.522	20673.22
449.728	21099.2
449.935	20927.17
450.141	21242.56
450.347	21531.32
450.553	20957.89
450.76	21267.13
450.966	22151.85
451.172	21650.1
451.378	22239.92
451.584	21899.95
451.791	22610.6
451.997	22303.4
452.203	22571.69
452.409	22465.19
452.615	22708.9
452.821	21803.7
453.027	21379.77
453.233	22643.37
453.44	21893.81
453.646	22014.64
453.852	22067.89
454.058	22432.43
454.264	21598.9
454.47	22413.99
454.676	21865.14
454.882	22373.03
455.088	20513.48
455.294	20783.81
455.5	21039.81
455.705	21195.45
455.911	20509.38
456.117	19985.1
456.323	19798.74
456.529	18731.75
456.735	19460.82
456.941	19266.27
457.147	18750.18
457.352	18240.23
457.558	18158.31
457.764	18096.88
457.97	17998.57
458.176	17656.56
458.381	17507.06
458.587	16524.04
458.793	16626.43
458.999	15618.83
459.204	17003.26
459.41	16247.56
459.616	15254.3
459.821	15498
460.027	15256.34
460.233	14951.2
460.438	14291.75
460.644	14480.16
460.85	13562.67
461.055	13452.08
461.261	13558.58
461.466	12507.97
461.672	12020.55
461.878	12989.24
462.083	11922.25
462.289	11856.72
462.494	11756.36
462.7	11051.86
462.905	10832.73
463.111	11400.02
463.316	11537.23
463.522	11076.44
463.727	11113.3
463.932	11182.93
464.138	11160.41
464.343	11051.86
464.549	10900.31
464.754	11105.11
464.959	10914.65
465.165	10812.25
465.37	10486.62
465.575	10388.32
465.781	10427.23
465.986	10648.41
466.191	10216.29
466.397	10081.13
466.602	9618.29
466.807	9933.67
467.012	9780.07
467.218	9829.23
467.423	9706.35
467.628	9784.17
467.833	10242.92
468.038	9825.13
468.244	9644.91
468.449	9937.77
