Data from USB4F104151__69__14-17-19-534.txt Node

Date: Thu Mar 13 14:17:19 EDT 2025
User: louis
Spectrometer: USB4F10415
Trigger mode: 4
Integration Time (sec): 2.000000E-2
Scans to average: 1
Electric dark correction enabled: true
Nonlinearity correction enabled: false
Boxcar width: 0
XAxis mode: Wavelengths
Number of Pixels in Spectrum: 3648
>>>>>Begin Spectral Data<<<<<
178.204	-107.69
178.424	-107.69
178.644	-107.69
178.864	-87.21
179.084	-132.26
179.304	-25.77
179.524	-48.3
179.744	-11.43
179.964	39.76
180.184	-33.96
180.404	-9.39
180.624	84.82
180.844	64.34
181.064	-15.53
181.283	-33.96
181.503	-33.96
181.723	23.38
181.943	-1.19
182.163	33.62
182.383	52.05
182.602	82.77
182.822	45.91
183.042	50
183.262	31.57
183.482	99.16
183.701	47.96
183.921	39.76
184.141	35.67
184.361	93.01
184.58	-5.29
184.8	47.96
185.02	72.53
185.239	113.49
185.459	113.49
185.679	76.63
185.898	60.24
186.118	43.86
186.338	150.36
186.557	35.67
186.777	2.9
186.997	11.09
187.216	23.38
187.436	140.12
187.655	21.33
187.875	90.96
188.095	70.48
188.314	88.92
188.534	45.91
188.753	33.62
188.973	107.35
189.192	105.3
189.412	25.43
189.631	-9.39
189.851	19.29
190.07	43.86
190.29	7
190.509	27.48
190.729	54.1
190.948	80.72
191.168	121.68
191.387	125.78
191.607	50
191.826	119.64
192.045	47.96
192.265	68.44
192.484	-29.87
192.704	80.72
192.923	-19.63
193.142	56.15
193.362	123.73
193.581	121.68
193.8	41.81
194.02	56.15
194.239	-3.24
194.458	64.34
194.678	80.72
194.897	50
195.116	56.15
195.335	82.77
195.555	76.63
195.774	15.19
195.993	88.92
196.212	-23.72
196.432	43.86
196.651	86.87
196.87	11.09
197.089	113.49
197.308	15.19
197.528	76.63
197.747	54.1
197.966	80.72
198.185	50
198.404	35.67
198.623	127.83
198.842	84.82
199.062	29.52
199.281	121.68
199.5	27.48
199.719	76.63
199.938	119.64
200.157	13.14
200.376	101.2
200.595	125.78
200.814	58.2
201.033	-1.19
201.252	74.58
201.471	99.16
201.69	41.81
201.909	72.53
202.128	72.53
202.347	39.76
202.566	76.63
202.785	56.15
203.004	11.09
203.223	82.77
203.442	-11.43
203.661	64.34
203.879	-5.29
204.098	117.59
204.317	-21.67
204.536	97.11
204.755	117.59
204.974	25.43
205.193	58.2
205.411	121.68
205.63	41.81
205.849	0.85
206.068	-1.19
206.287	82.77
206.505	31.57
206.724	-56.49
206.943	72.53
207.162	101.2
207.381	7
207.599	47.96
207.818	68.44
208.037	95.06
208.255	52.05
208.474	123.73
208.693	93.01
208.911	0.85
209.13	37.72
209.349	88.92
209.567	47.96
209.786	72.53
210.005	109.4
210.223	101.2
210.442	52.05
210.661	39.76
210.879	109.4
211.098	27.48
211.316	136.02
211.535	31.57
211.753	19.29
211.972	39.76
212.191	23.38
212.409	-3.24
212.628	4.95
212.846	9.05
213.065	72.53
213.283	109.4
213.502	37.72
213.72	64.34
213.938	47.96
214.157	23.38
214.375	88.92
214.594	47.96
214.812	-23.72
215.031	111.44
215.249	101.2
215.467	17.24
215.686	-25.77
215.904	58.2
216.122	93.01
216.341	115.54
216.559	64.34
216.778	76.63
216.996	80.72
217.214	45.91
217.432	-1.19
217.651	11.09
217.869	50
218.087	129.88
218.306	58.2
218.524	97.11
218.742	66.39
218.96	78.68
219.179	125.78
219.397	56.15
219.615	144.21
219.833	97.11
220.051	-1.19
220.27	66.39
220.488	17.24
220.706	70.48
220.924	66.39
221.142	-9.39
221.36	47.96
221.578	35.67
221.796	103.25
222.015	37.72
222.233	76.63
222.451	64.34
222.669	97.11
222.887	74.58
223.105	68.44
223.323	105.3
223.541	58.2
223.759	121.68
223.977	27.48
224.195	41.81
224.413	23.38
224.631	119.64
224.849	70.48
225.067	88.92
225.285	78.68
225.503	-13.48
225.721	29.52
225.939	99.16
226.157	-33.96
226.375	138.07
226.592	-54.44
226.81	-5.29
227.028	56.15
227.246	74.58
227.464	47.96
227.682	68.44
227.9	41.81
228.117	37.72
228.335	97.11
228.553	43.86
228.771	64.34
228.989	129.88
229.206	27.48
229.424	25.43
229.642	23.38
229.86	95.06
230.077	101.2
230.295	47.96
230.513	35.67
230.731	131.92
230.948	72.53
231.166	146.26
231.384	-17.58
231.601	109.4
231.819	144.21
232.037	31.57
232.254	27.48
232.472	47.96
232.689	64.34
232.907	129.88
233.125	76.63
233.342	82.77
233.56	33.62
233.777	129.88
233.995	99.16
234.213	66.39
234.43	2.9
234.648	15.19
234.865	117.59
235.083	56.15
235.3	-36.01
235.518	90.96
235.735	82.77
235.953	64.34
236.17	19.29
236.388	33.62
236.605	29.52
236.822	158.55
237.04	-36.01
237.257	15.19
237.475	21.33
237.692	60.24
237.909	50
238.127	52.05
238.344	78.68
238.562	56.15
238.779	88.92
238.996	52.05
239.214	138.07
239.431	19.29
239.648	19.29
239.865	111.44
240.083	50
240.3	50
240.517	0.85
240.735	101.2
240.952	80.72
241.169	86.87
241.386	19.29
241.603	142.16
241.821	68.44
242.038	179.03
242.255	105.3
242.472	-58.54
242.689	154.45
242.907	88.92
243.124	95.06
243.341	101.2
243.558	60.24
243.775	27.48
243.992	27.48
244.209	0.85
244.426	109.4
244.643	68.44
244.86	74.58
245.078	88.92
245.295	78.68
245.512	80.72
245.729	0.85
245.946	47.96
246.163	64.34
246.38	60.24
246.597	56.15
246.814	72.53
247.031	80.72
247.248	88.92
247.464	99.16
247.681	-1.19
247.898	113.49
248.115	82.77
248.332	-1.19
248.549	121.68
248.766	39.76
248.983	82.77
249.2	47.96
249.417	105.3
249.633	80.72
249.85	74.58
250.067	72.53
250.284	123.73
250.501	90.96
250.717	125.78
250.934	84.82
251.151	82.77
251.368	101.2
251.585	60.24
251.801	-17.58
252.018	76.63
252.235	111.44
252.451	-9.39
252.668	33.62
252.885	41.81
253.102	78.68
253.318	95.06
253.535	-9.39
253.752	50
253.968	74.58
254.185	54.1
254.401	4.95
254.618	99.16
254.835	99.16
255.051	88.92
255.268	64.34
255.484	74.58
255.701	72.53
255.917	113.49
256.134	15.19
256.351	-9.39
256.567	25.43
256.784	72.53
257	58.2
257.217	129.88
257.433	99.16
257.65	86.87
257.866	64.34
258.082	64.34
258.299	43.86
258.515	66.39
258.732	80.72
258.948	-17.58
259.165	60.24
259.381	31.57
259.597	76.63
259.814	27.48
260.03	78.68
260.246	72.53
260.463	90.96
260.679	82.77
260.895	41.81
261.112	78.68
261.328	0.85
261.544	78.68
261.761	99.16
261.977	109.4
262.193	39.76
262.409	97.11
262.626	88.92
262.842	68.44
263.058	25.43
263.274	90.96
263.49	99.16
263.707	39.76
263.923	84.82
264.139	43.86
264.355	74.58
264.571	113.49
264.787	121.68
265.004	133.97
265.22	25.43
265.436	35.67
265.652	95.06
265.868	72.53
266.084	-1.19
266.3	50
266.516	17.24
266.732	146.26
266.948	62.29
267.164	15.19
267.38	45.91
267.596	80.72
267.812	64.34
268.028	80.72
268.244	70.48
268.46	47.96
268.676	62.29
268.892	131.92
269.108	43.86
269.324	33.62
269.54	39.76
269.756	68.44
269.972	84.82
270.188	105.3
270.403	2.9
270.619	105.3
270.835	17.24
271.051	74.58
271.267	72.53
271.483	15.19
271.698	105.3
271.914	90.96
272.13	66.39
272.346	37.72
272.562	88.92
272.777	86.87
272.993	99.16
273.209	50
273.425	-3.24
273.64	17.24
273.856	56.15
274.072	105.3
274.287	15.19
274.503	93.01
274.719	43.86
274.934	82.77
275.15	-17.58
275.366	58.2
275.581	39.76
275.797	54.1
276.012	-21.67
276.228	86.87
276.444	70.48
276.659	33.62
276.875	17.24
277.09	164.69
277.306	52.05
277.521	50
277.737	35.67
277.952	68.44
278.168	90.96
278.383	74.58
278.599	41.81
278.814	7
279.03	60.24
279.245	105.3
279.461	68.44
279.676	109.4
279.892	58.2
280.107	80.72
280.322	-44.2
280.538	88.92
280.753	62.29
280.969	129.88
281.184	95.06
281.399	74.58
281.615	56.15
281.83	93.01
282.045	7
282.26	99.16
282.476	164.69
282.691	56.15
282.906	82.77
283.122	78.68
283.337	31.57
283.552	43.86
283.767	90.96
283.983	82.77
284.198	7
284.413	2.9
284.628	23.38
284.843	99.16
285.058	41.81
285.274	52.05
285.489	2.9
285.704	123.73
285.919	27.48
286.134	56.15
286.349	56.15
286.564	72.53
286.779	148.31
286.995	47.96
287.21	23.38
287.425	23.38
287.64	39.76
287.855	95.06
288.07	76.63
288.285	158.55
288.5	-17.58
288.715	45.91
288.93	17.24
289.145	88.92
289.36	97.11
289.575	-9.39
289.79	111.44
290.004	121.68
290.219	82.77
290.434	105.3
290.649	58.2
290.864	78.68
291.079	76.63
291.294	64.34
291.509	138.07
291.724	88.92
291.938	2.9
292.153	41.81
292.368	97.11
292.583	39.76
292.798	33.62
293.012	113.49
293.227	88.92
293.442	60.24
293.657	74.58
293.871	84.82
294.086	117.59
294.301	160.59
294.516	76.63
294.73	78.68
294.945	19.29
295.16	56.15
295.374	93.01
295.589	23.38
295.804	19.29
296.018	131.92
296.233	80.72
296.447	138.07
296.662	60.24
296.877	56.15
297.091	82.77
297.306	99.16
297.52	76.63
297.735	66.39
297.949	64.34
298.164	93.01
298.378	47.96
298.593	99.16
298.807	54.1
299.022	64.34
299.236	88.92
299.451	31.57
299.665	-9.39
299.88	103.25
300.094	70.48
300.309	52.05
300.523	84.82
300.737	88.92
300.952	23.38
301.166	82.77
301.381	7
301.595	123.73
301.809	101.2
302.024	80.72
302.238	50
302.452	162.64
302.667	50
302.881	76.63
303.095	50
303.309	45.91
303.524	64.34
303.738	123.73
303.952	2.9
304.166	39.76
304.381	72.53
304.595	88.92
304.809	64.34
305.023	39.76
305.237	43.86
305.452	82.77
305.666	80.72
305.88	97.11
306.094	52.05
306.308	29.52
306.522	97.11
306.736	179.03
306.95	52.05
307.164	31.57
307.379	97.11
307.593	115.54
307.807	117.59
308.021	47.96
308.235	52.05
308.449	-1.19
308.663	62.29
308.877	107.35
309.091	19.29
309.305	0.85
309.519	47.96
309.733	148.31
309.947	23.38
310.161	90.96
310.374	88.92
310.588	76.63
310.802	72.53
311.016	64.34
311.23	129.88
311.444	43.86
311.658	101.2
311.872	88.92
312.085	74.58
312.299	78.68
312.513	105.3
312.727	31.57
312.941	27.48
313.154	66.39
313.368	60.24
313.582	47.96
313.796	35.67
314.009	125.78
314.223	80.72
314.437	54.1
314.651	72.53
314.864	64.34
315.078	68.44
315.292	29.52
315.505	56.15
315.719	72.53
315.933	72.53
316.146	80.72
316.36	70.48
316.573	72.53
316.787	140.12
317.001	80.72
317.214	95.06
317.428	41.81
317.641	93.01
317.855	129.88
318.068	37.72
318.282	72.53
318.495	56.15
318.709	123.73
318.922	39.76
319.136	109.4
319.349	109.4
319.563	76.63
319.776	80.72
319.99	50
320.203	80.72
320.417	47.96
320.63	47.96
320.843	138.07
321.057	66.39
321.27	64.34
321.483	66.39
321.697	101.2
321.91	23.38
322.124	56.15
322.337	86.87
322.55	72.53
322.763	113.49
322.977	39.76
323.19	17.24
323.403	66.39
323.617	80.72
323.83	4.95
324.043	0.85
324.256	43.86
324.469	31.57
324.683	113.49
324.896	90.96
325.109	50
325.322	25.43
325.535	115.54
325.748	35.67
325.962	93.01
326.175	64.34
326.388	93.01
326.601	39.76
326.814	66.39
327.027	23.38
327.24	107.35
327.453	-31.91
327.666	80.72
327.879	41.81
328.092	80.72
328.305	113.49
328.518	41.81
328.731	11.09
328.944	19.29
329.157	88.92
329.37	45.91
329.583	80.72
329.796	105.3
330.009	9.05
330.222	105.3
330.435	88.92
330.648	74.58
330.861	60.24
331.073	88.92
331.286	82.77
331.499	39.76
331.712	80.72
331.925	62.29
332.138	129.88
332.35	105.3
332.563	88.92
332.776	111.44
332.989	70.48
333.202	101.2
333.414	80.72
333.627	74.58
333.84	-1.19
334.053	74.58
334.265	60.24
334.478	90.96
334.691	43.86
334.903	117.59
335.116	115.54
335.329	146.26
335.541	60.24
335.754	195.41
335.966	101.2
336.179	170.83
336.392	56.15
336.604	15.19
336.817	27.48
337.029	23.38
337.242	68.44
337.454	88.92
337.667	78.68
337.88	68.44
338.092	66.39
338.305	88.92
338.517	74.58
338.729	60.24
338.942	142.16
339.154	68.44
339.367	66.39
339.579	140.12
339.792	117.59
340.004	72.53
340.217	15.19
340.429	2.9
340.641	121.68
340.854	88.92
341.066	54.1
341.278	35.67
341.491	150.36
341.703	60.24
341.915	-1.19
342.128	68.44
342.34	72.53
342.552	58.2
342.764	84.82
342.977	41.81
343.189	50
343.401	101.2
343.613	152.4
343.826	58.2
344.038	80.72
344.25	41.81
344.462	4.95
344.674	93.01
344.886	115.54
345.099	68.44
345.311	99.16
345.523	68.44
345.735	-25.77
345.947	146.26
346.159	101.2
346.371	76.63
346.583	11.09
346.795	166.74
347.007	140.12
347.219	99.16
347.431	39.76
347.643	29.52
347.855	-13.48
348.067	93.01
348.279	43.86
348.491	125.78
348.703	31.57
348.915	15.19
349.127	17.24
349.339	148.31
349.551	52.05
349.763	115.54
349.975	93.01
350.187	86.87
350.399	133.97
350.61	68.44
350.822	56.15
351.034	64.34
351.246	129.88
351.458	80.72
351.669	80.72
351.881	80.72
352.093	70.48
352.305	43.86
352.517	136.02
352.728	82.77
352.94	23.38
353.152	90.96
353.363	33.62
353.575	62.29
353.787	64.34
353.999	140.12
354.21	88.92
354.422	80.72
354.633	19.29
354.845	50
355.057	105.3
355.268	-13.48
355.48	56.15
355.692	-21.67
355.903	45.91
356.115	105.3
356.326	109.4
356.538	119.64
356.749	82.77
356.961	86.87
357.172	127.83
357.384	74.58
357.595	133.97
357.807	52.05
358.018	72.53
358.23	23.38
358.441	179.03
358.653	111.44
358.864	50
359.075	15.19
359.287	62.29
359.498	131.92
359.709	17.24
359.921	84.82
360.132	123.73
360.344	142.16
360.555	72.53
360.766	82.77
360.977	52.05
361.189	105.3
361.4	64.34
361.611	131.92
361.823	146.26
362.034	136.02
362.245	56.15
362.456	133.97
362.667	103.25
362.879	74.58
363.09	119.64
363.301	66.39
363.512	105.3
363.723	197.46
363.935	101.2
364.146	105.3
364.357	78.68
364.568	68.44
364.779	41.81
364.99	129.88
365.201	88.92
365.412	76.63
365.623	97.11
365.834	39.76
366.045	101.2
366.256	113.49
366.467	105.3
366.678	88.92
366.889	88.92
367.1	107.35
367.311	76.63
367.522	113.49
367.733	101.2
367.944	103.25
368.155	76.63
368.366	146.26
368.577	103.25
368.788	101.2
368.999	27.48
369.209	56.15
369.42	133.97
369.631	119.64
369.842	78.68
370.053	50
370.264	64.34
370.474	47.96
370.685	64.34
370.896	45.91
371.107	76.63
371.317	101.2
371.528	60.24
371.739	39.76
371.95	105.3
372.16	131.92
372.371	56.15
372.582	72.53
372.792	105.3
373.003	80.72
373.214	70.48
373.424	133.97
373.635	74.58
373.846	105.3
374.056	93.01
374.267	56.15
374.477	47.96
374.688	52.05
374.898	62.29
375.109	117.59
375.319	90.96
375.53	107.35
375.74	11.09
375.951	93.01
376.161	82.77
376.372	58.2
376.582	52.05
376.793	82.77
377.003	56.15
377.214	107.35
377.424	64.34
377.635	86.87
377.845	58.2
378.055	131.92
378.266	47.96
378.476	97.11
378.686	45.91
378.897	82.77
379.107	64.34
379.317	105.3
379.528	25.43
379.738	115.54
379.948	76.63
380.158	56.15
380.369	25.43
380.579	117.59
380.789	138.07
380.999	113.49
381.21	43.86
381.42	99.16
381.63	27.48
381.84	148.31
382.05	39.76
382.261	97.11
382.471	146.26
382.681	25.43
382.891	97.11
383.101	82.77
383.311	93.01
383.521	64.34
383.731	76.63
383.941	27.48
384.151	56.15
384.361	131.92
384.571	164.69
384.781	88.92
384.991	205.65
385.201	109.4
385.411	52.05
385.621	88.92
385.831	164.69
386.041	99.16
386.251	125.78
386.461	99.16
386.671	72.53
386.881	115.54
387.091	66.39
387.301	39.76
387.511	88.92
387.72	113.49
387.93	72.53
388.14	66.39
388.35	80.72
388.56	121.68
388.769	47.96
388.979	66.39
389.189	41.81
389.399	146.26
389.609	101.2
389.818	97.11
390.028	84.82
390.238	113.49
390.447	115.54
390.657	88.92
390.867	95.06
391.076	115.54
391.286	66.39
391.496	109.4
391.705	82.77
391.915	74.58
392.125	121.68
392.334	127.83
392.544	88.92
392.753	125.78
392.963	72.53
393.172	156.5
393.382	9.05
393.591	125.78
393.801	105.3
394.01	187.22
394.22	121.68
394.429	119.64
394.639	129.88
394.848	113.49
395.058	88.92
395.267	146.26
395.477	90.96
395.686	146.26
395.895	121.68
396.105	170.83
396.314	172.88
396.524	174.93
396.733	72.53
396.942	154.45
397.152	72.53
397.361	121.68
397.57	179.03
397.78	142.16
397.989	154.45
398.198	97.11
398.407	146.26
398.617	113.49
398.826	105.3
399.035	187.22
399.244	197.46
399.453	129.88
399.663	142.16
399.872	129.88
400.081	109.4
400.29	123.73
400.499	123.73
400.708	170.83
400.917	88.92
401.127	170.83
401.336	164.69
401.545	111.44
401.754	150.36
401.963	187.22
402.172	121.68
402.381	140.12
402.59	105.3
402.799	146.26
403.008	97.11
403.217	174.93
403.426	111.44
403.635	109.4
403.844	162.64
404.053	131.92
404.262	140.12
404.471	248.66
404.68	195.41
404.888	152.4
405.097	222.03
405.306	160.59
405.515	222.03
405.724	131.92
405.933	308.05
406.142	230.23
406.35	273.23
406.559	203.6
406.768	170.83
406.977	228.18
407.185	197.46
407.394	246.61
407.603	252.75
407.812	232.27
408.02	224.08
408.229	219.99
408.438	250.71
408.646	238.42
408.855	269.14
409.064	330.58
409.272	271.19
409.481	324.43
409.69	326.48
409.898	346.96
410.107	447.31
410.315	367.44
410.524	449.36
410.733	340.82
410.941	355.15
411.15	379.73
411.358	482.13
411.567	416.59
411.775	510.8
411.984	400.21
412.192	564.04
412.401	518.99
412.609	572.24
412.818	582.48
413.026	488.27
413.234	564.04
413.443	482.13
413.651	574.28
413.86	580.43
414.068	639.82
414.276	641.87
414.485	670.54
414.693	691.02
414.901	742.22
415.11	817.99
415.318	756.55
415.526	861
415.734	748.36
415.943	779.08
416.151	971.59
416.359	846.66
416.567	899.91
416.776	957.25
416.984	1014.6
417.192	975.69
417.4	914.25
417.608	944.97
417.817	1100.61
418.025	1110.85
418.233	1264.45
418.441	1180.48
418.649	1268.55
418.857	1383.23
419.065	1309.51
419.273	1399.62
419.481	1456.96
419.689	1411.9
419.897	1569.6
420.105	1506.11
420.313	1553.21
420.521	1690.43
420.729	1696.57
420.937	1743.67
421.145	1706.81
421.353	1882.94
421.561	1919.8
421.769	1960.76
421.977	2161.46
422.185	2093.88
422.393	2286.39
422.601	2272.05
422.809	2452.27
423.017	2321.2
423.224	2437.94
423.432	2523.95
423.64	2507.57
423.848	2738.99
424.056	2626.35
424.263	2820.91
424.471	3046.18
424.679	2923.3
424.887	3031.85
425.094	3238.69
425.302	3218.21
425.51	3326.75
425.718	3425.06
425.925	3463.97
426.133	3506.98
426.341	3824.41
426.548	3941.15
426.756	3918.62
426.964	4039.45
427.171	4281.11
427.379	4311.83
427.586	4426.51
427.794	4487.95
428.001	4725.52
428.209	5073.67
428.417	4815.63
428.624	5262.09
428.832	5237.51
429.039	5276.42
429.247	5153.54
429.454	5649.15
429.662	6028.03
429.869	5665.53
430.076	6042.36
430.284	5942.01
430.491	6253.3
430.699	6580.98
430.906	6468.34
431.114	6449.91
431.321	6822.64
431.528	6918.89
431.736	7367.4
431.943	7854.81
432.15	7668.45
432.358	7613.15
432.565	8047.32
432.772	8004.32
432.979	8549.07
433.187	8516.31
433.394	8665.81
433.601	9208.52
433.808	9181.9
434.016	9308.87
434.223	9603.78
434.43	10064.57
434.637	10123.96
434.844	10445.49
435.052	10746.55
435.259	10732.21
435.466	10773.17
435.673	10601.14
435.88	11492.01
436.087	11950.75
436.294	11999.9
436.501	11817.63
436.708	11811.49
436.915	12339.87
437.122	12831.38
437.329	12712.6
437.537	13193.87
437.743	13296.27
437.95	13261.45
438.157	14160.51
438.364	14574.2
438.571	14377.59
438.778	14527.1
438.985	15759.97
439.192	15334
439.399	15659.62
439.606	15084.14
439.813	16237.15
440.02	17228.37
440.227	16820.82
440.433	16759.38
440.64	17207.89
440.847	17056.34
441.054	17457.74
441.261	18653.75
441.467	18539.07
441.674	19169.84
441.881	19421.74
442.088	19503.66
442.294	19135.03
442.501	19683.88
442.708	20140.58
442.914	20867.61
443.121	21910.02
443.328	21367.31
443.534	22708.73
443.741	22383.1
443.948	22047.24
444.154	23316.98
444.361	23308.79
444.568	23208.44
444.774	23480.82
444.981	23456.24
445.187	24304.1
445.394	25479.63
445.6	25168.34
445.807	27666.86
446.013	26352.07
446.22	26597.82
446.426	27361.72
446.633	28381.6
446.839	28897.69
447.046	27822.51
447.252	29346.2
447.459	29385.11
447.665	29235.61
447.871	30171.53
448.078	31916.4
448.284	30347.65
448.491	31205.75
448.697	32483.69
448.903	32876.9
449.11	33081.69
449.316	32223.59
449.522	33003.87
449.728	33958.22
449.935	33972.56
450.141	33995.09
450.347	34771.27
450.553	33806.67
450.76	34275.66
450.966	35555.64
451.172	34697.54
451.378	35911.99
451.584	35096.89
451.791	36088.11
451.997	35817.78
452.203	36268.33
452.409	36727.08
452.615	36440.36
452.821	35297.59
453.027	34564.42
453.233	36598.05
453.44	35262.78
453.646	35481.91
453.852	35428.66
454.058	36254
454.264	35004.74
454.47	35723.57
454.676	35152.19
454.882	36297
455.088	33169.76
455.294	33417.56
455.5	33931.6
455.705	34400.58
455.911	33216.86
456.117	32446.82
456.323	31783.28
456.529	30349.7
456.735	31801.71
456.941	30767.49
457.147	30433.67
457.352	29694.35
457.558	29297.05
457.764	29489.56
457.97	28617.12
458.176	27933.1
458.381	27947.43
458.587	26814.91
458.793	26618.3
458.999	25360.85
459.204	27427.25
459.41	26339.78
459.616	24623.58
459.821	24498.66
460.027	24594.91
460.233	24322.53
460.438	23259.63
460.644	23417.33
460.85	22082.05
461.055	21725.71
461.261	21967.37
461.466	20060.71
461.672	19606.06
461.878	21086.74
462.083	19513.9
462.289	19169.84
462.494	19159.6
462.7	18090.56
462.905	17828.42
463.111	18393.66
463.316	18332.22
463.522	17918.53
463.727	18002.5
463.932	18233.92
464.138	17957.44
464.343	17848.9
464.549	17359.44
464.754	17918.53
464.959	18170.43
465.165	17435.21
465.37	17025.62
465.575	16450.14
465.781	17091.15
465.986	17386.06
466.191	16822.87
466.397	16218.72
466.602	15346.28
466.807	16130.66
467.012	16157.28
