Data from USB4F104151__56__14-17-05-460.txt Node

Date: Thu Mar 13 14:17:05 EDT 2025
User: louis
Spectrometer: USB4F10415
Trigger mode: 4
Integration Time (sec): 2.000000E-2
Scans to average: 1
Electric dark correction enabled: true
Nonlinearity correction enabled: false
Boxcar width: 0
XAxis mode: Wavelengths
Number of Pixels in Spectrum: 3648
>>>>>Begin Spectral Data<<<<<
178.204	-134.82
178.424	-134.82
178.644	-134.82
178.864	-54.95
179.084	-77.48
179.304	31.06
179.524	-20.14
179.744	29.01
179.964	20.82
180.184	33.11
180.404	16.73
180.624	12.63
180.844	12.63
181.064	6.49
181.283	-52.91
181.503	-22.19
181.723	-67.24
181.943	12.63
182.163	84.31
182.383	-44.71
182.602	-5.8
182.822	12.63
183.042	33.11
183.262	-3.75
183.482	-3.75
183.701	61.78
183.921	94.55
184.141	-3.75
184.361	65.88
184.58	47.44
184.8	53.59
185.02	0.34
185.239	65.88
185.459	-11.95
185.679	12.63
185.898	65.88
186.118	4.44
186.338	24.92
186.557	84.31
186.777	14.68
186.997	94.55
187.216	6.49
187.436	41.3
187.655	72.02
187.875	37.2
188.095	-20.14
188.314	88.4
188.534	49.49
188.753	6.49
188.973	63.83
189.192	29.01
189.412	8.53
189.631	33.11
189.851	-3.75
190.07	94.55
190.29	39.25
190.509	39.25
190.729	94.55
190.948	20.82
191.168	137.56
191.387	78.16
191.607	80.21
191.826	-1.71
192.045	33.11
192.265	20.82
192.484	-3.75
192.704	63.83
192.923	-22.19
193.142	96.6
193.362	47.44
193.581	149.84
193.8	55.64
194.02	61.78
194.239	-36.52
194.458	47.44
194.678	43.35
194.897	49.49
195.116	61.78
195.335	61.78
195.555	72.02
195.774	26.96
195.993	35.16
196.212	104.79
196.432	-40.62
196.651	33.11
196.87	20.82
197.089	110.93
197.308	29.01
197.528	78.16
197.747	4.44
197.966	-18.09
198.185	121.17
198.404	12.63
198.623	94.55
198.842	59.73
199.062	67.92
199.281	45.4
199.5	20.82
199.719	53.59
199.938	61.78
200.157	29.01
200.376	84.31
200.595	127.32
200.814	31.06
201.033	37.2
201.252	14.68
201.471	-26.28
201.69	137.56
201.909	29.01
202.128	47.44
202.347	-28.33
202.566	98.64
202.785	98.64
203.004	-28.33
203.223	4.44
203.442	57.68
203.661	12.63
203.879	26.96
204.098	69.97
204.317	2.39
204.536	29.01
204.755	22.87
204.974	12.63
205.193	4.44
205.411	86.36
205.63	-38.57
205.849	74.07
206.068	-20.14
206.287	-3.75
206.505	45.4
206.724	90.45
206.943	14.68
207.162	18.77
207.381	14.68
207.599	-3.75
207.818	-32.43
208.037	119.12
208.255	-9.9
208.474	53.59
208.693	8.53
208.911	-16.04
209.13	53.59
209.349	55.64
209.567	98.64
209.786	39.25
210.005	55.64
210.223	69.97
210.442	-87.72
210.661	8.53
210.879	22.87
211.098	37.2
211.316	-28.33
211.535	129.36
211.753	106.84
211.972	-18.09
212.191	6.49
212.409	12.63
212.628	8.53
212.846	20.82
213.065	102.74
213.283	96.6
213.502	20.82
213.72	47.44
213.938	31.06
214.157	49.49
214.375	20.82
214.594	-63.15
214.812	104.79
215.031	20.82
215.249	45.4
215.467	45.4
215.686	-9.9
215.904	76.12
216.122	45.4
216.341	63.83
216.559	12.63
216.778	6.49
216.996	94.55
217.214	41.3
217.432	63.83
217.651	-11.95
217.869	24.92
218.087	53.59
218.306	127.32
218.524	-24.23
218.742	-9.9
218.96	24.92
219.179	53.59
219.397	94.55
219.615	49.49
219.833	61.78
220.051	-1.71
220.27	39.25
220.488	145.75
220.706	22.87
220.924	-36.52
221.142	-22.19
221.36	43.35
221.578	63.83
221.796	-3.75
222.015	84.31
222.233	35.16
222.451	55.64
222.669	-11.95
222.887	14.68
223.105	20.82
223.323	78.16
223.541	-65.19
223.759	6.49
223.977	-28.33
224.195	-26.28
224.413	78.16
224.631	6.49
224.849	29.01
225.067	47.44
225.285	-20.14
225.503	41.3
225.721	-9.9
225.939	-75.43
226.157	88.4
226.375	29.01
226.592	-24.23
226.81	-44.71
227.028	-13.99
227.246	94.55
227.464	-1.71
227.682	57.68
227.9	45.4
228.117	53.59
228.335	82.26
228.553	-9.9
228.771	69.97
228.989	-36.52
229.206	18.77
229.424	4.44
229.642	14.68
229.86	49.49
230.077	49.49
230.295	2.39
230.513	112.98
230.731	78.16
230.948	135.51
231.166	47.44
231.384	47.44
231.601	53.59
231.819	100.69
232.037	6.49
232.254	-1.71
232.472	80.21
232.689	10.58
232.907	8.53
233.125	45.4
233.342	29.01
233.56	20.82
233.777	-3.75
233.995	22.87
234.213	-11.95
234.43	61.78
234.648	18.77
234.865	10.58
235.083	-28.33
235.3	-24.23
235.518	39.25
235.735	57.68
235.953	53.59
236.17	-3.75
236.388	69.97
236.605	22.87
236.822	-18.09
237.04	86.36
237.257	-75.43
237.475	8.53
237.692	102.74
237.909	82.26
238.127	86.36
238.344	69.97
238.562	41.3
238.779	6.49
238.996	-57
239.214	8.53
239.431	110.93
239.648	22.87
239.865	78.16
240.083	-7.85
240.3	29.01
240.517	37.2
240.735	-5.8
240.952	72.02
241.169	39.25
241.386	8.53
241.603	29.01
241.821	-28.33
242.038	22.87
242.255	78.16
242.472	8.53
242.689	94.55
242.907	102.74
243.124	37.2
243.341	33.11
243.558	6.49
243.775	29.01
243.992	-73.39
244.209	-1.71
244.426	31.06
244.643	-9.9
244.86	-20.14
245.078	47.44
245.295	37.2
245.512	39.25
245.729	-3.75
245.946	8.53
246.163	0.34
246.38	141.65
246.597	6.49
246.814	12.63
247.031	0.34
247.248	41.3
247.464	-18.09
247.681	29.01
247.898	57.68
248.115	18.77
248.332	-46.76
248.549	39.25
248.766	110.93
248.983	51.54
249.2	8.53
249.417	67.92
249.633	49.49
249.85	94.55
250.067	-42.67
250.284	76.12
250.501	18.77
250.717	86.36
250.934	4.44
251.151	31.06
251.368	-26.28
251.585	24.92
251.801	14.68
252.018	-18.09
252.235	110.93
252.451	12.63
252.668	0.34
252.885	-9.9
253.102	26.96
253.318	80.21
253.535	-11.95
253.752	12.63
253.968	-11.95
254.185	-18.09
254.401	57.68
254.618	90.45
254.835	31.06
255.051	55.64
255.268	43.35
255.484	29.01
255.701	55.64
255.917	-3.75
256.134	-54.95
256.351	39.25
256.567	-26.28
256.784	22.87
257	0.34
257.217	69.97
257.433	96.6
257.65	57.68
257.866	35.16
258.082	-26.28
258.299	-40.62
258.515	29.01
258.732	14.68
258.948	45.4
259.165	33.11
259.381	57.68
259.597	63.83
259.814	76.12
260.03	35.16
260.246	-1.71
260.463	51.54
260.679	12.63
260.895	72.02
261.112	47.44
261.328	39.25
261.544	4.44
261.761	86.36
261.977	-20.14
262.193	-28.33
262.409	51.54
262.626	35.16
262.842	76.12
263.058	-9.9
263.274	41.3
263.49	24.92
263.707	20.82
263.923	14.68
264.139	-24.23
264.355	20.82
264.571	45.4
264.787	-32.43
265.004	61.78
265.22	47.44
265.436	-67.24
265.652	-30.38
265.868	39.25
266.084	72.02
266.3	78.16
266.516	41.3
266.732	78.16
266.948	-61.1
267.164	55.64
267.38	57.68
267.596	-18.09
267.812	57.68
268.028	61.78
268.244	-9.9
268.46	22.87
268.676	35.16
268.892	90.45
269.108	63.83
269.324	0.34
269.54	22.87
269.756	84.31
269.972	6.49
270.188	29.01
270.403	-11.95
270.619	20.82
270.835	-16.04
271.051	-18.09
271.267	20.82
271.483	61.78
271.698	8.53
271.914	53.59
272.13	20.82
272.346	98.64
272.562	53.59
272.777	24.92
272.993	-1.71
273.209	86.36
273.425	4.44
273.64	-24.23
273.856	110.93
274.072	63.83
274.287	-38.57
274.503	29.01
274.719	8.53
274.934	86.36
275.15	-24.23
275.366	35.16
275.581	43.35
275.797	39.25
276.012	0.34
276.228	45.4
276.444	33.11
276.659	47.44
276.875	67.92
277.09	0.34
277.306	41.3
277.521	16.73
277.737	-50.86
277.952	18.77
278.168	57.68
278.383	-3.75
278.599	69.97
278.814	37.2
279.03	-7.85
279.245	57.68
279.461	12.63
279.676	94.55
279.892	53.59
280.107	12.63
280.322	2.39
280.538	12.63
280.753	6.49
280.969	37.2
281.184	20.82
281.399	45.4
281.615	35.16
281.83	59.73
282.045	33.11
282.26	-13.99
282.476	12.63
282.691	20.82
282.906	26.96
283.122	29.01
283.337	53.59
283.552	92.5
283.767	74.07
283.983	41.3
284.198	78.16
284.413	-30.38
284.628	-1.71
284.843	41.3
285.058	39.25
285.274	-32.43
285.489	-83.63
285.704	6.49
285.919	47.44
286.134	-3.75
286.349	4.44
286.564	24.92
286.779	53.59
286.995	22.87
287.21	-3.75
287.425	90.45
287.64	65.88
287.855	69.97
288.07	-7.85
288.285	37.2
288.5	72.02
288.715	22.87
288.93	69.97
289.145	-20.14
289.36	-7.85
289.575	39.25
289.79	119.12
290.004	86.36
290.219	117.08
290.434	20.82
290.649	110.93
290.864	43.35
291.079	29.01
291.294	49.49
291.509	37.2
291.724	4.44
291.938	29.01
292.153	57.68
292.368	-18.09
292.583	-1.71
292.798	-3.75
293.012	74.07
293.227	65.88
293.442	65.88
293.657	129.36
293.871	86.36
294.086	29.01
294.301	45.4
294.516	90.45
294.73	14.68
294.945	-3.75
295.16	47.44
295.374	47.44
295.589	22.87
295.804	90.45
296.018	55.64
296.233	39.25
296.447	-13.99
296.662	61.78
296.877	22.87
297.091	4.44
297.306	110.93
297.52	-3.75
297.735	127.32
297.949	41.3
298.164	-11.95
298.378	37.2
298.593	45.4
298.807	69.97
299.022	57.68
299.236	55.64
299.451	-7.85
299.665	86.36
299.88	-7.85
300.094	51.54
300.309	14.68
300.523	12.63
300.737	-18.09
300.952	31.06
301.166	78.16
301.381	102.74
301.595	10.58
301.809	51.54
302.024	67.92
302.238	-1.71
302.452	90.45
302.667	65.88
302.881	57.68
303.095	94.55
303.309	4.44
303.524	14.68
303.738	80.21
303.952	78.16
304.166	53.59
304.381	14.68
304.595	131.41
304.809	12.63
305.023	55.64
305.237	153.94
305.452	18.77
305.666	90.45
305.88	67.92
306.094	61.78
306.308	137.56
306.522	37.2
306.736	78.16
306.95	29.01
307.164	33.11
307.379	-9.9
307.593	53.59
307.807	61.78
308.021	12.63
308.235	39.25
308.449	49.49
308.663	29.01
308.877	22.87
309.091	0.34
309.305	29.01
309.519	-7.85
309.733	108.88
309.947	45.4
310.161	20.82
310.374	4.44
310.588	98.64
310.802	22.87
311.016	57.68
311.23	41.3
311.444	-16.04
311.658	26.96
311.872	96.6
312.085	65.88
312.299	10.58
312.513	102.74
312.727	29.01
312.941	26.96
313.154	102.74
313.368	6.49
313.582	72.02
313.796	61.78
314.009	45.4
314.223	24.92
314.437	-24.23
314.651	94.55
314.864	53.59
315.078	-7.85
315.292	-1.71
315.505	33.11
315.719	20.82
315.933	-3.75
316.146	-24.23
316.36	12.63
316.573	24.92
316.787	0.34
317.001	33.11
317.214	10.58
317.428	69.97
317.641	-28.33
317.855	57.68
318.068	78.16
318.282	51.54
318.495	96.6
318.709	43.35
318.922	41.3
319.136	123.22
319.349	80.21
319.563	20.82
319.776	55.64
319.99	24.92
320.203	-28.33
320.417	65.88
320.63	53.59
320.843	33.11
321.057	-9.9
321.27	53.59
321.483	53.59
321.697	59.73
321.91	-7.85
322.124	82.26
322.337	-24.23
322.55	47.44
322.763	2.39
322.977	33.11
323.19	61.78
323.403	78.16
323.617	0.34
323.83	72.02
324.043	53.59
324.256	69.97
324.469	-46.76
324.683	33.11
324.896	-36.52
325.109	72.02
325.322	16.73
325.535	6.49
325.748	57.68
325.962	51.54
326.175	61.78
326.388	6.49
326.601	86.36
326.814	49.49
327.027	41.3
327.24	162.13
327.453	69.97
327.666	0.34
327.879	143.7
328.092	37.2
328.305	106.84
328.518	-1.71
328.731	14.68
328.944	108.88
329.157	96.6
329.37	53.59
329.583	80.21
329.796	53.59
330.009	-9.9
330.222	88.4
330.435	67.92
330.648	31.06
330.861	-20.14
331.073	82.26
331.286	72.02
331.499	80.21
331.712	78.16
331.925	47.44
332.138	61.78
332.35	76.12
332.563	55.64
332.776	78.16
332.989	86.36
333.202	51.54
333.414	63.83
333.627	18.77
333.84	127.32
334.053	53.59
334.265	12.63
334.478	69.97
334.691	-9.9
334.903	43.35
335.116	72.02
335.329	24.92
335.541	65.88
335.754	102.74
335.966	4.44
336.179	29.01
336.392	88.4
336.604	6.49
336.817	88.4
337.029	147.8
337.242	4.44
337.454	78.16
337.667	65.88
337.88	63.83
338.092	88.4
338.305	78.16
338.517	29.01
338.729	20.82
338.942	-1.71
339.154	61.78
339.367	-24.23
339.579	31.06
339.792	84.31
340.004	86.36
340.217	86.36
340.429	121.17
340.641	49.49
340.854	55.64
341.066	-65.19
341.278	22.87
341.491	61.78
341.703	16.73
341.915	-5.8
342.128	82.26
342.34	14.68
342.552	115.03
342.764	10.58
342.977	102.74
343.189	31.06
343.401	100.69
343.613	-36.52
343.826	22.87
344.038	-22.19
344.25	63.83
344.462	12.63
344.674	39.25
344.886	31.06
345.099	24.92
345.311	45.4
345.523	49.49
345.735	67.92
345.947	29.01
346.159	-24.23
346.371	37.2
346.583	49.49
346.795	121.17
347.007	29.01
347.219	12.63
347.431	10.58
347.643	90.45
347.855	57.68
348.067	92.5
348.279	22.87
348.491	2.39
348.703	45.4
348.915	-24.23
349.127	51.54
349.339	69.97
349.551	-7.85
349.763	86.36
349.975	-3.75
350.187	65.88
350.399	92.5
350.61	78.16
350.822	-7.85
351.034	41.3
351.246	29.01
351.458	84.31
351.669	88.4
351.881	123.22
352.093	96.6
352.305	22.87
352.517	88.4
352.728	65.88
352.94	35.16
353.152	102.74
353.363	14.68
353.575	-9.9
353.787	41.3
353.999	41.3
354.21	84.31
354.422	-24.23
354.633	45.4
354.845	127.32
355.057	127.32
355.268	53.59
355.48	74.07
355.692	-20.14
355.903	86.36
356.115	37.2
356.326	14.68
356.538	80.21
356.749	53.59
356.961	8.53
357.172	43.35
357.384	37.2
357.595	129.36
357.807	55.64
358.018	-36.52
358.23	63.83
358.441	96.6
358.653	37.2
358.864	37.2
359.075	61.78
359.287	-11.95
359.498	74.07
359.709	-32.43
359.921	119.12
360.132	61.78
360.344	63.83
360.555	-13.99
360.766	-22.19
360.977	35.16
361.189	135.51
361.4	67.92
361.611	82.26
361.823	65.88
362.034	20.82
362.245	14.68
362.456	2.39
362.667	106.84
362.879	78.16
363.09	61.78
363.301	49.49
363.512	41.3
363.723	47.44
363.935	61.78
364.146	45.4
364.357	2.39
364.568	123.22
364.779	20.82
364.99	78.16
365.201	-5.8
365.412	78.16
365.623	45.4
365.834	119.12
366.045	33.11
366.256	24.92
366.467	59.73
366.678	39.25
366.889	104.79
367.1	37.2
367.311	119.12
367.522	8.53
367.733	39.25
367.944	20.82
368.155	-28.33
368.366	82.26
368.577	135.51
368.788	72.02
368.999	-3.75
369.209	86.36
369.42	102.74
369.631	153.94
369.842	78.16
370.053	6.49
370.264	65.88
370.474	10.58
370.685	12.63
370.896	102.74
371.107	41.3
371.317	63.83
371.528	51.54
371.739	24.92
371.95	-13.99
372.16	69.97
372.371	-48.81
372.582	74.07
372.792	69.97
373.003	22.87
373.214	14.68
373.424	72.02
373.635	12.63
373.846	158.03
374.056	78.16
374.267	-7.85
374.477	-32.43
374.688	41.3
374.898	-13.99
375.109	35.16
375.319	20.82
375.53	147.8
375.74	125.27
375.951	41.3
376.161	16.73
376.372	78.16
376.582	33.11
376.793	94.55
377.003	45.4
377.214	69.97
377.424	-18.09
377.635	31.06
377.845	53.59
378.055	49.49
378.266	-3.75
378.476	69.97
378.686	112.98
378.897	88.4
379.107	110.93
379.317	72.02
379.528	74.07
379.738	59.73
379.948	47.44
380.158	16.73
380.369	26.96
380.579	69.97
380.789	51.54
380.999	112.98
381.21	78.16
381.42	82.26
381.63	63.83
381.84	96.6
382.05	94.55
382.261	131.41
382.471	78.16
382.681	39.25
382.891	72.02
383.101	74.07
383.311	33.11
383.521	45.4
383.731	110.93
383.941	98.64
384.151	45.4
384.361	51.54
384.571	90.45
384.781	29.01
384.991	29.01
385.201	117.08
385.411	53.59
385.621	29.01
385.831	96.6
386.041	29.01
386.251	88.4
386.461	102.74
386.671	37.2
386.881	35.16
387.091	69.97
387.301	139.6
387.511	119.12
387.72	57.68
387.93	94.55
388.14	12.63
388.35	119.12
388.56	53.59
388.769	37.2
388.979	102.74
389.189	24.92
389.399	82.26
389.609	88.4
389.818	90.45
390.028	168.27
390.238	29.01
390.447	115.03
390.657	125.27
390.867	0.34
391.076	102.74
391.286	115.03
391.496	47.44
391.705	74.07
391.915	65.88
392.125	78.16
392.334	51.54
392.544	153.94
392.753	33.11
392.963	102.74
393.172	53.59
393.382	110.93
393.591	86.36
393.801	186.71
394.01	88.4
394.22	102.74
394.429	61.78
394.639	80.21
394.848	10.58
395.058	119.12
395.267	37.2
395.477	53.59
395.686	117.08
395.895	135.51
396.105	127.32
396.314	123.22
396.524	106.84
396.733	51.54
396.942	102.74
397.152	127.32
397.361	119.12
397.57	121.17
397.78	121.17
397.989	104.79
398.198	164.18
398.407	84.31
398.617	22.87
398.826	78.16
399.035	55.64
399.244	153.94
399.453	96.6
399.663	143.7
399.872	129.36
400.081	112.98
400.29	153.94
400.499	137.56
400.708	123.22
400.917	72.02
401.127	16.73
401.336	98.64
401.545	239.95
401.754	164.18
401.963	178.51
402.172	100.69
402.381	90.45
402.59	86.36
402.799	147.8
403.008	164.18
403.217	131.41
403.426	82.26
403.635	143.7
403.844	162.13
404.053	143.7
404.262	119.12
404.471	223.57
404.68	149.84
404.888	188.75
405.097	184.66
405.306	192.85
405.515	135.51
405.724	192.85
405.933	160.08
406.142	127.32
406.35	201.04
406.559	268.63
406.768	293.2
406.977	225.62
407.185	227.67
407.394	242
407.603	217.43
407.812	235.86
408.02	315.73
408.229	235.86
408.438	297.3
408.646	299.34
408.855	225.62
409.064	268.63
409.272	297.3
409.481	323.92
409.69	354.64
409.898	387.41
410.107	403.79
410.315	368.98
410.524	348.5
410.733	381.26
410.941	383.31
411.15	407.89
411.358	479.57
411.567	465.23
411.775	428.37
411.984	520.53
412.192	536.91
412.401	504.14
412.609	624.97
412.818	536.91
413.026	590.16
413.234	618.83
413.443	602.44
413.651	549.2
413.86	686.41
414.068	667.98
414.276	741.71
414.485	708.94
414.693	807.24
414.901	850.25
415.11	821.58
415.318	801.1
415.526	790.86
415.734	786.76
415.943	844.1
416.151	940.36
416.359	1012.04
416.567	966.98
416.776	993.61
416.984	1073.48
417.192	1046.85
417.4	1081.67
417.608	1055.05
417.817	1102.15
418.025	1159.49
418.233	1352
418.441	1265.99
418.649	1245.51
418.857	1349.95
419.065	1433.92
419.273	1395.01
419.481	1515.84
419.689	1603.9
419.897	1700.16
420.105	1732.92
420.313	1782.07
420.521	1700.16
420.729	1863.99
420.937	1863.99
421.145	2113.85
421.353	1997.11
421.561	2183.48
421.769	2228.53
421.977	2273.59
422.185	2308.4
422.393	2486.58
422.601	2625.84
422.809	2482.48
423.017	2543.92
423.224	2674.99
423.432	2818.35
423.64	2842.92
423.848	3123.49
424.056	3000.62
424.263	3150.12
424.471	3176.74
424.679	3217.7
424.887	3422.5
425.094	3414.31
425.302	3395.87
425.51	3619.1
425.718	3858.71
425.925	3934.49
426.133	4053.27
426.341	4237.59
426.548	4323.6
426.756	4376.85
426.964	4481.3
427.171	4636.94
427.379	4841.74
427.586	4911.37
427.794	4925.71
428.001	5280
428.209	5445.89
428.417	5456.13
428.624	5800.19
428.832	5769.47
429.039	5738.75
429.247	5751.04
429.454	6271.22
429.662	6670.58
429.869	6410.48
430.076	6818.03
430.284	6476.02
430.491	6914.28
430.699	7219.43
430.906	7344.36
431.114	7250.15
431.321	7590.11
431.528	7758.05
431.736	8163.54
431.943	8589.52
432.15	8331.48
432.358	8579.28
432.565	9076.94
432.772	9015.5
432.979	9291.98
433.187	9588.93
433.394	9605.31
433.601	10289.34
433.808	10399.93
434.016	10027.2
434.223	10453.17
434.43	11030.7
434.637	11030.7
434.844	11571.36
435.052	11933.86
435.259	11940
435.466	11710.63
435.673	11827.36
435.88	12478.61
436.087	13392.01
436.294	13240.46
436.501	13187.21
436.708	13250.7
436.915	13586.57
437.122	14282.88
437.329	14065.79
437.537	14512.25
437.743	14987.38
437.95	14927.99
438.157	15519.85
438.364	15888.48
438.571	15769.7
438.778	15964.26
438.985	17354.83
439.192	16752.73
439.399	17502.28
439.606	16937.04
439.813	18198.59
440.02	19267.63
440.227	18823.22
440.433	18608.19
440.64	19126.32
440.847	19075.12
441.054	19654.7
441.261	20867.09
441.467	20592.67
441.674	21047.32
441.881	21391.37
442.088	21600.27
442.294	21461.01
442.501	22030.34
442.708	22022.15
442.914	23259.12
443.121	24432.61
443.328	23521.26
443.534	25466.83
443.741	24567.77
443.948	23990.25
444.154	25939.91
444.361	25823.18
444.568	26011.59
444.774	26144.71
444.981	26437.57
445.187	26738.62
445.394	28129.19
445.6	27811.76
445.807	30302.09
446.013	29255.57
446.22	29599.63
446.426	30891.9
446.633	30852.99
446.839	32053.1
447.046	30900.09
447.252	32671.59
447.459	32436.07
447.665	32491.37
447.871	33580.88
448.078	35143.49
448.284	33621.84
448.491	34590.53
448.697	35682.1
448.903	36372.27
449.11	36351.79
449.316	35927.86
449.522	36620.07
449.728	37355.29
449.935	37984.02
450.141	37728.02
450.347	38561.54
450.553	37584.66
450.76	38053.65
450.966	39282.43
451.172	38569.74
451.378	39780.09
451.584	38702.85
451.791	40044.27
451.997	40128.24
452.203	40417
452.409	40261.36
452.615	40292.08
452.821	38541.07
453.027	38444.81
453.233	40255.22
453.44	38559.5
453.646	39374.59
453.852	39415.55
454.058	40099.57
454.264	38770.44
454.47	39644.92
454.676	38737.67
454.882	39810.81
455.088	36370.22
455.294	37189.41
455.5	37713.69
455.705	38270.73
455.911	36409.13
456.117	35860.27
456.323	35020.61
456.529	33337.18
456.735	34750.28
456.941	33939.28
457.147	33580.88
457.352	32548.71
457.558	32030.57
457.764	32388.97
457.97	31655.79
458.176	31207.29
458.381	30703.49
458.587	29376.41
458.793	29282.2
458.999	27920.3
459.204	29806.48
459.41	29067.16
459.616	27320.24
459.821	27486.13
460.027	27504.56
460.233	26658.75
460.438	25319.38
460.644	25743.31
460.85	24381.41
461.055	24156.13
461.261	24137.7
461.466	22421.5
461.672	21651.47
461.878	23109.62
462.083	21520.4
462.289	21194.77
462.494	21127.19
462.7	19968.04
462.905	19636.27
463.111	20221.98
463.316	20289.57
463.522	19945.51
463.727	19759.14
463.932	19898.41
464.138	19322.93
464.343	19890.21
464.549	19222.58
464.754	19679.27
464.959	19497
465.165	19609.64
465.37	18751.54
465.575	18348.09
465.781	18847.8
465.986	18804.79
466.191	18405.44
466.397	18184.26
466.602	17139.79
466.807	17848.39
467.012	17811.53
467.218	17625.16
467.423	17127.5
467.628	17647.69
467.833	18157.63
