Data from USB4F104151__226__14-21-38-542.txt Node

Date: Thu Mar 13 14:21:38 EDT 2025
User: louis
Spectrometer: USB4F10415
Trigger mode: 4
Integration Time (sec): 2.000000E-2
Scans to average: 1
Electric dark correction enabled: true
Nonlinearity correction enabled: false
Boxcar width: 0
XAxis mode: Wavelengths
Number of Pixels in Spectrum: 3648
>>>>>Begin Spectral Data<<<<<
178.204	-111.44
178.424	-111.44
178.644	-111.44
178.864	-78.68
179.084	-101.2
179.304	-19.29
179.524	-11.09
179.744	-50
179.964	21.67
180.184	33.96
180.404	-9.05
180.624	-15.19
180.844	-17.24
181.064	-0.85
181.283	3.24
181.503	-17.24
181.723	81.07
181.943	-9.05
182.163	40.11
182.383	25.77
182.602	50.35
182.822	25.77
183.042	23.72
183.262	13.48
183.482	109.74
183.701	-2.9
183.921	52.39
184.141	-9.05
184.361	40.11
184.58	46.25
184.8	64.68
185.02	21.67
185.239	62.63
185.459	-7
185.679	64.68
185.898	-35.67
186.118	44.2
186.338	74.92
186.557	11.43
186.777	11.43
186.997	-2.9
187.216	56.49
187.436	105.64
187.655	58.54
187.875	54.44
188.095	-23.38
188.314	79.02
188.534	-25.43
188.753	-74.58
188.973	46.25
189.192	50.35
189.412	76.97
189.631	64.68
189.851	74.92
190.07	132.26
190.29	3.24
190.509	15.53
190.729	25.77
190.948	74.92
191.168	111.78
191.387	54.44
191.607	15.53
191.826	62.63
192.045	66.73
192.265	-13.14
192.484	91.31
192.704	15.53
192.923	40.11
193.142	54.44
193.362	7.34
193.581	46.25
193.8	5.29
194.02	126.12
194.239	54.44
194.458	99.5
194.678	58.54
194.897	-25.43
195.116	5.29
195.335	58.54
195.555	72.87
195.774	95.4
195.993	33.96
196.212	21.67
196.432	-2.9
196.651	38.06
196.87	-2.9
197.089	85.16
197.308	68.78
197.528	25.77
197.747	-41.81
197.966	5.29
198.185	23.72
198.404	9.39
198.623	21.67
198.842	33.96
199.062	29.87
199.281	38.06
199.5	15.53
199.719	-13.14
199.938	15.53
200.157	87.21
200.376	25.77
200.595	122.02
200.814	46.25
201.033	15.53
201.252	50.35
201.471	9.39
201.69	54.44
201.909	115.88
202.128	25.77
202.347	-9.05
202.566	33.96
202.785	-17.24
203.004	7.34
203.223	148.65
203.442	15.53
203.661	29.87
203.879	-0.85
204.098	15.53
204.317	17.58
204.536	91.31
204.755	-19.29
204.974	54.44
205.193	27.82
205.411	74.92
205.63	-7
205.849	48.3
206.068	33.96
206.287	83.11
206.505	54.44
206.724	-0.85
206.943	-11.09
207.162	-25.43
207.381	50.35
207.599	46.25
207.818	31.91
208.037	56.49
208.255	-7
208.474	91.31
208.693	58.54
208.911	50.35
209.13	40.11
209.349	54.44
209.567	33.96
209.786	142.5
210.005	-35.67
210.223	83.11
210.442	-25.43
210.661	23.72
210.879	-27.48
211.098	38.06
211.316	89.26
211.535	33.96
211.753	-0.85
211.972	58.54
212.191	31.91
212.409	29.87
212.628	148.65
212.846	-25.43
213.065	64.68
213.283	9.39
213.502	-4.95
213.72	17.58
213.938	56.49
214.157	72.87
214.375	17.58
214.594	31.91
214.812	79.02
215.031	13.48
215.249	-7
215.467	93.35
215.686	-27.48
215.904	89.26
216.122	40.11
216.341	66.73
216.559	17.58
216.778	89.26
216.996	111.78
217.214	-52.05
217.432	66.73
217.651	31.91
217.869	-23.38
218.087	99.5
218.306	5.29
218.524	29.87
218.742	-2.9
218.96	99.5
219.179	42.15
219.397	44.2
219.615	72.87
219.833	76.97
220.051	54.44
220.27	68.78
220.488	21.67
220.706	46.25
220.924	-33.62
221.142	70.83
221.36	15.53
221.578	40.11
221.796	-11.09
222.015	21.67
222.233	-0.85
222.451	44.2
222.669	-27.48
222.887	33.96
223.105	-2.9
223.323	79.02
223.541	21.67
223.759	38.06
223.977	25.77
224.195	70.83
224.413	1.19
224.631	72.87
224.849	44.2
225.067	5.29
225.285	13.48
225.503	-7
225.721	-29.52
225.939	23.72
226.157	-39.76
226.375	144.55
226.592	-31.57
226.81	70.83
227.028	70.83
227.246	119.98
227.464	52.39
227.682	81.07
227.9	48.3
228.117	54.44
228.335	21.67
228.553	48.3
228.771	40.11
228.989	38.06
229.206	87.21
229.424	13.48
229.642	-13.14
229.86	13.48
230.077	54.44
230.295	50.35
230.513	-0.85
230.731	74.92
230.948	21.67
231.166	38.06
231.384	58.54
231.601	50.35
231.819	-0.85
232.037	-2.9
232.254	15.53
232.472	7.34
232.689	48.3
232.907	70.83
233.125	58.54
233.342	13.48
233.56	38.06
233.777	-0.85
233.995	-0.85
234.213	97.45
234.43	-17.24
234.648	72.87
234.865	36.01
235.083	17.58
235.3	81.07
235.518	79.02
235.735	36.01
235.953	72.87
236.17	38.06
236.388	54.44
236.605	83.11
236.822	152.74
237.04	25.77
237.257	38.06
237.475	3.24
237.692	40.11
237.909	64.68
238.127	-27.48
238.344	79.02
238.562	33.96
238.779	-19.29
238.996	72.87
239.214	42.15
239.431	76.97
239.648	64.68
239.865	40.11
240.083	25.77
240.3	31.91
240.517	48.3
240.735	56.49
240.952	152.74
241.169	52.39
241.386	-17.24
241.603	33.96
241.821	-13.14
242.038	103.59
242.255	17.58
242.472	-2.9
242.689	38.06
242.907	11.43
243.124	54.44
243.341	64.68
243.558	-19.29
243.775	46.25
243.992	62.63
244.209	111.78
244.426	38.06
244.643	48.3
244.86	62.63
245.078	23.72
245.295	-2.9
245.512	-0.85
245.729	38.06
245.946	70.83
246.163	99.5
246.38	48.3
246.597	70.83
246.814	17.58
247.031	-45.91
247.248	74.92
247.464	21.67
247.681	-9.05
247.898	-4.95
248.115	62.63
248.332	54.44
248.549	111.78
248.766	42.15
248.983	72.87
249.2	3.24
249.417	17.58
249.633	-4.95
249.85	66.73
250.067	83.11
250.284	-37.72
250.501	105.64
250.717	33.96
250.934	13.48
251.151	-2.9
251.368	33.96
251.585	56.49
251.801	29.87
252.018	21.67
252.235	42.15
252.451	54.44
252.668	17.58
252.885	91.31
253.102	83.11
253.318	38.06
253.535	9.39
253.752	40.11
253.968	-52.05
254.185	-39.76
254.401	79.02
254.618	103.59
254.835	64.68
255.051	29.87
255.268	-4.95
255.484	36.01
255.701	15.53
255.917	54.44
256.134	42.15
256.351	79.02
256.567	44.2
256.784	13.48
257	21.67
257.217	15.53
257.433	-19.29
257.65	64.68
257.866	-25.43
258.082	-4.95
258.299	50.35
258.515	13.48
258.732	64.68
258.948	-11.09
259.165	95.4
259.381	58.54
259.597	36.01
259.814	54.44
260.03	126.12
260.246	68.78
260.463	38.06
260.679	46.25
260.895	21.67
261.112	81.07
261.328	46.25
261.544	5.29
261.761	72.87
261.977	38.06
262.193	54.44
262.409	62.63
262.626	85.16
262.842	-23.38
263.058	-19.29
263.274	81.07
263.49	60.59
263.707	46.25
263.923	31.91
264.139	79.02
264.355	13.48
264.571	76.97
264.787	17.58
265.004	148.65
265.22	13.48
265.436	23.72
265.652	-11.09
265.868	54.44
266.084	-31.57
266.3	11.43
266.516	-11.09
266.732	1.19
266.948	25.77
267.164	87.21
267.38	33.96
267.596	62.63
267.812	87.21
268.028	50.35
268.244	66.73
268.46	5.29
268.676	42.15
268.892	13.48
269.108	54.44
269.324	-2.9
269.54	-9.05
269.756	97.45
269.972	33.96
270.188	5.29
270.403	-7
270.619	64.68
270.835	113.83
271.051	13.48
271.267	33.96
271.483	58.54
271.698	29.87
271.914	97.45
272.13	-25.43
272.346	29.87
272.562	68.78
272.777	46.25
272.993	-41.81
273.209	74.92
273.425	132.26
273.64	50.35
273.856	62.63
274.072	11.43
274.287	7.34
274.503	66.73
274.719	56.49
274.934	70.83
275.15	11.43
275.366	9.39
275.581	76.97
275.797	50.35
276.012	103.59
276.228	105.64
276.444	29.87
276.659	103.59
276.875	-50
277.09	5.29
277.306	7.34
277.521	38.06
277.737	68.78
277.952	17.58
278.168	52.39
278.383	15.53
278.599	38.06
278.814	58.54
279.03	25.77
279.245	74.92
279.461	119.98
279.676	95.4
279.892	33.96
280.107	64.68
280.322	-25.43
280.538	11.43
280.753	-0.85
280.969	95.4
281.184	66.73
281.399	54.44
281.615	-41.81
281.83	23.72
282.045	42.15
282.26	91.31
282.476	1.19
282.691	103.59
282.906	-19.29
283.122	21.67
283.337	-2.9
283.552	1.19
283.767	56.49
283.983	101.55
284.198	-2.9
284.413	89.26
284.628	-33.62
284.843	31.91
285.058	31.91
285.274	48.3
285.489	42.15
285.704	89.26
285.919	15.53
286.134	38.06
286.349	21.67
286.564	-23.38
286.779	93.35
286.995	85.16
287.21	1.19
287.425	89.26
287.64	46.25
287.855	97.45
288.07	1.19
288.285	38.06
288.5	25.77
288.715	-17.24
288.93	-2.9
289.145	56.49
289.36	70.83
289.575	23.72
289.79	29.87
290.004	-7
290.219	44.2
290.434	36.01
290.649	9.39
290.864	58.54
291.079	23.72
291.294	29.87
291.509	66.73
291.724	-4.95
291.938	3.24
292.153	38.06
292.368	54.44
292.583	-11.09
292.798	111.78
293.012	17.58
293.227	81.07
293.442	-35.67
293.657	83.11
293.871	136.36
294.086	29.87
294.301	83.11
294.516	54.44
294.73	25.77
294.945	50.35
295.16	29.87
295.374	3.24
295.589	5.29
295.804	79.02
296.018	21.67
296.233	-25.43
296.447	62.63
296.662	76.97
296.877	-41.81
297.091	87.21
297.306	-27.48
297.52	-17.24
297.735	56.49
297.949	-9.05
298.164	38.06
298.378	11.43
298.593	5.29
298.807	7.34
299.022	21.67
299.236	58.54
299.451	72.87
299.665	-17.24
299.88	29.87
300.094	62.63
300.309	54.44
300.523	42.15
300.737	58.54
300.952	66.73
301.166	-0.85
301.381	58.54
301.595	40.11
301.809	85.16
302.024	85.16
302.238	50.35
302.452	15.53
302.667	40.11
302.881	46.25
303.095	29.87
303.309	29.87
303.524	60.59
303.738	79.02
303.952	38.06
304.166	83.11
304.381	7.34
304.595	70.83
304.809	87.21
305.023	72.87
305.237	54.44
305.452	-68.44
305.666	46.25
305.88	62.63
306.094	15.53
306.308	124.07
306.522	29.87
306.736	54.44
306.95	72.87
307.164	76.97
307.379	70.83
307.593	25.77
307.807	38.06
308.021	29.87
308.235	-35.67
308.449	15.53
308.663	36.01
308.877	107.69
309.091	21.67
309.305	124.07
309.519	-21.33
309.733	9.39
309.947	50.35
310.161	31.91
310.374	83.11
310.588	11.43
310.802	-11.09
311.016	79.02
311.23	-43.86
311.444	-23.38
311.658	-25.43
311.872	-11.09
312.085	5.29
312.299	105.64
312.513	-7
312.727	105.64
312.941	-23.38
313.154	21.67
313.368	76.97
313.582	40.11
313.796	85.16
314.009	79.02
314.223	42.15
314.437	81.07
314.651	-2.9
314.864	70.83
315.078	58.54
315.292	38.06
315.505	29.87
315.719	62.63
315.933	1.19
316.146	93.35
316.36	21.67
316.573	95.4
316.787	15.53
317.001	89.26
317.214	70.83
317.428	62.63
317.641	-11.09
317.855	46.25
318.068	17.58
318.282	99.5
318.495	95.4
318.709	87.21
318.922	36.01
319.136	87.21
319.349	-4.95
319.563	54.44
319.776	21.67
319.99	58.54
320.203	101.55
320.417	42.15
320.63	21.67
320.843	54.44
321.057	152.74
321.27	58.54
321.483	42.15
321.697	97.45
321.91	33.96
322.124	91.31
322.337	93.35
322.55	29.87
322.763	-15.19
322.977	83.11
323.19	40.11
323.403	13.48
323.617	66.73
323.83	23.72
324.043	74.92
324.256	-11.09
324.469	64.68
324.683	68.78
324.896	42.15
325.109	58.54
325.322	33.96
325.535	64.68
325.748	93.35
325.962	21.67
326.175	38.06
326.388	5.29
326.601	74.92
326.814	46.25
327.027	19.63
327.24	119.98
327.453	7.34
327.666	91.31
327.879	48.3
328.092	54.44
328.305	-25.43
328.518	3.24
328.731	15.53
328.944	99.5
329.157	79.02
329.37	72.87
329.583	105.64
329.796	48.3
330.009	91.31
330.222	72.87
330.435	42.15
330.648	74.92
330.861	72.87
331.073	79.02
331.286	54.44
331.499	-27.48
331.712	-2.9
331.925	1.19
332.138	13.48
332.35	79.02
332.563	95.4
332.776	36.01
332.989	1.19
333.202	-54.1
333.414	89.26
333.627	21.67
333.84	56.49
334.053	40.11
334.265	17.58
334.478	56.49
334.691	9.39
334.903	54.44
335.116	81.07
335.329	-7
335.541	17.58
335.754	130.22
335.966	54.44
336.179	-19.29
336.392	13.48
336.604	134.31
336.817	91.31
337.029	97.45
337.242	38.06
337.454	62.63
337.667	101.55
337.88	105.64
338.092	46.25
338.305	113.83
338.517	36.01
338.729	70.83
338.942	36.01
339.154	81.07
339.367	-4.95
339.579	-2.9
339.792	111.78
340.004	-2.9
340.217	31.91
340.429	101.55
340.641	31.91
340.854	27.82
341.066	42.15
341.278	111.78
341.491	40.11
341.703	48.3
341.915	46.25
342.128	117.93
342.34	70.83
342.552	29.87
342.764	-7
342.977	11.43
343.189	7.34
343.401	48.3
343.613	-11.09
343.826	42.15
344.038	44.2
344.25	85.16
344.462	48.3
344.674	17.58
344.886	-17.24
345.099	48.3
345.311	64.68
345.523	62.63
345.735	25.77
345.947	11.43
346.159	1.19
346.371	46.25
346.583	54.44
346.795	97.45
347.007	9.39
347.219	40.11
347.431	111.78
347.643	103.59
347.855	66.73
348.067	83.11
348.279	36.01
348.491	3.24
348.703	13.48
348.915	5.29
349.127	33.96
349.339	44.2
349.551	15.53
349.763	46.25
349.975	17.58
350.187	68.78
350.399	87.21
350.61	119.98
350.822	-33.62
351.034	46.25
351.246	1.19
351.458	17.58
351.669	91.31
351.881	9.39
352.093	97.45
352.305	93.35
352.517	33.96
352.728	115.88
352.94	48.3
353.152	31.91
353.363	-31.57
353.575	54.44
353.787	165.03
353.999	23.72
354.21	5.29
354.422	23.72
354.633	1.19
354.845	76.97
355.057	62.63
355.268	128.17
355.48	64.68
355.692	50.35
355.903	76.97
356.115	83.11
356.326	44.2
356.538	72.87
356.749	-15.19
356.961	87.21
357.172	17.58
357.384	87.21
357.595	54.44
357.807	62.63
358.018	48.3
358.23	40.11
358.441	29.87
358.653	70.83
358.864	52.39
359.075	87.21
359.287	48.3
359.498	21.67
359.709	87.21
359.921	119.98
360.132	9.39
360.344	33.96
360.555	72.87
360.766	21.67
360.977	50.35
361.189	111.78
361.4	-9.05
361.611	40.11
361.823	99.5
362.034	25.77
362.245	-9.05
362.456	42.15
362.667	54.44
362.879	101.55
363.09	38.06
363.301	50.35
363.512	50.35
363.723	64.68
363.935	54.44
364.146	74.92
364.357	23.72
364.568	74.92
364.779	31.91
364.99	48.3
365.201	7.34
365.412	111.78
365.623	38.06
365.834	13.48
366.045	50.35
366.256	25.77
366.467	21.67
366.678	23.72
366.889	50.35
367.1	54.44
367.311	50.35
367.522	11.43
367.733	87.21
367.944	46.25
368.155	91.31
368.366	81.07
368.577	119.98
368.788	97.45
368.999	62.63
369.209	27.82
369.42	87.21
369.631	81.07
369.842	79.02
370.053	-7
370.264	122.02
370.474	54.44
370.685	23.72
370.896	62.63
371.107	46.25
371.317	83.11
371.528	62.63
371.739	70.83
371.95	119.98
372.16	38.06
372.371	54.44
372.582	87.21
372.792	40.11
373.003	56.49
373.214	-0.85
373.424	58.54
373.635	81.07
373.846	52.39
374.056	79.02
374.267	54.44
374.477	29.87
374.688	15.53
374.898	42.15
375.109	62.63
375.319	62.63
375.53	38.06
375.74	113.83
375.951	119.98
376.161	76.97
376.372	140.46
376.582	21.67
376.793	70.83
377.003	76.97
377.214	103.59
377.424	74.92
377.635	79.02
377.845	-9.05
378.055	74.92
378.266	87.21
378.476	128.17
378.686	87.21
378.897	70.83
379.107	62.63
379.317	122.02
379.528	76.97
379.738	87.21
379.948	17.58
380.158	91.31
380.369	21.67
380.579	21.67
380.789	97.45
380.999	156.84
381.21	119.98
381.42	95.4
381.63	46.25
381.84	54.44
382.05	40.11
382.261	97.45
382.471	58.54
382.681	70.83
382.891	128.17
383.101	36.01
383.311	33.96
383.521	40.11
383.731	68.78
383.941	109.74
384.151	29.87
384.361	58.54
384.571	52.39
384.781	7.34
384.991	142.5
385.201	99.5
385.411	87.21
385.621	72.87
385.831	50.35
386.041	46.25
386.251	46.25
386.461	64.68
386.671	95.4
386.881	33.96
387.091	46.25
387.301	136.36
387.511	-11.09
387.72	33.96
387.93	128.17
388.14	46.25
388.35	74.92
388.56	62.63
388.769	91.31
388.979	21.67
389.189	74.92
389.399	87.21
389.609	154.79
389.818	136.36
390.028	13.48
390.238	31.91
390.447	74.92
390.657	-0.85
390.867	97.45
391.076	105.64
391.286	97.45
391.496	99.5
391.705	97.45
391.915	111.78
392.125	171.18
392.334	62.63
392.544	83.11
392.753	79.02
392.963	113.83
393.172	103.59
393.382	52.39
393.591	220.33
393.801	13.48
394.01	91.31
394.22	25.77
394.429	91.31
394.639	111.78
394.848	154.79
395.058	13.48
395.267	91.31
395.477	72.87
395.686	119.98
395.895	79.02
396.105	148.65
396.314	87.21
396.524	140.46
396.733	160.94
396.942	181.42
397.152	103.59
397.361	103.59
397.57	160.94
397.78	140.46
397.989	122.02
398.198	152.74
398.407	62.63
398.617	42.15
398.826	50.35
399.035	136.36
399.244	117.93
399.453	160.94
399.663	160.94
399.872	117.93
400.081	40.11
400.29	146.6
400.499	11.43
400.708	128.17
400.917	115.88
401.127	179.37
401.336	87.21
401.545	138.41
401.754	154.79
401.963	195.75
402.172	99.5
402.381	136.36
402.59	134.31
402.799	99.5
403.008	210.09
403.217	130.22
403.426	107.69
403.635	81.07
403.844	132.26
404.053	132.26
404.262	156.84
404.471	181.42
404.68	89.26
404.888	89.26
405.097	132.26
405.306	197.8
405.515	236.71
405.724	169.13
405.933	173.22
406.142	201.9
406.35	244.9
406.559	169.13
406.768	195.75
406.977	246.95
407.185	236.71
407.394	177.32
407.603	214.18
407.812	154.79
408.02	224.42
408.229	197.8
408.438	251.05
408.646	218.28
408.855	222.38
409.064	218.28
409.272	332.97
409.481	324.77
409.69	341.16
409.898	318.63
410.107	332.97
410.315	353.45
410.524	371.88
410.733	312.49
410.941	363.69
411.15	418.98
411.358	316.58
411.567	513.19
411.775	431.27
411.984	482.47
412.192	461.99
412.401	455.84
412.609	461.99
412.818	527.52
413.026	570.53
413.234	504.99
413.443	595.11
413.651	584.87
413.86	570.53
414.068	603.3
414.276	619.68
414.485	660.64
414.693	701.6
414.901	711.84
415.11	736.42
415.318	709.79
415.526	750.75
415.734	828.57
415.943	828.57
416.151	838.81
416.359	869.53
416.567	892.06
416.776	939.16
416.984	1021.08
417.192	1008.8
417.4	933.02
417.608	1074.33
417.817	1053.85
418.025	1131.67
418.233	1193.11
418.441	1209.5
418.649	1258.65
418.857	1256.6
419.065	1354.9
419.273	1291.41
419.481	1488.02
419.689	1537.17
419.897	1553.55
420.105	1555.6
420.313	1705.1
420.521	1696.91
420.729	1752.21
420.937	1766.54
421.145	1856.65
421.353	1979.53
421.561	2036.88
421.769	2116.75
421.977	2086.03
422.185	2118.79
422.393	2126.99
422.601	2366.6
422.809	2323.59
423.017	2462.85
423.224	2489.48
423.432	2491.52
423.64	2667.65
423.848	2718.85
424.056	2890.88
424.263	2921.6
424.471	3001.47
424.679	3060.86
424.887	3185.79
425.094	3175.55
425.302	3228.79
425.51	3423.35
425.718	3533.94
425.925	3449.97
426.133	3550.32
426.341	3937.39
426.548	4220.01
426.756	3974.25
426.964	4002.93
427.171	4314.22
427.379	4445.29
427.586	4576.36
427.794	4596.84
428.001	4826.21
428.209	4965.47
428.417	4990.05
428.624	5303.39
428.832	5373.02
429.039	5330.01
429.247	5426.26
429.454	5813.33
429.662	6231.12
429.869	5897.3
430.076	6403.14
430.284	6085.71
430.491	6267.98
430.699	6626.37
430.906	6724.68
431.114	6749.25
431.321	7009.34
431.528	6831.17
431.736	7443.51
431.943	7902.26
432.15	7760.95
432.358	7898.16
432.565	8182.83
432.772	8080.43
432.979	8520.74
433.187	8799.27
433.394	8766.5
433.601	9321.5
433.808	9274.4
434.016	9296.92
434.223	9448.47
434.43	10167.31
434.637	10101.78
434.844	10671.11
435.052	10994.69
435.259	10634.25
435.466	10951.68
435.673	10892.29
435.88	11752.44
436.087	12055.54
436.294	12178.42
436.501	11973.62
436.708	12073.97
436.915	12317.68
437.122	13153.25
437.329	12786.66
437.537	13464.54
437.743	13552.6
437.95	13546.46
438.157	14054.36
438.364	14644.17
438.571	14570.44
438.778	14748.62
438.985	16051.13
439.192	15576
439.399	15963.06
439.606	15514.56
439.813	16567.21
440.02	17460.13
440.227	17286.05
440.433	17050.53
440.64	17738.65
440.847	17556.38
441.054	17929.11
441.261	18998.15
441.467	18811.79
441.674	19118.98
441.881	19917.69
442.088	19688.32
442.294	19563.39
442.501	20134.78
442.708	20700.01
442.914	21295.97
443.121	22102.87
443.328	21377.89
443.534	23065.42
443.741	22508.37
443.948	22266.71
444.154	23794.5
444.361	23876.41
444.568	23896.89
444.774	23946.05
444.981	24232.76
445.187	24750.9
445.394	25680.67
445.6	25244.46
445.807	27980.54
446.013	26866.45
446.22	27181.84
446.426	28080.89
446.633	28144.38
446.839	29274.86
447.046	27970.3
447.252	29754.08
447.459	30008.03
447.665	29706.98
447.871	30958.29
448.078	32244.41
448.284	30657.24
448.491	31445.71
448.697	32850.61
448.903	33182.38
449.11	33422
449.316	33024.69
449.522	33215.15
449.728	34310.82
449.935	34812.57
450.141	34589.34
450.347	35422.86
450.553	34015.91
450.76	34443.93
450.966	35920.52
451.172	35181.2
451.378	36278.91
451.584	35793.54
451.791	36311.68
451.997	36262.53
452.203	36788.86
452.409	37044.85
452.615	36686.46
452.821	35560.08
453.027	35041.94
453.233	36915.83
453.44	35535.5
453.646	35930.76
453.852	36074.12
454.058	36471.42
454.264	35629.71
454.47	36602.49
454.676	35201.68
454.882	36637.31
455.088	33612.46
455.294	33936.04
455.5	34509.47
455.705	34861.72
455.911	33374.89
456.117	32783.03
456.323	32246.46
456.529	30489.31
456.735	32189.12
456.941	31206.09
457.147	30440.15
457.352	29469.42
457.558	29569.77
457.764	29450.99
457.97	29080.3
458.176	28396.28
458.381	28320.51
458.587	27130.64
458.793	26913.55
458.999	25676.58
459.204	27529.99
459.41	26604.31
459.616	24750.9
459.821	25002.8
460.027	24818.48
460.233	24472.37
460.438	23249.74
460.644	23313.22
460.85	22358.87
461.055	21873.5
461.261	22215.51
461.466	20392.82
461.672	19927.93
461.878	21332.84
462.083	19886.97
462.289	19493.76
462.494	19667.84
462.7	18428.82
462.905	18031.51
463.111	18750.35
463.316	18629.52
463.522	18191.25
463.727	18115.48
463.932	18498.45
464.138	18054.04
464.343	18043.8
464.549	17415.07
464.754	18205.59
464.959	17869.72
465.165	17636.25
465.37	17314.72
465.575	16833.45
465.781	17218.47
465.986	17527.71
466.191	16815.02
466.397	16690.09
466.602	15694.78
466.807	16264.11
467.012	16579.5
467.218	16268.21
467.423	15883.19
467.628	16210.87
