Data from USB4F104151__209__14-21-06-953.txt Node

Date: Thu Mar 13 14:21:06 EDT 2025
User: louis
Spectrometer: USB4F10415
Trigger mode: 4
Integration Time (sec): 2.000000E-2
Scans to average: 1
Electric dark correction enabled: true
Nonlinearity correction enabled: false
Boxcar width: 0
XAxis mode: Wavelengths
Number of Pixels in Spectrum: 3648
>>>>>Begin Spectral Data<<<<<
178.204	-176.81
178.424	-176.81
178.644	-176.81
178.864	-90.79
179.084	-88.75
179.304	52.56
179.524	9.56
179.744	42.32
179.964	-19.11
180.184	-39.59
180.404	52.56
180.624	-21.16
180.844	-0.68
181.064	-58.03
181.283	48.47
181.503	-58.03
181.723	-8.87
181.943	-131.75
182.163	-27.31
182.383	-4.78
182.602	17.75
182.822	68.95
183.042	9.56
183.262	-51.88
183.482	17.75
183.701	27.99
183.921	38.23
184.141	-39.59
184.361	9.56
184.58	101.72
184.8	-23.21
185.02	-4.78
185.239	114
185.459	-41.64
185.679	48.47
185.898	3.41
186.118	44.37
186.338	-23.21
186.557	30.04
186.777	3.41
186.997	50.52
187.216	83.28
187.436	89.43
187.655	11.61
187.875	83.28
188.095	-6.83
188.314	32.08
188.534	58.71
188.753	40.28
188.973	42.32
189.192	23.89
189.412	-25.26
189.631	-4.78
189.851	56.66
190.07	-41.64
190.29	-23.21
190.509	17.75
190.729	-4.78
190.948	27.99
191.168	138.58
191.387	30.04
191.607	21.85
191.826	34.13
192.045	107.86
192.265	-15.02
192.484	5.46
192.704	-33.45
192.923	-4.78
193.142	46.42
193.362	11.61
193.581	38.23
193.8	21.85
194.02	132.44
194.239	99.67
194.458	11.61
194.678	-33.45
194.897	36.18
195.116	40.28
195.335	-6.83
195.555	48.47
195.774	71
195.993	44.37
196.212	-6.83
196.432	42.32
196.651	27.99
196.87	27.99
197.089	-12.97
197.308	38.23
197.528	15.7
197.747	-19.11
197.966	-41.64
198.185	23.89
198.404	5.46
198.623	40.28
198.842	36.18
199.062	25.94
199.281	11.61
199.5	40.28
199.719	-15.02
199.938	128.34
200.157	42.32
200.376	50.52
200.595	3.41
200.814	-8.87
201.033	7.51
201.252	7.51
201.471	71
201.69	77.14
201.909	23.89
202.128	109.91
202.347	23.89
202.566	23.89
202.785	32.08
203.004	36.18
203.223	71
203.442	40.28
203.661	56.66
203.879	89.43
204.098	52.56
204.317	36.18
204.536	54.61
204.755	7.51
204.974	15.7
205.193	-19.11
205.411	58.71
205.63	-2.73
205.849	-31.4
206.068	7.51
206.287	-31.4
206.505	-8.87
206.724	17.75
206.943	-53.93
207.162	40.28
207.381	25.94
207.599	23.89
207.818	56.66
208.037	30.04
208.255	-62.12
208.474	-17.07
208.693	89.43
208.911	75.09
209.13	-8.87
209.349	73.04
209.567	75.09
209.786	73.04
210.005	19.8
210.223	-58.03
210.442	32.08
210.661	64.85
210.879	5.46
211.098	64.85
211.316	-4.78
211.535	-41.64
211.753	11.61
211.972	-35.5
212.191	44.37
212.409	46.42
212.628	-98.99
212.846	23.89
213.065	36.18
213.283	-17.07
213.502	9.56
213.72	-55.98
213.938	-33.45
214.157	17.75
214.375	40.28
214.594	77.14
214.812	27.99
215.031	58.71
215.249	-41.64
215.467	97.62
215.686	52.56
215.904	27.99
216.122	-23.21
216.341	32.08
216.559	-0.68
216.778	66.9
216.996	7.51
217.214	9.56
217.432	-15.02
217.651	-25.26
217.869	-49.83
218.087	44.37
218.306	25.94
218.524	-45.74
218.742	-33.45
218.96	77.14
219.179	-39.59
219.397	-4.78
219.615	93.52
219.833	7.51
220.051	50.52
220.27	89.43
220.488	36.18
220.706	42.32
220.924	-27.31
221.142	32.08
221.36	15.7
221.578	40.28
221.796	17.75
222.015	32.08
222.233	89.43
222.451	89.43
222.669	40.28
222.887	89.43
223.105	42.32
223.323	-17.07
223.541	-33.45
223.759	15.7
223.977	-8.87
224.195	-0.68
224.413	58.71
224.631	17.75
224.849	73.04
225.067	60.76
225.285	13.65
225.503	-17.07
225.721	-45.74
225.939	-21.16
226.157	60.76
226.375	132.44
226.592	-12.97
226.81	46.42
227.028	114
227.246	-15.02
227.464	7.51
227.682	54.61
227.9	42.32
228.117	-4.78
228.335	1.37
228.553	48.47
228.771	11.61
228.989	58.71
229.206	7.51
229.424	50.52
229.642	58.71
229.86	23.89
230.077	7.51
230.295	77.14
230.513	77.14
230.731	81.24
230.948	42.32
231.166	116.05
231.384	44.37
231.601	36.18
231.819	60.76
232.037	40.28
232.254	-21.16
232.472	15.7
232.689	1.37
232.907	-23.21
233.125	23.89
233.342	40.28
233.56	13.65
233.777	-55.98
233.995	13.65
234.213	44.37
234.43	-27.31
234.648	25.94
234.865	-0.68
235.083	91.48
235.3	19.8
235.518	13.65
235.735	-15.02
235.953	36.18
236.17	-29.35
236.388	42.32
236.605	-12.97
236.822	107.86
237.04	44.37
237.257	11.61
237.475	23.89
237.692	83.28
237.909	-15.02
238.127	11.61
238.344	85.33
238.562	68.95
238.779	25.94
238.996	3.41
239.214	-0.68
239.431	13.65
239.648	-31.4
239.865	60.76
240.083	136.53
240.3	66.9
240.517	60.76
240.735	-45.74
240.952	23.89
241.169	56.66
241.386	-6.83
241.603	17.75
241.821	-6.83
242.038	54.61
242.255	32.08
242.472	17.75
242.689	-0.68
242.907	44.37
243.124	58.71
243.341	-41.64
243.558	56.66
243.775	85.33
243.992	-62.12
244.209	7.51
244.426	48.47
244.643	-45.74
244.86	-49.83
245.078	105.81
245.295	25.94
245.512	81.24
245.729	75.09
245.946	40.28
246.163	-0.68
246.38	-103.08
246.597	116.05
246.814	44.37
247.031	1.37
247.248	48.47
247.464	32.08
247.681	27.99
247.898	52.56
248.115	50.52
248.332	77.14
248.549	64.85
248.766	19.8
248.983	15.7
249.2	-25.26
249.417	40.28
249.633	30.04
249.85	48.47
250.067	48.47
250.284	-0.68
250.501	15.7
250.717	73.04
250.934	-33.45
251.151	1.37
251.368	34.13
251.585	146.77
251.801	81.24
252.018	21.85
252.235	-4.78
252.451	-27.31
252.668	19.8
252.885	50.52
253.102	60.76
253.318	-6.83
253.535	15.7
253.752	-4.78
253.968	-12.97
254.185	64.85
254.401	17.75
254.618	77.14
254.835	-101.03
255.051	101.72
255.268	34.13
255.484	40.28
255.701	134.48
255.917	62.8
256.134	15.7
256.351	11.61
256.567	73.04
256.784	40.28
257	27.99
257.217	25.94
257.433	19.8
257.65	-49.83
257.866	58.71
258.082	40.28
258.299	-17.07
258.515	97.62
258.732	-31.4
258.948	42.32
259.165	30.04
259.381	89.43
259.597	42.32
259.814	-21.16
260.03	-21.16
260.246	58.71
260.463	13.65
260.679	77.14
260.895	34.13
261.112	40.28
261.328	73.04
261.544	58.71
261.761	101.72
261.977	1.37
262.193	25.94
262.409	-4.78
262.626	42.32
262.842	1.37
263.058	1.37
263.274	68.95
263.49	-12.97
263.707	64.85
263.923	32.08
264.139	-51.88
264.355	73.04
264.571	44.37
264.787	13.65
265.004	48.47
265.22	56.66
265.436	38.23
265.652	7.51
265.868	23.89
266.084	15.7
266.3	9.56
266.516	23.89
266.732	25.94
266.948	5.46
267.164	11.61
267.38	-39.59
267.596	64.85
267.812	1.37
268.028	83.28
268.244	36.18
268.46	44.37
268.676	-15.02
268.892	62.8
269.108	19.8
269.324	25.94
269.54	-23.21
269.756	50.52
269.972	42.32
270.188	40.28
270.403	-8.87
270.619	32.08
270.835	34.13
271.051	15.7
271.267	89.43
271.483	73.04
271.698	75.09
271.914	64.85
272.13	36.18
272.346	27.99
272.562	23.89
272.777	60.76
272.993	5.46
273.209	34.13
273.425	85.33
273.64	-19.11
273.856	32.08
274.072	-4.78
274.287	-33.45
274.503	101.72
274.719	89.43
274.934	-31.4
275.15	-0.68
275.366	27.99
275.581	23.89
275.797	27.99
276.012	-23.21
276.228	7.51
276.444	27.99
276.659	109.91
276.875	-12.97
277.09	52.56
277.306	19.8
277.521	58.71
277.737	40.28
277.952	23.89
278.168	1.37
278.383	17.75
278.599	-21.16
278.814	42.32
279.03	-6.83
279.245	159.06
279.461	116.05
279.676	93.52
279.892	-72.36
280.107	58.71
280.322	-17.07
280.538	23.89
280.753	50.52
280.969	68.95
281.184	-27.31
281.399	21.85
281.615	79.19
281.83	73.04
282.045	-6.83
282.26	25.94
282.476	-23.21
282.691	122.2
282.906	42.32
283.122	27.99
283.337	32.08
283.552	77.14
283.767	58.71
283.983	42.32
284.198	-0.68
284.413	130.39
284.628	-2.73
284.843	-15.02
285.058	19.8
285.274	23.89
285.489	-25.26
285.704	60.76
285.919	40.28
286.134	-0.68
286.349	9.56
286.564	36.18
286.779	27.99
286.995	-8.87
287.21	-45.74
287.425	21.85
287.64	34.13
287.855	56.66
288.07	-49.83
288.285	15.7
288.5	9.56
288.715	54.61
288.93	-17.07
289.145	-0.68
289.36	124.24
289.575	42.32
289.79	77.14
290.004	23.89
290.219	11.61
290.434	-33.45
290.649	-31.4
290.864	-17.07
291.079	62.8
291.294	58.71
291.509	32.08
291.724	21.85
291.938	50.52
292.153	-6.83
292.368	17.75
292.583	50.52
292.798	23.89
293.012	42.32
293.227	27.99
293.442	38.23
293.657	-17.07
293.871	40.28
294.086	-25.26
294.301	85.33
294.516	-0.68
294.73	5.46
294.945	15.7
295.16	19.8
295.374	81.24
295.589	58.71
295.804	7.51
296.018	15.7
296.233	-8.87
296.447	13.65
296.662	42.32
296.877	32.08
297.091	48.47
297.306	68.95
297.52	46.42
297.735	17.75
297.949	73.04
298.164	58.71
298.378	34.13
298.593	-49.83
298.807	-17.07
299.022	73.04
299.236	42.32
299.451	-31.4
299.665	1.37
299.88	89.43
300.094	13.65
300.309	-8.87
300.523	50.52
300.737	34.13
300.952	34.13
301.166	-0.68
301.381	15.7
301.595	56.66
301.809	7.51
302.024	-0.68
302.238	73.04
302.452	68.95
302.667	-49.83
302.881	114
303.095	21.85
303.309	52.56
303.524	73.04
303.738	32.08
303.952	56.66
304.166	58.71
304.381	-25.26
304.595	89.43
304.809	-66.22
305.023	27.99
305.237	83.28
305.452	-55.98
305.666	11.61
305.88	48.47
306.094	-6.83
306.308	32.08
306.522	23.89
306.736	23.89
306.95	75.09
307.164	-29.35
307.379	42.32
307.593	101.72
307.807	60.76
308.021	52.56
308.235	23.89
308.449	-17.07
308.663	-39.59
308.877	52.56
309.091	-0.68
309.305	36.18
309.519	-23.21
309.733	-23.21
309.947	23.89
310.161	66.9
310.374	32.08
310.588	81.24
310.802	3.41
311.016	23.89
311.23	52.56
311.444	42.32
311.658	30.04
311.872	105.81
312.085	40.28
312.299	9.56
312.513	21.85
312.727	48.47
312.941	36.18
313.154	97.62
313.368	-0.68
313.582	9.56
313.796	93.52
314.009	-23.21
314.223	48.47
314.437	-8.87
314.651	64.85
314.864	-33.45
315.078	64.85
315.292	89.43
315.505	15.7
315.719	85.33
315.933	81.24
316.146	95.57
316.36	40.28
316.573	34.13
316.787	-8.87
317.001	52.56
317.214	-39.59
317.428	7.51
317.641	15.7
317.855	101.72
318.068	27.99
318.282	-6.83
318.495	52.56
318.709	48.47
318.922	48.47
319.136	105.81
319.349	40.28
319.563	9.56
319.776	40.28
319.99	7.51
320.203	34.13
320.417	85.33
320.63	-0.68
320.843	97.62
321.057	140.63
321.27	19.8
321.483	58.71
321.697	7.51
321.91	32.08
322.124	48.47
322.337	52.56
322.55	25.94
322.763	32.08
322.977	25.94
323.19	-29.35
323.403	-25.26
323.617	77.14
323.83	89.43
324.043	64.85
324.256	-0.68
324.469	-21.16
324.683	114
324.896	38.23
325.109	62.8
325.322	-31.4
325.535	60.76
325.748	-31.4
325.962	25.94
326.175	15.7
326.388	7.51
326.601	75.09
326.814	52.56
327.027	48.47
327.24	34.13
327.453	-17.07
327.666	56.66
327.879	19.8
328.092	19.8
328.305	101.72
328.518	-15.02
328.731	15.7
328.944	-19.11
329.157	81.24
329.37	34.13
329.583	66.9
329.796	85.33
330.009	-78.51
330.222	7.51
330.435	44.37
330.648	66.9
330.861	25.94
331.073	44.37
331.286	48.47
331.499	21.85
331.712	21.85
331.925	19.8
332.138	-17.07
332.35	60.76
332.563	52.56
332.776	58.71
332.989	25.94
333.202	34.13
333.414	56.66
333.627	85.33
333.84	48.47
334.053	23.89
334.265	-0.68
334.478	-0.68
334.691	-6.83
334.903	40.28
335.116	19.8
335.329	71
335.541	21.85
335.754	50.52
335.966	32.08
336.179	-0.68
336.392	36.18
336.604	91.48
336.817	23.89
337.029	40.28
337.242	30.04
337.454	3.41
337.667	101.72
337.88	128.34
338.092	48.47
338.305	25.94
338.517	13.65
338.729	25.94
338.942	-8.87
339.154	11.61
339.367	-25.26
339.579	62.8
339.792	-8.87
340.004	89.43
340.217	-4.78
340.429	64.85
340.641	-45.74
340.854	60.76
341.066	71
341.278	44.37
341.491	50.52
341.703	-8.87
341.915	-8.87
342.128	75.09
342.34	44.37
342.552	23.89
342.764	-31.4
342.977	64.85
343.189	15.7
343.401	50.52
343.613	-15.02
343.826	64.85
344.038	56.66
344.25	48.47
344.462	7.51
344.674	52.56
344.886	13.65
345.099	64.85
345.311	1.37
345.523	114
345.735	9.56
345.947	36.18
346.159	56.66
346.371	-78.51
346.583	73.04
346.795	97.62
347.007	19.8
347.219	27.99
347.431	89.43
347.643	34.13
347.855	-17.07
348.067	25.94
348.279	95.57
348.491	48.47
348.703	11.61
348.915	73.04
349.127	11.61
349.339	105.81
349.551	46.42
349.763	-41.64
349.975	75.09
350.187	52.56
350.399	-0.68
350.61	36.18
350.822	36.18
351.034	50.52
351.246	-51.88
351.458	19.8
351.669	9.56
351.881	97.62
352.093	11.61
352.305	56.66
352.517	114
352.728	118.1
352.94	60.76
353.152	79.19
353.363	-23.21
353.575	38.23
353.787	99.67
353.999	75.09
354.21	32.08
354.422	56.66
354.633	-12.97
354.845	48.47
355.057	36.18
355.268	21.85
355.48	15.7
355.692	-25.26
355.903	50.52
356.115	23.89
356.326	-58.03
356.538	13.65
356.749	-10.92
356.961	71
357.172	60.76
357.384	19.8
357.595	87.38
357.807	19.8
358.018	-2.73
358.23	101.72
358.441	89.43
358.653	64.85
358.864	-10.92
359.075	48.47
359.287	-0.68
359.498	89.43
359.709	-4.78
359.921	-49.83
360.132	-21.16
360.344	89.43
360.555	34.13
360.766	27.99
360.977	81.24
361.189	93.52
361.4	9.56
361.611	77.14
361.823	89.43
362.034	97.62
362.245	-17.07
362.456	1.37
362.667	-8.87
362.879	32.08
363.09	93.52
363.301	-17.07
363.512	58.71
363.723	32.08
363.935	58.71
364.146	15.7
364.357	25.94
364.568	36.18
364.779	34.13
364.99	42.32
365.201	64.85
365.412	56.66
365.623	46.42
365.834	50.52
366.045	89.43
366.256	81.24
366.467	50.52
366.678	40.28
366.889	9.56
367.1	38.23
367.311	56.66
367.522	122.2
367.733	46.42
367.944	56.66
368.155	48.47
368.366	97.62
368.577	15.7
368.788	116.05
368.999	48.47
369.209	9.56
369.42	68.95
369.631	81.24
369.842	85.33
370.053	-12.97
370.264	19.8
370.474	5.46
370.685	25.94
370.896	36.18
371.107	68.95
371.317	-39.59
371.528	11.61
371.739	124.24
371.95	89.43
372.16	60.76
372.371	21.85
372.582	1.37
372.792	19.8
373.003	114
373.214	-0.68
373.424	87.38
373.635	11.61
373.846	58.71
374.056	50.52
374.267	32.08
374.477	34.13
374.688	48.47
374.898	64.85
375.109	75.09
375.319	81.24
375.53	17.75
375.74	75.09
375.951	-23.21
376.161	19.8
376.372	71
376.582	-33.45
376.793	56.66
377.003	87.38
377.214	56.66
377.424	85.33
377.635	34.13
377.845	11.61
378.055	66.9
378.266	-25.26
378.476	-39.59
378.686	73.04
378.897	89.43
379.107	130.39
379.317	44.37
379.528	25.94
379.738	60.76
379.948	-33.45
380.158	142.68
380.369	-8.87
380.579	27.99
380.789	73.04
380.999	60.76
381.21	56.66
381.42	75.09
381.63	89.43
381.84	56.66
382.05	1.37
382.261	109.91
382.471	64.85
382.681	48.47
382.891	40.28
383.101	52.56
383.311	62.8
383.521	42.32
383.731	73.04
383.941	42.32
384.151	21.85
384.361	15.7
384.571	71
384.781	58.71
384.991	93.52
385.201	159.06
385.411	114
385.621	64.85
385.831	-23.21
386.041	58.71
386.251	-0.68
386.461	93.52
386.671	73.04
386.881	91.48
387.091	27.99
387.301	75.09
387.511	21.85
387.72	89.43
387.93	85.33
388.14	66.9
388.35	73.04
388.56	75.09
388.769	130.39
388.979	7.51
389.189	52.56
389.399	1.37
389.609	114
389.818	122.2
390.028	126.29
390.238	64.85
390.447	-37.55
390.657	73.04
390.867	32.08
391.076	15.7
391.286	89.43
391.496	48.47
391.705	118.1
391.915	122.2
392.125	36.18
392.334	-17.07
392.544	128.34
392.753	3.41
392.963	-4.78
393.172	97.62
393.382	85.33
393.591	91.48
393.801	62.8
394.01	89.43
394.22	66.9
394.429	40.28
394.639	52.56
394.848	56.66
395.058	105.81
395.267	87.38
395.477	36.18
395.686	15.7
395.895	23.89
396.105	126.29
396.314	68.95
396.524	71
396.733	44.37
396.942	146.77
397.152	97.62
397.361	62.8
397.57	114
397.78	130.39
397.989	75.09
398.198	191.83
398.407	54.61
398.617	130.39
398.826	64.85
399.035	99.67
399.244	40.28
399.453	109.91
399.663	68.95
399.872	85.33
400.081	73.04
400.29	195.92
400.499	56.66
400.708	48.47
400.917	56.66
401.127	101.72
401.336	83.28
401.545	99.67
401.754	189.78
401.963	187.73
402.172	56.66
402.381	146.77
402.59	68.95
402.799	189.78
403.008	130.39
403.217	124.24
403.426	83.28
403.635	27.99
403.844	93.52
404.053	116.05
404.262	114
404.471	269.65
404.68	154.96
404.888	77.14
405.097	105.81
405.306	138.58
405.515	89.43
405.724	89.43
405.933	165.2
406.142	187.73
406.35	126.29
406.559	122.2
406.768	159.06
406.977	165.2
407.185	208.21
407.394	195.92
407.603	109.91
407.812	202.07
408.02	181.59
408.229	185.68
408.438	255.31
408.646	148.82
408.855	208.21
409.064	257.36
409.272	220.5
409.481	218.45
409.69	208.21
409.898	191.83
410.107	269.65
410.315	255.31
410.524	261.46
410.733	326.99
410.941	302.42
411.15	345.42
411.358	335.18
411.567	347.47
411.775	306.51
411.984	417.1
412.192	413.01
412.401	343.38
412.609	456.01
412.818	419.15
413.026	413.01
413.234	511.31
413.443	421.2
413.651	451.92
413.86	460.11
414.068	482.64
414.276	564.56
414.485	542.03
414.693	580.94
414.901	662.86
415.11	660.81
415.318	654.67
415.526	605.52
415.734	673.1
415.943	712.01
416.151	646.48
416.359	732.49
416.567	738.63
416.776	906.57
416.984	791.88
417.192	855.37
417.4	808.27
417.608	877.9
417.817	900.42
418.025	957.77
418.233	1033.54
418.441	974.15
418.649	1056.07
418.857	1131.84
419.065	1174.85
419.273	1105.22
419.481	1211.71
419.689	1248.58
419.897	1252.67
420.105	1389.89
420.313	1377.6
420.521	1402.18
420.729	1439.04
420.937	1416.51
421.145	1504.57
421.353	1602.88
421.561	1668.41
421.769	1654.08
421.977	1783.1
422.185	1762.62
422.393	1828.15
422.601	2000.18
422.809	2022.71
423.017	1981.75
423.224	2116.92
423.432	2137.4
423.64	2196.79
423.848	2440.5
424.056	2268.47
424.263	2571.57
424.471	2426.16
424.679	2432.3
424.887	2792.75
425.094	2671.92
425.302	2743.6
425.51	2860.33
425.718	2962.73
425.925	2948.39
426.133	3007.78
426.341	3284.26
426.548	3292.45
426.756	3452.19
426.964	3429.67
427.171	3659.04
427.379	3675.42
427.586	3810.59
427.794	3939.61
428.001	3984.66
428.209	4279.57
428.417	4275.48
428.624	4482.32
428.832	4556.05
429.039	4410.64
429.247	4363.54
429.454	4861.2
429.662	5252.36
429.869	4834.57
430.076	5170.44
430.284	5090.57
430.491	5246.21
430.699	5514.5
430.906	5577.98
431.114	5684.48
431.321	5958.91
431.528	6053.11
431.736	6343.92
431.943	6675.7
432.15	6403.32
432.358	6474.99
432.565	6806.77
432.772	6950.12
432.979	7105.77
433.187	7433.44
433.394	7412.96
433.601	7924.96
433.808	7840.99
434.016	7742.69
434.223	8217.82
434.43	8699.09
434.637	8436.95
434.844	8953.04
435.052	9116.87
435.259	9088.2
435.466	9170.12
435.673	9110.73
435.88	9444.55
436.087	10175.67
436.294	10208.44
436.501	9974.97
436.708	10181.82
436.915	10640.56
437.122	10943.66
437.329	11052.2
437.537	11234.47
437.743	11439.27
437.95	11132.08
438.157	12041.37
438.364	12293.27
438.571	12315.8
438.778	12479.64
438.985	13749.38
439.192	13059.21
439.399	13456.52
439.606	13186.19
439.813	13921.41
440.02	14646.39
440.227	14335.1
440.433	14253.18
440.64	15008.88
440.847	14728.31
441.054	15115.37
441.261	15869.03
441.467	15842.4
441.674	16161.89
441.881	16841.81
442.088	16626.78
442.294	16505.95
442.501	16862.29
442.708	17214.54
442.914	17890.37
443.121	18734.14
443.328	18218.05
443.534	19553.32
443.741	18791.48
443.948	18422.84
444.154	20175.91
444.361	20147.23
444.568	20005.92
444.774	20173.86
444.981	20413.47
445.187	20751.38
445.394	21707.79
445.6	21572.62
445.807	23448.56
446.013	22356.99
446.22	22838.26
446.426	23643.12
446.633	23987.18
446.839	24759.26
447.046	23942.12
447.252	24882.14
447.459	25154.52
447.665	24937.43
447.871	25906.12
448.078	26964.92
448.284	26006.47
448.491	26651.58
448.697	27685.81
448.903	28179.37
449.11	28210.09
449.316	27677.62
449.522	28312.49
449.728	29055.9
449.935	28992.41
450.141	29053.85
450.347	30161.8
450.553	29158.3
450.76	29361.05
450.966	30268.3
451.172	30186.38
451.378	30831.49
451.584	30161.8
451.791	30933.89
451.997	30733.18
452.203	31372.15
452.409	31499.12
452.615	31308.66
452.821	29629.33
453.027	29594.51
453.233	31335.29
453.44	30016.4
453.646	30223.24
453.852	30481.28
454.058	31296.38
454.264	29760.4
454.47	30509.96
454.676	30034.83
454.882	30964.6
455.088	28267.43
455.294	28773.28
455.5	29549.46
455.705	29596.56
455.911	28175.27
456.117	27757.49
456.323	27134.9
456.529	25906.12
456.735	27132.86
456.941	26149.83
457.147	26006.47
457.352	25043.93
457.558	24736.73
457.764	24898.52
457.97	24286.18
458.176	24261.6
458.381	23866.35
458.587	22797.31
458.793	22914.04
458.999	21799.94
459.204	23405.55
459.41	22496.25
459.616	21158.93
459.821	21203.99
460.027	21343.25
460.233	20472.86
460.438	19733.54
460.644	19874.85
460.85	18838.58
461.055	18515
461.261	18428.99
461.466	17212.49
461.672	16708.69
461.878	18023.49
462.083	16827.48
462.289	16389.21
462.494	16247.9
462.7	15436.91
462.905	15189.1
463.111	15709.29
463.316	15819.88
463.522	15342.7
463.727	15309.93
463.932	15656.04
464.138	15215.73
464.343	15393.9
464.549	14834.8
464.754	15297.64
464.959	15238.25
465.165	15076.46
465.37	14195.84
465.575	14150.78
465.781	14789.75
465.986	14875.76
466.191	14003.33
466.397	13831.3
466.602	13046.93
466.807	13642.89
467.012	13806.72
467.218	13614.21
467.423	13515.91
467.628	13450.38
467.833	14140.54
468.038	13610.12
