Data from USB4F104151__275__14-23-19-669.txt Node

Date: Thu Mar 13 14:23:19 EDT 2025
User: louis
Spectrometer: USB4F10415
Trigger mode: 4
Integration Time (sec): 2.000000E-2
Scans to average: 1
Electric dark correction enabled: true
Nonlinearity correction enabled: false
Boxcar width: 0
XAxis mode: Wavelengths
Number of Pixels in Spectrum: 3648
>>>>>Begin Spectral Data<<<<<
178.204	-137.9
178.424	-137.9
178.644	-137.9
178.864	-92.84
179.084	-113.32
179.304	23.89
179.524	-33.45
179.744	7.51
179.964	44.37
180.184	-6.83
180.404	60.76
180.624	-49.83
180.844	75.09
181.064	-115.37
181.283	-0.68
181.503	-17.07
181.723	11.61
181.943	-37.55
182.163	40.28
182.383	-35.5
182.602	9.56
182.822	-2.73
183.042	58.71
183.262	40.28
183.482	-17.07
183.701	15.7
183.921	27.99
184.141	-8.87
184.361	21.85
184.58	-33.45
184.8	-8.87
185.02	42.32
185.239	15.7
185.459	40.28
185.679	-0.68
185.898	-0.68
186.118	3.41
186.338	11.61
186.557	73.04
186.777	23.89
186.997	7.51
187.216	79.19
187.436	66.9
187.655	64.85
187.875	71
188.095	7.51
188.314	15.7
188.534	89.43
188.753	36.18
188.973	44.37
189.192	97.62
189.412	-21.16
189.631	71
189.851	-49.83
190.07	89.43
190.29	-19.11
190.509	19.8
190.729	73.04
190.948	30.04
191.168	89.43
191.387	36.18
191.607	25.94
191.826	83.28
192.045	44.37
192.265	64.85
192.484	23.89
192.704	-2.73
192.923	-43.69
193.142	40.28
193.362	23.89
193.581	56.66
193.8	120.15
194.02	85.33
194.239	-6.83
194.458	7.51
194.678	-23.21
194.897	-55.98
195.116	62.8
195.335	32.08
195.555	25.94
195.774	32.08
195.993	42.32
196.212	23.89
196.432	-39.59
196.651	81.24
196.87	56.66
197.089	120.15
197.308	48.47
197.528	27.99
197.747	-12.97
197.966	48.47
198.185	66.9
198.404	-2.73
198.623	60.76
198.842	60.76
199.062	17.75
199.281	93.52
199.5	-12.97
199.719	75.09
199.938	40.28
200.157	89.43
200.376	1.37
200.595	66.9
200.814	-15.02
201.033	9.56
201.252	40.28
201.471	32.08
201.69	68.95
201.909	-0.68
202.128	114
202.347	48.47
202.566	99.67
202.785	11.61
203.004	19.8
203.223	-12.97
203.442	-2.73
203.661	44.37
203.879	105.81
204.098	48.47
204.317	-37.55
204.536	60.76
204.755	5.46
204.974	38.23
205.193	-29.35
205.411	89.43
205.63	-15.02
205.849	9.56
206.068	32.08
206.287	48.47
206.505	46.42
206.724	54.61
206.943	11.61
207.162	-41.64
207.381	-21.16
207.599	50.52
207.818	-29.35
208.037	87.38
208.255	15.7
208.474	40.28
208.693	99.67
208.911	116.05
209.13	13.65
209.349	17.75
209.567	68.95
209.786	42.32
210.005	60.76
210.223	95.57
210.442	7.51
210.661	122.2
210.879	89.43
211.098	42.32
211.316	27.99
211.535	-2.73
211.753	7.51
211.972	54.61
212.191	-60.07
212.409	-17.07
212.628	17.75
212.846	40.28
213.065	54.61
213.283	58.71
213.502	-12.97
213.72	32.08
213.938	40.28
214.157	77.14
214.375	40.28
214.594	81.24
214.812	42.32
215.031	71
215.249	17.75
215.467	-33.45
215.686	-8.87
215.904	103.76
216.122	83.28
216.341	64.85
216.559	-12.97
216.778	81.24
216.996	56.66
217.214	-55.98
217.432	114
217.651	64.85
217.869	32.08
218.087	-0.68
218.306	36.18
218.524	73.04
218.742	-8.87
218.96	9.56
219.179	48.47
219.397	107.86
219.615	97.62
219.833	15.7
220.051	-0.68
220.27	97.62
220.488	48.47
220.706	118.1
220.924	40.28
221.142	34.13
221.36	7.51
221.578	56.66
221.796	81.24
222.015	64.85
222.233	50.52
222.451	32.08
222.669	-0.68
222.887	38.23
223.105	42.32
223.323	48.47
223.541	40.28
223.759	40.28
223.977	66.9
224.195	87.38
224.413	77.14
224.631	58.71
224.849	87.38
225.067	97.62
225.285	-4.78
225.503	48.47
225.721	56.66
225.939	-41.64
226.157	60.76
226.375	183.63
226.592	-39.59
226.81	44.37
227.028	5.46
227.246	91.48
227.464	64.85
227.682	36.18
227.9	101.72
228.117	3.41
228.335	1.37
228.553	83.28
228.771	11.61
228.989	91.48
229.206	68.95
229.424	-8.87
229.642	23.89
229.86	44.37
230.077	91.48
230.295	40.28
230.513	75.09
230.731	54.61
230.948	95.57
231.166	116.05
231.384	27.99
231.601	77.14
231.819	114
232.037	9.56
232.254	7.51
232.472	48.47
232.689	-17.07
232.907	25.94
233.125	-0.68
233.342	7.51
233.56	81.24
233.777	-8.87
233.995	3.41
234.213	120.15
234.43	36.18
234.648	48.47
234.865	-23.21
235.083	11.61
235.3	64.85
235.518	58.71
235.735	66.9
235.953	64.85
236.17	42.32
236.388	83.28
236.605	-21.16
236.822	75.09
237.04	32.08
237.257	-8.87
237.475	7.51
237.692	97.62
237.909	1.37
238.127	-6.83
238.344	-21.16
238.562	42.32
238.779	66.9
238.996	32.08
239.214	91.48
239.431	-4.78
239.648	17.75
239.865	34.13
240.083	15.7
240.3	-17.07
240.517	50.52
240.735	32.08
240.952	120.15
241.169	17.75
241.386	60.76
241.603	11.61
241.821	11.61
242.038	56.66
242.255	81.24
242.472	-29.35
242.689	-4.78
242.907	50.52
243.124	66.9
243.341	36.18
243.558	7.51
243.775	42.32
243.992	-0.68
244.209	75.09
244.426	83.28
244.643	52.56
244.86	-17.07
245.078	93.52
245.295	-12.97
245.512	91.48
245.729	48.47
245.946	3.41
246.163	77.14
246.38	48.47
246.597	15.7
246.814	73.04
247.031	99.67
247.248	11.61
247.464	68.95
247.681	99.67
247.898	75.09
248.115	15.7
248.332	77.14
248.549	38.23
248.766	15.7
248.983	56.66
249.2	34.13
249.417	58.71
249.633	89.43
249.85	68.95
250.067	9.56
250.284	7.51
250.501	58.71
250.717	13.65
250.934	1.37
251.151	5.46
251.368	9.56
251.585	15.7
251.801	-23.21
252.018	-33.45
252.235	34.13
252.451	1.37
252.668	-66.22
252.885	19.8
253.102	79.19
253.318	58.71
253.535	-41.64
253.752	17.75
253.968	27.99
254.185	32.08
254.401	36.18
254.618	44.37
254.835	-88.75
255.051	89.43
255.268	66.9
255.484	83.28
255.701	44.37
255.917	64.85
256.134	64.85
256.351	7.51
256.567	50.52
256.784	48.47
257	-23.21
257.217	52.56
257.433	81.24
257.65	44.37
257.866	52.56
258.082	93.52
258.299	-17.07
258.515	77.14
258.732	23.89
258.948	25.94
259.165	23.89
259.381	9.56
259.597	32.08
259.814	42.32
260.03	40.28
260.246	77.14
260.463	25.94
260.679	75.09
260.895	7.51
261.112	93.52
261.328	-39.59
261.544	17.75
261.761	95.57
261.977	27.99
262.193	44.37
262.409	19.8
262.626	56.66
262.842	52.56
263.058	-10.92
263.274	42.32
263.49	40.28
263.707	66.9
263.923	66.9
264.139	34.13
264.355	48.47
264.571	32.08
264.787	99.67
265.004	25.94
265.22	122.2
265.436	122.2
265.652	83.28
265.868	81.24
266.084	23.89
266.3	114
266.516	40.28
266.732	34.13
266.948	40.28
267.164	40.28
267.38	-33.45
267.596	85.33
267.812	36.18
268.028	52.56
268.244	7.51
268.46	60.76
268.676	64.85
268.892	25.94
269.108	19.8
269.324	32.08
269.54	17.75
269.756	97.62
269.972	50.52
270.188	1.37
270.403	-31.4
270.619	68.95
270.835	50.52
271.051	71
271.267	-0.68
271.483	56.66
271.698	17.75
271.914	42.32
272.13	23.89
272.346	52.56
272.562	1.37
272.777	93.52
272.993	-21.16
273.209	81.24
273.425	9.56
273.64	91.48
273.856	-27.31
274.072	11.61
274.287	62.8
274.503	56.66
274.719	44.37
274.934	56.66
275.15	3.41
275.366	11.61
275.581	13.65
275.797	30.04
276.012	85.33
276.228	7.51
276.444	11.61
276.659	62.8
276.875	-43.69
277.09	42.32
277.306	56.66
277.521	1.37
277.737	-17.07
277.952	56.66
278.168	-0.68
278.383	56.66
278.599	27.99
278.814	52.56
279.03	52.56
279.245	77.14
279.461	-39.59
279.676	77.14
279.892	-4.78
280.107	23.89
280.322	-4.78
280.538	17.75
280.753	17.75
280.969	48.47
281.184	-41.64
281.399	89.43
281.615	9.56
281.83	21.85
282.045	3.41
282.26	-37.55
282.476	-25.26
282.691	27.99
282.906	48.47
283.122	1.37
283.337	25.94
283.552	103.76
283.767	36.18
283.983	48.47
284.198	93.52
284.413	36.18
284.628	32.08
284.843	62.8
285.058	-15.02
285.274	48.47
285.489	48.47
285.704	44.37
285.919	-10.92
286.134	66.9
286.349	44.37
286.564	-17.07
286.779	97.62
286.995	93.52
287.21	7.51
287.425	46.42
287.64	56.66
287.855	50.52
288.07	27.99
288.285	42.32
288.5	32.08
288.715	-0.68
288.93	23.89
289.145	9.56
289.36	1.37
289.575	122.2
289.79	48.47
290.004	32.08
290.219	7.51
290.434	-17.07
290.649	64.85
290.864	-17.07
291.079	83.28
291.294	32.08
291.509	1.37
291.724	60.76
291.938	-8.87
292.153	21.85
292.368	30.04
292.583	44.37
292.798	48.47
293.012	81.24
293.227	50.52
293.442	68.95
293.657	95.57
293.871	101.72
294.086	-19.11
294.301	36.18
294.516	91.48
294.73	58.71
294.945	-39.59
295.16	42.32
295.374	17.75
295.589	-25.26
295.804	-10.92
296.018	32.08
296.233	83.28
296.447	17.75
296.662	91.48
296.877	85.33
297.091	9.56
297.306	23.89
297.52	77.14
297.735	40.28
297.949	50.52
298.164	71
298.378	-8.87
298.593	32.08
298.807	11.61
299.022	66.9
299.236	-15.02
299.451	25.94
299.665	-37.55
299.88	68.95
300.094	-10.92
300.309	64.85
300.523	36.18
300.737	-12.97
300.952	89.43
301.166	25.94
301.381	32.08
301.595	58.71
301.809	-19.11
302.024	-8.87
302.238	17.75
302.452	85.33
302.667	-0.68
302.881	105.81
303.095	114
303.309	56.66
303.524	32.08
303.738	50.52
303.952	42.32
304.166	75.09
304.381	34.13
304.595	116.05
304.809	23.89
305.023	58.71
305.237	97.62
305.452	42.32
305.666	-51.88
305.88	19.8
306.094	64.85
306.308	25.94
306.522	7.51
306.736	-0.68
306.95	97.62
307.164	54.61
307.379	75.09
307.593	32.08
307.807	85.33
308.021	7.51
308.235	-41.64
308.449	32.08
308.663	-47.79
308.877	97.62
309.091	15.7
309.305	58.71
309.519	40.28
309.733	109.91
309.947	75.09
310.161	111.96
310.374	56.66
310.588	54.61
310.802	-25.26
311.016	21.85
311.23	7.51
311.444	-17.07
311.658	23.89
311.872	15.7
312.085	32.08
312.299	73.04
312.513	122.2
312.727	-17.07
312.941	9.56
313.154	81.24
313.368	122.2
313.582	89.43
313.796	19.8
314.009	40.28
314.223	85.33
314.437	132.44
314.651	42.32
314.864	36.18
315.078	75.09
315.292	50.52
315.505	64.85
315.719	-23.21
315.933	21.85
316.146	5.46
316.36	50.52
316.573	107.86
316.787	79.19
317.001	36.18
317.214	32.08
317.428	75.09
317.641	21.85
317.855	60.76
318.068	-41.64
318.282	-8.87
318.495	56.66
318.709	93.52
318.922	42.32
319.136	58.71
319.349	73.04
319.563	73.04
319.776	89.43
319.99	13.65
320.203	73.04
320.417	58.71
320.63	91.48
320.843	124.24
321.057	95.57
321.27	13.65
321.483	-6.83
321.697	114
321.91	73.04
322.124	13.65
322.337	-0.68
322.55	83.28
322.763	75.09
322.977	58.71
323.19	1.37
323.403	5.46
323.617	15.7
323.83	42.32
324.043	38.23
324.256	25.94
324.469	60.76
324.683	146.77
324.896	75.09
325.109	11.61
325.322	9.56
325.535	93.52
325.748	93.52
325.962	60.76
326.175	19.8
326.388	27.99
326.601	95.57
326.814	136.53
327.027	81.24
327.24	169.3
327.453	27.99
327.666	44.37
327.879	89.43
328.092	68.95
328.305	48.47
328.518	52.56
328.731	-2.73
328.944	66.9
329.157	44.37
329.37	7.51
329.583	138.58
329.796	19.8
330.009	27.99
330.222	30.04
330.435	89.43
330.648	42.32
330.861	68.95
331.073	89.43
331.286	9.56
331.499	58.71
331.712	48.47
331.925	83.28
332.138	27.99
332.35	32.08
332.563	7.51
332.776	81.24
332.989	75.09
333.202	7.51
333.414	17.75
333.627	9.56
333.84	21.85
334.053	58.71
334.265	17.75
334.478	3.41
334.691	34.13
334.903	23.89
335.116	-4.78
335.329	68.95
335.541	60.76
335.754	48.47
335.966	30.04
336.179	50.52
336.392	77.14
336.604	48.47
336.817	89.43
337.029	27.99
337.242	56.66
337.454	3.41
337.667	17.75
337.88	64.85
338.092	85.33
338.305	114
338.517	-27.31
338.729	95.57
338.942	107.86
339.154	-33.45
339.367	91.48
339.579	58.71
339.792	-6.83
340.004	64.85
340.217	40.28
340.429	73.04
340.641	36.18
340.854	40.28
341.066	-21.16
341.278	40.28
341.491	58.71
341.703	48.47
341.915	-33.45
342.128	64.85
342.34	46.42
342.552	40.28
342.764	-25.26
342.977	81.24
343.189	17.75
343.401	48.47
343.613	3.41
343.826	62.8
344.038	-15.02
344.25	66.9
344.462	93.52
344.674	60.76
344.886	19.8
345.099	17.75
345.311	85.33
345.523	75.09
345.735	-10.92
345.947	25.94
346.159	89.43
346.371	118.1
346.583	103.76
346.795	163.15
347.007	116.05
347.219	21.85
347.431	7.51
347.643	75.09
347.855	3.41
348.067	66.9
348.279	52.56
348.491	75.09
348.703	126.29
348.915	56.66
349.127	134.48
349.339	81.24
349.551	11.61
349.763	11.61
349.975	75.09
350.187	44.37
350.399	40.28
350.61	154.96
350.822	-6.83
351.034	81.24
351.246	23.89
351.458	60.76
351.669	-12.97
351.881	68.95
352.093	157.01
352.305	97.62
352.517	81.24
352.728	89.43
352.94	50.52
353.152	58.71
353.363	64.85
353.575	25.94
353.787	124.24
353.999	122.2
354.21	48.47
354.422	105.81
354.633	58.71
354.845	15.7
355.057	32.08
355.268	73.04
355.48	48.47
355.692	-17.07
355.903	-2.73
356.115	9.56
356.326	-25.26
356.538	60.76
356.749	66.9
356.961	79.19
357.172	15.7
357.384	107.86
357.595	81.24
357.807	101.72
358.018	27.99
358.23	142.68
358.441	60.76
358.653	32.08
358.864	-8.87
359.075	42.32
359.287	38.23
359.498	50.52
359.709	7.51
359.921	48.47
360.132	34.13
360.344	62.8
360.555	64.85
360.766	42.32
360.977	27.99
361.189	66.9
361.4	-8.87
361.611	32.08
361.823	130.39
362.034	-17.07
362.245	-33.45
362.456	7.51
362.667	-31.4
362.879	64.85
363.09	40.28
363.301	-4.78
363.512	85.33
363.723	-33.45
363.935	15.7
364.146	15.7
364.357	44.37
364.568	130.39
364.779	48.47
364.99	54.61
365.201	34.13
365.412	64.85
365.623	23.89
365.834	40.28
366.045	56.66
366.256	116.05
366.467	44.37
366.678	50.52
366.889	32.08
367.1	83.28
367.311	105.81
367.522	95.57
367.733	126.29
367.944	73.04
368.155	36.18
368.366	48.47
368.577	97.62
368.788	40.28
368.999	38.23
369.209	89.43
369.42	134.48
369.631	79.19
369.842	64.85
370.053	56.66
370.264	142.68
370.474	42.32
370.685	21.85
370.896	15.7
371.107	114
371.317	-0.68
371.528	56.66
371.739	64.85
371.95	19.8
372.16	25.94
372.371	83.28
372.582	83.28
372.792	146.77
373.003	124.24
373.214	42.32
373.424	48.47
373.635	56.66
373.846	52.56
374.056	91.48
374.267	52.56
374.477	66.9
374.688	-4.78
374.898	1.37
375.109	48.47
375.319	9.56
375.53	107.86
375.74	109.91
375.951	56.66
376.161	32.08
376.372	48.47
376.582	64.85
376.793	89.43
377.003	15.7
377.214	13.65
377.424	134.48
377.635	15.7
377.845	19.8
378.055	91.48
378.266	56.66
378.476	32.08
378.686	7.51
378.897	77.14
379.107	42.32
379.317	109.91
379.528	-12.97
379.738	114
379.948	91.48
380.158	1.37
380.369	97.62
380.579	32.08
380.789	60.76
380.999	73.04
381.21	42.32
381.42	146.77
381.63	11.61
381.84	105.81
382.05	89.43
382.261	97.62
382.471	-6.83
382.681	73.04
382.891	132.44
383.101	58.71
383.311	77.14
383.521	54.61
383.731	77.14
383.941	142.68
384.151	44.37
384.361	71
384.571	85.33
384.781	114
384.991	140.63
385.201	109.91
385.411	93.52
385.621	-8.87
385.831	-12.97
386.041	75.09
386.251	95.57
386.461	91.48
386.671	91.48
386.881	23.89
387.091	116.05
387.301	40.28
387.511	64.85
387.72	9.56
387.93	32.08
388.14	-41.64
388.35	175.44
388.56	169.3
388.769	169.3
388.979	114
389.189	107.86
389.399	66.9
389.609	44.37
389.818	-17.07
390.028	124.24
390.238	-19.11
390.447	21.85
390.657	93.52
390.867	148.82
391.076	13.65
391.286	83.28
391.496	91.48
391.705	64.85
391.915	44.37
392.125	101.72
392.334	77.14
392.544	58.71
392.753	66.9
392.963	11.61
393.172	136.53
393.382	99.67
393.591	181.59
393.801	68.95
394.01	257.36
394.22	81.24
394.429	11.61
394.639	130.39
394.848	97.62
395.058	64.85
395.267	-8.87
395.477	105.81
395.686	73.04
395.895	154.96
396.105	97.62
396.314	163.15
396.524	130.39
396.733	75.09
396.942	148.82
397.152	40.28
397.361	154.96
397.57	17.75
397.78	144.72
397.989	122.2
398.198	122.2
398.407	171.35
398.617	101.72
398.826	148.82
399.035	64.85
399.244	93.52
399.453	87.38
399.663	167.25
399.872	114
400.081	68.95
400.29	103.76
400.499	56.66
400.708	101.72
400.917	83.28
401.127	191.83
401.336	142.68
401.545	171.35
401.754	132.44
401.963	97.62
402.172	195.92
402.381	109.91
402.59	114
402.799	114
403.008	146.77
403.217	89.43
403.426	163.15
403.635	99.67
403.844	228.69
404.053	114
404.262	181.59
404.471	195.92
404.68	167.25
404.888	124.24
405.097	175.44
405.306	159.06
405.515	130.39
405.724	161.11
405.933	189.78
406.142	226.64
406.35	263.51
406.559	142.68
406.768	148.82
406.977	259.41
407.185	208.21
407.394	216.4
407.603	224.59
407.812	292.18
408.02	351.57
408.229	279.89
408.438	261.46
408.646	263.51
408.855	251.22
409.064	238.93
409.272	324.94
409.481	251.22
409.69	304.46
409.898	331.09
410.107	380.24
410.315	345.42
410.524	343.38
410.733	326.99
410.941	288.08
411.15	339.28
411.358	353.62
411.567	374.1
411.775	439.63
411.984	341.33
412.192	441.68
412.401	525.65
412.609	507.21
412.818	509.26
413.026	552.27
413.234	560.46
413.443	548.17
413.651	589.13
413.86	558.41
414.068	712.01
414.276	675.15
414.485	605.52
414.693	705.87
414.901	712.01
415.11	755.02
415.318	695.63
415.526	683.34
415.734	757.07
415.943	810.31
416.151	861.51
416.359	853.32
416.567	884.04
416.776	949.57
416.984	978.25
417.192	1039.69
417.4	949.57
417.608	1015.11
417.817	1080.64
418.025	1178.95
418.233	1240.39
418.441	1170.76
418.649	1137.99
418.857	1353.02
419.065	1359.17
419.273	1350.98
419.481	1314.11
419.689	1416.51
419.897	1611.07
420.105	1572.16
420.313	1666.36
420.521	1719.61
420.729	1727.8
420.937	1740.09
421.145	1680.7
421.353	1852.73
421.561	1969.46
421.769	2065.72
421.977	2229.56
422.185	2145.59
422.393	2192.69
422.601	2381.11
422.809	2420.02
423.017	2313.52
423.224	2604.33
423.432	2467.12
423.64	2590
423.848	2790.7
424.056	2727.21
424.263	2966.82
424.471	2858.28
424.679	2915.62
424.887	3056.93
425.094	3364.13
425.302	3392.8
425.51	3274.02
425.718	3448.1
425.925	3505.44
426.133	3648.8
426.341	3892.51
426.548	4209.94
426.756	4070.68
426.964	4173.08
427.171	4267.28
427.379	4404.5
427.586	4490.51
427.794	4560.14
428.001	4908.3
428.209	5022.98
428.417	4955.4
428.624	5350.66
428.832	5326.08
429.039	5332.23
429.247	5244.17
429.454	5797.12
429.662	6167.8
429.869	5811.45
430.076	6280.44
430.284	5860.6
430.491	6229.24
430.699	6495.47
430.906	6407.41
431.114	6593.78
431.321	6995.18
431.528	7068.91
431.736	7486.69
431.943	7886.05
432.15	7707.87
432.358	7871.71
432.565	7961.82
432.772	8109.27
432.979	8555.73
433.187	8617.17
433.394	8676.56
433.601	9131.21
433.808	9313.48
434.016	9137.35
434.223	9645.25
434.43	10165.43
434.637	10171.58
434.844	10570.93
435.052	10888.37
435.259	10702
435.466	10859.7
435.673	10986.67
435.88	11508.9
436.087	11924.64
436.294	12084.38
436.501	11834.53
436.708	12070.05
436.915	12369.05
437.122	12948.62
437.329	13059.21
437.537	13345.93
437.743	13646.98
437.95	13534.34
438.157	13868.16
438.364	14646.39
438.571	14312.57
438.778	14670.97
438.985	16077.92
439.192	15307.88
439.399	15889.51
439.606	15539.3
439.813	16235.61
440.02	17425.48
440.227	17112.14
440.433	16956.5
440.64	17693.77
440.847	17429.58
441.054	17769.54
441.261	18879.54
441.467	18766.9
441.674	19293.23
441.881	19680.3
442.088	19815.46
442.294	19399.73
442.501	19962.92
442.708	20360.22
442.914	21306.38
443.121	22064.13
443.328	21689.35
443.534	23215.09
443.741	22447.1
443.948	22137.86
444.154	23618.54
444.361	23698.41
444.568	23602.16
444.774	23733.23
444.981	23868.39
445.187	24720.35
445.394	25402.32
445.6	25459.66
445.807	27952.04
446.013	26391.49
446.22	26923.96
446.426	28126.12
446.633	28275.62
446.839	28992.41
447.046	28005.29
447.252	29588.37
447.459	29830.03
447.665	29395.86
447.871	30794.62
448.078	32117.61
448.284	30589.83
448.491	31521.65
448.697	32639.84
448.903	33387.35
449.11	33788.75
449.316	33131.36
449.522	33790.8
449.728	34519.88
449.935	34417.48
450.141	34634.56
450.347	35420.98
450.553	34216.78
450.76	34802.5
450.966	35648.31
451.172	35408.7
451.378	36557.61
451.584	35803.95
451.791	36623.14
451.997	36416.3
452.203	37112.61
452.409	36963.11
452.615	37098.27
452.821	35654.45
453.027	35373.88
453.233	37397.27
453.44	35806
453.646	36080.43
453.852	36150.06
454.058	36821.8
454.264	35629.88
454.47	36528.94
454.676	35580.73
454.882	36795.17
455.088	33459.03
455.294	34528.07
455.5	34687.81
455.705	35076.93
455.911	33366.87
456.117	33155.93
456.323	32643.94
456.529	30813.06
456.735	32500.58
456.941	31488.88
457.147	31120.25
457.352	30309.25
457.558	29533.07
457.764	30110.6
457.97	29549.46
458.176	28869.53
458.381	28666.78
458.587	27405.24
458.793	27489.2
458.999	26328
459.204	28130.22
459.41	27163.57
459.616	25293.78
459.821	25480.14
460.027	25514.96
460.233	24693.72
460.438	23798.76
460.644	23684.08
460.85	22815.74
461.055	22393.86
461.261	22453.25
461.466	20782.1
461.672	20257.82
461.878	21345.3
462.083	20220.96
462.289	19819.56
462.494	19477.55
462.7	18414.65
462.905	18193.47
463.111	18969.65
463.316	19057.71
463.522	18363.45
463.727	18560.06
463.932	18283.58
464.138	18197.57
464.343	18435.13
464.549	17794.12
464.754	18381.88
464.959	18375.74
465.165	17798.21
465.37	17456.2
465.575	17087.57
465.781	17534.03
465.986	17765.45
466.191	17144.91
466.397	16655.45
466.602	15828.07
466.807	16497.75
467.012	16436.31
467.218	16454.75
467.423	16120.93
467.628	16385.12
467.833	17022.03
468.038	16241.76
468.244	15887.46
