Data from USB4F104151__259__14-22-45-038.txt Node

Date: Thu Mar 13 14:22:45 EDT 2025
User: louis
Spectrometer: USB4F10415
Trigger mode: 4
Integration Time (sec): 2.000000E-2
Scans to average: 1
Electric dark correction enabled: true
Nonlinearity correction enabled: false
Boxcar width: 0
XAxis mode: Wavelengths
Number of Pixels in Spectrum: 3648
>>>>>Begin Spectral Data<<<<<
178.204	-127.49
178.424	-127.49
178.644	-127.49
178.864	-94.72
179.084	-135.68
179.304	-33.28
179.524	-35.33
179.744	34.3
179.964	9.73
180.184	9.73
180.404	5.63
180.624	-16.9
180.844	5.63
181.064	5.63
181.283	3.58
181.503	-12.8
181.723	24.06
181.943	26.11
182.163	36.35
182.383	-43.52
182.602	-20.99
182.822	9.73
183.042	32.26
183.262	28.16
183.482	-4.61
183.701	-4.61
183.921	-6.66
184.141	-72.19
184.361	77.31
184.58	24.06
184.8	28.16
185.02	-2.56
185.239	22.02
185.459	22.02
185.679	24.06
185.898	-18.94
186.118	28.16
186.338	40.45
186.557	7.68
186.777	-45.57
186.997	3.58
187.216	-18.94
187.436	44.54
187.655	22.02
187.875	19.97
188.095	40.45
188.314	54.78
188.534	30.21
188.753	110.08
188.973	19.97
189.192	65.02
189.412	22.02
189.631	-64
189.851	44.54
190.07	83.45
190.29	-25.09
190.509	-51.71
190.729	42.5
190.948	95.74
191.168	110.08
191.387	52.74
191.607	-43.52
191.826	48.64
192.045	-41.47
192.265	-43.52
192.484	-2.56
192.704	56.83
192.923	-41.47
193.142	103.93
193.362	60.93
193.581	85.5
193.8	85.5
194.02	-27.14
194.239	77.31
194.458	71.17
194.678	19.97
194.897	44.54
195.116	50.69
195.335	44.54
195.555	9.73
195.774	-4.61
195.993	73.21
196.212	11.78
196.432	-37.38
196.651	46.59
196.87	11.78
197.089	105.98
197.308	-8.7
197.528	44.54
197.747	-6.66
197.966	-14.85
198.185	36.35
198.404	44.54
198.623	83.45
198.842	22.02
199.062	56.83
199.281	62.98
199.5	69.12
199.719	7.68
199.938	7.68
200.157	-8.7
200.376	28.16
200.595	40.45
200.814	-29.18
201.033	19.97
201.252	13.82
201.471	-16.9
201.69	71.17
201.909	40.45
202.128	-23.04
202.347	46.59
202.566	15.87
202.785	-41.47
203.004	36.35
203.223	140.8
203.442	5.63
203.661	36.35
203.879	40.45
204.098	36.35
204.317	-6.66
204.536	7.68
204.755	83.45
204.974	-66.05
205.193	40.45
205.411	87.55
205.63	-8.7
205.849	-61.95
206.068	11.78
206.287	40.45
206.505	7.68
206.724	28.16
206.943	73.21
207.162	-45.57
207.381	69.12
207.599	22.02
207.818	56.83
208.037	-12.8
208.255	-14.85
208.474	54.78
208.693	-8.7
208.911	7.68
209.13	-25.09
209.349	79.36
209.567	54.78
209.786	5.63
210.005	44.54
210.223	65.02
210.442	-78.33
210.661	81.41
210.879	58.88
211.098	-10.75
211.316	19.97
211.535	79.36
211.753	36.35
211.972	24.06
212.191	32.26
212.409	3.58
212.628	44.54
212.846	-0.51
213.065	81.41
213.283	65.02
213.502	73.21
213.72	-0.51
213.938	19.97
214.157	15.87
214.375	69.12
214.594	36.35
214.812	46.59
215.031	22.02
215.249	-8.7
215.467	-16.9
215.686	-45.57
215.904	5.63
216.122	15.87
216.341	93.69
216.559	9.73
216.778	75.26
216.996	36.35
217.214	54.78
217.432	36.35
217.651	42.5
217.869	11.78
218.087	-20.99
218.306	44.54
218.524	71.17
218.742	-51.71
218.96	52.74
219.179	19.97
219.397	56.83
219.615	38.4
219.833	44.54
220.051	46.59
220.27	93.69
220.488	-2.56
220.706	52.74
220.924	40.45
221.142	-45.57
221.36	22.02
221.578	52.74
221.796	-35.33
222.015	19.97
222.233	44.54
222.451	71.17
222.669	19.97
222.887	93.69
223.105	-16.9
223.323	46.59
223.541	11.78
223.759	22.02
223.977	-14.85
224.195	26.11
224.413	15.87
224.631	30.21
224.849	-6.66
225.067	24.06
225.285	13.82
225.503	44.54
225.721	5.63
225.939	38.4
226.157	17.92
226.375	48.64
226.592	46.59
226.81	11.78
227.028	19.97
227.246	73.21
227.464	46.59
227.682	69.12
227.9	-39.42
228.117	134.65
228.335	5.63
228.553	-20.99
228.771	-29.18
228.989	-4.61
229.206	81.41
229.424	11.78
229.642	71.17
229.86	50.69
230.077	46.59
230.295	-18.94
230.513	77.31
230.731	11.78
230.948	62.98
231.166	22.02
231.384	65.02
231.601	-29.18
231.819	32.26
232.037	5.63
232.254	22.02
232.472	13.82
232.689	7.68
232.907	52.74
233.125	19.97
233.342	44.54
233.56	-27.14
233.777	-2.56
233.995	93.69
234.213	60.93
234.43	19.97
234.648	13.82
234.865	3.58
235.083	-8.7
235.3	11.78
235.518	-2.56
235.735	105.98
235.953	110.08
236.17	87.55
236.388	-61.95
236.605	95.74
236.822	44.54
237.04	60.93
237.257	11.78
237.475	-43.52
237.692	28.16
237.909	9.73
238.127	19.97
238.344	-35.33
238.562	28.16
238.779	30.21
238.996	-2.56
239.214	26.11
239.431	105.98
239.648	11.78
239.865	36.35
240.083	85.5
240.3	15.87
240.517	65.02
240.735	-0.51
240.952	19.97
241.169	-20.99
241.386	-47.62
241.603	-18.94
241.821	22.02
242.038	-10.75
242.255	40.45
242.472	-102.91
242.689	52.74
242.907	65.02
243.124	34.3
243.341	30.21
243.558	26.11
243.775	24.06
243.992	15.87
244.209	40.45
244.426	69.12
244.643	22.02
244.86	-10.75
245.078	28.16
245.295	19.97
245.512	-18.94
245.729	19.97
245.946	60.93
246.163	95.74
246.38	-10.75
246.597	69.12
246.814	-27.14
247.031	-8.7
247.248	5.63
247.464	-20.99
247.681	5.63
247.898	13.82
248.115	77.31
248.332	54.78
248.549	69.12
248.766	48.64
248.983	67.07
249.2	30.21
249.417	-82.43
249.633	1.54
249.85	-37.38
250.067	24.06
250.284	28.16
250.501	48.64
250.717	-12.8
250.934	54.78
251.151	-4.61
251.368	19.97
251.585	79.36
251.801	-4.61
252.018	65.02
252.235	28.16
252.451	-27.14
252.668	-51.71
252.885	-2.56
253.102	-25.09
253.318	-2.56
253.535	40.45
253.752	5.63
253.968	13.82
254.185	36.35
254.401	-6.66
254.618	-57.86
254.835	-12.8
255.051	65.02
255.268	67.07
255.484	-16.9
255.701	22.02
255.917	71.17
256.134	46.59
256.351	11.78
256.567	-8.7
256.784	60.93
257	-8.7
257.217	52.74
257.433	-8.7
257.65	54.78
257.866	3.58
258.082	-35.33
258.299	-27.14
258.515	60.93
258.732	52.74
258.948	-12.8
259.165	-6.66
259.381	58.88
259.597	28.16
259.814	5.63
260.03	-20.99
260.246	17.92
260.463	44.54
260.679	67.07
260.895	15.87
261.112	48.64
261.328	38.4
261.544	28.16
261.761	118.27
261.977	44.54
262.193	-51.71
262.409	93.69
262.626	60.93
262.842	155.13
263.058	-20.99
263.274	26.11
263.49	-4.61
263.707	-2.56
263.923	13.82
264.139	-8.7
264.355	-14.85
264.571	36.35
264.787	73.21
265.004	69.12
265.22	26.11
265.436	-59.9
265.652	-4.61
265.868	36.35
266.084	-4.61
266.3	15.87
266.516	40.45
266.732	52.74
266.948	3.58
267.164	46.59
267.38	71.17
267.596	11.78
267.812	32.26
268.028	46.59
268.244	-37.38
268.46	19.97
268.676	-31.23
268.892	-12.8
269.108	36.35
269.324	62.98
269.54	19.97
269.756	44.54
269.972	-10.75
270.188	-4.61
270.403	-45.57
270.619	36.35
270.835	48.64
271.051	52.74
271.267	38.4
271.483	15.87
271.698	26.11
271.914	-16.9
272.13	-23.04
272.346	-12.8
272.562	32.26
272.777	15.87
272.993	34.3
273.209	19.97
273.425	36.35
273.64	-29.18
273.856	-29.18
274.072	28.16
274.287	-72.19
274.503	52.74
274.719	89.6
274.934	-33.28
275.15	-45.57
275.366	48.64
275.581	-18.94
275.797	3.58
276.012	46.59
276.228	48.64
276.444	77.31
276.659	-16.9
276.875	22.02
277.09	-51.71
277.306	77.31
277.521	65.02
277.737	22.02
277.952	11.78
278.168	13.82
278.383	93.69
278.599	85.5
278.814	46.59
279.03	19.97
279.245	48.64
279.461	26.11
279.676	30.21
279.892	-2.56
280.107	15.87
280.322	-18.94
280.538	38.4
280.753	15.87
280.969	79.36
281.184	15.87
281.399	-16.9
281.615	38.4
281.83	54.78
282.045	-31.23
282.26	11.78
282.476	3.58
282.691	81.41
282.906	-16.9
283.122	65.02
283.337	-64
283.552	77.31
283.767	32.26
283.983	81.41
284.198	7.68
284.413	30.21
284.628	28.16
284.843	-27.14
285.058	28.16
285.274	-70.14
285.489	-4.61
285.704	32.26
285.919	19.97
286.134	-49.66
286.349	-2.56
286.564	3.58
286.779	67.07
286.995	3.58
287.21	-90.62
287.425	34.3
287.64	-86.53
287.855	30.21
288.07	-66.05
288.285	52.74
288.5	19.97
288.715	42.5
288.93	-16.9
289.145	42.5
289.36	15.87
289.575	-4.61
289.79	36.35
290.004	65.02
290.219	97.79
290.434	22.02
290.649	110.08
290.864	-20.99
291.079	-33.28
291.294	-20.99
291.509	-14.85
291.724	60.93
291.938	-64
292.153	71.17
292.368	24.06
292.583	71.17
292.798	93.69
293.012	46.59
293.227	-29.18
293.442	52.74
293.657	22.02
293.871	5.63
294.086	-51.71
294.301	34.3
294.516	56.83
294.73	-53.76
294.945	48.64
295.16	-8.7
295.374	30.21
295.589	65.02
295.804	44.54
296.018	-10.75
296.233	71.17
296.447	-4.61
296.662	-0.51
296.877	32.26
297.091	67.07
297.306	-37.38
297.52	34.3
297.735	87.55
297.949	3.58
298.164	11.78
298.378	3.58
298.593	1.54
298.807	13.82
299.022	22.02
299.236	40.45
299.451	30.21
299.665	-31.23
299.88	-37.38
300.094	54.78
300.309	32.26
300.523	3.58
300.737	11.78
300.952	38.4
301.166	122.37
301.381	73.21
301.595	19.97
301.809	-25.09
302.024	5.63
302.238	-0.51
302.452	44.54
302.667	-2.56
302.881	54.78
303.095	75.26
303.309	-20.99
303.524	69.12
303.738	44.54
303.952	5.63
304.166	79.36
304.381	22.02
304.595	105.98
304.809	-102.91
305.023	-10.75
305.237	77.31
305.452	-0.51
305.666	-8.7
305.88	-12.8
306.094	44.54
306.308	-8.7
306.522	48.64
306.736	-25.09
306.95	5.63
307.164	77.31
307.379	44.54
307.593	62.98
307.807	32.26
308.021	69.12
308.235	-4.61
308.449	-4.61
308.663	-2.56
308.877	65.02
309.091	81.41
309.305	50.69
309.519	-37.38
309.733	-4.61
309.947	-20.99
310.161	24.06
310.374	15.87
310.588	77.31
310.802	-14.85
311.016	54.78
311.23	79.36
311.444	-2.56
311.658	-43.52
311.872	38.4
312.085	75.26
312.299	60.93
312.513	-16.9
312.727	46.59
312.941	-12.8
313.154	3.58
313.368	-37.38
313.582	36.35
313.796	-18.94
314.009	-8.7
314.223	-2.56
314.437	24.06
314.651	42.5
314.864	13.82
315.078	-25.09
315.292	5.63
315.505	38.4
315.719	-37.38
315.933	-31.23
316.146	-59.9
316.36	-43.52
316.573	32.26
316.787	38.4
317.001	-12.8
317.214	-88.57
317.428	3.58
317.641	-14.85
317.855	11.78
318.068	-2.56
318.282	77.31
318.495	71.17
318.709	13.82
318.922	-20.99
319.136	19.97
319.349	36.35
319.563	-4.61
319.776	69.12
319.99	19.97
320.203	60.93
320.417	-2.56
320.63	50.69
320.843	11.78
321.057	-8.7
321.27	52.74
321.483	52.74
321.697	3.58
321.91	19.97
322.124	34.3
322.337	-43.52
322.55	69.12
322.763	32.26
322.977	13.82
323.19	22.02
323.403	73.21
323.617	28.16
323.83	54.78
324.043	52.74
324.256	7.68
324.469	-61.95
324.683	-29.18
324.896	-20.99
325.109	60.93
325.322	-31.23
325.535	-20.99
325.748	13.82
325.962	71.17
326.175	56.83
326.388	62.98
326.601	-2.56
326.814	32.26
327.027	7.68
327.24	54.78
327.453	13.82
327.666	5.63
327.879	83.45
328.092	28.16
328.305	28.16
328.518	3.58
328.731	-27.14
328.944	13.82
329.157	32.26
329.37	-2.56
329.583	-23.04
329.796	-12.8
330.009	-57.86
330.222	93.69
330.435	-53.76
330.648	-12.8
330.861	-8.7
331.073	19.97
331.286	95.74
331.499	-29.18
331.712	-45.57
331.925	-16.9
332.138	-53.76
332.35	69.12
332.563	-12.8
332.776	69.12
332.989	-18.94
333.202	46.59
333.414	-23.04
333.627	-25.09
333.84	22.02
334.053	73.21
334.265	-33.28
334.478	-29.18
334.691	5.63
334.903	40.45
335.116	103.93
335.329	30.21
335.541	19.97
335.754	42.5
335.966	-16.9
336.179	-49.66
336.392	62.98
336.604	62.98
336.817	15.87
337.029	-49.66
337.242	-37.38
337.454	97.79
337.667	11.78
337.88	-0.51
338.092	-2.56
338.305	40.45
338.517	87.55
338.729	-4.61
338.942	22.02
339.154	-27.14
339.367	-29.18
339.579	-10.75
339.792	7.68
340.004	69.12
340.217	-8.7
340.429	-10.75
340.641	-20.99
340.854	-0.51
341.066	-37.38
341.278	56.83
341.491	71.17
341.703	-10.75
341.915	-20.99
342.128	-27.14
342.34	65.02
342.552	40.45
342.764	13.82
342.977	95.74
343.189	13.82
343.401	69.12
343.613	11.78
343.826	-8.7
344.038	58.88
344.25	101.89
344.462	-27.14
344.674	103.93
344.886	13.82
345.099	120.32
345.311	-0.51
345.523	69.12
345.735	15.87
345.947	-12.8
346.159	7.68
346.371	46.59
346.583	44.54
346.795	69.12
347.007	60.93
347.219	69.12
347.431	28.16
347.643	-10.75
347.855	-8.7
348.067	69.12
348.279	-18.94
348.491	-27.14
348.703	48.64
348.915	60.93
349.127	-49.66
349.339	15.87
349.551	28.16
349.763	11.78
349.975	-2.56
350.187	83.45
350.399	62.98
350.61	5.63
350.822	75.26
351.034	54.78
351.246	7.68
351.458	99.84
351.669	24.06
351.881	60.93
352.093	22.02
352.305	3.58
352.517	3.58
352.728	44.54
352.94	52.74
353.152	44.54
353.363	30.21
353.575	7.68
353.787	-4.61
353.999	60.93
354.21	62.98
354.422	-12.8
354.633	15.87
354.845	30.21
355.057	-8.7
355.268	-8.7
355.48	3.58
355.692	-37.38
355.903	69.12
356.115	-2.56
356.326	-10.75
356.538	75.26
356.749	19.97
356.961	89.6
357.172	13.82
357.384	28.16
357.595	146.94
357.807	32.26
358.018	-0.51
358.23	15.87
358.441	17.92
358.653	19.97
358.864	128.51
359.075	-14.85
359.287	40.45
359.498	73.21
359.709	69.12
359.921	73.21
360.132	38.4
360.344	85.5
360.555	7.68
360.766	-4.61
360.977	-84.48
361.189	30.21
361.4	7.68
361.611	93.69
361.823	54.78
362.034	44.54
362.245	9.73
362.456	-45.57
362.667	-33.28
362.879	38.4
363.09	58.88
363.301	7.68
363.512	-20.99
363.723	32.26
363.935	5.63
364.146	17.92
364.357	34.3
364.568	32.26
364.779	-68.09
364.99	-25.09
365.201	-4.61
365.412	81.41
365.623	-29.18
365.834	5.63
366.045	75.26
366.256	52.74
366.467	40.45
366.678	34.3
366.889	48.64
367.1	-12.8
367.311	52.74
367.522	-51.71
367.733	95.74
367.944	67.07
368.155	11.78
368.366	3.58
368.577	50.69
368.788	7.68
368.999	-27.14
369.209	-29.18
369.42	77.31
369.631	28.16
369.842	13.82
370.053	60.93
370.264	65.02
370.474	-2.56
370.685	81.41
370.896	22.02
371.107	93.69
371.317	36.35
371.528	54.78
371.739	30.21
371.95	71.17
372.16	93.69
372.371	-33.28
372.582	7.68
372.792	32.26
373.003	5.63
373.214	-0.51
373.424	48.64
373.635	73.21
373.846	62.98
374.056	11.78
374.267	19.97
374.477	40.45
374.688	-78.33
374.898	34.3
375.109	-18.94
375.319	124.41
375.53	44.54
375.74	-8.7
375.951	-12.8
376.161	46.59
376.372	44.54
376.582	-4.61
376.793	3.58
377.003	11.78
377.214	34.3
377.424	69.12
377.635	58.88
377.845	-18.94
378.055	40.45
378.266	46.59
378.476	32.26
378.686	-35.33
378.897	56.83
379.107	32.26
379.317	1.54
379.528	69.12
379.738	48.64
379.948	11.78
380.158	52.74
380.369	28.16
380.579	52.74
380.789	44.54
380.999	26.11
381.21	54.78
381.42	118.27
381.63	110.08
381.84	54.78
382.05	77.31
382.261	50.69
382.471	-41.47
382.681	-27.14
382.891	3.58
383.101	3.58
383.311	48.64
383.521	69.12
383.731	40.45
383.941	-12.8
384.151	-4.61
384.361	7.68
384.571	28.16
384.781	-20.99
384.991	95.74
385.201	75.26
385.411	108.03
385.621	97.79
385.831	-16.9
386.041	-12.8
386.251	9.73
386.461	56.83
386.671	3.58
386.881	34.3
387.091	54.78
387.301	60.93
387.511	-37.38
387.72	44.54
387.93	-4.61
388.14	7.68
388.35	-25.09
388.56	50.69
388.769	42.5
388.979	3.58
389.189	30.21
389.399	15.87
389.609	5.63
389.818	5.63
390.028	3.58
390.238	81.41
390.447	19.97
390.657	9.73
390.867	24.06
391.076	28.16
391.286	62.98
391.496	-4.61
391.705	28.16
391.915	118.27
392.125	-45.57
392.334	28.16
392.544	15.87
392.753	11.78
392.963	97.79
393.172	44.54
393.382	44.54
393.591	91.65
393.801	19.97
394.01	161.28
394.22	40.45
394.429	69.12
394.639	-12.8
394.848	32.26
395.058	62.98
395.267	69.12
395.477	-4.61
395.686	52.74
395.895	15.87
396.105	77.31
396.314	136.7
396.524	44.54
396.733	83.45
396.942	95.74
397.152	62.98
397.361	114.17
397.57	15.87
397.78	87.55
397.989	11.78
398.198	134.65
398.407	52.74
398.617	-2.56
398.826	-2.56
399.035	38.4
399.244	52.74
399.453	69.12
399.663	15.87
399.872	50.69
400.081	-2.56
400.29	103.93
400.499	81.41
400.708	136.7
400.917	85.5
401.127	36.35
401.336	7.68
401.545	151.04
401.754	30.21
401.963	-14.85
402.172	44.54
402.381	5.63
402.59	81.41
402.799	60.93
403.008	95.74
403.217	85.5
403.426	69.12
403.635	105.98
403.844	71.17
404.053	130.56
404.262	65.02
404.471	85.5
404.68	52.74
404.888	77.31
405.097	11.78
405.306	112.13
405.515	101.89
405.724	97.79
405.933	101.89
406.142	134.65
406.35	118.27
406.559	22.02
406.768	85.5
406.977	208.38
407.185	118.27
407.394	120.32
407.603	48.64
407.812	159.23
408.02	105.98
408.229	198.14
408.438	142.85
408.646	89.6
408.855	85.5
409.064	85.5
409.272	95.74
409.481	200.19
409.69	108.03
409.898	151.04
410.107	140.8
410.315	189.95
410.524	112.13
410.733	122.37
410.941	171.52
411.15	329.21
411.358	204.28
411.567	292.35
411.775	253.44
411.984	269.82
412.192	253.44
412.401	210.43
412.609	241.15
412.818	339.45
413.026	376.31
413.234	323.07
413.443	275.96
413.651	290.3
413.86	323.07
414.068	321.02
414.276	398.84
414.485	298.49
414.693	376.31
414.901	447.99
415.11	300.54
415.318	411.13
415.526	423.42
415.734	398.84
415.943	417.27
416.151	493.05
416.359	386.55
416.567	462.33
416.776	523.77
416.984	595.45
417.192	484.86
417.4	503.29
417.608	536.06
417.817	472.57
418.025	503.29
418.233	650.74
418.441	706.04
418.649	658.93
418.857	697.85
419.065	759.28
419.273	744.95
419.481	775.67
419.689	710.13
419.897	908.79
420.105	824.82
420.313	880.11
420.521	919.03
420.729	1015.28
420.937	949.75
421.145	1076.72
421.353	951.79
421.561	1095.15
421.769	1089.01
421.977	1140.21
422.185	1099.25
422.393	1123.82
422.601	1265.13
422.809	1271.28
423.017	1363.44
423.224	1271.28
423.432	1388.01
423.64	1422.83
423.848	1441.26
424.056	1461.74
424.263	1502.7
424.471	1551.85
424.679	1615.34
424.887	1609.19
425.094	1723.88
425.302	1727.97
425.51	1897.96
425.718	1930.72
425.925	1916.39
426.133	1994.21
426.341	2102.75
426.548	2162.14
426.756	2129.38
426.964	2248.16
427.171	2235.87
427.379	2321.88
427.586	2293.21
427.794	2387.42
428.001	2641.37
428.209	2586.07
428.417	2657.75
428.624	2749.91
428.832	2844.12
429.039	2792.92
429.247	2719.19
429.454	3010
429.662	3309.01
429.869	3083.73
430.076	3409.36
430.284	3177.94
430.491	3364.3
430.699	3505.61
430.906	3468.75
431.114	3634.63
431.321	3622.34
431.528	3847.62
431.736	3945.92
431.943	4017.6
432.15	4091.33
432.358	4076.99
432.565	4312.51
432.772	4324.8
432.979	4617.66
433.187	4687.29
433.394	4658.62
433.601	4943.28
433.808	4879.8
434.016	4949.43
434.223	5137.84
434.43	5418.41
434.637	5182.9
434.844	5574.06
435.052	5764.52
435.259	5617.07
435.466	5854.63
435.673	5741.99
435.88	6038.95
436.087	6331.81
436.294	6442.4
436.501	6319.52
436.708	6362.53
436.915	6546.84
437.122	6862.23
437.329	6714.78
437.537	7093.65
437.743	7257.49
437.95	7230.87
438.157	7411.09
438.364	7634.32
438.571	7613.84
438.778	7650.7
438.985	8711.55
439.192	7998.85
439.399	8404.35
439.606	8326.53
439.813	8596.86
440.02	9223.54
440.227	9096.57
440.433	9125.24
440.64	9031.03
440.847	9078.13
441.054	9485.68
441.261	10108.26
441.467	9846.12
441.674	9874.79
441.881	10489.18
442.088	10399.07
442.294	10315.11
442.501	10601.82
442.708	10696.03
442.914	11122.01
443.121	11816.27
443.328	11457.87
443.534	12158.28
443.741	11677.01
443.948	11418.96
444.154	12524.86
444.361	12399.94
444.568	12504.39
444.774	12485.95
444.981	12651.84
445.187	13004.09
445.394	13438.26
445.6	13346.1
445.807	14632.22
446.013	13929.77
446.22	14204.2
446.426	14791.97
446.633	14783.77
446.839	15447.32
447.046	14822.69
447.252	15531.28
447.459	15600.91
447.665	15697.17
447.871	16284.94
448.078	17048.83
448.284	16284.94
448.491	16452.87
448.697	17507.57
448.903	17616.12
449.11	17603.83
449.316	17224.95
449.522	17526
449.728	18042.09
449.935	18060.52
450.141	18177.26
450.347	18975.97
450.553	18062.57
450.76	18519.27
450.966	19100.89
451.172	18627.81
451.378	19328.22
451.584	18982.11
451.791	19508.44
451.997	19373.27
452.203	19354.84
452.409	19668.18
452.615	19336.41
452.821	19004.64
453.027	18640.1
453.233	19723.48
453.44	18947.29
453.646	19317.98
453.852	19500.25
454.058	19614.93
454.264	19035.36
454.47	19217.63
454.676	18588.9
454.882	19621.08
455.088	17741.04
455.294	18267.37
455.5	18437.35
455.705	18707.68
455.911	17962.22
456.117	17415.41
456.323	17265.91
456.529	16303.37
456.735	17290.49
456.941	16798.98
457.147	16651.52
457.352	16047.37
457.558	15879.44
457.764	15918.35
457.97	15562
458.176	15453.46
458.381	15195.42
458.587	14376.23
458.793	14748.96
458.999	13905.2
459.204	14892.32
459.41	14435.62
459.616	13323.57
459.821	13475.12
460.027	13366.58
460.233	13290.81
460.438	12586.3
460.644	12909.88
460.85	12084.55
461.055	11857.23
461.261	11873.61
461.466	11105.62
461.672	10472.8
461.878	11496.78
462.083	10780
462.289	10495.33
462.494	10304.87
462.7	9882.99
462.905	9737.58
463.111	10007.91
463.316	9903.46
463.522	9708.91
463.727	9792.87
463.932	9588.08
464.138	9639.28
464.343	9633.13
464.549	9366.9
464.754	9870.7
464.959	9504.11
465.165	9530.73
465.37	9170.29
465.575	8902.01
465.781	9297.27
465.986	9293.17
466.191	8926.58
466.397	8955.26
466.602	8426.88
466.807	8652.16
467.012	8703.36
467.218	8777.08
467.423	8390.02
467.628	8637.82
467.833	8783.23
468.038	8666.49
468.244	8398.21
468.449	8746.36
468.654	8172.93
