Data from USB4F104151__249__14-22-35-801.txt Node

Date: Thu Mar 13 14:22:35 EDT 2025
User: louis
Spectrometer: USB4F10415
Trigger mode: 4
Integration Time (sec): 2.000000E-2
Scans to average: 1
Electric dark correction enabled: true
Nonlinearity correction enabled: false
Boxcar width: 0
XAxis mode: Wavelengths
Number of Pixels in Spectrum: 3648
>>>>>Begin Spectral Data<<<<<
178.204	-83.63
178.424	-83.63
178.644	-83.63
178.864	-116.39
179.084	-32.43
179.304	-18.09
179.524	-28.33
179.744	16.73
179.964	-3.75
180.184	18.77
180.404	-44.71
180.624	4.44
180.844	-1.71
181.064	2.39
181.283	12.63
181.503	61.78
181.723	-20.14
181.943	-1.71
182.163	63.83
182.383	53.59
182.602	55.64
182.822	51.54
183.042	-9.9
183.262	51.54
183.482	-9.9
183.701	37.2
183.921	45.4
184.141	41.3
184.361	74.07
184.58	-67.24
184.8	-16.04
185.02	41.3
185.239	22.87
185.459	-36.52
185.679	96.6
185.898	-22.19
186.118	16.73
186.338	-20.14
186.557	4.44
186.777	-59.05
186.997	53.59
187.216	43.35
187.436	84.31
187.655	-9.9
187.875	69.97
188.095	10.58
188.314	55.64
188.534	12.63
188.753	45.4
188.973	14.68
189.192	90.45
189.412	53.59
189.631	-7.85
189.851	-85.67
190.07	-34.47
190.29	-3.75
190.509	16.73
190.729	-93.87
190.948	39.25
191.168	135.51
191.387	29.01
191.607	22.87
191.826	72.02
192.045	6.49
192.265	16.73
192.484	26.96
192.704	43.35
192.923	-34.47
193.142	133.46
193.362	-26.28
193.581	57.68
193.8	45.4
194.02	135.51
194.239	12.63
194.458	4.44
194.678	-69.29
194.897	57.68
195.116	37.2
195.335	26.96
195.555	51.54
195.774	12.63
195.993	24.92
196.212	-9.9
196.432	45.4
196.651	0.34
196.87	-3.75
197.089	82.26
197.308	-32.43
197.528	-1.71
197.747	47.44
197.966	72.02
198.185	37.2
198.404	47.44
198.623	-20.14
198.842	61.78
199.062	45.4
199.281	53.59
199.5	22.87
199.719	-44.71
199.938	8.53
200.157	69.97
200.376	8.53
200.595	-3.75
200.814	43.35
201.033	22.87
201.252	24.92
201.471	12.63
201.69	0.34
201.909	74.07
202.128	4.44
202.347	-24.23
202.566	-13.99
202.785	8.53
203.004	100.69
203.223	82.26
203.442	31.06
203.661	-13.99
203.879	55.64
204.098	24.92
204.317	29.01
204.536	78.16
204.755	-1.71
204.974	37.2
205.193	24.92
205.411	72.02
205.63	39.25
205.849	41.3
206.068	33.11
206.287	4.44
206.505	74.07
206.724	69.97
206.943	14.68
207.162	-20.14
207.381	-7.85
207.599	-24.23
207.818	84.31
208.037	10.58
208.255	2.39
208.474	20.82
208.693	-18.09
208.911	45.4
209.13	20.82
209.349	45.4
209.567	123.22
209.786	45.4
210.005	26.96
210.223	-1.71
210.442	12.63
210.661	-7.85
210.879	-20.14
211.098	41.3
211.316	20.82
211.535	39.25
211.753	0.34
211.972	63.83
212.191	55.64
212.409	29.01
212.628	78.16
212.846	22.87
213.065	37.2
213.283	57.68
213.502	-50.86
213.72	53.59
213.938	35.16
214.157	-5.8
214.375	-36.52
214.594	88.4
214.812	22.87
215.031	-3.75
215.249	6.49
215.467	24.92
215.686	80.21
215.904	0.34
216.122	100.69
216.341	4.44
216.559	26.96
216.778	24.92
216.996	20.82
217.214	14.68
217.432	0.34
217.651	-18.09
217.869	-11.95
218.087	16.73
218.306	47.44
218.524	69.97
218.742	49.49
218.96	12.63
219.179	12.63
219.397	78.16
219.615	31.06
219.833	20.82
220.051	72.02
220.27	63.83
220.488	20.82
220.706	16.73
220.924	88.4
221.142	-77.48
221.36	16.73
221.578	4.44
221.796	12.63
222.015	102.74
222.233	-26.28
222.451	61.78
222.669	-9.9
222.887	57.68
223.105	18.77
223.323	94.55
223.541	74.07
223.759	-32.43
223.977	41.3
224.195	69.97
224.413	8.53
224.631	-28.33
224.849	61.78
225.067	96.6
225.285	33.11
225.503	12.63
225.721	-26.28
225.939	43.35
226.157	102.74
226.375	145.75
226.592	55.64
226.81	-7.85
227.028	-9.9
227.246	4.44
227.464	37.2
227.682	12.63
227.9	57.68
228.117	-34.47
228.335	0.34
228.553	102.74
228.771	45.4
228.989	-11.95
229.206	20.82
229.424	29.01
229.642	41.3
229.86	22.87
230.077	86.36
230.295	39.25
230.513	53.59
230.731	69.97
230.948	90.45
231.166	78.16
231.384	-69.29
231.601	-22.19
231.819	90.45
232.037	16.73
232.254	35.16
232.472	29.01
232.689	-9.9
232.907	31.06
233.125	-1.71
233.342	14.68
233.56	4.44
233.777	61.78
233.995	-54.95
234.213	14.68
234.43	78.16
234.648	61.78
234.865	-24.23
235.083	88.4
235.3	41.3
235.518	12.63
235.735	55.64
235.953	-20.14
236.17	45.4
236.388	106.84
236.605	-9.9
236.822	-26.28
237.04	33.11
237.257	43.35
237.475	-11.95
237.692	80.21
237.909	4.44
238.127	-11.95
238.344	-18.09
238.562	20.82
238.779	-20.14
238.996	-11.95
239.214	12.63
239.431	69.97
239.648	37.2
239.865	115.03
240.083	72.02
240.3	57.68
240.517	-63.15
240.735	-40.62
240.952	12.63
241.169	37.2
241.386	45.4
241.603	-69.29
241.821	-34.47
242.038	78.16
242.255	-11.95
242.472	-65.19
242.689	0.34
242.907	20.82
243.124	-9.9
243.341	-16.04
243.558	-1.71
243.775	8.53
243.992	-65.19
244.209	-20.14
244.426	67.92
244.643	-22.19
244.86	0.34
245.078	53.59
245.295	29.01
245.512	37.2
245.729	12.63
245.946	-16.04
246.163	110.93
246.38	86.36
246.597	-32.43
246.814	96.6
247.031	20.82
247.248	29.01
247.464	80.21
247.681	10.58
247.898	39.25
248.115	-5.8
248.332	-77.48
248.549	31.06
248.766	65.88
248.983	82.26
249.2	-7.85
249.417	47.44
249.633	43.35
249.85	20.82
250.067	29.01
250.284	-16.04
250.501	-20.14
250.717	18.77
250.934	8.53
251.151	-57
251.368	31.06
251.585	-16.04
251.801	37.2
252.018	29.01
252.235	39.25
252.451	69.97
252.668	-1.71
252.885	16.73
253.102	18.77
253.318	14.68
253.535	80.21
253.752	12.63
253.968	20.82
254.185	12.63
254.401	55.64
254.618	-11.95
254.835	35.16
255.051	88.4
255.268	6.49
255.484	37.2
255.701	78.16
255.917	-34.47
256.134	-42.67
256.351	37.2
256.567	12.63
256.784	45.4
257	6.49
257.217	8.53
257.433	74.07
257.65	-1.71
257.866	-30.38
258.082	29.01
258.299	16.73
258.515	-50.86
258.732	14.68
258.948	69.97
259.165	-36.52
259.381	18.77
259.597	29.01
259.814	51.54
260.03	-28.33
260.246	41.3
260.463	110.93
260.679	43.35
260.895	16.73
261.112	67.92
261.328	6.49
261.544	24.92
261.761	121.17
261.977	-32.43
262.193	-52.91
262.409	24.92
262.626	78.16
262.842	20.82
263.058	-7.85
263.274	59.73
263.49	22.87
263.707	59.73
263.923	20.82
264.139	4.44
264.355	47.44
264.571	14.68
264.787	45.4
265.004	20.82
265.22	4.44
265.436	-26.28
265.652	8.53
265.868	-3.75
266.084	-32.43
266.3	31.06
266.516	-16.04
266.732	12.63
266.948	49.49
267.164	37.2
267.38	78.16
267.596	78.16
267.812	51.54
268.028	84.31
268.244	4.44
268.46	63.83
268.676	45.4
268.892	-16.04
269.108	-1.71
269.324	24.92
269.54	-7.85
269.756	88.4
269.972	14.68
270.188	4.44
270.403	20.82
270.619	86.36
270.835	63.83
271.051	-16.04
271.267	18.77
271.483	10.58
271.698	55.64
271.914	39.25
272.13	-28.33
272.346	-7.85
272.562	39.25
272.777	69.97
272.993	31.06
273.209	-34.47
273.425	53.59
273.64	-1.71
273.856	94.55
274.072	31.06
274.287	4.44
274.503	115.03
274.719	69.97
274.934	-3.75
275.15	12.63
275.366	69.97
275.581	-26.28
275.797	-7.85
276.012	22.87
276.228	-3.75
276.444	6.49
276.659	31.06
276.875	18.77
277.09	-1.71
277.306	-61.1
277.521	24.92
277.737	-26.28
277.952	-34.47
278.168	78.16
278.383	-5.8
278.599	53.59
278.814	0.34
279.03	24.92
279.245	-26.28
279.461	16.73
279.676	51.54
279.892	-48.81
280.107	16.73
280.322	-34.47
280.538	121.17
280.753	29.01
280.969	-9.9
281.184	4.44
281.399	102.74
281.615	47.44
281.83	78.16
282.045	-52.91
282.26	-52.91
282.476	22.87
282.691	-3.75
282.906	137.56
283.122	18.77
283.337	47.44
283.552	8.53
283.767	0.34
283.983	39.25
284.198	-46.76
284.413	22.87
284.628	-28.33
284.843	20.82
285.058	-20.14
285.274	98.64
285.489	-11.95
285.704	16.73
285.919	33.11
286.134	39.25
286.349	39.25
286.564	-54.95
286.779	47.44
286.995	72.02
287.21	-42.67
287.425	61.78
287.64	6.49
287.855	-61.1
288.07	-20.14
288.285	16.73
288.5	49.49
288.715	72.02
288.93	57.68
289.145	22.87
289.36	88.4
289.575	20.82
289.79	61.78
290.004	0.34
290.219	65.88
290.434	20.82
290.649	45.4
290.864	4.44
291.079	-22.19
291.294	55.64
291.509	31.06
291.724	-32.43
291.938	20.82
292.153	61.78
292.368	33.11
292.583	-13.99
292.798	24.92
293.012	-36.52
293.227	-11.95
293.442	129.36
293.657	45.4
293.871	55.64
294.086	-1.71
294.301	92.5
294.516	-38.57
294.73	0.34
294.945	-11.95
295.16	12.63
295.374	16.73
295.589	-22.19
295.804	-13.99
296.018	102.74
296.233	94.55
296.447	31.06
296.662	-32.43
296.877	20.82
297.091	26.96
297.306	4.44
297.52	90.45
297.735	102.74
297.949	94.55
298.164	4.44
298.378	-28.33
298.593	55.64
298.807	-95.91
299.022	72.02
299.236	8.53
299.451	37.2
299.665	-11.95
299.88	-30.38
300.094	22.87
300.309	29.01
300.523	63.83
300.737	-26.28
300.952	8.53
301.166	57.68
301.381	16.73
301.595	6.49
301.809	4.44
302.024	63.83
302.238	-38.57
302.452	35.16
302.667	-46.76
302.881	86.36
303.095	49.49
303.309	12.63
303.524	51.54
303.738	-3.75
303.952	-3.75
304.166	-32.43
304.381	-3.75
304.595	69.97
304.809	-13.99
305.023	-3.75
305.237	49.49
305.452	39.25
305.666	-57
305.88	47.44
306.094	129.36
306.308	37.2
306.522	33.11
306.736	63.83
306.95	24.92
307.164	94.55
307.379	39.25
307.593	76.12
307.807	88.4
308.021	37.2
308.235	59.73
308.449	37.2
308.663	14.68
308.877	74.07
309.091	-22.19
309.305	51.54
309.519	6.49
309.733	0.34
309.947	-11.95
310.161	33.11
310.374	-59.05
310.588	16.73
310.802	-44.71
311.016	-11.95
311.23	-36.52
311.444	37.2
311.658	72.02
311.872	20.82
312.085	78.16
312.299	117.08
312.513	29.01
312.727	104.79
312.941	-24.23
313.154	53.59
313.368	-11.95
313.582	-20.14
313.796	-1.71
314.009	24.92
314.223	45.4
314.437	78.16
314.651	-13.99
314.864	-20.14
315.078	14.68
315.292	-36.52
315.505	24.92
315.719	35.16
315.933	104.79
316.146	24.92
316.36	-77.48
316.573	76.12
316.787	-20.14
317.001	53.59
317.214	0.34
317.428	35.16
317.641	-22.19
317.855	39.25
318.068	-20.14
318.282	86.36
318.495	76.12
318.709	55.64
318.922	12.63
319.136	61.78
319.349	74.07
319.563	-26.28
319.776	61.78
319.99	0.34
320.203	-7.85
320.417	12.63
320.63	10.58
320.843	119.12
321.057	-20.14
321.27	24.92
321.483	16.73
321.697	16.73
321.91	78.16
322.124	-1.71
322.337	86.36
322.55	-3.75
322.763	29.01
322.977	57.68
323.19	-18.09
323.403	0.34
323.617	55.64
323.83	20.82
324.043	14.68
324.256	29.01
324.469	102.74
324.683	20.82
324.896	12.63
325.109	2.39
325.322	37.2
325.535	39.25
325.748	4.44
325.962	78.16
326.175	6.49
326.388	10.58
326.601	74.07
326.814	49.49
327.027	10.58
327.24	69.97
327.453	-24.23
327.666	67.92
327.879	-11.95
328.092	18.77
328.305	10.58
328.518	47.44
328.731	29.01
328.944	-26.28
329.157	-28.33
329.37	-28.33
329.583	12.63
329.796	94.55
330.009	-3.75
330.222	-20.14
330.435	-11.95
330.648	-11.95
330.861	24.92
331.073	8.53
331.286	39.25
331.499	41.3
331.712	31.06
331.925	49.49
332.138	37.2
332.35	47.44
332.563	49.49
332.776	112.98
332.989	-11.95
333.202	43.35
333.414	29.01
333.627	29.01
333.84	16.73
334.053	74.07
334.265	4.44
334.478	-61.1
334.691	86.36
334.903	-5.8
335.116	-34.47
335.329	20.82
335.541	57.68
335.754	61.78
335.966	-3.75
336.179	74.07
336.392	69.97
336.604	-34.47
336.817	24.92
337.029	14.68
337.242	8.53
337.454	53.59
337.667	33.11
337.88	69.97
338.092	-20.14
338.305	61.78
338.517	16.73
338.729	22.87
338.942	108.88
339.154	4.44
339.367	-18.09
339.579	61.78
339.792	-3.75
340.004	2.39
340.217	41.3
340.429	51.54
340.641	-40.62
340.854	-34.47
341.066	22.87
341.278	49.49
341.491	98.64
341.703	31.06
341.915	-5.8
342.128	0.34
342.34	47.44
342.552	59.73
342.764	12.63
342.977	53.59
343.189	16.73
343.401	22.87
343.613	16.73
343.826	39.25
344.038	39.25
344.25	55.64
344.462	16.73
344.674	18.77
344.886	35.16
345.099	4.44
345.311	104.79
345.523	22.87
345.735	-3.75
345.947	37.2
346.159	29.01
346.371	78.16
346.583	29.01
346.795	86.36
347.007	0.34
347.219	69.97
347.431	-44.71
347.643	61.78
347.855	55.64
348.067	86.36
348.279	-11.95
348.491	43.35
348.703	57.68
348.915	39.25
349.127	22.87
349.339	31.06
349.551	33.11
349.763	92.5
349.975	-20.14
350.187	33.11
350.399	0.34
350.61	10.58
350.822	-3.75
351.034	-20.14
351.246	53.59
351.458	-3.75
351.669	37.2
351.881	31.06
352.093	39.25
352.305	59.73
352.517	4.44
352.728	53.59
352.94	-40.62
353.152	6.49
353.363	26.96
353.575	51.54
353.787	0.34
353.999	24.92
354.21	102.74
354.422	20.82
354.633	-11.95
354.845	-36.52
355.057	41.3
355.268	33.11
355.48	16.73
355.692	112.98
355.903	12.63
356.115	31.06
356.326	12.63
356.538	29.01
356.749	49.49
356.961	86.36
357.172	106.84
357.384	31.06
357.595	67.92
357.807	4.44
358.018	47.44
358.23	20.82
358.441	106.84
358.653	94.55
358.864	-7.85
359.075	-1.71
359.287	4.44
359.498	78.16
359.709	69.97
359.921	33.11
360.132	-1.71
360.344	88.4
360.555	-16.04
360.766	59.73
360.977	61.78
361.189	53.59
361.4	29.01
361.611	2.39
361.823	108.88
362.034	39.25
362.245	2.39
362.456	102.74
362.667	61.78
362.879	12.63
363.09	29.01
363.301	41.3
363.512	88.4
363.723	29.01
363.935	20.82
364.146	53.59
364.357	29.01
364.568	-3.75
364.779	88.4
364.99	12.63
365.201	8.53
365.412	88.4
365.623	78.16
365.834	74.07
366.045	47.44
366.256	61.78
366.467	92.5
366.678	37.2
366.889	6.49
367.1	-9.9
367.311	12.63
367.522	88.4
367.733	74.07
367.944	33.11
368.155	16.73
368.366	53.59
368.577	39.25
368.788	53.59
368.999	51.54
369.209	41.3
369.42	80.21
369.631	80.21
369.842	35.16
370.053	-22.19
370.264	6.49
370.474	61.78
370.685	4.44
370.896	-42.67
371.107	119.12
371.317	61.78
371.528	4.44
371.739	72.02
371.95	72.02
372.16	69.97
372.371	106.84
372.582	29.01
372.792	29.01
373.003	57.68
373.214	82.26
373.424	20.82
373.635	16.73
373.846	45.4
374.056	72.02
374.267	96.6
374.477	94.55
374.688	31.06
374.898	47.44
375.109	-16.04
375.319	61.78
375.53	-9.9
375.74	14.68
375.951	45.4
376.161	22.87
376.372	63.83
376.582	45.4
376.793	37.2
377.003	-9.9
377.214	31.06
377.424	-28.33
377.635	37.2
377.845	29.01
378.055	67.92
378.266	14.68
378.476	61.78
378.686	20.82
378.897	-3.75
379.107	41.3
379.317	45.4
379.528	55.64
379.738	96.6
379.948	18.77
380.158	33.11
380.369	90.45
380.579	88.4
380.789	88.4
380.999	94.55
381.21	41.3
381.42	133.46
381.63	4.44
381.84	37.2
382.05	96.6
382.261	69.97
382.471	-26.28
382.681	-3.75
382.891	98.64
383.101	-26.28
383.311	6.49
383.521	-34.47
383.731	90.45
383.941	55.64
384.151	57.68
384.361	37.2
384.571	55.64
384.781	98.64
384.991	88.4
385.201	43.35
385.411	72.02
385.621	24.92
385.831	20.82
386.041	24.92
386.251	-9.9
386.461	84.31
386.671	-1.71
386.881	29.01
387.091	78.16
387.301	33.11
387.511	53.59
387.72	53.59
387.93	61.78
388.14	14.68
388.35	-40.62
388.56	55.64
388.769	31.06
388.979	12.63
389.189	16.73
389.399	49.49
389.609	-3.75
389.818	94.55
390.028	90.45
390.238	69.97
390.447	8.53
390.657	22.87
390.867	10.58
391.076	26.96
391.286	4.44
391.496	72.02
391.705	45.4
391.915	147.8
392.125	33.11
392.334	16.73
392.544	135.51
392.753	69.97
392.963	43.35
393.172	26.96
393.382	20.82
393.591	69.97
393.801	20.82
394.01	41.3
394.22	53.59
394.429	53.59
394.639	94.55
394.848	22.87
395.058	127.32
395.267	-42.67
395.477	16.73
395.686	29.01
395.895	104.79
396.105	33.11
396.314	20.82
396.524	57.68
396.733	151.89
396.942	96.6
397.152	20.82
397.361	86.36
397.57	33.11
397.78	98.64
397.989	139.6
398.198	74.07
398.407	16.73
398.617	90.45
398.826	129.36
399.035	39.25
399.244	86.36
399.453	43.35
399.663	49.49
399.872	37.2
400.081	39.25
400.29	115.03
400.499	78.16
400.708	57.68
400.917	94.55
401.127	45.4
401.336	-24.23
401.545	196.95
401.754	153.94
401.963	110.93
402.172	61.78
402.381	29.01
402.59	18.77
402.799	61.78
403.008	84.31
403.217	96.6
403.426	90.45
403.635	127.32
403.844	98.64
404.053	121.17
404.262	6.49
404.471	112.98
404.68	49.49
404.888	92.5
405.097	121.17
405.306	43.35
405.515	141.65
405.724	119.12
405.933	164.18
406.142	121.17
406.35	139.6
406.559	121.17
406.768	147.8
406.977	94.55
407.185	176.47
407.394	96.6
407.603	84.31
407.812	127.32
408.02	168.27
408.229	160.08
408.438	63.83
408.646	94.55
408.855	90.45
409.064	121.17
409.272	172.37
409.481	209.23
409.69	174.42
409.898	151.89
410.107	176.47
410.315	178.51
410.524	242
410.733	235.86
410.941	260.43
411.15	203.09
411.358	278.87
411.567	317.78
411.775	276.82
411.984	272.72
412.192	252.24
412.401	291.15
412.609	311.63
412.818	356.69
413.026	381.26
413.234	366.93
413.443	287.06
413.651	282.96
413.86	430.41
414.068	436.56
414.276	377.17
414.485	414.03
414.693	463.18
414.901	491.85
415.11	414.03
415.318	414.03
415.526	461.13
415.734	446.8
415.943	522.57
416.151	532.81
416.359	557.39
416.567	520.53
416.776	536.91
416.984	659.79
417.192	694.6
417.4	661.84
417.608	620.88
417.817	643.4
418.025	788.81
418.233	790.86
418.441	749.9
418.649	751.95
418.857	831.82
419.065	872.78
419.273	823.62
419.481	831.82
419.689	973.13
419.897	1036.61
420.105	1053
420.313	993.61
420.521	1106.24
420.729	1122.63
420.937	1098.05
421.145	1071.43
421.353	1208.64
421.561	1298.75
421.769	1177.92
421.977	1296.71
422.185	1325.38
422.393	1407.3
422.601	1462.59
422.809	1425.73
423.017	1431.87
423.224	1569.09
423.432	1601.85
423.64	1507.65
423.848	1833.27
424.056	1743.16
424.263	1890.62
424.471	1939.77
424.679	1890.62
424.887	1995.06
425.094	2066.74
425.302	2015.54
425.51	2081.08
425.718	2267.44
425.925	2257.2
426.133	2242.87
426.341	2437.42
426.548	2554.16
426.756	2466.1
426.964	2607.41
427.171	2703.66
427.379	2785.58
427.586	2847.02
427.794	2994.47
428.001	3017
428.209	3211.56
428.417	3186.98
428.624	3359.01
428.832	3338.53
429.039	3381.54
429.247	3268.9
429.454	3639.58
429.662	3827.99
429.869	3674.4
430.076	3784.99
430.284	3649.82
430.491	3881.24
430.699	4198.68
430.906	4038.94
431.114	4309.27
431.321	4342.04
431.528	4389.14
431.736	4763.92
431.943	4946.19
432.15	4682
432.358	4921.61
432.565	5095.69
432.772	4985.1
432.979	5253.38
433.187	5333.25
433.394	5443.84
433.601	5779.71
433.808	5888.25
434.016	5779.71
434.223	6140.15
434.43	6492.4
434.637	6392.05
434.844	6629.62
435.052	6818.03
435.259	6639.86
435.466	6893.8
435.673	6639.86
435.88	7031.02
436.087	7352.55
436.294	7782.62
436.501	7481.57
436.708	7370.98
436.915	7952.6
437.122	8030.43
437.329	7753.95
437.537	8270.04
437.743	8610
437.95	8460.5
438.157	8843.47
438.364	8956.11
438.571	9203.91
438.778	9124.04
438.985	10092.73
439.192	9744.58
439.399	9797.82
439.606	9701.57
439.813	10363.06
440.02	10948.78
440.227	10930.35
440.433	10516.66
440.64	10881.2
440.847	10584.24
441.054	11016.37
441.261	11704.48
441.467	11628.71
441.674	11940
441.881	12353.69
442.088	12472.47
442.294	12267.67
442.501	12478.61
442.708	12636.31
442.914	13250.7
443.121	13856.9
443.328	13367.43
443.534	14340.22
443.741	13807.75
443.948	13590.66
444.154	14803.06
444.361	14846.07
444.568	14571.64
444.774	14741.62
444.981	14499.96
445.187	15179.89
445.394	15659.11
445.6	15716.45
445.807	17193.04
446.013	16683.09
446.22	16767.06
446.426	17420.36
446.633	17670.22
446.839	18290.75
447.046	17659.98
447.252	18313.28
447.459	18755.64
447.665	18161.73
447.871	19126.32
448.078	20154.4
448.284	19206.19
448.491	19607.59
448.697	20260.9
448.903	20582.43
449.11	20893.72
449.316	20617.24
449.522	20899.86
449.728	21483.53
449.935	21377.04
450.141	21557.26
450.347	22081.54
450.553	21309.46
450.76	21618.7
450.966	22571
451.172	22032.39
451.378	22753.27
451.584	22077.44
451.791	23029.75
451.997	22611.96
452.203	23087.09
452.409	23142.39
452.615	22923.26
452.821	22300.67
453.027	21917.7
453.233	22982.65
453.44	22231.04
453.646	22429.7
453.852	22876.15
454.058	22992.89
454.264	22171.65
454.47	22636.54
454.676	22022.15
454.882	23207.92
455.088	20992.02
455.294	21422.09
455.5	21547.02
455.705	21868.55
455.911	20865.05
456.117	20754.46
456.323	20381.73
456.529	19193.9
456.735	20385.82
456.941	19750.95
457.147	19470.38
457.352	18634.81
457.558	18647.1
457.764	18595.9
457.97	18536.51
458.176	18102.34
458.381	17942.6
458.587	17176.66
458.793	17193.04
458.999	16050.27
459.204	17281.1
459.41	16756.82
459.616	15919.2
459.821	15560.81
460.027	15732.84
460.233	15450.22
460.438	14868.59
460.644	14817.4
460.85	14119.04
461.055	13701.25
461.261	14030.98
461.466	12990.61
461.672	12566.68
461.878	13389.96
462.083	12511.38
462.289	12249.24
462.494	12335.26
462.7	11493.54
462.905	11149.48
463.111	11788.45
463.316	11520.17
463.522	11337.9
463.727	11385
463.932	11278.51
464.138	11348.14
464.343	11272.36
464.549	11143.34
464.754	11514.02
464.959	11407.53
465.165	11145.39
465.37	10754.23
465.575	10543.28
465.781	11024.56
465.986	10805.42
466.191	10412.21
466.397	10311.86
466.602	9855.17
466.807	10162.36
467.012	10336.44
467.218	10262.71
467.423	10176.7
467.628	10272.95
467.833	10195.13
468.038	10023.1
468.244	9578.69
468.449	10395.83
468.654	9885.89
468.859	9998.52
