Data from USB4F104151__126__14-19-00-198.txt Node

Date: Thu Mar 13 14:19:00 EDT 2025
User: louis
Spectrometer: USB4F10415
Trigger mode: 4
Integration Time (sec): 2.000000E-2
Scans to average: 1
Electric dark correction enabled: true
Nonlinearity correction enabled: false
Boxcar width: 0
XAxis mode: Wavelengths
Number of Pixels in Spectrum: 3648
>>>>>Begin Spectral Data<<<<<
178.204	-104.62
178.424	-104.62
178.644	-104.62
178.864	-96.43
179.084	-88.23
179.304	5.97
179.524	3.93
179.744	-69.8
179.964	57.17
180.184	-41.13
180.404	-18.6
180.624	-37.03
180.844	57.17
181.064	-41.13
181.283	8.02
181.503	89.94
181.723	-14.51
181.943	-34.99
182.163	79.7
182.383	-28.84
182.602	-12.46
182.822	69.46
183.042	-4.27
183.262	-0.17
183.482	38.74
183.701	73.56
183.921	26.45
184.141	12.12
184.361	51.03
184.58	-28.84
184.8	-8.36
185.02	30.55
185.239	34.64
185.459	-8.36
185.679	63.32
185.898	12.12
186.118	26.45
186.338	-6.31
186.557	20.31
186.777	-0.17
186.997	3.93
187.216	-32.94
187.436	40.79
187.655	12.12
187.875	57.17
188.095	16.21
188.314	65.36
188.534	16.21
188.753	67.41
188.973	32.6
189.192	85.84
189.412	8.02
189.631	46.93
189.851	14.17
190.07	46.93
190.29	12.12
190.509	73.56
190.729	-24.75
190.948	67.41
191.168	89.94
191.387	42.84
191.607	-0.17
191.826	-59.56
192.045	5.97
192.265	42.84
192.484	-37.03
192.704	28.5
192.923	-14.51
193.142	128.85
193.362	-4.27
193.581	16.21
193.8	-10.41
194.02	5.97
194.239	-18.6
194.458	65.36
194.678	59.22
194.897	10.07
195.116	77.65
195.335	61.27
195.555	34.64
195.774	3.93
195.993	-20.65
196.212	-14.51
196.432	-8.36
196.651	-22.7
196.87	-0.17
197.089	100.18
197.308	22.36
197.528	24.4
197.747	-4.27
197.966	53.08
198.185	165.71
198.404	-10.41
198.623	22.36
198.842	32.6
199.062	55.12
199.281	24.4
199.5	14.17
199.719	16.21
199.938	75.6
200.157	8.02
200.376	61.27
200.595	40.79
200.814	32.6
201.033	-12.46
201.252	57.17
201.471	24.4
201.69	-14.51
201.909	77.65
202.128	44.88
202.347	91.99
202.566	10.07
202.785	-22.7
203.004	8.02
203.223	91.99
203.442	14.17
203.661	32.6
203.879	57.17
204.098	24.4
204.317	-4.27
204.536	155.47
204.755	89.94
204.974	-14.51
205.193	40.79
205.411	89.94
205.63	59.22
205.849	53.08
206.068	53.08
206.287	8.02
206.505	32.6
206.724	57.17
206.943	32.6
207.162	-32.94
207.381	26.45
207.599	89.94
207.818	61.27
208.037	65.36
208.255	-24.75
208.474	42.84
208.693	-24.75
208.911	8.02
209.13	30.55
209.349	22.36
209.567	59.22
209.786	40.79
210.005	81.75
210.223	73.56
210.442	-8.36
210.661	-16.55
210.879	18.26
211.098	75.6
211.316	100.18
211.535	18.26
211.753	-32.94
211.972	57.17
212.191	-28.84
212.409	51.03
212.628	67.41
212.846	20.31
213.065	-4.27
213.283	157.52
213.502	63.32
213.72	89.94
213.938	8.02
214.157	-24.75
214.375	85.84
214.594	20.31
214.812	48.98
215.031	26.45
215.249	55.12
215.467	57.17
215.686	34.64
215.904	77.65
216.122	85.84
216.341	73.56
216.559	40.79
216.778	48.98
216.996	24.4
217.214	14.17
217.432	28.5
217.651	57.17
217.869	98.13
218.087	-57.51
218.306	61.27
218.524	-10.41
218.742	-14.51
218.96	81.75
219.179	12.12
219.397	40.79
219.615	40.79
219.833	98.13
220.051	-24.75
220.27	-16.55
220.488	10.07
220.706	-24.75
220.924	34.64
221.142	12.12
221.36	34.64
221.578	55.12
221.796	42.84
222.015	38.74
222.233	-37.03
222.451	36.69
222.669	-22.7
222.887	128.85
223.105	57.17
223.323	48.98
223.541	32.6
223.759	46.93
223.977	61.27
224.195	61.27
224.413	48.98
224.631	10.07
224.849	61.27
225.067	32.6
225.285	16.21
225.503	-47.27
225.721	61.27
225.939	65.36
226.157	16.21
226.375	104.28
226.592	51.03
226.81	44.88
227.028	91.99
227.246	83.8
227.464	67.41
227.682	34.64
227.9	57.17
228.117	57.17
228.335	-22.7
228.553	53.08
228.771	65.36
228.989	40.79
229.206	73.56
229.424	79.7
229.642	42.84
229.86	-6.31
230.077	75.6
230.295	67.41
230.513	30.55
230.731	65.36
230.948	67.41
231.166	75.6
231.384	42.84
231.601	83.8
231.819	44.88
232.037	-41.13
232.254	63.32
232.472	59.22
232.689	5.97
232.907	73.56
233.125	67.41
233.342	-94.38
233.56	-20.65
233.777	22.36
233.995	1.88
234.213	63.32
234.43	75.6
234.648	26.45
234.865	-4.27
235.083	100.18
235.3	83.8
235.518	53.08
235.735	61.27
235.953	59.22
236.17	53.08
236.388	-24.75
236.605	24.4
236.822	94.04
237.04	67.41
237.257	-34.99
237.475	57.17
237.692	67.41
237.909	73.56
238.127	110.42
238.344	12.12
238.562	83.8
238.779	16.21
238.996	-8.36
239.214	16.21
239.431	32.6
239.648	-8.36
239.865	-4.27
240.083	44.88
240.3	-32.94
240.517	20.31
240.735	46.93
240.952	67.41
241.169	85.84
241.386	3.93
241.603	34.64
241.821	3.93
242.038	83.8
242.255	96.08
242.472	-71.85
242.689	-45.23
242.907	18.26
243.124	-10.41
243.341	-12.46
243.558	-47.27
243.775	98.13
243.992	-32.94
244.209	22.36
244.426	67.41
244.643	75.6
244.86	14.17
245.078	-16.55
245.295	65.36
245.512	40.79
245.729	16.21
245.946	-0.17
246.163	8.02
246.38	-63.66
246.597	32.6
246.814	10.07
247.031	32.6
247.248	73.56
247.464	44.88
247.681	30.55
247.898	10.07
248.115	57.17
248.332	12.12
248.549	61.27
248.766	69.46
248.983	96.08
249.2	77.65
249.417	-22.7
249.633	59.22
249.85	24.4
250.067	51.03
250.284	18.26
250.501	104.28
250.717	77.65
250.934	59.22
251.151	73.56
251.368	51.03
251.585	-0.17
251.801	26.45
252.018	24.4
252.235	51.03
252.451	116.56
252.668	24.4
252.885	79.7
253.102	-34.99
253.318	26.45
253.535	57.17
253.752	12.12
253.968	44.88
254.185	55.12
254.401	-10.41
254.618	34.64
254.835	14.17
255.051	83.8
255.268	77.65
255.484	124.76
255.701	3.93
255.917	32.6
256.134	1.88
256.351	24.4
256.567	51.03
256.784	-30.89
257	-37.03
257.217	34.64
257.433	24.4
257.65	32.6
257.866	34.64
258.082	22.36
258.299	12.12
258.515	57.17
258.732	-63.66
258.948	-4.27
259.165	24.4
259.381	24.4
259.597	65.36
259.814	-14.51
260.03	137.04
260.246	-12.46
260.463	-4.27
260.679	16.21
260.895	18.26
261.112	3.93
261.328	-16.55
261.544	51.03
261.761	81.75
261.977	24.4
262.193	16.21
262.409	44.88
262.626	10.07
262.842	16.21
263.058	42.84
263.274	-41.13
263.49	79.7
263.707	59.22
263.923	1.88
264.139	-4.27
264.355	14.17
264.571	61.27
264.787	28.5
265.004	98.13
265.22	102.23
265.436	46.93
265.652	51.03
265.868	108.37
266.084	26.45
266.3	89.94
266.516	-8.36
266.732	18.26
266.948	73.56
267.164	20.31
267.38	18.26
267.596	135
267.812	40.79
268.028	87.89
268.244	-43.18
268.46	26.45
268.676	-8.36
268.892	18.26
269.108	3.93
269.324	-32.94
269.54	44.88
269.756	77.65
269.972	38.74
270.188	40.79
270.403	-4.27
270.619	57.17
270.835	-8.36
271.051	-39.08
271.267	-0.17
271.483	75.6
271.698	71.51
271.914	-0.17
272.13	1.88
272.346	53.08
272.562	36.69
272.777	98.13
272.993	34.64
273.209	-28.84
273.425	34.64
273.64	-20.65
273.856	53.08
274.072	10.07
274.287	-10.41
274.503	57.17
274.719	44.88
274.934	91.99
275.15	-0.17
275.366	57.17
275.581	73.56
275.797	48.98
276.012	-0.17
276.228	28.5
276.444	48.98
276.659	38.74
276.875	-8.36
277.09	51.03
277.306	77.65
277.521	77.65
277.737	20.31
277.952	20.31
278.168	69.46
278.383	59.22
278.599	8.02
278.814	48.98
279.03	1.88
279.245	73.56
279.461	-16.55
279.676	40.79
279.892	-0.17
280.107	16.21
280.322	20.31
280.538	79.7
280.753	28.5
280.969	73.56
281.184	-16.55
281.399	110.42
281.615	26.45
281.83	10.07
282.045	44.88
282.26	44.88
282.476	89.94
282.691	-0.17
282.906	61.27
283.122	46.93
283.337	-6.31
283.552	34.64
283.767	-4.27
283.983	98.13
284.198	40.79
284.413	26.45
284.628	-22.7
284.843	59.22
285.058	108.37
285.274	3.93
285.489	1.88
285.704	-4.27
285.919	-47.27
286.134	26.45
286.349	3.93
286.564	-2.22
286.779	57.17
286.995	40.79
287.21	16.21
287.425	73.56
287.64	-4.27
287.855	44.88
288.07	-2.22
288.285	106.32
288.5	36.69
288.715	-12.46
288.93	59.22
289.145	16.21
289.36	20.31
289.575	38.74
289.79	69.46
290.004	38.74
290.219	108.37
290.434	8.02
290.649	5.97
290.864	51.03
291.079	40.79
291.294	-6.31
291.509	89.94
291.724	32.6
291.938	-18.6
292.153	28.5
292.368	-6.31
292.583	18.26
292.798	-18.6
293.012	108.37
293.227	18.26
293.442	40.79
293.657	24.4
293.871	61.27
294.086	26.45
294.301	46.93
294.516	26.45
294.73	102.23
294.945	22.36
295.16	8.02
295.374	85.84
295.589	-6.31
295.804	51.03
296.018	28.5
296.233	114.52
296.447	69.46
296.662	14.17
296.877	-16.55
297.091	8.02
297.306	61.27
297.52	10.07
297.735	44.88
297.949	-14.51
298.164	3.93
298.378	14.17
298.593	-63.66
298.807	8.02
299.022	24.4
299.236	87.89
299.451	40.79
299.665	-0.17
299.88	87.89
300.094	85.84
300.309	20.31
300.523	59.22
300.737	-8.36
300.952	53.08
301.166	20.31
301.381	-0.17
301.595	10.07
301.809	69.46
302.024	83.8
302.238	57.17
302.452	-57.51
302.667	61.27
302.881	3.93
303.095	61.27
303.309	30.55
303.524	-24.75
303.738	59.22
303.952	-20.65
304.166	65.36
304.381	-6.31
304.595	16.21
304.809	16.21
305.023	22.36
305.237	-24.75
305.452	12.12
305.666	40.79
305.88	53.08
306.094	73.56
306.308	118.61
306.522	-14.51
306.736	65.36
306.95	48.98
307.164	16.21
307.379	24.4
307.593	-2.22
307.807	48.98
308.021	73.56
308.235	73.56
308.449	1.88
308.663	44.88
308.877	112.47
309.091	73.56
309.305	32.6
309.519	-57.51
309.733	100.18
309.947	-34.99
310.161	102.23
310.374	46.93
310.588	34.64
310.802	53.08
311.016	81.75
311.23	40.79
311.444	-49.32
311.658	-4.27
311.872	89.94
312.085	53.08
312.299	32.6
312.513	16.21
312.727	-26.79
312.941	46.93
313.154	75.6
313.368	51.03
313.582	-6.31
313.796	44.88
314.009	122.71
314.223	55.12
314.437	81.75
314.651	48.98
314.864	51.03
315.078	12.12
315.292	53.08
315.505	36.69
315.719	42.84
315.933	46.93
316.146	-30.89
316.36	34.64
316.573	-4.27
316.787	48.98
317.001	85.84
317.214	-0.17
317.428	20.31
317.641	26.45
317.855	-20.65
318.068	51.03
318.282	116.56
318.495	28.5
318.709	61.27
318.922	-20.65
319.136	26.45
319.349	67.41
319.563	32.6
319.776	112.47
319.99	20.31
320.203	51.03
320.417	12.12
320.63	16.21
320.843	81.75
321.057	69.46
321.27	114.52
321.483	89.94
321.697	42.84
321.91	36.69
322.124	18.26
322.337	46.93
322.55	-22.7
322.763	14.17
322.977	100.18
323.19	57.17
323.403	34.64
323.617	106.32
323.83	57.17
324.043	-12.46
324.256	73.56
324.469	48.98
324.683	57.17
324.896	34.64
325.109	32.6
325.322	3.93
325.535	51.03
325.748	55.12
325.962	-37.03
326.175	81.75
326.388	85.84
326.601	24.4
326.814	34.64
327.027	20.31
327.24	130.9
327.453	-45.23
327.666	28.5
327.879	59.22
328.092	46.93
328.305	14.17
328.518	46.93
328.731	44.88
328.944	1.88
329.157	53.08
329.37	40.79
329.583	155.47
329.796	85.84
330.009	44.88
330.222	34.64
330.435	36.69
330.648	48.98
330.861	26.45
331.073	40.79
331.286	-20.65
331.499	96.08
331.712	28.5
331.925	-0.17
332.138	104.28
332.35	91.99
332.563	24.4
332.776	73.56
332.989	42.84
333.202	53.08
333.414	77.65
333.627	-47.27
333.84	61.27
334.053	18.26
334.265	26.45
334.478	77.65
334.691	40.79
334.903	112.47
335.116	44.88
335.329	44.88
335.541	32.6
335.754	59.22
335.966	18.26
336.179	153.43
336.392	83.8
336.604	48.98
336.817	24.4
337.029	51.03
337.242	83.8
337.454	124.76
337.667	38.74
337.88	94.04
338.092	65.36
338.305	-0.17
338.517	26.45
338.729	16.21
338.942	28.5
339.154	28.5
339.367	-55.47
339.579	22.36
339.792	-49.32
340.004	42.84
340.217	1.88
340.429	65.36
340.641	28.5
340.854	51.03
341.066	53.08
341.278	83.8
341.491	-12.46
341.703	42.84
341.915	10.07
342.128	42.84
342.34	32.6
342.552	63.32
342.764	57.17
342.977	18.26
343.189	24.4
343.401	42.84
343.613	-12.46
343.826	26.45
344.038	18.26
344.25	53.08
344.462	-16.55
344.674	83.8
344.886	-41.13
345.099	34.64
345.311	73.56
345.523	24.4
345.735	102.23
345.947	26.45
346.159	8.02
346.371	26.45
346.583	100.18
346.795	98.13
347.007	26.45
347.219	36.69
347.431	32.6
347.643	85.84
347.855	38.74
348.067	20.31
348.279	-30.89
348.491	83.8
348.703	32.6
348.915	36.69
349.127	-2.22
349.339	28.5
349.551	61.27
349.763	67.41
349.975	71.51
350.187	59.22
350.399	38.74
350.61	-14.51
350.822	40.79
351.034	67.41
351.246	28.5
351.458	67.41
351.669	73.56
351.881	73.56
352.093	-8.36
352.305	139.09
352.517	-24.75
352.728	26.45
352.94	10.07
353.152	48.98
353.363	-2.22
353.575	96.08
353.787	32.6
353.999	44.88
354.21	112.47
354.422	85.84
354.633	-14.51
354.845	57.17
355.057	-6.31
355.268	89.94
355.48	85.84
355.692	44.88
355.903	40.79
356.115	48.98
356.326	8.02
356.538	83.8
356.749	-20.65
356.961	59.22
357.172	51.03
357.384	40.79
357.595	65.36
357.807	73.56
358.018	22.36
358.23	89.94
358.441	83.8
358.653	1.88
358.864	8.02
359.075	-10.41
359.287	53.08
359.498	83.8
359.709	10.07
359.921	-45.23
360.132	77.65
360.344	51.03
360.555	-14.51
360.766	40.79
360.977	69.46
361.189	32.6
361.4	14.17
361.611	65.36
361.823	53.08
362.034	48.98
362.245	85.84
362.456	71.51
362.667	28.5
362.879	77.65
363.09	-12.46
363.301	77.65
363.512	51.03
363.723	51.03
363.935	114.52
364.146	26.45
364.357	-8.36
364.568	48.98
364.779	40.79
364.99	89.94
365.201	-6.31
365.412	51.03
365.623	-32.94
365.834	28.5
366.045	24.4
366.256	83.8
366.467	32.6
366.678	-8.36
366.889	28.5
367.1	1.88
367.311	100.18
367.522	65.36
367.733	85.84
367.944	53.08
368.155	83.8
368.366	89.94
368.577	-30.89
368.788	-6.31
368.999	1.88
369.209	65.36
369.42	24.4
369.631	65.36
369.842	65.36
370.053	67.41
370.264	8.02
370.474	36.69
370.685	73.56
370.896	10.07
371.107	40.79
371.317	122.71
371.528	16.21
371.739	85.84
371.95	67.41
372.16	34.64
372.371	24.4
372.582	20.31
372.792	28.5
373.003	87.89
373.214	55.12
373.424	69.46
373.635	48.98
373.846	85.84
374.056	106.32
374.267	-43.18
374.477	26.45
374.688	18.26
374.898	65.36
375.109	108.37
375.319	18.26
375.53	96.08
375.74	65.36
375.951	-26.79
376.161	112.47
376.372	57.17
376.582	28.5
376.793	77.65
377.003	-12.46
377.214	20.31
377.424	40.79
377.635	75.6
377.845	57.17
378.055	67.41
378.266	38.74
378.476	26.45
378.686	94.04
378.897	57.17
379.107	85.84
379.317	-12.46
379.528	67.41
379.738	20.31
379.948	-24.75
380.158	42.84
380.369	61.27
380.579	91.99
380.789	-14.51
380.999	53.08
381.21	34.64
381.42	118.61
381.63	40.79
381.84	61.27
382.05	16.21
382.261	57.17
382.471	71.51
382.681	28.5
382.891	130.9
383.101	85.84
383.311	65.36
383.521	30.55
383.731	10.07
383.941	73.56
384.151	48.98
384.361	55.12
384.571	-10.41
384.781	108.37
384.991	116.56
385.201	71.51
385.411	149.33
385.621	106.32
385.831	20.31
386.041	79.7
386.251	14.17
386.461	16.21
386.671	59.22
386.881	85.84
387.091	89.94
387.301	96.08
387.511	77.65
387.72	122.71
387.93	81.75
388.14	67.41
388.35	63.32
388.56	139.09
388.769	16.21
388.979	16.21
389.189	20.31
389.399	46.93
389.609	51.03
389.818	100.18
390.028	24.4
390.238	104.28
390.447	40.79
390.657	51.03
390.867	98.13
391.076	26.45
391.286	69.46
391.496	12.12
391.705	98.13
391.915	89.94
392.125	132.95
392.334	-4.27
392.544	130.9
392.753	85.84
392.963	32.6
393.172	108.37
393.382	89.94
393.591	149.33
393.801	48.98
394.01	155.47
394.22	106.32
394.429	24.4
394.639	100.18
394.848	126.8
395.058	124.76
395.267	24.4
395.477	96.08
395.686	79.7
395.895	124.76
396.105	73.56
396.314	118.61
396.524	89.94
396.733	151.38
396.942	108.37
397.152	65.36
397.361	89.94
397.57	130.9
397.78	65.36
397.989	24.4
398.198	106.32
398.407	85.84
398.617	75.6
398.826	34.64
399.035	147.28
399.244	75.6
399.453	44.88
399.663	34.64
399.872	147.28
400.081	20.31
400.29	63.32
400.499	149.33
400.708	147.28
400.917	44.88
401.127	98.13
401.336	110.42
401.545	200.53
401.754	145.24
401.963	151.38
402.172	180.05
402.381	81.75
402.59	155.47
402.799	81.75
403.008	163.67
403.217	87.89
403.426	155.47
403.635	180.05
403.844	89.94
404.053	200.53
404.262	135
404.471	167.76
404.68	137.04
404.888	130.9
405.097	100.18
405.306	198.48
405.515	137.04
405.724	106.32
405.933	163.67
406.142	180.05
406.35	196.43
406.559	171.86
406.768	194.39
406.977	302.93
407.185	190.29
407.394	229.2
407.603	180.05
407.812	192.34
408.02	245.59
408.229	106.32
408.438	290.64
408.646	257.87
408.855	286.54
409.064	296.78
409.272	233.3
409.481	311.12
409.69	278.35
409.898	272.21
410.107	259.92
410.315	270.16
410.524	253.78
410.733	319.31
410.941	347.98
411.15	331.6
411.358	368.46
411.567	372.56
411.775	393.04
411.984	356.18
412.192	345.94
412.401	423.76
412.609	425.81
412.818	360.27
413.026	403.28
413.234	423.76
413.443	540.49
413.651	485.2
413.86	532.3
414.068	581.45
414.276	567.12
414.485	632.65
414.693	651.08
414.901	640.84
415.11	679.75
415.318	657.23
415.526	753.48
415.734	663.37
415.943	753.48
416.151	831.3
416.359	753.48
416.567	829.26
416.776	839.5
416.984	925.51
417.192	989
417.4	902.98
417.608	960.33
417.817	880.46
418.025	1005.38
418.233	1212.23
418.441	1042.25
418.649	1079.11
418.857	1269.57
419.065	1232.71
419.273	1169.22
419.481	1294.15
419.689	1294.15
419.897	1376.06
420.105	1353.54
420.313	1484.61
420.521	1515.33
420.729	1423.17
420.937	1593.15
421.145	1625.92
421.353	1673.02
421.561	1763.13
421.769	1785.66
421.977	1916.73
422.185	1904.44
422.393	1978.17
422.601	2129.72
422.809	2088.76
423.017	2146.1
423.224	2287.41
423.432	2328.37
423.64	2283.31
423.848	2484.02
424.056	2459.44
424.263	2610.99
424.471	2613.04
424.679	2645.8
424.887	2809.64
425.094	2963.24
425.302	2840.36
425.51	2944.81
425.718	3157.8
425.925	3139.37
426.133	3295.01
426.341	3583.77
426.548	3514.14
426.756	3665.69
426.964	3723.04
427.171	3899.16
427.379	3970.84
427.586	4015.9
427.794	4214.55
428.001	4474.64
428.209	4472.59
428.417	4425.49
428.624	4654.86
428.832	4759.31
429.039	4931.34
429.247	4759.31
429.454	5179.14
429.662	5482.24
429.869	5175.05
430.076	5625.6
430.284	5515.01
430.491	5660.41
430.699	5965.56
430.906	5965.56
431.114	6049.53
431.321	6323.96
431.528	6278.9
431.736	6731.5
431.943	7102.18
432.15	6850.28
432.358	7018.22
432.565	7419.62
432.772	7507.68
432.979	7675.62
433.187	7880.41
433.394	7874.27
433.601	8546
433.808	8535.76
434.016	8335.06
434.223	8777.42
434.43	9236.17
434.637	9201.35
434.844	9549.51
435.052	9887.42
435.259	9684.67
435.466	9690.82
435.673	9707.2
435.88	10370.74
436.087	10989.23
436.294	10923.69
436.501	10796.72
436.708	11022
436.915	11386.54
437.122	11640.48
437.329	11724.45
437.537	12060.32
437.743	12197.53
437.95	12250.78
438.157	12732.05
438.364	13311.63
438.571	13080.21
438.778	13303.43
438.985	14425.72
439.192	14073.47
439.399	14308.99
439.606	13883.01
439.813	14943.86
440.02	15763.04
440.227	15681.13
440.433	15461.99
440.64	15793.76
440.847	15615.59
441.054	16033.38
441.261	17237.58
441.467	17096.27
441.674	17356.36
441.881	18058.82
442.088	17833.54
442.294	17645.13
442.501	18423.36
442.708	18325.05
442.914	19162.67
443.121	20012.58
443.328	19336.75
443.534	20690.46
443.741	20315.68
443.948	20008.48
444.154	21380.62
444.361	21052.95
444.568	21089.81
444.774	21573.13
444.981	21751.31
445.187	22326.78
445.394	23207.41
445.6	23096.82
445.807	24821.21
446.013	23866.86
446.22	24595.93
446.426	25300.44
446.633	25767.37
446.839	26420.67
447.046	25542.1
447.252	26660.29
447.459	26715.58
447.665	26838.46
447.871	28067.24
448.078	29001.11
448.284	27780.53
448.491	28327.33
448.697	29644.18
448.903	30324.1
449.11	30242.18
449.316	29533.59
449.522	30512.52
449.728	30967.16
449.935	31110.52
450.141	31542.64
450.347	31946.09
450.553	31094.14
450.76	31214.97
450.966	32869.73
451.172	32161.13
451.378	32830.82
451.584	32347.5
451.791	33072.48
451.997	33025.37
452.203	33776.98
452.409	33838.42
452.615	33400.15
452.821	32073.07
453.027	31593.84
453.233	33758.55
453.44	32445.8
453.646	32746.85
453.852	33273.18
454.058	33443.16
454.264	32470.37
454.47	32935.26
454.676	32617.83
454.882	33467.73
455.088	30432.64
455.294	31124.86
455.5	31788.4
455.705	32189.8
455.911	30328.2
456.117	29957.52
456.323	29377.94
456.529	27895.21
456.735	29109.66
456.941	28757.41
457.147	27983.27
457.352	27590.06
457.558	27063.74
457.764	27028.92
457.97	26660.29
458.176	25959.88
458.381	26072.52
458.587	24915.42
458.793	24911.32
458.999	23506.41
459.204	25464.27
459.41	24473.06
459.616	22842.87
459.821	22836.73
460.027	22875.64
460.233	22345.22
460.438	21259.79
460.644	21634.57
460.85	20610.59
461.055	20454.94
461.261	20014.63
461.466	18443.84
461.672	18171.46
461.878	19271.22
462.083	17999.43
462.289	17720.9
462.494	17716.81
462.7	16682.58
462.905	16303.71
463.111	17165.9
463.316	16762.45
463.522	16705.11
463.727	16834.13
463.932	16148.06
464.138	16293.47
464.343	16647.77
464.549	16049.76
464.754	16635.48
464.959	16490.07
465.165	16105.06
465.37	15619.69
465.575	15369.83
465.781	15855.2
465.986	16057.95
466.191	15242.86
466.397	14958.19
466.602	14509.69
466.807	15021.68
467.012	14786.16
467.218	14661.24
467.423	14624.37
467.628	14540.41
467.833	15212.14
