Data from USB4F104151__205__14-20-39-443.txt Node

Date: Thu Mar 13 14:20:39 EDT 2025
User: louis
Spectrometer: USB4F10415
Trigger mode: 4
Integration Time (sec): 2.000000E-2
Scans to average: 1
Electric dark correction enabled: true
Nonlinearity correction enabled: false
Boxcar width: 0
XAxis mode: Wavelengths
Number of Pixels in Spectrum: 3648
>>>>>Begin Spectral Data<<<<<
178.204	-133.12
178.424	-133.12
178.644	-133.12
178.864	-129.02
179.084	-59.39
179.304	-55.3
179.524	16.38
179.744	-4.1
179.964	65.54
180.184	-6.14
180.404	49.15
180.624	16.38
180.844	-24.58
181.064	0
181.283	-8.19
181.503	-49.15
181.723	0
181.943	-67.58
182.163	38.91
182.383	-36.86
182.602	43.01
182.822	4.1
183.042	65.54
183.262	-51.2
183.482	92.16
183.701	12.29
183.921	-28.67
184.141	-20.48
184.361	149.5
184.58	20.48
184.8	-38.91
185.02	26.62
185.239	65.54
185.459	106.49
185.679	-38.91
185.898	18.43
186.118	65.54
186.338	32.77
186.557	124.93
186.777	40.96
186.997	94.21
187.216	51.2
187.436	88.06
187.655	0
187.875	73.73
188.095	65.54
188.314	57.34
188.534	57.34
188.753	65.54
188.973	102.4
189.192	73.73
189.412	-32.77
189.631	38.91
189.851	106.49
190.07	104.45
190.29	40.96
190.509	34.82
190.729	-55.3
190.948	12.29
191.168	100.35
191.387	43.01
191.607	8.19
191.826	71.68
192.045	43.01
192.265	71.68
192.484	4.1
192.704	32.77
192.923	40.96
193.142	57.34
193.362	75.77
193.581	43.01
193.8	51.2
194.02	61.44
194.239	55.3
194.458	2.05
194.678	53.25
194.897	0
195.116	2.05
195.335	116.73
195.555	77.82
195.774	-8.19
195.993	75.77
196.212	77.82
196.432	43.01
196.651	10.24
196.87	-16.38
197.089	96.25
197.308	49.15
197.528	24.58
197.747	40.96
197.966	131.07
198.185	83.97
198.404	18.43
198.623	10.24
198.842	149.5
199.062	24.58
199.281	122.88
199.5	38.91
199.719	0
199.938	36.86
200.157	40.96
200.376	67.58
200.595	90.11
200.814	55.3
201.033	40.96
201.252	90.11
201.471	40.96
201.69	59.39
201.909	133.12
202.128	79.87
202.347	20.48
202.566	94.21
202.785	-16.38
203.004	63.49
203.223	172.03
203.442	65.54
203.661	-16.38
203.879	20.48
204.098	38.91
204.317	43.01
204.536	83.97
204.755	40.96
204.974	73.73
205.193	40.96
205.411	36.86
205.63	61.44
205.849	28.67
206.068	30.72
206.287	57.34
206.505	12.29
206.724	53.25
206.943	59.39
207.162	16.38
207.381	-2.05
207.599	38.91
207.818	-12.29
208.037	40.96
208.255	8.19
208.474	0
208.693	-8.19
208.911	49.15
209.13	114.69
209.349	57.34
209.567	53.25
209.786	73.73
210.005	24.58
210.223	0
210.442	26.62
210.661	32.77
210.879	59.39
211.098	53.25
211.316	16.38
211.535	79.87
211.753	47.1
211.972	-6.14
212.191	16.38
212.409	24.58
212.628	67.58
212.846	16.38
213.065	73.73
213.283	88.06
213.502	-12.29
213.72	63.49
213.938	65.54
214.157	49.15
214.375	75.77
214.594	28.67
214.812	49.15
215.031	65.54
215.249	22.53
215.467	8.19
215.686	2.05
215.904	40.96
216.122	-16.38
216.341	49.15
216.559	77.82
216.778	47.1
216.996	32.77
217.214	-16.38
217.432	26.62
217.651	-26.62
217.869	32.77
218.087	0
218.306	59.39
218.524	0
218.742	-10.24
218.96	73.73
219.179	0
219.397	61.44
219.615	114.69
219.833	73.73
220.051	92.16
220.27	65.54
220.488	51.2
220.706	57.34
220.924	12.29
221.142	-26.62
221.36	65.54
221.578	28.67
221.796	0
222.015	32.77
222.233	24.58
222.451	100.35
222.669	14.34
222.887	96.25
223.105	71.68
223.323	106.49
223.541	69.63
223.759	53.25
223.977	0
224.195	88.06
224.413	22.53
224.631	122.88
224.849	2.05
225.067	53.25
225.285	65.54
225.503	20.48
225.721	16.38
225.939	18.43
226.157	38.91
226.375	102.4
226.592	0
226.81	34.82
227.028	22.53
227.246	90.11
227.464	51.2
227.682	53.25
227.9	67.58
228.117	61.44
228.335	49.15
228.553	71.68
228.771	47.1
228.989	67.58
229.206	86.01
229.424	43.01
229.642	24.58
229.86	61.44
230.077	73.73
230.295	57.34
230.513	63.49
230.731	12.29
230.948	61.44
231.166	94.21
231.384	65.54
231.601	57.34
231.819	86.01
232.037	75.77
232.254	34.82
232.472	34.82
232.689	36.86
232.907	114.69
233.125	36.86
233.342	77.82
233.56	20.48
233.777	2.05
233.995	96.25
234.213	59.39
234.43	10.24
234.648	24.58
234.865	75.77
235.083	75.77
235.3	10.24
235.518	98.3
235.735	114.69
235.953	34.82
236.17	-24.58
236.388	49.15
236.605	-16.38
236.822	90.11
237.04	40.96
237.257	45.06
237.475	40.96
237.692	30.72
237.909	43.01
238.127	36.86
238.344	77.82
238.562	92.16
238.779	36.86
238.996	94.21
239.214	32.77
239.431	108.54
239.648	45.06
239.865	38.91
240.083	106.49
240.3	102.4
240.517	4.1
240.735	49.15
240.952	75.77
241.169	57.34
241.386	-6.14
241.603	57.34
241.821	0
242.038	34.82
242.255	32.77
242.472	10.24
242.689	77.82
242.907	59.39
243.124	-6.14
243.341	32.77
243.558	-8.19
243.775	92.16
243.992	-63.49
244.209	-6.14
244.426	55.3
244.643	116.73
244.86	40.96
245.078	10.24
245.295	30.72
245.512	40.96
245.729	94.21
245.946	69.63
246.163	69.63
246.38	86.01
246.597	81.92
246.814	-14.34
247.031	98.3
247.248	61.44
247.464	49.15
247.681	49.15
247.898	49.15
248.115	45.06
248.332	67.58
248.549	65.54
248.766	92.16
248.983	139.26
249.2	18.43
249.417	4.1
249.633	-75.77
249.85	116.73
250.067	-40.96
250.284	122.88
250.501	137.21
250.717	24.58
250.934	40.96
251.151	36.86
251.368	28.67
251.585	32.77
251.801	59.39
252.018	53.25
252.235	122.88
252.451	67.58
252.668	18.43
252.885	61.44
253.102	16.38
253.318	22.53
253.535	-4.1
253.752	-8.19
253.968	77.82
254.185	-26.62
254.401	16.38
254.618	65.54
254.835	0
255.051	120.83
255.268	139.26
255.484	69.63
255.701	8.19
255.917	51.2
256.134	-36.86
256.351	51.2
256.567	133.12
256.784	22.53
257	34.82
257.217	124.93
257.433	-30.72
257.65	83.97
257.866	-8.19
258.082	12.29
258.299	71.68
258.515	14.34
258.732	-14.34
258.948	16.38
259.165	26.62
259.381	45.06
259.597	20.48
259.814	73.73
260.03	63.49
260.246	102.4
260.463	38.91
260.679	65.54
260.895	67.58
261.112	26.62
261.328	28.67
261.544	45.06
261.761	69.63
261.977	45.06
262.193	49.15
262.409	69.63
262.626	30.72
262.842	124.93
263.058	-24.58
263.274	51.2
263.49	4.1
263.707	24.58
263.923	131.07
264.139	53.25
264.355	32.77
264.571	131.07
264.787	-55.3
265.004	43.01
265.22	102.4
265.436	40.96
265.652	81.92
265.868	92.16
266.084	-8.19
266.3	45.06
266.516	59.39
266.732	22.53
266.948	26.62
267.164	47.1
267.38	45.06
267.596	63.49
267.812	32.77
268.028	59.39
268.244	65.54
268.46	116.73
268.676	81.92
268.892	59.39
269.108	73.73
269.324	49.15
269.54	16.38
269.756	77.82
269.972	26.62
270.188	67.58
270.403	28.67
270.619	10.24
270.835	57.34
271.051	43.01
271.267	71.68
271.483	102.4
271.698	2.05
271.914	10.24
272.13	-4.1
272.346	10.24
272.562	81.92
272.777	114.69
272.993	-4.1
273.209	34.82
273.425	10.24
273.64	-4.1
273.856	81.92
274.072	51.2
274.287	24.58
274.503	51.2
274.719	59.39
274.934	24.58
275.15	8.19
275.366	96.25
275.581	-24.58
275.797	36.86
276.012	51.2
276.228	10.24
276.444	149.5
276.659	108.54
276.875	61.44
277.09	36.86
277.306	106.49
277.521	96.25
277.737	-14.34
277.952	75.77
278.168	118.78
278.383	75.77
278.599	18.43
278.814	120.83
279.03	122.88
279.245	65.54
279.461	57.34
279.676	-4.1
279.892	-53.25
280.107	-4.1
280.322	-2.05
280.538	75.77
280.753	-32.77
280.969	122.88
281.184	43.01
281.399	77.82
281.615	40.96
281.83	65.54
282.045	0
282.26	61.44
282.476	65.54
282.691	53.25
282.906	114.69
283.122	124.93
283.337	4.1
283.552	81.92
283.767	40.96
283.983	73.73
284.198	92.16
284.413	18.43
284.628	22.53
284.843	43.01
285.058	55.3
285.274	57.34
285.489	-55.3
285.704	4.1
285.919	75.77
286.134	0
286.349	59.39
286.564	106.49
286.779	98.3
286.995	6.14
287.21	114.69
287.425	34.82
287.64	24.58
287.855	18.43
288.07	49.15
288.285	122.88
288.5	120.83
288.715	114.69
288.93	-8.19
289.145	2.05
289.36	155.65
289.575	49.15
289.79	81.92
290.004	45.06
290.219	57.34
290.434	129.02
290.649	16.38
290.864	43.01
291.079	-65.53
291.294	28.67
291.509	131.07
291.724	-14.34
291.938	-2.05
292.153	55.3
292.368	24.58
292.583	51.2
292.798	38.91
293.012	43.01
293.227	75.77
293.442	53.25
293.657	86.01
293.871	18.43
294.086	10.24
294.301	108.54
294.516	133.12
294.73	30.72
294.945	65.54
295.16	86.01
295.374	86.01
295.589	92.16
295.804	43.01
296.018	61.44
296.233	12.29
296.447	108.54
296.662	14.34
296.877	102.4
297.091	4.1
297.306	-2.05
297.52	-6.14
297.735	61.44
297.949	57.34
298.164	104.45
298.378	81.92
298.593	114.69
298.807	6.14
299.022	57.34
299.236	79.87
299.451	18.43
299.665	81.92
299.88	69.63
300.094	16.38
300.309	79.87
300.523	92.16
300.737	67.58
300.952	65.54
301.166	114.69
301.381	86.01
301.595	-24.58
301.809	92.16
302.024	65.54
302.238	57.34
302.452	98.3
302.667	81.92
302.881	114.69
303.095	90.11
303.309	67.58
303.524	24.58
303.738	28.67
303.952	55.3
304.166	112.64
304.381	-18.43
304.595	43.01
304.809	40.96
305.023	40.96
305.237	2.05
305.452	-24.58
305.666	32.77
305.88	135.17
306.094	-6.14
306.308	59.39
306.522	32.77
306.736	77.82
306.95	69.63
307.164	8.19
307.379	77.82
307.593	4.1
307.807	45.06
308.021	96.25
308.235	53.25
308.449	40.96
308.663	36.86
308.877	131.07
309.091	8.19
309.305	131.07
309.519	90.11
309.733	81.92
309.947	0
310.161	24.58
310.374	49.15
310.588	16.38
310.802	45.06
311.016	26.62
311.23	102.4
311.444	65.54
311.658	77.82
311.872	124.93
312.085	71.68
312.299	69.63
312.513	77.82
312.727	126.97
312.941	53.25
313.154	114.69
313.368	32.77
313.582	47.1
313.796	8.19
314.009	122.88
314.223	96.25
314.437	55.3
314.651	65.54
314.864	16.38
315.078	118.78
315.292	16.38
315.505	-8.19
315.719	53.25
315.933	81.92
316.146	20.48
316.36	118.78
316.573	96.25
316.787	112.64
317.001	73.73
317.214	-8.19
317.428	14.34
317.641	51.2
317.855	102.4
318.068	67.58
318.282	90.11
318.495	30.72
318.709	79.87
318.922	43.01
319.136	131.07
319.349	34.82
319.563	32.77
319.776	14.34
319.99	-24.58
320.203	16.38
320.417	147.45
320.63	16.38
320.843	73.73
321.057	118.78
321.27	92.16
321.483	135.17
321.697	92.16
321.91	98.3
322.124	57.34
322.337	18.43
322.55	65.54
322.763	24.58
322.977	67.58
323.19	24.58
323.403	135.17
323.617	34.82
323.83	118.78
324.043	-10.24
324.256	98.3
324.469	36.86
324.683	73.73
324.896	65.54
325.109	69.63
325.322	22.53
325.535	69.63
325.748	104.45
325.962	18.43
326.175	16.38
326.388	12.29
326.601	149.5
326.814	36.86
327.027	133.12
327.24	180.22
327.453	-57.34
327.666	14.34
327.879	36.86
328.092	61.44
328.305	81.92
328.518	57.34
328.731	47.1
328.944	81.92
329.157	67.58
329.37	83.97
329.583	133.12
329.796	106.49
330.009	36.86
330.222	20.48
330.435	81.92
330.648	106.49
330.861	-14.34
331.073	88.06
331.286	102.4
331.499	67.58
331.712	18.43
331.925	106.49
332.138	77.82
332.35	4.1
332.563	-4.1
332.776	98.3
332.989	79.87
333.202	55.3
333.414	-32.77
333.627	-10.24
333.84	28.67
334.053	57.34
334.265	73.73
334.478	-4.1
334.691	88.06
334.903	63.49
335.116	114.69
335.329	26.62
335.541	116.73
335.754	106.49
335.966	79.87
336.179	57.34
336.392	102.4
336.604	100.35
336.817	34.82
337.029	2.05
337.242	-4.1
337.454	59.39
337.667	75.77
337.88	122.88
338.092	55.3
338.305	69.63
338.517	77.82
338.729	16.38
338.942	65.54
339.154	86.01
339.367	4.1
339.579	120.83
339.792	90.11
340.004	69.63
340.217	114.69
340.429	163.84
340.641	12.29
340.854	49.15
341.066	67.58
341.278	83.97
341.491	133.12
341.703	65.54
341.915	36.86
342.128	10.24
342.34	112.64
342.552	16.38
342.764	71.68
342.977	104.45
343.189	63.49
343.401	161.79
343.613	57.34
343.826	2.05
344.038	92.16
344.25	49.15
344.462	79.87
344.674	114.69
344.886	94.21
345.099	116.73
345.311	-6.14
345.523	8.19
345.735	-30.72
345.947	49.15
346.159	28.67
346.371	57.34
346.583	59.39
346.795	126.97
347.007	98.3
347.219	106.49
347.431	124.93
347.643	26.62
347.855	6.14
348.067	108.54
348.279	131.07
348.491	75.77
348.703	83.97
348.915	49.15
349.127	45.06
349.339	8.19
349.551	69.63
349.763	83.97
349.975	40.96
350.187	2.05
350.399	59.39
350.61	45.06
350.822	88.06
351.034	77.82
351.246	81.92
351.458	51.2
351.669	22.53
351.881	188.41
352.093	63.49
352.305	16.38
352.517	8.19
352.728	57.34
352.94	124.93
353.152	108.54
353.363	77.82
353.575	116.73
353.787	75.77
353.999	61.44
354.21	114.69
354.422	59.39
354.633	112.64
354.845	40.96
355.057	40.96
355.268	75.77
355.48	67.58
355.692	47.1
355.903	67.58
356.115	18.43
356.326	40.96
356.538	106.49
356.749	28.67
356.961	124.93
357.172	77.82
357.384	40.96
357.595	106.49
357.807	24.58
358.018	43.01
358.23	75.77
358.441	106.49
358.653	75.77
358.864	20.48
359.075	63.49
359.287	106.49
359.498	73.73
359.709	45.06
359.921	90.11
360.132	49.15
360.344	61.44
360.555	63.49
360.766	186.37
360.977	88.06
361.189	98.3
361.4	114.69
361.611	57.34
361.823	67.58
362.034	81.92
362.245	-28.67
362.456	81.92
362.667	90.11
362.879	49.15
363.09	88.06
363.301	98.3
363.512	32.77
363.723	8.19
363.935	34.82
364.146	108.54
364.357	75.77
364.568	100.35
364.779	55.3
364.99	88.06
365.201	36.86
365.412	108.54
365.623	2.05
365.834	118.78
366.045	73.73
366.256	90.11
366.467	92.16
366.678	118.78
366.889	114.69
367.1	12.29
367.311	75.77
367.522	90.11
367.733	61.44
367.944	69.63
368.155	28.67
368.366	69.63
368.577	147.45
368.788	43.01
368.999	77.82
369.209	94.21
369.42	122.88
369.631	96.25
369.842	98.3
370.053	114.69
370.264	100.35
370.474	73.73
370.685	-10.24
370.896	49.15
371.107	108.54
371.317	98.3
371.528	32.77
371.739	145.41
371.95	116.73
372.16	126.97
372.371	61.44
372.582	106.49
372.792	79.87
373.003	135.17
373.214	67.58
373.424	122.88
373.635	53.25
373.846	100.35
374.056	73.73
374.267	67.58
374.477	86.01
374.688	12.29
374.898	51.2
375.109	36.86
375.319	88.06
375.53	53.25
375.74	131.07
375.951	65.54
376.161	143.36
376.372	20.48
376.582	38.91
376.793	38.91
377.003	57.34
377.214	65.54
377.424	65.54
377.635	143.36
377.845	59.39
378.055	67.58
378.266	57.34
378.476	94.21
378.686	59.39
378.897	114.69
379.107	77.82
379.317	67.58
379.528	90.11
379.738	40.96
379.948	32.77
380.158	153.6
380.369	45.06
380.579	141.31
380.789	98.3
380.999	116.73
381.21	81.92
381.42	65.54
381.63	49.15
381.84	155.65
382.05	55.3
382.261	155.65
382.471	106.49
382.681	61.44
382.891	147.45
383.101	135.17
383.311	45.06
383.521	73.73
383.731	81.92
383.941	81.92
384.151	40.96
384.361	94.21
384.571	45.06
384.781	40.96
384.991	65.54
385.201	110.59
385.411	110.59
385.621	61.44
385.831	75.77
386.041	147.45
386.251	65.54
386.461	90.11
386.671	106.49
386.881	65.54
387.091	100.35
387.301	92.16
387.511	53.25
387.72	75.77
387.93	122.88
388.14	135.17
388.35	18.43
388.56	180.22
388.769	45.06
388.979	57.34
389.189	102.4
389.399	38.91
389.609	47.1
389.818	40.96
390.028	40.96
390.238	114.69
390.447	61.44
390.657	110.59
390.867	96.25
391.076	69.63
391.286	149.5
391.496	88.06
391.705	67.58
391.915	139.26
392.125	98.3
392.334	106.49
392.544	122.88
392.753	83.97
392.963	45.06
393.172	139.26
393.382	30.72
393.591	147.45
393.801	98.3
394.01	159.74
394.22	90.11
394.429	59.39
394.639	104.45
394.848	100.35
395.058	73.73
395.267	43.01
395.477	77.82
395.686	100.35
395.895	176.13
396.105	192.51
396.314	108.54
396.524	81.92
396.733	147.45
396.942	129.02
397.152	206.84
397.361	137.21
397.57	102.4
397.78	139.26
397.989	133.12
398.198	147.45
398.407	131.07
398.617	223.23
398.826	131.07
399.035	65.54
399.244	157.69
399.453	194.56
399.663	118.78
399.872	204.8
400.081	118.78
400.29	159.74
400.499	223.23
400.708	215.04
400.917	120.83
401.127	174.08
401.336	212.99
401.545	262.14
401.754	245.76
401.963	151.55
402.172	145.41
402.381	100.35
402.59	151.55
402.799	120.83
403.008	167.93
403.217	198.65
403.426	129.02
403.635	159.74
403.844	206.84
404.053	147.45
404.262	172.03
404.471	274.43
404.68	155.65
404.888	256
405.097	204.8
405.306	206.84
405.515	229.37
405.724	208.89
405.933	229.37
406.142	247.8
406.35	206.84
406.559	247.8
406.768	264.19
406.977	282.62
407.185	280.57
407.394	208.89
407.603	256
407.812	356.35
408.02	354.3
408.229	319.48
408.438	358.39
408.646	274.43
408.855	352.25
409.064	364.54
409.272	272.38
409.481	376.83
409.69	331.77
409.898	397.31
410.107	372.73
410.315	450.55
410.524	387.07
410.733	468.98
410.941	446.46
411.15	516.09
411.358	591.86
411.567	499.7
411.775	534.52
411.984	514.04
412.192	485.37
412.401	542.71
412.609	675.83
412.818	544.76
413.026	657.4
413.234	661.49
413.443	761.84
413.651	712.69
413.86	770.04
414.068	823.28
414.276	882.67
414.485	808.95
414.693	901.11
414.901	966.64
415.11	851.96
415.318	886.77
415.526	946.16
415.734	1030.13
415.943	1050.61
416.151	1118.19
416.359	1093.62
416.567	1142.77
416.776	1200.11
416.984	1236.97
417.192	1239.02
417.4	1261.55
417.608	1343.47
417.817	1400.81
418.025	1482.73
418.233	1533.93
418.441	1591.27
418.649	1568.74
418.857	1665
419.065	1787.88
419.273	1679.33
419.481	1843.17
419.689	1859.56
419.897	2093.02
420.105	2078.69
420.313	2047.97
420.521	2115.55
420.729	2050.02
420.937	2197.47
421.145	2334.68
421.353	2383.84
421.561	2490.33
421.769	2613.21
421.977	2633.69
422.185	2678.74
422.393	2846.68
422.601	2953.17
422.809	3045.33
423.017	2918.36
423.224	3162.06
423.432	3262.41
423.64	3330
423.848	3481.55
424.056	3334.09
424.263	3784.65
424.471	3788.74
424.679	3719.11
424.887	3923.91
425.094	3913.67
425.302	4218.82
425.51	4259.78
425.718	4270.01
425.925	4415.42
426.133	4695.99
426.341	4888.5
426.548	5210.03
426.756	5046.2
426.964	4972.47
427.171	5463.98
427.379	5615.53
427.586	5654.44
427.794	5859.24
428.001	6059.94
428.209	6504.35
428.417	6305.7
428.624	6645.66
428.832	6705.05
429.039	6608.8
429.247	6719.39
429.454	7286.67
429.662	7663.5
429.869	7188.37
430.076	7978.89
430.284	7368.59
430.491	7972.74
430.699	8265.6
430.906	8576.89
431.114	8441.73
431.321	8843.13
431.528	8929.14
431.736	9473.9
431.943	10151.78
432.15	9643.88
432.358	9817.96
432.565	10446.69
432.772	10233.7
432.979	10741.6
433.187	11059.03
433.394	10821.47
433.601	11829.07
433.808	12003.14
434.016	11800.4
434.223	12248.9
434.43	12965.69
434.637	12726.08
434.844	13631.28
435.052	13811.5
435.259	13633.33
435.466	13674.29
435.673	13705.01
435.88	14448.42
436.087	15335.19
436.294	15077.15
436.501	14679.84
436.708	15216.41
436.915	15757.07
437.122	16348.93
437.329	16260.87
437.537	16854.78
437.743	17280.76
437.95	16834.3
438.157	17792.75
438.364	18527.97
438.571	18282.22
438.778	18517.73
438.985	20119.24
439.192	19408.6
439.399	20201.16
439.606	19617.49
439.813	20709.06
440.02	21812.92
440.227	21665.46
440.433	21565.11
440.64	21956.27
440.847	21894.83
441.054	22589.1
441.261	23735.96
441.467	23586.46
441.674	24047.25
441.881	24931.97
442.088	24632.97
442.294	24530.57
442.501	25480.83
442.708	25749.11
442.914	26820.2
443.121	27969.11
443.328	27442.78
443.534	28919.37
443.741	28077.65
443.948	27930.2
444.154	30146.1
444.361	29865.53
444.568	30281.27
444.774	29822.52
444.981	30387.76
445.187	31319.59
445.394	32402.96
445.6	31704.6
445.807	34858.48
446.013	33521.15
446.22	34082.3
446.426	34942.44
446.633	35706.34
446.839	36875.73
447.046	35268.07
447.252	36949.45
447.459	37340.61
447.665	37180.87
447.871	38786.48
448.078	40191.39
448.284	38241.72
448.491	39333.29
448.697	41008.53
448.903	41962.88
449.11	41395.59
449.316	41536.9
449.522	41307.53
449.728	42669.43
449.935	42952.05
450.141	43107.69
450.347	43908.45
450.553	42552.69
450.76	43138.41
450.966	44328.28
451.172	43924.83
451.378	45393.23
451.584	44479.83
451.791	45747.53
451.997	45106.51
452.203	45972.8
452.409	46101.82
452.615	45980.99
452.821	44027.23
453.027	43597.16
453.233	45847.88
453.44	44066.14
453.646	44723.54
453.852	44807.51
454.058	45651.27
454.264	44139.87
454.47	45612.36
454.676	43761
454.882	45593.93
455.088	41409.93
455.294	42182.01
455.5	42974.58
455.705	43036.02
455.911	41514.37
456.117	40617.36
456.323	40340.89
456.529	38331.83
456.735	40226.2
456.941	39253.42
457.147	38360.5
457.352	37168.58
457.558	36818.38
457.764	36937.16
457.97	35978.71
458.176	35182.06
458.381	35317.22
458.587	33703.42
458.793	33861.12
458.999	32237.08
459.204	34125.3
459.41	33312.26
459.616	30983.72
459.821	31430.18
460.027	30942.76
460.233	30658.09
460.438	29216.32
460.644	29281.86
460.85	27870.81
461.055	27598.43
461.261	27512.41
461.466	25536.12
461.672	24747.65
461.878	26564.2
462.083	24665.74
462.289	24313.49
462.494	23936.66
462.7	23090.85
462.905	22437.55
463.111	23643.8
463.316	23201.44
463.522	22697.64
463.727	22472.36
463.932	22636.2
464.138	22435.5
464.343	22533.8
464.549	21962.42
464.754	22406.83
464.959	22378.15
465.165	22054.58
465.37	21499.58
465.575	20831.94
465.781	21513.91
465.986	21569.21
466.191	20715.2
466.397	20518.6
466.602	19556.05
466.807	20020.94
467.012	20121.29
467.218	20160.2
