Data from USB4F104151__51__14-17-00-002.txt Node

Date: Thu Mar 13 14:17:00 EDT 2025
User: louis
Spectrometer: USB4F10415
Trigger mode: 4
Integration Time (sec): 2.000000E-2
Scans to average: 1
Electric dark correction enabled: true
Nonlinearity correction enabled: false
Boxcar width: 0
XAxis mode: Wavelengths
Number of Pixels in Spectrum: 3648
>>>>>Begin Spectral Data<<<<<
178.204	-64
178.424	-64
178.644	-64
178.864	-33.28
179.084	-135.68
179.304	-12.8
179.524	44.54
179.744	-2.56
179.964	3.58
180.184	30.21
180.404	30.21
180.624	46.59
180.844	-37.38
181.064	-59.9
181.283	38.4
181.503	-51.71
181.723	-29.18
181.943	-20.99
182.163	77.31
182.383	-8.7
182.602	60.93
182.822	5.63
183.042	46.59
183.262	24.06
183.482	46.59
183.701	-23.04
183.921	-53.76
184.141	-59.9
184.361	-12.8
184.58	15.87
184.8	-20.99
185.02	28.16
185.239	69.12
185.459	-2.56
185.679	85.5
185.898	-8.7
186.118	56.83
186.338	11.78
186.557	42.5
186.777	3.58
186.997	73.21
187.216	26.11
187.436	60.93
187.655	38.4
187.875	62.98
188.095	-53.76
188.314	24.06
188.534	77.31
188.753	-20.99
188.973	7.68
189.192	79.36
189.412	11.78
189.631	56.83
189.851	30.21
190.07	-2.56
190.29	-4.61
190.509	69.12
190.729	24.06
190.948	38.4
191.168	126.46
191.387	93.69
191.607	15.87
191.826	83.45
192.045	22.02
192.265	50.69
192.484	11.78
192.704	42.5
192.923	69.12
193.142	81.41
193.362	9.73
193.581	7.68
193.8	95.74
194.02	58.88
194.239	-2.56
194.458	-20.99
194.678	24.06
194.897	93.69
195.116	52.74
195.335	89.6
195.555	-10.75
195.774	7.68
195.993	62.98
196.212	44.54
196.432	-20.99
196.651	36.35
196.87	5.63
197.089	93.69
197.308	-6.66
197.528	134.65
197.747	36.35
197.966	32.26
198.185	87.55
198.404	5.63
198.623	1.54
198.842	28.16
199.062	130.56
199.281	151.04
199.5	87.55
199.719	105.98
199.938	24.06
200.157	1.54
200.376	30.21
200.595	99.84
200.814	118.27
201.033	36.35
201.252	79.36
201.471	67.07
201.69	65.02
201.909	75.26
202.128	97.79
202.347	28.16
202.566	48.64
202.785	-2.56
203.004	28.16
203.223	38.4
203.442	15.87
203.661	32.26
203.879	60.93
204.098	69.12
204.317	56.83
204.536	11.78
204.755	77.31
204.974	52.74
205.193	36.35
205.411	151.04
205.63	38.4
205.849	101.89
206.068	77.31
206.287	58.88
206.505	52.74
206.724	65.02
206.943	-4.61
207.162	3.58
207.381	38.4
207.599	85.5
207.818	124.41
208.037	77.31
208.255	-10.75
208.474	-25.09
208.693	40.45
208.911	17.92
209.13	93.69
209.349	87.55
209.567	26.11
209.786	36.35
210.005	85.5
210.223	36.35
210.442	-4.61
210.661	5.63
210.879	93.69
211.098	22.02
211.316	5.63
211.535	7.68
211.753	22.02
211.972	79.36
212.191	93.69
212.409	46.59
212.628	69.12
212.846	-27.14
213.065	46.59
213.283	58.88
213.502	-25.09
213.72	36.35
213.938	62.98
214.157	77.31
214.375	34.3
214.594	71.17
214.812	36.35
215.031	60.93
215.249	15.87
215.467	30.21
215.686	91.65
215.904	44.54
216.122	36.35
216.341	62.98
216.559	7.68
216.778	83.45
216.996	62.98
217.214	13.82
217.432	11.78
217.651	24.06
217.869	46.59
218.087	62.98
218.306	-14.85
218.524	44.54
218.742	24.06
218.96	34.3
219.179	30.21
219.397	-45.57
219.615	73.21
219.833	28.16
220.051	7.68
220.27	54.78
220.488	3.58
220.706	19.97
220.924	11.78
221.142	11.78
221.36	60.93
221.578	112.13
221.796	28.16
222.015	60.93
222.233	67.07
222.451	101.89
222.669	85.5
222.887	79.36
223.105	54.78
223.323	28.16
223.541	13.82
223.759	81.41
223.977	56.83
224.195	142.85
224.413	89.6
224.631	19.97
224.849	-6.66
225.067	110.08
225.285	-18.94
225.503	9.73
225.721	-12.8
225.939	48.64
226.157	24.06
226.375	60.93
226.592	11.78
226.81	54.78
227.028	24.06
227.246	69.12
227.464	19.97
227.682	54.78
227.9	13.82
228.117	-0.51
228.335	30.21
228.553	-4.61
228.771	73.21
228.989	15.87
229.206	44.54
229.424	44.54
229.642	69.12
229.86	30.21
230.077	126.46
230.295	62.98
230.513	110.08
230.731	46.59
230.948	36.35
231.166	71.17
231.384	11.78
231.601	103.93
231.819	77.31
232.037	17.92
232.254	58.88
232.472	32.26
232.689	48.64
232.907	91.65
233.125	11.78
233.342	73.21
233.56	54.78
233.777	44.54
233.995	105.98
234.213	81.41
234.43	9.73
234.648	52.74
234.865	19.97
235.083	28.16
235.3	22.02
235.518	44.54
235.735	60.93
235.953	60.93
236.17	46.59
236.388	44.54
236.605	24.06
236.822	85.5
237.04	134.65
237.257	62.98
237.475	13.82
237.692	81.41
237.909	52.74
238.127	93.69
238.344	-66.05
238.562	-2.56
238.779	77.31
238.996	-29.18
239.214	-39.42
239.431	110.08
239.648	48.64
239.865	-0.51
240.083	-31.23
240.3	28.16
240.517	-2.56
240.735	44.54
240.952	1.54
241.169	60.93
241.386	13.82
241.603	46.59
241.821	126.46
242.038	60.93
242.255	52.74
242.472	24.06
242.689	89.6
242.907	22.02
243.124	3.58
243.341	-6.66
243.558	30.21
243.775	42.5
243.992	13.82
244.209	89.6
244.426	56.83
244.643	22.02
244.86	15.87
245.078	-2.56
245.295	3.58
245.512	3.58
245.729	71.17
245.946	-29.18
246.163	54.78
246.38	87.55
246.597	-25.09
246.814	32.26
247.031	36.35
247.248	13.82
247.464	28.16
247.681	69.12
247.898	11.78
248.115	85.5
248.332	44.54
248.549	77.31
248.766	28.16
248.983	11.78
249.2	52.74
249.417	19.97
249.633	44.54
249.85	22.02
250.067	22.02
250.284	77.31
250.501	30.21
250.717	60.93
250.934	-20.99
251.151	67.07
251.368	28.16
251.585	67.07
251.801	22.02
252.018	-23.04
252.235	11.78
252.451	48.64
252.668	50.69
252.885	71.17
253.102	17.92
253.318	28.16
253.535	52.74
253.752	71.17
253.968	-20.99
254.185	65.02
254.401	-12.8
254.618	3.58
254.835	50.69
255.051	32.26
255.268	58.88
255.484	13.82
255.701	85.5
255.917	32.26
256.134	-39.42
256.351	71.17
256.567	-45.57
256.784	-8.7
257	13.82
257.217	112.13
257.433	65.02
257.65	97.79
257.866	56.83
258.082	-51.71
258.299	22.02
258.515	19.97
258.732	54.78
258.948	19.97
259.165	60.93
259.381	11.78
259.597	42.5
259.814	85.5
260.03	24.06
260.246	-78.33
260.463	95.74
260.679	95.74
260.895	77.31
261.112	60.93
261.328	19.97
261.544	26.11
261.761	105.98
261.977	54.78
262.193	-4.61
262.409	65.02
262.626	32.26
262.842	56.83
263.058	65.02
263.274	48.64
263.49	38.4
263.707	69.12
263.923	3.58
264.139	85.5
264.355	71.17
264.571	44.54
264.787	85.5
265.004	9.73
265.22	-8.7
265.436	1.54
265.652	11.78
265.868	-8.7
266.084	15.87
266.3	40.45
266.516	48.64
266.732	42.5
266.948	65.02
267.164	52.74
267.38	85.5
267.596	3.58
267.812	120.32
268.028	26.11
268.244	36.35
268.46	24.06
268.676	19.97
268.892	24.06
269.108	-2.56
269.324	-37.38
269.54	11.78
269.756	30.21
269.972	-12.8
270.188	32.26
270.403	-4.61
270.619	5.63
270.835	77.31
271.051	60.93
271.267	28.16
271.483	7.68
271.698	73.21
271.914	62.98
272.13	-10.75
272.346	46.59
272.562	-37.38
272.777	95.74
272.993	46.59
273.209	38.4
273.425	40.45
273.64	38.4
273.856	89.6
274.072	44.54
274.287	-0.51
274.503	7.68
274.719	7.68
274.934	19.97
275.15	-18.94
275.366	13.82
275.581	103.93
275.797	54.78
276.012	-20.99
276.228	44.54
276.444	-16.9
276.659	26.11
276.875	30.21
277.09	24.06
277.306	83.45
277.521	13.82
277.737	17.92
277.952	62.98
278.168	19.97
278.383	97.79
278.599	46.59
278.814	65.02
279.03	46.59
279.245	5.63
279.461	28.16
279.676	73.21
279.892	93.69
280.107	38.4
280.322	44.54
280.538	30.21
280.753	52.74
280.969	91.65
281.184	38.4
281.399	118.27
281.615	40.45
281.83	36.35
282.045	38.4
282.26	85.5
282.476	52.74
282.691	13.82
282.906	-8.7
283.122	60.93
283.337	58.88
283.552	85.5
283.767	5.63
283.983	93.69
284.198	24.06
284.413	19.97
284.628	7.68
284.843	32.26
285.058	26.11
285.274	56.83
285.489	-14.85
285.704	36.35
285.919	54.78
286.134	7.68
286.349	13.82
286.564	-4.61
286.779	69.12
286.995	60.93
287.21	9.73
287.425	-14.85
287.64	79.36
287.855	62.98
288.07	95.74
288.285	69.12
288.5	95.74
288.715	28.16
288.93	7.68
289.145	50.69
289.36	112.13
289.575	91.65
289.79	77.31
290.004	60.93
290.219	103.93
290.434	5.63
290.649	81.41
290.864	-10.75
291.079	13.82
291.294	-8.7
291.509	46.59
291.724	-66.05
291.938	36.35
292.153	103.93
292.368	-37.38
292.583	28.16
292.798	75.26
293.012	69.12
293.227	-0.51
293.442	19.97
293.657	89.6
293.871	44.54
294.086	79.36
294.301	67.07
294.516	38.4
294.73	54.78
294.945	-20.99
295.16	60.93
295.374	108.03
295.589	67.07
295.804	5.63
296.018	26.11
296.233	56.83
296.447	85.5
296.662	3.58
296.877	87.55
297.091	42.5
297.306	-0.51
297.52	-29.18
297.735	46.59
297.949	56.83
298.164	60.93
298.378	-16.9
298.593	56.83
298.807	-25.09
299.022	85.5
299.236	110.08
299.451	-8.7
299.665	7.68
299.88	38.4
300.094	67.07
300.309	81.41
300.523	93.69
300.737	71.17
300.952	7.68
301.166	-0.51
301.381	-33.28
301.595	44.54
301.809	50.69
302.024	-12.8
302.238	22.02
302.452	118.27
302.667	15.87
302.881	-0.51
303.095	73.21
303.309	93.69
303.524	-8.7
303.738	-12.8
303.952	17.92
304.166	-12.8
304.381	-39.42
304.595	1.54
304.809	-8.7
305.023	71.17
305.237	13.82
305.452	91.65
305.666	-12.8
305.88	19.97
306.094	44.54
306.308	67.07
306.522	-0.51
306.736	-0.51
306.95	19.97
307.164	5.63
307.379	44.54
307.593	28.16
307.807	-39.42
308.021	85.5
308.235	77.31
308.449	-8.7
308.663	-6.66
308.877	85.5
309.091	24.06
309.305	52.74
309.519	-35.33
309.733	60.93
309.947	-16.9
310.161	24.06
310.374	112.13
310.588	11.78
310.802	93.69
311.016	85.5
311.23	42.5
311.444	54.78
311.658	58.88
311.872	77.31
312.085	-8.7
312.299	105.98
312.513	128.51
312.727	46.59
312.941	116.22
313.154	54.78
313.368	40.45
313.582	151.04
313.796	60.93
314.009	36.35
314.223	46.59
314.437	30.21
314.651	71.17
314.864	38.4
315.078	81.41
315.292	30.21
315.505	69.12
315.719	52.74
315.933	44.54
316.146	36.35
316.36	-20.99
316.573	151.04
316.787	3.58
317.001	15.87
317.214	-47.62
317.428	95.74
317.641	22.02
317.855	114.17
318.068	15.87
318.282	97.79
318.495	38.4
318.709	128.51
318.922	22.02
319.136	69.12
319.349	52.74
319.563	36.35
319.776	144.89
319.99	-0.51
320.203	77.31
320.417	28.16
320.63	1.54
320.843	128.51
321.057	60.93
321.27	-8.7
321.483	-20.99
321.697	105.98
321.91	54.78
322.124	-0.51
322.337	-35.33
322.55	54.78
322.763	13.82
322.977	30.21
323.19	67.07
323.403	77.31
323.617	99.84
323.83	46.59
324.043	22.02
324.256	46.59
324.469	-35.33
324.683	15.87
324.896	32.26
325.109	48.64
325.322	5.63
325.535	42.5
325.748	38.4
325.962	77.31
326.175	54.78
326.388	71.17
326.601	52.74
326.814	81.41
327.027	-61.95
327.24	142.85
327.453	60.93
327.666	44.54
327.879	87.55
328.092	85.5
328.305	15.87
328.518	28.16
328.731	32.26
328.944	60.93
329.157	19.97
329.37	-2.56
329.583	40.45
329.796	15.87
330.009	52.74
330.222	71.17
330.435	75.26
330.648	87.55
330.861	44.54
331.073	60.93
331.286	89.6
331.499	22.02
331.712	3.58
331.925	-16.9
332.138	38.4
332.35	56.83
332.563	69.12
332.776	105.98
332.989	-43.52
333.202	3.58
333.414	26.11
333.627	32.26
333.84	-10.75
334.053	142.85
334.265	28.16
334.478	40.45
334.691	75.26
334.903	17.92
335.116	38.4
335.329	36.35
335.541	19.97
335.754	101.89
335.966	13.82
336.179	105.98
336.392	58.88
336.604	52.74
336.817	36.35
337.029	91.65
337.242	19.97
337.454	46.59
337.667	101.89
337.88	-6.66
338.092	60.93
338.305	62.98
338.517	15.87
338.729	13.82
338.942	36.35
339.154	-33.28
339.367	77.31
339.579	34.3
339.792	36.35
340.004	-23.04
340.217	71.17
340.429	3.58
340.641	-10.75
340.854	30.21
341.066	50.69
341.278	69.12
341.491	48.64
341.703	95.74
341.915	-6.66
342.128	91.65
342.34	36.35
342.552	30.21
342.764	13.82
342.977	36.35
343.189	38.4
343.401	24.06
343.613	56.83
343.826	54.78
344.038	22.02
344.25	97.79
344.462	22.02
344.674	44.54
344.886	26.11
345.099	83.45
345.311	19.97
345.523	48.64
345.735	-51.71
345.947	93.69
346.159	52.74
346.371	89.6
346.583	-18.94
346.795	110.08
347.007	48.64
347.219	71.17
347.431	28.16
347.643	69.12
347.855	67.07
348.067	81.41
348.279	26.11
348.491	85.5
348.703	60.93
348.915	44.54
349.127	-10.75
349.339	32.26
349.551	13.82
349.763	38.4
349.975	-2.56
350.187	73.21
350.399	54.78
350.61	87.55
350.822	19.97
351.034	-2.56
351.246	36.35
351.458	34.3
351.669	134.65
351.881	93.69
352.093	110.08
352.305	52.74
352.517	22.02
352.728	103.93
352.94	26.11
353.152	103.93
353.363	60.93
353.575	89.6
353.787	22.02
353.999	24.06
354.21	48.64
354.422	44.54
354.633	56.83
354.845	17.92
355.057	11.78
355.268	71.17
355.48	19.97
355.692	-4.61
355.903	62.98
356.115	19.97
356.326	-25.09
356.538	60.93
356.749	103.93
356.961	38.4
357.172	42.5
357.384	19.97
357.595	3.58
357.807	44.54
358.018	11.78
358.23	69.12
358.441	118.27
358.653	83.45
358.864	19.97
359.075	3.58
359.287	46.59
359.498	93.69
359.709	-16.9
359.921	122.37
360.132	22.02
360.344	15.87
360.555	-12.8
360.766	81.41
360.977	65.02
361.189	56.83
361.4	69.12
361.611	77.31
361.823	134.65
362.034	136.7
362.245	52.74
362.456	101.89
362.667	11.78
362.879	89.6
363.09	105.98
363.301	30.21
363.512	81.41
363.723	15.87
363.935	-0.51
364.146	24.06
364.357	71.17
364.568	36.35
364.779	-18.94
364.99	44.54
365.201	13.82
365.412	93.69
365.623	36.35
365.834	52.74
366.045	-39.42
366.256	60.93
366.467	7.68
366.678	11.78
366.889	38.4
367.1	11.78
367.311	-2.56
367.522	62.98
367.733	56.83
367.944	50.69
368.155	44.54
368.366	138.75
368.577	101.89
368.788	130.56
368.999	46.59
369.209	48.64
369.42	103.93
369.631	77.31
369.842	83.45
370.053	19.97
370.264	159.23
370.474	-25.09
370.685	114.17
370.896	122.37
371.107	52.74
371.317	69.12
371.528	22.02
371.739	73.21
371.95	54.78
372.16	56.83
372.371	3.58
372.582	126.46
372.792	97.79
373.003	52.74
373.214	95.74
373.424	19.97
373.635	65.02
373.846	93.69
374.056	5.63
374.267	52.74
374.477	9.73
374.688	40.45
374.898	17.92
375.109	5.63
375.319	-14.85
375.53	38.4
375.74	13.82
375.951	44.54
376.161	36.35
376.372	103.93
376.582	13.82
376.793	50.69
377.003	-25.09
377.214	40.45
377.424	105.98
377.635	52.74
377.845	7.68
378.055	69.12
378.266	91.65
378.476	26.11
378.686	75.26
378.897	79.36
379.107	87.55
379.317	1.54
379.528	30.21
379.738	58.88
379.948	101.89
380.158	71.17
380.369	83.45
380.579	52.74
380.789	13.82
380.999	105.98
381.21	128.51
381.42	151.04
381.63	40.45
381.84	54.78
382.05	36.35
382.261	85.5
382.471	-12.8
382.681	44.54
382.891	95.74
383.101	71.17
383.311	65.02
383.521	24.06
383.731	69.12
383.941	77.31
384.151	38.4
384.361	42.5
384.571	110.08
384.781	30.21
384.991	105.98
385.201	91.65
385.411	58.88
385.621	89.6
385.831	87.55
386.041	52.74
386.251	26.11
386.461	32.26
386.671	13.82
386.881	101.89
387.091	112.13
387.301	26.11
387.511	56.83
387.72	77.31
387.93	40.45
388.14	54.78
388.35	7.68
388.56	89.6
388.769	77.31
388.979	52.74
389.189	36.35
389.399	77.31
389.609	89.6
389.818	155.13
390.028	97.79
390.238	22.02
390.447	26.11
390.657	22.02
390.867	5.63
391.076	11.78
391.286	65.02
391.496	56.83
391.705	48.64
391.915	122.37
392.125	169.47
392.334	89.6
392.544	93.69
392.753	24.06
392.963	65.02
393.172	38.4
393.382	19.97
393.591	130.56
393.801	52.74
394.01	126.46
394.22	73.21
394.429	126.46
394.639	140.8
394.848	52.74
395.058	110.08
395.267	87.55
395.477	87.55
395.686	151.04
395.895	200.19
396.105	95.74
396.314	91.65
396.524	110.08
396.733	89.6
396.942	-4.61
397.152	138.75
397.361	153.09
397.57	60.93
397.78	144.89
397.989	138.75
398.198	169.47
398.407	79.36
398.617	52.74
398.826	85.5
399.035	85.5
399.244	179.71
399.453	101.89
399.663	97.79
399.872	93.69
400.081	130.56
400.29	132.61
400.499	101.89
400.708	161.28
400.917	159.23
401.127	142.85
401.336	85.5
401.545	194.05
401.754	165.37
401.963	165.37
402.172	93.69
402.381	103.93
402.59	99.84
402.799	134.65
403.008	130.56
403.217	79.36
403.426	91.65
403.635	105.98
403.844	114.17
404.053	110.08
404.262	89.6
404.471	220.67
404.68	122.37
404.888	181.76
405.097	155.13
405.306	118.27
405.515	155.13
405.724	110.08
405.933	110.08
406.142	173.57
406.35	155.13
406.559	249.34
406.768	153.09
406.977	202.24
407.185	183.81
407.394	206.33
407.603	200.19
407.812	208.38
408.02	306.68
408.229	200.19
408.438	265.72
408.646	194.05
408.855	237.05
409.064	290.3
409.272	278.01
409.481	249.34
409.69	314.88
409.898	308.73
410.107	316.92
410.315	392.7
410.524	327.16
410.733	308.73
410.941	386.55
411.15	361.98
411.358	398.84
411.567	351.74
411.775	384.51
411.984	388.6
412.192	357.88
412.401	374.27
412.609	466.42
412.818	517.62
413.026	523.77
413.234	556.54
413.443	497.14
413.651	472.57
413.86	429.56
414.068	605.69
414.276	554.49
414.485	554.49
414.693	611.83
414.901	579.06
415.11	755.19
415.318	734.71
415.526	636.41
415.734	724.47
415.943	706.04
416.151	798.2
416.359	808.44
416.567	851.44
416.776	916.98
416.984	925.17
417.192	914.93
417.4	947.7
417.608	931.31
417.817	1002.99
418.025	1023.47
418.233	1115.63
418.441	1080.82
418.649	1103.34
418.857	1201.65
419.065	1242.61
419.273	1203.69
419.481	1349.1
419.689	1332.72
419.897	1404.39
420.105	1404.39
420.313	1476.07
420.521	1523.18
420.729	1545.7
420.937	1668.58
421.145	1773.03
421.353	1770.98
421.561	1914.34
421.769	1805.8
421.977	1979.87
422.185	1943.01
422.393	2076.13
422.601	2121.18
422.809	2119.14
423.017	2196.96
423.224	2309.6
423.432	2328.03
423.64	2184.67
423.848	2510.3
424.056	2483.67
424.263	2579.93
424.471	2616.79
424.679	2760.15
424.887	2952.66
425.094	2870.74
425.302	2911.7
425.51	2995.67
425.718	3177.94
425.925	3263.95
426.133	3251.66
426.341	3405.26
426.548	3804.61
426.756	3630.54
426.964	3689.93
427.171	3763.65
427.379	4212.16
427.586	4120
427.794	4238.78
428.001	4378.05
428.209	4681.14
428.417	4492.73
428.624	4863.41
428.832	4748.73
429.039	4677.05
429.247	4715.96
429.454	5295.54
429.662	5737.9
429.869	5266.86
430.076	5729.7
430.284	5502.38
430.491	5672.36
430.699	5852.58
430.906	6077.86
431.114	6016.42
431.321	6557.08
431.528	6393.25
431.736	6704.54
431.943	7206.29
432.15	6884.76
432.358	6952.34
432.565	7409.04
432.772	7351.7
432.979	7828.87
433.187	7839.11
433.394	7941.51
433.601	8609.15
433.808	8390.02
434.016	8443.26
434.223	8703.36
434.43	9280.88
434.637	9098.61
434.844	9620.85
435.052	9815.4
435.259	9706.86
435.466	9833.83
435.673	9893.23
435.88	10321.25
436.087	11115.86
436.294	10947.93
436.501	10829.15
436.708	11023.7
436.915	11343.19
437.122	11885.9
437.329	11562.32
437.537	12168.52
437.743	12279.11
437.95	12217.67
438.157	12918.07
438.364	13305.14
438.571	13438.26
438.778	13378.87
438.985	14695.71
439.192	13819.18
439.399	14406.95
439.606	13921.58
439.813	14941.47
440.02	15992.08
440.227	15584.53
440.433	15306.01
440.64	15920.4
440.847	15662.35
441.054	16266.5
441.261	17325.3
441.467	17237.24
441.674	17476.85
441.881	17997.04
442.088	17935.6
442.294	17849.58
442.501	18240.75
442.708	18666.72
442.914	19354.84
443.121	20311.24
443.328	19811.54
443.534	21238.97
443.741	20171.98
443.948	20075.73
444.154	21542.07
444.361	21759.16
444.568	21513.4
444.774	21480.63
444.981	21810.36
445.187	22512.81
445.394	23540.89
445.6	23020.7
445.807	25226.37
446.013	24366.22
446.22	24433.8
446.426	25439.36
446.633	25633.91
446.839	26627.18
447.046	25531.51
447.252	27030.63
447.459	27206.75
447.665	27413.6
447.871	27960.41
448.078	29131.84
448.284	27958.36
448.491	28970.05
448.697	29695.03
448.903	30352.43
449.11	30286.9
449.316	29871.16
449.522	30207.03
449.728	31116.33
449.935	31456.29
450.141	31396.9
450.347	32269.33
450.553	31511.58
450.76	31448.1
450.966	32586.77
451.172	32060.44
451.378	32988.17
451.584	32449.55
451.791	32990.22
451.997	33235.97
452.203	33672.19
452.409	33426.43
452.615	33440.77
452.821	32277.52
453.027	31941.66
453.233	33670.14
453.44	32291.86
453.646	32547.86
453.852	32910.35
454.058	33588.22
454.264	32424.98
454.47	33311.75
454.676	32355.35
454.882	33555.46
455.088	30516.27
455.294	30848.04
455.5	31370.27
455.705	31869.98
455.911	30688.3
456.117	29899.83
456.323	29813.82
456.529	27913.3
456.735	29291.59
456.941	28632.14
457.147	28154.96
457.352	27442.27
457.558	26889.32
457.764	26911.85
457.97	26625.13
458.176	25869.43
458.381	25822.33
458.587	24616.07
458.793	24728.71
458.999	23483.55
459.204	25238.65
459.41	24335.5
459.616	23024.8
459.821	22750.37
460.027	22633.64
460.233	22226.09
460.438	21341.37
460.644	21447.86
460.85	20341.96
461.055	20040.91
461.261	20171.98
461.466	18752.74
461.672	17951.98
461.878	19227.87
462.083	18060.52
462.289	17720.56
462.494	17437.94
462.7	16907.52
462.905	16233.74
463.111	16618.75
463.316	16962.81
463.522	16733.44
463.727	16350.47
463.932	16542.98
464.138	16282.89
464.343	16473.35
464.549	16008.46
464.754	16620.8
464.959	16467.2
465.165	16108.81
465.37	15545.62
465.575	15000.86
465.781	15693.07
465.986	15904.01
466.191	15217.94
466.397	15351.06
466.602	13993.26
466.807	14660.9
467.012	14970.14
467.218	14798.11
467.423	14431.52
467.628	14818.59
467.833	15050.01
468.038	14572.83
