Data from USB4F104151__68__14-17-19-114.txt Node

Date: Thu Mar 13 14:17:19 EDT 2025
User: louis
Spectrometer: USB4F10415
Trigger mode: 4
Integration Time (sec): 2.000000E-2
Scans to average: 1
Electric dark correction enabled: true
Nonlinearity correction enabled: false
Boxcar width: 0
XAxis mode: Wavelengths
Number of Pixels in Spectrum: 3648
>>>>>Begin Spectral Data<<<<<
178.204	-124.24
178.424	-124.24
178.644	-124.24
178.864	-73.04
179.084	-99.67
179.304	-79.19
179.524	-13.65
179.744	53.93
179.964	29.35
180.184	-32.08
180.404	10.92
180.624	-13.65
180.844	25.26
181.064	4.78
181.283	8.87
181.503	-62.8
181.723	68.27
181.943	-64.85
182.163	41.64
182.383	15.02
182.602	76.46
182.822	66.22
183.042	47.79
183.262	12.97
183.482	43.69
183.701	25.26
183.921	-11.61
184.141	-13.65
184.361	109.23
184.58	25.26
184.8	115.37
185.02	17.07
185.239	37.55
185.459	12.97
185.679	80.55
185.898	12.97
186.118	80.55
186.338	82.6
186.557	113.32
186.777	-40.28
186.997	-3.41
187.216	49.83
187.436	78.51
187.655	74.41
187.875	78.51
188.095	-3.41
188.314	10.92
188.534	41.64
188.753	76.46
188.973	62.12
189.192	41.64
189.412	74.41
189.631	113.32
189.851	98.99
190.07	84.65
190.29	35.5
190.509	25.26
190.729	82.6
190.948	68.27
191.168	82.6
191.387	70.31
191.607	8.87
191.826	66.22
192.045	27.31
192.265	-13.65
192.484	27.31
192.704	2.73
192.923	17.07
193.142	53.93
193.362	109.23
193.581	103.08
193.8	94.89
194.02	94.89
194.239	37.55
194.458	12.97
194.678	94.89
194.897	6.83
195.116	10.92
195.335	8.87
195.555	96.94
195.774	19.11
195.993	80.55
196.212	-34.13
196.432	39.59
196.651	64.17
196.87	-3.41
197.089	111.27
197.308	35.5
197.528	10.92
197.747	76.46
197.966	51.88
198.185	133.8
198.404	-3.41
198.623	21.16
198.842	90.79
199.062	23.21
199.281	74.41
199.5	29.35
199.719	17.07
199.938	17.07
200.157	64.17
200.376	41.64
200.595	66.22
200.814	23.21
201.033	0.68
201.252	35.5
201.471	33.45
201.69	80.55
201.909	-9.56
202.128	41.64
202.347	55.98
202.566	-11.61
202.785	41.64
203.004	31.4
203.223	78.51
203.442	72.36
203.661	27.31
203.879	2.73
204.098	137.9
204.317	-7.51
204.536	64.17
204.755	76.46
204.974	62.12
205.193	51.88
205.411	103.08
205.63	55.98
205.849	82.6
206.068	49.83
206.287	-15.7
206.505	119.46
206.724	31.4
206.943	117.42
207.162	41.64
207.381	94.89
207.599	43.69
207.818	41.64
208.037	53.93
208.255	-5.46
208.474	66.22
208.693	60.07
208.911	-11.61
209.13	115.37
209.349	51.88
209.567	51.88
209.786	-7.51
210.005	23.21
210.223	101.03
210.442	127.66
210.661	139.94
210.879	27.31
211.098	12.97
211.316	-48.47
211.535	66.22
211.753	49.83
211.972	98.99
212.191	35.5
212.409	33.45
212.628	10.92
212.846	35.5
213.065	90.79
213.283	25.26
213.502	-23.89
213.72	-34.13
213.938	53.93
214.157	78.51
214.375	74.41
214.594	-11.61
214.812	47.79
215.031	49.83
215.249	27.31
215.467	0.68
215.686	21.16
215.904	101.03
216.122	92.84
216.341	113.32
216.559	47.79
216.778	-15.7
216.996	117.42
217.214	27.31
217.432	19.11
217.651	43.69
217.869	45.74
218.087	-44.37
218.306	33.45
218.524	125.61
218.742	64.17
218.96	74.41
219.179	45.74
219.397	-7.51
219.615	117.42
219.833	19.11
220.051	103.08
220.27	58.03
220.488	66.22
220.706	76.46
220.924	43.69
221.142	-1.37
221.36	43.69
221.578	43.69
221.796	58.03
222.015	78.51
222.233	33.45
222.451	33.45
222.669	-11.61
222.887	49.83
223.105	12.97
223.323	125.61
223.541	2.73
223.759	131.75
223.977	-44.37
224.195	107.18
224.413	70.31
224.631	66.22
224.849	41.64
225.067	33.45
225.285	-7.51
225.503	66.22
225.721	-40.28
225.939	29.35
226.157	74.41
226.375	150.18
226.592	-7.51
226.81	113.32
227.028	84.65
227.246	74.41
227.464	62.12
227.682	8.87
227.9	37.55
228.117	94.89
228.335	86.7
228.553	33.45
228.771	39.59
228.989	0.68
229.206	72.36
229.424	-21.84
229.642	4.78
229.86	25.26
230.077	37.55
230.295	64.17
230.513	74.41
230.731	49.83
230.948	41.64
231.166	49.83
231.384	70.31
231.601	-11.61
231.819	115.37
232.037	74.41
232.254	8.87
232.472	35.5
232.689	92.84
232.907	41.64
233.125	33.45
233.342	68.27
233.56	35.5
233.777	35.5
233.995	49.83
234.213	51.88
234.43	25.26
234.648	37.55
234.865	-15.7
235.083	2.73
235.3	21.16
235.518	47.79
235.735	90.79
235.953	119.46
236.17	33.45
236.388	62.12
236.605	29.35
236.822	92.84
237.04	123.56
237.257	70.31
237.475	0.68
237.692	51.88
237.909	144.04
238.127	60.07
238.344	0.68
238.562	35.5
238.779	19.11
238.996	-23.89
239.214	35.5
239.431	68.27
239.648	47.79
239.865	43.69
240.083	84.65
240.3	123.56
240.517	-13.65
240.735	49.83
240.952	15.02
241.169	70.31
241.386	17.07
241.603	53.93
241.821	37.55
242.038	62.12
242.255	0.68
242.472	12.97
242.689	68.27
242.907	119.46
243.124	17.07
243.341	29.35
243.558	72.36
243.775	-3.41
243.992	-56.66
244.209	-3.41
244.426	82.6
244.643	12.97
244.86	60.07
245.078	86.7
245.295	47.79
245.512	66.22
245.729	53.93
245.946	21.16
246.163	60.07
246.38	17.07
246.597	62.12
246.814	74.41
247.031	25.26
247.248	41.64
247.464	-30.04
247.681	101.03
247.898	35.5
248.115	31.4
248.332	12.97
248.549	66.22
248.766	82.6
248.983	10.92
249.2	45.74
249.417	37.55
249.633	-23.89
249.85	17.07
250.067	74.41
250.284	-13.65
250.501	21.16
250.717	49.83
250.934	35.5
251.151	68.27
251.368	94.89
251.585	74.41
251.801	51.88
252.018	25.26
252.235	12.97
252.451	43.69
252.668	37.55
252.885	131.75
253.102	68.27
253.318	82.6
253.535	-7.51
253.752	35.5
253.968	66.22
254.185	41.64
254.401	86.7
254.618	84.65
254.835	51.88
255.051	107.18
255.268	-1.37
255.484	12.97
255.701	27.31
255.917	27.31
256.134	8.87
256.351	131.75
256.567	58.03
256.784	58.03
257	29.35
257.217	78.51
257.433	62.12
257.65	27.31
257.866	27.31
258.082	17.07
258.299	47.79
258.515	58.03
258.732	17.07
258.948	66.22
259.165	29.35
259.381	94.89
259.597	66.22
259.814	17.07
260.03	35.5
260.246	60.07
260.463	76.46
260.679	47.79
260.895	35.5
261.112	68.27
261.328	25.26
261.544	-36.18
261.761	92.84
261.977	74.41
262.193	33.45
262.409	58.03
262.626	96.94
262.842	49.83
263.058	84.65
263.274	66.22
263.49	94.89
263.707	82.6
263.923	86.7
264.139	-1.37
264.355	17.07
264.571	70.31
264.787	101.03
265.004	74.41
265.22	8.87
265.436	41.64
265.652	92.84
265.868	119.46
266.084	49.83
266.3	51.88
266.516	-3.41
266.732	84.65
266.948	-34.13
267.164	41.64
267.38	17.07
267.596	53.93
267.812	60.07
268.028	66.22
268.244	86.7
268.46	41.64
268.676	2.73
268.892	51.88
269.108	43.69
269.324	49.83
269.54	-60.76
269.756	82.6
269.972	-30.04
270.188	92.84
270.403	60.07
270.619	90.79
270.835	-17.75
271.051	-11.61
271.267	-1.37
271.483	8.87
271.698	74.41
271.914	17.07
272.13	27.31
272.346	12.97
272.562	60.07
272.777	31.4
272.993	4.78
273.209	-15.7
273.425	27.31
273.64	94.89
273.856	55.98
274.072	49.83
274.287	19.11
274.503	92.84
274.719	68.27
274.934	19.11
275.15	15.02
275.366	119.46
275.581	92.84
275.797	47.79
276.012	41.64
276.228	8.87
276.444	86.7
276.659	82.6
276.875	-11.61
277.09	0.68
277.306	2.73
277.521	0.68
277.737	25.26
277.952	74.41
278.168	74.41
278.383	66.22
278.599	41.64
278.814	86.7
279.03	45.74
279.245	107.18
279.461	-9.56
279.676	55.98
279.892	-13.65
280.107	-15.7
280.322	2.73
280.538	131.75
280.753	8.87
280.969	76.46
281.184	82.6
281.399	70.31
281.615	27.31
281.83	21.16
282.045	12.97
282.26	74.41
282.476	74.41
282.691	49.83
282.906	33.45
283.122	19.11
283.337	-7.51
283.552	94.89
283.767	-15.7
283.983	82.6
284.198	19.11
284.413	82.6
284.628	-11.61
284.843	66.22
285.058	10.92
285.274	25.26
285.489	27.31
285.704	70.31
285.919	66.22
286.134	58.03
286.349	-38.23
286.564	-21.84
286.779	25.26
286.995	82.6
287.21	131.75
287.425	90.79
287.64	-3.41
287.855	117.42
288.07	49.83
288.285	29.35
288.5	96.94
288.715	58.03
288.93	119.46
289.145	84.65
289.36	19.11
289.575	35.5
289.79	49.83
290.004	66.22
290.219	66.22
290.434	51.88
290.649	76.46
290.864	80.55
291.079	53.93
291.294	66.22
291.509	21.16
291.724	76.46
291.938	-7.51
292.153	-40.28
292.368	25.26
292.583	35.5
292.798	-9.56
293.012	144.04
293.227	107.18
293.442	8.87
293.657	25.26
293.871	176.81
294.086	35.5
294.301	125.61
294.516	74.41
294.73	68.27
294.945	-7.51
295.16	35.5
295.374	74.41
295.589	19.11
295.804	68.27
296.018	131.75
296.233	74.41
296.447	90.79
296.662	-27.99
296.877	33.45
297.091	35.5
297.306	17.07
297.52	49.83
297.735	25.26
297.949	-21.84
298.164	35.5
298.378	31.4
298.593	35.5
298.807	2.73
299.022	35.5
299.236	68.27
299.451	37.55
299.665	19.11
299.88	19.11
300.094	31.4
300.309	-3.41
300.523	66.22
300.737	-15.7
300.952	60.07
301.166	90.79
301.381	35.5
301.595	41.64
301.809	-7.51
302.024	58.03
302.238	-1.37
302.452	66.22
302.667	107.18
302.881	98.99
303.095	70.31
303.309	39.59
303.524	53.93
303.738	109.23
303.952	6.83
304.166	43.69
304.381	-11.61
304.595	78.51
304.809	-7.51
305.023	78.51
305.237	53.93
305.452	12.97
305.666	131.75
305.88	41.64
306.094	66.22
306.308	41.64
306.522	25.26
306.736	64.17
306.95	68.27
307.164	123.56
307.379	76.46
307.593	55.98
307.807	68.27
308.021	82.6
308.235	-15.7
308.449	58.03
308.663	4.78
308.877	92.84
309.091	58.03
309.305	33.45
309.519	-42.32
309.733	109.23
309.947	-60.76
310.161	-1.37
310.374	78.51
310.588	60.07
310.802	78.51
311.016	64.17
311.23	82.6
311.444	51.88
311.658	29.35
311.872	92.84
312.085	47.79
312.299	125.61
312.513	19.11
312.727	-9.56
312.941	94.89
313.154	135.85
313.368	121.51
313.582	51.88
313.796	131.75
314.009	-17.75
314.223	33.45
314.437	43.69
314.651	47.79
314.864	33.45
315.078	144.04
315.292	2.73
315.505	49.83
315.719	35.5
315.933	35.5
316.146	33.45
316.36	-7.51
316.573	150.18
316.787	41.64
317.001	68.27
317.214	-85.33
317.428	70.31
317.641	35.5
317.855	76.46
318.068	17.07
318.282	96.94
318.495	70.31
318.709	17.07
318.922	6.83
319.136	148.14
319.349	66.22
319.563	64.17
319.776	33.45
319.99	8.87
320.203	90.79
320.417	51.88
320.63	49.83
320.843	123.56
321.057	111.27
321.27	62.12
321.483	60.07
321.697	62.12
321.91	41.64
322.124	70.31
322.337	27.31
322.55	10.92
322.763	27.31
322.977	33.45
323.19	6.83
323.403	68.27
323.617	17.07
323.83	76.46
324.043	68.27
324.256	45.74
324.469	23.21
324.683	68.27
324.896	58.03
325.109	-40.28
325.322	27.31
325.535	-7.51
325.748	131.75
325.962	88.75
326.175	37.55
326.388	74.41
326.601	33.45
326.814	45.74
327.027	58.03
327.24	17.07
327.453	39.59
327.666	60.07
327.879	62.12
328.092	31.4
328.305	25.26
328.518	49.83
328.731	49.83
328.944	68.27
329.157	35.5
329.37	68.27
329.583	43.69
329.796	72.36
330.009	6.83
330.222	62.12
330.435	41.64
330.648	98.99
330.861	84.65
331.073	70.31
331.286	123.56
331.499	80.55
331.712	-13.65
331.925	60.07
332.138	45.74
332.35	121.51
332.563	72.36
332.776	123.56
332.989	47.79
333.202	60.07
333.414	45.74
333.627	68.27
333.84	70.31
334.053	55.98
334.265	70.31
334.478	29.35
334.691	53.93
334.903	66.22
335.116	66.22
335.329	94.89
335.541	62.12
335.754	82.6
335.966	8.87
336.179	156.33
336.392	0.68
336.604	98.99
336.817	92.84
337.029	27.31
337.242	-9.56
337.454	101.03
337.667	123.56
337.88	94.89
338.092	45.74
338.305	133.8
338.517	-13.65
338.729	113.32
338.942	105.13
339.154	39.59
339.367	8.87
339.579	105.13
339.792	31.4
340.004	105.13
340.217	27.31
340.429	74.41
340.641	15.02
340.854	10.92
341.066	2.73
341.278	35.5
341.491	135.85
341.703	62.12
341.915	-36.18
342.128	8.87
342.34	58.03
342.552	62.12
342.764	84.65
342.977	107.18
343.189	17.07
343.401	58.03
343.613	10.92
343.826	12.97
344.038	58.03
344.25	96.94
344.462	76.46
344.674	117.42
344.886	47.79
345.099	80.55
345.311	23.21
345.523	68.27
345.735	37.55
345.947	74.41
346.159	-7.51
346.371	53.93
346.583	53.93
346.795	84.65
347.007	135.85
347.219	49.83
347.431	78.51
347.643	113.32
347.855	-3.41
348.067	78.51
348.279	21.16
348.491	64.17
348.703	88.75
348.915	53.93
349.127	90.79
349.339	107.18
349.551	96.94
349.763	53.93
349.975	25.26
350.187	119.46
350.399	88.75
350.61	82.6
350.822	-17.75
351.034	53.93
351.246	45.74
351.458	98.99
351.669	41.64
351.881	47.79
352.093	72.36
352.305	66.22
352.517	76.46
352.728	84.65
352.94	101.03
353.152	98.99
353.363	25.26
353.575	78.51
353.787	98.99
353.999	101.03
354.21	80.55
354.422	10.92
354.633	41.64
354.845	41.64
355.057	35.5
355.268	21.16
355.48	111.27
355.692	88.75
355.903	45.74
356.115	58.03
356.326	58.03
356.538	82.6
356.749	27.31
356.961	78.51
357.172	74.41
357.384	19.11
357.595	105.13
357.807	23.21
358.018	58.03
358.23	70.31
358.441	58.03
358.653	45.74
358.864	119.46
359.075	166.57
359.287	68.27
359.498	62.12
359.709	125.61
359.921	35.5
360.132	51.88
360.344	92.84
360.555	25.26
360.766	90.79
360.977	19.11
361.189	66.22
361.4	58.03
361.611	72.36
361.823	139.94
362.034	62.12
362.245	37.55
362.456	119.46
362.667	113.32
362.879	53.93
363.09	88.75
363.301	45.74
363.512	82.6
363.723	78.51
363.935	8.87
364.146	58.03
364.357	96.94
364.568	58.03
364.779	29.35
364.99	86.7
365.201	101.03
365.412	90.79
365.623	121.51
365.834	49.83
366.045	25.26
366.256	49.83
366.467	37.55
366.678	80.55
366.889	-15.7
367.1	70.31
367.311	101.03
367.522	76.46
367.733	53.93
367.944	53.93
368.155	47.79
368.366	33.45
368.577	125.61
368.788	125.61
368.999	133.8
369.209	58.03
369.42	113.32
369.631	144.04
369.842	90.79
370.053	68.27
370.264	90.79
370.474	58.03
370.685	70.31
370.896	58.03
371.107	101.03
371.317	90.79
371.528	107.18
371.739	51.88
371.95	72.36
372.16	94.89
372.371	53.93
372.582	90.79
372.792	96.94
373.003	115.37
373.214	113.32
373.424	10.92
373.635	68.27
373.846	51.88
374.056	29.35
374.267	25.26
374.477	43.69
374.688	82.6
374.898	41.64
375.109	49.83
375.319	74.41
375.53	109.23
375.74	60.07
375.951	121.51
376.161	58.03
376.372	66.22
376.582	58.03
376.793	12.97
377.003	10.92
377.214	58.03
377.424	58.03
377.635	17.07
377.845	43.69
378.055	78.51
378.266	25.26
378.476	150.18
378.686	78.51
378.897	68.27
379.107	117.42
379.317	152.23
379.528	17.07
379.738	25.26
379.948	45.74
380.158	107.18
380.369	101.03
380.579	41.64
380.789	39.59
380.999	62.12
381.21	90.79
381.42	117.42
381.63	15.02
381.84	62.12
382.05	43.69
382.261	84.65
382.471	82.6
382.681	98.99
382.891	133.8
383.101	117.42
383.311	66.22
383.521	-7.51
383.731	92.84
383.941	98.99
384.151	68.27
384.361	111.27
384.571	74.41
384.781	33.45
384.991	180.9
385.201	92.84
385.411	82.6
385.621	41.64
385.831	92.84
386.041	53.93
386.251	141.99
386.461	135.85
386.671	51.88
386.881	76.46
387.091	82.6
387.301	62.12
387.511	125.61
387.72	90.79
387.93	68.27
388.14	-7.51
388.35	41.64
388.56	117.42
388.769	78.51
388.979	115.37
389.189	60.07
389.399	94.89
389.609	62.12
389.818	162.47
390.028	64.17
390.238	96.94
390.447	98.99
390.657	103.08
390.867	94.89
391.076	117.42
391.286	125.61
391.496	82.6
391.705	27.31
391.915	58.03
392.125	101.03
392.334	82.6
392.544	115.37
392.753	76.46
392.963	25.26
393.172	115.37
393.382	33.45
393.591	154.28
393.801	62.12
394.01	131.75
394.22	115.37
394.429	135.85
394.639	185
394.848	115.37
395.058	35.5
395.267	98.99
395.477	90.79
395.686	135.85
395.895	139.94
396.105	141.99
396.314	90.79
396.524	146.09
396.733	119.46
396.942	84.65
397.152	144.04
397.361	86.7
397.57	127.66
397.78	180.9
397.989	74.41
398.198	107.18
398.407	98.99
398.617	66.22
398.826	98.99
399.035	189.1
399.244	117.42
399.453	90.79
399.663	148.14
399.872	168.62
400.081	144.04
400.29	158.38
400.499	51.88
400.708	158.38
400.917	182.95
401.127	135.85
401.336	98.99
401.545	205.48
401.754	101.03
401.963	182.95
402.172	129.7
402.381	107.18
402.59	123.56
402.799	174.76
403.008	131.75
403.217	78.51
403.426	182.95
403.635	101.03
403.844	170.66
404.053	172.71
404.262	166.57
404.471	266.92
404.68	189.1
404.888	133.8
405.097	197.29
405.306	123.56
405.515	123.56
405.724	156.33
405.933	238.25
406.142	144.04
406.35	168.62
406.559	164.52
406.768	279.21
406.977	223.91
407.185	215.72
407.394	207.53
407.603	230.06
407.812	262.82
408.02	385.7
408.229	287.4
408.438	230.06
408.646	215.72
408.855	240.3
409.064	340.65
409.272	213.67
409.481	260.77
409.69	309.93
409.898	271.01
410.107	299.69
410.315	350.89
410.524	324.26
410.733	369.32
410.941	330.41
411.15	475.81
411.358	400.04
411.567	508.58
411.775	397.99
411.984	436.9
412.192	492.2
412.401	508.58
412.609	533.15
412.818	484
413.026	586.4
413.234	582.31
413.443	549.54
413.651	516.77
413.86	545.44
414.068	674.46
414.276	647.84
414.485	570.02
414.693	672.42
414.901	754.34
415.11	768.67
415.318	647.84
415.526	709.28
415.734	746.14
415.943	817.82
416.151	895.64
416.359	901.79
416.567	914.08
416.776	957.08
416.984	895.64
417.192	1020.57
417.4	1002.14
417.608	1098.39
417.817	1071.77
418.025	1090.2
418.233	1256.09
418.441	1057.43
418.649	1229.46
418.857	1354.39
419.065	1348.25
419.273	1325.72
419.481	1313.43
419.689	1483.41
419.897	1458.84
420.105	1514.13
420.313	1569.43
420.521	1632.91
420.729	1684.11
420.937	1741.46
421.145	1755.79
421.353	1811.09
421.561	2030.22
421.769	1960.59
421.977	2087.56
422.185	2105.99
422.393	2228.87
422.601	2306.7
422.809	2394.76
423.017	2280.07
423.224	2425.48
423.432	2466.44
423.64	2460.29
423.848	2671.23
424.056	2728.58
424.263	2804.35
424.471	2951.81
424.679	3037.82
424.887	3027.58
425.094	3244.67
425.302	3279.48
425.51	3277.43
425.718	3566.2
425.925	3500.66
426.133	3580.53
426.341	3805.81
426.548	3877.49
426.756	4006.51
426.964	4035.18
427.171	4342.38
427.379	4313.7
427.586	4352.62
427.794	4424.3
428.001	4649.57
428.209	4915.81
428.417	4889.18
428.624	5143.13
428.832	5302.87
429.039	5177.95
429.247	5225.05
429.454	5651.03
429.662	6062.67
429.869	5710.42
430.076	6013.52
430.284	5833.3
430.491	6339.15
430.699	6595.14
430.906	6625.86
431.114	6765.12
431.321	6810.18
431.528	6920.77
431.736	7393.85
431.943	7758.39
432.15	7516.73
432.358	7588.41
432.565	8036.91
432.772	7938.61
432.979	8356.4
433.187	8665.64
433.394	8579.62
433.601	9179.68
433.808	9333.28
434.016	9048.61
434.223	9400.86
434.43	10179.09
434.637	9763.35
434.844	10717.7
435.052	10625.54
435.259	10623.5
435.466	10766.85
435.673	10592.78
435.88	11270.65
436.087	11930.1
436.294	12151.28
436.501	11608.57
436.708	11889.14
436.915	12440.04
437.122	12806.63
437.329	12634.6
437.537	13218.27
437.743	13580.76
437.95	13320.67
438.157	13787.61
438.364	14287.31
438.571	14391.76
438.778	14748.11
438.985	15882.68
439.192	15210.95
439.399	15667.64
439.606	15157.7
439.813	16146.87
440.02	17101.22
440.227	16742.83
440.433	16765.35
440.64	17232.29
440.847	17222.05
441.054	17764.76
441.261	18821.52
441.467	18682.25
441.674	19091.85
441.881	19884.41
442.088	19650.94
442.294	19237.25
442.501	19804.54
442.708	20261.24
442.914	20932.97
443.121	22079.83
443.328	21387.62
443.534	22999.37
443.741	22333.78
443.948	21688.67
444.154	23226.7
444.361	23249.22
444.568	23814.46
444.774	23613.76
444.981	23810.37
445.187	24207.67
445.394	25760.03
445.6	24994.09
445.807	27185.42
446.013	26202.39
446.22	26976.53
446.426	27949.31
446.633	28186.88
446.839	28969.2
447.046	27883.78
447.252	29311.21
447.459	29698.28
447.665	29309.16
447.871	30658.77
448.078	31885.51
448.284	30382.3
448.491	31324.36
448.697	32471.23
448.903	33149.1
449.11	33034.42
449.316	32745.65
449.522	32608.44
449.728	34031.78
449.935	34429.09
450.141	34072.74
450.347	35197.07
450.553	33816.74
450.76	34519.2
450.966	35645.58
451.172	35020.95
451.378	35874.95
451.584	35401.87
451.791	36343.94
451.997	36233.35
452.203	36464.77
452.409	36829.3
452.615	36511.87
452.821	35131.54
453.027	34979.99
453.233	36905.08
453.44	34982.04
453.646	35571.85
453.852	35856.52
454.058	36456.57
454.264	35330.19
454.47	36429.95
454.676	35256.46
454.882	36374.66
455.088	33304.75
455.294	33585.32
455.5	34164.9
455.705	34621.59
455.911	33204.4
456.117	32467.13
456.323	32348.35
456.529	30652.63
456.735	32155.84
456.941	31187.15
457.147	30730.45
457.352	29460.71
457.558	29202.67
457.764	29417.71
457.97	28926.19
458.176	28211.45
458.381	28315.9
458.587	27066.64
458.793	26652.95
458.999	25481.51
459.204	27472.14
459.41	26851.6
459.616	25016.62
459.821	24973.61
460.027	24863.02
460.233	24383.8
460.438	23019.85
460.644	23232.84
460.85	22358.36
461.055	21823.84
461.261	21815.65
461.466	20201.85
461.672	19669.37
461.878	21129.58
462.083	19718.53
462.289	19452.29
462.494	19339.65
462.7	18231.7
462.905	17807.77
463.111	18502.03
463.316	18571.66
463.522	18035.1
463.727	18166.17
463.932	18031
464.138	17656.22
464.343	18098.58
464.549	17385.89
464.754	18000.28
464.959	17795.48
465.165	17463.71
465.37	16916.9
465.575	16435.63
465.781	17375.65
465.986	17230.24
466.191	16497.07
466.397	16279.99
466.602	15409.6
466.807	16044.47
467.012	16161.2
467.218	16155.06
