Data from USB4F104151__45__14-16-48-306.txt Node

Date: Thu Mar 13 14:16:48 EDT 2025
User: louis
Spectrometer: USB4F10415
Trigger mode: 4
Integration Time (sec): 2.000000E-2
Scans to average: 1
Electric dark correction enabled: true
Nonlinearity correction enabled: false
Boxcar width: 0
XAxis mode: Wavelengths
Number of Pixels in Spectrum: 3648
>>>>>Begin Spectral Data<<<<<
178.204	-134.65
178.424	-134.65
178.644	-134.65
178.864	-157.18
179.084	-30.21
179.304	-38.4
179.524	-15.87
179.744	61.95
179.964	18.94
180.184	-17.92
180.404	-34.3
180.624	14.85
180.844	23.04
181.064	-52.74
181.283	41.47
181.503	10.75
181.723	-11.78
181.943	-65.02
182.163	-13.82
182.383	31.23
182.602	162.3
182.822	53.76
183.042	-7.68
183.262	-34.3
183.482	29.18
183.701	37.38
183.921	-3.58
184.141	-48.64
184.361	80.38
184.58	-34.3
184.8	-15.87
185.02	14.85
185.239	23.04
185.459	55.81
185.679	33.28
185.898	16.9
186.118	64
186.338	-9.73
186.557	76.29
186.777	-1.54
186.997	14.85
187.216	66.05
187.436	41.47
187.655	84.48
187.875	68.09
188.095	39.42
188.314	2.56
188.534	18.94
188.753	14.85
188.973	8.7
189.192	14.85
189.412	2.56
189.631	-24.06
189.851	-13.82
190.07	80.38
190.29	-9.73
190.509	6.66
190.729	-38.4
190.948	41.47
191.168	115.2
191.387	59.9
191.607	6.66
191.826	-26.11
192.045	41.47
192.265	-7.68
192.484	6.66
192.704	55.81
192.923	-83.45
193.142	49.66
193.362	-22.02
193.581	-7.68
193.8	10.75
194.02	-15.87
194.239	51.71
194.458	-54.78
194.678	39.42
194.897	8.7
195.116	25.09
195.335	72.19
195.555	18.94
195.774	8.7
195.993	25.09
196.212	31.23
196.432	-17.92
196.651	2.56
196.87	74.24
197.089	113.15
197.308	-3.58
197.528	98.81
197.747	23.04
197.966	-17.92
198.185	16.9
198.404	47.62
198.623	16.9
198.842	68.09
199.062	23.04
199.281	-1.54
199.5	6.66
199.719	53.76
199.938	8.7
200.157	-17.92
200.376	55.81
200.595	39.42
200.814	59.9
201.033	2.56
201.252	64
201.471	6.66
201.69	10.75
201.909	14.85
202.128	35.33
202.347	-48.64
202.566	12.8
202.785	4.61
203.004	2.56
203.223	-1.54
203.442	-11.78
203.661	16.9
203.879	123.39
204.098	25.09
204.317	-7.68
204.536	55.81
204.755	16.9
204.974	-1.54
205.193	33.28
205.411	92.67
205.63	45.57
205.849	82.43
206.068	35.33
206.287	-11.78
206.505	96.77
206.724	47.62
206.943	-24.06
207.162	23.04
207.381	-3.58
207.599	0.51
207.818	-5.63
208.037	-34.3
208.255	-9.73
208.474	-26.11
208.693	80.38
208.911	14.85
209.13	-7.68
209.349	43.52
209.567	33.28
209.786	88.57
210.005	-36.35
210.223	55.81
210.442	16.9
210.661	-13.82
210.879	107.01
211.098	27.14
211.316	-15.87
211.535	113.15
211.753	72.19
211.972	31.23
212.191	-22.02
212.409	-24.06
212.628	72.19
212.846	72.19
213.065	86.53
213.283	39.42
213.502	8.7
213.72	66.05
213.938	39.42
214.157	25.09
214.375	39.42
214.594	-40.45
214.812	0.51
215.031	-15.87
215.249	80.38
215.467	-13.82
215.686	8.7
215.904	31.23
216.122	55.81
216.341	20.99
216.559	64
216.778	-11.78
216.996	47.62
217.214	14.85
217.432	-1.54
217.651	27.14
217.869	-17.92
218.087	41.47
218.306	33.28
218.524	47.62
218.742	-5.63
218.96	14.85
219.179	82.43
219.397	80.38
219.615	59.9
219.833	88.57
220.051	10.75
220.27	2.56
220.488	14.85
220.706	-26.11
220.924	-17.92
221.142	-50.69
221.36	0.51
221.578	18.94
221.796	2.56
222.015	-26.11
222.233	51.71
222.451	-73.21
222.669	35.33
222.887	6.66
223.105	6.66
223.323	14.85
223.541	-44.54
223.759	41.47
223.977	18.94
224.195	117.25
224.413	74.24
224.631	145.92
224.849	14.85
225.067	90.62
225.285	6.66
225.503	-5.63
225.721	-3.58
225.939	8.7
226.157	-54.78
226.375	74.24
226.592	-50.69
226.81	20.99
227.028	55.81
227.246	12.8
227.464	43.52
227.682	-54.78
227.9	-1.54
228.117	35.33
228.335	-1.54
228.553	8.7
228.771	14.85
228.989	-9.73
229.206	-9.73
229.424	-19.97
229.642	80.38
229.86	-26.11
230.077	16.9
230.295	96.77
230.513	78.33
230.731	43.52
230.948	0.51
231.166	102.91
231.384	-5.63
231.601	-30.21
231.819	104.96
232.037	-65.02
232.254	10.75
232.472	-32.26
232.689	-7.68
232.907	16.9
233.125	64
233.342	-11.78
233.56	35.33
233.777	-34.3
233.995	51.71
234.213	123.39
234.43	-30.21
234.648	6.66
234.865	33.28
235.083	64
235.3	-26.11
235.518	39.42
235.735	10.75
235.953	84.48
236.17	-50.69
236.388	14.85
236.605	-50.69
236.822	55.81
237.04	49.66
237.257	18.94
237.475	16.9
237.692	39.42
237.909	-3.58
238.127	39.42
238.344	33.28
238.562	35.33
238.779	2.56
238.996	-38.4
239.214	10.75
239.431	25.09
239.648	0.51
239.865	16.9
240.083	49.66
240.3	84.48
240.517	18.94
240.735	4.61
240.952	-34.3
241.169	66.05
241.386	53.76
241.603	-34.3
241.821	39.42
242.038	68.09
242.255	64
242.472	23.04
242.689	84.48
242.907	39.42
243.124	-30.21
243.341	-9.73
243.558	33.28
243.775	70.14
243.992	-93.69
244.209	59.9
244.426	109.05
244.643	39.42
244.86	-26.11
245.078	6.66
245.295	-34.3
245.512	-7.68
245.729	-28.16
245.946	66.05
246.163	47.62
246.38	2.56
246.597	43.52
246.814	0.51
247.031	-19.97
247.248	96.77
247.464	-1.54
247.681	-28.16
247.898	-9.73
248.115	25.09
248.332	-46.59
248.549	41.47
248.766	37.38
248.983	29.18
249.2	10.75
249.417	27.14
249.633	55.81
249.85	-3.58
250.067	39.42
250.284	33.28
250.501	-17.92
250.717	74.24
250.934	37.38
251.151	-38.4
251.368	20.99
251.585	49.66
251.801	35.33
252.018	23.04
252.235	55.81
252.451	-42.5
252.668	31.23
252.885	66.05
253.102	23.04
253.318	-17.92
253.535	47.62
253.752	6.66
253.968	-9.73
254.185	-11.78
254.401	-13.82
254.618	74.24
254.835	68.09
255.051	31.23
255.268	29.18
255.484	-13.82
255.701	41.47
255.917	25.09
256.134	-54.78
256.351	-26.11
256.567	-48.64
256.784	41.47
257	14.85
257.217	-30.21
257.433	-26.11
257.65	49.66
257.866	92.67
258.082	55.81
258.299	41.47
258.515	39.42
258.732	-42.5
258.948	96.77
259.165	86.53
259.381	-30.21
259.597	12.8
259.814	-13.82
260.03	16.9
260.246	27.14
260.463	53.76
260.679	45.57
260.895	6.66
261.112	82.43
261.328	-71.17
261.544	2.56
261.761	123.39
261.977	25.09
262.193	-17.92
262.409	66.05
262.626	43.52
262.842	33.28
263.058	61.95
263.274	47.62
263.49	59.9
263.707	-1.54
263.923	88.57
264.139	47.62
264.355	16.9
264.571	72.19
264.787	-32.26
265.004	70.14
265.22	47.62
265.436	-34.3
265.652	-50.69
265.868	31.23
266.084	51.71
266.3	53.76
266.516	20.99
266.732	64
266.948	-19.97
267.164	47.62
267.38	25.09
267.596	-50.69
267.812	72.19
268.028	-17.92
268.244	6.66
268.46	68.09
268.676	23.04
268.892	55.81
269.108	39.42
269.324	72.19
269.54	-42.5
269.756	-15.87
269.972	-26.11
270.188	43.52
270.403	-15.87
270.619	72.19
270.835	39.42
271.051	47.62
271.267	43.52
271.483	47.62
271.698	-40.45
271.914	64
272.13	-5.63
272.346	0.51
272.562	59.9
272.777	80.38
272.993	6.66
273.209	-28.16
273.425	2.56
273.64	-15.87
273.856	20.99
274.072	-58.88
274.287	-42.5
274.503	74.24
274.719	23.04
274.934	-7.68
275.15	-67.07
275.366	-40.45
275.581	16.9
275.797	39.42
276.012	-7.68
276.228	6.66
276.444	-13.82
276.659	6.66
276.875	90.62
277.09	-34.3
277.306	68.09
277.521	84.48
277.737	-13.82
277.952	64
278.168	37.38
278.383	82.43
278.599	2.56
278.814	6.66
279.03	-44.54
279.245	41.47
279.461	33.28
279.676	27.14
279.892	16.9
280.107	-58.88
280.322	-56.83
280.538	43.52
280.753	23.04
280.969	25.09
281.184	-1.54
281.399	92.67
281.615	-26.11
281.83	-17.92
282.045	49.66
282.26	8.7
282.476	14.85
282.691	55.81
282.906	8.7
283.122	31.23
283.337	-9.73
283.552	92.67
283.767	57.86
283.983	41.47
284.198	57.86
284.413	51.71
284.628	-26.11
284.843	51.71
285.058	-60.93
285.274	57.86
285.489	-17.92
285.704	80.38
285.919	-5.63
286.134	23.04
286.349	-50.69
286.564	-19.97
286.779	16.9
286.995	80.38
287.21	-1.54
287.425	49.66
287.64	6.66
287.855	-9.73
288.07	57.86
288.285	82.43
288.5	-105.98
288.715	18.94
288.93	-30.21
289.145	8.7
289.36	0.51
289.575	49.66
289.79	55.81
290.004	20.99
290.219	33.28
290.434	23.04
290.649	-32.26
290.864	10.75
291.079	-5.63
291.294	6.66
291.509	64
291.724	-3.58
291.938	-1.54
292.153	25.09
292.368	-40.45
292.583	27.14
292.798	55.81
293.012	47.62
293.227	92.67
293.442	35.33
293.657	64
293.871	72.19
294.086	33.28
294.301	25.09
294.516	76.29
294.73	-1.54
294.945	-13.82
295.16	-7.68
295.374	76.29
295.589	-17.92
295.804	-19.97
296.018	41.47
296.233	-24.06
296.447	82.43
296.662	-26.11
296.877	55.81
297.091	31.23
297.306	-56.83
297.52	66.05
297.735	6.66
297.949	96.77
298.164	-34.3
298.378	47.62
298.593	68.09
298.807	6.66
299.022	39.42
299.236	43.52
299.451	16.9
299.665	39.42
299.88	27.14
300.094	-9.73
300.309	-34.3
300.523	31.23
300.737	117.25
300.952	82.43
301.166	100.86
301.381	10.75
301.595	8.7
301.809	-15.87
302.024	80.38
302.238	-32.26
302.452	23.04
302.667	-22.02
302.881	14.85
303.095	6.66
303.309	-34.3
303.524	-3.58
303.738	-22.02
303.952	31.23
304.166	16.9
304.381	31.23
304.595	111.1
304.809	10.75
305.023	14.85
305.237	10.75
305.452	47.62
305.666	51.71
305.88	74.24
306.094	16.9
306.308	18.94
306.522	96.77
306.736	84.48
306.95	68.09
307.164	-19.97
307.379	-40.45
307.593	68.09
307.807	31.23
308.021	49.66
308.235	-9.73
308.449	10.75
308.663	-17.92
308.877	74.24
309.091	41.47
309.305	66.05
309.519	-42.5
309.733	96.77
309.947	12.8
310.161	43.52
310.374	-58.88
310.588	64
310.802	41.47
311.016	-22.02
311.23	4.61
311.444	-9.73
311.658	66.05
311.872	55.81
312.085	47.62
312.299	14.85
312.513	88.57
312.727	-32.26
312.941	-13.82
313.154	0.51
313.368	-1.54
313.582	41.47
313.796	-11.78
314.009	23.04
314.223	-26.11
314.437	68.09
314.651	100.86
314.864	10.75
315.078	107.01
315.292	-3.58
315.505	31.23
315.719	55.81
315.933	20.99
316.146	23.04
316.36	-9.73
316.573	8.7
316.787	55.81
317.001	78.33
317.214	76.29
317.428	-46.59
317.641	18.94
317.855	64
318.068	-34.3
318.282	25.09
318.495	35.33
318.709	16.9
318.922	-17.92
319.136	80.38
319.349	74.24
319.563	-73.21
319.776	-3.58
319.99	23.04
320.203	55.81
320.417	39.42
320.63	59.9
320.843	86.53
321.057	100.86
321.27	2.56
321.483	-7.68
321.697	88.57
321.91	102.91
322.124	31.23
322.337	43.52
322.55	57.86
322.763	23.04
322.977	39.42
323.19	-36.35
323.403	-7.68
323.617	-40.45
323.83	131.58
324.043	23.04
324.256	29.18
324.469	23.04
324.683	39.42
324.896	-13.82
325.109	70.14
325.322	27.14
325.535	55.81
325.748	-34.3
325.962	84.48
326.175	-3.58
326.388	6.66
326.601	80.38
326.814	23.04
327.027	35.33
327.24	80.38
327.453	-50.69
327.666	6.66
327.879	23.04
328.092	45.57
328.305	-13.82
328.518	16.9
328.731	70.14
328.944	107.01
329.157	-24.06
329.37	72.19
329.583	43.52
329.796	80.38
330.009	-65.02
330.222	41.47
330.435	90.62
330.648	57.86
330.861	8.7
331.073	104.96
331.286	43.52
331.499	82.43
331.712	88.57
331.925	107.01
332.138	45.57
332.35	6.66
332.563	23.04
332.776	14.85
332.989	-22.02
333.202	14.85
333.414	-7.68
333.627	55.81
333.84	39.42
334.053	23.04
334.265	-5.63
334.478	18.94
334.691	-15.87
334.903	39.42
335.116	6.66
335.329	68.09
335.541	4.61
335.754	64
335.966	68.09
336.179	82.43
336.392	98.81
336.604	-17.92
336.817	68.09
337.029	16.9
337.242	-17.92
337.454	113.15
337.667	14.85
337.88	80.38
338.092	-11.78
338.305	51.71
338.517	-1.54
338.729	33.28
338.942	51.71
339.154	92.67
339.367	6.66
339.579	-58.88
339.792	12.8
340.004	113.15
340.217	-9.73
340.429	49.66
340.641	-30.21
340.854	-30.21
341.066	88.57
341.278	137.73
341.491	121.34
341.703	23.04
341.915	35.33
342.128	39.42
342.34	-26.11
342.552	78.33
342.764	20.99
342.977	-1.54
343.189	-15.87
343.401	-42.5
343.613	43.52
343.826	64
344.038	25.09
344.25	-11.78
344.462	33.28
344.674	92.67
344.886	61.95
345.099	29.18
345.311	0.51
345.523	-11.78
345.735	-7.68
345.947	70.14
346.159	80.38
346.371	35.33
346.583	39.42
346.795	61.95
347.007	59.9
347.219	117.25
347.431	-54.78
347.643	117.25
347.855	31.23
348.067	61.95
348.279	59.9
348.491	-34.3
348.703	43.52
348.915	-75.26
349.127	47.62
349.339	31.23
349.551	39.42
349.763	76.29
349.975	39.42
350.187	47.62
350.399	80.38
350.61	98.81
350.822	-7.68
351.034	-7.68
351.246	27.14
351.458	31.23
351.669	64
351.881	33.28
352.093	31.23
352.305	70.14
352.517	31.23
352.728	90.62
352.94	37.38
353.152	68.09
353.363	61.95
353.575	31.23
353.787	125.44
353.999	72.19
354.21	70.14
354.422	-11.78
354.633	55.81
354.845	-3.58
355.057	39.42
355.268	88.57
355.48	2.56
355.692	-24.06
355.903	43.52
356.115	-9.73
356.326	90.62
356.538	88.57
356.749	51.71
356.961	55.81
357.172	72.19
357.384	-34.3
357.595	70.14
357.807	86.53
358.018	2.56
358.23	55.81
358.441	-3.58
358.653	96.77
358.864	51.71
359.075	43.52
359.287	68.09
359.498	43.52
359.709	115.2
359.921	-40.45
360.132	8.7
360.344	39.42
360.555	-24.06
360.766	102.91
360.977	-1.54
361.189	82.43
361.4	25.09
361.611	-32.26
361.823	14.85
362.034	27.14
362.245	55.81
362.456	88.57
362.667	74.24
362.879	76.29
363.09	55.81
363.301	123.39
363.512	57.86
363.723	-1.54
363.935	-19.97
364.146	39.42
364.357	82.43
364.568	47.62
364.779	39.42
364.99	0.51
365.201	35.33
365.412	72.19
365.623	49.66
365.834	82.43
366.045	51.71
366.256	64
366.467	84.48
366.678	96.77
366.889	68.09
367.1	8.7
367.311	14.85
367.522	-7.68
367.733	47.62
367.944	55.81
368.155	74.24
368.366	51.71
368.577	98.81
368.788	14.85
368.999	-26.11
369.209	-17.92
369.42	84.48
369.631	129.53
369.842	84.48
370.053	0.51
370.264	61.95
370.474	64
370.685	39.42
370.896	57.86
371.107	59.9
371.317	80.38
371.528	-9.73
371.739	0.51
371.95	51.71
372.16	57.86
372.371	-7.68
372.582	-50.69
372.792	82.43
373.003	-9.73
373.214	74.24
373.424	72.19
373.635	39.42
373.846	70.14
374.056	14.85
374.267	107.01
374.477	47.62
374.688	35.33
374.898	27.14
375.109	64
375.319	23.04
375.53	98.81
375.74	80.38
375.951	39.42
376.161	82.43
376.372	74.24
376.582	107.01
376.793	27.14
377.003	35.33
377.214	14.85
377.424	70.14
377.635	90.62
377.845	12.8
378.055	90.62
378.266	-17.92
378.476	107.01
378.686	68.09
378.897	104.96
379.107	49.66
379.317	33.28
379.528	25.09
379.738	51.71
379.948	104.96
380.158	119.29
380.369	31.23
380.579	68.09
380.789	33.28
380.999	100.86
381.21	45.57
381.42	98.81
381.63	113.15
381.84	66.05
382.05	12.8
382.261	129.53
382.471	98.81
382.681	-5.63
382.891	49.66
383.101	2.56
383.311	31.23
383.521	25.09
383.731	160.25
383.941	68.09
384.151	-1.54
384.361	80.38
384.571	72.19
384.781	156.16
384.991	80.38
385.201	109.05
385.411	-3.58
385.621	96.77
385.831	2.56
386.041	59.9
386.251	107.01
386.461	121.34
386.671	68.09
386.881	68.09
387.091	53.76
387.301	49.66
387.511	72.19
387.72	72.19
387.93	51.71
388.14	-9.73
388.35	109.05
388.56	102.91
388.769	88.57
388.979	59.9
389.189	10.75
389.399	-9.73
389.609	86.53
389.818	23.04
390.028	74.24
390.238	88.57
390.447	47.62
390.657	88.57
390.867	-9.73
391.076	20.99
391.286	72.19
391.496	59.9
391.705	57.86
391.915	104.96
392.125	100.86
392.334	59.9
392.544	98.81
392.753	123.39
392.963	55.81
393.172	35.33
393.382	94.72
393.591	111.1
393.801	55.81
394.01	88.57
394.22	33.28
394.429	31.23
394.639	8.7
394.848	41.47
395.058	39.42
395.267	78.33
395.477	92.67
395.686	94.72
395.895	117.25
396.105	147.97
396.314	131.58
396.524	84.48
396.733	88.57
396.942	162.3
397.152	86.53
397.361	55.81
397.57	80.38
397.78	68.09
397.989	86.53
398.198	92.67
398.407	90.62
398.617	172.54
398.826	119.29
399.035	104.96
399.244	51.71
399.453	84.48
399.663	141.82
399.872	113.15
400.081	82.43
400.29	201.21
400.499	104.96
400.708	104.96
400.917	92.67
401.127	125.44
401.336	184.83
401.545	186.88
401.754	178.69
401.963	31.23
402.172	164.35
402.381	123.39
402.59	111.1
402.799	172.54
403.008	158.21
403.217	104.96
403.426	190.97
403.635	121.34
403.844	186.88
404.053	221.69
404.262	90.62
404.471	178.69
404.68	152.06
404.888	180.73
405.097	139.77
405.306	205.31
405.515	205.31
405.724	213.5
405.933	211.45
406.142	203.26
406.35	199.16
406.559	221.69
406.768	227.84
406.977	268.8
407.185	244.22
407.394	219.64
407.603	190.97
407.812	301.56
408.02	283.13
408.229	352.76
408.438	301.56
408.646	291.32
408.855	268.8
409.064	248.32
409.272	262.65
409.481	399.87
409.69	287.23
409.898	395.77
410.107	264.7
410.315	385.53
410.524	379.39
410.733	371.19
410.941	338.43
411.15	432.63
411.358	395.77
411.567	440.83
411.775	446.97
411.984	428.54
412.192	473.59
412.401	438.78
412.609	598.52
412.818	580.09
413.026	647.67
413.234	637.43
413.443	653.81
413.651	590.33
413.86	719.35
414.068	694.77
414.276	760.31
414.485	797.17
414.693	760.31
414.901	844.28
415.11	786.93
415.318	860.66
415.526	899.57
415.734	924.15
415.943	918
416.151	993.78
416.359	1030.64
416.567	1087.98
416.776	1090.03
416.984	1118.7
417.192	1145.33
417.4	1196.53
417.608	1157.61
417.817	1339.88
418.025	1300.97
418.233	1440.23
418.441	1454.57
418.649	1386.99
418.857	1575.4
419.065	1554.92
419.273	1481.19
419.481	1610.22
419.689	1710.57
419.897	1731.05
420.105	1845.73
420.313	1772
420.521	2030.05
420.729	1972.71
420.937	2079.2
421.145	2087.39
421.353	2247.13
421.561	2345.44
421.769	2316.76
421.977	2550.23
422.185	2357.72
422.393	2714.07
422.601	2750.93
422.809	2693.59
423.017	2644.44
423.224	2824.66
423.432	2998.74
423.64	2988.5
423.848	3242.45
424.056	3172.82
424.263	3430.86
424.471	3381.71
424.679	3506.63
424.887	3733.96
425.094	3908.04
425.302	3740.1
425.51	3881.41
425.718	4108.74
425.925	4084.16
426.133	4131.26
426.341	4311.49
426.548	4549.05
426.756	4727.22
426.964	4747.7
427.171	5077.43
427.379	5185.97
427.586	5253.55
427.794	5441.96
428.001	5536.17
428.209	5740.97
428.417	5908.9
428.624	6134.18
428.832	6230.43
429.039	6259.1
429.247	6132.13
429.454	6797.72
429.662	7174.55
429.869	6807.96
430.076	7182.74
430.284	7143.83
430.491	7387.54
430.699	7604.62
430.906	7633.29
431.114	7922.06
431.321	8171.91
431.528	8198.53
431.736	8796.54
431.943	9087.35
432.15	9013.62
432.358	8812.92
432.565	9589.1
432.772	9396.59
432.979	10107.24
433.187	10041.7
433.394	10180.96
433.601	11075.93
433.808	11014.49
434.016	10864.99
434.223	11200.85
434.43	12087.62
434.637	11503.95
434.844	12386.63
435.052	12788.03
435.259	12583.23
435.466	12484.93
435.673	12599.62
435.88	13363.51
436.087	14008.62
436.294	14047.53
436.501	13781.29
436.708	13865.26
436.915	14367.01
437.122	15059.23
437.329	15188.25
437.537	15692.05
437.743	16017.68
437.95	15730.96
438.157	16564.48
438.364	17166.59
438.571	16976.12
438.778	17309.94
438.985	18571.49
439.192	18049.26
439.399	18702.56
439.606	18092.27
439.813	19232.99
440.02	20609.22
440.227	19841.23
440.433	19857.62
440.64	20637.89
440.847	20291.79
441.054	20861.12
441.261	22016.18
441.467	21862.58
441.674	22272.17
441.881	22937.76
442.088	23197.85
442.294	22915.23
442.501	23505.05
442.708	24058
442.914	24766.6
443.121	25737.34
443.328	25061.51
443.534	26943.59
443.741	26062.96
443.948	25819.25
444.154	27699.29
444.361	27400.29
444.568	27730.01
444.774	27662.43
444.981	28069.97
445.187	28665.93
445.394	29986.87
445.6	29505.6
445.807	32186.39
446.013	31160.36
446.22	31326.24
446.426	32722.96
446.633	33187.85
446.839	34254.84
447.046	32940.04
447.252	34435.06
447.459	34740.21
447.665	34502.64
447.871	36116.44
448.078	37588.93
448.284	35997.66
448.491	36628.43
448.697	37863.36
448.903	38428.6
449.11	38823.86
449.316	38125.5
449.522	38563.76
449.728	39780.26
449.935	40069.02
450.141	40144.8
450.347	40447.89
450.553	39591.84
450.76	40497.05
450.966	41781.12
451.172	41037.71
451.378	42323.83
451.584	41473.93
451.791	42643.32
451.997	41942.91
452.203	42848.11
452.409	43409.26
452.615	42944.37
452.821	40750.99
453.027	40669.08
453.233	42884.98
453.44	40949.65
453.646	41650.05
453.852	41865.09
454.058	42362.75
454.264	40939.41
454.47	42164.09
454.676	40894.35
454.882	42278.78
455.088	38645.68
455.294	39245.74
455.5	39772.07
455.705	40419.22
455.911	38516.66
456.117	38078.39
456.323	37341.13
456.529	35317.73
456.735	36970.44
456.941	36290.52
457.147	35522.53
457.352	34818.03
457.558	34285.56
457.764	34478.07
457.97	33468.42
458.176	33009.67
458.381	33363.97
458.587	31672.35
458.793	31170.6
458.999	29808.7
459.204	31879.19
459.41	30787.63
459.616	28844.1
459.821	29038.66
460.027	29081.67
460.233	28328.02
460.438	26812.52
460.644	27287.65
460.85	25948.28
461.055	25557.11
461.261	25520.25
461.466	23316.64
461.672	22921.38
461.878	24207.5
462.083	22687.91
462.289	22501.54
462.494	22128.81
462.7	21127.36
462.905	20576.45
463.111	21403.83
463.316	21352.63
463.522	20816.07
463.727	21094.59
463.932	20984
464.138	20658.37
464.343	20965.57
464.549	20326.6
464.754	20658.37
464.959	20773.06
465.165	20494.54
465.37	19759.31
465.575	19040.48
465.781	19908.82
465.986	19974.35
466.191	19294.43
466.397	19106.01
466.602	18000.11
466.807	18800.87
467.012	18974.94
467.218	18712.8
467.423	18252.01
467.628	18485.48
