Data from USB4F104151__48__14-16-49-626.txt Node

Date: Thu Mar 13 14:16:49 EDT 2025
User: louis
Spectrometer: USB4F10415
Trigger mode: 4
Integration Time (sec): 2.000000E-2
Scans to average: 1
Electric dark correction enabled: true
Nonlinearity correction enabled: false
Boxcar width: 0
XAxis mode: Wavelengths
Number of Pixels in Spectrum: 3648
>>>>>Begin Spectral Data<<<<<
178.204	-69.29
178.424	-69.29
178.644	-69.29
178.864	-87.72
179.084	-87.72
179.304	35.16
179.524	-1.71
179.744	-32.43
179.964	-18.09
180.184	92.5
180.404	33.11
180.624	-65.19
180.844	69.97
181.064	-48.81
181.283	-57
181.503	0.34
181.723	-7.85
181.943	-63.15
182.163	67.92
182.383	57.68
182.602	51.54
182.822	115.03
183.042	49.49
183.262	16.73
183.482	74.07
183.701	51.54
183.921	39.25
184.141	-63.15
184.361	37.2
184.58	39.25
184.8	35.16
185.02	-7.85
185.239	135.51
185.459	131.41
185.679	90.45
185.898	86.36
186.118	49.49
186.338	49.49
186.557	90.45
186.777	26.96
186.997	53.59
187.216	65.88
187.436	37.2
187.655	20.82
187.875	74.07
188.095	49.49
188.314	24.92
188.534	16.73
188.753	-3.75
188.973	41.3
189.192	2.39
189.412	41.3
189.631	-16.04
189.851	37.2
190.07	74.07
190.29	2.39
190.509	2.39
190.729	78.16
190.948	127.32
191.168	104.79
191.387	84.31
191.607	26.96
191.826	41.3
192.045	18.77
192.265	8.53
192.484	26.96
192.704	127.32
192.923	-18.09
193.142	160.08
193.362	-16.04
193.581	92.5
193.8	92.5
194.02	33.11
194.239	37.2
194.458	106.84
194.678	92.5
194.897	84.31
195.116	37.2
195.335	24.92
195.555	6.49
195.774	119.12
195.993	51.54
196.212	45.4
196.432	49.49
196.651	-52.91
196.87	10.58
197.089	125.27
197.308	82.26
197.528	65.88
197.747	14.68
197.966	0.34
198.185	65.88
198.404	-40.62
198.623	90.45
198.842	16.73
199.062	29.01
199.281	192.85
199.5	-9.9
199.719	106.84
199.938	0.34
200.157	106.84
200.376	18.77
200.595	74.07
200.814	-7.85
201.033	80.21
201.252	133.46
201.471	47.44
201.69	108.88
201.909	43.35
202.128	55.64
202.347	29.01
202.566	22.87
202.785	10.58
203.004	-5.8
203.223	106.84
203.442	26.96
203.661	41.3
203.879	108.88
204.098	98.64
204.317	-16.04
204.536	33.11
204.755	57.68
204.974	57.68
205.193	51.54
205.411	135.51
205.63	78.16
205.849	37.2
206.068	16.73
206.287	33.11
206.505	98.64
206.724	29.01
206.943	74.07
207.162	10.58
207.381	94.55
207.599	2.39
207.818	96.6
208.037	33.11
208.255	18.77
208.474	74.07
208.693	49.49
208.911	65.88
209.13	26.96
209.349	80.21
209.567	74.07
209.786	55.64
210.005	8.53
210.223	51.54
210.442	31.06
210.661	37.2
210.879	74.07
211.098	102.74
211.316	49.49
211.535	49.49
211.753	69.97
211.972	10.58
212.191	43.35
212.409	51.54
212.628	24.92
212.846	29.01
213.065	100.69
213.283	41.3
213.502	31.06
213.72	39.25
213.938	65.88
214.157	8.53
214.375	49.49
214.594	61.78
214.812	2.39
215.031	49.49
215.249	0.34
215.467	-16.04
215.686	102.74
215.904	20.82
216.122	108.88
216.341	78.16
216.559	37.2
216.778	149.84
216.996	90.45
217.214	8.53
217.432	49.49
217.651	-3.75
217.869	24.92
218.087	18.77
218.306	88.4
218.524	49.49
218.742	98.64
218.96	49.49
219.179	12.63
219.397	-32.43
219.615	143.7
219.833	35.16
220.051	74.07
220.27	51.54
220.488	108.88
220.706	90.45
220.924	-3.75
221.142	137.56
221.36	45.4
221.578	78.16
221.796	14.68
222.015	20.82
222.233	49.49
222.451	61.78
222.669	49.49
222.887	82.26
223.105	4.44
223.323	18.77
223.541	-11.95
223.759	59.73
223.977	43.35
224.195	98.64
224.413	29.01
224.631	45.4
224.849	76.12
225.067	39.25
225.285	-5.8
225.503	-30.38
225.721	-20.14
225.939	45.4
226.157	92.5
226.375	106.84
226.592	-5.8
226.81	-11.95
227.028	53.59
227.246	125.27
227.464	-7.85
227.682	86.36
227.9	-7.85
228.117	88.4
228.335	-30.38
228.553	57.68
228.771	78.16
228.989	149.84
229.206	69.97
229.424	-24.23
229.642	141.65
229.86	61.78
230.077	20.82
230.295	98.64
230.513	67.92
230.731	57.68
230.948	33.11
231.166	35.16
231.384	35.16
231.601	26.96
231.819	115.03
232.037	59.73
232.254	26.96
232.472	-28.33
232.689	8.53
232.907	106.84
233.125	12.63
233.342	82.26
233.56	-52.91
233.777	41.3
233.995	33.11
234.213	147.8
234.43	22.87
234.648	16.73
234.865	53.59
235.083	65.88
235.3	94.55
235.518	22.87
235.735	41.3
235.953	-7.85
236.17	123.22
236.388	10.58
236.605	57.68
236.822	94.55
237.04	-28.33
237.257	43.35
237.475	-26.28
237.692	24.92
237.909	55.64
238.127	2.39
238.344	10.58
238.562	18.77
238.779	-46.76
238.996	20.82
239.214	78.16
239.431	106.84
239.648	43.35
239.865	49.49
240.083	125.27
240.3	57.68
240.517	8.53
240.735	-18.09
240.952	115.03
241.169	115.03
241.386	49.49
241.603	33.11
241.821	49.49
242.038	86.36
242.255	74.07
242.472	18.77
242.689	67.92
242.907	147.8
243.124	88.4
243.341	92.5
243.558	35.16
243.775	35.16
243.992	-20.14
244.209	26.96
244.426	76.12
244.643	49.49
244.86	49.49
245.078	53.59
245.295	76.12
245.512	84.31
245.729	-24.23
245.946	43.35
246.163	35.16
246.38	49.49
246.597	-9.9
246.814	74.07
247.031	143.7
247.248	84.31
247.464	61.78
247.681	33.11
247.898	92.5
248.115	45.4
248.332	29.01
248.549	41.3
248.766	16.73
248.983	-11.95
249.2	53.59
249.417	63.83
249.633	0.34
249.85	26.96
250.067	-28.33
250.284	2.39
250.501	74.07
250.717	37.2
250.934	43.35
251.151	67.92
251.368	2.39
251.585	-11.95
251.801	16.73
252.018	45.4
252.235	55.64
252.451	26.96
252.668	55.64
252.885	82.26
253.102	129.36
253.318	-28.33
253.535	31.06
253.752	51.54
253.968	-5.8
254.185	41.3
254.401	104.79
254.618	51.54
254.835	72.02
255.051	135.51
255.268	-13.99
255.484	0.34
255.701	92.5
255.917	94.55
256.134	8.53
256.351	86.36
256.567	110.93
256.784	76.12
257	65.88
257.217	86.36
257.433	51.54
257.65	2.39
257.866	143.7
258.082	55.64
258.299	24.92
258.515	90.45
258.732	43.35
258.948	72.02
259.165	8.53
259.381	84.31
259.597	18.77
259.814	45.4
260.03	8.53
260.246	65.88
260.463	90.45
260.679	74.07
260.895	8.53
261.112	59.73
261.328	-85.67
261.544	16.73
261.761	67.92
261.977	12.63
262.193	4.44
262.409	96.6
262.626	129.36
262.842	63.83
263.058	20.82
263.274	55.64
263.49	31.06
263.707	45.4
263.923	-7.85
264.139	16.73
264.355	41.3
264.571	65.88
264.787	16.73
265.004	49.49
265.22	-7.85
265.436	41.3
265.652	67.92
265.868	-11.95
266.084	24.92
266.3	74.07
266.516	102.74
266.732	65.88
266.948	65.88
267.164	100.69
267.38	84.31
267.596	18.77
267.812	31.06
268.028	33.11
268.244	16.73
268.46	96.6
268.676	4.44
268.892	41.3
269.108	51.54
269.324	24.92
269.54	51.54
269.756	104.79
269.972	-40.62
270.188	131.41
270.403	59.73
270.619	24.92
270.835	51.54
271.051	51.54
271.267	61.78
271.483	49.49
271.698	51.54
271.914	67.92
272.13	65.88
272.346	-79.53
272.562	22.87
272.777	74.07
272.993	8.53
273.209	92.5
273.425	78.16
273.64	47.44
273.856	33.11
274.072	31.06
274.287	-11.95
274.503	18.77
274.719	51.54
274.934	49.49
275.15	55.64
275.366	0.34
275.581	16.73
275.797	-5.8
276.012	47.44
276.228	-40.62
276.444	51.54
276.659	57.68
276.875	24.92
277.09	10.58
277.306	0.34
277.521	90.45
277.737	-7.85
277.952	51.54
278.168	59.73
278.383	125.27
278.599	123.22
278.814	59.73
279.03	61.78
279.245	-1.71
279.461	76.12
279.676	65.88
279.892	35.16
280.107	41.3
280.322	53.59
280.538	98.64
280.753	82.26
280.969	35.16
281.184	78.16
281.399	59.73
281.615	24.92
281.83	88.4
282.045	37.2
282.26	-5.8
282.476	8.53
282.691	8.53
282.906	76.12
283.122	51.54
283.337	8.53
283.552	164.18
283.767	-11.95
283.983	41.3
284.198	129.36
284.413	33.11
284.628	16.73
284.843	100.69
285.058	69.97
285.274	112.98
285.489	24.92
285.704	49.49
285.919	2.39
286.134	74.07
286.349	67.92
286.564	49.49
286.779	51.54
286.995	33.11
287.21	-30.38
287.425	100.69
287.64	-5.8
287.855	67.92
288.07	-16.04
288.285	90.45
288.5	67.92
288.715	82.26
288.93	94.55
289.145	37.2
289.36	24.92
289.575	35.16
289.79	108.88
290.004	84.31
290.219	80.21
290.434	43.35
290.649	4.44
290.864	8.53
291.079	-11.95
291.294	86.36
291.509	108.88
291.724	2.39
291.938	12.63
292.153	67.92
292.368	51.54
292.583	67.92
292.798	84.31
293.012	6.49
293.227	-9.9
293.442	24.92
293.657	76.12
293.871	90.45
294.086	51.54
294.301	84.31
294.516	41.3
294.73	84.31
294.945	8.53
295.16	45.4
295.374	57.68
295.589	98.64
295.804	-48.81
296.018	65.88
296.233	90.45
296.447	121.17
296.662	86.36
296.877	86.36
297.091	104.79
297.306	18.77
297.52	-5.8
297.735	112.98
297.949	41.3
298.164	45.4
298.378	82.26
298.593	-7.85
298.807	53.59
299.022	59.73
299.236	82.26
299.451	90.45
299.665	41.3
299.88	43.35
300.094	33.11
300.309	4.44
300.523	45.4
300.737	74.07
300.952	16.73
301.166	82.26
301.381	18.77
301.595	65.88
301.809	29.01
302.024	55.64
302.238	59.73
302.452	82.26
302.667	22.87
302.881	86.36
303.095	119.12
303.309	-1.71
303.524	-1.71
303.738	18.77
303.952	43.35
304.166	123.22
304.381	10.58
304.595	10.58
304.809	8.53
305.023	16.73
305.237	100.69
305.452	121.17
305.666	117.08
305.88	49.49
306.094	35.16
306.308	112.98
306.522	-11.95
306.736	53.59
306.95	6.49
307.164	61.78
307.379	29.01
307.593	59.73
307.807	41.3
308.021	41.3
308.235	26.96
308.449	35.16
308.663	12.63
308.877	53.59
309.091	82.26
309.305	90.45
309.519	6.49
309.733	33.11
309.947	4.44
310.161	47.44
310.374	84.31
310.588	57.68
310.802	-3.75
311.016	53.59
311.23	-13.99
311.444	10.58
311.658	78.16
311.872	131.41
312.085	76.12
312.299	-13.99
312.513	35.16
312.727	72.02
312.941	61.78
313.154	74.07
313.368	55.64
313.582	20.82
313.796	49.49
314.009	90.45
314.223	76.12
314.437	115.03
314.651	55.64
314.864	61.78
315.078	-11.95
315.292	12.63
315.505	96.6
315.719	65.88
315.933	49.49
316.146	33.11
316.36	0.34
316.573	65.88
316.787	67.92
317.001	141.65
317.214	18.77
317.428	90.45
317.641	37.2
317.855	115.03
318.068	37.2
318.282	100.69
318.495	100.69
318.709	51.54
318.922	51.54
319.136	65.88
319.349	53.59
319.563	24.92
319.776	41.3
319.99	0.34
320.203	67.92
320.417	80.21
320.63	84.31
320.843	90.45
321.057	84.31
321.27	65.88
321.483	65.88
321.697	41.3
321.91	33.11
322.124	84.31
322.337	18.77
322.55	67.92
322.763	20.82
322.977	90.45
323.19	41.3
323.403	65.88
323.617	65.88
323.83	123.22
324.043	39.25
324.256	94.55
324.469	43.35
324.683	35.16
324.896	-20.14
325.109	67.92
325.322	76.12
325.535	100.69
325.748	57.68
325.962	51.54
326.175	80.21
326.388	98.64
326.601	74.07
326.814	59.73
327.027	12.63
327.24	82.26
327.453	80.21
327.666	12.63
327.879	57.68
328.092	-5.8
328.305	84.31
328.518	53.59
328.731	90.45
328.944	45.4
329.157	26.96
329.37	78.16
329.583	96.6
329.796	65.88
330.009	4.44
330.222	35.16
330.435	20.82
330.648	115.03
330.861	82.26
331.073	53.59
331.286	84.31
331.499	37.2
331.712	-28.33
331.925	82.26
332.138	16.73
332.35	131.41
332.563	0.34
332.776	65.88
332.989	16.73
333.202	2.39
333.414	22.87
333.627	139.6
333.84	29.01
334.053	41.3
334.265	82.26
334.478	74.07
334.691	49.49
334.903	-3.75
335.116	57.68
335.329	35.16
335.541	100.69
335.754	57.68
335.966	20.82
336.179	57.68
336.392	90.45
336.604	96.6
336.817	47.44
337.029	24.92
337.242	51.54
337.454	22.87
337.667	-34.47
337.88	82.26
338.092	108.88
338.305	112.98
338.517	-22.19
338.729	131.41
338.942	57.68
339.154	49.49
339.367	49.49
339.579	37.2
339.792	-24.23
340.004	65.88
340.217	92.5
340.429	51.54
340.641	143.7
340.854	82.26
341.066	16.73
341.278	108.88
341.491	57.68
341.703	57.68
341.915	35.16
342.128	94.55
342.34	45.4
342.552	57.68
342.764	80.21
342.977	-32.43
343.189	100.69
343.401	74.07
343.613	37.2
343.826	106.84
344.038	76.12
344.25	65.88
344.462	24.92
344.674	33.11
344.886	90.45
345.099	51.54
345.311	61.78
345.523	76.12
345.735	16.73
345.947	92.5
346.159	-20.14
346.371	104.79
346.583	74.07
346.795	90.45
347.007	24.92
347.219	98.64
347.431	69.97
347.643	94.55
347.855	53.59
348.067	100.69
348.279	80.21
348.491	141.65
348.703	106.84
348.915	51.54
349.127	78.16
349.339	106.84
349.551	69.97
349.763	137.56
349.975	119.12
350.187	110.93
350.399	117.08
350.61	41.3
350.822	90.45
351.034	143.7
351.246	20.82
351.458	106.84
351.669	59.73
351.881	117.08
352.093	57.68
352.305	155.99
352.517	49.49
352.728	55.64
352.94	65.88
353.152	33.11
353.363	100.69
353.575	49.49
353.787	115.03
353.999	100.69
354.21	90.45
354.422	90.45
354.633	41.3
354.845	115.03
355.057	43.35
355.268	49.49
355.48	86.36
355.692	33.11
355.903	65.88
356.115	106.84
356.326	35.16
356.538	74.07
356.749	45.4
356.961	131.41
357.172	18.77
357.384	74.07
357.595	164.18
357.807	8.53
358.018	106.84
358.23	90.45
358.441	84.31
358.653	121.17
358.864	55.64
359.075	-48.81
359.287	67.92
359.498	69.97
359.709	90.45
359.921	43.35
360.132	33.11
360.344	29.01
360.555	22.87
360.766	74.07
360.977	16.73
361.189	100.69
361.4	98.64
361.611	80.21
361.823	96.6
362.034	65.88
362.245	49.49
362.456	108.88
362.667	39.25
362.879	82.26
363.09	37.2
363.301	55.64
363.512	74.07
363.723	6.49
363.935	45.4
364.146	119.12
364.357	59.73
364.568	82.26
364.779	33.11
364.99	104.79
365.201	43.35
365.412	106.84
365.623	47.44
365.834	51.54
366.045	18.77
366.256	53.59
366.467	104.79
366.678	106.84
366.889	24.92
367.1	53.59
367.311	35.16
367.522	45.4
367.733	170.32
367.944	166.23
368.155	2.39
368.366	125.27
368.577	65.88
368.788	112.98
368.999	31.06
369.209	51.54
369.42	110.93
369.631	153.94
369.842	-9.9
370.053	57.68
370.264	24.92
370.474	49.49
370.685	141.65
370.896	29.01
371.107	98.64
371.317	92.5
371.528	74.07
371.739	90.45
371.95	72.02
372.16	37.2
372.371	24.92
372.582	74.07
372.792	102.74
373.003	39.25
373.214	100.69
373.424	45.4
373.635	-30.38
373.846	123.22
374.056	125.27
374.267	53.59
374.477	67.92
374.688	33.11
374.898	61.78
375.109	24.92
375.319	84.31
375.53	78.16
375.74	84.31
375.951	78.16
376.161	22.87
376.372	100.69
376.582	61.78
376.793	82.26
377.003	53.59
377.214	96.6
377.424	127.32
377.635	92.5
377.845	55.64
378.055	205.14
378.266	26.96
378.476	100.69
378.686	63.83
378.897	102.74
379.107	61.78
379.317	82.26
379.528	33.11
379.738	53.59
379.948	12.63
380.158	106.84
380.369	20.82
380.579	127.32
380.789	69.97
380.999	125.27
381.21	125.27
381.42	102.74
381.63	45.4
381.84	69.97
382.05	80.21
382.261	141.65
382.471	82.26
382.681	67.92
382.891	145.75
383.101	16.73
383.311	-18.09
383.521	108.88
383.731	131.41
383.941	133.46
384.151	127.32
384.361	76.12
384.571	155.99
384.781	123.22
384.991	115.03
385.201	55.64
385.411	133.46
385.621	61.78
385.831	72.02
386.041	98.64
386.251	16.73
386.461	115.03
386.671	26.96
386.881	74.07
387.091	110.93
387.301	127.32
387.511	108.88
387.72	106.84
387.93	49.49
388.14	53.59
388.35	153.94
388.56	49.49
388.769	149.84
388.979	20.82
389.189	-5.8
389.399	53.59
389.609	106.84
389.818	106.84
390.028	2.39
390.238	67.92
390.447	82.26
390.657	119.12
390.867	84.31
391.076	57.68
391.286	22.87
391.496	98.64
391.705	166.23
391.915	74.07
392.125	80.21
392.334	100.69
392.544	82.26
392.753	67.92
392.963	59.73
393.172	121.17
393.382	84.31
393.591	98.64
393.801	31.06
394.01	65.88
394.22	92.5
394.429	174.42
394.639	74.07
394.848	127.32
395.058	57.68
395.267	115.03
395.477	94.55
395.686	117.08
395.895	119.12
396.105	164.18
396.314	92.5
396.524	131.41
396.733	57.68
396.942	127.32
397.152	104.79
397.361	119.12
397.57	155.99
397.78	131.41
397.989	127.32
398.198	196.95
398.407	155.99
398.617	78.16
398.826	123.22
399.035	100.69
399.244	65.88
399.453	127.32
399.663	158.03
399.872	127.32
400.081	90.45
400.29	166.23
400.499	127.32
400.708	158.03
400.917	104.79
401.127	69.97
401.336	129.36
401.545	176.47
401.754	221.52
401.963	256.34
402.172	123.22
402.381	188.75
402.59	164.18
402.799	196.95
403.008	188.75
403.217	129.36
403.426	178.51
403.635	186.71
403.844	182.61
404.053	141.65
404.262	143.7
404.471	174.42
404.68	242
404.888	192.85
405.097	172.37
405.306	229.71
405.515	209.23
405.724	256.34
405.933	225.62
406.142	303.44
406.35	221.52
406.559	223.57
406.768	117.08
406.977	262.48
407.185	256.34
407.394	262.48
407.603	280.91
407.812	348.5
408.02	307.54
408.229	325.97
408.438	297.3
408.646	301.39
408.855	352.59
409.064	287.06
409.272	428.37
409.481	352.59
409.69	323.92
409.898	319.82
410.107	438.61
410.315	379.22
410.524	411.98
410.733	409.94
410.941	375.12
411.15	457.04
411.358	442.7
411.567	477.52
411.775	520.53
411.984	491.85
412.192	598.35
412.401	575.82
412.609	524.62
412.818	629.07
413.026	592.2
413.234	541.01
413.443	672.08
413.651	559.44
413.86	739.66
414.068	786.76
414.276	778.57
414.485	708.94
414.693	782.67
414.901	934.22
415.11	889.16
415.318	928.07
415.526	909.64
415.734	1083.72
415.943	977.22
416.151	1040.71
416.359	1093.96
416.567	1026.37
416.776	1167.68
416.984	1206.59
417.192	1255.75
417.4	1272.13
417.608	1212.74
417.817	1327.43
418.025	1319.23
418.233	1413.44
418.441	1360.19
418.649	1438.02
418.857	1651
419.065	1560.89
419.273	1536.32
419.481	1532.22
419.689	1730.87
419.897	1913.14
420.105	1863.99
420.313	1886.52
420.521	1898.81
420.729	2005.3
420.937	2111.8
421.145	2210.1
421.353	2240.82
421.561	2242.87
421.769	2498.86
421.977	2615.6
422.185	2427.18
422.393	2588.97
422.601	2791.72
422.809	2787.63
423.017	2765.1
423.224	2842.92
423.432	3178.79
423.64	3066.15
423.848	3197.22
424.056	3195.17
424.263	3359.01
424.471	3485.98
424.679	3604.77
424.887	3830.04
425.094	3911.96
425.302	3875.1
425.51	3959.06
425.718	4223.25
425.925	4303.12
426.133	4415.76
426.341	4655.37
426.548	4763.92
426.756	4911.37
426.964	4786.44
427.171	5189.89
427.379	5286.15
427.586	5325.06
427.794	5595.39
428.001	5632.26
428.209	5982.46
428.417	5843.2
428.624	6293.75
428.832	6205.69
429.039	6303.99
429.247	6271.22
429.454	7004.39
429.662	7291.11
429.869	6873.32
430.076	7235.81
430.284	7078.12
430.491	7454.95
430.699	7751.9
430.906	7889.12
431.114	8052.95
431.321	8509.65
431.528	8530.13
431.736	9095.37
431.943	9259.21
432.15	9015.5
432.358	9130.19
432.565	9580.74
432.772	9478.34
432.979	10111.16
433.187	10234.04
433.394	10176.7
433.601	11018.41
433.808	11190.44
434.016	10817.71
434.223	11301.03
434.43	11933.86
434.637	11937.95
434.844	12513.43
435.052	12984.46
435.259	12869.78
435.466	12832.91
435.673	12882.06
435.88	13789.31
436.087	14295.16
436.294	14319.74
436.501	13809.79
436.708	14256.25
436.915	14573.69
437.122	15503.46
437.329	15167.6
437.537	15904.87
437.743	16140.38
437.95	16306.27
438.157	16863.32
438.364	17334.35
438.571	17492.04
438.778	17483.85
438.985	19017.78
439.192	18460.73
439.399	18939.96
439.606	18778.17
439.813	19783.72
440.02	21008.4
440.227	20324.38
440.433	20138.02
440.64	20897.81
440.847	20822.04
441.054	21409.81
441.261	22581.24
441.467	22263.81
441.674	22894.58
441.881	23298.03
442.088	23654.38
442.294	23349.23
442.501	23863.27
442.708	24401.89
442.914	25198.55
443.121	26560.45
443.328	25812.94
443.534	27547.57
443.741	26644.41
443.948	26302.4
444.154	28260.26
444.361	28434.34
444.568	28446.63
444.774	28127.14
444.981	28495.78
445.187	29409.17
445.394	30558.08
445.6	30289.8
445.807	32911.2
446.013	31485.81
446.22	32333.67
446.426	33283.93
446.633	33429.34
446.839	34768.71
447.046	33378.14
447.252	35262.27
447.459	35252.03
447.665	35041.09
447.871	36527.91
448.078	38010.64
448.284	36480.81
448.491	37379.87
448.697	38571.78
448.903	39276.29
449.11	39565.05
449.316	38717.19
449.522	39325.44
449.728	40564.46
449.935	41031.4
450.141	40775.4
450.347	42034.9
450.553	40959.72
450.76	41135.84
450.966	42221.27
451.172	42026.71
451.378	43042.5
451.584	42200.79
451.791	43208.39
451.997	43202.24
452.203	43505.34
452.409	43667.13
452.615	43796.15
452.821	41807.58
453.027	41279.2
453.233	43796.15
453.44	41795.29
453.646	42303.18
453.852	42454.73
454.058	43562.68
454.264	41789.14
454.47	42745.55
454.676	41582.3
454.882	43253.44
455.088	39184.13
455.294	40249.07
455.5	40599.27
455.705	41008.87
455.911	39456.51
456.117	38600.46
456.323	38231.82
456.529	36597.54
456.735	37975.83
456.941	36550.44
457.147	36206.38
457.352	35194.68
457.558	35071.81
457.764	35012.42
457.97	34144.08
458.176	33423.19
458.381	33533.78
458.587	31866.74
458.793	31643.51
458.999	30306.18
459.204	32255.85
459.41	31336.31
459.616	29323.16
459.821	29519.76
460.027	29814.67
460.233	28964.76
460.438	27598.77
460.644	28090.28
460.85	26363.84
461.055	26238.92
461.261	25984.97
461.466	23961.58
461.672	23330.8
461.878	25085.91
462.083	23257.07
462.289	22988.79
462.494	22947.83
462.7	21585.93
462.905	21039.12
463.111	21739.53
463.316	22110.21
463.522	21475.34
463.727	21370.9
463.932	21553.16
464.138	21053.46
464.343	21147.67
464.549	20619.29
464.754	21458.96
464.959	20969.49
465.165	20658.2
465.37	19984.42
465.575	19841.06
465.781	20275.23
465.986	20736.02
466.191	19548.2
466.397	19382.32
466.602	18311.23
466.807	19083.31
