Data from USB4F104151__148__14-19-24-150.txt Node

Date: Thu Mar 13 14:19:24 EDT 2025
User: louis
Spectrometer: USB4F10415
Trigger mode: 4
Integration Time (sec): 2.000000E-2
Scans to average: 1
Electric dark correction enabled: true
Nonlinearity correction enabled: false
Boxcar width: 0
XAxis mode: Wavelengths
Number of Pixels in Spectrum: 3648
>>>>>Begin Spectral Data<<<<<
178.204	-118.44
178.424	-118.44
178.644	-118.44
178.864	-175.78
179.084	-95.91
179.304	-18.09
179.524	-9.9
179.744	-1.71
179.964	12.63
180.184	-30.38
180.404	55.64
180.624	-5.8
180.844	18.77
181.064	-134.82
181.283	29.01
181.503	24.92
181.723	59.73
181.943	-40.62
182.163	51.54
182.383	35.16
182.602	47.44
182.822	35.16
183.042	18.77
183.262	29.01
183.482	29.01
183.701	86.36
183.921	100.69
184.141	-13.99
184.361	41.3
184.58	82.26
184.8	-5.8
185.02	80.21
185.239	-5.8
185.459	63.83
185.679	35.16
185.898	-24.23
186.118	84.31
186.338	-42.67
186.557	76.12
186.777	29.01
186.997	43.35
187.216	69.97
187.436	78.16
187.655	76.12
187.875	59.73
188.095	26.96
188.314	55.64
188.534	133.46
188.753	20.82
188.973	31.06
189.192	69.97
189.412	92.5
189.631	59.73
189.851	67.92
190.07	139.6
190.29	2.39
190.509	92.5
190.729	37.2
190.948	94.55
191.168	145.75
191.387	63.83
191.607	26.96
191.826	78.16
192.045	10.58
192.265	55.64
192.484	18.77
192.704	43.35
192.923	-22.19
193.142	108.88
193.362	43.35
193.581	84.31
193.8	69.97
194.02	53.59
194.239	45.4
194.458	102.74
194.678	53.59
194.897	78.16
195.116	65.88
195.335	80.21
195.555	29.01
195.774	84.31
195.993	47.44
196.212	26.96
196.432	18.77
196.651	0.34
196.87	16.73
197.089	145.75
197.308	37.2
197.528	35.16
197.747	20.82
197.966	53.59
198.185	67.92
198.404	37.2
198.623	51.54
198.842	22.87
199.062	53.59
199.281	18.77
199.5	74.07
199.719	41.3
199.938	6.49
200.157	59.73
200.376	43.35
200.595	-13.99
200.814	-34.47
201.033	14.68
201.252	35.16
201.471	-13.99
201.69	104.79
201.909	53.59
202.128	76.12
202.347	104.79
202.566	-18.09
202.785	90.45
203.004	-44.71
203.223	31.06
203.442	76.12
203.661	61.78
203.879	39.25
204.098	127.32
204.317	-26.28
204.536	67.92
204.755	41.3
204.974	78.16
205.193	59.73
205.411	67.92
205.63	8.53
205.849	55.64
206.068	65.88
206.287	31.06
206.505	72.02
206.724	24.92
206.943	55.64
207.162	-3.75
207.381	76.12
207.599	-18.09
207.818	80.21
208.037	67.92
208.255	-3.75
208.474	31.06
208.693	92.5
208.911	59.73
209.13	-36.52
209.349	18.77
209.567	47.44
209.786	78.16
210.005	102.74
210.223	26.96
210.442	53.59
210.661	18.77
210.879	4.44
211.098	51.54
211.316	86.36
211.535	108.88
211.753	61.78
211.972	63.83
212.191	39.25
212.409	55.64
212.628	35.16
212.846	10.58
213.065	35.16
213.283	92.5
213.502	22.87
213.72	69.97
213.938	29.01
214.157	78.16
214.375	10.58
214.594	98.64
214.812	76.12
215.031	92.5
215.249	-30.38
215.467	39.25
215.686	67.92
215.904	22.87
216.122	143.7
216.341	18.77
216.559	14.68
216.778	80.21
216.996	39.25
217.214	37.2
217.432	80.21
217.651	43.35
217.869	61.78
218.087	100.69
218.306	141.65
218.524	47.44
218.742	-1.71
218.96	59.73
219.179	43.35
219.397	51.54
219.615	112.98
219.833	4.44
220.051	37.2
220.27	78.16
220.488	26.96
220.706	6.49
220.924	12.63
221.142	-5.8
221.36	20.82
221.578	104.79
221.796	59.73
222.015	94.55
222.233	45.4
222.451	47.44
222.669	37.2
222.887	35.16
223.105	-26.28
223.323	45.4
223.541	43.35
223.759	2.39
223.977	67.92
224.195	63.83
224.413	90.45
224.631	-3.75
224.849	12.63
225.067	67.92
225.285	-22.19
225.503	18.77
225.721	-38.57
225.939	90.45
226.157	69.97
226.375	72.02
226.592	29.01
226.81	53.59
227.028	33.11
227.246	-7.85
227.464	59.73
227.682	55.64
227.9	149.84
228.117	76.12
228.335	29.01
228.553	41.3
228.771	31.06
228.989	-5.8
229.206	35.16
229.424	51.54
229.642	-13.99
229.86	2.39
230.077	59.73
230.295	67.92
230.513	-13.99
230.731	67.92
230.948	104.79
231.166	84.31
231.384	35.16
231.601	100.69
231.819	39.25
232.037	4.44
232.254	-26.28
232.472	39.25
232.689	16.73
232.907	100.69
233.125	35.16
233.342	35.16
233.56	51.54
233.777	82.26
233.995	43.35
234.213	96.6
234.43	10.58
234.648	-20.14
234.865	10.58
235.083	86.36
235.3	22.87
235.518	78.16
235.735	59.73
235.953	117.08
236.17	80.21
236.388	82.26
236.605	31.06
236.822	33.11
237.04	29.01
237.257	37.2
237.475	-34.47
237.692	84.31
237.909	35.16
238.127	20.82
238.344	31.06
238.562	51.54
238.779	-48.81
238.996	88.4
239.214	2.39
239.431	72.02
239.648	59.73
239.865	41.3
240.083	131.41
240.3	2.39
240.517	59.73
240.735	55.64
240.952	112.98
241.169	133.46
241.386	59.73
241.603	10.58
241.821	33.11
242.038	102.74
242.255	24.92
242.472	18.77
242.689	125.27
242.907	2.39
243.124	24.92
243.341	26.96
243.558	59.73
243.775	-9.9
243.992	-54.95
244.209	57.68
244.426	86.36
244.643	78.16
244.86	-24.23
245.078	49.49
245.295	12.63
245.512	-7.85
245.729	74.07
245.946	92.5
246.163	65.88
246.38	29.01
246.597	24.92
246.814	49.49
247.031	53.59
247.248	78.16
247.464	45.4
247.681	-18.09
247.898	29.01
248.115	49.49
248.332	-1.71
248.549	55.64
248.766	76.12
248.983	26.96
249.2	49.49
249.417	63.83
249.633	51.54
249.85	69.97
250.067	31.06
250.284	31.06
250.501	39.25
250.717	51.54
250.934	2.39
251.151	22.87
251.368	72.02
251.585	39.25
251.801	-7.85
252.018	-22.19
252.235	2.39
252.451	26.96
252.668	16.73
252.885	69.97
253.102	117.08
253.318	26.96
253.535	45.4
253.752	-34.47
253.968	51.54
254.185	39.25
254.401	92.5
254.618	67.92
254.835	12.63
255.051	112.98
255.268	43.35
255.484	18.77
255.701	53.59
255.917	86.36
256.134	-5.8
256.351	59.73
256.567	-13.99
256.784	92.5
257	37.2
257.217	37.2
257.433	39.25
257.65	67.92
257.866	86.36
258.082	39.25
258.299	37.2
258.515	39.25
258.732	4.44
258.948	67.92
259.165	47.44
259.381	59.73
259.597	63.83
259.814	72.02
260.03	35.16
260.246	31.06
260.463	-5.8
260.679	39.25
260.895	51.54
261.112	69.97
261.328	-38.57
261.544	2.39
261.761	47.44
261.977	86.36
262.193	61.78
262.409	26.96
262.626	-5.8
262.842	92.5
263.058	-24.23
263.274	20.82
263.49	43.35
263.707	45.4
263.923	51.54
264.139	67.92
264.355	6.49
264.571	76.12
264.787	-26.28
265.004	76.12
265.22	100.69
265.436	20.82
265.652	31.06
265.868	14.68
266.084	0.34
266.3	-3.75
266.516	-38.57
266.732	63.83
266.948	-3.75
267.164	-1.71
267.38	100.69
267.596	98.64
267.812	80.21
268.028	61.78
268.244	0.34
268.46	78.16
268.676	37.2
268.892	61.78
269.108	-22.19
269.324	-9.9
269.54	41.3
269.756	26.96
269.972	41.3
270.188	37.2
270.403	-11.95
270.619	43.35
270.835	-3.75
271.051	29.01
271.267	6.49
271.483	67.92
271.698	-20.14
271.914	80.21
272.13	39.25
272.346	-3.75
272.562	-5.8
272.777	92.5
272.993	-40.62
273.209	41.3
273.425	6.49
273.64	45.4
273.856	67.92
274.072	88.4
274.287	49.49
274.503	78.16
274.719	123.22
274.934	63.83
275.15	2.39
275.366	45.4
275.581	104.79
275.797	74.07
276.012	51.54
276.228	10.58
276.444	26.96
276.659	125.27
276.875	39.25
277.09	67.92
277.306	18.77
277.521	84.31
277.737	69.97
277.952	67.92
278.168	72.02
278.383	18.77
278.599	-7.85
278.814	96.6
279.03	18.77
279.245	55.64
279.461	37.2
279.676	26.96
279.892	18.77
280.107	6.49
280.322	59.73
280.538	57.68
280.753	51.54
280.969	76.12
281.184	41.3
281.399	94.55
281.615	76.12
281.83	74.07
282.045	53.59
282.26	-52.91
282.476	18.77
282.691	76.12
282.906	67.92
283.122	67.92
283.337	39.25
283.552	6.49
283.767	51.54
283.983	55.64
284.198	-1.71
284.413	53.59
284.628	-22.19
284.843	53.59
285.058	55.64
285.274	67.92
285.489	-18.09
285.704	45.4
285.919	59.73
286.134	43.35
286.349	26.96
286.564	29.01
286.779	141.65
286.995	-18.09
287.21	39.25
287.425	90.45
287.64	51.54
287.855	4.44
288.07	29.01
288.285	112.98
288.5	20.82
288.715	18.77
288.93	12.63
289.145	10.58
289.36	0.34
289.575	55.64
289.79	2.39
290.004	10.58
290.219	84.31
290.434	-3.75
290.649	31.06
290.864	47.44
291.079	45.4
291.294	61.78
291.509	94.55
291.724	-26.28
291.938	39.25
292.153	33.11
292.368	16.73
292.583	76.12
292.798	4.44
293.012	-36.52
293.227	59.73
293.442	94.55
293.657	53.59
293.871	123.22
294.086	10.58
294.301	12.63
294.516	65.88
294.73	22.87
294.945	16.73
295.16	51.54
295.374	8.53
295.589	86.36
295.804	43.35
296.018	108.88
296.233	74.07
296.447	61.78
296.662	6.49
296.877	45.4
297.091	18.77
297.306	43.35
297.52	10.58
297.735	29.01
297.949	53.59
298.164	55.64
298.378	-18.09
298.593	20.82
298.807	104.79
299.022	26.96
299.236	63.83
299.451	88.4
299.665	-5.8
299.88	12.63
300.094	55.64
300.309	61.78
300.523	69.97
300.737	92.5
300.952	-40.62
301.166	92.5
301.381	6.49
301.595	61.78
301.809	78.16
302.024	35.16
302.238	14.68
302.452	53.59
302.667	94.55
302.881	53.59
303.095	20.82
303.309	4.44
303.524	67.92
303.738	88.4
303.952	29.01
304.166	76.12
304.381	18.77
304.595	78.16
304.809	41.3
305.023	69.97
305.237	59.73
305.452	2.39
305.666	72.02
305.88	94.55
306.094	55.64
306.308	119.12
306.522	45.4
306.736	65.88
306.95	133.46
307.164	35.16
307.379	61.78
307.593	61.78
307.807	63.83
308.021	35.16
308.235	-11.95
308.449	121.17
308.663	51.54
308.877	166.23
309.091	41.3
309.305	51.54
309.519	-5.8
309.733	55.64
309.947	53.59
310.161	67.92
310.374	45.4
310.588	16.73
310.802	33.11
311.016	80.21
311.23	57.68
311.444	47.44
311.658	-20.14
311.872	88.4
312.085	20.82
312.299	59.73
312.513	59.73
312.727	-26.28
312.941	29.01
313.154	84.31
313.368	82.26
313.582	-5.8
313.796	84.31
314.009	39.25
314.223	80.21
314.437	59.73
314.651	141.65
314.864	43.35
315.078	-1.71
315.292	59.73
315.505	108.88
315.719	92.5
315.933	-48.81
316.146	61.78
316.36	39.25
316.573	78.16
316.787	57.68
317.001	61.78
317.214	-38.57
317.428	43.35
317.641	53.59
317.855	67.92
318.068	59.73
318.282	100.69
318.495	88.4
318.709	86.36
318.922	26.96
319.136	92.5
319.349	158.03
319.563	92.5
319.776	-26.28
319.99	-1.71
320.203	31.06
320.417	-7.85
320.63	55.64
320.843	55.64
321.057	51.54
321.27	59.73
321.483	37.2
321.697	143.7
321.91	88.4
322.124	18.77
322.337	18.77
322.55	51.54
322.763	61.78
322.977	18.77
323.19	63.83
323.403	59.73
323.617	117.08
323.83	63.83
324.043	55.64
324.256	-3.75
324.469	33.11
324.683	123.22
324.896	53.59
325.109	29.01
325.322	12.63
325.535	125.27
325.748	104.79
325.962	20.82
326.175	121.17
326.388	67.92
326.601	67.92
326.814	76.12
327.027	12.63
327.24	115.03
327.453	29.01
327.666	100.69
327.879	100.69
328.092	67.92
328.305	20.82
328.518	31.06
328.731	80.21
328.944	80.21
329.157	98.64
329.37	-22.19
329.583	4.44
329.796	108.88
330.009	43.35
330.222	43.35
330.435	43.35
330.648	12.63
330.861	108.88
331.073	43.35
331.286	55.64
331.499	69.97
331.712	-3.75
331.925	51.54
332.138	55.64
332.35	2.39
332.563	35.16
332.776	80.21
332.989	57.68
333.202	31.06
333.414	43.35
333.627	33.11
333.84	102.74
334.053	59.73
334.265	10.58
334.478	143.7
334.691	84.31
334.903	110.93
335.116	16.73
335.329	84.31
335.541	69.97
335.754	78.16
335.966	-5.8
336.179	18.77
336.392	26.96
336.604	20.82
336.817	39.25
337.029	88.4
337.242	51.54
337.454	22.87
337.667	6.49
337.88	39.25
338.092	29.01
338.305	10.58
338.517	51.54
338.729	94.55
338.942	72.02
339.154	43.35
339.367	2.39
339.579	37.2
339.792	-1.71
340.004	55.64
340.217	94.55
340.429	88.4
340.641	33.11
340.854	18.77
341.066	-34.47
341.278	78.16
341.491	59.73
341.703	10.58
341.915	2.39
342.128	8.53
342.34	-5.8
342.552	-38.57
342.764	33.11
342.977	69.97
343.189	55.64
343.401	125.27
343.613	31.06
343.826	61.78
344.038	-22.19
344.25	26.96
344.462	35.16
344.674	55.64
344.886	72.02
345.099	92.5
345.311	84.31
345.523	26.96
345.735	16.73
345.947	49.49
346.159	2.39
346.371	61.78
346.583	51.54
346.795	72.02
347.007	16.73
347.219	18.77
347.431	59.73
347.643	108.88
347.855	33.11
348.067	94.55
348.279	-52.91
348.491	55.64
348.703	2.39
348.915	4.44
349.127	-34.47
349.339	-38.57
349.551	-7.85
349.763	84.31
349.975	67.92
350.187	100.69
350.399	63.83
350.61	59.73
350.822	26.96
351.034	24.92
351.246	141.65
351.458	16.73
351.669	61.78
351.881	51.54
352.093	47.44
352.305	59.73
352.517	121.17
352.728	110.93
352.94	51.54
353.152	35.16
353.363	49.49
353.575	14.68
353.787	84.31
353.999	35.16
354.21	86.36
354.422	72.02
354.633	98.64
354.845	61.78
355.057	106.84
355.268	117.08
355.48	39.25
355.692	26.96
355.903	-1.71
356.115	67.92
356.326	-16.04
356.538	94.55
356.749	100.69
356.961	76.12
357.172	72.02
357.384	69.97
357.595	121.17
357.807	6.49
358.018	112.98
358.23	53.59
358.441	106.84
358.653	39.25
358.864	53.59
359.075	100.69
359.287	26.96
359.498	67.92
359.709	39.25
359.921	102.74
360.132	106.84
360.344	14.68
360.555	76.12
360.766	18.77
360.977	100.69
361.189	110.93
361.4	63.83
361.611	92.5
361.823	137.56
362.034	84.31
362.245	8.53
362.456	78.16
362.667	94.55
362.879	51.54
363.09	170.32
363.301	74.07
363.512	47.44
363.723	76.12
363.935	92.5
364.146	102.74
364.357	18.77
364.568	51.54
364.779	31.06
364.99	67.92
365.201	2.39
365.412	37.2
365.623	67.92
365.834	-28.33
366.045	35.16
366.256	55.64
366.467	108.88
366.678	100.69
366.889	18.77
367.1	4.44
367.311	69.97
367.522	-1.71
367.733	51.54
367.944	55.64
368.155	4.44
368.366	129.36
368.577	80.21
368.788	20.82
368.999	14.68
369.209	18.77
369.42	115.03
369.631	135.51
369.842	59.73
370.053	59.73
370.264	-5.8
370.474	0.34
370.685	80.21
370.896	59.73
371.107	18.77
371.317	57.68
371.528	20.82
371.739	35.16
371.95	80.21
372.16	26.96
372.371	41.3
372.582	94.55
372.792	10.58
373.003	84.31
373.214	47.44
373.424	-7.85
373.635	26.96
373.846	102.74
374.056	45.4
374.267	20.82
374.477	47.44
374.688	76.12
374.898	94.55
375.109	78.16
375.319	84.31
375.53	20.82
375.74	92.5
375.951	72.02
376.161	33.11
376.372	-16.04
376.582	14.68
376.793	37.2
377.003	26.96
377.214	59.73
377.424	14.68
377.635	6.49
377.845	6.49
378.055	112.98
378.266	94.55
378.476	2.39
378.686	45.4
378.897	108.88
379.107	86.36
379.317	59.73
379.528	72.02
379.738	100.69
379.948	26.96
380.158	117.08
380.369	35.16
380.579	110.93
380.789	119.12
380.999	135.51
381.21	39.25
381.42	117.08
381.63	-16.04
381.84	92.5
382.05	96.6
382.261	86.36
382.471	76.12
382.681	51.54
382.891	112.98
383.101	53.59
383.311	92.5
383.521	51.54
383.731	149.84
383.941	125.27
384.151	110.93
384.361	67.92
384.571	100.69
384.781	94.55
384.991	80.21
385.201	127.32
385.411	4.44
385.621	141.65
385.831	41.3
386.041	67.92
386.251	121.17
386.461	102.74
386.671	43.35
386.881	59.73
387.091	74.07
387.301	16.73
387.511	92.5
387.72	37.2
387.93	80.21
388.14	43.35
388.35	74.07
388.56	84.31
388.769	137.56
388.979	55.64
389.189	67.92
389.399	129.36
389.609	98.64
389.818	86.36
390.028	94.55
390.238	61.78
390.447	12.63
390.657	133.46
390.867	112.98
391.076	98.64
391.286	51.54
391.496	104.79
391.705	22.87
391.915	78.16
392.125	86.36
392.334	61.78
392.544	119.12
392.753	35.16
392.963	29.01
393.172	69.97
393.382	55.64
393.591	55.64
393.801	143.7
394.01	149.84
394.22	74.07
394.429	4.44
394.639	72.02
394.848	135.51
395.058	127.32
395.267	55.64
395.477	84.31
395.686	149.84
395.895	61.78
396.105	145.75
396.314	22.87
396.524	149.84
396.733	86.36
396.942	96.6
397.152	139.6
397.361	129.36
397.57	108.88
397.78	166.23
397.989	125.27
398.198	196.95
398.407	117.08
398.617	67.92
398.826	143.7
399.035	123.22
399.244	100.69
399.453	76.12
399.663	182.61
399.872	108.88
400.081	86.36
400.29	149.84
400.499	108.88
400.708	139.6
400.917	59.73
401.127	168.27
401.336	61.78
401.545	141.65
401.754	137.56
401.963	143.7
402.172	117.08
402.381	151.89
402.59	153.94
402.799	84.31
403.008	182.61
403.217	127.32
403.426	137.56
403.635	153.94
403.844	133.46
404.053	182.61
404.262	141.65
404.471	231.76
404.68	201.04
404.888	117.08
405.097	166.23
405.306	227.67
405.515	174.42
405.724	149.84
405.933	190.8
406.142	133.46
406.35	289.1
406.559	182.61
406.768	174.42
406.977	184.66
407.185	170.32
407.394	160.08
407.603	174.42
407.812	213.33
408.02	239.95
408.229	256.34
408.438	182.61
408.646	215.38
408.855	217.43
409.064	246.1
409.272	315.73
409.481	244.05
409.69	285.01
409.898	317.78
410.107	321.87
410.315	338.26
410.524	411.98
410.733	346.45
410.941	264.53
411.15	385.36
411.358	393.55
411.567	381.26
411.775	397.65
411.984	454.99
412.192	409.94
412.401	348.5
412.609	575.82
412.818	483.66
413.026	577.87
413.234	495.95
413.443	616.78
413.651	526.67
413.86	538.96
414.068	592.2
414.276	624.97
414.485	655.69
414.693	674.12
414.901	692.55
415.11	733.51
415.318	764.23
415.526	629.07
415.734	813.38
415.943	764.23
416.151	829.77
416.359	856.39
416.567	915.78
416.776	962.89
416.984	979.27
417.192	1063.24
417.4	997.7
417.608	1050.95
417.817	997.7
418.025	1214.79
418.233	1132.87
418.441	1182.02
418.649	1231.17
418.857	1374.53
419.065	1288.51
419.273	1272.13
419.481	1368.38
419.689	1487.17
419.897	1507.65
420.105	1583.42
420.313	1577.28
420.521	1743.16
420.729	1751.35
420.937	1673.53
421.145	1761.59
421.353	1845.56
421.561	1993.01
421.769	1962.3
421.977	2148.66
422.185	2197.81
422.393	2257.2
422.601	2292.02
422.809	2335.03
423.017	2355.51
423.224	2431.28
423.432	2666.8
423.64	2623.79
423.848	2892.07
424.056	2806.06
424.263	2838.83
424.471	2949.42
424.679	2967.85
424.887	3160.36
425.094	3279.14
425.302	3283.24
425.51	3340.58
425.718	3391.78
425.925	3492.13
426.133	3674.4
426.341	3866.91
426.548	4100.37
426.756	3918.11
426.964	4186.39
427.171	4159.77
427.379	4366.61
427.586	4434.19
427.794	4638.99
428.001	4894.99
428.209	4983.05
428.417	5120.26
428.624	5234.95
428.832	5245.19
429.039	5345.54
429.247	5282.05
429.454	5773.57
429.662	6269.17
429.869	5847.29
430.076	6193.4
430.284	5888.25
430.491	6222.07
430.699	6519.03
430.906	6504.69
431.114	6701.3
431.321	6834.41
431.528	7035.11
431.736	7635.17
431.943	7825.63
432.15	7639.26
432.358	7706.85
432.565	7928.03
432.772	8079.58
432.979	8589.52
433.187	8665.3
433.394	8646.87
433.601	9341.13
433.808	9193.67
434.016	9433.29
434.223	9631.94
434.43	10174.65
434.637	9945.28
434.844	10737.84
435.052	10807.47
435.259	11014.32
435.466	10813.62
435.673	10694.83
435.88	11374.76
436.087	11892.9
436.294	11976.86
436.501	11600.04
436.708	11896.99
436.915	12322.97
437.122	13011.09
437.329	12636.31
437.537	13299.85
437.743	13387.91
437.95	13312.14
438.157	13910.15
438.364	14567.54
438.571	14592.12
438.778	14620.79
438.985	16089.18
439.192	15308.91
439.399	15874.15
439.606	15640.68
439.813	16271.45
440.02	17305.68
440.227	17012.82
440.433	16736.34
440.64	17399.88
440.847	17193.04
441.054	17295.44
441.261	18817.08
441.467	18589.75
441.674	18901.04
441.881	19367.98
442.088	19587.11
442.294	19408.94
442.501	19767.34
442.708	20342.81
442.914	21186.58
443.121	21712.91
443.328	21252.11
443.534	22763.51
443.741	21897.22
443.948	21837.83
444.154	23343.09
444.361	23396.34
444.568	23468.02
444.774	23472.11
444.981	23621.61
445.187	24397.79
445.394	25262.04
445.6	25024.47
445.807	27510.71
446.013	26374.08
446.22	26867.64
446.426	27652.02
446.633	28129.19
446.839	29077.4
447.046	27557.81
447.252	28964.76
447.459	29147.03
447.665	29298.58
447.871	30193.54
448.078	31666.03
448.284	30162.83
448.491	31147.9
448.697	32345.96
448.903	32642.92
449.11	32483.17
449.316	32206.7
449.522	32989.02
449.728	33840.98
449.935	34049.87
450.141	33883.98
450.347	35082.05
450.553	33929.04
450.76	34021.2
450.966	35202.88
451.172	34697.03
451.378	35610.42
451.584	34959.17
451.791	35635
451.997	35575.61
452.203	36517.67
452.409	36165.42
452.615	35936.05
452.821	34750.28
453.027	34164.56
453.233	36210.48
453.44	34481.99
453.646	35221.31
453.852	35782.45
454.058	36140.85
454.264	34852.67
454.47	35553.08
454.676	34934.59
454.882	35940.14
455.088	32671.59
455.294	33480.53
455.5	33863.5
455.705	34348.87
455.911	33070.94
456.117	32135.02
456.323	31610.74
456.529	29917.07
456.735	31618.93
456.941	30846.85
457.147	30211.98
457.352	29458.32
457.558	29087.64
457.764	29134.74
457.97	28420
458.176	28016.55
458.381	27910.06
458.587	26750.91
458.793	26525.63
458.999	25151.45
459.204	26755.01
459.41	26222.53
459.616	24522.72
459.821	24858.59
460.027	24565.73
460.233	23947.24
460.438	22624.25
460.644	23074.81
460.85	21946.37
461.055	21846.02
461.261	21583.88
461.466	19990.56
461.672	19314.73
461.878	20869.14
462.083	19331.12
462.289	19177.52
462.494	19023.92
462.7	18042.95
462.905	17745.99
463.111	18131.01
463.316	18311.23
463.522	17629.26
463.727	17616.97
463.932	17764.42
464.138	17637.45
464.343	17625.16
464.549	17199.18
464.754	17827.91
464.959	17475.66
465.165	17475.66
465.37	16822.36
465.575	16279.64
465.781	16719.96
465.986	17121.36
466.191	16242.78
466.397	15880.29
466.602	15550.57
466.807	15947.87
467.012	16019.55
467.218	15927.39
467.423	15685.73
