Data from USB4F104151__132__14-19-06-576.txt Node

Date: Thu Mar 13 14:19:06 EDT 2025
User: louis
Spectrometer: USB4F10415
Trigger mode: 4
Integration Time (sec): 2.000000E-2
Scans to average: 1
Electric dark correction enabled: true
Nonlinearity correction enabled: false
Boxcar width: 0
XAxis mode: Wavelengths
Number of Pixels in Spectrum: 3648
>>>>>Begin Spectral Data<<<<<
178.204	-133.97
178.424	-133.97
178.644	-133.97
178.864	-125.78
179.084	-64.34
179.304	23.72
179.524	23.72
179.744	15.53
179.964	-25.43
180.184	-52.05
180.404	-33.62
180.624	19.63
180.844	31.91
181.064	-33.62
181.283	23.72
181.503	-50
181.723	56.49
181.943	11.43
182.163	89.26
182.383	27.82
182.602	17.58
182.822	79.02
183.042	68.78
183.262	1.19
183.482	29.87
183.701	-29.52
183.921	36.01
184.141	-25.43
184.361	103.59
184.58	27.82
184.8	44.2
185.02	7.34
185.239	31.91
185.459	-50
185.679	19.63
185.898	9.39
186.118	7.34
186.338	44.2
186.557	48.3
186.777	13.48
186.997	48.3
187.216	40.11
187.436	17.58
187.655	23.72
187.875	79.02
188.095	-37.72
188.314	60.59
188.534	66.73
188.753	1.19
188.973	-0.85
189.192	23.72
189.412	3.24
189.631	52.39
189.851	7.34
190.07	5.29
190.29	3.24
190.509	-58.2
190.729	158.89
190.948	-9.05
191.168	111.78
191.387	70.83
191.607	54.44
191.826	89.26
192.045	-0.85
192.265	1.19
192.484	76.97
192.704	-15.19
192.923	-29.52
193.142	132.26
193.362	7.34
193.581	64.68
193.8	17.58
194.02	15.53
194.239	-11.09
194.458	31.91
194.678	27.82
194.897	25.77
195.116	-13.14
195.335	60.59
195.555	-11.09
195.774	-21.33
195.993	97.45
196.212	-0.85
196.432	76.97
196.651	58.54
196.87	15.53
197.089	68.78
197.308	31.91
197.528	83.11
197.747	81.07
197.966	9.39
198.185	58.54
198.404	9.39
198.623	36.01
198.842	68.78
199.062	76.97
199.281	62.63
199.5	-60.24
199.719	81.07
199.938	56.49
200.157	105.64
200.376	33.96
200.595	17.58
200.814	-4.95
201.033	85.16
201.252	-17.24
201.471	-37.72
201.69	68.78
201.909	64.68
202.128	-64.34
202.347	23.72
202.566	29.87
202.785	11.43
203.004	-45.91
203.223	134.31
203.442	64.68
203.661	33.96
203.879	27.82
204.098	42.15
204.317	-9.05
204.536	48.3
204.755	-19.29
204.974	23.72
205.193	-17.24
205.411	148.65
205.63	31.91
205.849	-0.85
206.068	56.49
206.287	58.54
206.505	48.3
206.724	64.68
206.943	81.07
207.162	58.54
207.381	105.64
207.599	23.72
207.818	52.39
208.037	58.54
208.255	-15.19
208.474	-17.24
208.693	91.31
208.911	23.72
209.13	15.53
209.349	74.92
209.567	25.77
209.786	89.26
210.005	40.11
210.223	64.68
210.442	-70.48
210.661	81.07
210.879	9.39
211.098	-56.15
211.316	40.11
211.535	97.45
211.753	-2.9
211.972	64.68
212.191	-11.09
212.409	64.68
212.628	74.92
212.846	42.15
213.065	68.78
213.283	74.92
213.502	-4.95
213.72	38.06
213.938	-4.95
214.157	-17.24
214.375	-7
214.594	5.29
214.812	58.54
215.031	-31.57
215.249	72.87
215.467	46.25
215.686	9.39
215.904	31.91
216.122	56.49
216.341	58.54
216.559	44.2
216.778	105.64
216.996	122.02
217.214	-23.38
217.432	13.48
217.651	-9.05
217.869	48.3
218.087	21.67
218.306	50.35
218.524	31.91
218.742	7.34
218.96	48.3
219.179	60.59
219.397	13.48
219.615	31.91
219.833	134.31
220.051	33.96
220.27	66.73
220.488	48.3
220.706	79.02
220.924	9.39
221.142	62.63
221.36	5.29
221.578	56.49
221.796	-13.14
222.015	81.07
222.233	7.34
222.451	130.22
222.669	72.87
222.887	70.83
223.105	-47.96
223.323	107.69
223.541	44.2
223.759	7.34
223.977	9.39
224.195	148.65
224.413	64.68
224.631	117.93
224.849	-43.86
225.067	74.92
225.285	58.54
225.503	40.11
225.721	23.72
225.939	1.19
226.157	15.53
226.375	101.55
226.592	15.53
226.81	56.49
227.028	64.68
227.246	46.25
227.464	13.48
227.682	105.64
227.9	15.53
228.117	33.96
228.335	-21.33
228.553	-29.52
228.771	5.29
228.989	79.02
229.206	38.06
229.424	7.34
229.642	17.58
229.86	9.39
230.077	72.87
230.295	-25.43
230.513	9.39
230.731	40.11
230.948	146.6
231.166	52.39
231.384	11.43
231.601	64.68
231.819	130.22
232.037	-7
232.254	-47.96
232.472	-7
232.689	-19.29
232.907	-25.43
233.125	-17.24
233.342	9.39
233.56	17.58
233.777	52.39
233.995	-25.43
234.213	117.93
234.43	-33.62
234.648	9.39
234.865	54.44
235.083	3.24
235.3	56.49
235.518	1.19
235.735	31.91
235.953	72.87
236.17	23.72
236.388	74.92
236.605	64.68
236.822	85.16
237.04	122.02
237.257	56.49
237.475	-50
237.692	107.69
237.909	42.15
238.127	56.49
238.344	-25.43
238.562	68.78
238.779	40.11
238.996	33.96
239.214	74.92
239.431	66.73
239.648	11.43
239.865	40.11
240.083	134.31
240.3	1.19
240.517	17.58
240.735	31.91
240.952	48.3
241.169	48.3
241.386	-25.43
241.603	7.34
241.821	-33.62
242.038	99.5
242.255	42.15
242.472	48.3
242.689	44.2
242.907	48.3
243.124	19.63
243.341	5.29
243.558	-15.19
243.775	40.11
243.992	-0.85
244.209	31.91
244.426	101.55
244.643	81.07
244.86	-23.38
245.078	27.82
245.295	54.44
245.512	3.24
245.729	15.53
245.946	25.77
246.163	-11.09
246.38	40.11
246.597	33.96
246.814	97.45
247.031	-4.95
247.248	21.67
247.464	23.72
247.681	-17.24
247.898	97.45
248.115	46.25
248.332	7.34
248.549	15.53
248.766	52.39
248.983	115.88
249.2	33.96
249.417	48.3
249.633	85.16
249.85	9.39
250.067	29.87
250.284	38.06
250.501	-17.24
250.717	25.77
250.934	23.72
251.151	1.19
251.368	15.53
251.585	7.34
251.801	-7
252.018	-7
252.235	83.11
252.451	-9.05
252.668	-74.58
252.885	83.11
253.102	56.49
253.318	66.73
253.535	81.07
253.752	44.2
253.968	66.73
254.185	91.31
254.401	-54.1
254.618	48.3
254.835	-47.96
255.051	11.43
255.268	60.59
255.484	11.43
255.701	40.11
255.917	52.39
256.134	38.06
256.351	42.15
256.567	-13.14
256.784	23.72
257	33.96
257.217	-15.19
257.433	50.35
257.65	99.5
257.866	40.11
258.082	23.72
258.299	-17.24
258.515	42.15
258.732	72.87
258.948	40.11
259.165	87.21
259.381	17.58
259.597	-17.24
259.814	56.49
260.03	44.2
260.246	15.53
260.463	117.93
260.679	31.91
260.895	-11.09
261.112	56.49
261.328	48.3
261.544	31.91
261.761	91.31
261.977	52.39
262.193	56.49
262.409	42.15
262.626	46.25
262.842	-27.48
263.058	11.43
263.274	107.69
263.49	17.58
263.707	48.3
263.923	29.87
264.139	-15.19
264.355	42.15
264.571	76.97
264.787	-41.81
265.004	36.01
265.22	36.01
265.436	48.3
265.652	56.49
265.868	85.16
266.084	15.53
266.3	-9.05
266.516	-25.43
266.732	25.77
266.948	91.31
267.164	36.01
267.38	95.4
267.596	68.78
267.812	19.63
268.028	40.11
268.244	33.96
268.46	40.11
268.676	-11.09
268.892	56.49
269.108	-58.2
269.324	31.91
269.54	7.34
269.756	56.49
269.972	64.68
270.188	40.11
270.403	31.91
270.619	58.54
270.835	19.63
271.051	46.25
271.267	105.64
271.483	70.83
271.698	111.78
271.914	15.53
272.13	-4.95
272.346	40.11
272.562	13.48
272.777	48.3
272.993	25.77
273.209	60.59
273.425	113.83
273.64	17.58
273.856	91.31
274.072	81.07
274.287	54.44
274.503	15.53
274.719	79.02
274.934	58.54
275.15	5.29
275.366	17.58
275.581	-23.38
275.797	19.63
276.012	74.92
276.228	33.96
276.444	17.58
276.659	19.63
276.875	56.49
277.09	74.92
277.306	7.34
277.521	74.92
277.737	40.11
277.952	87.21
278.168	-4.95
278.383	56.49
278.599	3.24
278.814	-43.86
279.03	1.19
279.245	19.63
279.461	36.01
279.676	50.35
279.892	44.2
280.107	44.2
280.322	3.24
280.538	66.73
280.753	66.73
280.969	58.54
281.184	70.83
281.399	81.07
281.615	-17.24
281.83	33.96
282.045	-17.24
282.26	7.34
282.476	-9.05
282.691	58.54
282.906	13.48
283.122	17.58
283.337	44.2
283.552	33.96
283.767	33.96
283.983	124.07
284.198	23.72
284.413	38.06
284.628	-25.43
284.843	58.54
285.058	97.45
285.274	68.78
285.489	1.19
285.704	83.11
285.919	-41.81
286.134	68.78
286.349	-31.57
286.564	1.19
286.779	132.26
286.995	-29.52
287.21	-13.14
287.425	42.15
287.64	74.92
287.855	58.54
288.07	-2.9
288.285	85.16
288.5	97.45
288.715	76.97
288.93	-33.62
289.145	-9.05
289.36	58.54
289.575	91.31
289.79	99.5
290.004	44.2
290.219	17.58
290.434	89.26
290.649	52.39
290.864	15.53
291.079	126.12
291.294	40.11
291.509	-27.48
291.724	25.77
291.938	-7
292.153	5.29
292.368	50.35
292.583	101.55
292.798	64.68
293.012	33.96
293.227	64.68
293.442	87.21
293.657	128.17
293.871	81.07
294.086	134.31
294.301	109.74
294.516	62.63
294.73	74.92
294.945	-33.62
295.16	119.98
295.374	9.39
295.589	29.87
295.804	58.54
296.018	52.39
296.233	76.97
296.447	25.77
296.662	19.63
296.877	31.91
297.091	42.15
297.306	27.82
297.52	72.87
297.735	1.19
297.949	44.2
298.164	58.54
298.378	3.24
298.593	25.77
298.807	-19.29
299.022	42.15
299.236	83.11
299.451	113.83
299.665	68.78
299.88	42.15
300.094	44.2
300.309	42.15
300.523	36.01
300.737	50.35
300.952	36.01
301.166	56.49
301.381	56.49
301.595	91.31
301.809	68.78
302.024	74.92
302.238	-4.95
302.452	72.87
302.667	9.39
302.881	54.44
303.095	13.48
303.309	31.91
303.524	52.39
303.738	-0.85
303.952	-15.19
304.166	56.49
304.381	-35.67
304.595	150.7
304.809	7.34
305.023	70.83
305.237	50.35
305.452	91.31
305.666	33.96
305.88	122.02
306.094	23.72
306.308	36.01
306.522	29.87
306.736	23.72
306.95	27.82
307.164	58.54
307.379	58.54
307.593	58.54
307.807	150.7
308.021	105.64
308.235	60.59
308.449	40.11
308.663	-31.57
308.877	52.39
309.091	11.43
309.305	-13.14
309.519	-66.39
309.733	134.31
309.947	-4.95
310.161	9.39
310.374	99.5
310.588	101.55
310.802	-29.52
311.016	38.06
311.23	36.01
311.444	83.11
311.658	107.69
311.872	-29.52
312.085	31.91
312.299	109.74
312.513	56.49
312.727	79.02
312.941	1.19
313.154	107.69
313.368	64.68
313.582	72.87
313.796	7.34
314.009	56.49
314.223	64.68
314.437	70.83
314.651	85.16
314.864	-9.05
315.078	21.67
315.292	-35.67
315.505	42.15
315.719	101.55
315.933	31.91
316.146	11.43
316.36	50.35
316.573	101.55
316.787	95.4
317.001	33.96
317.214	33.96
317.428	132.26
317.641	64.68
317.855	36.01
318.068	128.17
318.282	89.26
318.495	232.62
318.709	74.92
318.922	-33.62
319.136	72.87
319.349	136.36
319.563	48.3
319.776	29.87
319.99	-7
320.203	50.35
320.417	148.65
320.63	70.83
320.843	105.64
321.057	79.02
321.27	83.11
321.483	60.59
321.697	66.73
321.91	101.55
322.124	85.16
322.337	-4.95
322.55	-35.67
322.763	-54.1
322.977	72.87
323.19	36.01
323.403	44.2
323.617	76.97
323.83	58.54
324.043	-21.33
324.256	91.31
324.469	-52.05
324.683	-9.05
324.896	50.35
325.109	72.87
325.322	-78.68
325.535	56.49
325.748	33.96
325.962	-33.62
326.175	31.91
326.388	122.02
326.601	138.41
326.814	134.31
327.027	7.34
327.24	85.16
327.453	-47.96
327.666	48.3
327.879	50.35
328.092	97.45
328.305	33.96
328.518	52.39
328.731	56.49
328.944	62.63
329.157	11.43
329.37	36.01
329.583	62.63
329.796	107.69
330.009	-13.14
330.222	56.49
330.435	5.29
330.648	40.11
330.861	66.73
331.073	-9.05
331.286	72.87
331.499	52.39
331.712	-33.62
331.925	25.77
332.138	85.16
332.35	101.55
332.563	48.3
332.776	89.26
332.989	27.82
333.202	81.07
333.414	87.21
333.627	44.2
333.84	17.58
334.053	60.59
334.265	103.59
334.478	105.64
334.691	40.11
334.903	58.54
335.116	1.19
335.329	38.06
335.541	97.45
335.754	-0.85
335.966	52.39
336.179	72.87
336.392	-15.19
336.604	64.68
336.817	72.87
337.029	40.11
337.242	31.91
337.454	64.68
337.667	56.49
337.88	109.74
338.092	99.5
338.305	-2.9
338.517	72.87
338.729	68.78
338.942	85.16
339.154	99.5
339.367	31.91
339.579	54.44
339.792	99.5
340.004	87.21
340.217	38.06
340.429	68.78
340.641	29.87
340.854	31.91
341.066	79.02
341.278	89.26
341.491	23.72
341.703	19.63
341.915	62.63
342.128	50.35
342.34	64.68
342.552	-0.85
342.764	101.55
342.977	64.68
343.189	101.55
343.401	74.92
343.613	-29.52
343.826	52.39
344.038	13.48
344.25	99.5
344.462	-4.95
344.674	152.74
344.886	3.24
345.099	46.25
345.311	81.07
345.523	52.39
345.735	-13.14
345.947	68.78
346.159	60.59
346.371	93.35
346.583	19.63
346.795	124.07
347.007	13.48
347.219	58.54
347.431	-0.85
347.643	-0.85
347.855	-23.38
348.067	52.39
348.279	36.01
348.491	89.26
348.703	60.59
348.915	1.19
349.127	68.78
349.339	48.3
349.551	81.07
349.763	113.83
349.975	-2.9
350.187	25.77
350.399	89.26
350.61	-4.95
350.822	-25.43
351.034	25.77
351.246	62.63
351.458	119.98
351.669	95.4
351.881	103.59
352.093	93.35
352.305	124.07
352.517	11.43
352.728	138.41
352.94	58.54
353.152	136.36
353.363	-4.95
353.575	99.5
353.787	-21.33
353.999	68.78
354.21	105.64
354.422	48.3
354.633	44.2
354.845	25.77
355.057	52.39
355.268	27.82
355.48	66.73
355.692	33.96
355.903	76.97
356.115	23.72
356.326	42.15
356.538	140.46
356.749	15.53
356.961	87.21
357.172	17.58
357.384	7.34
357.595	97.45
357.807	91.31
358.018	29.87
358.23	11.43
358.441	72.87
358.653	79.02
358.864	50.35
359.075	9.39
359.287	15.53
359.498	83.11
359.709	40.11
359.921	7.34
360.132	70.83
360.344	15.53
360.555	9.39
360.766	-7
360.977	36.01
361.189	95.4
361.4	23.72
361.611	5.29
361.823	31.91
362.034	87.21
362.245	27.82
362.456	64.68
362.667	25.77
362.879	66.73
363.09	81.07
363.301	130.22
363.512	-11.09
363.723	19.63
363.935	40.11
364.146	76.97
364.357	50.35
364.568	33.96
364.779	42.15
364.99	171.18
365.201	-23.38
365.412	138.41
365.623	3.24
365.834	33.96
366.045	60.59
366.256	52.39
366.467	31.91
366.678	42.15
366.889	17.58
367.1	48.3
367.311	142.5
367.522	21.67
367.733	83.11
367.944	89.26
368.155	36.01
368.366	122.02
368.577	68.78
368.788	72.87
368.999	72.87
369.209	48.3
369.42	95.4
369.631	89.26
369.842	76.97
370.053	60.59
370.264	48.3
370.474	-15.19
370.685	40.11
370.896	15.53
371.107	93.35
371.317	109.74
371.528	36.01
371.739	58.54
371.95	91.31
372.16	74.92
372.371	-41.81
372.582	-7
372.792	60.59
373.003	99.5
373.214	7.34
373.424	42.15
373.635	38.06
373.846	74.92
374.056	64.68
374.267	66.73
374.477	97.45
374.688	-72.53
374.898	70.83
375.109	62.63
375.319	68.78
375.53	97.45
375.74	93.35
375.951	91.31
376.161	17.58
376.372	19.63
376.582	101.55
376.793	56.49
377.003	31.91
377.214	27.82
377.424	52.39
377.635	40.11
377.845	19.63
378.055	87.21
378.266	85.16
378.476	72.87
378.686	97.45
378.897	70.83
379.107	91.31
379.317	40.11
379.528	17.58
379.738	95.4
379.948	-15.19
380.158	113.83
380.369	29.87
380.579	87.21
380.789	15.53
380.999	40.11
381.21	58.54
381.42	68.78
381.63	87.21
381.84	-31.57
382.05	68.78
382.261	27.82
382.471	89.26
382.681	113.83
382.891	83.11
383.101	72.87
383.311	33.96
383.521	56.49
383.731	-2.9
383.941	93.35
384.151	56.49
384.361	72.87
384.571	42.15
384.781	74.92
384.991	56.49
385.201	89.26
385.411	115.88
385.621	66.73
385.831	64.68
386.041	66.73
386.251	72.87
386.461	48.3
386.671	89.26
386.881	91.31
387.091	50.35
387.301	158.89
387.511	7.34
387.72	74.92
387.93	27.82
388.14	66.73
388.35	76.97
388.56	21.67
388.769	17.58
388.979	113.83
389.189	66.73
389.399	40.11
389.609	60.59
389.818	130.22
390.028	56.49
390.238	64.68
390.447	113.83
390.657	68.78
390.867	21.67
391.076	64.68
391.286	119.98
391.496	122.02
391.705	81.07
391.915	107.69
392.125	83.11
392.334	-17.24
392.544	140.46
392.753	40.11
392.963	62.63
393.172	52.39
393.382	79.02
393.591	72.87
393.801	27.82
394.01	146.6
394.22	48.3
394.429	124.07
394.639	109.74
394.848	107.69
395.058	-7
395.267	113.83
395.477	50.35
395.686	101.55
395.895	132.26
396.105	109.74
396.314	64.68
396.524	76.97
396.733	109.74
396.942	81.07
397.152	173.22
397.361	105.64
397.57	148.65
397.78	31.91
397.989	89.26
398.198	115.88
398.407	103.59
398.617	48.3
398.826	68.78
399.035	113.83
399.244	60.59
399.453	113.83
399.663	128.17
399.872	81.07
400.081	15.53
400.29	154.79
400.499	148.65
400.708	146.6
400.917	130.22
401.127	60.59
401.336	126.12
401.545	201.9
401.754	87.21
401.963	124.07
402.172	136.36
402.381	167.08
402.59	54.44
402.799	216.23
403.008	195.75
403.217	72.87
403.426	138.41
403.635	95.4
403.844	156.84
404.053	126.12
404.262	146.6
404.471	175.27
404.68	31.91
404.888	76.97
405.097	117.93
405.306	162.98
405.515	222.38
405.724	109.74
405.933	132.26
406.142	220.33
406.35	269.48
406.559	236.71
406.768	154.79
406.977	175.27
407.185	201.9
407.394	279.72
407.603	203.94
407.812	261.29
408.02	273.57
408.229	210.09
408.438	205.99
408.646	238.76
408.855	175.27
409.064	302.25
409.272	312.49
409.481	246.95
409.69	263.33
409.898	322.73
410.107	320.68
410.315	314.53
410.524	236.71
410.733	365.73
410.941	339.11
411.15	351.4
411.358	367.78
411.567	337.06
411.775	326.82
411.984	355.49
412.192	418.98
412.401	392.36
412.609	474.28
412.818	486.56
413.026	406.69
413.234	568.48
413.443	492.71
413.651	550.05
413.86	494.76
414.068	517.28
414.276	617.63
414.485	564.39
414.693	650.4
414.901	728.22
415.11	679.07
415.318	748.7
415.526	654.5
415.734	720.03
415.943	724.13
416.151	922.78
416.359	775.33
416.567	789.66
416.776	787.61
416.984	949.4
417.192	941.21
417.4	924.83
417.608	933.02
417.817	933.02
418.025	1031.32
418.233	1059.99
418.441	1033.37
418.649	1148.06
418.857	1152.15
419.065	1180.82
419.273	1229.98
419.481	1246.36
419.689	1399.96
419.897	1391.77
420.105	1424.53
420.313	1442.96
420.521	1561.75
420.729	1442.96
420.937	1551.51
421.145	1617.04
421.353	1744.02
421.561	1772.69
421.769	1793.17
421.977	1885.33
422.185	1877.13
422.393	1891.47
422.601	2022.54
422.809	2010.25
423.017	2118.79
423.224	2210.95
423.432	2327.69
423.64	2346.12
423.848	2436.23
424.056	2268.3
424.263	2595.97
424.471	2557.06
424.679	2581.64
424.887	2661.51
425.094	2843.78
425.302	2866.3
425.51	2907.26
425.718	3030.14
425.925	3091.58
426.133	3220.6
426.341	3286.14
426.548	3560.56
426.756	3482.74
426.964	3540.08
427.171	3867.76
427.379	3865.71
427.586	4019.31
427.794	4156.52
428.001	4287.59
428.209	4496.49
428.417	4301.93
428.624	4746.34
428.832	4791.39
429.039	4684.9
429.247	4717.67
429.454	5162.08
429.662	5332.06
429.869	5024.86
430.076	5549.14
430.284	5110.88
430.491	5506.13
430.699	5915.73
430.906	5842
431.114	5993.55
431.321	6181.96
431.528	6227.02
431.736	6661.19
431.943	6863.94
432.15	6618.18
432.358	6827.07
432.565	7361.59
432.772	7167.04
432.979	7566.39
433.187	7734.32
433.394	7365.69
433.601	8143.92
433.808	8182.83
434.016	8105.01
434.223	8600.62
434.43	8977.44
434.637	8596.52
434.844	9452.57
435.052	9606.17
435.259	9358.36
435.466	9528.35
435.673	9632.79
435.88	9985.04
436.087	10636.3
436.294	10773.51
436.501	10441.74
436.708	10632.2
436.915	10996.74
437.122	11363.33
437.329	11416.57
437.537	11777.01
437.743	11820.02
437.95	12061.68
438.157	12389.36
438.364	12909.54
438.571	12594.15
438.778	13081.57
438.985	14040.02
439.192	13775.83
439.399	14064.6
439.606	13671.39
439.813	14494.67
440.02	15285.19
440.227	15096.77
440.433	14982.09
440.64	15465.41
440.847	15315.9
441.054	15762.36
441.261	16747.44
441.467	16368.56
441.674	16933.8
441.881	17269.67
442.088	17480.61
442.294	17073.06
442.501	17669.02
442.708	18008.98
442.914	18623.37
443.121	19424.13
443.328	18924.43
443.534	20446.07
443.741	19725.18
443.948	19598.21
444.154	20910.96
444.361	20484.98
444.568	21355.36
444.774	20697.97
444.981	21189.48
445.187	21656.42
445.394	22711.12
445.6	22405.97
445.807	24365.88
446.013	23219.02
446.22	24083.26
446.426	24533.81
446.633	24884.01
446.839	25727.78
447.046	24935.21
447.252	26104.6
447.459	26090.27
447.665	26364.7
447.871	27370.25
448.078	28269.31
448.284	26827.54
448.491	27953.92
448.697	28785.4
448.903	29311.72
449.11	29450.99
449.316	28963.57
449.522	29453.03
449.728	30444.25
449.935	30196.45
450.141	30816.98
450.347	31050.45
450.553	30460.63
450.76	30759.64
450.966	31374.03
451.172	31251.15
451.378	31877.83
451.584	31234.77
451.791	31865.54
451.997	31972.03
452.203	32461.5
452.409	32795.32
452.615	32352.96
452.821	31234.77
453.027	30630.62
453.233	32637.62
453.44	31529.67
453.646	32010.95
453.852	31865.54
454.058	32477.88
454.264	31371.98
454.47	32264.89
454.676	31294.16
454.882	32346.81
455.088	29752.04
455.294	30178.01
455.5	30784.21
455.705	31044.3
455.911	29749.99
456.117	29221.61
456.323	28773.11
456.529	27251.47
456.735	28162.81
456.941	27501.32
457.147	27333.39
457.352	26346.26
457.558	25914.14
457.764	26387.22
457.97	25916.19
458.176	25445.16
458.381	25565.99
458.587	23638.85
458.793	24083.26
458.999	22737.74
459.204	24501.04
459.41	23425.86
459.616	22176.6
459.821	22113.11
460.027	22164.31
460.233	21496.67
460.438	20470.64
460.644	20691.82
460.85	19800.96
461.055	19641.21
461.261	19553.15
461.466	17851.29
461.672	17476.51
461.878	18817.93
462.083	17320.87
462.289	17284
462.494	16968.62
462.7	16325.55
462.905	15973.3
463.111	16462.77
463.316	16671.66
463.522	16032.69
463.727	16235.44
463.932	16163.76
464.138	16155.57
464.343	16083.89
464.549	15313.86
464.754	15926.2
464.959	15659.96
465.165	15694.78
465.37	15174.6
465.575	14676.94
465.781	15213.51
465.986	15680.44
466.191	14539.72
466.397	14384.08
466.602	13790.17
466.807	14334.93
467.012	14521.29
467.218	14212.05
467.423	14074.84
467.628	13956.05
