Data from USB4F104151__248__14-22-35-242.txt Node

Date: Thu Mar 13 14:22:35 EDT 2025
User: louis
Spectrometer: USB4F10415
Trigger mode: 4
Integration Time (sec): 2.000000E-2
Scans to average: 1
Electric dark correction enabled: true
Nonlinearity correction enabled: false
Boxcar width: 0
XAxis mode: Wavelengths
Number of Pixels in Spectrum: 3648
>>>>>Begin Spectral Data<<<<<
178.204	-47.96
178.424	-47.96
178.644	-47.96
178.864	-172.88
179.084	-121.68
179.304	-23.38
179.524	9.39
179.744	-54.1
179.964	64.68
180.184	15.53
180.404	-15.19
180.624	44.2
180.844	17.58
181.064	-4.95
181.283	-17.24
181.503	-2.9
181.723	-33.62
181.943	-4.95
182.163	27.82
182.383	15.53
182.602	-31.57
182.822	48.3
183.042	27.82
183.262	36.01
183.482	-35.67
183.701	9.39
183.921	27.82
184.141	23.72
184.361	-23.38
184.58	42.15
184.8	-17.24
185.02	-2.9
185.239	81.07
185.459	5.29
185.679	56.49
185.898	5.29
186.118	66.73
186.338	79.02
186.557	89.26
186.777	13.48
186.997	27.82
187.216	62.63
187.436	31.91
187.655	56.49
187.875	99.5
188.095	19.63
188.314	27.82
188.534	89.26
188.753	48.3
188.973	97.45
189.192	64.68
189.412	42.15
189.631	23.72
189.851	38.06
190.07	48.3
190.29	7.34
190.509	9.39
190.729	-31.57
190.948	81.07
191.168	111.78
191.387	15.53
191.607	-43.86
191.826	5.29
192.045	3.24
192.265	93.35
192.484	-15.19
192.704	-21.33
192.923	-13.14
193.142	99.5
193.362	-0.85
193.581	7.34
193.8	-23.38
194.02	27.82
194.239	33.96
194.458	-25.43
194.678	27.82
194.897	9.39
195.116	-31.57
195.335	44.2
195.555	5.29
195.774	5.29
195.993	15.53
196.212	-105.3
196.432	-60.24
196.651	68.78
196.87	3.24
197.089	109.74
197.308	76.97
197.528	1.19
197.747	-68.44
197.966	93.35
198.185	23.72
198.404	31.91
198.623	-17.24
198.842	64.68
199.062	64.68
199.281	48.3
199.5	27.82
199.719	72.87
199.938	50.35
200.157	68.78
200.376	66.73
200.595	99.5
200.814	19.63
201.033	27.82
201.252	15.53
201.471	15.53
201.69	97.45
201.909	15.53
202.128	-4.95
202.347	5.29
202.566	48.3
202.785	72.87
203.004	72.87
203.223	72.87
203.442	-17.24
203.661	48.3
203.879	56.49
204.098	97.45
204.317	-27.48
204.536	50.35
204.755	44.2
204.974	50.35
205.193	56.49
205.411	40.11
205.63	1.19
205.849	56.49
206.068	58.54
206.287	23.72
206.505	-43.86
206.724	31.91
206.943	-4.95
207.162	85.16
207.381	13.48
207.599	15.53
207.818	56.49
208.037	19.63
208.255	7.34
208.474	83.11
208.693	-4.95
208.911	29.87
209.13	74.92
209.349	11.43
209.567	23.72
209.786	79.02
210.005	60.59
210.223	44.2
210.442	38.06
210.661	17.58
210.879	50.35
211.098	-4.95
211.316	11.43
211.535	105.64
211.753	11.43
211.972	165.03
212.191	74.92
212.409	76.97
212.628	23.72
212.846	19.63
213.065	74.92
213.283	60.59
213.502	38.06
213.72	56.49
213.938	27.82
214.157	-17.24
214.375	81.07
214.594	50.35
214.812	74.92
215.031	19.63
215.249	-45.91
215.467	7.34
215.686	122.02
215.904	99.5
216.122	58.54
216.341	52.39
216.559	31.91
216.778	62.63
216.996	52.39
217.214	7.34
217.432	-4.95
217.651	-50
217.869	-0.85
218.087	-9.05
218.306	21.67
218.524	66.73
218.742	-17.24
218.96	93.35
219.179	3.24
219.397	115.88
219.615	93.35
219.833	64.68
220.051	11.43
220.27	19.63
220.488	7.34
220.706	56.49
220.924	50.35
221.142	48.3
221.36	23.72
221.578	66.73
221.796	62.63
222.015	1.19
222.233	38.06
222.451	58.54
222.669	13.48
222.887	76.97
223.105	48.3
223.323	29.87
223.541	1.19
223.759	81.07
223.977	81.07
224.195	19.63
224.413	23.72
224.631	103.59
224.849	-56.15
225.067	44.2
225.285	-9.05
225.503	52.39
225.721	64.68
225.939	33.96
226.157	87.21
226.375	91.31
226.592	-0.85
226.81	-21.33
227.028	36.01
227.246	115.88
227.464	7.34
227.682	85.16
227.9	48.3
228.117	103.59
228.335	-0.85
228.553	66.73
228.771	134.31
228.989	-17.24
229.206	3.24
229.424	36.01
229.642	9.39
229.86	-21.33
230.077	68.78
230.295	13.48
230.513	40.11
230.731	60.59
230.948	111.78
231.166	101.55
231.384	31.91
231.601	25.77
231.819	93.35
232.037	48.3
232.254	48.3
232.472	25.77
232.689	33.96
232.907	91.31
233.125	-9.05
233.342	70.83
233.56	-31.57
233.777	-7
233.995	44.2
234.213	97.45
234.43	87.21
234.648	48.3
234.865	21.67
235.083	91.31
235.3	56.49
235.518	7.34
235.735	107.69
235.953	91.31
236.17	36.01
236.388	25.77
236.605	21.67
236.822	44.2
237.04	40.11
237.257	23.72
237.475	85.16
237.692	-7
237.909	50.35
238.127	33.96
238.344	64.68
238.562	48.3
238.779	7.34
238.996	23.72
239.214	33.96
239.431	-9.05
239.648	23.72
239.865	15.53
240.083	40.11
240.3	64.68
240.517	-9.05
240.735	79.02
240.952	97.45
241.169	79.02
241.386	29.87
241.603	44.2
241.821	-0.85
242.038	85.16
242.255	93.35
242.472	85.16
242.689	60.59
242.907	31.91
243.124	60.59
243.341	-15.19
243.558	97.45
243.775	33.96
243.992	-27.48
244.209	64.68
244.426	42.15
244.643	31.91
244.86	27.82
245.078	17.58
245.295	103.59
245.512	-27.48
245.729	31.91
245.946	13.48
246.163	91.31
246.38	74.92
246.597	1.19
246.814	23.72
247.031	56.49
247.248	44.2
247.464	36.01
247.681	74.92
247.898	25.77
248.115	40.11
248.332	-50
248.549	64.68
248.766	27.82
248.983	44.2
249.2	81.07
249.417	36.01
249.633	-13.14
249.85	89.26
250.067	29.87
250.284	81.07
250.501	23.72
250.717	25.77
250.934	23.72
251.151	48.3
251.368	56.49
251.585	-9.05
251.801	-0.85
252.018	1.19
252.235	58.54
252.451	81.07
252.668	81.07
252.885	42.15
253.102	48.3
253.318	76.97
253.535	23.72
253.752	72.87
253.968	-7
254.185	64.68
254.401	58.54
254.618	56.49
254.835	31.91
255.051	89.26
255.268	-45.91
255.484	-11.09
255.701	81.07
255.917	64.68
256.134	25.77
256.351	-0.85
256.567	9.39
256.784	23.72
257	-37.72
257.217	19.63
257.433	60.59
257.65	-9.05
257.866	54.44
258.082	11.43
258.299	17.58
258.515	50.35
258.732	7.34
258.948	56.49
259.165	48.3
259.381	7.34
259.597	40.11
259.814	23.72
260.03	66.73
260.246	56.49
260.463	21.67
260.679	70.83
260.895	50.35
261.112	40.11
261.328	76.97
261.544	25.77
261.761	105.64
261.977	23.72
262.193	17.58
262.409	46.25
262.626	50.35
262.842	83.11
263.058	1.19
263.274	40.11
263.49	70.83
263.707	130.22
263.923	38.06
264.139	-37.72
264.355	85.16
264.571	93.35
264.787	107.69
265.004	25.77
265.22	-25.43
265.436	42.15
265.652	27.82
265.868	1.19
266.084	17.58
266.3	48.3
266.516	-58.2
266.732	74.92
266.948	56.49
267.164	19.63
267.38	99.5
267.596	11.43
267.812	130.22
268.028	-29.52
268.244	83.11
268.46	25.77
268.676	66.73
268.892	1.19
269.108	33.96
269.324	29.87
269.54	-25.43
269.756	72.87
269.972	48.3
270.188	62.63
270.403	-13.14
270.619	56.49
270.835	-15.19
271.051	-41.81
271.267	-17.24
271.483	27.82
271.698	40.11
271.914	50.35
272.13	-9.05
272.346	56.49
272.562	91.31
272.777	48.3
272.993	-31.57
273.209	48.3
273.425	40.11
273.64	33.96
273.856	25.77
274.072	27.82
274.287	9.39
274.503	48.3
274.719	36.01
274.934	48.3
275.15	7.34
275.366	48.3
275.581	33.96
275.797	83.11
276.012	66.73
276.228	17.58
276.444	23.72
276.659	31.91
276.875	15.53
277.09	81.07
277.306	7.34
277.521	56.49
277.737	-2.9
277.952	13.48
278.168	11.43
278.383	56.49
278.599	23.72
278.814	-25.43
279.03	85.16
279.245	64.68
279.461	48.3
279.676	74.92
279.892	40.11
280.107	25.77
280.322	31.91
280.538	44.2
280.753	38.06
280.969	42.15
281.184	56.49
281.399	27.82
281.615	64.68
281.83	50.35
282.045	-25.43
282.26	-50
282.476	64.68
282.691	85.16
282.906	-7
283.122	-50
283.337	-13.14
283.552	-33.62
283.767	-33.62
283.983	23.72
284.198	23.72
284.413	76.97
284.628	-19.29
284.843	23.72
285.058	29.87
285.274	48.3
285.489	-56.15
285.704	58.54
285.919	33.96
286.134	48.3
286.349	21.67
286.564	-35.67
286.779	15.53
286.995	7.34
287.21	15.53
287.425	68.78
287.64	40.11
287.855	50.35
288.07	56.49
288.285	119.98
288.5	89.26
288.715	64.68
288.93	-7
289.145	31.91
289.36	68.78
289.575	19.63
289.79	62.63
290.004	15.53
290.219	15.53
290.434	23.72
290.649	31.91
290.864	68.78
291.079	11.43
291.294	89.26
291.509	42.15
291.724	-13.14
291.938	-23.38
292.153	-0.85
292.368	42.15
292.583	40.11
292.798	83.11
293.012	93.35
293.227	7.34
293.442	11.43
293.657	54.44
293.871	115.88
294.086	-15.19
294.301	148.65
294.516	19.63
294.73	-50
294.945	56.49
295.16	1.19
295.374	56.49
295.589	83.11
295.804	58.54
296.018	-33.62
296.233	132.26
296.447	124.07
296.662	17.58
296.877	138.41
297.091	11.43
297.306	17.58
297.52	48.3
297.735	40.11
297.949	68.78
298.164	13.48
298.378	3.24
298.593	-31.57
298.807	-25.43
299.022	132.26
299.236	109.74
299.451	-13.14
299.665	-0.85
299.88	17.58
300.094	66.73
300.309	87.21
300.523	29.87
300.737	72.87
300.952	42.15
301.166	50.35
301.381	42.15
301.595	48.3
301.809	115.88
302.024	25.77
302.238	25.77
302.452	48.3
302.667	3.24
302.881	66.73
303.095	15.53
303.309	109.74
303.524	36.01
303.738	58.54
303.952	31.91
304.166	99.5
304.381	42.15
304.595	72.87
304.809	48.3
305.023	79.02
305.237	74.92
305.452	89.26
305.666	56.49
305.88	81.07
306.094	3.24
306.308	15.53
306.522	40.11
306.736	38.06
306.95	56.49
307.164	36.01
307.379	7.34
307.593	83.11
307.807	91.31
308.021	83.11
308.235	68.78
308.449	-47.96
308.663	72.87
308.877	54.44
309.091	7.34
309.305	64.68
309.519	-0.85
309.733	38.06
309.947	-17.24
310.161	7.34
310.374	21.67
310.588	81.07
310.802	33.96
311.016	29.87
311.23	23.72
311.444	42.15
311.658	17.58
311.872	87.21
312.085	7.34
312.299	48.3
312.513	81.07
312.727	107.69
312.941	85.16
313.154	58.54
313.368	3.24
313.582	23.72
313.796	85.16
314.009	99.5
314.223	25.77
314.437	17.58
314.651	38.06
314.864	23.72
315.078	7.34
315.292	7.34
315.505	60.59
315.719	11.43
315.933	64.68
316.146	7.34
316.36	17.58
316.573	11.43
316.787	50.35
317.001	25.77
317.214	5.29
317.428	113.83
317.641	31.91
317.855	-9.05
318.068	-15.19
318.282	36.01
318.495	62.63
318.709	42.15
318.922	83.11
319.136	19.63
319.349	31.91
319.563	23.72
319.776	-17.24
319.99	-47.96
320.203	48.3
320.417	36.01
320.63	-58.2
320.843	52.39
321.057	-15.19
321.27	40.11
321.483	52.39
321.697	50.35
321.91	48.3
322.124	48.3
322.337	-21.33
322.55	36.01
322.763	-25.43
322.977	105.64
323.19	23.72
323.403	48.3
323.617	-0.85
323.83	76.97
324.043	17.58
324.256	58.54
324.469	76.97
324.683	62.63
324.896	83.11
325.109	7.34
325.322	19.63
325.535	23.72
325.748	36.01
325.962	64.68
326.175	-64.34
326.388	93.35
326.601	44.2
326.814	44.2
327.027	11.43
327.24	21.67
327.453	31.91
327.666	36.01
327.879	-2.9
328.092	60.59
328.305	68.78
328.518	40.11
328.731	58.54
328.944	15.53
329.157	15.53
329.37	7.34
329.583	113.83
329.796	79.02
330.009	7.34
330.222	70.83
330.435	27.82
330.648	99.5
330.861	-54.1
331.073	23.72
331.286	19.63
331.499	17.58
331.712	60.59
331.925	19.63
332.138	11.43
332.35	19.63
332.563	-25.43
332.776	31.91
332.989	5.29
333.202	38.06
333.414	56.49
333.627	7.34
333.84	33.96
334.053	42.15
334.265	64.68
334.478	11.43
334.691	23.72
334.903	5.29
335.116	-29.52
335.329	60.59
335.541	38.06
335.754	93.35
335.966	-58.2
336.179	36.01
336.392	54.44
336.604	31.91
336.817	23.72
337.029	-21.33
337.242	5.29
337.454	60.59
337.667	72.87
337.88	54.44
338.092	19.63
338.305	56.49
338.517	11.43
338.729	17.58
338.942	72.87
339.154	17.58
339.367	17.58
339.579	36.01
339.792	-23.38
340.004	58.54
340.217	7.34
340.429	58.54
340.641	-0.85
340.854	40.11
341.066	56.49
341.278	25.77
341.491	17.58
341.703	76.97
341.915	27.82
342.128	89.26
342.34	25.77
342.552	7.34
342.764	7.34
342.977	23.72
343.189	40.11
343.401	87.21
343.613	19.63
343.826	23.72
344.038	-17.24
344.25	54.44
344.462	-47.96
344.674	23.72
344.886	11.43
345.099	107.69
345.311	68.78
345.523	83.11
345.735	-41.81
345.947	56.49
346.159	23.72
346.371	-31.57
346.583	31.91
346.795	81.07
347.007	27.82
347.219	27.82
347.431	66.73
347.643	-0.85
347.855	60.59
348.067	122.02
348.279	-39.76
348.491	52.39
348.703	19.63
348.915	66.73
349.127	13.48
349.339	38.06
349.551	31.91
349.763	42.15
349.975	-9.05
350.187	7.34
350.399	101.55
350.61	-25.43
350.822	58.54
351.034	33.96
351.246	40.11
351.458	44.2
351.669	40.11
351.881	3.24
352.093	7.34
352.305	23.72
352.517	25.77
352.728	81.07
352.94	-17.24
353.152	17.58
353.363	-50
353.575	7.34
353.787	21.67
353.999	-7
354.21	36.01
354.422	58.54
354.633	15.53
354.845	62.63
355.057	101.55
355.268	48.3
355.48	50.35
355.692	-72.53
355.903	31.91
356.115	142.5
356.326	5.29
356.538	105.64
356.749	-7
356.961	97.45
357.172	9.39
357.384	25.77
357.595	76.97
357.807	81.07
358.018	-52.05
358.23	38.06
358.441	91.31
358.653	50.35
358.864	81.07
359.075	42.15
359.287	109.74
359.498	68.78
359.709	44.2
359.921	21.67
360.132	15.53
360.344	38.06
360.555	21.67
360.766	25.77
360.977	7.34
361.189	56.49
361.4	64.68
361.611	81.07
361.823	9.39
362.034	23.72
362.245	9.39
362.456	25.77
362.667	-27.48
362.879	85.16
363.09	56.49
363.301	27.82
363.512	60.59
363.723	15.53
363.935	36.01
364.146	60.59
364.357	11.43
364.568	19.63
364.779	74.92
364.99	74.92
365.201	36.01
365.412	56.49
365.623	-27.48
365.834	15.53
366.045	-4.95
366.256	105.64
366.467	27.82
366.678	72.87
366.889	119.98
367.1	101.55
367.311	7.34
367.522	74.92
367.733	27.82
367.944	89.26
368.155	-0.85
368.366	87.21
368.577	74.92
368.788	36.01
368.999	15.53
369.209	23.72
369.42	107.69
369.631	72.87
369.842	56.49
370.053	72.87
370.264	29.87
370.474	17.58
370.685	-31.57
370.896	36.01
371.107	31.91
371.317	58.54
371.528	-11.09
371.739	76.97
371.95	11.43
372.16	130.22
372.371	-0.85
372.582	-0.85
372.792	74.92
373.003	27.82
373.214	46.25
373.424	76.97
373.635	23.72
373.846	17.58
374.056	60.59
374.267	105.64
374.477	9.39
374.688	85.16
374.898	72.87
375.109	31.91
375.319	72.87
375.53	40.11
375.74	23.72
375.951	31.91
376.161	-37.72
376.372	64.68
376.582	38.06
376.793	33.96
377.003	23.72
377.214	11.43
377.424	76.97
377.635	76.97
377.845	52.39
378.055	79.02
378.266	25.77
378.476	46.25
378.686	21.67
378.897	23.72
379.107	103.59
379.317	158.89
379.528	25.77
379.738	54.44
379.948	19.63
380.158	99.5
380.369	60.59
380.579	83.11
380.789	91.31
380.999	48.3
381.21	33.96
381.42	52.39
381.63	-19.29
381.84	33.96
382.05	128.17
382.261	38.06
382.471	-17.24
382.681	56.49
382.891	85.16
383.101	85.16
383.311	-15.19
383.521	25.77
383.731	91.31
383.941	40.11
384.151	62.63
384.361	66.73
384.571	11.43
384.781	109.74
384.991	160.94
385.201	97.45
385.411	11.43
385.621	56.49
385.831	64.68
386.041	52.39
386.251	29.87
386.461	113.83
386.671	-9.05
386.881	60.59
387.091	-25.43
387.301	56.49
387.511	109.74
387.72	72.87
387.93	27.82
388.14	138.41
388.35	85.16
388.56	40.11
388.769	31.91
388.979	50.35
389.189	48.3
389.399	91.31
389.609	36.01
389.818	81.07
390.028	52.39
390.238	89.26
390.447	83.11
390.657	-0.85
390.867	58.54
391.076	38.06
391.286	42.15
391.496	-15.19
391.705	58.54
391.915	-25.43
392.125	91.31
392.334	142.5
392.544	62.63
392.753	9.39
392.963	-7
393.172	105.64
393.382	46.25
393.591	162.98
393.801	27.82
394.01	83.11
394.22	66.73
394.429	11.43
394.639	23.72
394.848	138.41
395.058	9.39
395.267	52.39
395.477	27.82
395.686	101.55
395.895	173.22
396.105	72.87
396.314	44.2
396.524	93.35
396.733	40.11
396.942	36.01
397.152	119.98
397.361	40.11
397.57	93.35
397.78	48.3
397.989	79.02
398.198	138.41
398.407	119.98
398.617	58.54
398.826	128.17
399.035	134.31
399.244	74.92
399.453	124.07
399.663	31.91
399.872	107.69
400.081	48.3
400.29	87.21
400.499	60.59
400.708	36.01
400.917	56.49
401.127	48.3
401.336	52.39
401.545	76.97
401.754	105.64
401.963	113.83
402.172	89.26
402.381	64.68
402.59	87.21
402.799	95.4
403.008	148.65
403.217	76.97
403.426	7.34
403.635	140.46
403.844	76.97
404.053	99.5
404.262	64.68
404.471	146.6
404.68	89.26
404.888	175.27
405.097	130.22
405.306	83.11
405.515	167.08
405.724	89.26
405.933	97.45
406.142	81.07
406.35	240.81
406.559	64.68
406.768	146.6
406.977	165.03
407.185	105.64
407.394	142.5
407.603	130.22
407.812	146.6
408.02	208.04
408.229	142.5
408.438	173.22
408.646	128.17
408.855	193.7
409.064	117.93
409.272	144.55
409.481	191.66
409.69	191.66
409.898	216.23
410.107	195.75
410.315	175.27
410.524	253.09
410.733	171.18
410.941	289.96
411.15	314.53
411.358	296.1
411.567	238.76
411.775	265.38
411.984	296.1
412.192	281.77
412.401	302.25
412.609	339.11
412.818	392.36
413.026	328.87
413.234	367.78
413.443	367.78
413.651	353.45
413.86	412.84
414.068	480.42
414.276	478.37
414.485	437.41
414.693	433.32
414.901	548
415.11	468.13
415.318	449.7
415.526	482.47
415.734	568.48
415.943	480.42
416.151	613.54
416.359	519.33
416.567	558.24
416.776	597.15
416.984	640.16
417.192	756.9
417.4	656.54
417.608	670.88
417.817	666.78
418.025	789.66
418.233	828.57
418.441	605.35
418.649	760.99
418.857	795.81
419.065	928.92
419.273	824.48
419.481	916.64
419.689	867.49
419.897	971.93
420.105	1023.13
420.313	1080.47
420.521	1010.84
420.729	1072.28
420.937	1162.39
421.145	1164.44
421.353	1244.31
421.561	1301.65
421.769	1281.18
421.977	1289.37
422.185	1391.77
422.393	1485.97
422.601	1434.77
422.809	1490.07
423.017	1465.49
423.224	1522.84
423.432	1672.34
423.64	1711.25
423.848	1815.69
424.056	1596.56
424.263	1916.05
424.471	1850.51
424.679	2006.16
424.887	1975.44
425.094	1895.57
425.302	2129.03
425.51	2108.55
425.718	2256.01
425.925	2284.68
426.133	2358.41
426.341	2419.85
426.548	2567.3
426.756	2526.34
426.964	2548.87
427.171	2671.75
427.379	2821.25
427.586	2892.93
427.794	2860.16
428.001	2974.85
428.209	3243.13
428.417	3071.1
428.624	3443.83
428.832	3333.24
429.039	3351.67
429.247	3366.01
429.454	3712.11
429.662	3884.14
429.869	3679.35
430.076	3775.6
430.284	3773.55
430.491	3886.19
430.699	4111.47
430.906	4074.6
431.114	4152.43
431.321	4439.14
431.528	4605.03
431.736	4717.67
431.943	4920.42
432.15	4803.68
432.358	4807.78
432.565	5086.3
432.772	5086.3
432.979	5323.87
433.187	5491.8
433.394	5467.22
433.601	5868.63
433.808	5915.73
434.016	5827.67
434.223	6282.31
434.43	6313.03
434.637	6415.43
434.844	6880.32
435.052	6808.64
435.259	6763.59
435.466	6704.2
435.673	6906.95
435.88	7142.46
436.087	7334.97
436.294	7666.74
436.501	7507
436.708	7629.88
436.915	7748.66
437.122	8182.83
437.329	8043.57
437.537	8219.69
437.743	8629.29
437.95	8543.27
438.157	8784.93
438.364	9045.02
438.571	9108.51
438.778	9038.88
438.985	9993.23
439.192	9538.59
439.399	9946.13
439.606	9643.03
439.813	10325.01
440.02	11041.79
440.227	10697.74
440.433	10497.03
440.64	10953.73
440.847	10769.41
441.054	11369.47
441.261	11869.17
441.467	11688.95
441.674	11844.6
441.881	12229.62
442.088	12276.72
442.294	12329.97
442.501	12549.1
442.708	12557.29
442.914	13190.11
443.121	13800.41
443.328	13261.79
443.534	14492.62
443.741	13941.72
443.948	13659.1
444.154	14830.54
444.361	14691.27
444.568	14666.7
444.774	14965.7
444.981	14867.4
445.187	15311.81
445.394	16143.28
445.6	15758.27
445.807	17275.81
446.013	16667.56
446.22	16784.3
446.426	17570.72
446.633	17781.66
446.839	18514.83
447.046	17585.05
447.252	18660.24
447.459	18262.93
447.665	18168.73
447.871	19295.11
448.078	20036.47
448.284	19207.05
448.491	19510.14
448.697	20462.45
448.903	20902.76
449.11	20876.14
449.316	20675.44
449.522	20810.61
449.728	21257.06
449.935	21281.64
450.141	21367.65
450.347	22109.02
450.553	21535.59
450.76	21601.12
450.966	22352.73
451.172	22313.81
451.378	22549.33
451.584	22100.83
451.791	22930.25
451.997	22952.78
452.203	23067.47
452.409	23307.08
452.615	23188.3
452.821	22119.26
453.027	21936.99
453.233	23528.26
453.44	22432.6
453.646	22571.86
453.852	22543.19
454.058	23087.95
454.264	22453.08
454.47	22881.1
454.676	22047.58
454.882	22985.55
455.088	21087.08
455.294	21185.38
455.5	21648.22
455.705	22025.05
455.911	20937.58
456.117	20761.45
456.323	20579.18
456.529	19549.06
456.735	20437.87
456.941	19446.66
457.147	19428.23
457.352	18938.76
457.558	18641.81
457.764	18559.89
457.97	18238.36
458.176	17935.26
458.381	17980.31
458.587	17286.05
458.793	17030.05
458.999	16298.93
459.204	17521.57
459.41	16944.04
459.616	15700.92
459.821	15936.44
460.027	15768.51
460.233	15354.82
460.438	14748.62
460.644	14932.93
460.85	14210
461.055	13970.39
461.261	13898.71
461.466	13145.06
461.672	12618.73
461.878	13450.21
462.083	12561.39
462.289	12266.48
462.494	12301.29
462.7	11660.28
462.905	11211.78
463.111	11838.45
463.316	11627.51
463.522	11604.99
463.727	11598.84
463.932	11459.58
464.138	11400.19
464.343	11451.39
464.549	10961.92
464.754	11254.78
464.959	11351.04
465.165	11066.37
465.37	10875.91
465.575	10421.26
465.781	10953.73
465.986	10886.15
466.191	10773.51
466.397	10398.73
466.602	9868.31
466.807	10279.95
467.012	10286.09
467.218	10191.89
467.423	9939.99
467.628	9927.7
467.833	10365.96
468.038	10146.83
468.244	9862.16
468.449	10210.32
468.654	9735.19
468.859	9815.06
469.064	10042.39
