Data from USB4F104151__278__14-23-25-984.txt Node

Date: Thu Mar 13 14:23:25 EDT 2025
User: louis
Spectrometer: USB4F10415
Trigger mode: 4
Integration Time (sec): 2.000000E-2
Scans to average: 1
Electric dark correction enabled: true
Nonlinearity correction enabled: false
Boxcar width: 0
XAxis mode: Wavelengths
Number of Pixels in Spectrum: 3648
>>>>>Begin Spectral Data<<<<<
178.204	-66.9
178.424	-66.9
178.644	-66.9
178.864	-175.44
179.084	-116.05
179.304	-11.61
179.524	-9.56
179.744	6.83
179.964	21.16
180.184	-3.41
180.404	53.93
180.624	-62.8
180.844	-19.8
181.064	-58.71
181.283	-11.61
181.503	-23.89
181.723	119.46
181.943	-56.66
182.163	70.31
182.383	45.74
182.602	37.55
182.822	78.51
183.042	101.03
183.262	33.45
183.482	17.07
183.701	41.64
183.921	17.07
184.141	-32.08
184.361	21.16
184.58	23.21
184.8	64.17
185.02	25.26
185.239	55.98
185.459	-1.37
185.679	45.74
185.898	-36.18
186.118	-1.37
186.338	-32.08
186.557	96.94
186.777	55.98
186.997	80.55
187.216	21.16
187.436	49.83
187.655	-58.71
187.875	29.35
188.095	62.12
188.314	109.22
188.534	55.98
188.753	-3.41
188.973	37.55
189.192	49.83
189.412	82.6
189.631	21.16
189.851	35.5
190.07	133.8
190.29	25.26
190.509	29.35
190.729	-34.13
190.948	4.78
191.168	144.04
191.387	37.55
191.607	6.83
191.826	35.5
192.045	82.6
192.265	8.87
192.484	39.59
192.704	33.45
192.923	4.78
193.142	90.79
193.362	119.46
193.581	88.75
193.8	39.59
194.02	78.51
194.239	25.26
194.458	64.17
194.678	33.45
194.897	58.03
195.116	90.79
195.335	-56.66
195.555	64.17
195.774	129.7
195.993	49.83
196.212	66.22
196.432	55.98
196.651	17.07
196.87	23.21
197.089	105.13
197.308	-25.94
197.528	92.84
197.747	29.35
197.966	45.74
198.185	31.4
198.404	17.07
198.623	47.79
198.842	94.89
199.062	86.7
199.281	58.03
199.5	25.26
199.719	127.66
199.938	47.79
200.157	15.02
200.376	70.31
200.595	-19.8
200.814	-3.41
201.033	78.51
201.252	49.83
201.471	53.93
201.69	96.94
201.909	84.65
202.128	49.83
202.347	25.26
202.566	62.12
202.785	21.16
203.004	-87.38
203.223	78.51
203.442	103.08
203.661	-9.56
203.879	49.83
204.098	47.79
204.317	0.68
204.536	39.59
204.755	72.36
204.974	55.98
205.193	21.16
205.411	78.51
205.63	66.22
205.849	25.26
206.068	96.94
206.287	12.97
206.505	86.7
206.724	0.68
206.943	-3.41
207.162	37.55
207.381	64.17
207.599	66.22
207.818	78.51
208.037	45.74
208.255	23.21
208.474	58.03
208.693	-11.61
208.911	78.51
209.13	47.79
209.349	47.79
209.567	76.46
209.786	62.12
210.005	25.26
210.223	31.4
210.442	-7.51
210.661	4.78
210.879	-21.85
211.098	25.26
211.316	15.02
211.535	58.03
211.753	72.36
211.972	-23.89
212.191	51.88
212.409	55.98
212.628	66.22
212.846	45.74
213.065	15.02
213.283	8.87
213.502	31.4
213.72	80.55
213.938	45.74
214.157	62.12
214.375	31.4
214.594	-1.37
214.812	39.59
215.031	-81.24
215.249	-1.37
215.467	103.08
215.686	0.68
215.904	115.37
216.122	12.97
216.341	45.74
216.559	103.08
216.778	41.64
216.996	53.93
217.214	94.89
217.432	53.93
217.651	6.83
217.869	25.26
218.087	78.51
218.306	-3.41
218.524	35.5
218.742	37.55
218.96	103.08
219.179	66.22
219.397	94.89
219.615	15.02
219.833	66.22
220.051	64.17
220.27	111.27
220.488	-1.37
220.706	-11.61
220.924	33.45
221.142	6.83
221.36	70.31
221.578	60.07
221.796	25.26
222.015	58.03
222.233	72.36
222.451	4.78
222.669	12.97
222.887	74.41
223.105	-3.41
223.323	0.68
223.541	-44.37
223.759	51.88
223.977	45.74
224.195	39.59
224.413	2.73
224.631	55.98
224.849	96.94
225.067	53.93
225.285	4.78
225.503	49.83
225.721	33.45
225.939	-3.41
226.157	4.78
226.375	137.9
226.592	37.55
226.81	-27.99
227.028	37.55
227.246	119.46
227.464	76.46
227.682	109.22
227.9	19.11
228.117	25.26
228.335	-38.23
228.553	53.93
228.771	29.35
228.989	-9.56
229.206	-11.61
229.424	19.11
229.642	15.02
229.86	21.16
230.077	43.69
230.295	51.88
230.513	33.45
230.731	51.88
230.948	39.59
231.166	70.31
231.384	25.26
231.601	21.16
231.819	94.89
232.037	6.83
232.254	21.16
232.472	29.35
232.689	2.73
232.907	60.07
233.125	25.26
233.342	17.07
233.56	45.74
233.777	33.45
233.995	4.78
234.213	80.55
234.43	92.84
234.648	47.79
234.865	37.55
235.083	70.31
235.3	33.45
235.518	90.79
235.735	55.98
235.953	111.27
236.17	117.42
236.388	-91.48
236.605	37.55
236.822	58.03
237.04	92.84
237.257	66.22
237.475	17.07
237.692	-13.65
237.909	-19.8
238.127	12.97
238.344	45.74
238.562	78.51
238.779	8.87
238.996	17.07
239.214	25.26
239.431	21.16
239.648	-3.41
239.865	72.36
240.083	41.64
240.3	82.6
240.517	-60.76
240.735	84.65
240.952	41.64
241.169	66.22
241.386	-3.41
241.603	21.16
241.821	2.73
242.038	43.69
242.255	-13.65
242.472	-1.37
242.689	70.31
242.907	82.6
243.124	41.64
243.341	62.12
243.558	15.02
243.775	15.02
243.992	39.59
244.209	70.31
244.426	68.27
244.643	64.17
244.86	-11.61
245.078	39.59
245.295	15.02
245.512	80.55
245.729	15.02
245.946	35.5
246.163	70.31
246.38	6.83
246.597	-19.8
246.814	17.07
247.031	41.64
247.248	55.98
247.464	-11.61
247.681	17.07
247.898	15.02
248.115	37.55
248.332	-3.41
248.549	129.7
248.766	94.89
248.983	105.13
249.2	154.28
249.417	152.23
249.633	53.93
249.85	15.02
250.067	94.89
250.284	62.12
250.501	90.79
250.717	70.31
250.934	8.87
251.151	31.4
251.368	53.93
251.585	37.55
251.801	45.74
252.018	55.98
252.235	53.93
252.451	131.75
252.668	47.79
252.885	55.98
253.102	47.79
253.318	-7.51
253.535	33.45
253.752	-19.8
253.968	-25.94
254.185	-30.04
254.401	21.16
254.618	-15.7
254.835	64.17
255.051	12.97
255.268	-13.65
255.484	-11.61
255.701	25.26
255.917	86.7
256.134	53.93
256.351	64.17
256.567	-7.51
256.784	17.07
257	-42.32
257.217	64.17
257.433	80.55
257.65	47.79
257.866	70.31
258.082	21.16
258.299	39.59
258.515	70.31
258.732	10.92
258.948	31.4
259.165	-3.41
259.381	15.02
259.597	53.93
259.814	113.32
260.03	-17.75
260.246	64.17
260.463	49.83
260.679	23.21
260.895	103.08
261.112	107.18
261.328	111.27
261.544	-77.14
261.761	80.55
261.977	12.97
262.193	-30.04
262.409	37.55
262.626	4.78
262.842	72.36
263.058	47.79
263.274	60.07
263.49	4.78
263.707	80.55
263.923	31.4
264.139	-109.91
264.355	37.55
264.571	37.55
264.787	78.51
265.004	33.45
265.22	-73.04
265.436	12.97
265.652	29.35
265.868	12.97
266.084	-60.76
266.3	64.17
266.516	-17.75
266.732	68.27
266.948	-36.18
267.164	146.09
267.38	121.51
267.596	113.32
267.812	88.75
268.028	33.45
268.244	25.26
268.46	31.4
268.676	4.78
268.892	55.98
269.108	58.03
269.324	70.31
269.54	60.07
269.756	103.08
269.972	0.68
270.188	6.83
270.403	6.83
270.619	58.03
270.835	4.78
271.051	-7.51
271.267	0.68
271.483	76.46
271.698	70.31
271.914	23.21
272.13	-7.51
272.346	72.36
272.562	-15.7
272.777	23.21
272.993	37.55
273.209	12.97
273.425	39.59
273.64	80.55
273.856	68.27
274.072	23.21
274.287	47.79
274.503	-1.37
274.719	72.36
274.934	-50.52
275.15	-32.08
275.366	68.27
275.581	23.21
275.797	37.55
276.012	33.45
276.228	-21.85
276.444	55.98
276.659	66.22
276.875	10.92
277.09	-36.18
277.306	-7.51
277.521	86.7
277.737	12.97
277.952	45.74
278.168	6.83
278.383	58.03
278.599	72.36
278.814	27.31
279.03	41.64
279.245	49.83
279.461	66.22
279.676	86.7
279.892	45.74
280.107	21.16
280.322	-27.99
280.538	62.12
280.753	45.74
280.969	23.21
281.184	27.31
281.399	86.7
281.615	109.22
281.83	43.69
282.045	33.45
282.26	86.7
282.476	8.87
282.691	47.79
282.906	-11.61
283.122	86.7
283.337	25.26
283.552	82.6
283.767	-148.82
283.983	53.93
284.198	74.41
284.413	45.74
284.628	66.22
284.843	37.55
285.058	70.31
285.274	8.87
285.489	94.89
285.704	66.22
285.919	51.88
286.134	12.97
286.349	-9.56
286.564	33.45
286.779	-25.94
286.995	62.12
287.21	31.4
287.425	55.98
287.64	23.21
287.855	80.55
288.07	-7.51
288.285	70.31
288.5	53.93
288.715	125.61
288.93	-15.7
289.145	72.36
289.36	70.31
289.575	-25.94
289.79	76.46
290.004	64.17
290.219	115.37
290.434	94.89
290.649	4.78
290.864	45.74
291.079	86.7
291.294	-9.56
291.509	115.37
291.724	35.5
291.938	58.03
292.153	105.13
292.368	66.22
292.583	86.7
292.798	86.7
293.012	37.55
293.227	43.69
293.442	51.88
293.657	12.97
293.871	58.03
294.086	17.07
294.301	94.89
294.516	-60.76
294.73	-7.51
294.945	35.5
295.16	72.36
295.374	45.74
295.589	29.35
295.804	35.5
296.018	21.16
296.233	119.46
296.447	6.83
296.662	31.4
296.877	107.18
297.091	123.56
297.306	72.36
297.52	-11.61
297.735	21.16
297.949	49.83
298.164	111.27
298.378	131.75
298.593	37.55
298.807	64.17
299.022	37.55
299.236	82.6
299.451	31.4
299.665	33.45
299.88	64.17
300.094	66.22
300.309	15.02
300.523	12.97
300.737	78.51
300.952	66.22
301.166	17.07
301.381	0.68
301.595	41.64
301.809	49.83
302.024	62.12
302.238	31.4
302.452	162.47
302.667	45.74
302.881	82.6
303.095	51.88
303.309	53.93
303.524	53.93
303.738	15.02
303.952	31.4
304.166	39.59
304.381	-46.42
304.595	76.46
304.809	25.26
305.023	-34.13
305.237	66.22
305.452	70.31
305.666	66.22
305.88	84.65
306.094	80.55
306.308	53.93
306.522	139.94
306.736	23.21
306.95	47.79
307.164	31.4
307.379	78.51
307.593	86.7
307.807	74.41
308.021	107.18
308.235	-5.46
308.449	25.26
308.663	21.16
308.877	127.66
309.091	72.36
309.305	21.16
309.519	62.12
309.733	96.94
309.947	78.51
310.161	76.46
310.374	76.46
310.588	37.55
310.802	45.74
311.016	21.16
311.23	15.02
311.444	8.87
311.658	41.64
311.872	94.89
312.085	21.16
312.299	27.31
312.513	49.83
312.727	53.93
312.941	62.12
313.154	10.92
313.368	111.27
313.582	80.55
313.796	86.7
314.009	41.64
314.223	94.89
314.437	78.51
314.651	72.36
314.864	-9.56
315.078	80.55
315.292	-56.66
315.505	-15.7
315.719	12.97
315.933	64.17
316.146	17.07
316.36	31.4
316.573	39.59
316.787	94.89
317.001	53.93
317.214	-19.8
317.428	72.36
317.641	-21.85
317.855	70.31
318.068	12.97
318.282	25.26
318.495	66.22
318.709	35.5
318.922	43.69
319.136	70.31
319.349	60.07
319.563	70.31
319.776	31.4
319.99	21.16
320.203	47.79
320.417	66.22
320.63	-3.41
320.843	84.65
321.057	72.36
321.27	90.79
321.483	8.87
321.697	86.7
321.91	82.6
322.124	74.41
322.337	74.41
322.55	21.16
322.763	8.87
322.977	31.4
323.19	-3.41
323.403	78.51
323.617	66.22
323.83	113.32
324.043	84.65
324.256	49.83
324.469	-36.18
324.683	86.7
324.896	53.93
325.109	29.35
325.322	39.59
325.535	15.02
325.748	49.83
325.962	29.35
326.175	55.98
326.388	127.66
326.601	58.03
326.814	21.16
327.027	37.55
327.24	64.17
327.453	43.69
327.666	-5.46
327.879	-7.51
328.092	62.12
328.305	37.55
328.518	-3.41
328.731	86.7
328.944	62.12
329.157	25.26
329.37	41.64
329.583	66.22
329.796	78.51
330.009	-5.46
330.222	62.12
330.435	41.64
330.648	76.46
330.861	12.97
331.073	37.55
331.286	43.69
331.499	66.22
331.712	64.17
331.925	27.31
332.138	82.6
332.35	58.03
332.563	15.02
332.776	62.12
332.989	98.99
333.202	15.02
333.414	70.31
333.627	117.42
333.84	68.27
334.053	10.92
334.265	180.9
334.478	35.5
334.691	-9.56
334.903	-19.8
335.116	82.6
335.329	10.92
335.541	72.36
335.754	29.35
335.966	94.89
336.179	0.68
336.392	41.64
336.604	15.02
336.817	133.8
337.029	21.16
337.242	43.69
337.454	55.98
337.667	123.56
337.88	74.41
338.092	37.55
338.305	70.31
338.517	-15.7
338.729	123.56
338.942	53.93
339.154	6.83
339.367	47.79
339.579	47.79
339.792	47.79
340.004	78.51
340.217	39.59
340.429	-19.8
340.641	-7.51
340.854	53.93
341.066	23.21
341.278	117.42
341.491	107.18
341.703	0.68
341.915	-5.46
342.128	45.74
342.34	6.83
342.552	39.59
342.764	23.21
342.977	105.13
343.189	58.03
343.401	29.35
343.613	98.99
343.826	76.46
344.038	-3.41
344.25	94.89
344.462	4.78
344.674	129.7
344.886	62.12
345.099	68.27
345.311	43.69
345.523	29.35
345.735	96.94
345.947	80.55
346.159	33.45
346.371	129.7
346.583	10.92
346.795	47.79
347.007	33.45
347.219	-15.7
347.431	80.55
347.643	12.97
347.855	25.26
348.067	137.9
348.279	6.83
348.491	55.98
348.703	90.79
348.915	86.7
349.127	15.02
349.339	25.26
349.551	19.11
349.763	66.22
349.975	51.88
350.187	51.88
350.399	6.83
350.61	103.08
350.822	53.93
351.034	47.79
351.246	62.12
351.458	25.26
351.669	6.83
351.881	90.79
352.093	70.31
352.305	119.46
352.517	37.55
352.728	66.22
352.94	70.31
353.152	96.94
353.363	21.16
353.575	139.94
353.787	123.56
353.999	90.79
354.21	152.23
354.422	-3.41
354.633	105.13
354.845	123.56
355.057	68.27
355.268	-3.41
355.48	47.79
355.692	-7.51
355.903	51.88
356.115	21.16
356.326	98.99
356.538	35.5
356.749	80.55
356.961	62.12
357.172	47.79
357.384	-9.56
357.595	152.23
357.807	-9.56
358.018	25.26
358.23	82.6
358.441	94.89
358.653	88.75
358.864	101.03
359.075	55.98
359.287	137.9
359.498	82.6
359.709	37.55
359.921	-1.37
360.132	78.51
360.344	33.45
360.555	37.55
360.766	176.81
360.977	70.31
361.189	103.08
361.4	-1.37
361.611	72.36
361.823	94.89
362.034	82.6
362.245	-75.09
362.456	64.17
362.667	96.94
362.879	37.55
363.09	37.55
363.301	70.31
363.512	0.68
363.723	29.35
363.935	86.7
364.146	107.18
364.357	78.51
364.568	88.75
364.779	-21.85
364.99	96.94
365.201	39.59
365.412	23.21
365.623	-27.99
365.834	68.27
366.045	45.74
366.256	72.36
366.467	66.22
366.678	94.89
366.889	125.61
367.1	45.74
367.311	107.18
367.522	31.4
367.733	111.27
367.944	41.64
368.155	80.55
368.366	94.89
368.577	4.78
368.788	103.08
368.999	47.79
369.209	55.98
369.42	152.23
369.631	119.46
369.842	29.35
370.053	119.46
370.264	68.27
370.474	53.93
370.685	37.55
370.896	129.7
371.107	88.75
371.317	-23.89
371.528	23.21
371.739	111.27
371.95	74.41
372.16	94.89
372.371	-17.75
372.582	41.64
372.792	111.27
373.003	39.59
373.214	76.46
373.424	19.11
373.635	101.03
373.846	94.89
374.056	84.65
374.267	80.55
374.477	66.22
374.688	62.12
374.898	146.09
375.109	80.55
375.319	21.16
375.53	80.55
375.74	78.51
375.951	62.12
376.161	53.93
376.372	90.79
376.582	74.41
376.793	187.05
377.003	17.07
377.214	53.93
377.424	31.4
377.635	39.59
377.845	21.16
378.055	37.55
378.266	51.88
378.476	12.97
378.686	53.93
378.897	49.83
379.107	98.99
379.317	146.09
379.528	111.27
379.738	101.03
379.948	45.74
380.158	158.38
380.369	96.94
380.579	29.35
380.789	96.94
380.999	43.69
381.21	80.55
381.42	123.56
381.63	86.7
381.84	21.16
382.05	86.7
382.261	82.6
382.471	94.89
382.681	117.42
382.891	80.55
383.101	62.12
383.311	12.97
383.521	62.12
383.731	131.75
383.941	94.89
384.151	127.66
384.361	94.89
384.571	35.5
384.781	154.28
384.991	119.46
385.201	41.64
385.411	0.68
385.621	146.09
385.831	45.74
386.041	90.79
386.251	17.07
386.461	98.99
386.671	25.26
386.881	-19.8
387.091	86.7
387.301	88.75
387.511	96.94
387.72	172.71
387.93	160.42
388.14	53.93
388.35	55.98
388.56	139.94
388.769	80.55
388.979	80.55
389.189	8.87
389.399	15.02
389.609	62.12
389.818	139.94
390.028	-11.61
390.238	58.03
390.447	23.21
390.657	78.51
390.867	80.55
391.076	12.97
391.286	113.32
391.496	96.94
391.705	86.7
391.915	37.55
392.125	53.93
392.334	139.94
392.544	148.14
392.753	103.08
392.963	12.97
393.172	127.66
393.382	178.86
393.591	164.52
393.801	86.7
394.01	137.9
394.22	137.9
394.429	123.56
394.639	45.74
394.848	166.57
395.058	80.55
395.267	72.36
395.477	70.31
395.686	64.17
395.895	187.05
396.105	162.47
396.314	66.22
396.524	146.09
396.733	94.89
396.942	131.75
397.152	154.28
397.361	115.37
397.57	129.7
397.78	144.04
397.989	127.66
398.198	201.38
398.407	135.85
398.617	96.94
398.826	103.08
399.035	150.18
399.244	135.85
399.453	127.66
399.663	193.19
399.872	107.18
400.081	78.51
400.29	152.23
400.499	119.46
400.708	137.9
400.917	62.12
401.127	86.7
401.336	148.14
401.545	129.7
401.754	103.08
401.963	197.29
402.172	160.42
402.381	195.24
402.59	103.08
402.799	144.04
403.008	146.09
403.217	201.38
403.426	115.37
403.635	115.37
403.844	160.42
404.053	129.7
404.262	148.14
404.471	252.58
404.68	197.29
404.888	197.29
405.097	135.85
405.306	195.24
405.515	236.2
405.724	195.24
405.933	178.86
406.142	154.28
406.35	201.38
406.559	191.14
406.768	201.38
406.977	250.53
407.185	223.91
407.394	234.15
407.603	275.11
407.812	332.45
408.02	252.58
408.229	217.77
408.438	275.11
408.646	234.15
408.855	322.21
409.064	375.46
409.272	285.35
409.481	344.74
409.69	348.84
409.898	283.3
410.107	340.65
410.315	397.99
410.524	389.8
410.733	410.28
410.941	500.39
411.15	451.24
411.358	424.61
411.567	488.1
411.775	453.28
411.984	522.91
412.192	506.53
412.401	463.52
412.609	535.2
412.818	549.54
413.026	629.41
413.234	610.98
413.443	586.4
413.651	623.27
413.86	627.36
414.068	682.66
414.276	772.77
414.485	664.22
414.693	725.66
414.901	770.72
415.11	967.32
415.318	834.21
415.526	803.49
415.734	895.64
415.943	838.3
416.151	938.65
416.359	897.69
416.567	946.84
416.776	1061.53
416.984	1079.96
417.192	1108.63
417.4	1215.13
417.608	1118.87
417.817	1223.32
418.025	1258.14
418.233	1393.3
418.441	1383.06
418.649	1299.09
418.857	1440.4
419.065	1505.94
419.273	1495.7
419.481	1516.18
419.689	1655.44
419.897	1716.88
420.105	1778.32
420.313	1788.56
420.521	1813.13
420.729	1872.53
420.937	1962.64
421.145	2038.41
421.353	2093.71
421.561	2198.15
421.769	2216.58
421.977	2323.08
422.185	2325.13
422.393	2384.52
422.601	2601.6
422.809	2677.38
423.017	2601.6
423.224	2691.71
423.432	2851.46
423.64	2718.34
423.848	2962.05
424.056	2880.13
424.263	3289.72
424.471	3259
424.679	3281.53
424.887	3302.01
425.094	3621.49
425.302	3512.95
425.51	3674.74
425.718	3857.01
425.925	3957.36
426.133	3938.93
426.341	4231.79
426.548	4403.82
426.756	4403.82
426.964	4534.89
427.171	4659.81
427.379	4665.96
427.586	4903.52
427.794	5010.01
428.001	5239.39
428.209	5421.66
428.417	5431.9
428.624	5896.78
428.832	5763.67
429.039	5644.88
429.247	5769.81
429.454	6308.43
429.662	6847.04
429.869	6263.37
430.076	6726.21
430.284	6509.13
430.491	6787.65
430.699	7262.78
430.906	7232.06
431.114	7451.19
431.321	7567.93
431.528	7742
431.736	8303.15
431.943	8436.27
432.15	8315.44
432.358	8540.71
432.565	8987.17
432.772	8862.24
432.979	9269.79
433.187	9398.81
433.394	9417.24
433.601	10017.3
433.808	10226.19
434.016	10220.05
434.223	10439.18
434.43	11268.61
434.637	10961.41
434.844	11592.19
435.052	11624.95
435.259	11620.86
435.466	11885.05
435.673	11559.42
435.88	12495.34
436.087	13119.97
436.294	13156.83
436.501	13003.24
436.708	13091.3
436.915	13734.36
437.122	14307.79
437.329	14014.93
437.537	14582.22
437.743	14752.2
437.95	14649.8
438.157	15352.26
438.364	15962.55
438.571	15987.13
438.778	15851.96
438.985	17643.93
439.192	16865.71
439.399	17265.06
439.606	17095.08
439.813	18031
440.02	19089.8
440.227	18526.61
440.433	18233.75
440.64	19065.22
440.847	18846.09
441.054	19396.99
441.261	20851.05
441.467	20171.13
441.674	20943.21
441.881	21592.42
442.088	21309.8
442.294	21367.14
442.501	21979.48
442.708	22407.51
442.914	22851.92
443.121	23945.53
443.328	23644.48
443.534	25139.5
443.741	24494.39
443.948	24029.5
444.154	25612.58
444.361	25688.35
444.568	26222.87
444.774	25485.61
444.981	25878.82
445.187	26812.69
445.394	28303.61
445.6	27603.21
445.807	29925.6
446.013	28756.21
446.22	29227.24
446.426	30245.09
446.633	30468.31
446.839	32121.02
447.046	30496.99
447.252	32065.73
447.459	32356.54
447.665	32379.07
447.871	33122.48
448.078	34734.23
448.284	33525.93
448.491	34279.58
448.697	35393.68
448.903	36212.87
449.11	36173.95
449.316	35287.18
449.522	36583.55
449.728	36946.04
449.935	37814.38
450.141	37691.5
450.347	38574.17
450.553	37326.96
450.76	37671.02
450.966	38778.97
451.172	38324.32
451.378	39696.46
451.584	38725.72
451.791	39202.9
451.997	39395.41
452.203	39974.98
452.409	39645.26
452.615	39723.08
452.821	38512.73
453.027	38291.55
453.233	40067.14
453.44	38619.23
453.646	39225.43
453.852	39219.28
454.058	39475.28
454.264	38633.57
454.47	39481.42
454.676	38379.62
454.882	39684.17
455.088	36317.31
455.294	36964.47
455.5	37357.68
455.705	38285.41
455.911	36339.84
456.117	35461.26
456.323	35184.79
456.529	33427.63
456.735	34934.93
456.941	33992.87
457.147	33532.07
457.352	32641.21
457.558	32080.07
457.764	32342.21
457.97	31494.35
458.176	30927.06
458.381	31117.52
458.587	29665.51
458.793	29618.41
458.999	28031.23
459.204	30187.74
459.41	29028.59
459.616	27326.73
459.821	27529.48
460.027	27449.61
460.233	26945.81
460.438	25536.81
460.644	25717.03
460.85	24504.63
461.055	24404.28
461.261	24222.01
461.466	22069.59
461.672	21817.69
461.878	23173.45
462.083	21647.71
462.289	21246.31
462.494	21240.17
462.7	20085.11
462.905	19747.2
463.111	20367.73
463.316	20490.61
463.522	19919.23
463.727	20017.53
463.932	20124.02
464.138	19722.62
464.343	19665.28
464.549	19034.5
464.754	19734.91
464.959	19440
465.165	19517.82
465.37	18710.93
465.575	18086.29
465.781	19091.85
465.986	19130.76
466.191	18268.56
466.397	17938.84
466.602	17320.35
466.807	17699.23
467.012	17686.94
467.218	17594.78
