Data from USB4F104151__185__14-20-14-652.txt Node

Date: Thu Mar 13 14:20:14 EDT 2025
User: louis
Spectrometer: USB4F10415
Trigger mode: 4
Integration Time (sec): 2.000000E-2
Scans to average: 1
Electric dark correction enabled: true
Nonlinearity correction enabled: false
Boxcar width: 0
XAxis mode: Wavelengths
Number of Pixels in Spectrum: 3648
>>>>>Begin Spectral Data<<<<<
178.204	-83.28
178.424	-83.28
178.644	-83.28
178.864	-163.15
179.084	-56.66
179.304	74.41
179.524	21.16
179.744	-5.46
179.964	23.21
180.184	-38.23
180.404	27.31
180.624	-32.08
180.844	-21.85
181.064	-40.28
181.283	0.68
181.503	2.73
181.723	-11.61
181.943	8.87
182.163	98.99
182.383	-9.56
182.602	27.31
182.822	64.17
183.042	-64.85
183.262	111.27
183.482	37.55
183.701	-23.89
183.921	49.83
184.141	-11.61
184.361	60.07
184.58	53.93
184.8	41.64
185.02	49.83
185.239	127.66
185.459	0.68
185.679	49.83
185.898	33.45
186.118	43.69
186.338	58.03
186.557	68.27
186.777	29.35
186.997	78.51
187.216	-7.51
187.436	58.03
187.655	94.89
187.875	-23.89
188.095	25.26
188.314	103.08
188.534	17.07
188.753	70.31
188.973	74.41
189.192	66.22
189.412	6.83
189.631	0.68
189.851	70.31
190.07	37.55
190.29	-5.46
190.509	70.31
190.729	37.55
190.948	90.79
191.168	90.79
191.387	37.55
191.607	51.88
191.826	72.36
192.045	45.74
192.265	0.68
192.484	51.88
192.704	49.83
192.923	-13.65
193.142	12.97
193.362	27.31
193.581	39.59
193.8	12.97
194.02	82.6
194.239	19.11
194.458	107.18
194.678	82.6
194.897	111.27
195.116	74.41
195.335	125.61
195.555	53.93
195.774	74.41
195.993	41.64
196.212	-27.99
196.432	25.26
196.651	17.07
196.87	49.83
197.089	76.46
197.308	-17.75
197.528	45.74
197.747	0.68
197.966	23.21
198.185	94.89
198.404	98.99
198.623	55.98
198.842	-27.99
199.062	41.64
199.281	25.26
199.5	27.31
199.719	68.27
199.938	39.59
200.157	76.46
200.376	17.07
200.595	88.75
200.814	58.03
201.033	86.7
201.252	35.5
201.471	70.31
201.69	4.78
201.909	27.31
202.128	37.55
202.347	109.22
202.566	6.83
202.785	25.26
203.004	12.97
203.223	62.12
203.442	8.87
203.661	-71
203.879	76.46
204.098	29.35
204.317	64.17
204.536	82.6
204.755	27.31
204.974	45.74
205.193	98.99
205.411	86.7
205.63	74.41
205.849	66.22
206.068	23.21
206.287	25.26
206.505	62.12
206.724	-11.61
206.943	49.83
207.162	-7.51
207.381	82.6
207.599	74.41
207.818	125.61
208.037	0.68
208.255	8.87
208.474	68.27
208.693	-7.51
208.911	58.03
209.13	78.51
209.349	6.83
209.567	60.07
209.786	25.26
210.005	105.13
210.223	88.75
210.442	33.45
210.661	33.45
210.879	-13.65
211.098	6.83
211.316	74.41
211.535	166.57
211.753	49.83
211.972	90.79
212.191	-23.89
212.409	135.85
212.628	-21.85
212.846	-54.61
213.065	37.55
213.283	66.22
213.502	-7.51
213.72	80.55
213.938	10.92
214.157	129.7
214.375	64.17
214.594	-5.46
214.812	101.03
215.031	74.41
215.249	41.64
215.467	-3.41
215.686	17.07
215.904	29.35
216.122	17.07
216.341	96.94
216.559	78.51
216.778	84.65
216.996	119.46
217.214	10.92
217.432	4.78
217.651	41.64
217.869	41.64
218.087	17.07
218.306	4.78
218.524	-30.04
218.742	45.74
218.96	51.88
219.179	58.03
219.397	17.07
219.615	92.84
219.833	60.07
220.051	0.68
220.27	74.41
220.488	84.65
220.706	43.69
220.924	66.22
221.142	-15.7
221.36	15.02
221.578	111.27
221.796	41.64
222.015	6.83
222.233	-36.18
222.451	37.55
222.669	15.02
222.887	43.69
223.105	-23.89
223.323	29.35
223.541	23.21
223.759	60.07
223.977	-54.61
224.195	49.83
224.413	60.07
224.631	98.99
224.849	82.6
225.067	78.51
225.285	4.78
225.503	74.41
225.721	-23.89
225.939	49.83
226.157	60.07
226.375	92.84
226.592	60.07
226.81	-21.85
227.028	78.51
227.246	107.18
227.464	12.97
227.682	115.37
227.9	43.69
228.117	74.41
228.335	43.69
228.553	25.26
228.771	29.35
228.989	64.17
229.206	86.7
229.424	27.31
229.642	70.31
229.86	-38.23
230.077	137.9
230.295	33.45
230.513	70.31
230.731	-23.89
230.948	51.88
231.166	66.22
231.384	58.03
231.601	33.45
231.819	152.23
232.037	25.26
232.254	49.83
232.472	37.55
232.689	37.55
232.907	86.7
233.125	2.73
233.342	2.73
233.56	33.45
233.777	66.22
233.995	137.9
234.213	37.55
234.43	-1.37
234.648	23.21
234.865	19.11
235.083	33.45
235.3	107.18
235.518	86.7
235.735	27.31
235.953	148.14
236.17	8.87
236.388	19.11
236.605	35.5
236.822	33.45
237.04	19.11
237.257	19.11
237.475	60.07
237.692	62.12
237.909	8.87
238.127	8.87
238.344	55.98
238.562	35.5
238.779	-11.61
238.996	-5.46
239.214	43.69
239.431	8.87
239.648	33.45
239.865	53.93
240.083	45.74
240.3	41.64
240.517	-13.65
240.735	53.93
240.952	160.42
241.169	8.87
241.386	45.74
241.603	37.55
241.821	58.03
242.038	88.75
242.255	66.22
242.472	4.78
242.689	51.88
242.907	92.84
243.124	84.65
243.341	96.94
243.558	2.73
243.775	-1.37
243.992	-23.89
244.209	4.78
244.426	90.79
244.643	64.17
244.86	103.08
245.078	25.26
245.295	43.69
245.512	-15.7
245.729	25.26
245.946	72.36
246.163	0.68
246.38	70.31
246.597	25.26
246.814	86.7
247.031	-32.08
247.248	74.41
247.464	25.26
247.681	-15.7
247.898	31.4
248.115	41.64
248.332	-30.04
248.549	92.84
248.766	107.18
248.983	29.35
249.2	0.68
249.417	68.27
249.633	4.78
249.85	-5.46
250.067	123.56
250.284	-1.37
250.501	82.6
250.717	39.59
250.934	72.36
251.151	17.07
251.368	53.93
251.585	53.93
251.801	90.79
252.018	0.68
252.235	82.6
252.451	0.68
252.668	35.5
252.885	-23.89
253.102	43.69
253.318	31.4
253.535	45.74
253.752	15.02
253.968	80.55
254.185	43.69
254.401	27.31
254.618	60.07
254.835	43.69
255.051	78.51
255.268	41.64
255.484	90.79
255.701	41.64
255.917	74.41
256.134	37.55
256.351	-3.41
256.567	4.78
256.784	15.02
257	90.79
257.217	88.75
257.433	70.31
257.65	113.32
257.866	74.41
258.082	15.02
258.299	90.79
258.515	86.7
258.732	39.59
258.948	-9.56
259.165	76.46
259.381	45.74
259.597	86.7
259.814	74.41
260.03	-40.28
260.246	-11.61
260.463	10.92
260.679	39.59
260.895	70.31
261.112	76.46
261.328	0.68
261.544	10.92
261.761	98.99
261.977	-19.8
262.193	2.73
262.409	68.27
262.626	115.37
262.842	70.31
263.058	33.45
263.274	35.5
263.49	8.87
263.707	25.26
263.923	127.66
264.139	2.73
264.355	68.27
264.571	-15.7
264.787	25.26
265.004	84.65
265.22	55.98
265.436	-30.04
265.652	101.03
265.868	84.65
266.084	33.45
266.3	58.03
266.516	-89.43
266.732	19.11
266.948	76.46
267.164	58.03
267.38	41.64
267.596	107.18
267.812	125.61
268.028	19.11
268.244	31.4
268.46	51.88
268.676	62.12
268.892	68.27
269.108	84.65
269.324	-30.04
269.54	70.31
269.756	-25.94
269.972	33.45
270.188	80.55
270.403	70.31
270.619	53.93
270.835	-13.65
271.051	41.64
271.267	8.87
271.483	2.73
271.698	84.65
271.914	37.55
272.13	-3.41
272.346	10.92
272.562	23.21
272.777	158.38
272.993	33.45
273.209	-32.08
273.425	-36.18
273.64	29.35
273.856	10.92
274.072	-23.89
274.287	51.88
274.503	37.55
274.719	70.31
274.934	66.22
275.15	-19.8
275.366	37.55
275.581	33.45
275.797	12.97
276.012	62.12
276.228	41.64
276.444	8.87
276.659	111.27
276.875	60.07
277.09	107.18
277.306	21.16
277.521	33.45
277.737	53.93
277.952	41.64
278.168	51.88
278.383	2.73
278.599	43.69
278.814	58.03
279.03	49.83
279.245	33.45
279.461	33.45
279.676	74.41
279.892	0.68
280.107	76.46
280.322	66.22
280.538	164.52
280.753	-5.46
280.969	53.93
281.184	43.69
281.399	109.22
281.615	41.64
281.83	41.64
282.045	10.92
282.26	107.18
282.476	105.13
282.691	84.65
282.906	45.74
283.122	101.03
283.337	58.03
283.552	43.69
283.767	39.59
283.983	12.97
284.198	-66.9
284.413	-15.7
284.628	49.83
284.843	33.45
285.058	88.75
285.274	0.68
285.489	17.07
285.704	88.75
285.919	53.93
286.134	33.45
286.349	86.7
286.564	103.08
286.779	109.22
286.995	39.59
287.21	-27.99
287.425	58.03
287.64	12.97
287.855	35.5
288.07	19.11
288.285	10.92
288.5	82.6
288.715	55.98
288.93	-1.37
289.145	33.45
289.36	51.88
289.575	43.69
289.79	82.6
290.004	49.83
290.219	90.79
290.434	84.65
290.649	-32.08
290.864	27.31
291.079	8.87
291.294	88.75
291.509	0.68
291.724	117.42
291.938	49.83
292.153	96.94
292.368	-21.85
292.583	53.93
292.798	2.73
293.012	35.5
293.227	25.26
293.442	53.93
293.657	76.46
293.871	105.13
294.086	55.98
294.301	98.99
294.516	29.35
294.73	53.93
294.945	8.87
295.16	31.4
295.374	62.12
295.589	107.18
295.804	41.64
296.018	74.41
296.233	53.93
296.447	31.4
296.662	-48.47
296.877	76.46
297.091	58.03
297.306	72.36
297.52	33.45
297.735	70.31
297.949	74.41
298.164	31.4
298.378	10.92
298.593	23.21
298.807	-7.51
299.022	33.45
299.236	27.31
299.451	115.37
299.665	-11.61
299.88	33.45
300.094	66.22
300.309	49.83
300.523	66.22
300.737	25.26
300.952	74.41
301.166	86.7
301.381	17.07
301.595	17.07
301.809	86.7
302.024	41.64
302.238	33.45
302.452	109.22
302.667	62.12
302.881	21.16
303.095	86.7
303.309	27.31
303.524	12.97
303.738	43.69
303.952	25.26
304.166	105.13
304.381	-27.99
304.595	84.65
304.809	64.17
305.023	74.41
305.237	12.97
305.452	90.79
305.666	78.51
305.88	98.99
306.094	33.45
306.308	25.26
306.522	60.07
306.736	64.17
306.95	35.5
307.164	76.46
307.379	66.22
307.593	82.6
307.807	49.83
308.021	-5.46
308.235	82.6
308.449	-5.46
308.663	29.35
308.877	105.13
309.091	101.03
309.305	78.51
309.519	41.64
309.733	-25.94
309.947	-62.8
310.161	25.26
310.374	29.35
310.588	139.94
310.802	19.11
311.016	35.5
311.23	47.79
311.444	37.55
311.658	-15.7
311.872	109.22
312.085	90.79
312.299	74.41
312.513	58.03
312.727	90.79
312.941	23.21
313.154	107.18
313.368	43.69
313.582	53.93
313.796	33.45
314.009	43.69
314.223	45.74
314.437	8.87
314.651	33.45
314.864	117.42
315.078	-15.7
315.292	-9.56
315.505	35.5
315.719	51.88
315.933	-13.65
316.146	33.45
316.36	37.55
316.573	101.03
316.787	66.22
317.001	31.4
317.214	70.31
317.428	82.6
317.641	-27.99
317.855	90.79
318.068	68.27
318.282	49.83
318.495	84.65
318.709	109.22
318.922	17.07
319.136	119.46
319.349	58.03
319.563	66.22
319.776	117.42
319.99	17.07
320.203	66.22
320.417	49.83
320.63	53.93
320.843	76.46
321.057	51.88
321.27	62.12
321.483	41.64
321.697	49.83
321.91	72.36
322.124	90.79
322.337	45.74
322.55	35.5
322.763	64.17
322.977	98.99
323.19	-3.41
323.403	60.07
323.617	53.93
323.83	96.94
324.043	74.41
324.256	25.26
324.469	12.97
324.683	60.07
324.896	55.98
325.109	66.22
325.322	21.16
325.535	172.71
325.748	86.7
325.962	86.7
326.175	41.64
326.388	76.46
326.601	29.35
326.814	68.27
327.027	51.88
327.24	148.14
327.453	-77.14
327.666	82.6
327.879	58.03
328.092	66.22
328.305	117.42
328.518	12.97
328.731	-13.65
328.944	62.12
329.157	51.88
329.37	60.07
329.583	135.85
329.796	101.03
330.009	25.26
330.222	8.87
330.435	6.83
330.648	117.42
330.861	51.88
331.073	29.35
331.286	31.4
331.499	29.35
331.712	-40.28
331.925	12.97
332.138	55.98
332.35	156.33
332.563	60.07
332.776	37.55
332.989	17.07
333.202	58.03
333.414	47.79
333.627	43.69
333.84	-23.89
334.053	98.99
334.265	25.26
334.478	41.64
334.691	33.45
334.903	58.03
335.116	105.13
335.329	107.18
335.541	90.79
335.754	66.22
335.966	101.03
336.179	-23.89
336.392	47.79
336.604	62.12
336.817	33.45
337.029	39.59
337.242	-11.61
337.454	31.4
337.667	68.27
337.88	137.9
338.092	90.79
338.305	84.65
338.517	53.93
338.729	58.03
338.942	49.83
339.154	84.65
339.367	-11.61
339.579	41.64
339.792	-25.94
340.004	82.6
340.217	74.41
340.429	60.07
340.641	90.79
340.854	33.45
341.066	31.4
341.278	82.6
341.491	105.13
341.703	119.46
341.915	82.6
342.128	27.31
342.34	90.79
342.552	27.31
342.764	53.93
342.977	33.45
343.189	58.03
343.401	49.83
343.613	8.87
343.826	60.07
344.038	2.73
344.25	35.5
344.462	35.5
344.674	37.55
344.886	60.07
345.099	41.64
345.311	113.32
345.523	62.12
345.735	51.88
345.947	90.79
346.159	66.22
346.371	33.45
346.583	86.7
346.795	98.99
347.007	41.64
347.219	101.03
347.431	109.22
347.643	17.07
347.855	0.68
348.067	62.12
348.279	55.98
348.491	43.69
348.703	0.68
348.915	90.79
349.127	49.83
349.339	107.18
349.551	21.16
349.763	6.83
349.975	45.74
350.187	166.57
350.399	82.6
350.61	43.69
350.822	90.79
351.034	152.23
351.246	62.12
351.458	107.18
351.669	37.55
351.881	72.36
352.093	0.68
352.305	88.75
352.517	19.11
352.728	94.89
352.94	33.45
353.152	47.79
353.363	82.6
353.575	166.57
353.787	94.89
353.999	49.83
354.21	68.27
354.422	51.88
354.633	45.74
354.845	66.22
355.057	90.79
355.268	82.6
355.48	33.45
355.692	47.79
355.903	21.16
356.115	55.98
356.326	107.18
356.538	74.41
356.749	98.99
356.961	43.69
357.172	94.89
357.384	8.87
357.595	113.32
357.807	19.11
358.018	70.31
358.23	29.35
358.441	88.75
358.653	51.88
358.864	146.09
359.075	-46.42
359.287	74.41
359.498	43.69
359.709	74.41
359.921	60.07
360.132	0.68
360.344	123.56
360.555	92.84
360.766	23.21
360.977	41.64
361.189	109.22
361.4	58.03
361.611	58.03
361.823	86.7
362.034	76.46
362.245	-11.61
362.456	68.27
362.667	123.56
362.879	53.93
363.09	31.4
363.301	53.93
363.512	76.46
363.723	60.07
363.935	33.45
364.146	154.28
364.357	49.83
364.568	117.42
364.779	0.68
364.99	41.64
365.201	58.03
365.412	123.56
365.623	-21.85
365.834	49.83
366.045	125.61
366.256	82.6
366.467	6.83
366.678	49.83
366.889	68.27
367.1	98.99
367.311	37.55
367.522	123.56
367.733	101.03
367.944	45.74
368.155	84.65
368.366	47.79
368.577	76.46
368.788	82.6
368.999	25.26
369.209	35.5
369.42	27.31
369.631	131.75
369.842	53.93
370.053	82.6
370.264	109.22
370.474	-1.37
370.685	10.92
370.896	86.7
371.107	6.83
371.317	98.99
371.528	76.46
371.739	29.35
371.95	43.69
372.16	90.79
372.371	35.5
372.582	45.74
372.792	62.12
373.003	70.31
373.214	49.83
373.424	98.99
373.635	76.46
373.846	125.61
374.056	49.83
374.267	115.37
374.477	53.93
374.688	33.45
374.898	74.41
375.109	49.83
375.319	90.79
375.53	88.75
375.74	78.51
375.951	53.93
376.161	66.22
376.372	135.85
376.582	58.03
376.793	74.41
377.003	92.84
377.214	107.18
377.424	92.84
377.635	82.6
377.845	49.83
378.055	86.7
378.266	82.6
378.476	109.22
378.686	66.22
378.897	82.6
379.107	115.37
379.317	86.7
379.528	49.83
379.738	92.84
379.948	47.79
380.158	111.27
380.369	76.46
380.579	78.51
380.789	117.42
380.999	80.55
381.21	78.51
381.42	154.28
381.63	49.83
381.84	78.51
382.05	84.65
382.261	66.22
382.471	49.83
382.681	33.45
382.891	84.65
383.101	51.88
383.311	47.79
383.521	33.45
383.731	25.26
383.941	58.03
384.151	107.18
384.361	17.07
384.571	125.61
384.781	66.22
384.991	51.88
385.201	55.98
385.411	119.46
385.621	60.07
385.831	49.83
386.041	51.88
386.251	29.35
386.461	133.8
386.671	109.22
386.881	62.12
387.091	76.46
387.301	107.18
387.511	123.56
387.72	62.12
387.93	139.94
388.14	62.12
388.35	98.99
388.56	98.99
388.769	146.09
388.979	53.93
389.189	80.55
389.399	129.7
389.609	90.79
389.818	74.41
390.028	96.94
390.238	92.84
390.447	139.94
390.657	113.32
390.867	111.27
391.076	33.45
391.286	37.55
391.496	66.22
391.705	25.26
391.915	119.46
392.125	88.75
392.334	33.45
392.544	121.51
392.753	78.51
392.963	53.93
393.172	78.51
393.382	72.36
393.591	111.27
393.801	98.99
394.01	172.71
394.22	123.56
394.429	111.27
394.639	119.46
394.848	66.22
395.058	115.37
395.267	74.41
395.477	55.98
395.686	131.75
395.895	187.05
396.105	76.46
396.314	68.27
396.524	111.27
396.733	23.21
396.942	131.75
397.152	98.99
397.361	51.88
397.57	111.27
397.78	109.22
397.989	144.04
398.198	185
398.407	111.27
398.617	119.46
398.826	37.55
399.035	121.51
399.244	58.03
399.453	62.12
399.663	86.7
399.872	123.56
400.081	49.83
400.29	131.75
400.499	148.14
400.708	92.84
400.917	139.94
401.127	86.7
401.336	94.89
401.545	109.22
401.754	178.86
401.963	164.52
402.172	156.33
402.381	117.42
402.59	117.42
402.799	84.65
403.008	133.8
403.217	197.29
403.426	199.34
403.635	58.03
403.844	148.14
404.053	148.14
404.262	185
404.471	199.34
404.68	201.38
404.888	217.77
405.097	156.33
405.306	123.56
405.515	92.84
405.724	135.85
405.933	201.38
406.142	205.48
406.35	164.52
406.559	254.63
406.768	174.76
406.977	207.53
407.185	203.43
407.394	139.94
407.603	170.66
407.812	170.66
408.02	225.96
408.229	180.9
408.438	256.68
408.646	213.67
408.855	273.06
409.064	295.59
409.272	258.73
409.481	244.39
409.69	330.41
409.898	328.36
410.107	293.54
410.315	346.79
410.524	352.93
410.733	348.84
410.941	330.41
411.15	326.31
411.358	426.66
411.567	479.91
411.775	395.94
411.984	455.33
412.192	418.47
412.401	369.32
412.609	529.06
412.818	486.05
413.026	434.85
413.234	492.2
413.443	453.28
413.651	574.11
413.86	543.39
414.068	656.03
414.276	545.44
414.485	672.42
414.693	592.55
414.901	672.42
415.11	737.95
415.318	762.53
415.526	737.95
415.734	754.34
415.943	854.69
416.151	778.91
416.359	805.53
416.567	893.6
416.776	893.6
416.984	926.36
417.192	993.95
417.4	934.56
417.608	973.47
417.817	1102.49
418.025	1057.43
418.233	1168.02
418.441	1153.69
418.649	1176.22
418.857	1282.71
419.065	1262.23
419.273	1245.85
419.481	1333.91
419.689	1413.78
419.897	1483.41
420.105	1411.73
420.313	1475.22
420.521	1567.38
420.729	1706.64
420.937	1565.33
421.145	1782.42
421.353	1821.33
421.561	1811.09
421.769	1972.88
421.977	2026.12
422.185	2028.17
422.393	2318.98
422.601	2409.09
422.809	2372.23
423.017	2263.69
423.224	2435.72
423.432	2499.2
423.64	2544.26
423.848	2667.14
424.056	2581.12
424.263	2880.13
424.471	2892.41
424.679	2996.86
424.887	3117.69
425.094	3043.96
425.302	3140.22
425.51	3265.14
425.718	3285.62
425.925	3322.49
426.133	3525.24
426.341	3654.26
426.548	3842.67
426.756	3895.92
426.964	3895.92
427.171	4115.05
427.379	4104.81
427.586	4342.38
427.794	4383.34
428.001	4682.34
428.209	4975.2
428.417	4764.26
428.624	4999.77
428.832	5059.17
429.039	5012.06
429.247	5098.08
429.454	5489.24
429.662	5900.88
429.869	5448.28
430.076	6095.44
430.284	5646.93
430.491	6099.53
430.699	6292.04
430.906	6408.78
431.114	6128.21
431.321	6566.47
431.528	6558.28
431.736	7008.83
431.943	7520.82
432.15	7344.7
432.358	7424.57
432.565	7750.2
432.772	7660.09
432.979	8174.13
433.187	8196.65
433.394	8284.72
433.601	8907.3
433.808	9013.79
434.016	8821.28
434.223	9194.01
434.43	9429.53
434.637	9699.86
434.844	10156.56
435.052	10355.21
435.259	10344.97
435.466	10603.02
435.673	10277.39
435.88	11037.19
436.087	11528.7
436.294	11588.09
436.501	11241.98
436.708	11317.76
436.915	11729.4
437.122	12345.84
437.329	12239.34
437.537	12876.26
437.743	13181.41
437.95	13003.24
438.157	13369.82
438.364	13871.58
438.571	13777.37
438.778	14109.14
438.985	15223.23
439.192	14504.4
439.399	15206.85
439.606	14887.37
439.813	15772.09
440.02	16941.48
440.227	16273.84
440.433	16157.11
440.64	16634.28
440.847	16611.76
441.054	16796.07
441.261	18276.76
441.467	17975.7
441.674	17961.37
441.881	19040.65
442.088	18831.76
442.294	18858.38
442.501	19177.86
442.708	19589.5
442.914	20173.17
443.121	21021.03
443.328	20511.09
443.534	22049.11
443.741	21447.01
443.948	20873.58
444.154	22681.94
444.361	22487.38
444.568	22575.44
444.774	22782.29
444.981	22759.76
445.187	23593.28
445.394	24420.66
445.6	24258.87
445.807	26444.06
446.013	25495.85
446.22	26079.52
446.426	27011.34
446.633	27336.97
446.839	28174.59
447.046	26988.81
447.252	28283.13
447.459	28371.19
447.665	27869.44
447.871	29354.22
448.078	30443.74
448.284	28969.2
448.491	30501.08
448.697	31215.82
448.903	31645.9
449.11	32202.94
449.316	31148.24
449.522	32176.32
449.728	33097.91
449.935	33020.08
450.141	32999.6
450.347	33831.08
450.553	32624.82
450.76	33192.11
450.966	34248.86
451.172	33538.22
451.378	34750.62
451.584	34052.26
451.791	34805.91
451.997	34844.82
452.203	35442.83
452.409	35203.22
452.615	34941.08
452.821	33982.63
453.027	33341.61
453.233	35465.36
453.44	33706.15
453.646	34453.66
453.852	34187.42
454.058	34941.08
454.264	33947.81
454.47	34486.43
454.676	33712.3
454.882	34900.12
455.088	32080.07
455.294	32653.5
455.5	32954.55
455.705	33163.44
455.911	32387.26
456.117	31531.21
456.323	30949.59
456.529	29270.25
456.735	31084.75
456.941	29862.11
457.147	29466.86
457.352	28422.39
457.558	28047.61
457.764	28188.92
457.97	27439.37
458.176	27330.83
458.381	27435.27
458.587	25633.06
458.793	25518.37
458.999	24518.96
459.204	26380.57
459.41	25510.18
459.616	23886.14
459.821	23746.88
460.027	23757.12
460.233	23372.1
460.438	22307.16
460.644	22477.14
460.85	21465.44
461.055	21113.19
461.261	21070.19
461.466	19652.99
461.672	18940.3
461.878	20478.32
462.083	19022.22
462.289	18745.74
462.494	18645.39
462.7	17553.82
462.905	17000.87
463.111	17727.9
463.316	17619.36
463.522	17363.36
463.727	17435.04
463.932	17496.48
464.138	17185.19
464.343	17076.65
464.549	16640.43
464.754	17113.51
464.959	17052.07
465.165	16906.66
465.37	16396.72
465.575	15872.44
465.781	16718.25
465.986	16763.31
466.191	15942.07
466.397	15669.69
466.602	15002.05
466.807	15466.94
467.012	15315.39
467.218	15608.25
