Data from USB4F104151__63__14-17-11-957.txt Node

Date: Thu Mar 13 14:17:11 EDT 2025
User: louis
Spectrometer: USB4F10415
Trigger mode: 4
Integration Time (sec): 2.000000E-2
Scans to average: 1
Electric dark correction enabled: true
Nonlinearity correction enabled: false
Boxcar width: 0
XAxis mode: Wavelengths
Number of Pixels in Spectrum: 3648
>>>>>Begin Spectral Data<<<<<
178.204	-135.17
178.424	-135.17
178.644	-135.17
178.864	-106.49
179.084	-32.77
179.304	-2.05
179.524	-6.14
179.744	-32.77
179.964	-26.62
180.184	-6.14
180.404	34.82
180.624	-20.48
180.844	88.06
181.064	-40.96
181.283	-14.34
181.503	24.58
181.723	2.05
181.943	-43.01
182.163	6.14
182.383	-18.43
182.602	8.19
182.822	59.39
183.042	-63.49
183.262	-6.14
183.482	24.58
183.701	-24.58
183.921	26.62
184.141	10.24
184.361	53.25
184.58	14.34
184.8	-10.24
185.02	18.43
185.239	-26.62
185.459	-28.67
185.679	-2.05
185.898	-6.14
186.118	65.53
186.338	22.53
186.557	-10.24
186.777	43.01
186.997	14.34
187.216	47.1
187.436	81.92
187.655	79.87
187.875	47.1
188.095	-75.77
188.314	55.3
188.534	34.82
188.753	14.34
188.973	51.2
189.192	63.49
189.412	-24.58
189.631	-40.96
189.851	8.19
190.07	40.96
190.29	2.05
190.509	-26.62
190.729	-28.67
190.948	10.24
191.168	55.3
191.387	94.21
191.607	-2.05
191.826	38.91
192.045	30.72
192.265	4.1
192.484	49.15
192.704	30.72
192.923	16.38
193.142	45.06
193.362	59.39
193.581	47.1
193.8	10.24
194.02	71.68
194.239	-26.62
194.458	88.06
194.678	43.01
194.897	55.3
195.116	79.87
195.335	73.73
195.555	55.3
195.774	10.24
195.993	47.1
196.212	-18.43
196.432	30.72
196.651	-6.14
196.87	22.53
197.089	79.87
197.308	47.1
197.528	-34.82
197.747	-22.53
197.966	36.86
198.185	8.19
198.404	14.34
198.623	43.01
198.842	-53.25
199.062	34.82
199.281	45.06
199.5	88.06
199.719	22.53
199.938	49.15
200.157	30.72
200.376	6.14
200.595	-26.62
200.814	-75.77
201.033	-26.62
201.252	30.72
201.471	75.77
201.69	51.2
201.909	47.1
202.128	-8.19
202.347	51.2
202.566	14.34
202.785	-88.06
203.004	65.53
203.223	47.1
203.442	47.1
203.661	-79.87
203.879	-26.62
204.098	79.87
204.317	69.63
204.536	67.58
204.755	57.34
204.974	6.14
205.193	81.92
205.411	79.87
205.63	38.91
205.849	26.62
206.068	38.91
206.287	-0
206.505	6.14
206.724	104.45
206.943	8.19
207.162	-24.58
207.381	-12.29
207.599	106.49
207.818	-59.39
208.037	96.25
208.255	8.19
208.474	12.29
208.693	28.67
208.911	-47.1
209.13	22.53
209.349	51.2
209.567	18.43
209.786	16.38
210.005	71.68
210.223	32.77
210.442	-53.25
210.661	8.19
210.879	40.96
211.098	38.91
211.316	34.82
211.535	43.01
211.753	4.1
211.972	49.15
212.191	-22.53
212.409	-6.14
212.628	-26.62
212.846	-8.19
213.065	24.58
213.283	71.68
213.502	47.1
213.72	-26.62
213.938	34.82
214.157	-10.24
214.375	6.14
214.594	-22.53
214.812	30.72
215.031	-73.73
215.249	22.53
215.467	6.14
215.686	8.19
215.904	32.77
216.122	69.63
216.341	63.49
216.559	-14.34
216.778	24.58
216.996	-2.05
217.214	8.19
217.432	-14.34
217.651	16.38
217.869	32.77
218.087	124.93
218.306	28.67
218.524	45.06
218.742	-4.1
218.96	67.58
219.179	8.19
219.397	-0
219.615	94.21
219.833	20.48
220.051	22.53
220.27	55.3
220.488	18.43
220.706	-8.19
220.924	-18.43
221.142	-43.01
221.36	-12.29
221.578	77.82
221.796	49.15
222.015	57.34
222.233	104.45
222.451	34.82
222.669	-24.58
222.887	104.45
223.105	-0
223.323	14.34
223.541	8.19
223.759	14.34
223.977	24.58
224.195	79.87
224.413	10.24
224.631	43.01
224.849	-14.34
225.067	59.39
225.285	-45.06
225.503	-24.58
225.721	-12.29
225.939	57.34
226.157	-55.3
226.375	75.77
226.592	-47.1
226.81	-43.01
227.028	45.06
227.246	153.6
227.464	-73.73
227.682	24.58
227.9	-43.01
228.117	47.1
228.335	16.38
228.553	47.1
228.771	63.49
228.989	57.34
229.206	-14.34
229.424	-6.14
229.642	14.34
229.86	-18.43
230.077	2.05
230.295	-10.24
230.513	30.72
230.731	18.43
230.948	24.58
231.166	14.34
231.384	-6.14
231.601	-0
231.819	38.91
232.037	-59.39
232.254	10.24
232.472	65.53
232.689	2.05
232.907	88.06
233.125	51.2
233.342	98.3
233.56	8.19
233.777	-69.63
233.995	-0
234.213	126.97
234.43	-18.43
234.648	-2.05
234.865	38.91
235.083	47.1
235.3	6.14
235.518	28.67
235.735	6.14
235.953	38.91
236.17	59.39
236.388	14.34
236.605	57.34
236.822	16.38
237.04	40.96
237.257	26.62
237.475	-10.24
237.692	34.82
237.909	79.87
238.127	-22.53
238.344	12.29
238.562	49.15
238.779	22.53
238.996	24.58
239.214	71.68
239.431	24.58
239.648	43.01
239.865	24.58
240.083	73.73
240.3	30.72
240.517	-75.77
240.735	-92.16
240.952	63.49
241.169	73.73
241.386	22.53
241.603	16.38
241.821	-16.38
242.038	100.35
242.255	20.48
242.472	-4.1
242.689	28.67
242.907	10.24
243.124	90.11
243.341	-8.19
243.558	22.53
243.775	2.05
243.992	-51.2
244.209	-10.24
244.426	106.49
244.643	55.3
244.86	69.63
245.078	-14.34
245.295	22.53
245.512	30.72
245.729	-47.1
245.946	47.1
246.163	-40.96
246.38	59.39
246.597	24.58
246.814	34.82
247.031	45.06
247.248	-2.05
247.464	6.14
247.681	10.24
247.898	67.58
248.115	-38.91
248.332	-2.05
248.549	-8.19
248.766	14.34
248.983	6.14
249.2	24.58
249.417	75.77
249.633	47.1
249.85	73.73
250.067	38.91
250.284	55.3
250.501	16.38
250.717	-49.15
250.934	-0
251.151	30.72
251.368	30.72
251.585	-2.05
251.801	69.63
252.018	-0
252.235	6.14
252.451	14.34
252.668	-59.39
252.885	8.19
253.102	65.53
253.318	6.14
253.535	43.01
253.752	-18.43
253.968	-2.05
254.185	6.14
254.401	-24.58
254.618	-6.14
254.835	-22.53
255.051	43.01
255.268	-14.34
255.484	4.1
255.701	51.2
255.917	-10.24
256.134	16.38
256.351	14.34
256.567	90.11
256.784	73.73
257	-26.62
257.217	-6.14
257.433	79.87
257.65	32.77
257.866	32.77
258.082	-73.73
258.299	-2.05
258.515	30.72
258.732	-75.77
258.948	-16.38
259.165	47.1
259.381	43.01
259.597	-10.24
259.814	16.38
260.03	36.86
260.246	38.91
260.463	16.38
260.679	55.3
260.895	55.3
261.112	26.62
261.328	-98.3
261.544	-104.45
261.761	88.06
261.977	12.29
262.193	14.34
262.409	49.15
262.626	2.05
262.842	55.3
263.058	-10.24
263.274	30.72
263.49	10.24
263.707	49.15
263.923	-8.19
264.139	26.62
264.355	-71.68
264.571	47.1
264.787	22.53
265.004	-8.19
265.22	26.62
265.436	16.38
265.652	-34.82
265.868	24.58
266.084	-4.1
266.3	28.67
266.516	36.86
266.732	24.58
266.948	-40.96
267.164	69.63
267.38	14.34
267.596	49.15
267.812	61.44
268.028	4.1
268.244	36.86
268.46	20.48
268.676	30.72
268.892	57.34
269.108	-49.15
269.324	-0
269.54	55.3
269.756	92.16
269.972	-24.58
270.188	-8.19
270.403	22.53
270.619	73.73
270.835	-16.38
271.051	38.91
271.267	-10.24
271.483	-81.92
271.698	61.44
271.914	43.01
272.13	-14.34
272.346	22.53
272.562	24.58
272.777	-6.14
272.993	26.62
273.209	-0
273.425	47.1
273.64	-8.19
273.856	38.91
274.072	-30.72
274.287	18.43
274.503	14.34
274.719	96.25
274.934	47.1
275.15	-26.62
275.366	8.19
275.581	38.91
275.797	30.72
276.012	55.3
276.228	47.1
276.444	-18.43
276.659	77.82
276.875	6.14
277.09	6.14
277.306	61.44
277.521	6.14
277.737	34.82
277.952	34.82
278.168	2.05
278.383	-43.01
278.599	-0
278.814	38.91
279.03	-14.34
279.245	-6.14
279.461	8.19
279.676	-2.05
279.892	38.91
280.107	6.14
280.322	28.67
280.538	32.77
280.753	2.05
280.969	106.49
281.184	16.38
281.399	63.49
281.615	-57.34
281.83	-16.38
282.045	-24.58
282.26	-69.63
282.476	34.82
282.691	-16.38
282.906	-36.86
283.122	6.14
283.337	8.19
283.552	71.68
283.767	53.25
283.983	6.14
284.198	-18.43
284.413	-0
284.628	81.92
284.843	18.43
285.058	8.19
285.274	-8.19
285.489	36.86
285.704	63.49
285.919	40.96
286.134	47.1
286.349	-16.38
286.564	65.53
286.779	40.96
286.995	22.53
287.21	-47.1
287.425	-49.15
287.64	6.14
287.855	6.14
288.07	-26.62
288.285	47.1
288.5	12.29
288.715	73.73
288.93	63.49
289.145	-34.82
289.36	36.86
289.575	30.72
289.79	-34.82
290.004	-24.58
290.219	30.72
290.434	26.62
290.649	-57.34
290.864	-108.54
291.079	-22.53
291.294	45.06
291.509	10.24
291.724	-20.48
291.938	-10.24
292.153	86.01
292.368	47.1
292.583	73.73
292.798	28.67
293.012	-71.68
293.227	2.05
293.442	22.53
293.657	-61.44
293.871	65.53
294.086	51.2
294.301	49.15
294.516	6.14
294.73	28.67
294.945	-51.2
295.16	20.48
295.374	14.34
295.589	55.3
295.804	-10.24
296.018	-16.38
296.233	40.96
296.447	34.82
296.662	-14.34
296.877	71.68
297.091	-34.82
297.306	47.1
297.52	20.48
297.735	-18.43
297.949	26.62
298.164	40.96
298.378	51.2
298.593	59.39
298.807	-8.19
299.022	-34.82
299.236	8.19
299.451	6.14
299.665	22.53
299.88	40.96
300.094	51.2
300.309	6.14
300.523	75.77
300.737	22.53
300.952	32.77
301.166	98.3
301.381	-8.19
301.595	36.86
301.809	-2.05
302.024	-18.43
302.238	73.73
302.452	69.63
302.667	34.82
302.881	67.58
303.095	59.39
303.309	34.82
303.524	-10.24
303.738	-40.96
303.952	45.06
304.166	16.38
304.381	2.05
304.595	-16.38
304.809	-2.05
305.023	77.82
305.237	6.14
305.452	6.14
305.666	22.53
305.88	40.96
306.094	71.68
306.308	57.34
306.522	-92.16
306.736	-10.24
306.95	18.43
307.164	10.24
307.379	73.73
307.593	-10.24
307.807	-14.34
308.021	-12.29
308.235	110.59
308.449	-32.77
308.663	-24.58
308.877	32.77
309.091	55.3
309.305	96.25
309.519	40.96
309.733	-24.58
309.947	14.34
310.161	22.53
310.374	22.53
310.588	55.3
310.802	8.19
311.016	65.53
311.23	14.34
311.444	14.34
311.658	32.77
311.872	73.73
312.085	30.72
312.299	6.14
312.513	94.21
312.727	22.53
312.941	75.77
313.154	88.06
313.368	77.82
313.582	22.53
313.796	92.16
314.009	-116.73
314.223	112.64
314.437	-49.15
314.651	12.29
314.864	18.43
315.078	-67.58
315.292	-22.53
315.505	-71.68
315.719	38.91
315.933	8.19
316.146	53.25
316.36	-14.34
316.573	83.97
316.787	98.3
317.001	32.77
317.214	20.48
317.428	18.43
317.641	-18.43
317.855	57.34
318.068	-6.14
318.282	65.53
318.495	100.35
318.709	59.39
318.922	49.15
319.136	18.43
319.349	-28.67
319.563	22.53
319.776	-75.77
319.99	4.1
320.203	14.34
320.417	40.96
320.63	10.24
320.843	67.58
321.057	32.77
321.27	32.77
321.483	-34.82
321.697	83.97
321.91	-36.86
322.124	-49.15
322.337	8.19
322.55	-0
322.763	10.24
322.977	43.01
323.19	20.48
323.403	90.11
323.617	61.44
323.83	30.72
324.043	57.34
324.256	14.34
324.469	6.14
324.683	45.06
324.896	12.29
325.109	73.73
325.322	-59.39
325.535	77.82
325.748	6.14
325.962	-47.1
326.175	24.58
326.388	-2.05
326.601	104.45
326.814	67.58
327.027	10.24
327.24	63.49
327.453	-59.39
327.666	22.53
327.879	18.43
328.092	71.68
328.305	4.1
328.518	8.19
328.731	-2.05
328.944	34.82
329.157	4.1
329.37	-0
329.583	45.06
329.796	24.58
330.009	30.72
330.222	-18.43
330.435	47.1
330.648	43.01
330.861	71.68
331.073	40.96
331.286	61.44
331.499	6.14
331.712	10.24
331.925	38.91
332.138	32.77
332.35	79.87
332.563	57.34
332.776	24.58
332.989	26.62
333.202	-26.62
333.414	-40.96
333.627	30.72
333.84	32.77
334.053	-20.48
334.265	-32.77
334.478	43.01
334.691	-61.44
334.903	59.39
335.116	-6.14
335.329	57.34
335.541	-32.77
335.754	63.49
335.966	-47.1
336.179	65.53
336.392	-8.19
336.604	38.91
336.817	18.43
337.029	16.38
337.242	30.72
337.454	36.86
337.667	36.86
337.88	38.91
338.092	63.49
338.305	53.25
338.517	-2.05
338.729	96.25
338.942	22.53
339.154	55.3
339.367	6.14
339.579	153.6
339.792	10.24
340.004	63.49
340.217	-8.19
340.429	81.92
340.641	49.15
340.854	55.3
341.066	26.62
341.278	47.1
341.491	94.21
341.703	79.87
341.915	-30.72
342.128	-16.38
342.34	-28.67
342.552	-71.68
342.764	63.49
342.977	24.58
343.189	26.62
343.401	-67.58
343.613	-8.19
343.826	55.3
344.038	88.06
344.25	-8.19
344.462	65.53
344.674	14.34
344.886	24.58
345.099	61.44
345.311	-6.14
345.523	30.72
345.735	10.24
345.947	22.53
346.159	10.24
346.371	18.43
346.583	-14.34
346.795	30.72
347.007	47.1
347.219	73.73
347.431	-6.14
347.643	32.77
347.855	65.53
348.067	102.4
348.279	38.91
348.491	-22.53
348.703	18.43
348.915	40.96
349.127	8.19
349.339	45.06
349.551	-8.19
349.763	47.1
349.975	-16.38
350.187	32.77
350.399	55.3
350.61	22.53
350.822	-2.05
351.034	55.3
351.246	51.2
351.458	-43.01
351.669	30.72
351.881	-26.62
352.093	59.39
352.305	-26.62
352.517	26.62
352.728	40.96
352.94	65.53
353.152	14.34
353.363	-28.67
353.575	69.63
353.787	38.91
353.999	53.25
354.21	59.39
354.422	32.77
354.633	18.43
354.845	47.1
355.057	-10.24
355.268	100.35
355.48	63.49
355.692	-18.43
355.903	73.73
356.115	26.62
356.326	-57.34
356.538	40.96
356.749	20.48
356.961	28.67
357.172	14.34
357.384	24.58
357.595	79.87
357.807	34.82
358.018	-34.82
358.23	88.06
358.441	98.3
358.653	90.11
358.864	51.2
359.075	83.97
359.287	53.25
359.498	-2.05
359.709	49.15
359.921	16.38
360.132	-10.24
360.344	67.58
360.555	2.05
360.766	22.53
360.977	34.82
361.189	59.39
361.4	10.24
361.611	104.45
361.823	32.77
362.034	32.77
362.245	-30.72
362.456	30.72
362.667	75.77
362.879	90.11
363.09	28.67
363.301	14.34
363.512	38.91
363.723	-36.86
363.935	28.67
364.146	59.39
364.357	12.29
364.568	24.58
364.779	-40.96
364.99	10.24
365.201	22.53
365.412	90.11
365.623	40.96
365.834	34.82
366.045	-2.05
366.256	14.34
366.467	63.49
366.678	51.2
366.889	-0
367.1	22.53
367.311	32.77
367.522	-4.1
367.733	-2.05
367.944	22.53
368.155	26.62
368.366	114.69
368.577	120.83
368.788	120.83
368.999	-10.24
369.209	59.39
369.42	126.97
369.631	194.56
369.842	30.72
370.053	32.77
370.264	40.96
370.474	-2.05
370.685	-26.62
370.896	28.67
371.107	16.38
371.317	-14.34
371.528	8.19
371.739	45.06
371.95	114.69
372.16	14.34
372.371	14.34
372.582	40.96
372.792	24.58
373.003	-2.05
373.214	61.44
373.424	71.68
373.635	-0
373.846	126.97
374.056	6.14
374.267	-10.24
374.477	73.73
374.688	-22.53
374.898	-2.05
375.109	32.77
375.319	16.38
375.53	53.25
375.74	55.3
375.951	-18.43
376.161	86.01
376.372	-28.67
376.582	36.86
376.793	81.92
377.003	-16.38
377.214	112.64
377.424	88.06
377.635	63.49
377.845	34.82
378.055	90.11
378.266	-12.29
378.476	57.34
378.686	-28.67
378.897	67.58
379.107	73.73
379.317	73.73
379.528	55.3
379.738	36.86
379.948	38.91
380.158	6.14
380.369	75.77
380.579	16.38
380.789	49.15
380.999	73.73
381.21	71.68
381.42	108.54
381.63	88.06
381.84	81.92
382.05	47.1
382.261	14.34
382.471	47.1
382.681	6.14
382.891	30.72
383.101	79.87
383.311	-51.2
383.521	38.91
383.731	75.77
383.941	67.58
384.151	14.34
384.361	30.72
384.571	83.97
384.781	53.25
384.991	118.78
385.201	57.34
385.411	88.06
385.621	73.73
385.831	90.11
386.041	30.72
386.251	63.49
386.461	83.97
386.671	43.01
386.881	63.49
387.091	-10.24
387.301	32.77
387.511	38.91
387.72	-24.58
387.93	51.2
388.14	83.97
388.35	57.34
388.56	57.34
388.769	65.53
388.979	38.91
389.189	30.72
389.399	57.34
389.609	51.2
389.818	100.35
390.028	57.34
390.238	63.49
390.447	30.72
390.657	24.58
390.867	-2.05
391.076	30.72
391.286	-14.34
391.496	8.19
391.705	-2.05
391.915	116.73
392.125	55.3
392.334	57.34
392.544	-2.05
392.753	114.69
392.963	116.73
393.172	104.45
393.382	55.3
393.591	131.07
393.801	-14.34
394.01	55.3
394.22	77.82
394.429	71.68
394.639	40.96
394.848	133.12
395.058	22.53
395.267	-0
395.477	28.67
395.686	133.12
395.895	165.89
396.105	79.87
396.314	18.43
396.524	100.35
396.733	120.83
396.942	65.53
397.152	88.06
397.361	104.45
397.57	81.92
397.78	104.45
397.989	71.68
398.198	161.79
398.407	92.16
398.617	129.02
398.826	163.84
399.035	28.67
399.244	79.87
399.453	69.63
399.663	98.3
399.872	169.98
400.081	104.45
400.29	30.72
400.499	22.53
400.708	139.26
400.917	137.21
401.127	-26.62
401.336	126.97
401.545	235.52
401.754	102.4
401.963	163.84
402.172	122.88
402.381	47.1
402.59	59.39
402.799	112.64
403.008	129.02
403.217	71.68
403.426	96.25
403.635	55.3
403.844	61.44
404.053	129.02
404.262	129.02
404.471	133.12
404.68	165.89
404.888	161.79
405.097	122.88
405.306	157.69
405.515	172.03
405.724	92.16
405.933	143.36
406.142	172.03
406.35	174.08
406.559	131.07
406.768	180.22
406.977	188.41
407.185	161.79
407.394	174.08
407.603	135.17
407.812	153.6
408.02	167.93
408.229	212.99
408.438	294.91
408.646	235.52
408.855	210.94
409.064	301.05
409.272	292.86
409.481	309.24
409.69	178.17
409.898	223.23
410.107	278.52
410.315	301.05
410.524	296.96
410.733	346.11
410.941	337.91
411.15	368.63
411.358	360.44
411.567	397.31
411.775	423.93
411.984	438.27
412.192	380.92
412.401	374.78
412.609	419.83
412.818	505.85
413.026	452.6
413.234	532.47
413.443	538.62
413.651	483.32
413.86	518.14
414.068	686.07
414.276	653.3
414.485	522.23
414.693	540.66
414.901	692.21
415.11	661.49
415.318	661.49
415.526	700.41
415.734	763.89
415.943	796.66
416.151	901.11
416.359	778.23
416.567	833.52
416.776	915.44
416.984	870.39
417.192	915.44
417.4	999.41
417.608	1005.55
417.817	968.69
418.025	1161.2
418.233	1157.1
418.441	1038.32
418.649	1148.91
418.857	1112.05
419.065	1261.55
419.273	1112.05
419.481	1308.65
419.689	1417.19
419.897	1472.49
420.105	1390.57
420.313	1599.46
420.521	1613.8
420.729	1589.22
420.937	1693.67
421.145	1648.61
421.353	1777.64
421.561	1996.77
421.769	1951.71
421.977	1949.67
422.185	1974.24
422.393	2039.78
422.601	2152.42
422.809	2119.65
423.017	2258.91
423.224	2365.4
423.432	2492.38
423.64	2469.85
423.848	2678.74
424.056	2537.43
424.263	2832.34
424.471	2834.39
424.679	3012.56
424.887	3016.66
425.094	3037.14
425.302	3110.86
425.51	3241.93
425.718	3491.79
425.925	3307.47
426.133	3520.46
426.341	3643.34
426.548	3823.56
426.756	3798.98
426.964	3973.06
427.171	4085.7
427.379	4186.05
427.586	4310.97
427.794	4315.07
428.001	4446.14
428.209	4904.89
428.417	4736.95
428.624	5003.19
428.832	5007.28
429.039	5138.35
429.247	4997.04
429.454	5478.32
429.662	5785.51
429.869	5572.52
430.076	5969.83
430.284	5629.87
430.491	5879.72
430.699	6313.89
430.906	6258.59
431.114	6299.55
431.321	6518.68
431.528	6866.84
431.736	6965.14
431.943	7534.48
432.15	7247.76
432.358	7315.34
432.565	7757.71
432.772	7741.32
432.979	8288.13
433.187	8271.75
433.394	8327.04
433.601	8781.69
433.808	8908.66
434.016	8712.06
434.223	9140.08
434.43	9705.32
434.637	9586.54
434.844	10196.84
435.052	10233.7
435.259	10334.05
435.466	10293.09
435.673	10538.85
435.88	11073.37
436.087	11556.69
436.294	11517.78
436.501	11296.6
436.708	11478.86
436.915	11796.3
437.122	12334.92
437.329	12353.35
437.537	12830.52
437.743	12977.98
437.95	12971.83
438.157	13580.08
438.364	14001.96
438.571	14128.94
438.778	13948.72
438.985	15410.96
439.192	14516
439.399	15382.29
439.606	14726.94
439.813	15826.7
440.02	16828.16
440.227	16398.09
440.433	16072.46
440.64	16664.32
440.847	16819.97
441.054	17178.36
441.261	18138.86
441.467	17958.64
441.674	18136.81
441.881	18859.74
442.088	19197.66
442.294	18851.55
442.501	19261.15
442.708	19257.05
442.914	20438.73
443.121	21286.59
443.328	20625.09
443.534	21970.61
443.741	21331.64
443.948	21216.96
444.154	22884
444.361	22648.49
444.568	22738.6
444.774	22853.28
444.981	23094.94
445.187	23768.73
445.394	24811.14
445.6	24352.4
445.807	26879.59
446.013	25331.33
446.22	26003.06
446.426	26842.73
446.633	27295.33
446.839	28421.71
447.046	27072.1
447.252	28534.35
447.459	28763.72
447.665	28511.82
447.871	29744.7
448.078	31012.39
448.284	29404.74
448.491	30254.64
448.697	31430.18
448.903	31766.04
449.11	32128.53
449.316	31505.95
449.522	32099.86
449.728	33076.74
449.935	33271.3
450.141	33129.99
450.347	33719.81
450.553	32964.1
450.76	33019.4
450.966	34561.52
451.172	34090.49
451.378	35038.7
451.584	34393.59
451.791	34684.4
451.997	35034.6
452.203	35517.92
452.409	35751.39
452.615	35419.62
452.821	33998.33
453.027	33736.19
453.233	36031.96
453.44	33771
453.646	34334.2
453.852	34592.24
454.058	35165.67
454.264	34184.69
454.47	35036.65
454.676	33922.55
454.882	35102.18
455.088	32118.29
455.294	32611.85
455.5	33369.6
455.705	33502.72
455.911	32005.66
456.117	31559.2
456.323	31235.62
456.529	29488.7
456.735	30821.93
456.941	29969.97
457.147	29867.58
457.352	28845.64
457.558	28540.49
457.764	28343.89
457.97	28012.12
458.176	27502.17
458.381	27256.42
458.587	26238.58
458.793	25964.15
458.999	24729.22
459.204	26361.45
459.41	25749.11
459.616	24200.85
459.821	23840.4
460.027	24149.65
460.233	23649.94
460.438	22400.68
460.644	22681.25
460.85	21792.44
461.055	21130.94
461.261	21335.74
461.466	19732.18
461.672	19166.94
461.878	20391.62
462.083	19058.4
462.289	18820.83
462.494	18380.52
462.7	17823.47
462.905	17499.89
463.111	17913.58
463.316	17798.9
463.522	17450.74
463.727	17583.86
463.932	17571.57
464.138	17176.31
464.343	17301.24
464.549	16848.64
464.754	17323.77
464.959	17161.98
465.165	17059.58
465.37	16373.51
465.575	15884.05
465.781	16668.42
465.986	16656.13
466.191	16191.24
466.397	15802.13
466.602	15208.22
466.807	15841.04
467.012	15709.97
467.218	15623.95
467.423	15075.1
467.628	15304.47
467.833	16129.8
