Data from USB4F104151__35__14-16-39-271.txt Node

Date: Thu Mar 13 14:16:39 EDT 2025
User: louis
Spectrometer: USB4F10415
Trigger mode: 4
Integration Time (sec): 2.000000E-2
Scans to average: 1
Electric dark correction enabled: true
Nonlinearity correction enabled: false
Boxcar width: 0
XAxis mode: Wavelengths
Number of Pixels in Spectrum: 3648
>>>>>Begin Spectral Data<<<<<
178.204	-117.93
178.424	-117.93
178.644	-117.93
178.864	-142.5
179.084	-117.93
179.304	54.1
179.524	-5.29
179.744	-11.43
179.964	15.19
180.184	4.95
180.404	-9.39
180.624	-44.2
180.844	4.95
181.064	-46.25
181.283	19.29
181.503	-27.82
181.723	45.91
181.943	-130.22
182.163	78.68
182.383	78.68
182.602	21.33
182.822	17.24
183.042	37.72
183.262	41.81
183.482	-3.24
183.701	-7.34
183.921	-5.29
184.141	4.95
184.361	74.58
184.58	105.3
184.8	43.86
185.02	103.25
185.239	115.54
185.459	45.91
185.679	62.29
185.898	-56.49
186.118	45.91
186.338	58.2
186.557	45.91
186.777	-60.59
186.997	23.38
187.216	23.38
187.436	60.24
187.655	41.81
187.875	31.57
188.095	-7.34
188.314	19.29
188.534	23.38
188.753	64.34
188.973	21.33
189.192	13.14
189.412	-7.34
189.631	21.33
189.851	-21.67
190.07	111.44
190.29	-38.06
190.509	11.09
190.729	86.87
190.948	-11.43
191.168	45.91
191.387	7
191.607	29.52
191.826	0.85
192.045	-15.53
192.265	39.76
192.484	29.52
192.704	7
192.923	-19.63
193.142	103.25
193.362	70.48
193.581	29.52
193.8	11.09
194.02	74.58
194.239	7
194.458	58.2
194.678	50
194.897	62.29
195.116	31.57
195.335	0.85
195.555	62.29
195.774	-17.58
195.993	-91.31
196.212	33.62
196.432	25.43
196.651	-19.63
196.87	-3.24
197.089	84.82
197.308	82.77
197.528	43.86
197.747	-36.01
197.966	-5.29
198.185	39.76
198.404	72.53
198.623	37.72
198.842	15.19
199.062	54.1
199.281	68.44
199.5	25.43
199.719	64.34
199.938	105.3
200.157	78.68
200.376	-9.39
200.595	17.24
200.814	-3.24
201.033	-11.43
201.252	74.58
201.471	27.48
201.69	54.1
201.909	62.29
202.128	-50.35
202.347	37.72
202.566	60.24
202.785	33.62
203.004	-9.39
203.223	37.72
203.442	-38.06
203.661	-44.2
203.879	95.06
204.098	2.9
204.317	9.05
204.536	99.16
204.755	23.38
204.974	33.62
205.193	2.9
205.411	86.87
205.63	62.29
205.849	64.34
206.068	54.1
206.287	29.52
206.505	103.25
206.724	45.91
206.943	-27.82
207.162	-31.91
207.381	-19.63
207.599	-40.11
207.818	33.62
208.037	56.15
208.255	64.34
208.474	33.62
208.693	68.44
208.911	-7.34
209.13	37.72
209.349	66.39
209.567	86.87
209.786	162.64
210.005	29.52
210.223	74.58
210.442	9.05
210.661	45.91
210.879	4.95
211.098	29.52
211.316	70.48
211.535	7
211.753	45.91
211.972	-21.67
212.191	58.2
212.409	7
212.628	64.34
212.846	70.48
213.065	74.58
213.283	35.67
213.502	21.33
213.72	2.9
213.938	27.48
214.157	25.43
214.375	13.14
214.594	35.67
214.812	-7.34
215.031	43.86
215.249	39.76
215.467	-3.24
215.686	35.67
215.904	11.09
216.122	-72.87
216.341	2.9
216.559	4.95
216.778	72.53
216.996	27.48
217.214	29.52
217.432	54.1
217.651	-76.97
217.869	54.1
218.087	39.76
218.306	25.43
218.524	78.68
218.742	78.68
218.96	56.15
219.179	-25.77
219.397	35.67
219.615	66.39
219.833	33.62
220.051	15.19
220.27	0.85
220.488	119.64
220.706	0.85
220.924	17.24
221.142	95.06
221.36	58.2
221.578	45.91
221.796	-23.72
222.015	54.1
222.233	78.68
222.451	138.07
222.669	76.63
222.887	37.72
223.105	7
223.323	-36.01
223.541	-36.01
223.759	-19.63
223.977	56.15
224.195	80.72
224.413	7
224.631	45.91
224.849	56.15
225.067	138.07
225.285	-11.43
225.503	-15.53
225.721	50
225.939	-29.87
226.157	29.52
226.375	62.29
226.592	-40.11
226.81	41.81
227.028	72.53
227.246	45.91
227.464	54.1
227.682	97.11
227.9	15.19
228.117	80.72
228.335	109.4
228.553	62.29
228.771	-44.2
228.989	62.29
229.206	23.38
229.424	37.72
229.642	45.91
229.86	33.62
230.077	31.57
230.295	37.72
230.513	15.19
230.731	23.38
230.948	60.24
231.166	45.91
231.384	23.38
231.601	37.72
231.819	13.14
232.037	7
232.254	19.29
232.472	41.81
232.689	31.57
232.907	70.48
233.125	101.2
233.342	33.62
233.56	78.68
233.777	43.86
233.995	58.2
234.213	86.87
234.43	0.85
234.648	99.16
234.865	76.63
235.083	39.76
235.3	-38.06
235.518	72.53
235.735	78.68
235.953	70.48
236.17	68.44
236.388	-25.77
236.605	-11.43
236.822	15.19
237.04	-3.24
237.257	58.2
237.475	21.33
237.692	47.96
237.909	-48.3
238.127	-33.96
238.344	29.52
238.562	-11.43
238.779	64.34
238.996	39.76
239.214	35.67
239.431	7
239.648	9.05
239.865	23.38
240.083	70.48
240.3	82.77
240.517	23.38
240.735	37.72
240.952	88.92
241.169	97.11
241.386	58.2
241.603	78.68
241.821	29.52
242.038	15.19
242.255	-3.24
242.472	31.57
242.689	-42.15
242.907	-19.63
243.124	56.15
243.341	-7.34
243.558	33.62
243.775	4.95
243.992	9.05
244.209	70.48
244.426	-1.19
244.643	29.52
244.86	4.95
245.078	13.14
245.295	-5.29
245.512	19.29
245.729	4.95
245.946	95.06
246.163	70.48
246.38	101.2
246.597	21.33
246.814	-19.63
247.031	64.34
247.248	111.44
247.464	72.53
247.681	-25.77
247.898	21.33
248.115	66.39
248.332	-3.24
248.549	107.35
248.766	37.72
248.983	23.38
249.2	-19.63
249.417	64.34
249.633	-15.53
249.85	7
250.067	33.62
250.284	62.29
250.501	86.87
250.717	56.15
250.934	17.24
251.151	-19.63
251.368	7
251.585	58.2
251.801	45.91
252.018	52.05
252.235	72.53
252.451	43.86
252.668	35.67
252.885	52.05
253.102	9.05
253.318	52.05
253.535	37.72
253.752	-44.2
253.968	21.33
254.185	37.72
254.401	84.82
254.618	86.87
254.835	-52.39
255.051	62.29
255.268	66.39
255.484	105.3
255.701	52.05
255.917	2.9
256.134	29.52
256.351	66.39
256.567	0.85
256.784	4.95
257	-25.77
257.217	107.35
257.433	19.29
257.65	58.2
257.866	21.33
258.082	-11.43
258.299	13.14
258.515	15.19
258.732	41.81
258.948	4.95
259.165	-1.19
259.381	37.72
259.597	11.09
259.814	29.52
260.03	70.48
260.246	54.1
260.463	39.76
260.679	68.44
260.895	54.1
261.112	17.24
261.328	37.72
261.544	-19.63
261.761	160.59
261.977	33.62
262.193	2.9
262.409	62.29
262.626	47.96
262.842	17.24
263.058	45.91
263.274	74.58
263.49	-31.91
263.707	82.77
263.923	54.1
264.139	4.95
264.355	43.86
264.571	131.92
264.787	29.52
265.004	39.76
265.22	25.43
265.436	0.85
265.652	17.24
265.868	84.82
266.084	2.9
266.3	25.43
266.516	109.4
266.732	-19.63
266.948	37.72
267.164	56.15
267.38	62.29
267.596	45.91
267.812	62.29
268.028	50
268.244	-66.73
268.46	97.11
268.676	47.96
268.892	47.96
269.108	-3.24
269.324	13.14
269.54	-60.59
269.756	82.77
269.972	-7.34
270.188	29.52
270.403	50
270.619	0.85
270.835	37.72
271.051	37.72
271.267	80.72
271.483	64.34
271.698	93.01
271.914	66.39
272.13	56.15
272.346	-1.19
272.562	54.1
272.777	72.53
272.993	62.29
273.209	-64.68
273.425	74.58
273.64	52.05
273.856	133.97
274.072	86.87
274.287	33.62
274.503	72.53
274.719	58.2
274.934	70.48
275.15	23.38
275.366	39.76
275.581	4.95
275.797	56.15
276.012	15.19
276.228	64.34
276.444	66.39
276.659	121.68
276.875	56.15
277.09	21.33
277.306	68.44
277.521	86.87
277.737	47.96
277.952	39.76
278.168	62.29
278.383	82.77
278.599	64.34
278.814	31.57
279.03	74.58
279.245	127.83
279.461	-3.24
279.676	105.3
279.892	23.38
280.107	13.14
280.322	47.96
280.538	72.53
280.753	86.87
280.969	95.06
281.184	4.95
281.399	119.64
281.615	29.52
281.83	80.72
282.045	-15.53
282.26	70.48
282.476	37.72
282.691	107.35
282.906	15.19
283.122	70.48
283.337	39.76
283.552	62.29
283.767	50
283.983	103.25
284.198	13.14
284.413	19.29
284.628	13.14
284.843	31.57
285.058	9.05
285.274	52.05
285.489	-7.34
285.704	15.19
285.919	54.1
286.134	76.63
286.349	70.48
286.564	-1.19
286.779	64.34
286.995	21.33
287.21	-50.35
287.425	17.24
287.64	35.67
287.855	33.62
288.07	-27.82
288.285	47.96
288.5	64.34
288.715	39.76
288.93	54.1
289.145	0.85
289.36	64.34
289.575	13.14
289.79	47.96
290.004	23.38
290.219	4.95
290.434	-19.63
290.649	66.39
290.864	39.76
291.079	17.24
291.294	105.3
291.509	43.86
291.724	0.85
291.938	41.81
292.153	58.2
292.368	47.96
292.583	35.67
292.798	37.72
293.012	4.95
293.227	82.77
293.442	54.1
293.657	144.21
293.871	39.76
294.086	35.67
294.301	70.48
294.516	4.95
294.73	39.76
294.945	62.29
295.16	13.14
295.374	131.92
295.589	62.29
295.804	45.91
296.018	-3.24
296.233	146.26
296.447	27.48
296.662	-31.91
296.877	111.44
297.091	99.16
297.306	72.53
297.52	-11.43
297.735	19.29
297.949	64.34
298.164	-13.48
298.378	33.62
298.593	66.39
298.807	-17.58
299.022	105.3
299.236	68.44
299.451	54.1
299.665	29.52
299.88	58.2
300.094	101.2
300.309	9.05
300.523	-1.19
300.737	62.29
300.952	21.33
301.166	80.72
301.381	9.05
301.595	4.95
301.809	33.62
302.024	37.72
302.238	-36.01
302.452	76.63
302.667	111.44
302.881	70.48
303.095	13.14
303.309	105.3
303.524	52.05
303.738	56.15
303.952	-27.82
304.166	-3.24
304.381	-19.63
304.595	62.29
304.809	56.15
305.023	29.52
305.237	45.91
305.452	23.38
305.666	41.81
305.88	58.2
306.094	117.59
306.308	37.72
306.522	78.68
306.736	58.2
306.95	111.44
307.164	78.68
307.379	39.76
307.593	13.14
307.807	37.72
308.021	62.29
308.235	62.29
308.449	29.52
308.663	21.33
308.877	101.2
309.091	54.1
309.305	62.29
309.519	21.33
309.733	125.78
309.947	13.14
310.161	95.06
310.374	66.39
310.588	97.11
310.802	-1.19
311.016	70.48
311.23	45.91
311.444	33.62
311.658	103.25
311.872	78.68
312.085	15.19
312.299	121.68
312.513	70.48
312.727	58.2
312.941	23.38
313.154	70.48
313.368	45.91
313.582	119.64
313.796	41.81
314.009	-17.58
314.223	113.49
314.437	58.2
314.651	74.58
314.864	17.24
315.078	-52.39
315.292	45.91
315.505	56.15
315.719	76.63
315.933	84.82
316.146	47.96
316.36	-3.24
316.573	103.25
316.787	31.57
317.001	13.14
317.214	-23.72
317.428	7
317.641	7
317.855	-9.39
318.068	62.29
318.282	39.76
318.495	37.72
318.709	58.2
318.922	56.15
319.136	99.16
319.349	50
319.563	45.91
319.776	64.34
319.99	50
320.203	99.16
320.417	60.24
320.63	17.24
320.843	47.96
321.057	-15.53
321.27	47.96
321.483	82.77
321.697	95.06
321.91	76.63
322.124	41.81
322.337	62.29
322.55	29.52
322.763	-33.96
322.977	37.72
323.19	13.14
323.403	13.14
323.617	33.62
323.83	121.68
324.043	23.38
324.256	21.33
324.469	62.29
324.683	86.87
324.896	-17.58
325.109	82.77
325.322	-3.24
325.535	78.68
325.748	56.15
325.962	72.53
326.175	35.67
326.388	125.78
326.601	88.92
326.814	29.52
327.027	-9.39
327.24	4.95
327.453	13.14
327.666	64.34
327.879	70.48
328.092	105.3
328.305	88.92
328.518	68.44
328.731	25.43
328.944	50
329.157	37.72
329.37	39.76
329.583	86.87
329.796	37.72
330.009	70.48
330.222	33.62
330.435	15.19
330.648	103.25
330.861	70.48
331.073	29.52
331.286	88.92
331.499	31.57
331.712	-64.68
331.925	13.14
332.138	45.91
332.35	105.3
332.563	21.33
332.776	52.05
332.989	13.14
333.202	39.76
333.414	37.72
333.627	-1.19
333.84	97.11
334.053	103.25
334.265	21.33
334.478	90.96
334.691	13.14
334.903	125.78
335.116	62.29
335.329	70.48
335.541	54.1
335.754	121.68
335.966	66.39
336.179	27.48
336.392	25.43
336.604	-36.01
336.817	78.68
337.029	113.49
337.242	29.52
337.454	21.33
337.667	15.19
337.88	41.81
338.092	17.24
338.305	103.25
338.517	60.24
338.729	25.43
338.942	101.2
339.154	23.38
339.367	111.44
339.579	64.34
339.792	13.14
340.004	86.87
340.217	21.33
340.429	76.63
340.641	-9.39
340.854	54.1
341.066	27.48
341.278	54.1
341.491	199.51
341.703	33.62
341.915	80.72
342.128	37.72
342.34	95.06
342.552	31.57
342.764	56.15
342.977	33.62
343.189	11.09
343.401	-7.34
343.613	21.33
343.826	52.05
344.038	21.33
344.25	15.19
344.462	29.52
344.674	152.4
344.886	80.72
345.099	50
345.311	0.85
345.523	52.05
345.735	70.48
345.947	105.3
346.159	15.19
346.371	-7.34
346.583	27.48
346.795	78.68
347.007	72.53
347.219	37.72
347.431	45.91
347.643	7
347.855	29.52
348.067	56.15
348.279	56.15
348.491	31.57
348.703	43.86
348.915	47.96
349.127	39.76
349.339	54.1
349.551	15.19
349.763	56.15
349.975	82.77
350.187	88.92
350.399	95.06
350.61	70.48
350.822	15.19
351.034	86.87
351.246	80.72
351.458	84.82
351.669	33.62
351.881	176.98
352.093	78.68
352.305	-1.19
352.517	58.2
352.728	115.54
352.94	82.77
353.152	52.05
353.363	4.95
353.575	60.24
353.787	111.44
353.999	86.87
354.21	58.2
354.422	64.34
354.633	4.95
354.845	39.76
355.057	66.39
355.268	-1.19
355.48	50
355.692	66.39
355.903	54.1
356.115	58.2
356.326	-64.68
356.538	95.06
356.749	125.78
356.961	119.64
357.172	154.45
357.384	25.43
357.595	160.59
357.807	64.34
358.018	23.38
358.23	13.14
358.441	82.77
358.653	74.58
358.864	103.25
359.075	25.43
359.287	27.48
359.498	105.3
359.709	13.14
359.921	-9.39
360.132	78.68
360.344	86.87
360.555	-9.39
360.766	107.35
360.977	-7.34
361.189	111.44
361.4	64.34
361.611	50
361.823	84.82
362.034	66.39
362.245	82.77
362.456	37.72
362.667	103.25
362.879	35.67
363.09	62.29
363.301	37.72
363.512	39.76
363.723	82.77
363.935	37.72
364.146	50
364.357	-9.39
364.568	84.82
364.779	82.77
364.99	113.49
365.201	86.87
365.412	113.49
365.623	-9.39
365.834	13.14
366.045	84.82
366.256	43.86
366.467	54.1
366.678	29.52
366.889	99.16
367.1	129.88
367.311	86.87
367.522	47.96
367.733	37.72
367.944	127.83
368.155	31.57
368.366	58.2
368.577	7
368.788	136.02
368.999	70.48
369.209	39.76
369.42	105.3
369.631	148.31
369.842	123.73
370.053	15.19
370.264	84.82
370.474	70.48
370.685	127.83
370.896	113.49
371.107	142.16
371.317	29.52
371.528	56.15
371.739	105.3
371.95	45.91
372.16	70.48
372.371	-15.53
372.582	13.14
372.792	68.44
373.003	54.1
373.214	54.1
373.424	86.87
373.635	17.24
373.846	13.14
374.056	72.53
374.267	15.19
374.477	35.67
374.688	25.43
374.898	168.79
375.109	62.29
375.319	144.21
375.53	166.74
375.74	78.68
375.951	62.29
376.161	45.91
376.372	68.44
376.582	54.1
376.793	82.77
377.003	25.43
377.214	37.72
377.424	56.15
377.635	66.39
377.845	43.86
378.055	76.63
378.266	84.82
378.476	80.72
378.686	66.39
378.897	86.87
379.107	113.49
379.317	62.29
379.528	93.01
379.738	-3.24
379.948	95.06
380.158	86.87
380.369	0.85
380.579	50
380.789	66.39
380.999	78.68
381.21	129.88
381.42	95.06
381.63	21.33
381.84	95.06
382.05	54.1
382.261	115.54
382.471	123.73
382.681	103.25
382.891	86.87
383.101	88.92
383.311	-3.24
383.521	23.38
383.731	41.81
383.941	52.05
384.151	125.78
384.361	70.48
384.571	33.62
384.781	86.87
384.991	191.31
385.201	109.4
385.411	66.39
385.621	105.3
385.831	45.91
386.041	121.68
386.251	146.26
386.461	58.2
386.671	50
386.881	99.16
387.091	84.82
387.301	54.1
387.511	93.01
387.72	93.01
387.93	70.48
388.14	23.38
388.35	136.02
388.56	86.87
388.769	113.49
388.979	103.25
389.189	-3.24
389.399	136.02
389.609	43.86
389.818	62.29
390.028	117.59
390.238	95.06
390.447	39.76
390.657	86.87
390.867	70.48
391.076	45.91
391.286	66.39
391.496	103.25
391.705	170.83
391.915	35.67
392.125	74.58
392.334	62.29
392.544	113.49
392.753	70.48
392.963	45.91
393.172	72.53
393.382	66.39
393.591	121.68
393.801	78.68
394.01	99.16
394.22	86.87
394.429	37.72
394.639	-19.63
394.848	95.06
395.058	47.96
395.267	125.78
395.477	62.29
395.686	86.87
395.895	133.97
396.105	168.79
396.314	127.83
396.524	150.36
396.733	82.77
396.942	205.65
397.152	131.92
397.361	136.02
397.57	111.44
397.78	144.21
397.989	162.64
398.198	136.02
398.407	127.83
398.617	144.21
398.826	58.2
399.035	152.4
399.244	123.73
399.453	146.26
399.663	115.54
399.872	111.44
400.081	144.21
400.29	129.88
400.499	70.48
400.708	193.36
400.917	78.68
401.127	113.49
401.336	105.3
401.545	209.75
401.754	97.11
401.963	213.84
402.172	176.98
402.381	164.69
402.59	138.07
402.799	146.26
403.008	150.36
403.217	168.79
403.426	258.9
403.635	185.17
403.844	127.83
404.053	219.99
404.262	189.27
404.471	187.22
404.68	195.41
404.888	176.98
405.097	164.69
405.306	267.09
405.515	252.75
405.724	234.32
405.933	185.17
406.142	265.04
406.35	207.7
406.559	240.47
406.768	234.32
406.977	250.71
407.185	269.14
407.394	289.62
407.603	269.14
407.812	289.62
408.02	334.67
408.229	293.71
408.438	295.76
408.646	324.43
408.855	344.91
409.064	381.78
409.272	258.9
409.481	334.67
409.69	394.06
409.898	297.81
410.107	439.12
410.315	478.03
410.524	418.64
410.733	426.83
410.941	408.4
411.15	426.83
411.358	473.93
411.567	516.94
411.775	400.21
411.984	566.09
412.192	580.43
412.401	596.81
412.609	629.58
412.818	623.44
413.026	645.96
413.234	693.07
413.443	627.53
413.651	717.64
413.86	766.79
414.068	703.31
414.276	828.23
414.485	803.66
414.693	795.47
414.901	953.16
415.11	850.76
415.318	881.48
415.526	975.69
415.734	1090.37
415.943	1026.89
416.151	1094.47
416.359	1057.61
416.567	1188.68
416.776	1260.35
416.984	1233.73
417.192	1225.54
417.4	1299.27
417.608	1256.26
417.817	1344.32
418.025	1385.28
418.233	1430.34
418.441	1368.9
418.649	1454.91
418.857	1647.42
419.065	1602.36
419.273	1626.94
419.481	1741.63
419.689	1839.93
419.897	1841.98
420.105	1919.8
420.313	2120.5
420.521	1999.67
420.729	1991.48
420.937	2200.37
421.145	2179.89
421.353	2394.93
421.561	2413.36
421.769	2435.89
421.977	2681.64
422.185	2659.12
422.393	2872.11
422.601	2978.6
422.809	2904.87
423.017	3001.13
423.224	3015.46
423.432	3269.41
423.64	3265.32
423.848	3603.23
424.056	3443.49
424.263	3736.35
424.471	3701.53
424.679	3683.1
424.887	3894.04
425.094	3994.39
425.302	4047.64
425.51	4174.61
425.718	4322.07
425.925	4373.27
426.133	4780.81
426.341	4731.66
426.548	5149.45
426.756	4993.8
426.964	5237.51
427.171	5499.65
427.379	5620.48
427.586	5591.81
427.794	5853.95
428.001	6042.36
428.209	6345.46
428.417	6109.94
428.624	6593.26
428.832	6632.18
429.039	6617.84
429.247	6568.69
429.454	7269.09
429.662	7768.8
429.869	7090.92
430.076	7635.68
430.284	7449.32
430.491	7799.52
430.699	8254.17
430.906	8356.57
431.114	8307.41
431.321	8694.48
431.528	8901.33
431.736	9528
431.943	9892.54
432.15	9470.66
432.358	9663.17
432.565	10295.99
432.772	10191.55
432.979	10400.44
433.187	11086.51
433.394	10945.2
433.601	11547.3
433.808	11739.81
434.016	11555.49
434.223	11942.56
434.43	13052.56
434.637	12722.84
434.844	13374.09
435.052	13376.14
435.259	13488.78
435.466	13505.16
435.673	13503.11
435.88	14285.44
436.087	15141.49
436.294	15219.31
436.501	14834.29
436.708	15063.66
436.915	15899.23
437.122	16384.6
437.329	16233.05
437.537	16841.3
437.743	17242.7
437.95	16992.85
438.157	17824.33
438.364	18258.49
438.571	18156.1
438.778	18508.35
438.985	19964.45
439.192	19294.77
439.399	19974.69
439.606	19401.26
439.813	20533.79
440.02	22204.93
440.227	21422.61
440.433	21342.74
440.64	21885.45
440.847	21819.91
441.054	22483.45
441.261	23718.38
441.467	23665.13
441.674	24068.58
441.881	24832.47
442.088	24967.64
442.294	24521.18
442.501	25207.25
442.708	25672.14
442.914	26638.78
443.121	27756.97
443.328	27156.92
443.534	28914.08
443.741	28049.83
443.948	27689.39
444.154	29837.71
444.361	29612.43
444.568	29989.26
444.774	29704.59
444.981	30083.47
445.187	30652.8
445.394	32172.39
445.6	31820.14
445.807	35103.04
446.013	33139.04
446.22	33919.31
446.426	35103.04
446.633	35717.43
446.839	36991.26
447.046	35322.17
447.252	37191.97
447.459	37038.37
447.665	36999.46
447.871	38533.39
448.078	40179.95
448.284	38408.46
448.491	39583.99
448.697	40995.04
448.903	41722.07
449.11	41529.56
449.316	41296.1
449.522	41773.27
449.728	43016.39
449.935	43425.98
450.141	42944.71
450.347	44038.33
450.553	42754.25
450.76	43452.61
450.966	44816.55
451.172	44150.96
451.378	45463.71
451.584	44533.93
451.791	45729.95
451.997	45299.87
452.203	46065.81
452.409	46135.45
452.615	46098.58
452.821	44507.31
453.027	43964.6
453.233	46348.43
453.44	44388.53
453.646	44728.49
453.852	44800.17
454.058	45885.59
454.264	44286.13
454.47	45248.67
454.676	44073.14
454.882	45338.79
455.088	41736.41
455.294	42387.66
455.5	43034.82
455.705	43657.4
455.911	41820.38
456.117	40904.93
456.323	40573.16
456.529	38316.3
456.735	40036.59
456.941	38887.68
457.147	38646.02
457.352	37130.53
457.558	37011.74
457.764	36669.73
457.97	36553
458.176	35215.68
458.381	35391.8
458.587	33734.99
458.793	33835.35
458.999	31981.93
459.204	34548.04
459.41	33534.29
459.616	31316.34
459.821	31027.58
460.027	31111.55
460.233	30323.08
460.438	29372.82
460.644	29325.72
460.85	28185
461.055	27498.93
461.261	27689.39
461.466	25518.54
461.672	24648.16
461.878	26577.34
462.083	24768.99
462.289	24230.37
462.494	24078.82
462.7	23200.24
462.905	22565.37
463.111	23050.74
463.316	23534.06
463.522	23095.8
463.727	22866.42
463.932	22827.51
464.138	22403.58
464.343	22632.96
464.549	21912.07
464.754	22682.11
464.959	22540.8
465.165	22249.99
465.37	21414.41
465.575	20660.76
465.781	21838.34
465.986	21694.99
466.191	21088.79
466.397	20898.33
466.602	19452.46
466.807	20279.84
467.012	20388.38
467.218	20191.78
467.423	19821.09
467.628	20136.48
467.833	21084.69
468.038	20173.35
