Data from USB4F104151__242__14-22-17-548.txt Node

Date: Thu Mar 13 14:22:17 EDT 2025
User: louis
Spectrometer: USB4F10415
Trigger mode: 4
Integration Time (sec): 2.000000E-2
Scans to average: 1
Electric dark correction enabled: true
Nonlinearity correction enabled: false
Boxcar width: 0
XAxis mode: Wavelengths
Number of Pixels in Spectrum: 3648
>>>>>Begin Spectral Data<<<<<
178.204	-105.98
178.424	-105.98
178.644	-105.98
178.864	-108.03
179.084	-130.56
179.304	-44.54
179.524	-3.58
179.744	-36.35
179.964	82.43
180.184	-52.74
180.404	57.86
180.624	-24.06
180.844	70.14
181.064	-79.36
181.283	8.7
181.503	-3.58
181.723	25.09
181.943	-36.35
182.163	107.01
182.383	2.56
182.602	90.62
182.822	66.05
183.042	66.05
183.262	20.99
183.482	43.52
183.701	23.04
183.921	53.76
184.141	33.28
184.361	82.43
184.58	10.75
184.8	25.09
185.02	53.76
185.239	25.09
185.459	94.72
185.679	55.81
185.898	16.9
186.118	45.57
186.338	0.51
186.557	25.09
186.777	29.18
186.997	16.9
187.216	-36.35
187.436	76.29
187.655	43.52
187.875	25.09
188.095	49.66
188.314	25.09
188.534	76.29
188.753	-11.78
188.973	31.23
189.192	80.38
189.412	57.86
189.631	86.53
189.851	72.19
190.07	74.24
190.29	-11.78
190.509	156.16
190.729	14.85
190.948	37.38
191.168	135.68
191.387	49.66
191.607	49.66
191.826	43.52
192.045	-9.73
192.265	45.57
192.484	66.05
192.704	90.62
192.923	-5.63
193.142	115.2
193.362	16.9
193.581	49.66
193.8	49.66
194.02	147.97
194.239	-22.02
194.458	33.28
194.678	57.86
194.897	37.38
195.116	66.05
195.335	35.33
195.555	55.81
195.774	-3.58
195.993	107.01
196.212	12.8
196.432	-24.06
196.651	20.99
196.87	-44.54
197.089	74.24
197.308	76.29
197.528	100.86
197.747	39.42
197.966	43.52
198.185	-26.11
198.404	16.9
198.623	39.42
198.842	74.24
199.062	55.81
199.281	41.47
199.5	8.7
199.719	57.86
199.938	45.57
200.157	115.2
200.376	104.96
200.595	25.09
200.814	-3.58
201.033	14.85
201.252	49.66
201.471	20.99
201.69	33.28
201.909	6.66
202.128	-19.97
202.347	45.57
202.566	2.56
202.785	4.61
203.004	8.7
203.223	72.19
203.442	4.61
203.661	64
203.879	53.76
204.098	35.33
204.317	80.38
204.536	66.05
204.755	33.28
204.974	45.57
205.193	92.67
205.411	121.34
205.63	37.38
205.849	10.75
206.068	-32.26
206.287	4.61
206.505	59.9
206.724	0.51
206.943	-11.78
207.162	33.28
207.381	0.51
207.599	-19.97
207.818	16.9
208.037	20.99
208.255	45.57
208.474	90.62
208.693	98.81
208.911	20.99
209.13	10.75
209.349	55.81
209.567	125.44
209.786	100.86
210.005	74.24
210.223	66.05
210.442	0.51
210.661	72.19
210.879	35.33
211.098	45.57
211.316	-5.63
211.535	96.77
211.753	2.56
211.972	14.85
212.191	76.29
212.409	33.28
212.628	49.66
212.846	49.66
213.065	53.76
213.283	109.05
213.502	49.66
213.72	-56.83
213.938	-3.58
214.157	94.72
214.375	100.86
214.594	-5.63
214.812	35.33
215.031	57.86
215.249	-28.16
215.467	100.86
215.686	-15.87
215.904	84.48
216.122	-50.69
216.341	90.62
216.559	20.99
216.778	72.19
216.996	59.9
217.214	49.66
217.432	-38.4
217.651	23.04
217.869	86.53
218.087	76.29
218.306	47.62
218.524	88.57
218.742	31.23
218.96	0.51
219.179	41.47
219.397	-32.26
219.615	57.86
219.833	25.09
220.051	33.28
220.27	86.53
220.488	94.72
220.706	8.7
220.924	4.61
221.142	23.04
221.36	0.51
221.578	66.05
221.796	74.24
222.015	86.53
222.233	43.52
222.451	49.66
222.669	-30.21
222.887	59.9
223.105	25.09
223.323	31.23
223.541	31.23
223.759	2.56
223.977	20.99
224.195	90.62
224.413	43.52
224.631	-3.58
224.849	47.62
225.067	78.33
225.285	49.66
225.503	-42.5
225.721	-7.68
225.939	0.51
226.157	102.91
226.375	92.67
226.592	-101.89
226.81	68.09
227.028	59.9
227.246	102.91
227.464	72.19
227.682	70.14
227.9	86.53
228.117	25.09
228.335	31.23
228.553	41.47
228.771	76.29
228.989	-3.58
229.206	33.28
229.424	-7.68
229.642	-9.73
229.86	90.62
230.077	51.71
230.295	76.29
230.513	12.8
230.731	0.51
230.948	98.81
231.166	25.09
231.384	49.66
231.601	16.9
231.819	104.96
232.037	33.28
232.254	10.75
232.472	47.62
232.689	82.43
232.907	20.99
233.125	107.01
233.342	41.47
233.56	-1.54
233.777	37.38
233.995	-38.4
234.213	98.81
234.43	127.49
234.648	14.85
234.865	12.8
235.083	72.19
235.3	-13.82
235.518	25.09
235.735	131.58
235.953	-13.82
236.17	35.33
236.388	53.76
236.605	76.29
236.822	25.09
237.04	76.29
237.257	16.9
237.475	61.95
237.692	33.28
237.909	33.28
238.127	16.9
238.344	121.34
238.562	57.86
238.779	16.9
238.996	-13.82
239.214	10.75
239.431	70.14
239.648	51.71
239.865	82.43
240.083	-7.68
240.3	41.47
240.517	-24.06
240.735	39.42
240.952	68.09
241.169	43.52
241.386	49.66
241.603	70.14
241.821	53.76
242.038	49.66
242.255	66.05
242.472	45.57
242.689	4.61
242.907	-19.97
243.124	-7.68
243.341	43.52
243.558	-7.68
243.775	49.66
243.992	-44.54
244.209	82.43
244.426	74.24
244.643	37.38
244.86	-44.54
245.078	64
245.295	82.43
245.512	41.47
245.729	-17.92
245.946	66.05
246.163	82.43
246.38	37.38
246.597	59.9
246.814	-24.06
247.031	35.33
247.248	55.81
247.464	20.99
247.681	57.86
247.898	78.33
248.115	107.01
248.332	16.9
248.549	129.53
248.766	102.91
248.983	90.62
249.2	107.01
249.417	39.42
249.633	59.9
249.85	66.05
250.067	8.7
250.284	8.7
250.501	102.91
250.717	53.76
250.934	-40.45
251.151	-44.54
251.368	8.7
251.585	-3.58
251.801	45.57
252.018	35.33
252.235	66.05
252.451	66.05
252.668	76.29
252.885	90.62
253.102	72.19
253.318	55.81
253.535	39.42
253.752	18.94
253.968	16.9
254.185	35.33
254.401	49.66
254.618	-19.97
254.835	-13.82
255.051	76.29
255.268	20.99
255.484	45.57
255.701	94.72
255.917	94.72
256.134	-36.35
256.351	20.99
256.567	-28.16
256.784	59.9
257	20.99
257.217	84.48
257.433	96.77
257.65	12.8
257.866	51.71
258.082	10.75
258.299	78.33
258.515	41.47
258.732	25.09
258.948	74.24
259.165	-19.97
259.381	47.62
259.597	-58.88
259.814	92.67
260.03	29.18
260.246	82.43
260.463	100.86
260.679	-1.54
260.895	-32.26
261.112	102.91
261.328	66.05
261.544	25.09
261.761	74.24
261.977	-7.68
262.193	25.09
262.409	0.51
262.626	68.09
262.842	117.25
263.058	-11.78
263.274	0.51
263.49	25.09
263.707	113.15
263.923	33.28
264.139	8.7
264.355	-3.58
264.571	43.52
264.787	57.86
265.004	41.47
265.22	51.71
265.436	16.9
265.652	-3.58
265.868	53.76
266.084	61.95
266.3	51.71
266.516	47.62
266.732	27.14
266.948	59.9
267.164	23.04
267.38	61.95
267.596	68.09
267.812	115.2
268.028	-7.68
268.244	102.91
268.46	49.66
268.676	-56.83
268.892	-15.87
269.108	0.51
269.324	49.66
269.54	6.66
269.756	51.71
269.972	33.28
270.188	-5.63
270.403	8.7
270.619	82.43
270.835	53.76
271.051	27.14
271.267	37.38
271.483	35.33
271.698	82.43
271.914	25.09
272.13	45.57
272.346	14.85
272.562	-7.68
272.777	61.95
272.993	43.52
273.209	76.29
273.425	4.61
273.64	57.86
273.856	51.71
274.072	-32.26
274.287	-28.16
274.503	66.05
274.719	20.99
274.934	41.47
275.15	-3.58
275.366	37.38
275.581	27.14
275.797	18.94
276.012	12.8
276.228	98.81
276.444	66.05
276.659	145.92
276.875	55.81
277.09	72.19
277.306	43.52
277.521	147.97
277.737	107.01
277.952	76.29
278.168	39.42
278.383	121.34
278.599	37.38
278.814	115.2
279.03	29.18
279.245	49.66
279.461	-11.78
279.676	43.52
279.892	-24.06
280.107	57.86
280.322	164.35
280.538	68.09
280.753	74.24
280.969	68.09
281.184	92.67
281.399	33.28
281.615	74.24
281.83	53.76
282.045	-11.78
282.26	45.57
282.476	84.48
282.691	70.14
282.906	41.47
283.122	49.66
283.337	-28.16
283.552	127.49
283.767	20.99
283.983	16.9
284.198	0.51
284.413	20.99
284.628	16.9
284.843	45.57
285.058	86.53
285.274	88.57
285.489	-46.59
285.704	74.24
285.919	2.56
286.134	82.43
286.349	74.24
286.564	66.05
286.779	57.86
286.995	41.47
287.21	0.51
287.425	39.42
287.64	-5.63
287.855	-17.92
288.07	20.99
288.285	49.66
288.5	78.33
288.715	53.76
288.93	39.42
289.145	45.57
289.36	51.71
289.575	20.99
289.79	135.68
290.004	109.05
290.219	102.91
290.434	68.09
290.649	-38.4
290.864	43.52
291.079	-9.73
291.294	66.05
291.509	6.66
291.724	10.75
291.938	53.76
292.153	43.52
292.368	72.19
292.583	78.33
292.798	74.24
293.012	16.9
293.227	-7.68
293.442	74.24
293.657	-7.68
293.871	92.67
294.086	27.14
294.301	131.58
294.516	84.48
294.73	49.66
294.945	68.09
295.16	59.9
295.374	27.14
295.589	43.52
295.804	-3.58
296.018	64
296.233	6.66
296.447	35.33
296.662	74.24
296.877	141.82
297.091	23.04
297.306	92.67
297.52	66.05
297.735	12.8
297.949	59.9
298.164	100.86
298.378	33.28
298.593	57.86
298.807	35.33
299.022	41.47
299.236	25.09
299.451	-11.78
299.665	8.7
299.88	49.66
300.094	64
300.309	82.43
300.523	61.95
300.737	66.05
300.952	90.62
301.166	45.57
301.381	10.75
301.595	31.23
301.809	98.81
302.024	0.51
302.238	-24.06
302.452	66.05
302.667	78.33
302.881	41.47
303.095	59.9
303.309	133.63
303.524	37.38
303.738	14.85
303.952	31.23
304.166	37.38
304.381	12.8
304.595	59.9
304.809	29.18
305.023	43.52
305.237	33.28
305.452	70.14
305.666	-3.58
305.88	45.57
306.094	-5.63
306.308	90.62
306.522	49.66
306.736	-5.63
306.95	41.47
307.164	66.05
307.379	94.72
307.593	98.81
307.807	98.81
308.021	41.47
308.235	45.57
308.449	-15.87
308.663	57.86
308.877	102.91
309.091	57.86
309.305	94.72
309.519	25.09
309.733	88.57
309.947	74.24
310.161	43.52
310.374	53.76
310.588	107.01
310.802	20.99
311.016	14.85
311.23	41.47
311.444	70.14
311.658	68.09
311.872	74.24
312.085	-32.26
312.299	18.94
312.513	53.76
312.727	33.28
312.941	8.7
313.154	57.86
313.368	53.76
313.582	107.01
313.796	41.47
314.009	8.7
314.223	35.33
314.437	84.48
314.651	-38.4
314.864	-13.82
315.078	23.04
315.292	-28.16
315.505	29.18
315.719	82.43
315.933	90.62
316.146	109.05
316.36	0.51
316.573	92.67
316.787	119.29
317.001	156.16
317.214	53.76
317.428	76.29
317.641	68.09
317.855	16.9
318.068	70.14
318.282	12.8
318.495	25.09
318.709	82.43
318.922	41.47
319.136	66.05
319.349	37.38
319.563	25.09
319.776	74.24
319.99	51.71
320.203	8.7
320.417	31.23
320.63	66.05
320.843	107.01
321.057	4.61
321.27	35.33
321.483	86.53
321.697	33.28
321.91	143.87
322.124	51.71
322.337	82.43
322.55	68.09
322.763	29.18
322.977	-24.06
323.19	33.28
323.403	68.09
323.617	66.05
323.83	88.57
324.043	82.43
324.256	0.51
324.469	41.47
324.683	150.01
324.896	53.76
325.109	20.99
325.322	25.09
325.535	49.66
325.748	53.76
325.962	10.75
326.175	43.52
326.388	107.01
326.601	74.24
326.814	4.61
327.027	82.43
327.24	82.43
327.453	-3.58
327.666	117.25
327.879	107.01
328.092	168.45
328.305	45.57
328.518	16.9
328.731	33.28
328.944	39.42
329.157	123.39
329.37	53.76
329.583	94.72
329.796	74.24
330.009	51.71
330.222	-32.26
330.435	59.9
330.648	125.44
330.861	-22.02
331.073	66.05
331.286	-48.64
331.499	115.2
331.712	31.23
331.925	51.71
332.138	14.85
332.35	41.47
332.563	-3.58
332.776	66.05
332.989	16.9
333.202	78.33
333.414	45.57
333.627	82.43
333.84	35.33
334.053	35.33
334.265	25.09
334.478	74.24
334.691	-28.16
334.903	68.09
335.116	-40.45
335.329	16.9
335.541	53.76
335.754	131.58
335.966	-13.82
336.179	78.33
336.392	16.9
336.604	135.68
336.817	29.18
337.029	102.91
337.242	6.66
337.454	20.99
337.667	45.57
337.88	100.86
338.092	43.52
338.305	107.01
338.517	27.14
338.729	162.3
338.942	111.1
339.154	49.66
339.367	43.52
339.579	133.63
339.792	84.48
340.004	141.82
340.217	-9.73
340.429	76.29
340.641	45.57
340.854	49.66
341.066	57.86
341.278	80.38
341.491	78.33
341.703	45.57
341.915	115.2
342.128	147.97
342.34	94.72
342.552	92.67
342.764	-1.54
342.977	51.71
343.189	82.43
343.401	78.33
343.613	53.76
343.826	68.09
344.038	57.86
344.25	16.9
344.462	109.05
344.674	-11.78
344.886	35.33
345.099	70.14
345.311	88.57
345.523	29.18
345.735	25.09
345.947	31.23
346.159	74.24
346.371	86.53
346.583	61.95
346.795	174.59
347.007	53.76
347.219	41.47
347.431	33.28
347.643	66.05
347.855	-42.5
348.067	100.86
348.279	10.75
348.491	43.52
348.703	70.14
348.915	-15.87
349.127	68.09
349.339	107.01
349.551	51.71
349.763	66.05
349.975	80.38
350.187	66.05
350.399	76.29
350.61	74.24
350.822	-5.63
351.034	74.24
351.246	82.43
351.458	94.72
351.669	72.19
351.881	152.06
352.093	86.53
352.305	119.29
352.517	33.28
352.728	49.66
352.94	94.72
353.152	57.86
353.363	41.47
353.575	164.35
353.787	66.05
353.999	66.05
354.21	53.76
354.422	41.47
354.633	53.76
354.845	49.66
355.057	113.15
355.268	154.11
355.48	57.86
355.692	82.43
355.903	107.01
356.115	90.62
356.326	49.66
356.538	139.77
356.749	115.2
356.961	129.53
357.172	14.85
357.384	72.19
357.595	121.34
357.807	84.48
358.018	98.81
358.23	109.05
358.441	111.1
358.653	90.62
358.864	57.86
359.075	59.9
359.287	39.42
359.498	84.48
359.709	125.44
359.921	127.49
360.132	57.86
360.344	98.81
360.555	66.05
360.766	86.53
360.977	-32.26
361.189	72.19
361.4	70.14
361.611	88.57
361.823	25.09
362.034	49.66
362.245	20.99
362.456	84.48
362.667	61.95
362.879	29.18
363.09	31.23
363.301	115.2
363.512	33.28
363.723	18.94
363.935	115.2
364.146	72.19
364.357	16.9
364.568	86.53
364.779	41.47
364.99	59.9
365.201	61.95
365.412	90.62
365.623	98.81
365.834	14.85
366.045	66.05
366.256	-11.78
366.467	98.81
366.678	107.01
366.889	57.86
367.1	84.48
367.311	133.63
367.522	2.56
367.733	37.38
367.944	160.25
368.155	31.23
368.366	68.09
368.577	100.86
368.788	84.48
368.999	37.38
369.209	100.86
369.42	154.11
369.631	78.33
369.842	70.14
370.053	78.33
370.264	47.62
370.474	-3.58
370.685	70.14
370.896	76.29
371.107	123.39
371.317	41.47
371.528	55.81
371.739	115.2
371.95	82.43
372.16	133.63
372.371	76.29
372.582	70.14
372.792	109.05
373.003	68.09
373.214	45.57
373.424	102.91
373.635	16.9
373.846	90.62
374.056	57.86
374.267	109.05
374.477	55.81
374.688	66.05
374.898	139.77
375.109	43.52
375.319	109.05
375.53	121.34
375.74	51.71
375.951	74.24
376.161	27.14
376.372	66.05
376.582	-38.4
376.793	82.43
377.003	43.52
377.214	51.71
377.424	111.1
377.635	-5.63
377.845	66.05
378.055	137.73
378.266	-15.87
378.476	49.66
378.686	117.25
378.897	74.24
379.107	160.25
379.317	156.16
379.528	78.33
379.738	16.9
379.948	102.91
380.158	109.05
380.369	135.68
380.579	86.53
380.789	90.62
380.999	41.47
381.21	137.73
381.42	205.31
381.63	98.81
381.84	117.25
382.05	102.91
382.261	59.9
382.471	98.81
382.681	59.9
382.891	131.58
383.101	102.91
383.311	61.95
383.521	66.05
383.731	66.05
383.941	115.2
384.151	8.7
384.361	49.66
384.571	98.81
384.781	115.2
384.991	115.2
385.201	109.05
385.411	59.9
385.621	119.29
385.831	90.62
386.041	164.35
386.251	156.16
386.461	172.54
386.671	45.57
386.881	84.48
387.091	86.53
387.301	107.01
387.511	68.09
387.72	80.38
387.93	143.87
388.14	33.28
388.35	59.9
388.56	133.63
388.769	98.81
388.979	115.2
389.189	45.57
389.399	45.57
389.609	74.24
389.818	123.39
390.028	61.95
390.238	35.33
390.447	115.2
390.657	98.81
390.867	98.81
391.076	64
391.286	127.49
391.496	141.82
391.705	160.25
391.915	143.87
392.125	147.97
392.334	82.43
392.544	152.06
392.753	115.2
392.963	98.81
393.172	92.67
393.382	94.72
393.591	190.97
393.801	117.25
394.01	162.3
394.22	131.58
394.429	123.39
394.639	121.34
394.848	125.44
395.058	133.63
395.267	150.01
395.477	172.54
395.686	172.54
395.895	94.72
396.105	158.21
396.314	147.97
396.524	139.77
396.733	131.58
396.942	147.97
397.152	215.55
397.361	139.77
397.57	135.68
397.78	180.73
397.989	86.53
398.198	199.16
398.407	141.82
398.617	158.21
398.826	117.25
399.035	133.63
399.244	156.16
399.453	160.25
399.663	186.88
399.872	154.11
400.081	143.87
400.29	156.16
400.499	152.06
400.708	178.69
400.917	164.35
401.127	197.12
401.336	205.31
401.545	233.98
401.754	254.46
401.963	156.16
402.172	213.5
402.381	109.05
402.59	184.83
402.799	205.31
403.008	205.31
403.217	201.21
403.426	195.07
403.635	152.06
403.844	131.58
404.053	233.98
404.262	107.01
404.471	240.12
404.68	256.51
404.888	164.35
405.097	250.36
405.306	217.6
405.515	256.51
405.724	258.56
405.933	299.52
406.142	262.65
406.35	295.42
406.559	231.93
406.768	283.13
406.977	326.14
407.185	297.47
407.394	320
407.603	266.75
407.812	352.76
408.02	264.7
408.229	322.04
408.438	401.91
408.646	356.86
408.855	328.19
409.064	410.11
409.272	410.11
409.481	436.73
409.69	430.59
409.898	467.45
410.107	516.6
410.315	416.25
410.524	502.26
410.733	588.28
410.941	487.93
411.15	549.37
411.358	573.94
411.567	666.1
411.775	674.29
411.984	643.57
412.192	657.91
412.401	623.09
412.609	705.01
412.818	748.02
413.026	784.88
413.234	756.21
413.443	903.67
413.651	819.7
413.86	911.86
414.068	905.71
414.276	1051.12
414.485	924.15
414.693	967.15
414.901	1073.65
415.11	1096.18
415.318	1067.5
415.526	1122.8
415.734	1157.61
415.943	1323.5
416.151	1192.43
416.359	1264.11
416.567	1341.93
416.776	1386.99
416.984	1329.64
417.192	1458.67
417.4	1458.67
417.608	1499.63
417.817	1534.44
418.025	1575.4
418.233	1810.92
418.441	1774.05
418.649	1833.44
418.857	1915.36
419.065	2073.06
419.273	1972.71
419.481	1999.33
419.689	2177.5
419.897	2249.18
420.105	2255.33
420.313	2400.73
420.521	2410.97
420.729	2421.21
420.937	2595.29
421.145	2578.9
421.353	2720.21
421.561	2929.11
421.769	2941.4
421.977	3113.42
422.185	3076.56
422.393	3367.37
422.601	3494.35
422.809	3408.33
423.017	3510.73
423.224	3592.65
423.432	3756.49
423.64	3883.46
423.848	4041.15
424.056	4116.93
424.263	4245.95
424.471	4280.77
424.679	4428.22
424.887	4653.5
425.094	4872.63
425.302	4907.45
425.51	4897.21
425.718	5106.1
425.925	5251.5
426.133	5358
426.341	5687.72
426.548	5999.01
426.756	6054.31
426.964	6064.55
427.171	6498.72
427.379	6496.67
427.586	6840.73
427.794	6885.78
428.001	7250.32
428.209	7479.69
428.417	7469.45
428.624	7954.82
428.832	7780.75
429.039	7903.62
429.247	7674.25
429.454	8530.3
429.662	8995.19
429.869	8618.36
430.076	9171.32
430.284	8708.48
430.491	9222.52
430.699	9841
430.906	9587.05
431.114	9853.29
431.321	10344.8
431.528	10512.74
431.736	11217.24
431.943	11727.18
432.15	11317.59
432.358	11436.37
432.565	11979.08
432.772	11950.41
432.979	12656.96
433.187	12794.17
433.394	12880.19
433.601	13730.09
433.808	13816.11
434.016	13791.53
434.223	14246.18
434.43	14973.21
434.637	14801.18
434.844	15819.02
435.052	15962.38
435.259	15802.64
435.466	16171.27
435.673	15862.03
435.88	16980.22
436.087	17907.95
436.294	17930.48
436.501	17340.66
436.708	17725.68
436.915	18346.22
437.122	19304.67
437.329	19189.98
437.537	19820.75
437.743	19921.1
437.95	19923.15
438.157	21252.28
438.364	21670.07
438.571	21405.88
438.778	21817.52
438.985	23312.54
439.192	22833.32
439.399	23394.46
439.606	23058.59
439.813	24459.4
440.02	25819.25
440.227	25639.03
440.433	25059.46
440.64	26058.87
440.847	25895.03
441.054	26521.71
441.261	28350.54
441.467	27820.12
441.674	28487.76
441.881	29478.97
442.088	29532.22
442.294	28921.93
442.501	29732.92
442.708	30210.1
442.914	31490.08
443.121	32522.26
443.328	32020.5
443.534	34179.06
443.741	32956.43
443.948	32370.71
444.154	35078.12
444.361	34555.89
444.568	34873.32
444.774	34967.53
444.981	35493.86
445.187	36376.53
445.394	37959.61
445.6	37171.14
445.807	40347.54
446.013	39006.12
446.22	39770.02
446.426	41392.01
446.633	41561.99
446.839	43167.6
447.046	41023.37
447.252	43349.87
447.459	43603.81
447.665	43134.83
447.871	45510.47
448.078	47003.44
448.284	45102.93
448.491	46344
448.697	47798.05
448.903	48776.98
449.11	48547.61
449.316	47871.78
449.522	48520.99
449.728	50001.67
449.935	50450.17
450.141	50437.89
450.347	51582.7
450.553	49938.18
450.76	50495.23
450.966	52315.87
451.172	51713.77
451.378	53171.92
451.584	51848.94
451.791	52637.4
451.997	52897.5
452.203	53751.5
452.409	53937.86
452.615	53477.07
452.821	51400.43
453.027	51318.51
453.233	53833.42
453.44	52008.68
453.646	52319.97
453.852	52993.75
454.058	53782.22
454.264	51879.66
454.47	52987.61
454.676	51320.56
454.882	53468.88
455.088	49174.29
455.294	49868.55
455.5	50540.28
455.705	51015.41
455.911	49190.67
456.117	48181.02
456.323	47507.24
456.529	45416.27
456.735	47611.69
456.941	45985.6
457.147	45856.58
457.352	43622.25
457.558	43587.43
457.764	43564.9
457.97	43030.38
458.176	41963.39
458.381	42088.32
458.587	39946.14
458.793	40081.31
458.999	38348.73
459.204	40892.3
459.41	39419.81
459.616	37240.78
459.821	37314.5
460.027	37128.14
460.233	36163.54
460.438	34226.17
460.644	34918.38
460.85	33654.78
461.055	32944.14
461.261	33077.26
461.466	30320.69
461.672	29347.9
461.878	31950.87
462.083	29562.94
462.289	29040.71
462.494	28805.19
462.7	27396.19
462.905	26712.17
463.111	27940.95
463.316	27953.24
463.522	27142.24
463.727	27179.11
463.932	27132
464.138	26736.74
464.343	27205.73
464.549	26310.77
464.754	27019.36
464.959	26910.82
465.165	26591.34
465.37	25469.05
465.575	25036.93
465.781	25884.79
465.986	25962.61
466.191	25188.48
466.397	24713.35
