Data from USB4F104151__215__14-21-13-371.txt Node

Date: Thu Mar 13 14:21:13 EDT 2025
User: louis
Spectrometer: USB4F10415
Trigger mode: 4
Integration Time (sec): 2.000000E-2
Scans to average: 1
Electric dark correction enabled: true
Nonlinearity correction enabled: false
Boxcar width: 0
XAxis mode: Wavelengths
Number of Pixels in Spectrum: 3648
>>>>>Begin Spectral Data<<<<<
178.204	-149.84
178.424	-149.84
178.644	-149.84
178.864	-143.7
179.084	-84.31
179.304	-2.39
179.524	-35.16
179.744	38.57
179.964	20.14
180.184	-20.82
180.404	-6.49
180.624	67.24
180.844	-29.01
181.064	-47.44
181.283	-0.34
181.503	-29.01
181.723	44.71
181.943	-14.68
182.163	52.91
182.383	-16.73
182.602	20.14
182.822	16.04
183.042	20.14
183.262	116.39
183.482	52.91
183.701	40.62
183.921	104.11
184.141	16.04
184.361	13.99
184.58	54.95
184.8	5.8
185.02	36.52
185.239	44.71
185.459	5.8
185.679	93.87
185.898	-12.63
186.118	36.52
186.338	13.99
186.557	54.95
186.777	48.81
186.997	120.49
187.216	-8.53
187.436	89.77
187.655	75.43
187.875	9.9
188.095	9.9
188.314	77.48
188.534	67.24
188.753	-2.39
188.973	44.71
189.192	57
189.412	3.75
189.631	61.1
189.851	57
190.07	81.58
190.29	-12.63
190.509	44.71
190.729	44.71
190.948	73.39
191.168	155.3
191.387	69.29
191.607	67.24
191.826	7.85
192.045	5.8
192.265	16.04
192.484	34.47
192.704	40.62
192.923	61.1
193.142	87.72
193.362	13.99
193.581	61.1
193.8	124.58
194.02	36.52
194.239	48.81
194.458	57
194.678	30.38
194.897	81.58
195.116	7.85
195.335	5.8
195.555	57
195.774	3.75
195.993	54.95
196.212	-10.58
196.432	-33.11
196.651	81.58
196.87	54.95
197.089	143.02
197.308	89.77
197.528	67.24
197.747	-69.97
197.966	145.06
198.185	136.87
198.404	50.86
198.623	61.1
198.842	20.14
199.062	28.33
199.281	59.05
199.5	44.71
199.719	-16.73
199.938	3.75
200.157	20.14
200.376	16.04
200.595	69.29
200.814	71.34
201.033	32.43
201.252	28.33
201.471	54.95
201.69	63.15
201.909	20.14
202.128	85.67
202.347	34.47
202.566	-45.4
202.785	3.75
203.004	-12.63
203.223	118.44
203.442	3.75
203.661	22.19
203.879	143.02
204.098	38.57
204.317	7.85
204.536	1.71
204.755	61.1
204.974	52.91
205.193	54.95
205.411	134.82
205.63	13.99
205.849	54.95
206.068	9.9
206.287	61.1
206.505	108.2
206.724	-16.73
206.943	38.57
207.162	11.95
207.381	42.67
207.599	79.53
207.818	-2.39
208.037	7.85
208.255	-2.39
208.474	110.25
208.693	52.91
208.911	13.99
209.13	79.53
209.349	38.57
209.567	3.75
209.786	108.2
210.005	40.62
210.223	28.33
210.442	11.95
210.661	42.67
210.879	-2.39
211.098	13.99
211.316	61.1
211.535	28.33
211.753	-65.88
211.972	85.67
212.191	69.29
212.409	120.49
212.628	102.06
212.846	50.86
213.065	61.1
213.283	59.05
213.502	110.25
213.72	118.44
213.938	18.09
214.157	65.19
214.375	69.29
214.594	30.38
214.812	79.53
215.031	11.95
215.249	30.38
215.467	11.95
215.686	3.75
215.904	34.47
216.122	36.52
216.341	87.72
216.559	69.29
216.778	79.53
216.996	13.99
217.214	63.15
217.432	73.39
217.651	-35.16
217.869	-61.78
218.087	38.57
218.306	28.33
218.524	20.14
218.742	-39.25
218.96	104.11
219.179	89.77
219.397	46.76
219.615	89.77
219.833	97.96
220.051	20.14
220.27	5.8
220.488	83.63
220.706	77.48
220.924	85.67
221.142	69.29
221.36	5.8
221.578	71.34
221.796	44.71
222.015	63.15
222.233	54.95
222.451	81.58
222.669	13.99
222.887	83.63
223.105	1.71
223.323	-33.11
223.541	63.15
223.759	50.86
223.977	-55.64
224.195	118.44
224.413	42.67
224.631	151.21
224.849	-31.06
225.067	134.82
225.285	38.57
225.503	48.81
225.721	26.28
225.939	46.76
226.157	61.1
226.375	104.11
226.592	-20.82
226.81	44.71
227.028	52.91
227.246	138.92
227.464	18.09
227.682	36.52
227.9	18.09
228.117	-8.53
228.335	77.48
228.553	36.52
228.771	3.75
228.989	73.39
229.206	-2.39
229.424	9.9
229.642	-45.4
229.86	54.95
230.077	5.8
230.295	32.43
230.513	16.04
230.731	26.28
230.948	-2.39
231.166	20.14
231.384	11.95
231.601	128.68
231.819	71.34
232.037	61.1
232.254	52.91
232.472	22.19
232.689	52.91
232.907	3.75
233.125	44.71
233.342	-0.34
233.56	24.23
233.777	32.43
233.995	42.67
234.213	3.75
234.43	26.28
234.648	81.58
234.865	34.47
235.083	63.15
235.3	79.53
235.518	-4.44
235.735	54.95
235.953	95.91
236.17	120.49
236.388	32.43
236.605	-12.63
236.822	104.11
237.04	7.85
237.257	11.95
237.475	38.57
237.692	28.33
237.909	46.76
238.127	5.8
238.344	89.77
238.562	57
238.779	30.38
238.996	20.14
239.214	11.95
239.431	20.14
239.648	-8.53
239.865	106.15
240.083	26.28
240.3	69.29
240.517	42.67
240.735	54.95
240.952	95.91
241.169	71.34
241.386	59.05
241.603	-0.34
241.821	67.24
242.038	106.15
242.255	54.95
242.472	-10.58
242.689	32.43
242.907	75.43
243.124	34.47
243.341	106.15
243.558	97.96
243.775	32.43
243.992	-4.44
244.209	95.91
244.426	18.09
244.643	89.77
244.86	-29.01
245.078	36.52
245.295	16.04
245.512	34.47
245.729	91.82
245.946	87.72
246.163	59.05
246.38	16.04
246.597	9.9
246.814	16.04
247.031	32.43
247.248	44.71
247.464	110.25
247.681	46.76
247.898	50.86
248.115	102.06
248.332	13.99
248.549	87.72
248.766	126.63
248.983	44.71
249.2	36.52
249.417	102.06
249.633	13.99
249.85	61.1
250.067	32.43
250.284	71.34
250.501	69.29
250.717	48.81
250.934	28.33
251.151	44.71
251.368	-18.77
251.585	69.29
251.801	24.23
252.018	48.81
252.235	85.67
252.451	-33.11
252.668	-8.53
252.885	71.34
253.102	95.91
253.318	36.52
253.535	32.43
253.752	77.48
253.968	65.19
254.185	-2.39
254.401	40.62
254.618	28.33
254.835	13.99
255.051	126.63
255.268	100.01
255.484	54.95
255.701	44.71
255.917	102.06
256.134	-2.39
256.351	34.47
256.567	-2.39
256.784	65.19
257	85.67
257.217	36.52
257.433	30.38
257.65	28.33
257.866	20.14
258.082	3.75
258.299	-29.01
258.515	42.67
258.732	61.1
258.948	-55.64
259.165	77.48
259.381	61.1
259.597	22.19
259.814	106.15
260.03	63.15
260.246	-20.82
260.463	61.1
260.679	52.91
260.895	24.23
261.112	71.34
261.328	7.85
261.544	20.14
261.761	116.39
261.977	77.48
262.193	24.23
262.409	3.75
262.626	77.48
262.842	44.71
263.058	32.43
263.274	59.05
263.49	61.1
263.707	-4.44
263.923	30.38
264.139	61.1
264.355	46.76
264.571	46.76
264.787	104.11
265.004	128.68
265.22	34.47
265.436	-0.34
265.652	73.39
265.868	11.95
266.084	5.8
266.3	-2.39
266.516	11.95
266.732	54.95
266.948	52.91
267.164	79.53
267.38	81.58
267.596	30.38
267.812	79.53
268.028	83.63
268.244	-47.44
268.46	16.04
268.676	38.57
268.892	61.1
269.108	42.67
269.324	22.19
269.54	44.71
269.756	-18.77
269.972	28.33
270.188	40.62
270.403	11.95
270.619	65.19
270.835	-0.34
271.051	48.81
271.267	9.9
271.483	28.33
271.698	79.53
271.914	108.2
272.13	87.72
272.346	79.53
272.562	-2.39
272.777	126.63
272.993	38.57
273.209	34.47
273.425	22.19
273.64	30.38
273.856	69.29
274.072	-4.44
274.287	-4.44
274.503	26.28
274.719	20.14
274.934	-12.63
275.15	-53.59
275.366	69.29
275.581	93.87
275.797	102.06
276.012	71.34
276.228	38.57
276.444	-20.82
276.659	85.67
276.875	52.91
277.09	28.33
277.306	11.95
277.521	54.95
277.737	-4.44
277.952	44.71
278.168	79.53
278.383	83.63
278.599	26.28
278.814	63.15
279.03	77.48
279.245	44.71
279.461	44.71
279.676	102.06
279.892	81.58
280.107	11.95
280.322	40.62
280.538	67.24
280.753	24.23
280.969	71.34
281.184	13.99
281.399	134.82
281.615	63.15
281.83	48.81
282.045	-45.4
282.26	-10.58
282.476	40.62
282.691	44.71
282.906	54.95
283.122	102.06
283.337	-35.16
283.552	77.48
283.767	26.28
283.983	46.76
284.198	11.95
284.413	93.87
284.628	79.53
284.843	69.29
285.058	102.06
285.274	36.52
285.489	36.52
285.704	67.24
285.919	20.14
286.134	40.62
286.349	91.82
286.564	3.75
286.779	104.11
286.995	52.91
287.21	20.14
287.425	126.63
287.64	22.19
287.855	-0.34
288.07	57
288.285	93.87
288.5	52.91
288.715	44.71
288.93	-31.06
289.145	-2.39
289.36	30.38
289.575	79.53
289.79	118.44
290.004	38.57
290.219	69.29
290.434	52.91
290.649	67.24
290.864	89.77
291.079	40.62
291.294	73.39
291.509	28.33
291.724	38.57
291.938	3.75
292.153	-37.2
292.368	36.52
292.583	83.63
292.798	-2.39
293.012	50.86
293.227	11.95
293.442	5.8
293.657	16.04
293.871	36.52
294.086	75.43
294.301	77.48
294.516	69.29
294.73	7.85
294.945	20.14
295.16	32.43
295.374	85.67
295.589	36.52
295.804	65.19
296.018	-53.59
296.233	67.24
296.447	108.2
296.662	24.23
296.877	20.14
297.091	44.71
297.306	48.81
297.52	46.76
297.735	77.48
297.949	28.33
298.164	97.96
298.378	61.1
298.593	71.34
298.807	52.91
299.022	-2.39
299.236	126.63
299.451	102.06
299.665	-0.34
299.88	93.87
300.094	50.86
300.309	122.54
300.523	93.87
300.737	57
300.952	7.85
301.166	61.1
301.381	22.19
301.595	59.05
301.809	57
302.024	5.8
302.238	77.48
302.452	161.45
302.667	34.47
302.881	61.1
303.095	5.8
303.309	112.3
303.524	5.8
303.738	67.24
303.952	-10.58
304.166	118.44
304.381	38.57
304.595	77.48
304.809	93.87
305.023	44.71
305.237	46.76
305.452	59.05
305.666	85.67
305.88	46.76
306.094	24.23
306.308	73.39
306.522	32.43
306.736	3.75
306.95	73.39
307.164	11.95
307.379	40.62
307.593	85.67
307.807	163.5
308.021	42.67
308.235	-0.34
308.449	-0.34
308.663	97.96
308.877	85.67
309.091	38.57
309.305	95.91
309.519	1.71
309.733	143.02
309.947	-49.49
310.161	18.09
310.374	71.34
310.588	65.19
310.802	-4.44
311.016	104.11
311.23	110.25
311.444	57
311.658	-14.68
311.872	69.29
312.085	77.48
312.299	93.87
312.513	77.48
312.727	69.29
312.941	-8.53
313.154	75.43
313.368	77.48
313.582	77.48
313.796	77.48
314.009	22.19
314.223	93.87
314.437	145.06
314.651	40.62
314.864	28.33
315.078	89.77
315.292	110.25
315.505	71.34
315.719	5.8
315.933	124.58
316.146	18.09
316.36	-63.83
316.573	77.48
316.787	-29.01
317.001	32.43
317.214	16.04
317.428	77.48
317.641	-4.44
317.855	-37.2
318.068	46.76
318.282	65.19
318.495	36.52
318.709	110.25
318.922	3.75
319.136	143.02
319.349	20.14
319.563	34.47
319.776	54.95
319.99	34.47
320.203	32.43
320.417	34.47
320.63	122.54
320.843	130.73
321.057	48.81
321.27	-10.58
321.483	46.76
321.697	7.85
321.91	61.1
322.124	3.75
322.337	40.62
322.55	112.3
322.763	85.67
322.977	38.57
323.19	-29.01
323.403	38.57
323.617	26.28
323.83	-0.34
324.043	44.71
324.256	71.34
324.469	42.67
324.683	69.29
324.896	42.67
325.109	5.8
325.322	3.75
325.535	-2.39
325.748	34.47
325.962	52.91
326.175	-10.58
326.388	52.91
326.601	93.87
326.814	-12.63
327.027	87.72
327.24	116.39
327.453	32.43
327.666	28.33
327.879	32.43
328.092	54.95
328.305	61.1
328.518	28.33
328.731	18.09
328.944	28.33
329.157	16.04
329.37	20.14
329.583	87.72
329.796	16.04
330.009	34.47
330.222	13.99
330.435	69.29
330.648	48.81
330.861	65.19
331.073	110.25
331.286	136.87
331.499	-12.63
331.712	81.58
331.925	-67.92
332.138	69.29
332.35	114.34
332.563	61.1
332.776	85.67
332.989	65.19
333.202	-24.92
333.414	112.3
333.627	81.58
333.84	65.19
334.053	13.99
334.265	106.15
334.478	11.95
334.691	36.52
334.903	79.53
335.116	5.8
335.329	-24.92
335.541	81.58
335.754	114.34
335.966	52.91
336.179	38.57
336.392	95.91
336.604	16.04
336.817	95.91
337.029	77.48
337.242	79.53
337.454	87.72
337.667	52.91
337.88	36.52
338.092	75.43
338.305	75.43
338.517	-14.68
338.729	28.33
338.942	81.58
339.154	28.33
339.367	-4.44
339.579	69.29
339.792	69.29
340.004	-2.39
340.217	30.38
340.429	120.49
340.641	-4.44
340.854	77.48
341.066	26.28
341.278	46.76
341.491	100.01
341.703	16.04
341.915	20.14
342.128	52.91
342.34	126.63
342.552	73.39
342.764	42.67
342.977	77.48
343.189	28.33
343.401	20.14
343.613	-41.3
343.826	120.49
344.038	54.95
344.25	11.95
344.462	38.57
344.674	77.48
344.886	42.67
345.099	106.15
345.311	124.58
345.523	110.25
345.735	20.14
345.947	57
346.159	108.2
346.371	57
346.583	48.81
346.795	120.49
347.007	44.71
347.219	54.95
347.431	54.95
347.643	112.3
347.855	28.33
348.067	34.47
348.279	28.33
348.491	81.58
348.703	59.05
348.915	73.39
349.127	87.72
349.339	18.09
349.551	67.24
349.763	40.62
349.975	63.15
350.187	36.52
350.399	46.76
350.61	65.19
350.822	59.05
351.034	42.67
351.246	134.82
351.458	75.43
351.669	52.91
351.881	151.21
352.093	44.71
352.305	44.71
352.517	-20.82
352.728	102.06
352.94	46.76
353.152	52.91
353.363	44.71
353.575	118.44
353.787	44.71
353.999	97.96
354.21	57
354.422	145.06
354.633	85.67
354.845	106.15
355.057	52.91
355.268	91.82
355.48	67.24
355.692	-6.49
355.903	24.23
356.115	85.67
356.326	34.47
356.538	122.54
356.749	36.52
356.961	106.15
357.172	69.29
357.384	38.57
357.595	50.86
357.807	20.14
358.018	24.23
358.23	85.67
358.441	-4.44
358.653	67.24
358.864	26.28
359.075	42.67
359.287	61.1
359.498	73.39
359.709	54.95
359.921	38.57
360.132	32.43
360.344	28.33
360.555	130.73
360.766	38.57
360.977	26.28
361.189	104.11
361.4	120.49
361.611	63.15
361.823	87.72
362.034	165.54
362.245	77.48
362.456	3.75
362.667	67.24
362.879	18.09
363.09	132.78
363.301	20.14
363.512	24.23
363.723	44.71
363.935	48.81
364.146	65.19
364.357	87.72
364.568	44.71
364.779	61.1
364.99	77.48
365.201	61.1
365.412	93.87
365.623	73.39
365.834	65.19
366.045	28.33
366.256	120.49
366.467	36.52
366.678	79.53
366.889	61.1
367.1	75.43
367.311	136.87
367.522	61.1
367.733	79.53
367.944	106.15
368.155	44.71
368.366	140.97
368.577	91.82
368.788	190.12
368.999	59.05
369.209	59.05
369.42	73.39
369.631	71.34
369.842	110.25
370.053	73.39
370.264	85.67
370.474	-29.01
370.685	100.01
370.896	-20.82
371.107	24.23
371.317	85.67
371.528	52.91
371.739	175.78
371.95	44.71
372.16	102.06
372.371	75.43
372.582	63.15
372.792	63.15
373.003	95.91
373.214	30.38
373.424	83.63
373.635	28.33
373.846	79.53
374.056	57
374.267	120.49
374.477	48.81
374.688	61.1
374.898	73.39
375.109	100.01
375.319	11.95
375.53	77.48
375.74	95.91
375.951	44.71
376.161	16.04
376.372	147.11
376.582	71.34
376.793	167.59
377.003	3.75
377.214	44.71
377.424	24.23
377.635	134.82
377.845	61.1
378.055	54.95
378.266	16.04
378.476	52.91
378.686	93.87
378.897	30.38
379.107	77.48
379.317	69.29
379.528	54.95
379.738	77.48
379.948	11.95
380.158	97.96
380.369	54.95
380.579	38.57
380.789	34.47
380.999	36.52
381.21	112.3
381.42	124.58
381.63	69.29
381.84	120.49
382.05	79.53
382.261	61.1
382.471	102.06
382.681	63.15
382.891	175.78
383.101	61.1
383.311	100.01
383.521	61.1
383.731	44.71
383.941	95.91
384.151	44.71
384.361	36.52
384.571	63.15
384.781	77.48
384.991	61.1
385.201	102.06
385.411	100.01
385.621	128.68
385.831	36.52
386.041	175.78
386.251	73.39
386.461	71.34
386.671	20.14
386.881	79.53
387.091	93.87
387.301	91.82
387.511	61.1
387.72	93.87
387.93	112.3
388.14	63.15
388.35	114.34
388.56	118.44
388.769	159.4
388.979	102.06
389.189	91.82
389.399	61.1
389.609	159.4
389.818	69.29
390.028	116.39
390.238	85.67
390.447	48.81
390.657	57
390.867	69.29
391.076	57
391.286	118.44
391.496	104.11
391.705	65.19
391.915	77.48
392.125	97.96
392.334	52.91
392.544	200.36
392.753	46.76
392.963	136.87
393.172	126.63
393.382	40.62
393.591	155.3
393.801	36.52
394.01	122.54
394.22	52.91
394.429	81.58
394.639	89.77
394.848	151.21
395.058	151.21
395.267	108.2
395.477	190.12
395.686	67.24
395.895	153.26
396.105	136.87
396.314	134.82
396.524	143.02
396.733	57
396.942	138.92
397.152	120.49
397.361	104.11
397.57	126.63
397.78	151.21
397.989	77.48
398.198	155.3
398.407	120.49
398.617	136.87
398.826	114.34
399.035	175.78
399.244	57
399.453	118.44
399.663	161.45
399.872	120.49
400.081	106.15
400.29	145.06
400.499	138.92
400.708	188.07
400.917	147.11
401.127	87.72
401.336	63.15
401.545	196.26
401.754	200.36
401.963	159.4
402.172	196.26
402.381	106.15
402.59	102.06
402.799	163.5
403.008	167.59
403.217	126.63
403.426	183.98
403.635	145.06
403.844	153.26
404.053	114.34
404.262	77.48
404.471	323.24
404.68	167.59
404.888	175.78
405.097	200.36
405.306	229.03
405.515	192.17
405.724	188.07
405.933	110.25
406.142	257.7
406.35	163.5
406.559	192.17
406.768	153.26
406.977	265.89
407.185	134.82
407.394	261.8
407.603	265.89
407.812	233.13
408.02	323.24
408.229	257.7
408.438	358.05
408.646	229.03
408.855	274.09
409.064	327.33
409.272	304.81
409.481	339.62
409.69	331.43
409.898	257.7
410.107	403.11
410.315	308.9
410.524	439.97
410.733	407.2
410.941	466.6
411.15	474.79
411.358	474.79
411.567	489.12
411.775	495.27
411.984	546.47
412.192	501.41
412.401	540.32
412.609	650.91
412.818	562.85
413.026	521.89
413.234	525.99
413.443	620.19
413.651	652.96
413.86	581.28
414.068	745.12
414.276	765.6
414.485	728.74
414.693	849.57
414.901	835.23
415.11	847.52
415.318	868
415.526	853.66
415.734	908.96
415.943	992.92
416.151	947.87
416.359	1035.93
416.567	997.02
416.776	1128.09
416.984	1101.47
417.192	1175.19
417.4	1146.52
417.608	1191.58
417.817	1169.05
418.025	1371.8
418.233	1332.89
418.441	1330.84
418.649	1349.27
418.857	1545.88
419.065	1564.31
419.273	1560.21
419.481	1642.13
419.689	1695.38
419.897	1773.2
420.105	1822.35
420.313	1828.49
420.521	1869.45
420.729	1965.71
420.937	1867.41
421.145	2135.69
421.353	2092.68
421.561	2231.94
421.769	2395.78
421.977	2471.56
422.185	2354.82
422.393	2547.33
422.601	2700.93
422.809	2674.31
423.017	2676.35
423.224	2952.83
423.432	2993.79
423.64	2786.94
423.848	3161.72
424.056	3061.37
424.263	3337.85
424.471	3339.9
424.679	3356.28
424.887	3522.16
425.094	3716.72
425.302	3741.3
425.51	3968.62
425.718	3921.52
425.925	3995.25
426.133	4083.31
426.341	4367.98
426.548	4628.07
426.756	4654.69
426.964	4640.36
427.171	4888.16
427.379	5037.66
427.586	4984.41
427.794	5437.02
428.001	5359.19
428.209	5795.41
428.417	5705.3
428.624	6151.76
428.832	6118.99
429.039	5887.57
429.247	6088.27
429.454	6557.25
429.662	6950.46
429.869	6526.54
430.076	7147.07
430.284	6983.23
430.491	7157.31
430.699	7552.57
430.906	7562.81
431.114	7644.73
431.321	8015.41
431.528	8140.33
431.736	8547.88
431.943	9172.51
432.15	8801.83
432.358	8691.24
432.565	9168.41
432.772	9117.22
432.979	9637.4
433.187	9936.4
433.394	9967.12
433.601	10739.21
433.808	10661.38
434.016	10653.19
434.223	11032.07
434.43	11746.81
434.637	11462.14
434.844	12262.9
435.052	12383.73
435.259	12365.29
435.466	12342.77
435.673	12627.43
435.88	13104.61
436.087	13811.16
436.294	13798.87
436.501	13340.13
436.708	13897.17
436.915	14122.45
437.122	15072.71
437.329	14982.6
437.537	15527.36
437.743	15674.81
437.95	15482.3
438.157	16209.33
438.364	16821.67
438.571	16780.71
438.778	16846.25
438.985	18533.78
439.192	17782.17
439.399	18365.84
439.606	17626.53
439.813	18945.42
440.02	20086.14
440.227	19336.58
440.433	19551.62
440.64	20286.84
440.847	19914.11
441.054	20456.82
441.261	21843.29
441.467	21392.74
441.674	21855.58
441.881	22711.63
442.088	22504.79
442.294	22424.92
442.501	23166.28
442.708	23323.97
442.914	24079.68
443.121	25212.2
443.328	24921.39
443.534	26260.76
443.741	25435.43
443.948	25195.82
444.154	27116.81
444.361	26873.1
444.568	27266.31
444.774	27006.22
444.981	27753.73
445.187	28476.66
445.394	29631.72
445.6	29213.93
445.807	32017.6
446.013	30627.03
446.22	30932.18
446.426	32238.78
446.633	32531.64
446.839	33846.44
447.046	31972.55
447.252	33842.34
447.459	33770.66
447.665	33580.2
447.871	34974.87
448.078	36813.94
448.284	34944.15
448.491	35996.81
448.697	37323.89
448.903	38143.08
449.11	38204.52
449.316	37405.81
449.522	38063.21
449.728	39226.45
449.935	39183.44
450.141	39701.58
450.347	39896.14
450.553	39216.21
450.76	39803.98
450.966	40711.23
451.172	40162.37
451.378	41407.54
451.584	40559.68
451.791	41751.6
451.997	41534.51
452.203	41774.13
452.409	41776.17
452.615	41704.49
452.821	40477.76
453.027	39451.73
453.233	41843.76
453.44	40182.85
453.646	40461.38
453.852	40840.25
454.058	41552.94
454.264	40461.38
454.47	41255.99
454.676	40256.58
454.882	41616.43
455.088	37909.61
455.294	38782.04
455.5	38913.11
455.705	39629.9
455.911	38110.31
456.117	37315.7
456.323	36740.22
456.529	35226.77
456.735	36555.9
456.941	35601.55
457.147	35001.49
457.352	33778.86
457.558	33721.51
457.764	33705.13
457.97	32869.56
458.176	32535.74
458.381	32142.53
458.587	30893.27
458.793	31020.24
458.999	29267.18
459.204	31341.77
459.41	30188.77
459.616	28495.1
459.821	28384.51
460.027	28460.28
460.233	27835.65
460.438	26561.81
460.644	26905.87
460.85	25175.34
461.055	25175.34
461.261	25081.13
461.466	23176.52
461.672	22721.87
461.878	24218.94
462.083	22652.24
462.289	22084.95
462.494	21964.12
462.7	21247.33
462.905	20587.89
463.111	21089.64
463.316	21075.31
463.522	20878.7
463.727	20831.6
463.932	20772.21
464.138	20407.67
464.343	20753.77
464.549	20000.12
464.754	20725.1
464.959	20268.41
465.165	20346.23
465.37	19367.3
465.575	19137.93
465.781	19914.11
465.986	19766.65
466.191	19182.98
466.397	18877.83
466.602	17935.77
466.807	18564.5
467.012	18662.8
467.218	18797.96
467.423	18075.03
