Data from USB4F104151__221__14-21-21-488.txt Node

Date: Thu Mar 13 14:21:21 EDT 2025
User: louis
Spectrometer: USB4F10415
Trigger mode: 4
Integration Time (sec): 2.000000E-2
Scans to average: 1
Electric dark correction enabled: true
Nonlinearity correction enabled: false
Boxcar width: 0
XAxis mode: Wavelengths
Number of Pixels in Spectrum: 3648
>>>>>Begin Spectral Data<<<<<
178.204	-138.41
178.424	-138.41
178.644	-138.41
178.864	-167.08
179.084	-101.55
179.304	-70.83
179.524	-44.2
179.744	-9.39
179.964	2.9
180.184	11.09
180.404	19.29
180.624	45.91
180.844	9.05
181.064	9.05
181.283	41.81
181.503	-3.24
181.723	-11.43
181.943	-89.26
182.163	27.48
182.383	78.68
182.602	27.48
182.822	39.76
183.042	27.48
183.262	-19.63
183.482	-19.63
183.701	35.67
183.921	-13.48
184.141	62.29
184.361	90.96
184.58	41.81
184.8	23.38
185.02	-50.35
185.239	58.2
185.459	33.62
185.679	0.85
185.898	-23.72
186.118	74.58
186.338	93.01
186.557	37.72
186.777	-31.91
186.997	11.09
187.216	-21.67
187.436	41.81
187.655	62.29
187.875	90.96
188.095	-46.25
188.314	-13.48
188.534	33.62
188.753	33.62
188.973	4.95
189.192	72.53
189.412	-13.48
189.631	21.33
189.851	-58.54
190.07	-3.24
190.29	-36.01
190.509	-76.97
190.729	45.91
190.948	50
191.168	115.54
191.387	29.52
191.607	-40.11
191.826	74.58
192.045	31.57
192.265	82.77
192.484	76.63
192.704	13.14
192.923	-15.53
193.142	88.92
193.362	35.67
193.581	101.2
193.8	31.57
194.02	76.63
194.239	31.57
194.458	-9.39
194.678	7
194.897	27.48
195.116	9.05
195.335	52.05
195.555	93.01
195.774	80.72
195.993	-11.43
196.212	70.48
196.432	-107.69
196.651	25.43
196.87	21.33
197.089	74.58
197.308	117.59
197.528	-29.87
197.747	-7.34
197.966	58.2
198.185	109.4
198.404	2.9
198.623	72.53
198.842	105.3
199.062	9.05
199.281	107.35
199.5	0.85
199.719	74.58
199.938	62.29
200.157	23.38
200.376	58.2
200.595	66.39
200.814	23.38
201.033	0.85
201.252	11.09
201.471	90.96
201.69	-29.87
201.909	-40.11
202.128	74.58
202.347	99.16
202.566	9.05
202.785	25.43
203.004	39.76
203.223	95.06
203.442	76.63
203.661	25.43
203.879	-1.19
204.098	-7.34
204.317	68.44
204.536	-42.15
204.755	43.86
204.974	-3.24
205.193	54.1
205.411	115.54
205.63	-23.72
205.849	-23.72
206.068	33.62
206.287	60.24
206.505	-3.24
206.724	68.44
206.943	41.81
207.162	27.48
207.381	-13.48
207.599	41.81
207.818	2.9
208.037	-19.63
208.255	25.43
208.474	11.09
208.693	-3.24
208.911	7
209.13	35.67
209.349	58.2
209.567	41.81
209.786	21.33
210.005	-38.06
210.223	23.38
210.442	-48.3
210.661	-3.24
210.879	11.09
211.098	50
211.316	-38.06
211.535	29.52
211.753	93.01
211.972	35.67
212.191	70.48
212.409	21.33
212.628	47.96
212.846	43.86
213.065	9.05
213.283	9.05
213.502	25.43
213.72	9.05
213.938	17.24
214.157	62.29
214.375	109.4
214.594	21.33
214.812	-27.82
215.031	41.81
215.249	11.09
215.467	-23.72
215.686	31.57
215.904	23.38
216.122	21.33
216.341	115.54
216.559	31.57
216.778	74.58
216.996	9.05
217.214	17.24
217.432	21.33
217.651	76.63
217.869	13.14
218.087	9.05
218.306	68.44
218.524	60.24
218.742	66.39
218.96	13.14
219.179	58.2
219.397	29.52
219.615	101.2
219.833	33.62
220.051	-13.48
220.27	54.1
220.488	50
220.706	-3.24
220.924	-15.53
221.142	-15.53
221.36	33.62
221.578	25.43
221.796	11.09
222.015	9.05
222.233	82.77
222.451	72.53
222.669	37.72
222.887	50
223.105	35.67
223.323	17.24
223.541	-33.96
223.759	82.77
223.977	19.29
224.195	103.25
224.413	66.39
224.631	95.06
224.849	17.24
225.067	27.48
225.285	-15.53
225.503	41.81
225.721	62.29
225.939	-38.06
226.157	11.09
226.375	58.2
226.592	66.39
226.81	-27.82
227.028	47.96
227.246	80.72
227.464	76.63
227.682	86.87
227.9	33.62
228.117	56.15
228.335	17.24
228.553	-13.48
228.771	50
228.989	37.72
229.206	115.54
229.424	78.68
229.642	-36.01
229.86	-11.43
230.077	25.43
230.295	64.34
230.513	23.38
230.731	33.62
230.948	74.58
231.166	107.35
231.384	45.91
231.601	29.52
231.819	164.69
232.037	21.33
232.254	25.43
232.472	41.81
232.689	11.09
232.907	52.05
233.125	4.95
233.342	25.43
233.56	66.39
233.777	21.33
233.995	-11.43
234.213	84.82
234.43	-31.91
234.648	52.05
234.865	41.81
235.083	33.62
235.3	21.33
235.518	9.05
235.735	68.44
235.953	39.76
236.17	7
236.388	0.85
236.605	9.05
236.822	4.95
237.04	56.15
237.257	13.14
237.475	82.77
237.692	-9.39
237.909	140.12
238.127	21.33
238.344	66.39
238.562	21.33
238.779	-36.01
238.996	-44.2
239.214	9.05
239.431	25.43
239.648	-11.43
239.865	-27.82
240.083	41.81
240.3	21.33
240.517	107.35
240.735	9.05
240.952	35.67
241.169	29.52
241.386	45.91
241.603	43.86
241.821	19.29
242.038	54.1
242.255	33.62
242.472	-7.34
242.689	52.05
242.907	21.33
243.124	54.1
243.341	19.29
243.558	-5.29
243.775	37.72
243.992	-7.34
244.209	29.52
244.426	72.53
244.643	86.87
244.86	-19.63
245.078	9.05
245.295	35.67
245.512	-29.87
245.729	-1.19
245.946	52.05
246.163	19.29
246.38	131.92
246.597	-64.68
246.814	64.34
247.031	70.48
247.248	52.05
247.464	23.38
247.681	41.81
247.898	52.05
248.115	133.97
248.332	-29.87
248.549	80.72
248.766	127.83
248.983	82.77
249.2	33.62
249.417	41.81
249.633	99.16
249.85	99.16
250.067	72.53
250.284	4.95
250.501	25.43
250.717	41.81
250.934	54.1
251.151	31.57
251.368	25.43
251.585	39.76
251.801	4.95
252.018	27.48
252.235	31.57
252.451	-15.53
252.668	7
252.885	90.96
253.102	17.24
253.318	27.48
253.535	50
253.752	74.58
253.968	64.34
254.185	-17.58
254.401	33.62
254.618	23.38
254.835	66.39
255.051	27.48
255.268	9.05
255.484	19.29
255.701	-31.91
255.917	45.91
256.134	43.86
256.351	58.2
256.567	-46.25
256.784	66.39
257	43.86
257.217	37.72
257.433	78.68
257.65	-60.59
257.866	37.72
258.082	-3.24
258.299	43.86
258.515	-3.24
258.732	21.33
258.948	62.29
259.165	80.72
259.381	-1.19
259.597	23.38
259.814	23.38
260.03	25.43
260.246	52.05
260.463	-3.24
260.679	99.16
260.895	50
261.112	74.58
261.328	52.05
261.544	31.57
261.761	68.44
261.977	35.67
262.193	2.9
262.409	56.15
262.626	50
262.842	45.91
263.058	45.91
263.274	78.68
263.49	23.38
263.707	66.39
263.923	58.2
264.139	9.05
264.355	50
264.571	70.48
264.787	47.96
265.004	95.06
265.22	9.05
265.436	-11.43
265.652	29.52
265.868	52.05
266.084	-23.72
266.3	109.4
266.516	19.29
266.732	47.96
266.948	-21.67
267.164	50
267.38	78.68
267.596	113.49
267.812	35.67
268.028	-25.77
268.244	33.62
268.46	41.81
268.676	39.76
268.892	41.81
269.108	82.77
269.324	47.96
269.54	-52.39
269.756	52.05
269.972	37.72
270.188	43.86
270.403	-7.34
270.619	45.91
270.835	123.73
271.051	-19.63
271.267	-33.96
271.483	74.58
271.698	62.29
271.914	23.38
272.13	-13.48
272.346	19.29
272.562	29.52
272.777	4.95
272.993	82.77
273.209	21.33
273.425	50
273.64	-15.53
273.856	19.29
274.072	33.62
274.287	33.62
274.503	37.72
274.719	-5.29
274.934	54.1
275.15	66.39
275.366	70.48
275.581	-3.24
275.797	70.48
276.012	0.85
276.228	115.54
276.444	66.39
276.659	27.48
276.875	-31.91
277.09	60.24
277.306	33.62
277.521	41.81
277.737	23.38
277.952	82.77
278.168	50
278.383	93.01
278.599	45.91
278.814	142.16
279.03	25.43
279.245	9.05
279.461	33.62
279.676	60.24
279.892	29.52
280.107	0.85
280.322	-56.49
280.538	27.48
280.753	39.76
280.969	58.2
281.184	-54.44
281.399	82.77
281.615	9.05
281.83	82.77
282.045	-7.34
282.26	29.52
282.476	58.2
282.691	74.58
282.906	13.14
283.122	156.5
283.337	33.62
283.552	19.29
283.767	-40.11
283.983	93.01
284.198	17.24
284.413	25.43
284.628	-21.67
284.843	33.62
285.058	54.1
285.274	17.24
285.489	-48.3
285.704	60.24
285.919	62.29
286.134	17.24
286.349	58.2
286.564	107.35
286.779	82.77
286.995	60.24
287.21	2.9
287.425	41.81
287.64	0.85
287.855	45.91
288.07	21.33
288.285	68.44
288.5	43.86
288.715	9.05
288.93	11.09
289.145	58.2
289.36	19.29
289.575	19.29
289.79	45.91
290.004	25.43
290.219	140.12
290.434	50
290.649	64.34
290.864	33.62
291.079	29.52
291.294	41.81
291.509	-1.19
291.724	25.43
291.938	17.24
292.153	66.39
292.368	41.81
292.583	68.44
292.798	109.4
293.012	-17.58
293.227	-52.39
293.442	70.48
293.657	41.81
293.871	99.16
294.086	50
294.301	-7.34
294.516	80.72
294.73	-5.29
294.945	11.09
295.16	-15.53
295.374	-13.48
295.589	45.91
295.804	2.9
296.018	13.14
296.233	19.29
296.447	-1.19
296.662	58.2
296.877	-3.24
297.091	-15.53
297.306	70.48
297.52	11.09
297.735	-5.29
297.949	86.87
298.164	78.68
298.378	43.86
298.593	-17.58
298.807	99.16
299.022	27.48
299.236	66.39
299.451	33.62
299.665	41.81
299.88	43.86
300.094	76.63
300.309	9.05
300.523	47.96
300.737	33.62
300.952	90.96
301.166	76.63
301.381	76.63
301.595	27.48
301.809	31.57
302.024	168.79
302.238	-29.87
302.452	37.72
302.667	4.95
302.881	43.86
303.095	-33.96
303.309	82.77
303.524	-40.11
303.738	70.48
303.952	7
304.166	66.39
304.381	-97.45
304.595	99.16
304.809	50
305.023	7
305.237	70.48
305.452	-31.91
305.666	-21.67
305.88	-21.67
306.094	74.58
306.308	11.09
306.522	9.05
306.736	-40.11
306.95	107.35
307.164	25.43
307.379	-5.29
307.593	33.62
307.807	68.44
308.021	52.05
308.235	50
308.449	66.39
308.663	43.86
308.877	78.68
309.091	60.24
309.305	-7.34
309.519	-33.96
309.733	4.95
309.947	54.1
310.161	25.43
310.374	37.72
310.588	99.16
310.802	41.81
311.016	17.24
311.23	99.16
311.444	25.43
311.658	80.72
311.872	9.05
312.085	109.4
312.299	74.58
312.513	78.68
312.727	-21.67
312.941	11.09
313.154	52.05
313.368	7
313.582	60.24
313.796	37.72
314.009	0.85
314.223	80.72
314.437	29.52
314.651	136.02
314.864	-5.29
315.078	-38.06
315.292	33.62
315.505	62.29
315.719	4.95
315.933	105.3
316.146	74.58
316.36	37.72
316.573	150.36
316.787	13.14
317.001	115.54
317.214	-31.91
317.428	-19.63
317.641	37.72
317.855	25.43
318.068	33.62
318.282	45.91
318.495	86.87
318.709	74.58
318.922	4.95
319.136	68.44
319.349	125.78
319.563	66.39
319.776	17.24
319.99	-3.24
320.203	41.81
320.417	58.2
320.63	33.62
320.843	82.77
321.057	45.91
321.27	-48.3
321.483	88.92
321.697	97.11
321.91	43.86
322.124	31.57
322.337	11.09
322.55	68.44
322.763	99.16
322.977	-13.48
323.19	82.77
323.403	54.1
323.617	27.48
323.83	101.2
324.043	2.9
324.256	54.1
324.469	50
324.683	160.59
324.896	35.67
325.109	86.87
325.322	31.57
325.535	54.1
325.748	60.24
325.962	25.43
326.175	60.24
326.388	66.39
326.601	-13.48
326.814	52.05
327.027	123.73
327.24	72.53
327.453	25.43
327.666	13.14
327.879	56.15
328.092	86.87
328.305	95.06
328.518	74.58
328.731	13.14
328.944	68.44
329.157	56.15
329.37	107.35
329.583	90.96
329.796	88.92
330.009	47.96
330.222	23.38
330.435	-29.87
330.648	-11.43
330.861	21.33
331.073	62.29
331.286	52.05
331.499	27.48
331.712	47.96
331.925	-15.53
332.138	33.62
332.35	62.29
332.563	-5.29
332.776	43.86
332.989	41.81
333.202	84.82
333.414	90.96
333.627	103.25
333.84	80.72
334.053	127.83
334.265	21.33
334.478	33.62
334.691	7
334.903	107.35
335.116	17.24
335.329	90.96
335.541	50
335.754	21.33
335.966	23.38
336.179	-7.34
336.392	-21.67
336.604	11.09
336.817	-7.34
337.029	80.72
337.242	50
337.454	4.95
337.667	17.24
337.88	52.05
338.092	-19.63
338.305	43.86
338.517	0.85
338.729	50
338.942	41.81
339.154	-13.48
339.367	15.19
339.579	101.2
339.792	37.72
340.004	41.81
340.217	123.73
340.429	109.4
340.641	47.96
340.854	13.14
341.066	115.54
341.278	74.58
341.491	43.86
341.703	68.44
341.915	-21.67
342.128	95.06
342.34	25.43
342.552	64.34
342.764	64.34
342.977	19.29
343.189	-31.91
343.401	103.25
343.613	52.05
343.826	82.77
344.038	-31.91
344.25	78.68
344.462	58.2
344.674	21.33
344.886	-48.3
345.099	11.09
345.311	68.44
345.523	29.52
345.735	60.24
345.947	101.2
346.159	52.05
346.371	2.9
346.583	74.58
346.795	107.35
347.007	-11.43
347.219	-5.29
347.431	86.87
347.643	138.07
347.855	25.43
348.067	78.68
348.279	19.29
348.491	101.2
348.703	99.16
348.915	-29.87
349.127	119.64
349.339	90.96
349.551	-7.34
349.763	90.96
349.975	-5.29
350.187	115.54
350.399	9.05
350.61	50
350.822	11.09
351.034	62.29
351.246	41.81
351.458	37.72
351.669	11.09
351.881	68.44
352.093	119.64
352.305	45.91
352.517	21.33
352.728	103.25
352.94	7
353.152	127.83
353.363	29.52
353.575	99.16
353.787	33.62
353.999	15.19
354.21	156.5
354.422	70.48
354.633	21.33
354.845	23.38
355.057	62.29
355.268	90.96
355.48	74.58
355.692	54.1
355.903	37.72
356.115	23.38
356.326	62.29
356.538	66.39
356.749	43.86
356.961	74.58
357.172	33.62
357.384	58.2
357.595	84.82
357.807	41.81
358.018	13.14
358.23	78.68
358.441	156.5
358.653	54.1
358.864	76.63
359.075	86.87
359.287	93.01
359.498	156.5
359.709	43.86
359.921	-52.39
360.132	97.11
360.344	27.48
360.555	140.12
360.766	90.96
360.977	0.85
361.189	50
361.4	54.1
361.611	54.1
361.823	21.33
362.034	33.62
362.245	52.05
362.456	74.58
362.667	105.3
362.879	37.72
363.09	133.97
363.301	41.81
363.512	19.29
363.723	43.86
363.935	52.05
364.146	74.58
364.357	62.29
364.568	37.72
364.779	-5.29
364.99	82.77
365.201	66.39
365.412	103.25
365.623	74.58
365.834	41.81
366.045	54.1
366.256	45.91
366.467	23.38
366.678	74.58
366.889	50
367.1	127.83
367.311	95.06
367.522	11.09
367.733	74.58
367.944	70.48
368.155	90.96
368.366	84.82
368.577	93.01
368.788	107.35
368.999	35.67
369.209	66.39
369.42	142.16
369.631	115.54
369.842	52.05
370.053	97.11
370.264	35.67
370.474	45.91
370.685	68.44
370.896	43.86
371.107	74.58
371.317	62.29
371.528	-3.24
371.739	127.83
371.95	50
372.16	68.44
372.371	58.2
372.582	97.11
372.792	58.2
373.003	41.81
373.214	-7.34
373.424	117.59
373.635	23.38
373.846	84.82
374.056	21.33
374.267	74.58
374.477	13.14
374.688	39.76
374.898	15.19
375.109	74.58
375.319	-3.24
375.53	37.72
375.74	60.24
375.951	-40.11
376.161	111.44
376.372	123.73
376.582	62.29
376.793	21.33
377.003	41.81
377.214	66.39
377.424	37.72
377.635	117.59
377.845	2.9
378.055	127.83
378.266	58.2
378.476	74.58
378.686	35.67
378.897	78.68
379.107	82.77
379.317	39.76
379.528	27.48
379.738	54.1
379.948	52.05
380.158	99.16
380.369	107.35
380.579	66.39
380.789	-9.39
380.999	25.43
381.21	74.58
381.42	146.26
381.63	17.24
381.84	93.01
382.05	101.2
382.261	41.81
382.471	66.39
382.681	66.39
382.891	45.91
383.101	17.24
383.311	27.48
383.521	37.72
383.731	115.54
383.941	123.73
384.151	113.49
384.361	60.24
384.571	43.86
384.781	93.01
384.991	72.53
385.201	95.06
385.411	17.24
385.621	9.05
385.831	-5.29
386.041	93.01
386.251	21.33
386.461	11.09
386.671	74.58
386.881	60.24
387.091	82.77
387.301	86.87
387.511	80.72
387.72	189.27
387.93	19.29
388.14	76.63
388.35	93.01
388.56	150.36
388.769	39.76
388.979	33.62
389.189	74.58
389.399	84.82
389.609	86.87
389.818	35.67
390.028	37.72
390.238	88.92
390.447	74.58
390.657	47.96
390.867	142.16
391.076	-13.48
391.286	21.33
391.496	99.16
391.705	68.44
391.915	193.36
392.125	25.43
392.334	50
392.544	99.16
392.753	41.81
392.963	60.24
393.172	86.87
393.382	58.2
393.591	152.4
393.801	50
394.01	111.44
394.22	125.78
394.429	74.58
394.639	115.54
394.848	93.01
395.058	43.86
395.267	99.16
395.477	35.67
395.686	129.88
395.895	144.21
396.105	150.36
396.314	172.88
396.524	101.2
396.733	80.72
396.942	127.83
397.152	123.73
397.361	121.68
397.57	109.4
397.78	107.35
397.989	99.16
398.198	174.93
398.407	117.59
398.617	131.92
398.826	117.59
399.035	64.34
399.244	183.12
399.453	121.68
399.663	33.62
399.872	160.59
400.081	90.96
400.29	174.93
400.499	95.06
400.708	164.69
400.917	191.31
401.127	105.3
401.336	115.54
401.545	140.12
401.754	133.97
401.963	113.49
402.172	93.01
402.381	123.73
402.59	99.16
402.799	158.55
403.008	254.8
403.217	179.03
403.426	150.36
403.635	127.83
403.844	113.49
404.053	99.16
404.262	156.5
404.471	201.55
404.68	164.69
404.888	150.36
405.097	273.23
405.306	195.41
405.515	158.55
405.724	172.88
405.933	211.79
406.142	287.57
406.35	185.17
406.559	226.13
406.768	232.27
406.977	320.34
407.185	222.03
407.394	256.85
407.603	230.23
407.812	287.57
408.02	254.8
408.229	246.61
408.438	275.28
408.646	351.06
408.855	287.57
409.064	295.76
409.272	289.62
409.481	328.53
409.69	410.45
409.898	312.14
410.107	371.54
410.315	394.06
410.524	406.35
410.733	416.59
410.941	424.78
411.15	418.64
411.358	506.7
411.567	404.3
411.775	430.93
411.984	451.41
412.192	572.24
412.401	533.33
412.609	551.76
412.818	566.09
413.026	629.58
413.234	648.01
413.443	518.99
413.651	648.01
413.86	662.35
414.068	803.66
414.276	795.47
414.485	729.93
414.693	752.46
414.901	873.29
415.11	838.47
415.318	822.09
415.526	885.58
415.734	887.62
415.943	942.92
416.151	1131.33
416.359	1002.31
416.567	1041.22
416.776	1102.66
416.984	1057.61
417.192	1155.91
417.4	1256.26
417.608	1110.85
417.817	1184.58
418.025	1272.64
418.233	1385.28
418.441	1377.09
418.649	1512.25
418.857	1397.57
419.065	1536.83
419.273	1485.63
419.481	1651.52
419.689	1672
419.897	1780.54
420.105	1837.88
420.313	1977.14
420.521	1966.9
420.729	1997.62
420.937	1971
421.145	2163.51
421.353	2175.8
421.561	2167.6
421.769	2401.07
421.977	2392.88
422.185	2376.5
422.393	2566.96
422.601	2712.36
422.809	2749.23
423.017	2818.86
423.224	2925.35
423.432	3042.09
423.64	2962.22
423.848	3230.5
424.056	3109.67
424.263	3429.15
424.471	3261.22
424.679	3470.11
424.887	3531.55
425.094	3879.71
425.302	3787.55
425.51	3908.38
425.718	4072.22
425.925	4014.87
426.133	4203.29
426.341	4373.27
426.548	4641.55
426.756	4768.52
426.964	4807.44
427.171	5038.86
427.379	5163.78
427.586	5235.46
427.794	5233.41
428.001	5546.75
428.209	5757.69
428.417	5729.02
428.624	5999.35
428.832	6095.61
429.039	6218.49
429.247	6136.57
429.454	6816.49
429.662	7146.22
429.869	6623.98
430.076	7101.16
430.284	6959.85
430.491	7135.98
430.699	7633.63
430.906	7701.22
431.114	7789.28
431.321	8016.6
431.528	8180.44
431.736	8790.74
431.943	9061.07
432.15	8942.28
432.358	9169.61
432.565	9392.84
432.772	9323.21
432.979	9933.5
433.187	10134.2
433.394	10052.28
433.601	10867.38
433.808	10920.62
434.016	10511.03
434.223	11295.4
434.43	11768.48
434.637	11528.87
434.844	12583.57
435.052	12673.68
435.259	12794.51
435.466	12694.16
435.673	12329.63
435.88	13517.45
436.087	14230.14
436.294	14148.22
436.501	13716.1
436.708	13968
436.915	14705.27
437.122	15024.75
437.329	15104.62
437.537	15749.73
437.743	15723.11
437.95	15792.74
438.157	16519.77
438.364	17052.24
438.571	17154.64
438.778	17224.27
438.985	18750.01
439.192	17695.3
439.399	18432.57
439.606	17916.48
439.813	18895.41
440.02	20218.4
440.227	19620.39
440.433	19532.33
440.64	20632.09
440.847	20388.38
441.054	20535.84
441.261	22168.07
441.467	21613.07
441.674	22174.21
441.881	22847.99
442.088	23167.48
442.294	22536.7
442.501	23267.83
442.708	23841.26
442.914	24875.48
443.121	25487.82
443.328	24783.32
443.534	26704.32
443.741	25747.92
443.948	25481.68
444.154	27249.08
444.361	27380.15
444.568	27777.45
444.774	27535.79
444.981	28072.36
445.187	28438.95
445.394	29860.24
445.6	29325.72
445.807	32141.67
446.013	30904.7
446.22	31525.24
446.426	32594.28
446.633	32893.28
446.839	33841.49
447.046	32549.22
447.252	34494.79
447.459	34414.92
447.665	34036.05
447.871	35682.61
448.078	36591.91
448.284	35578.17
448.491	36761.89
448.697	37835.03
448.903	38936.84
449.11	38277.39
449.316	38123.79
449.522	38568.2
449.728	39420.16
449.935	39950.58
450.141	39874.8
450.347	40958.18
450.553	39710.97
450.76	40007.92
450.966	41328.86
451.172	40986.85
451.378	42010.84
451.584	41027.81
451.791	42066.13
451.997	42029.27
452.203	42209.49
452.409	42459.34
452.615	42490.06
452.821	40909.03
453.027	40528.11
453.233	42705.1
453.44	41191.65
453.646	41574.62
453.852	41289.95
454.058	42576.08
454.264	40804.58
454.47	42358.99
454.676	40794.34
454.882	41947.35
455.088	38668.55
455.294	39186.69
455.5	39753.97
455.705	40196.34
455.911	38568.2
456.117	37771.54
456.323	37081.38
456.529	35518.78
456.735	36833.57
456.941	36092.21
457.147	35230.01
457.352	34261.32
457.558	33915.22
457.764	34019.66
457.97	33808.72
458.176	32772.45
458.381	33012.06
458.587	31166.84
458.793	31050.11
458.999	29581.71
459.204	31687.03
459.41	30716.29
459.616	28987.8
459.821	28854.69
460.027	28705.18
460.233	28375.46
460.438	27066.81
460.644	27193.78
460.85	25942.47
461.055	25469.39
461.261	25543.12
461.466	23515.63
461.672	22909.43
461.878	24529.38
462.083	22977.01
462.289	22503.93
462.494	22272.51
462.7	21242.39
462.905	20705.82
463.111	21590.54
463.316	21383.7
463.522	21119.51
463.727	21242.39
463.932	21103.12
464.138	20902.42
464.343	21060.12
464.549	20636.19
464.754	20896.28
464.959	20894.23
465.165	20515.36
465.37	19661.35
465.575	19161.65
465.781	19980.84
465.986	19905.06
466.191	19386.93
466.397	18979.38
466.602	18008.64
466.807	18936.37
467.012	18983.48
467.218	18766.39
467.423	18364.99
467.628	18756.15
467.833	19337.77
468.038	18508.35
