Data from USB4F104151__103__14-18-07-717.txt Node

Date: Thu Mar 13 14:18:07 EDT 2025
User: louis
Spectrometer: USB4F10415
Trigger mode: 4
Integration Time (sec): 2.000000E-2
Scans to average: 1
Electric dark correction enabled: true
Nonlinearity correction enabled: false
Boxcar width: 0
XAxis mode: Wavelengths
Number of Pixels in Spectrum: 3648
>>>>>Begin Spectral Data<<<<<
178.204	-133.12
178.424	-133.12
178.644	-133.12
178.864	-77.82
179.084	-51.2
179.304	20.48
179.524	10.24
179.744	45.06
179.964	0
180.184	-2.05
180.404	-65.54
180.624	34.82
180.844	-110.59
181.064	34.82
181.283	-4.1
181.503	-2.05
181.723	38.91
181.943	34.82
182.163	112.64
182.383	-8.19
182.602	73.73
182.822	69.63
183.042	118.78
183.262	-45.06
183.482	38.91
183.701	28.67
183.921	53.25
184.141	-36.86
184.361	63.49
184.58	71.68
184.8	18.43
185.02	32.77
185.239	135.17
185.459	-12.29
185.679	38.91
185.898	-20.48
186.118	86.01
186.338	57.34
186.557	34.82
186.777	-2.05
186.997	12.29
187.216	24.58
187.436	110.59
187.655	14.34
187.875	53.25
188.095	-2.05
188.314	45.06
188.534	12.29
188.753	8.19
188.973	30.72
189.192	36.86
189.412	28.67
189.631	53.25
189.851	77.82
190.07	53.25
190.29	8.19
190.509	65.53
190.729	-38.91
190.948	92.16
191.168	65.53
191.387	28.67
191.607	40.96
191.826	71.68
192.045	-2.05
192.265	20.48
192.484	28.67
192.704	32.77
192.923	-43.01
193.142	106.49
193.362	43.01
193.581	94.21
193.8	49.15
194.02	126.97
194.239	112.64
194.458	12.29
194.678	32.77
194.897	18.43
195.116	22.53
195.335	-6.14
195.555	40.96
195.774	45.06
195.993	65.53
196.212	53.25
196.432	40.96
196.651	-22.53
196.87	28.67
197.089	65.53
197.308	83.97
197.528	24.58
197.747	28.67
197.966	102.4
198.185	83.97
198.404	69.63
198.623	73.73
198.842	38.91
199.062	104.45
199.281	96.25
199.5	40.96
199.719	63.49
199.938	45.06
200.157	79.87
200.376	38.91
200.595	108.54
200.814	86.01
201.033	28.67
201.252	-10.24
201.471	63.49
201.69	18.43
201.909	73.73
202.128	49.15
202.347	40.96
202.566	106.49
202.785	-20.48
203.004	4.1
203.223	108.54
203.442	53.25
203.661	24.58
203.879	30.72
204.098	-8.19
204.317	2.05
204.536	71.68
204.755	102.4
204.974	57.34
205.193	135.17
205.411	40.96
205.63	28.67
205.849	18.43
206.068	20.48
206.287	126.97
206.505	73.73
206.724	0
206.943	59.39
207.162	28.67
207.381	-12.29
207.599	-18.43
207.818	36.86
208.037	63.49
208.255	49.15
208.474	53.25
208.693	-14.34
208.911	90.11
209.13	79.87
209.349	30.72
209.567	65.53
209.786	49.15
210.005	4.1
210.223	18.43
210.442	73.73
210.661	69.63
210.879	20.48
211.098	-43.01
211.316	22.53
211.535	28.67
211.753	36.86
211.972	-2.05
212.191	51.2
212.409	-32.77
212.628	-12.29
212.846	-12.29
213.065	16.38
213.283	69.63
213.502	36.86
213.72	4.1
213.938	10.24
214.157	47.1
214.375	36.86
214.594	20.48
214.812	53.25
215.031	12.29
215.249	47.1
215.467	-10.24
215.686	38.91
215.904	92.16
216.122	0
216.341	104.45
216.559	57.34
216.778	86.01
216.996	86.01
217.214	-26.62
217.432	45.06
217.651	34.82
217.869	14.34
218.087	94.21
218.306	57.34
218.524	36.86
218.742	14.34
218.96	69.63
219.179	30.72
219.397	59.39
219.615	112.64
219.833	57.34
220.051	-20.48
220.27	86.01
220.488	45.06
220.706	94.21
220.924	12.29
221.142	-6.14
221.36	-2.05
221.578	38.91
221.796	110.59
222.015	49.15
222.233	24.58
222.451	86.01
222.669	47.1
222.887	53.25
223.105	61.44
223.323	36.86
223.541	-45.06
223.759	59.39
223.977	96.25
224.195	98.3
224.413	12.29
224.631	77.82
224.849	14.34
225.067	102.4
225.285	34.82
225.503	57.34
225.721	-4.1
225.939	36.86
226.157	69.63
226.375	100.35
226.592	24.58
226.81	-20.48
227.028	22.53
227.246	112.64
227.464	30.72
227.682	61.44
227.9	65.53
228.117	110.59
228.335	14.34
228.553	-34.82
228.771	20.48
228.989	104.45
229.206	18.43
229.424	24.58
229.642	-12.29
229.86	-4.1
230.077	51.2
230.295	-4.1
230.513	57.34
230.731	73.73
230.948	57.34
231.166	59.39
231.384	32.77
231.601	45.06
231.819	126.97
232.037	90.11
232.254	18.43
232.472	38.91
232.689	94.21
232.907	51.2
233.125	38.91
233.342	73.73
233.56	12.29
233.777	45.06
233.995	61.44
234.213	106.49
234.43	112.64
234.648	8.19
234.865	12.29
235.083	-2.05
235.3	61.44
235.518	86.01
235.735	86.01
235.953	73.73
236.17	63.49
236.388	65.53
236.605	40.96
236.822	100.35
237.04	-43.01
237.257	47.1
237.475	8.19
237.692	102.4
237.909	49.15
238.127	28.67
238.344	38.91
238.562	34.82
238.779	-28.67
238.996	51.2
239.214	20.48
239.431	100.35
239.648	81.92
239.865	57.34
240.083	30.72
240.3	40.96
240.517	12.29
240.735	96.25
240.952	-4.1
241.169	88.06
241.386	63.49
241.603	122.88
241.821	36.86
242.038	88.06
242.255	94.21
242.472	12.29
242.689	32.77
242.907	-12.29
243.124	4.1
243.341	0
243.558	36.86
243.775	57.34
243.992	-16.38
244.209	63.49
244.426	63.49
244.643	61.44
244.86	-36.86
245.078	32.77
245.295	49.15
245.512	36.86
245.729	-2.05
245.946	104.45
246.163	47.1
246.38	92.16
246.597	45.06
246.814	45.06
247.031	32.77
247.248	73.73
247.464	18.43
247.681	63.49
247.898	69.63
248.115	122.88
248.332	12.29
248.549	45.06
248.766	90.11
248.983	45.06
249.2	79.87
249.417	81.92
249.633	24.58
249.85	73.73
250.067	32.77
250.284	49.15
250.501	90.11
250.717	69.63
250.934	30.72
251.151	88.06
251.368	36.86
251.585	49.15
251.801	77.82
252.018	26.62
252.235	47.1
252.451	4.1
252.668	12.29
252.885	110.59
253.102	32.77
253.318	34.82
253.535	16.38
253.752	51.2
253.968	45.06
254.185	-4.1
254.401	12.29
254.618	86.01
254.835	36.86
255.051	73.73
255.268	4.1
255.484	45.06
255.701	47.1
255.917	137.21
256.134	10.24
256.351	106.49
256.567	45.06
256.784	26.62
257	-26.62
257.217	36.86
257.433	53.25
257.65	106.49
257.866	69.63
258.082	14.34
258.299	83.97
258.515	-4.1
258.732	-30.72
258.948	26.62
259.165	22.53
259.381	-55.3
259.597	28.67
259.814	53.25
260.03	12.29
260.246	4.1
260.463	110.59
260.679	86.01
260.895	-47.1
261.112	100.35
261.328	12.29
261.544	71.68
261.761	120.83
261.977	47.1
262.193	8.19
262.409	49.15
262.626	36.86
262.842	30.72
263.058	120.83
263.274	90.11
263.49	34.82
263.707	73.73
263.923	104.45
264.139	40.96
264.355	12.29
264.571	112.64
264.787	61.44
265.004	77.82
265.22	47.1
265.436	-6.14
265.652	32.77
265.868	-6.14
266.084	-36.86
266.3	61.44
266.516	55.3
266.732	-18.43
266.948	53.25
267.164	12.29
267.38	81.92
267.596	104.45
267.812	69.63
268.028	61.44
268.244	47.1
268.46	57.34
268.676	-4.1
268.892	38.91
269.108	-4.1
269.324	10.24
269.54	-20.48
269.756	94.21
269.972	55.3
270.188	24.58
270.403	73.73
270.619	53.25
270.835	63.49
271.051	63.49
271.267	12.29
271.483	-12.29
271.698	-81.92
271.914	118.78
272.13	45.06
272.346	73.73
272.562	77.82
272.777	34.82
272.993	36.86
273.209	98.3
273.425	145.41
273.64	-34.82
273.856	69.63
274.072	28.67
274.287	34.82
274.503	83.97
274.719	77.82
274.934	122.88
275.15	8.19
275.366	90.11
275.581	12.29
275.797	96.25
276.012	47.1
276.228	36.86
276.444	8.19
276.659	110.59
276.875	143.36
277.09	0
277.306	14.34
277.521	96.25
277.737	61.44
277.952	110.59
278.168	90.11
278.383	45.06
278.599	81.92
278.814	73.73
279.03	55.3
279.245	94.21
279.461	38.91
279.676	53.25
279.892	47.1
280.107	47.1
280.322	20.48
280.538	14.34
280.753	18.43
280.969	77.82
281.184	51.2
281.399	51.2
281.615	77.82
281.83	28.67
282.045	-12.29
282.26	-14.34
282.476	16.38
282.691	73.73
282.906	94.21
283.122	53.25
283.337	61.44
283.552	16.38
283.767	0
283.983	40.96
284.198	22.53
284.413	69.63
284.628	-47.1
284.843	92.16
285.058	18.43
285.274	4.1
285.489	-20.48
285.704	94.21
285.919	16.38
286.134	30.72
286.349	94.21
286.564	4.1
286.779	90.11
286.995	79.87
287.21	30.72
287.425	49.15
287.64	47.1
287.855	45.06
288.07	34.82
288.285	77.82
288.5	122.88
288.715	59.39
288.93	28.67
289.145	118.78
289.36	137.21
289.575	-34.82
289.79	155.65
290.004	12.29
290.219	75.77
290.434	77.82
290.649	28.67
290.864	-12.29
291.079	22.53
291.294	77.82
291.509	-45.06
291.724	53.25
291.938	73.73
292.153	53.25
292.368	77.82
292.583	40.96
292.798	61.44
293.012	34.82
293.227	79.87
293.442	55.3
293.657	65.53
293.871	43.01
294.086	34.82
294.301	90.11
294.516	96.25
294.73	4.1
294.945	-2.05
295.16	118.78
295.374	8.19
295.589	104.45
295.804	18.43
296.018	59.39
296.233	120.83
296.447	61.44
296.662	92.16
296.877	12.29
297.091	65.53
297.306	36.86
297.52	18.43
297.735	61.44
297.949	-16.38
298.164	28.67
298.378	-14.34
298.593	36.86
298.807	-28.67
299.022	100.35
299.236	6.14
299.451	135.17
299.665	-24.58
299.88	-4.1
300.094	137.21
300.309	38.91
300.523	28.67
300.737	57.34
300.952	18.43
301.166	47.1
301.381	79.87
301.595	45.06
301.809	55.3
302.024	69.63
302.238	61.44
302.452	75.77
302.667	102.4
302.881	69.63
303.095	83.97
303.309	28.67
303.524	6.14
303.738	28.67
303.952	49.15
304.166	86.01
304.381	22.53
304.595	94.21
304.809	69.63
305.023	77.82
305.237	16.38
305.452	26.62
305.666	38.91
305.88	69.63
306.094	53.25
306.308	104.45
306.522	43.01
306.736	141.31
306.95	45.06
307.164	120.83
307.379	143.36
307.593	26.62
307.807	47.1
308.021	20.48
308.235	73.73
308.449	8.19
308.663	-16.38
308.877	43.01
309.091	88.06
309.305	92.16
309.519	20.48
309.733	14.34
309.947	16.38
310.161	79.87
310.374	49.15
310.588	122.88
310.802	51.2
311.016	106.49
311.23	57.34
311.444	55.3
311.658	-4.1
311.872	47.1
312.085	36.86
312.299	57.34
312.513	88.06
312.727	45.06
312.941	-14.34
313.154	73.73
313.368	94.21
313.582	75.77
313.796	38.91
314.009	-6.14
314.223	59.39
314.437	118.78
314.651	71.68
314.864	20.48
315.078	61.44
315.292	-2.05
315.505	16.38
315.719	86.01
315.933	53.25
316.146	2.05
316.36	147.45
316.573	106.49
316.787	90.11
317.001	53.25
317.214	18.43
317.428	75.77
317.641	0
317.855	96.25
318.068	12.29
318.282	43.01
318.495	53.25
318.709	71.68
318.922	4.1
319.136	12.29
319.349	26.62
319.563	2.05
319.776	71.68
319.99	-12.29
320.203	96.25
320.417	45.06
320.63	10.24
320.843	45.06
321.057	61.44
321.27	61.44
321.483	53.25
321.697	20.48
321.91	36.86
322.124	77.82
322.337	36.86
322.55	69.63
322.763	28.67
322.977	73.73
323.19	-8.19
323.403	77.82
323.617	47.1
323.83	106.49
324.043	45.06
324.256	114.69
324.469	40.96
324.683	143.36
324.896	69.63
325.109	57.34
325.322	20.48
325.535	120.83
325.748	108.54
325.962	36.86
326.175	4.1
326.388	96.25
326.601	45.06
326.814	106.49
327.027	71.68
327.24	86.01
327.453	71.68
327.666	-4.1
327.879	2.05
328.092	100.35
328.305	94.21
328.518	77.82
328.731	129.02
328.944	77.82
329.157	22.53
329.37	71.68
329.583	69.63
329.796	129.02
330.009	8.19
330.222	26.62
330.435	61.44
330.648	102.4
330.861	106.49
331.073	6.14
331.286	30.72
331.499	110.59
331.712	79.87
331.925	26.62
332.138	86.01
332.35	120.83
332.563	28.67
332.776	28.67
332.989	-36.86
333.202	81.92
333.414	55.3
333.627	75.77
333.84	98.3
334.053	57.34
334.265	94.21
334.478	63.49
334.691	30.72
334.903	102.4
335.116	45.06
335.329	0
335.541	131.07
335.754	102.4
335.966	122.88
336.179	53.25
336.392	45.06
336.604	102.4
336.817	20.48
337.029	24.58
337.242	61.44
337.454	79.87
337.667	47.1
337.88	57.34
338.092	45.06
338.305	94.21
338.517	36.86
338.729	104.45
338.942	94.21
339.154	55.3
339.367	51.2
339.579	28.67
339.792	14.34
340.004	114.69
340.217	81.92
340.429	53.25
340.641	12.29
340.854	-6.14
341.066	30.72
341.278	26.62
341.491	120.83
341.703	110.59
341.915	-45.06
342.128	71.68
342.34	88.06
342.552	30.72
342.764	77.82
342.977	20.48
343.189	12.29
343.401	45.06
343.613	71.68
343.826	102.4
344.038	30.72
344.25	34.82
344.462	86.01
344.674	94.21
344.886	94.21
345.099	67.58
345.311	30.72
345.523	71.68
345.735	10.24
345.947	118.78
346.159	-16.38
346.371	36.86
346.583	22.53
346.795	110.59
347.007	77.82
347.219	45.06
347.431	16.38
347.643	126.97
347.855	4.1
348.067	69.63
348.279	55.3
348.491	90.11
348.703	77.82
348.915	114.69
349.127	36.86
349.339	98.3
349.551	6.14
349.763	53.25
349.975	43.01
350.187	36.86
350.399	96.25
350.61	61.44
350.822	20.48
351.034	16.38
351.246	65.53
351.458	102.4
351.669	96.25
351.881	94.21
352.093	61.44
352.305	137.21
352.517	86.01
352.728	73.73
352.94	79.87
353.152	77.82
353.363	-51.2
353.575	73.73
353.787	73.73
353.999	22.53
354.21	40.96
354.422	133.12
354.633	98.3
354.845	14.34
355.057	36.86
355.268	61.44
355.48	120.83
355.692	126.97
355.903	51.2
356.115	43.01
356.326	47.1
356.538	38.91
356.749	137.21
356.961	40.96
357.172	77.82
357.384	67.58
357.595	118.78
357.807	8.19
358.018	30.72
358.23	61.44
358.441	184.32
358.653	77.82
358.864	30.72
359.075	8.19
359.287	69.63
359.498	159.74
359.709	96.25
359.921	24.58
360.132	65.53
360.344	102.4
360.555	81.92
360.766	38.91
360.977	45.06
361.189	143.36
361.4	53.25
361.611	106.49
361.823	40.96
362.034	96.25
362.245	102.4
362.456	40.96
362.667	77.82
362.879	88.06
363.09	16.38
363.301	110.59
363.512	77.82
363.723	30.72
363.935	22.53
364.146	55.3
364.357	53.25
364.568	45.06
364.779	28.67
364.99	77.82
365.201	98.3
365.412	178.17
365.623	94.21
365.834	71.68
366.045	122.88
366.256	30.72
366.467	69.63
366.678	20.48
366.889	94.21
367.1	57.34
367.311	65.53
367.522	45.06
367.733	40.96
367.944	94.21
368.155	-12.29
368.366	53.25
368.577	59.39
368.788	69.63
368.999	43.01
369.209	73.73
369.42	65.53
369.631	112.64
369.842	104.45
370.053	131.07
370.264	26.62
370.474	45.06
370.685	110.59
370.896	126.97
371.107	24.58
371.317	36.86
371.528	51.2
371.739	53.25
371.95	61.44
372.16	137.21
372.371	28.67
372.582	63.49
372.792	94.21
373.003	83.97
373.214	77.82
373.424	10.24
373.635	45.06
373.846	81.92
374.056	96.25
374.267	36.86
374.477	12.29
374.688	51.2
374.898	53.25
375.109	32.77
375.319	69.63
375.53	36.86
375.74	135.17
375.951	-51.2
376.161	-45.06
376.372	40.96
376.582	30.72
376.793	57.34
377.003	108.54
377.214	79.87
377.424	104.45
377.635	30.72
377.845	73.73
378.055	90.11
378.266	59.39
378.476	63.49
378.686	43.01
378.897	63.49
379.107	69.63
379.317	77.82
379.528	55.3
379.738	40.96
379.948	47.1
380.158	102.4
380.369	143.36
380.579	36.86
380.789	79.87
380.999	145.41
381.21	112.64
381.42	122.88
381.63	110.59
381.84	102.4
382.05	73.73
382.261	30.72
382.471	81.92
382.681	126.97
382.891	40.96
383.101	131.07
383.311	61.44
383.521	106.49
383.731	83.97
383.941	88.06
384.151	81.92
384.361	61.44
384.571	0
384.781	108.54
384.991	106.49
385.201	153.6
385.411	131.07
385.621	57.34
385.831	22.53
386.041	92.16
386.251	118.78
386.461	77.82
386.671	81.92
386.881	63.49
387.091	32.77
387.301	153.6
387.511	86.01
387.72	96.25
387.93	69.63
388.14	120.83
388.35	137.21
388.56	122.88
388.769	20.48
388.979	0
389.189	28.67
389.399	77.82
389.609	-32.77
389.818	118.78
390.028	88.06
390.238	88.06
390.447	28.67
390.657	22.53
390.867	53.25
391.076	57.34
391.286	102.4
391.496	77.82
391.705	73.73
391.915	202.75
392.125	110.59
392.334	143.36
392.544	96.25
392.753	77.82
392.963	43.01
393.172	47.1
393.382	77.82
393.591	155.65
393.801	8.19
394.01	94.21
394.22	77.82
394.429	49.15
394.639	135.17
394.848	53.25
395.058	61.44
395.267	77.82
395.477	61.44
395.686	143.36
395.895	151.55
396.105	147.45
396.314	69.63
396.524	145.41
396.733	102.4
396.942	147.45
397.152	176.13
397.361	176.13
397.57	151.55
397.78	86.01
397.989	63.49
398.198	169.98
398.407	153.6
398.617	102.4
398.826	65.53
399.035	79.87
399.244	102.4
399.453	92.16
399.663	143.36
399.872	104.45
400.081	135.17
400.29	114.69
400.499	94.21
400.708	131.07
400.917	161.79
401.127	126.97
401.336	122.88
401.545	129.02
401.754	204.8
401.963	155.65
402.172	102.4
402.381	106.49
402.59	139.26
402.799	147.45
403.008	102.4
403.217	208.89
403.426	147.45
403.635	163.84
403.844	245.76
404.053	198.65
404.262	157.69
404.471	172.03
404.68	167.93
404.888	186.37
405.097	169.98
405.306	233.47
405.515	212.99
405.724	198.65
405.933	190.46
406.142	253.95
406.35	190.46
406.559	233.47
406.768	206.84
406.977	292.86
407.185	196.61
407.394	235.52
407.603	278.52
407.812	305.15
408.02	286.72
408.229	274.43
408.438	253.95
408.646	292.86
408.855	272.38
409.064	290.81
409.272	280.57
409.481	307.2
409.69	317.44
409.898	290.81
410.107	333.82
410.315	450.55
410.524	423.93
410.733	421.88
410.941	344.06
411.15	466.94
411.358	385.02
411.567	511.99
411.775	493.56
411.984	419.83
412.192	487.42
412.401	397.31
412.609	557.05
412.818	585.72
413.026	511.99
413.234	622.58
413.443	618.49
413.651	620.53
413.86	651.25
414.068	606.2
414.276	825.33
414.485	808.95
414.693	813.04
414.901	747.51
415.11	778.23
415.318	784.37
415.526	819.19
415.734	866.29
415.943	894.96
416.151	937.97
416.359	1048.56
416.567	907.25
416.776	962.55
416.984	1095.66
417.192	1128.43
417.4	1105.9
417.608	1079.28
417.817	1144.81
418.025	1204.21
418.233	1349.61
418.441	1314.8
418.649	1374.19
418.857	1474.54
419.065	1472.49
419.273	1406.95
419.481	1488.87
419.689	1638.38
419.897	1732.58
420.105	1703.91
420.313	1753.06
420.521	1759.21
420.729	1849.32
420.937	2009.06
421.145	2007.01
421.353	2162.65
421.561	2240.48
421.769	2240.48
421.977	2207.71
422.185	2344.92
422.393	2445.27
422.601	2502.62
422.809	2594.78
423.017	2574.3
423.224	2766.81
423.432	2676.7
423.64	2705.37
423.848	3045.33
424.056	2908.12
424.263	3141.58
424.471	3243.98
424.679	3260.37
424.887	3409.87
425.094	3516.36
425.302	3469.26
425.51	3706.82
425.718	3813.32
425.925	3954.63
426.133	3911.62
426.341	4321.21
426.548	4407.23
426.756	4341.69
426.964	4509.63
427.171	4706.23
427.379	4657.08
427.586	4796.34
427.794	5121.97
428.001	5242.8
428.209	5414.83
428.417	5404.59
428.624	5859.24
428.832	5830.57
429.039	5879.72
429.247	5642.15
429.454	6303.65
429.662	6705.05
429.869	6289.31
430.076	6803.35
430.284	6616.99
430.491	6866.84
430.699	7198.61
430.906	7253.91
431.114	7274.39
431.321	7415.69
431.528	7729.03
431.736	8069
431.943	8669.05
432.15	8308.61
432.358	8642.43
432.565	8884.09
432.772	8998.77
432.979	9375.6
433.187	9312.11
433.394	9432.94
433.601	10084.2
433.808	10237.8
434.016	10211.17
434.223	10588
434.43	11071.32
434.637	10864.47
434.844	11341.65
435.052	11835.21
435.259	11796.3
435.466	11945.8
435.673	11734.86
435.88	12564.29
436.087	13082.42
436.294	13231.93
436.501	12920.63
436.708	13317.94
436.915	13612.85
437.122	13965.1
437.329	14223.14
437.537	14565.15
437.743	14892.83
437.95	14700.32
438.157	15445.78
438.364	16027.4
438.571	16103.18
438.778	15900.43
438.985	17870.58
439.192	16666.37
439.399	17397.49
439.606	16959.23
439.813	17872.62
440.02	18849.5
440.227	18939.61
440.433	18534.12
440.64	18783.97
440.847	18908.9
441.054	19527.38
441.261	20715.2
441.467	20301.51
441.674	20799.17
441.881	21698.23
442.088	21386.94
442.294	21399.23
442.501	21671.61
442.708	22398.63
442.914	23035.55
443.121	24045.2
443.328	23707.29
443.534	25112.19
443.741	24360.59
443.948	24272.53
444.154	25910.9
444.361	25710.2
444.568	25812.6
444.774	25937.52
444.981	26263.15
445.187	26924.65
445.394	28014.16
445.6	27465.31
445.807	30418.48
446.013	29400.64
446.22	29650.49
446.426	30742.06
446.633	31069.73
446.839	32052.76
447.046	30477.87
447.252	32421.39
447.459	32511.5
447.665	32261.65
447.871	33734.14
448.078	35098.09
448.284	33177.09
448.491	34178.55
448.697	35569.12
448.903	36292.05
449.11	36427.22
449.316	36031.96
449.522	36404.69
449.728	37432.77
449.935	37508.55
450.141	37873.09
450.347	38649.27
450.553	37137.87
450.76	37944.76
450.966	39036.33
451.172	38952.37
451.378	39792.03
451.584	38786.48
451.791	39533.99
451.997	39259.56
452.203	40099.23
452.409	40211.87
452.615	39896.48
452.821	38372.79
453.027	38292.92
453.233	40189.34
453.44	38546.87
453.646	39075.24
453.852	39015.85
454.058	39792.03
454.264	38626.74
454.47	39718.31
454.676	38571.44
454.882	40080.8
455.088	36949.45
455.294	36961.74
455.5	37471.68
455.705	37899.71
455.911	36517.33
456.117	35864.03
456.323	35124.71
456.529	33349.12
456.735	35003.88
456.941	34176.5
457.147	33420.8
457.352	33037.83
457.558	32042.52
457.764	32194.07
457.97	31815.19
458.176	30682.67
458.381	30733.87
458.587	29625.92
458.793	29519.42
458.999	27879
459.204	30080.56
459.41	29214.27
459.616	27248.22
459.821	27487.84
460.027	27194.98
460.233	26809.96
460.438	25587.32
460.644	26009.2
460.85	24551.05
461.055	23983.76
461.261	23953.04
461.466	22288.04
461.672	21522.1
461.878	23269.02
462.083	21651.13
462.289	21223.1
462.494	20786.88
462.7	20049.61
462.905	19754.71
463.111	20244.17
463.316	20434.63
463.522	19640.02
463.727	19885.78
463.932	19902.16
464.138	19640.02
464.343	19805.91
464.549	19152.6
464.754	19599.06
464.959	19543.77
465.165	19287.77
465.37	18818.78
465.575	18185.96
465.781	18642.66
465.986	19097.31
466.191	18298.6
466.397	17833.71
466.602	17258.23
466.807	17792.75
467.012	17815.28
467.218	17723.12
