Data from USB4F104151__311__14-24-24-131.txt Node

Date: Thu Mar 13 14:24:24 EDT 2025
User: louis
Spectrometer: USB4F10415
Trigger mode: 4
Integration Time (sec): 2.000000E-2
Scans to average: 1
Electric dark correction enabled: true
Nonlinearity correction enabled: false
Boxcar width: 0
XAxis mode: Wavelengths
Number of Pixels in Spectrum: 3648
>>>>>Begin Spectral Data<<<<<
178.204	-115.54
178.424	-115.54
178.644	-115.54
178.864	-168.79
179.084	-78.68
179.304	9.39
179.524	40.11
179.744	-21.33
179.964	-9.05
180.184	-2.9
180.404	-11.09
180.624	17.58
180.844	7.34
181.064	-58.2
181.283	-17.24
181.503	-35.67
181.723	81.07
181.943	-70.48
182.163	56.49
182.383	-60.24
182.602	56.49
182.822	62.63
183.042	38.06
183.262	7.34
183.482	11.43
183.701	-29.52
183.921	62.63
184.141	-52.05
184.361	29.87
184.58	19.63
184.8	89.26
185.02	27.82
185.239	56.49
185.459	44.2
185.679	7.34
185.898	3.24
186.118	21.67
186.338	-13.14
186.557	56.49
186.777	-9.05
186.997	-11.09
187.216	-52.05
187.436	72.87
187.655	-23.38
187.875	27.82
188.095	5.29
188.314	46.25
188.534	93.35
188.753	-45.91
188.973	68.78
189.192	76.97
189.412	68.78
189.631	-2.9
189.851	-29.52
190.07	40.11
190.29	-37.72
190.509	-21.33
190.729	13.48
190.948	56.49
191.168	136.36
191.387	58.54
191.607	17.58
191.826	-25.43
192.045	-4.95
192.265	40.11
192.484	13.48
192.704	-35.67
192.923	25.77
193.142	76.97
193.362	42.15
193.581	52.39
193.8	36.01
194.02	52.39
194.239	-60.24
194.458	-33.62
194.678	-68.44
194.897	7.34
195.116	-35.67
195.335	46.25
195.555	66.73
195.774	-15.19
195.993	-7
196.212	11.43
196.432	23.72
196.651	68.78
196.87	7.34
197.089	117.93
197.308	48.3
197.528	23.72
197.747	11.43
197.966	54.44
198.185	68.78
198.404	40.11
198.623	19.63
198.842	85.16
199.062	-29.52
199.281	19.63
199.5	36.01
199.719	1.19
199.938	87.21
200.157	15.53
200.376	27.82
200.595	-11.09
200.814	-33.62
201.033	-4.95
201.252	36.01
201.471	27.82
201.69	-9.05
201.909	44.2
202.128	54.44
202.347	25.77
202.566	-4.95
202.785	-13.14
203.004	11.43
203.223	13.48
203.442	46.25
203.661	3.24
203.879	23.72
204.098	111.78
204.317	27.82
204.536	-7
204.755	29.87
204.974	101.55
205.193	3.24
205.411	27.82
205.63	46.25
205.849	15.53
206.068	-27.48
206.287	-17.24
206.505	15.53
206.724	-29.52
206.943	38.06
207.162	60.59
207.381	3.24
207.599	50.35
207.818	5.29
208.037	-29.52
208.255	101.55
208.474	19.63
208.693	40.11
208.911	-19.29
209.13	44.2
209.349	-4.95
209.567	60.59
209.786	31.91
210.005	13.48
210.223	-37.72
210.442	-33.62
210.661	44.2
210.879	44.2
211.098	66.73
211.316	3.24
211.535	44.2
211.753	-9.05
211.972	19.63
212.191	-21.33
212.409	-56.15
212.628	-70.48
212.846	13.48
213.065	-21.33
213.283	111.78
213.502	-17.24
213.72	40.11
213.938	27.82
214.157	-19.29
214.375	-9.05
214.594	-4.95
214.812	36.01
215.031	60.59
215.249	15.53
215.467	19.63
215.686	40.11
215.904	74.92
216.122	-21.33
216.341	54.44
216.559	25.77
216.778	11.43
216.996	81.07
217.214	-2.9
217.432	13.48
217.651	-4.95
217.869	-0.85
218.087	-21.33
218.306	-54.1
218.524	56.49
218.742	-29.52
218.96	50.35
219.179	-58.2
219.397	93.35
219.615	64.68
219.833	62.63
220.051	52.39
220.27	58.54
220.488	62.63
220.706	-11.09
220.924	19.63
221.142	44.2
221.36	-31.57
221.578	-47.96
221.796	46.25
222.015	46.25
222.233	-35.67
222.451	23.72
222.669	52.39
222.887	-52.05
223.105	13.48
223.323	1.19
223.541	-45.91
223.759	58.54
223.977	-4.95
224.195	48.3
224.413	11.43
224.631	64.68
224.849	-45.91
225.067	52.39
225.285	48.3
225.503	11.43
225.721	-37.72
225.939	72.87
226.157	60.59
226.375	113.83
226.592	-74.58
226.81	-37.72
227.028	36.01
227.246	-72.53
227.464	3.24
227.682	-35.67
227.9	52.39
228.117	27.82
228.335	3.24
228.553	11.43
228.771	-68.44
228.989	33.96
229.206	27.82
229.424	3.24
229.642	19.63
229.86	31.91
230.077	117.93
230.295	42.15
230.513	109.74
230.731	46.25
230.948	72.87
231.166	-27.48
231.384	-13.14
231.601	3.24
231.819	60.59
232.037	60.59
232.254	46.25
232.472	9.39
232.689	76.97
232.907	52.39
233.125	38.06
233.342	3.24
233.56	11.43
233.777	52.39
233.995	-29.52
234.213	11.43
234.43	56.49
234.648	-4.95
234.865	3.24
235.083	72.87
235.3	46.25
235.518	23.72
235.735	60.59
235.953	52.39
236.17	3.24
236.388	48.3
236.605	-9.05
236.822	11.43
237.04	21.67
237.257	19.63
237.475	15.53
237.692	13.48
237.909	44.2
238.127	40.11
238.344	68.78
238.562	-7
238.779	79.02
238.996	-15.19
239.214	7.34
239.431	25.77
239.648	-0.85
239.865	27.82
240.083	50.35
240.3	31.91
240.517	40.11
240.735	62.63
240.952	83.11
241.169	72.87
241.386	-13.14
241.603	-25.43
241.821	46.25
242.038	36.01
242.255	23.72
242.472	15.53
242.689	5.29
242.907	40.11
243.124	50.35
243.341	-4.95
243.558	-7
243.775	36.01
243.992	-41.81
244.209	-25.43
244.426	48.3
244.643	-4.95
244.86	60.59
245.078	36.01
245.295	-50
245.512	-0.85
245.729	27.82
245.946	31.91
246.163	15.53
246.38	60.59
246.597	-4.95
246.814	-54.1
247.031	27.82
247.248	-25.43
247.464	17.58
247.681	-11.09
247.898	38.06
248.115	9.39
248.332	-17.24
248.549	36.01
248.766	44.2
248.983	54.44
249.2	29.87
249.417	-0.85
249.633	52.39
249.85	48.3
250.067	-21.33
250.284	5.29
250.501	3.24
250.717	44.2
250.934	15.53
251.151	87.21
251.368	52.39
251.585	68.78
251.801	54.44
252.018	17.58
252.235	85.16
252.451	-25.43
252.668	19.63
252.885	21.67
253.102	60.59
253.318	27.82
253.535	-33.62
253.752	52.39
253.968	46.25
254.185	-13.14
254.401	-45.91
254.618	76.97
254.835	-21.33
255.051	36.01
255.268	-31.57
255.484	64.68
255.701	58.54
255.917	-4.95
256.134	-21.33
256.351	-23.38
256.567	-50
256.784	54.44
257	27.82
257.217	46.25
257.433	1.19
257.65	52.39
257.866	52.39
258.082	9.39
258.299	13.48
258.515	-2.9
258.732	-7
258.948	48.3
259.165	-15.19
259.381	-50
259.597	21.67
259.814	-4.95
260.03	46.25
260.246	-9.05
260.463	44.2
260.679	13.48
260.895	60.59
261.112	21.67
261.328	-13.14
261.544	52.39
261.761	60.59
261.977	60.59
262.193	-80.72
262.409	23.72
262.626	64.68
262.842	27.82
263.058	60.59
263.274	-0.85
263.49	48.3
263.707	89.26
263.923	29.87
264.139	-19.29
264.355	-43.86
264.571	13.48
264.787	-17.24
265.004	-4.95
265.22	-13.14
265.436	50.35
265.652	38.06
265.868	3.24
266.084	27.82
266.3	68.78
266.516	15.53
266.732	29.87
266.948	48.3
267.164	-50
267.38	11.43
267.596	76.97
267.812	101.55
268.028	52.39
268.244	3.24
268.46	-37.72
268.676	-11.09
268.892	79.02
269.108	-19.29
269.324	-35.67
269.54	5.29
269.756	95.4
269.972	-25.43
270.188	11.43
270.403	19.63
270.619	-29.52
270.835	-68.44
271.051	29.87
271.267	13.48
271.483	38.06
271.698	-21.33
271.914	-62.29
272.13	97.45
272.346	-37.72
272.562	23.72
272.777	136.36
272.993	13.48
273.209	-2.9
273.425	-17.24
273.64	17.58
273.856	70.83
274.072	58.54
274.287	1.19
274.503	-23.38
274.719	3.24
274.934	56.49
275.15	36.01
275.366	44.2
275.581	17.58
275.797	11.43
276.012	-11.09
276.228	-9.05
276.444	36.01
276.659	52.39
276.875	-76.63
277.09	7.34
277.306	-27.48
277.521	44.2
277.737	36.01
277.952	19.63
278.168	7.34
278.383	11.43
278.599	-45.91
278.814	38.06
279.03	60.59
279.245	19.63
279.461	64.68
279.676	68.78
279.892	-11.09
280.107	9.39
280.322	-11.09
280.538	23.72
280.753	70.83
280.969	11.43
281.184	36.01
281.399	146.6
281.615	-13.14
281.83	50.35
282.045	40.11
282.26	44.2
282.476	-2.9
282.691	81.07
282.906	85.16
283.122	23.72
283.337	74.92
283.552	5.29
283.767	48.3
283.983	48.3
284.198	-52.05
284.413	-4.95
284.628	76.97
284.843	40.11
285.058	33.96
285.274	48.3
285.489	23.72
285.704	33.96
285.919	11.43
286.134	38.06
286.349	56.49
286.564	29.87
286.779	19.63
286.995	85.16
287.21	-54.1
287.425	36.01
287.64	-9.05
287.855	1.19
288.07	-60.24
288.285	54.44
288.5	29.87
288.715	44.2
288.93	29.87
289.145	-9.05
289.36	36.01
289.575	-27.48
289.79	76.97
290.004	85.16
290.219	-15.19
290.434	13.48
290.649	-4.95
290.864	38.06
291.079	-35.67
291.294	62.63
291.509	29.87
291.724	7.34
291.938	-31.57
292.153	38.06
292.368	-62.29
292.583	3.24
292.798	40.11
293.012	-17.24
293.227	36.01
293.442	13.48
293.657	13.48
293.871	81.07
294.086	87.21
294.301	126.12
294.516	15.53
294.73	70.83
294.945	-4.95
295.16	40.11
295.374	38.06
295.589	-2.9
295.804	-13.14
296.018	1.19
296.233	85.16
296.447	58.54
296.662	13.48
296.877	3.24
297.091	48.3
297.306	13.48
297.52	81.07
297.735	46.25
297.949	27.82
298.164	103.59
298.378	31.91
298.593	68.78
298.807	44.2
299.022	-23.38
299.236	48.3
299.451	136.36
299.665	68.78
299.88	48.3
300.094	-17.24
300.309	36.01
300.523	-21.33
300.737	3.24
300.952	-13.14
301.166	93.35
301.381	19.63
301.595	1.19
301.809	-21.33
302.024	56.49
302.238	31.91
302.452	60.59
302.667	27.82
302.881	33.96
303.095	68.78
303.309	9.39
303.524	5.29
303.738	3.24
303.952	126.12
304.166	54.44
304.381	-95.06
304.595	58.54
304.809	-19.29
305.023	-4.95
305.237	50.35
305.452	3.24
305.666	-35.67
305.88	-25.43
306.094	7.34
306.308	54.44
306.522	72.87
306.736	17.58
306.95	60.59
307.164	-4.95
307.379	-54.1
307.593	144.55
307.807	66.73
308.021	17.58
308.235	11.43
308.449	27.82
308.663	19.63
308.877	95.4
309.091	29.87
309.305	72.87
309.519	19.63
309.733	36.01
309.947	-27.48
310.161	42.15
310.374	27.82
310.588	44.2
310.802	-4.95
311.016	-37.72
311.23	36.01
311.444	93.35
311.658	15.53
311.872	60.59
312.085	76.97
312.299	56.49
312.513	5.29
312.727	68.78
312.941	19.63
313.154	-27.48
313.368	21.67
313.582	56.49
313.796	-9.05
314.009	11.43
314.223	-74.58
314.437	42.15
314.651	27.82
314.864	93.35
315.078	-27.48
315.292	19.63
315.505	48.3
315.719	85.16
315.933	27.82
316.146	-50
316.36	-29.52
316.573	64.68
316.787	54.44
317.001	46.25
317.214	-23.38
317.428	3.24
317.641	89.26
317.855	13.48
318.068	19.63
318.282	23.72
318.495	64.68
318.709	-21.33
318.922	31.91
319.136	52.39
319.349	-4.95
319.563	-35.67
319.776	60.59
319.99	70.83
320.203	76.97
320.417	46.25
320.63	44.2
320.843	91.31
321.057	21.67
321.27	38.06
321.483	27.82
321.697	62.63
321.91	-4.95
322.124	58.54
322.337	79.02
322.55	-13.14
322.763	5.29
322.977	-19.29
323.19	15.53
323.403	52.39
323.617	9.39
323.83	117.93
324.043	19.63
324.256	27.82
324.469	38.06
324.683	38.06
324.896	19.63
325.109	-27.48
325.322	-78.68
325.535	87.21
325.748	1.19
325.962	68.78
326.175	29.87
326.388	19.63
326.601	19.63
326.814	13.48
327.027	-0.85
327.24	27.82
327.453	56.49
327.666	50.35
327.879	89.26
328.092	5.29
328.305	-78.68
328.518	-7
328.731	-50
328.944	29.87
329.157	-11.09
329.37	31.91
329.583	95.4
329.796	81.07
330.009	-54.1
330.222	85.16
330.435	44.2
330.648	5.29
330.861	11.43
331.073	-9.05
331.286	-21.33
331.499	36.01
331.712	-47.96
331.925	79.02
332.138	13.48
332.35	111.78
332.563	13.48
332.776	36.01
332.989	89.26
333.202	29.87
333.414	-2.9
333.627	-41.81
333.84	5.29
334.053	27.82
334.265	-19.29
334.478	-9.05
334.691	-0.85
334.903	117.93
335.116	19.63
335.329	27.82
335.541	60.59
335.754	48.3
335.966	-117.59
336.179	23.72
336.392	44.2
336.604	9.39
336.817	13.48
337.029	7.34
337.242	-2.9
337.454	15.53
337.667	62.63
337.88	150.7
338.092	11.43
338.305	-17.24
338.517	15.53
338.729	93.35
338.942	-11.09
339.154	29.87
339.367	13.48
339.579	91.31
339.792	27.82
340.004	81.07
340.217	29.87
340.429	-29.52
340.641	79.02
340.854	29.87
341.066	9.39
341.278	21.67
341.491	27.82
341.703	27.82
341.915	44.2
342.128	97.45
342.34	-21.33
342.552	-2.9
342.764	74.92
342.977	38.06
343.189	72.87
343.401	38.06
343.613	-21.33
343.826	50.35
344.038	-23.38
344.25	62.63
344.462	-19.29
344.674	-37.72
344.886	23.72
345.099	11.43
345.311	40.11
345.523	40.11
345.735	3.24
345.947	56.49
346.159	36.01
346.371	-21.33
346.583	1.19
346.795	56.49
347.007	7.34
347.219	85.16
347.431	60.59
347.643	76.97
347.855	54.44
348.067	27.82
348.279	58.54
348.491	83.11
348.703	29.87
348.915	31.91
349.127	29.87
349.339	99.5
349.551	-9.05
349.763	40.11
349.975	52.39
350.187	62.63
350.399	36.01
350.61	54.44
350.822	-13.14
351.034	36.01
351.246	7.34
351.458	44.2
351.669	36.01
351.881	74.92
352.093	105.64
352.305	36.01
352.517	60.59
352.728	81.07
352.94	52.39
353.152	76.97
353.363	3.24
353.575	-35.67
353.787	72.87
353.999	25.77
354.21	19.63
354.422	11.43
354.633	62.63
354.845	68.78
355.057	36.01
355.268	-39.76
355.48	128.17
355.692	21.67
355.903	31.91
356.115	48.3
356.326	66.73
356.538	113.83
356.749	46.25
356.961	95.4
357.172	56.49
357.384	27.82
357.595	87.21
357.807	-78.68
358.018	27.82
358.23	11.43
358.441	27.82
358.653	31.91
358.864	21.67
359.075	66.73
359.287	-47.96
359.498	66.73
359.709	5.29
359.921	60.59
360.132	76.97
360.344	25.77
360.555	36.01
360.766	87.21
360.977	15.53
361.189	103.59
361.4	48.3
361.611	130.22
361.823	58.54
362.034	7.34
362.245	60.59
362.456	38.06
362.667	-41.81
362.879	21.67
363.09	42.15
363.301	27.82
363.512	48.3
363.723	-4.95
363.935	-41.81
364.146	74.92
364.357	-4.95
364.568	58.54
364.779	11.43
364.99	50.35
365.201	44.2
365.412	64.68
365.623	-31.57
365.834	36.01
366.045	-4.95
366.256	89.26
366.467	52.39
366.678	68.78
366.889	56.49
367.1	31.91
367.311	68.78
367.522	-27.48
367.733	126.12
367.944	13.48
368.155	83.11
368.366	5.29
368.577	74.92
368.788	68.78
368.999	-29.52
369.209	74.92
369.42	56.49
369.631	44.2
369.842	13.48
370.053	38.06
370.264	19.63
370.474	38.06
370.685	33.96
370.896	44.2
371.107	81.07
371.317	-7
371.528	-50
371.739	25.77
371.95	-13.14
372.16	21.67
372.371	11.43
372.582	58.54
372.792	56.49
373.003	62.63
373.214	17.58
373.424	60.59
373.635	42.15
373.846	21.67
374.056	79.02
374.267	87.21
374.477	79.02
374.688	-25.43
374.898	99.5
375.109	3.24
375.319	93.35
375.53	109.74
375.74	38.06
375.951	31.91
376.161	58.54
376.372	38.06
376.582	-45.91
376.793	-4.95
377.003	-19.29
377.214	-9.05
377.424	25.77
377.635	52.39
377.845	33.96
378.055	54.44
378.266	-13.14
378.476	56.49
378.686	-11.09
378.897	-9.05
379.107	85.16
379.317	91.31
379.528	-9.05
379.738	117.93
379.948	-66.39
380.158	29.87
380.369	62.63
380.579	107.69
380.789	68.78
380.999	13.48
381.21	79.02
381.42	162.98
381.63	54.44
381.84	56.49
382.05	36.01
382.261	85.16
382.471	109.74
382.681	81.07
382.891	85.16
383.101	25.77
383.311	21.67
383.521	76.97
383.731	101.55
383.941	72.87
384.151	74.92
384.361	13.48
384.571	15.53
384.781	56.49
384.991	21.67
385.201	56.49
385.411	62.63
385.621	23.72
385.831	9.39
386.041	81.07
386.251	-33.62
386.461	48.3
386.671	1.19
386.881	60.59
387.091	-4.95
387.301	-2.9
387.511	60.59
387.72	93.35
387.93	91.31
388.14	25.77
388.35	23.72
388.56	38.06
388.769	13.48
388.979	5.29
389.189	76.97
389.399	101.55
389.609	40.11
389.818	117.93
390.028	68.78
390.238	44.2
390.447	33.96
390.657	58.54
390.867	7.34
391.076	48.3
391.286	95.4
391.496	44.2
391.705	27.82
391.915	68.78
392.125	70.83
392.334	-4.95
392.544	52.39
392.753	117.93
392.963	19.63
393.172	7.34
393.382	122.02
393.591	44.2
393.801	42.15
394.01	138.41
394.22	93.35
394.429	76.97
394.639	64.68
394.848	81.07
395.058	54.44
395.267	103.59
395.477	-60.24
395.686	119.98
395.895	142.5
396.105	134.31
396.314	52.39
396.524	38.06
396.733	44.2
396.942	128.17
397.152	54.44
397.361	138.41
397.57	33.96
397.78	76.97
397.989	54.44
398.198	101.55
398.407	81.07
398.617	87.21
398.826	70.83
399.035	54.44
399.244	89.26
399.453	107.69
399.663	93.35
399.872	111.78
400.081	44.2
400.29	62.63
400.499	62.63
400.708	76.97
400.917	31.91
401.127	99.5
401.336	7.34
401.545	154.79
401.754	74.92
401.963	87.21
402.172	128.17
402.381	29.87
402.59	93.35
402.799	95.4
403.008	138.41
403.217	134.31
403.426	113.83
403.635	109.74
403.844	56.49
404.053	109.74
404.262	115.88
404.471	158.89
404.68	68.78
404.888	62.63
405.097	52.39
405.306	99.5
405.515	169.13
405.724	87.21
405.933	113.83
406.142	142.5
406.35	76.97
406.559	214.18
406.768	109.74
406.977	208.04
407.185	224.42
407.394	195.75
407.603	171.18
407.812	177.32
408.02	185.51
408.229	228.52
408.438	109.74
408.646	169.13
408.855	205.99
409.064	195.75
409.272	279.72
409.481	265.38
409.69	224.42
409.898	234.66
410.107	259.24
410.315	310.44
410.524	240.81
410.733	273.57
410.941	294.05
411.15	240.81
411.358	322.73
411.567	263.33
411.775	296.1
411.984	289.96
412.192	326.82
412.401	285.86
412.609	347.3
412.818	449.7
413.026	449.7
413.234	330.92
413.443	355.49
413.651	396.45
413.86	363.69
414.068	482.47
414.276	431.27
414.485	535.71
414.693	504.99
414.901	576.67
415.11	531.62
415.318	472.23
415.526	591.01
415.734	560.29
415.943	634.02
416.151	660.64
416.359	609.44
416.567	619.68
416.776	701.6
416.984	715.94
417.192	728.22
417.4	707.74
417.608	724.13
417.817	687.26
418.025	765.09
418.233	773.28
418.441	830.62
418.649	922.78
418.857	1084.57
419.065	996.51
419.273	955.55
419.481	980.12
419.689	953.5
419.897	1117.34
420.105	1098.91
420.313	1236.12
420.521	1166.49
420.729	1215.64
420.937	1238.17
421.145	1322.13
421.353	1330.33
421.561	1514.64
421.769	1457.3
421.977	1608.85
422.185	1543.32
422.393	1653.91
422.601	1729.68
422.809	1770.64
423.017	1698.96
423.224	1842.32
423.432	1821.84
423.64	1813.65
423.848	2071.69
424.056	2045.07
424.263	2104.46
424.471	2018.44
424.679	2180.23
424.887	2245.77
425.094	2389.13
425.302	2346.12
425.51	2350.21
425.718	2530.44
425.925	2632.83
426.133	2591.88
426.341	2792.58
426.548	2919.55
426.756	3009.66
426.964	2866.3
427.171	2989.18
427.379	3255.42
427.586	3390.58
427.794	3318.9
428.001	3552.37
428.209	3574.9
428.417	3609.72
428.624	3789.94
428.832	3710.07
429.039	3751.03
429.247	3767.41
429.454	4113.52
429.662	4406.38
429.869	4254.83
430.076	4566.12
430.284	4295.79
430.491	4584.55
430.699	4918.37
430.906	4834.4
431.114	4811.87
431.321	5155.93
431.528	5041.25
431.736	5622.87
431.943	5731.41
432.15	5712.98
432.358	5475.42
432.565	5835.86
432.772	5866.58
432.979	6198.35
433.187	6200.4
433.394	6526.02
433.601	6937.66
433.808	6829.12
434.016	6657.09
434.223	7035.97
434.43	7461.94
434.637	7466.04
434.844	7861.3
435.052	7994.42
435.259	7756.85
435.466	7992.37
435.673	7951.41
435.88	8363.05
436.087	8854.56
436.294	8838.18
436.501	8715.3
436.708	8696.87
436.915	9182.24
437.122	9477.15
437.329	9444.38
437.537	9860.12
437.743	9896.98
437.95	9683.99
438.157	10257.42
438.364	10777.61
438.571	10492.94
438.778	10624.01
438.985	11840.5
439.192	11181.06
439.399	11570.17
439.606	11254.78
439.813	11774.97
440.02	12704.74
440.227	12291.06
440.433	12329.97
440.64	12733.42
440.847	12743.66
441.054	13188.07
441.261	13859.8
441.467	13575.13
441.674	13755.35
441.881	14339.02
442.088	14556.11
442.294	14195.67
442.501	14511.05
442.708	14787.53
442.914	15373.25
443.121	16026.55
443.328	15643.58
443.534	16651.18
443.741	16155.57
443.948	16108.47
444.154	17269.67
444.361	17234.85
444.568	17165.22
444.774	17210.28
444.981	17103.78
445.187	17681.31
445.394	18541.46
445.6	18338.71
445.807	20409.2
446.013	19170.18
446.22	19979.13
446.426	20458.35
446.633	20503.41
446.839	21613.41
447.046	20523.89
447.252	21697.38
447.459	21693.28
447.665	21588.83
447.871	22444.88
448.078	23116.62
448.284	22203.22
448.491	23110.47
448.697	23864.13
448.903	24245.05
449.11	24234.81
449.316	23825.22
449.522	24396.6
449.728	24976.17
449.935	25211.69
450.141	25074.48
450.347	25899.81
450.553	25156.39
450.76	25254.7
450.966	26118.94
451.172	25733.92
451.378	26499.86
451.584	26133.28
451.791	26288.92
451.997	26686.23
452.203	27056.91
452.409	27118.35
452.615	27185.93
452.821	25846.56
453.027	25574.18
453.233	27249.42
453.44	26020.64
453.646	26250.01
453.852	26684.18
454.058	26764.05
454.264	26125.08
454.47	26751.76
454.676	25752.35
454.882	26989.33
455.088	24552.24
455.294	24961.84
455.5	25377.58
455.705	25568.04
455.911	24367.93
456.117	24085.31
456.323	23718.72
456.529	22897.49
456.735	23704.38
456.941	23096.14
457.147	22895.44
457.352	21797.73
457.558	22020.95
457.764	21822.3
457.97	21418.85
458.176	20894.57
458.381	20962.15
458.587	20102.01
458.793	19999.61
458.999	19012.49
459.204	20239.22
459.41	19587.97
459.616	18457.49
459.821	18723.72
460.027	18281.36
460.233	18129.81
460.438	17267.62
460.644	17423.26
460.85	16536.49
461.055	16094.13
461.261	16391.09
461.466	15025.09
461.672	14699.47
461.878	15879.1
462.083	14652.36
462.289	14404.56
462.494	14265.3
462.7	13704.15
462.905	13331.42
463.111	13743.06
463.316	13661.15
463.522	13437.92
463.727	13571.04
463.932	13290.46
464.138	13265.89
464.343	13272.03
464.549	12784.62
464.754	13296.61
464.959	13040.61
465.165	13183.97
465.37	12745.7
465.575	12235.76
465.781	12725.22
465.986	12952.55
466.191	12311.53
466.397	12293.1
466.602	11607.03
466.807	12233.71
467.012	12104.69
467.218	12002.29
467.423	11768.82
467.628	11854.84
467.833	12254.19
468.038	11922.42
