Data from USB4F104151__55__14-17-05-000.txt Node

Date: Thu Mar 13 14:17:05 EDT 2025
User: louis
Spectrometer: USB4F10415
Trigger mode: 4
Integration Time (sec): 2.000000E-2
Scans to average: 1
Electric dark correction enabled: true
Nonlinearity correction enabled: false
Boxcar width: 0
XAxis mode: Wavelengths
Number of Pixels in Spectrum: 3648
>>>>>Begin Spectral Data<<<<<
178.204	-51.71
178.424	-51.71
178.644	-51.71
178.864	-133.63
179.084	-111.1
179.304	13.82
179.524	-27.14
179.744	-47.62
179.964	83.45
180.184	7.68
180.404	-80.38
180.624	-12.8
180.844	15.87
181.064	-74.24
181.283	62.98
181.503	42.5
181.723	15.87
181.943	-4.61
182.163	87.55
182.383	13.82
182.602	105.98
182.822	34.3
183.042	11.78
183.262	-18.94
183.482	-6.66
183.701	46.59
183.921	71.17
184.141	-25.09
184.361	73.21
184.58	26.11
184.8	67.07
185.02	15.87
185.239	108.03
185.459	5.63
185.679	15.87
185.898	22.02
186.118	-33.28
186.338	52.74
186.557	15.87
186.777	-4.61
186.997	22.02
187.216	30.21
187.436	77.31
187.655	122.37
187.875	81.41
188.095	-39.42
188.314	128.51
188.534	85.5
188.753	-10.75
188.973	89.6
189.192	134.65
189.412	-35.33
189.631	79.36
189.851	67.07
190.07	58.88
190.29	-31.23
190.509	112.13
190.729	44.54
190.948	77.31
191.168	196.09
191.387	62.98
191.607	-47.62
191.826	24.06
192.045	32.26
192.265	65.02
192.484	75.26
192.704	-27.14
192.923	-2.56
193.142	120.32
193.362	36.35
193.581	-2.56
193.8	87.55
194.02	85.5
194.239	-18.94
194.458	30.21
194.678	62.98
194.897	26.11
195.116	-10.75
195.335	67.07
195.555	40.45
195.774	79.36
195.993	40.45
196.212	-18.94
196.432	28.16
196.651	54.78
196.87	1.54
197.089	103.93
197.308	56.83
197.528	93.69
197.747	73.21
197.966	48.64
198.185	183.81
198.404	9.73
198.623	54.78
198.842	93.69
199.062	46.59
199.281	54.78
199.5	73.21
199.719	54.78
199.938	65.02
200.157	38.4
200.376	56.83
200.595	30.21
200.814	67.07
201.033	11.78
201.252	42.5
201.471	38.4
201.69	103.93
201.909	40.45
202.128	54.78
202.347	28.16
202.566	-6.66
202.785	-16.9
203.004	7.68
203.223	91.65
203.442	17.92
203.661	-18.94
203.879	13.82
204.098	24.06
204.317	-74.24
204.536	40.45
204.755	75.26
204.974	56.83
205.193	22.02
205.411	89.6
205.63	71.17
205.849	54.78
206.068	-18.94
206.287	62.98
206.505	36.35
206.724	26.11
206.943	42.5
207.162	28.16
207.381	42.5
207.599	79.36
207.818	97.79
208.037	62.98
208.255	40.45
208.474	9.73
208.693	9.73
208.911	17.92
209.13	34.3
209.349	89.6
209.567	22.02
209.786	46.59
210.005	48.64
210.223	-12.8
210.442	46.59
210.661	15.87
210.879	62.98
211.098	-6.66
211.316	3.58
211.535	67.07
211.753	24.06
211.972	48.64
212.191	-4.61
212.409	-12.8
212.628	40.45
212.846	5.63
213.065	77.31
213.283	95.74
213.502	93.69
213.72	13.82
213.938	65.02
214.157	-18.94
214.375	67.07
214.594	17.92
214.812	105.98
215.031	62.98
215.249	50.69
215.467	-2.56
215.686	22.02
215.904	46.59
216.122	48.64
216.341	79.36
216.559	-16.9
216.778	46.59
216.996	93.69
217.214	22.02
217.432	65.02
217.651	46.59
217.869	48.64
218.087	7.68
218.306	-16.9
218.524	95.74
218.742	28.16
218.96	38.4
219.179	73.21
219.397	5.63
219.615	87.55
219.833	15.87
220.051	-2.56
220.27	44.54
220.488	79.36
220.706	81.41
220.924	75.26
221.142	-10.75
221.36	-23.04
221.578	15.87
221.796	46.59
222.015	-39.42
222.233	28.16
222.451	69.12
222.669	11.78
222.887	13.82
223.105	9.73
223.323	19.97
223.541	46.59
223.759	112.13
223.977	19.97
224.195	9.73
224.413	99.84
224.631	65.02
224.849	26.11
225.067	75.26
225.285	17.92
225.503	38.4
225.721	7.68
225.939	-35.33
226.157	32.26
226.375	103.93
226.592	17.92
226.81	69.12
227.028	38.4
227.246	97.79
227.464	-8.7
227.682	157.18
227.9	81.41
228.117	52.74
228.335	-10.75
228.553	48.64
228.771	50.69
228.989	30.21
229.206	58.88
229.424	-16.9
229.642	73.21
229.86	40.45
230.077	52.74
230.295	13.82
230.513	52.74
230.731	52.74
230.948	71.17
231.166	22.02
231.384	46.59
231.601	30.21
231.819	73.21
232.037	5.63
232.254	22.02
232.472	34.3
232.689	-0.51
232.907	52.74
233.125	62.98
233.342	-12.8
233.56	42.5
233.777	-16.9
233.995	40.45
234.213	103.93
234.43	79.36
234.648	73.21
234.865	-29.18
235.083	81.41
235.3	40.45
235.518	85.5
235.735	91.65
235.953	46.59
236.17	91.65
236.388	32.26
236.605	99.84
236.822	128.51
237.04	136.7
237.257	56.83
237.475	116.22
237.692	81.41
237.909	65.02
238.127	1.54
238.344	56.83
238.562	32.26
238.779	9.73
238.996	28.16
239.214	34.3
239.431	118.27
239.648	67.07
239.865	32.26
240.083	71.17
240.3	38.4
240.517	24.06
240.735	38.4
240.952	73.21
241.169	42.5
241.386	65.02
241.603	38.4
241.821	32.26
242.038	71.17
242.255	34.3
242.472	85.5
242.689	65.02
242.907	54.78
243.124	40.45
243.341	11.78
243.558	9.73
243.775	7.68
243.992	46.59
244.209	26.11
244.426	73.21
244.643	52.74
244.86	50.69
245.078	-10.75
245.295	75.26
245.512	-18.94
245.729	56.83
245.946	75.26
246.163	91.65
246.38	17.92
246.597	40.45
246.814	22.02
247.031	140.8
247.248	103.93
247.464	103.93
247.681	40.45
247.898	13.82
248.115	89.6
248.332	-18.94
248.549	46.59
248.766	118.27
248.983	124.41
249.2	26.11
249.417	122.37
249.633	138.75
249.85	62.98
250.067	50.69
250.284	99.84
250.501	50.69
250.717	22.02
250.934	-8.7
251.151	3.58
251.368	50.69
251.585	71.17
251.801	48.64
252.018	48.64
252.235	108.03
252.451	83.45
252.668	42.5
252.885	17.92
253.102	17.92
253.318	15.87
253.535	46.59
253.752	71.17
253.968	138.75
254.185	-6.66
254.401	32.26
254.618	62.98
254.835	5.63
255.051	97.79
255.268	38.4
255.484	69.12
255.701	50.69
255.917	42.5
256.134	1.54
256.351	36.35
256.567	5.63
256.784	112.13
257	7.68
257.217	73.21
257.433	30.21
257.65	54.78
257.866	15.87
258.082	17.92
258.299	-14.85
258.515	67.07
258.732	-10.75
258.948	24.06
259.165	48.64
259.381	54.78
259.597	24.06
259.814	71.17
260.03	56.83
260.246	42.5
260.463	105.98
260.679	56.83
260.895	48.64
261.112	-0.51
261.328	50.69
261.544	79.36
261.761	65.02
261.977	34.3
262.193	-41.47
262.409	54.78
262.626	95.74
262.842	79.36
263.058	56.83
263.274	81.41
263.49	-33.28
263.707	95.74
263.923	73.21
264.139	-51.71
264.355	67.07
264.571	95.74
264.787	81.41
265.004	67.07
265.22	32.26
265.436	34.3
265.652	26.11
265.868	26.11
266.084	22.02
266.3	30.21
266.516	-20.99
266.732	99.84
266.948	11.78
267.164	99.84
267.38	52.74
267.596	65.02
267.812	30.21
268.028	38.4
268.244	46.59
268.46	81.41
268.676	38.4
268.892	9.73
269.108	-8.7
269.324	65.02
269.54	9.73
269.756	99.84
269.972	-45.57
270.188	62.98
270.403	-8.7
270.619	17.92
270.835	-2.56
271.051	-16.9
271.267	46.59
271.483	38.4
271.698	54.78
271.914	-8.7
272.13	46.59
272.346	1.54
272.562	30.21
272.777	32.26
272.993	48.64
273.209	-10.75
273.425	7.68
273.64	17.92
273.856	42.5
274.072	138.75
274.287	44.54
274.503	83.45
274.719	54.78
274.934	13.82
275.15	-0.51
275.366	95.74
275.581	30.21
275.797	54.78
276.012	54.78
276.228	22.02
276.444	-25.09
276.659	52.74
276.875	5.63
277.09	79.36
277.306	-6.66
277.521	136.7
277.737	79.36
277.952	112.13
278.168	62.98
278.383	-6.66
278.599	71.17
278.814	120.32
279.03	7.68
279.245	75.26
279.461	24.06
279.676	42.5
279.892	5.63
280.107	22.02
280.322	75.26
280.538	24.06
280.753	87.55
280.969	9.73
281.184	7.68
281.399	157.18
281.615	132.61
281.83	110.08
282.045	62.98
282.26	24.06
282.476	7.68
282.691	-16.9
282.906	40.45
283.122	13.82
283.337	-27.14
283.552	52.74
283.767	26.11
283.983	13.82
284.198	42.5
284.413	112.13
284.628	65.02
284.843	46.59
285.058	-14.85
285.274	28.16
285.489	-8.7
285.704	105.98
285.919	24.06
286.134	58.88
286.349	22.02
286.564	54.78
286.779	1.54
286.995	40.45
287.21	42.5
287.425	13.82
287.64	58.88
287.855	56.83
288.07	-6.66
288.285	99.84
288.5	52.74
288.715	40.45
288.93	128.51
289.145	75.26
289.36	42.5
289.575	42.5
289.79	54.78
290.004	71.17
290.219	62.98
290.434	-27.14
290.649	103.93
290.864	22.02
291.079	54.78
291.294	62.98
291.509	30.21
291.724	155.13
291.938	46.59
292.153	40.45
292.368	46.59
292.583	40.45
292.798	130.56
293.012	81.41
293.227	46.59
293.442	-23.04
293.657	67.07
293.871	52.74
294.086	9.73
294.301	122.37
294.516	38.4
294.73	71.17
294.945	11.78
295.16	-2.56
295.374	38.4
295.589	79.36
295.804	-10.75
296.018	134.65
296.233	46.59
296.447	7.68
296.662	81.41
296.877	3.58
297.091	34.3
297.306	5.63
297.52	22.02
297.735	36.35
297.949	15.87
298.164	136.7
298.378	50.69
298.593	44.54
298.807	136.7
299.022	71.17
299.236	112.13
299.451	91.65
299.665	28.16
299.88	-2.56
300.094	22.02
300.309	87.55
300.523	9.73
300.737	95.74
300.952	81.41
301.166	32.26
301.381	75.26
301.595	54.78
301.809	34.3
302.024	95.74
302.238	56.83
302.452	99.84
302.667	22.02
302.881	60.93
303.095	79.36
303.309	138.75
303.524	22.02
303.738	32.26
303.952	101.89
304.166	116.22
304.381	15.87
304.595	91.65
304.809	89.6
305.023	79.36
305.237	22.02
305.452	99.84
305.666	24.06
305.88	99.84
306.094	99.84
306.308	62.98
306.522	73.21
306.736	38.4
306.95	56.83
307.164	54.78
307.379	5.63
307.593	75.26
307.807	75.26
308.021	62.98
308.235	71.17
308.449	-31.23
308.663	7.68
308.877	87.55
309.091	22.02
309.305	130.56
309.519	71.17
309.733	71.17
309.947	-18.94
310.161	46.59
310.374	-10.75
310.588	155.13
310.802	46.59
311.016	-59.9
311.23	62.98
311.444	44.54
311.658	22.02
311.872	114.17
312.085	34.3
312.299	30.21
312.513	79.36
312.727	36.35
312.941	65.02
313.154	30.21
313.368	34.3
313.582	50.69
313.796	60.93
314.009	32.26
314.223	56.83
314.437	48.64
314.651	71.17
314.864	73.21
315.078	-12.8
315.292	120.32
315.505	17.92
315.719	60.93
315.933	44.54
316.146	13.82
316.36	-57.86
316.573	65.02
316.787	103.93
317.001	38.4
317.214	24.06
317.428	-16.9
317.641	58.88
317.855	-33.28
318.068	67.07
318.282	124.41
318.495	112.13
318.709	13.82
318.922	54.78
319.136	65.02
319.349	32.26
319.563	38.4
319.776	136.7
319.99	-8.7
320.203	62.98
320.417	40.45
320.63	24.06
320.843	101.89
321.057	-23.04
321.27	65.02
321.483	38.4
321.697	81.41
321.91	89.6
322.124	38.4
322.337	-8.7
322.55	22.02
322.763	-2.56
322.977	26.11
323.19	-0.51
323.403	114.17
323.617	99.84
323.83	36.35
324.043	40.45
324.256	32.26
324.469	13.82
324.683	110.08
324.896	79.36
325.109	11.78
325.322	-18.94
325.535	38.4
325.748	120.32
325.962	-45.57
326.175	95.74
326.388	36.35
326.601	101.89
326.814	48.64
327.027	79.36
327.24	79.36
327.453	101.89
327.666	5.63
327.879	65.02
328.092	128.51
328.305	89.6
328.518	46.59
328.731	17.92
328.944	71.17
329.157	-18.94
329.37	24.06
329.583	30.21
329.796	124.41
330.009	-41.47
330.222	75.26
330.435	38.4
330.648	17.92
330.861	69.12
331.073	28.16
331.286	65.02
331.499	103.93
331.712	-23.04
331.925	11.78
332.138	95.74
332.35	56.83
332.563	22.02
332.776	-2.56
332.989	38.4
333.202	101.89
333.414	38.4
333.627	79.36
333.84	38.4
334.053	91.65
334.265	-12.8
334.478	46.59
334.691	-10.75
334.903	65.02
335.116	46.59
335.329	5.63
335.541	65.02
335.754	22.02
335.966	46.59
336.179	38.4
336.392	67.07
336.604	77.31
336.817	46.59
337.029	24.06
337.242	75.26
337.454	97.79
337.667	22.02
337.88	103.93
338.092	32.26
338.305	24.06
338.517	-14.85
338.729	69.12
338.942	79.36
339.154	-0.51
339.367	34.3
339.579	52.74
339.792	-16.9
340.004	87.55
340.217	79.36
340.429	58.88
340.641	-0.51
340.854	13.82
341.066	42.5
341.278	91.65
341.491	26.11
341.703	75.26
341.915	71.17
342.128	79.36
342.34	22.02
342.552	54.78
342.764	48.64
342.977	13.82
343.189	79.36
343.401	89.6
343.613	11.78
343.826	30.21
344.038	79.36
344.25	65.02
344.462	1.54
344.674	116.22
344.886	28.16
345.099	142.85
345.311	142.85
345.523	17.92
345.735	50.69
345.947	58.88
346.159	38.4
346.371	48.64
346.583	132.61
346.795	144.89
347.007	-4.61
347.219	89.6
347.431	-12.8
347.643	54.78
347.855	89.6
348.067	99.84
348.279	5.63
348.491	48.64
348.703	91.65
348.915	30.21
349.127	77.31
349.339	40.45
349.551	79.36
349.763	77.31
349.975	87.55
350.187	103.93
350.399	112.13
350.61	62.98
350.822	77.31
351.034	5.63
351.246	32.26
351.458	103.93
351.669	71.17
351.881	87.55
352.093	108.03
352.305	26.11
352.517	-10.75
352.728	99.84
352.94	9.73
353.152	103.93
353.363	-10.75
353.575	120.32
353.787	136.7
353.999	50.69
354.21	87.55
354.422	56.83
354.633	30.21
354.845	46.59
355.057	48.64
355.268	79.36
355.48	46.59
355.692	75.26
355.903	42.5
356.115	120.32
356.326	30.21
356.538	99.84
356.749	122.37
356.961	91.65
357.172	67.07
357.384	32.26
357.595	177.66
357.807	38.4
358.018	13.82
358.23	77.31
358.441	153.09
358.653	75.26
358.864	101.89
359.075	9.73
359.287	91.65
359.498	126.46
359.709	99.84
359.921	11.78
360.132	-10.75
360.344	24.06
360.555	32.26
360.766	103.93
360.977	75.26
361.189	122.37
361.4	87.55
361.611	38.4
361.823	71.17
362.034	60.93
362.245	-20.99
362.456	83.45
362.667	13.82
362.879	-35.33
363.09	81.41
363.301	67.07
363.512	-51.71
363.723	-10.75
363.935	38.4
364.146	144.89
364.357	54.78
364.568	77.31
364.779	79.36
364.99	56.83
365.201	87.55
365.412	99.84
365.623	24.06
365.834	91.65
366.045	50.69
366.256	122.37
366.467	73.21
366.678	44.54
366.889	46.59
367.1	1.54
367.311	79.36
367.522	87.55
367.733	3.58
367.944	136.7
368.155	89.6
368.366	67.07
368.577	30.21
368.788	91.65
368.999	67.07
369.209	60.93
369.42	28.16
369.631	89.6
369.842	91.65
370.053	87.55
370.264	38.4
370.474	50.69
370.685	108.03
370.896	62.98
371.107	69.12
371.317	97.79
371.528	140.8
371.739	105.98
371.95	112.13
372.16	103.93
372.371	-0.51
372.582	87.55
372.792	103.93
373.003	54.78
373.214	26.11
373.424	9.73
373.635	91.65
373.846	50.69
374.056	-39.42
374.267	103.93
374.477	7.68
374.688	50.69
374.898	67.07
375.109	36.35
375.319	114.17
375.53	120.32
375.74	108.03
375.951	93.69
376.161	-16.9
376.372	153.09
376.582	-2.56
376.793	99.84
377.003	11.78
377.214	60.93
377.424	30.21
377.635	62.98
377.845	103.93
378.055	116.22
378.266	24.06
378.476	95.74
378.686	71.17
378.897	75.26
379.107	77.31
379.317	40.45
379.528	-2.56
379.738	130.56
379.948	83.45
380.158	46.59
380.369	-18.94
380.579	110.08
380.789	69.12
380.999	50.69
381.21	146.94
381.42	46.59
381.63	105.98
381.84	87.55
382.05	87.55
382.261	138.75
382.471	69.12
382.681	79.36
382.891	112.13
383.101	48.64
383.311	17.92
383.521	110.08
383.731	124.41
383.941	114.17
384.151	112.13
384.361	56.83
384.571	138.75
384.781	79.36
384.991	140.8
385.201	189.95
385.411	151.04
385.621	67.07
385.831	60.93
386.041	91.65
386.251	65.02
386.461	24.06
386.671	58.88
386.881	165.37
387.091	48.64
387.301	114.17
387.511	30.21
387.72	97.79
387.93	32.26
388.14	105.98
388.35	163.33
388.56	75.26
388.769	103.93
388.979	56.83
389.189	77.31
389.399	46.59
389.609	54.78
389.818	54.78
390.028	112.13
390.238	132.61
390.447	48.64
390.657	120.32
390.867	93.69
391.076	-29.18
391.286	126.46
391.496	114.17
391.705	56.83
391.915	136.7
392.125	114.17
392.334	48.64
392.544	105.98
392.753	110.08
392.963	58.88
393.172	146.94
393.382	165.37
393.591	60.93
393.801	7.68
394.01	95.74
394.22	124.41
394.429	124.41
394.639	38.4
394.848	136.7
395.058	163.33
395.267	116.22
395.477	165.37
395.686	112.13
395.895	214.52
396.105	161.28
396.314	132.61
396.524	181.76
396.733	132.61
396.942	171.52
397.152	105.98
397.361	148.99
397.57	83.45
397.78	126.46
397.989	83.45
398.198	198.14
398.407	97.79
398.617	140.8
398.826	153.09
399.035	71.17
399.244	173.57
399.453	183.81
399.663	77.31
399.872	132.61
400.081	97.79
400.29	124.41
400.499	95.74
400.708	196.09
400.917	81.41
401.127	79.36
401.336	132.61
401.545	226.81
401.754	189.95
401.963	128.51
402.172	165.37
402.381	44.54
402.59	226.81
402.799	185.85
403.008	136.7
403.217	81.41
403.426	112.13
403.635	97.79
403.844	79.36
404.053	148.99
404.262	105.98
404.471	163.33
404.68	177.66
404.888	196.09
405.097	196.09
405.306	235
405.515	202.24
405.724	171.52
405.933	155.13
406.142	185.85
406.35	232.96
406.559	165.37
406.768	148.99
406.977	271.87
407.185	226.81
407.394	228.86
407.603	247.29
407.812	204.28
408.02	290.3
408.229	286.2
408.438	228.86
408.646	237.05
408.855	280.06
409.064	327.16
409.272	316.92
409.481	296.44
409.69	247.29
409.898	306.68
410.107	292.35
410.315	364.03
410.524	372.22
410.733	472.57
410.941	368.12
411.15	382.46
411.358	491
411.567	468.47
411.775	441.85
411.984	433.66
412.192	534.01
412.401	548.34
412.609	611.83
412.818	529.91
413.026	587.26
413.234	660.98
413.443	630.26
413.651	548.34
413.86	703.99
414.068	751.09
414.276	687.61
414.485	693.75
414.693	740.85
414.901	810.48
415.11	794.1
415.318	845.3
415.526	853.49
415.734	974.32
415.943	921.07
416.151	947.7
416.359	949.75
416.567	1005.04
416.776	1062.38
416.984	1054.19
417.192	1078.77
417.4	1025.52
417.608	1127.92
417.817	1189.36
418.025	1318.38
418.233	1324.52
418.441	1244.65
418.649	1416.68
418.857	1422.83
419.065	1439.21
419.273	1484.27
419.481	1512.94
419.689	1570.28
419.897	1725.93
420.105	1756.65
420.313	1674.73
420.521	1807.84
420.729	1983.97
420.937	1889.76
421.145	2057.7
421.353	1963.49
421.561	2106.85
421.769	2168.29
421.977	2237.92
422.185	2217.44
422.393	2475.48
422.601	2598.36
422.809	2579.93
423.017	2620.89
423.224	2661.85
423.432	2858.45
423.64	2790.87
423.848	3007.95
424.056	2997.71
424.263	3136.98
424.471	3192.27
424.679	3315.15
424.887	3497.42
425.094	3556.81
425.302	3554.76
425.51	3694.02
425.718	3769.8
425.925	3765.7
426.133	4060.61
426.341	4296.13
426.548	4416.96
426.756	4386.24
426.964	4412.86
427.171	4570.55
427.379	4857.27
427.586	4912.57
427.794	5225.9
428.001	5217.71
428.209	5520.81
428.417	5547.44
428.624	5846.44
428.832	5903.78
429.039	5821.86
429.247	5860.77
429.454	6428.06
429.662	6739.35
429.869	6167.97
430.076	6770.07
430.284	6493.6
430.491	7118.23
430.699	7265.68
430.906	7370.13
431.114	7210.39
431.321	7564.68
431.528	7624.08
431.736	8197.51
431.943	8439.17
432.15	8379.78
432.358	8404.35
432.565	8983.93
432.772	8836.47
432.979	9213.3
433.187	9520.49
433.394	9745.77
433.601	10194.28
433.808	10220.9
434.016	10257.76
434.223	10618.21
434.43	11183.45
434.637	11058.52
434.844	11613.52
435.052	11867.47
435.259	11826.51
435.466	12027.21
435.673	11662.67
435.88	12657.98
436.087	13266.23
436.294	13333.81
436.501	12887.36
436.708	13323.57
436.915	13702.45
437.122	14363.94
437.329	14120.23
437.537	14712.1
437.743	14689.57
437.95	14949.66
438.157	15668.5
438.364	16102.67
438.571	16037.13
438.778	16317.7
438.985	17859.82
439.192	16659.71
439.399	17597.68
439.606	16971.01
439.813	18117.87
440.02	19145.95
440.227	18848.99
440.433	18848.99
440.64	19352.79
440.847	19393.75
441.054	19848.4
441.261	20729.03
441.467	20604.1
441.674	20966.59
441.881	21667
442.088	21730.48
442.294	21302.46
442.501	22090.93
442.708	22166.7
442.914	23291.04
443.121	24429.71
443.328	24048.79
443.534	25474.17
443.741	24796.29
443.948	24165.52
444.154	26211.44
444.361	25674.87
444.568	26219.63
444.774	25830.52
444.981	26389.61
445.187	27407.45
445.394	28318.8
445.6	27966.55
445.807	30637.1
446.013	29303.87
446.22	29584.44
446.426	31159.33
446.633	31138.85
446.839	32218.13
447.046	31151.14
447.252	32242.71
447.459	32484.37
447.665	32390.16
447.871	34051.06
448.078	35017.71
448.284	33831.93
448.491	34563.06
448.697	35933.15
448.903	36791.25
449.11	36838.35
449.316	36078.55
449.522	36316.12
449.728	37542.85
449.935	37911.49
450.141	37837.76
450.347	39023.53
450.553	37702.59
450.76	38226.87
450.966	39420.84
451.172	38937.52
451.378	39551.91
451.584	38960.05
451.791	40250.27
451.997	39496.61
452.203	40280.99
452.409	40242.07
452.615	40246.17
452.821	38732.72
453.027	38200.25
453.233	40289.18
453.44	39127.98
453.646	39261.1
453.852	39486.37
454.058	40123.29
454.264	38607.79
454.47	39777.19
454.676	38437.81
454.882	39908.26
455.088	36471.76
455.294	37045.19
455.5	37923.77
455.705	37983.16
455.911	36328.41
456.117	35781.6
456.323	35589.09
456.529	33211.4
456.735	35308.52
456.941	34020.34
457.147	33500.16
457.352	32740.36
457.558	32295.96
457.764	32082.97
457.97	31726.62
458.176	31274.02
458.381	30985.26
458.587	29781.05
458.793	29713.47
458.999	27952.21
459.204	30288.95
459.41	29389.89
459.616	27546.72
459.821	27386.97
460.027	27481.18
460.233	26772.58
460.438	25607.29
460.644	25814.13
460.85	24585.35
461.055	24261.77
461.261	23901.33
461.466	22445.23
461.672	21769.4
461.878	23221.41
462.083	21697.72
462.289	21228.73
462.494	20964.54
462.7	19920.08
462.905	19553.49
463.111	20002
463.316	20446.41
463.522	19858.64
463.727	19711.19
463.932	20042.96
464.138	19576.02
464.343	19993.81
464.549	19221.72
464.754	19903.7
464.959	19797.2
465.165	19512.53
465.37	18638.05
465.575	18293.99
465.781	18877.66
465.986	19156.19
466.191	18371.82
466.397	18042.09
466.602	16958.72
466.807	17853.68
467.012	17929.45
