Data from USB4F104151__187__14-20-19-090.txt Node

Date: Thu Mar 13 14:20:19 EDT 2025
User: louis
Spectrometer: USB4F10415
Trigger mode: 4
Integration Time (sec): 2.000000E-2
Scans to average: 1
Electric dark correction enabled: true
Nonlinearity correction enabled: false
Boxcar width: 0
XAxis mode: Wavelengths
Number of Pixels in Spectrum: 3648
>>>>>Begin Spectral Data<<<<<
178.204	-39.59
178.424	-39.59
178.644	-39.59
178.864	-29.35
179.084	-92.84
179.304	54.61
179.524	-0.68
179.744	-43.69
179.964	-8.87
180.184	-23.21
180.404	-2.73
180.624	-25.26
180.844	19.8
181.064	-33.45
181.283	27.99
181.503	17.75
181.723	17.75
181.943	-53.93
182.163	-0.68
182.383	-2.73
182.602	83.28
182.822	101.72
183.042	34.13
183.262	-31.4
183.482	-27.31
183.701	42.32
183.921	60.76
184.141	-47.79
184.361	75.09
184.58	38.23
184.8	21.85
185.02	11.61
185.239	40.28
185.459	68.95
185.679	81.24
185.898	75.09
186.118	-2.73
186.338	58.71
186.557	9.56
186.777	-60.07
186.997	42.32
187.216	-4.78
187.436	75.09
187.655	87.38
187.875	91.48
188.095	17.75
188.314	116.05
188.534	68.95
188.753	17.75
188.973	-49.83
189.192	93.52
189.412	-10.92
189.631	85.33
189.851	66.9
190.07	36.18
190.29	68.95
190.509	-10.92
190.729	-4.78
190.948	54.61
191.168	132.44
191.387	-8.87
191.607	46.42
191.826	62.8
192.045	-6.83
192.265	17.75
192.484	32.08
192.704	11.61
192.923	3.41
193.142	52.56
193.362	42.32
193.581	77.14
193.8	34.13
194.02	17.75
194.239	21.85
194.458	116.05
194.678	44.37
194.897	9.56
195.116	1.37
195.335	-31.4
195.555	136.53
195.774	5.46
195.993	54.61
196.212	23.89
196.432	58.71
196.651	48.47
196.87	-6.83
197.089	81.24
197.308	9.56
197.528	60.76
197.747	-78.51
197.966	17.75
198.185	52.56
198.404	13.65
198.623	46.42
198.842	42.32
199.062	95.57
199.281	89.43
199.5	48.47
199.719	17.75
199.938	17.75
200.157	17.75
200.376	40.28
200.595	52.56
200.814	-19.11
201.033	42.32
201.252	5.46
201.471	-39.59
201.69	58.71
201.909	91.48
202.128	-6.83
202.347	21.85
202.566	-23.21
202.785	83.28
203.004	50.52
203.223	99.67
203.442	-39.59
203.661	38.23
203.879	-4.78
204.098	30.04
204.317	-10.92
204.536	66.9
204.755	46.42
204.974	23.89
205.193	81.24
205.411	142.68
205.63	42.32
205.849	-27.31
206.068	-23.21
206.287	75.09
206.505	5.46
206.724	-15.02
206.943	40.28
207.162	21.85
207.381	-6.83
207.599	66.9
207.818	66.9
208.037	17.75
208.255	44.37
208.474	99.67
208.693	-10.92
208.911	-39.59
209.13	68.95
209.349	-55.98
209.567	-0.68
209.786	34.13
210.005	73.04
210.223	50.52
210.442	-43.69
210.661	-8.87
210.879	111.96
211.098	-21.16
211.316	30.04
211.535	11.61
211.753	-10.92
211.972	21.85
212.191	17.75
212.409	11.61
212.628	27.99
212.846	-0.68
213.065	148.82
213.283	83.28
213.502	46.42
213.72	-10.92
213.938	40.28
214.157	62.8
214.375	85.33
214.594	-21.16
214.812	68.95
215.031	11.61
215.249	-10.92
215.467	3.41
215.686	-45.74
215.904	109.91
216.122	56.66
216.341	99.67
216.559	13.65
216.778	99.67
216.996	11.61
217.214	34.13
217.432	75.09
217.651	17.75
217.869	75.09
218.087	83.28
218.306	23.89
218.524	-35.5
218.742	32.08
218.96	75.09
219.179	-4.78
219.397	101.72
219.615	-31.4
219.833	36.18
220.051	27.99
220.27	9.56
220.488	44.37
220.706	38.23
220.924	44.37
221.142	17.75
221.36	23.89
221.578	-31.4
221.796	46.42
222.015	62.8
222.233	83.28
222.451	46.42
222.669	-47.79
222.887	50.52
223.105	-45.74
223.323	17.75
223.541	50.52
223.759	-19.11
223.977	42.32
224.195	77.14
224.413	99.67
224.631	32.08
224.849	30.04
225.067	134.48
225.285	87.38
225.503	1.37
225.721	-70.31
225.939	71
226.157	40.28
226.375	99.67
226.592	66.9
226.81	68.95
227.028	27.99
227.246	91.48
227.464	-23.21
227.682	83.28
227.9	36.18
228.117	99.67
228.335	58.71
228.553	71
228.771	54.61
228.989	25.94
229.206	44.37
229.424	62.8
229.642	5.46
229.86	-8.87
230.077	-23.21
230.295	54.61
230.513	54.61
230.731	1.37
230.948	1.37
231.166	50.52
231.384	17.75
231.601	21.85
231.819	44.37
232.037	-39.59
232.254	3.41
232.472	36.18
232.689	30.04
232.907	25.94
233.125	17.75
233.342	13.65
233.56	-37.55
233.777	-55.98
233.995	48.47
234.213	21.85
234.43	1.37
234.648	-29.35
234.865	-23.21
235.083	-17.07
235.3	68.95
235.518	-6.83
235.735	50.52
235.953	27.99
236.17	54.61
236.388	79.19
236.605	17.75
236.822	38.23
237.04	103.76
237.257	81.24
237.475	42.32
237.692	66.9
237.909	-6.83
238.127	-49.83
238.344	19.8
238.562	52.56
238.779	34.13
238.996	34.13
239.214	58.71
239.431	85.33
239.648	-2.73
239.865	-31.4
240.083	9.56
240.3	25.94
240.517	-27.31
240.735	25.94
240.952	46.42
241.169	42.32
241.386	-23.21
241.603	-6.83
241.821	-6.83
242.038	50.52
242.255	38.23
242.472	-19.11
242.689	15.7
242.907	101.72
243.124	36.18
243.341	25.94
243.558	-39.59
243.775	-58.03
243.992	62.8
244.209	-4.78
244.426	64.85
244.643	85.33
244.86	-88.75
245.078	36.18
245.295	50.52
245.512	44.37
245.729	5.46
245.946	54.61
246.163	40.28
246.38	58.71
246.597	21.85
246.814	30.04
247.031	79.19
247.248	13.65
247.464	34.13
247.681	-2.73
247.898	23.89
248.115	21.85
248.332	17.75
248.549	75.09
248.766	77.14
248.983	42.32
249.2	-2.73
249.417	142.68
249.633	19.8
249.85	-6.83
250.067	48.47
250.284	-8.87
250.501	60.76
250.717	21.85
250.934	-31.4
251.151	50.52
251.368	52.56
251.585	103.76
251.801	-31.4
252.018	-33.45
252.235	66.9
252.451	5.46
252.668	15.7
252.885	13.65
253.102	42.32
253.318	19.8
253.535	-0.68
253.752	42.32
253.968	13.65
254.185	5.46
254.401	46.42
254.618	27.99
254.835	3.41
255.051	58.71
255.268	91.48
255.484	42.32
255.701	68.95
255.917	34.13
256.134	-64.17
256.351	-10.92
256.567	-21.16
256.784	38.23
257	-29.35
257.217	124.24
257.433	1.37
257.65	66.9
257.866	105.81
258.082	9.56
258.299	19.8
258.515	52.56
258.732	11.61
258.948	-31.4
259.165	-39.59
259.381	42.32
259.597	-68.27
259.814	103.76
260.03	111.96
260.246	-10.92
260.463	79.19
260.679	73.04
260.895	-6.83
261.112	58.71
261.328	-29.35
261.544	17.75
261.761	34.13
261.977	-39.59
262.193	21.85
262.409	66.9
262.626	101.72
262.842	-78.51
263.058	-21.16
263.274	-37.55
263.49	23.89
263.707	77.14
263.923	17.75
264.139	42.32
264.355	27.99
264.571	77.14
264.787	44.37
265.004	87.38
265.22	48.47
265.436	64.85
265.652	-19.11
265.868	17.75
266.084	1.37
266.3	-27.31
266.516	21.85
266.732	-12.97
266.948	66.9
267.164	-15.02
267.38	-4.78
267.596	21.85
267.812	38.23
268.028	42.32
268.244	25.94
268.46	-19.11
268.676	25.94
268.892	11.61
269.108	-31.4
269.324	9.56
269.54	36.18
269.756	60.76
269.972	66.9
270.188	23.89
270.403	-27.31
270.619	5.46
270.835	3.41
271.051	13.65
271.267	19.8
271.483	7.51
271.698	-62.12
271.914	68.95
272.13	42.32
272.346	-21.16
272.562	-6.83
272.777	85.33
272.993	-4.78
273.209	17.75
273.425	13.65
273.64	32.08
273.856	40.28
274.072	-8.87
274.287	27.99
274.503	124.24
274.719	38.23
274.934	17.75
275.15	-2.73
275.366	71
275.581	56.66
275.797	25.94
276.012	-4.78
276.228	42.32
276.444	1.37
276.659	58.71
276.875	105.81
277.09	-17.07
277.306	11.61
277.521	81.24
277.737	-2.73
277.952	-12.97
278.168	-47.79
278.383	23.89
278.599	-2.73
278.814	75.09
279.03	36.18
279.245	7.51
279.461	9.56
279.676	-4.78
279.892	3.41
280.107	52.56
280.322	3.41
280.538	50.52
280.753	56.66
280.969	107.86
281.184	34.13
281.399	99.67
281.615	-23.21
281.83	34.13
282.045	3.41
282.26	83.28
282.476	19.8
282.691	85.33
282.906	36.18
283.122	44.37
283.337	27.99
283.552	83.28
283.767	34.13
283.983	46.42
284.198	17.75
284.413	99.67
284.628	-60.07
284.843	34.13
285.058	50.52
285.274	-19.11
285.489	-10.92
285.704	38.23
285.919	17.75
286.134	-10.92
286.349	54.61
286.564	-6.83
286.779	66.9
286.995	36.18
287.21	-4.78
287.425	54.61
287.64	30.04
287.855	1.37
288.07	66.9
288.285	50.52
288.5	54.61
288.715	91.48
288.93	27.99
289.145	-23.21
289.36	58.71
289.575	34.13
289.79	64.85
290.004	-17.07
290.219	99.67
290.434	44.37
290.649	30.04
290.864	66.9
291.079	64.85
291.294	11.61
291.509	9.56
291.724	81.24
291.938	44.37
292.153	46.42
292.368	-33.45
292.583	27.99
292.798	9.56
293.012	93.52
293.227	56.66
293.442	-19.11
293.657	23.89
293.871	40.28
294.086	30.04
294.301	85.33
294.516	71
294.73	-4.78
294.945	-15.02
295.16	-15.02
295.374	60.76
295.589	34.13
295.804	3.41
296.018	50.52
296.233	132.44
296.447	17.75
296.662	68.95
296.877	75.09
297.091	1.37
297.306	54.61
297.52	21.85
297.735	5.46
297.949	85.33
298.164	19.8
298.378	9.56
298.593	36.18
298.807	44.37
299.022	7.51
299.236	73.04
299.451	25.94
299.665	30.04
299.88	-51.88
300.094	42.32
300.309	71
300.523	-4.78
300.737	1.37
300.952	-35.5
301.166	107.86
301.381	3.41
301.595	54.61
301.809	62.8
302.024	34.13
302.238	50.52
302.452	77.14
302.667	83.28
302.881	81.24
303.095	46.42
303.309	48.47
303.524	60.76
303.738	66.9
303.952	23.89
304.166	34.13
304.381	64.85
304.595	7.51
304.809	44.37
305.023	128.34
305.237	27.99
305.452	62.8
305.666	62.8
305.88	-2.73
306.094	79.19
306.308	87.38
306.522	46.42
306.736	9.56
306.95	-10.92
307.164	-47.79
307.379	71
307.593	13.65
307.807	50.52
308.021	75.09
308.235	25.94
308.449	-0.68
308.663	-4.78
308.877	185.68
309.091	17.75
309.305	62.8
309.519	19.8
309.733	34.13
309.947	25.94
310.161	-78.51
310.374	25.94
310.588	77.14
310.802	52.56
311.016	30.04
311.23	79.19
311.444	-2.73
311.658	38.23
311.872	52.56
312.085	62.8
312.299	68.95
312.513	25.94
312.727	46.42
312.941	50.52
313.154	42.32
313.368	77.14
313.582	9.56
313.796	21.85
314.009	75.09
314.223	36.18
314.437	44.37
314.651	11.61
314.864	68.95
315.078	17.75
315.292	1.37
315.505	9.56
315.719	58.71
315.933	-45.74
316.146	-21.16
316.36	-2.73
316.573	48.47
316.787	68.95
317.001	36.18
317.214	9.56
317.428	32.08
317.641	52.56
317.855	21.85
318.068	-62.12
318.282	50.52
318.495	99.67
318.709	50.52
318.922	19.8
319.136	73.04
319.349	85.33
319.563	50.52
319.776	83.28
319.99	3.41
320.203	-23.21
320.417	-23.21
320.63	30.04
320.843	132.44
321.057	-2.73
321.27	46.42
321.483	17.75
321.697	93.52
321.91	15.7
322.124	79.19
322.337	44.37
322.55	-45.74
322.763	34.13
322.977	19.8
323.19	-4.78
323.403	19.8
323.617	73.04
323.83	5.46
324.043	17.75
324.256	56.66
324.469	3.41
324.683	34.13
324.896	-17.07
325.109	13.65
325.322	34.13
325.535	66.9
325.748	-8.87
325.962	1.37
326.175	54.61
326.388	19.8
326.601	128.34
326.814	34.13
327.027	3.41
327.24	32.08
327.453	-51.88
327.666	-23.21
327.879	58.71
328.092	40.28
328.305	93.52
328.518	75.09
328.731	9.56
328.944	42.32
329.157	105.81
329.37	-19.11
329.583	124.24
329.796	66.9
330.009	21.85
330.222	21.85
330.435	85.33
330.648	1.37
330.861	38.23
331.073	50.52
331.286	-4.78
331.499	21.85
331.712	83.28
331.925	27.99
332.138	58.71
332.35	60.76
332.563	36.18
332.776	23.89
332.989	54.61
333.202	77.14
333.414	66.9
333.627	-10.92
333.84	75.09
334.053	71
334.265	-27.31
334.478	122.2
334.691	42.32
334.903	-51.88
335.116	19.8
335.329	44.37
335.541	66.9
335.754	75.09
335.966	27.99
336.179	38.23
336.392	19.8
336.604	64.85
336.817	13.65
337.029	116.05
337.242	17.75
337.454	1.37
337.667	19.8
337.88	58.71
338.092	124.24
338.305	15.7
338.517	21.85
338.729	81.24
338.942	27.99
339.154	-10.92
339.367	17.75
339.579	1.37
339.792	36.18
340.004	46.42
340.217	42.32
340.429	77.14
340.641	46.42
340.854	23.89
341.066	38.23
341.278	64.85
341.491	85.33
341.703	27.99
341.915	17.75
342.128	81.24
342.34	54.61
342.552	44.37
342.764	46.42
342.977	91.48
343.189	-0.68
343.401	71
343.613	58.71
343.826	17.75
344.038	-15.02
344.25	25.94
344.462	36.18
344.674	52.56
344.886	42.32
345.099	27.99
345.311	3.41
345.523	9.56
345.735	-19.11
345.947	48.47
346.159	54.61
346.371	42.32
346.583	21.85
346.795	54.61
347.007	-15.02
347.219	5.46
347.431	50.52
347.643	77.14
347.855	36.18
348.067	103.76
348.279	13.65
348.491	30.04
348.703	42.32
348.915	11.61
349.127	44.37
349.339	30.04
349.551	19.8
349.763	91.48
349.975	54.61
350.187	-35.5
350.399	54.61
350.61	58.71
350.822	9.56
351.034	13.65
351.246	64.85
351.458	52.56
351.669	75.09
351.881	34.13
352.093	152.91
352.305	66.9
352.517	75.09
352.728	118.1
352.94	75.09
353.152	85.33
353.363	9.56
353.575	50.52
353.787	30.04
353.999	66.9
354.21	42.32
354.422	60.76
354.633	54.61
354.845	73.04
355.057	44.37
355.268	89.43
355.48	62.8
355.692	32.08
355.903	27.99
356.115	54.61
356.326	17.75
356.538	36.18
356.749	71
356.961	107.86
357.172	-23.21
357.384	13.65
357.595	87.38
357.807	111.96
358.018	21.85
358.23	38.23
358.441	95.57
358.653	77.14
358.864	116.05
359.075	11.61
359.287	75.09
359.498	50.52
359.709	58.71
359.921	50.52
360.132	9.56
360.344	107.86
360.555	91.48
360.766	52.56
360.977	77.14
361.189	27.99
361.4	68.95
361.611	77.14
361.823	105.81
362.034	81.24
362.245	23.89
362.456	25.94
362.667	30.04
362.879	38.23
363.09	-15.02
363.301	87.38
363.512	-37.55
363.723	-19.11
363.935	77.14
364.146	-0.68
364.357	15.7
364.568	50.52
364.779	-10.92
364.99	107.86
365.201	52.56
365.412	91.48
365.623	75.09
365.834	120.15
366.045	30.04
366.256	64.85
366.467	44.37
366.678	93.52
366.889	66.9
367.1	50.52
367.311	15.7
367.522	109.91
367.733	124.24
367.944	107.86
368.155	83.28
368.366	136.53
368.577	103.76
368.788	99.67
368.999	36.18
369.209	-33.45
369.42	132.44
369.631	68.95
369.842	130.39
370.053	87.38
370.264	71
370.474	34.13
370.685	-12.97
370.896	50.52
371.107	46.42
371.317	79.19
371.528	-15.02
371.739	85.33
371.95	87.38
372.16	52.56
372.371	-15.02
372.582	-19.11
372.792	56.66
373.003	44.37
373.214	134.48
373.424	93.52
373.635	-33.45
373.846	116.05
374.056	-12.97
374.267	27.99
374.477	7.51
374.688	11.61
374.898	27.99
375.109	99.67
375.319	52.56
375.53	181.59
375.74	42.32
375.951	42.32
376.161	58.71
376.372	93.52
376.582	1.37
376.793	89.43
377.003	-2.73
377.214	1.37
377.424	-4.78
377.635	77.14
377.845	19.8
378.055	91.48
378.266	-17.07
378.476	66.9
378.686	34.13
378.897	87.38
379.107	66.9
379.317	66.9
379.528	71
379.738	105.81
379.948	-10.92
380.158	3.41
380.369	52.56
380.579	58.71
380.789	34.13
380.999	1.37
381.21	116.05
381.42	60.76
381.63	11.61
381.84	52.56
382.05	93.52
382.261	50.52
382.471	114
382.681	32.08
382.891	50.52
383.101	44.37
383.311	68.95
383.521	17.75
383.731	50.52
383.941	134.48
384.151	44.37
384.361	95.57
384.571	3.41
384.781	50.52
384.991	56.66
385.201	109.91
385.411	120.15
385.621	97.62
385.831	32.08
386.041	107.86
386.251	62.8
386.461	124.24
386.671	13.65
386.881	79.19
387.091	1.37
387.301	77.14
387.511	87.38
387.72	140.63
387.93	95.57
388.14	66.9
388.35	85.33
388.56	42.32
388.769	95.57
388.979	107.86
389.189	17.75
389.399	77.14
389.609	50.52
389.818	50.52
390.028	25.94
390.238	85.33
390.447	56.66
390.657	-6.83
390.867	48.47
391.076	-4.78
391.286	38.23
391.496	81.24
391.705	38.23
391.915	107.86
392.125	73.04
392.334	91.48
392.544	68.95
392.753	148.82
392.963	95.57
393.172	75.09
393.382	132.44
393.591	52.56
393.801	23.89
394.01	118.1
394.22	-15.02
394.429	50.52
394.639	89.43
394.848	85.33
395.058	79.19
395.267	124.24
395.477	93.52
395.686	157.01
395.895	150.87
396.105	167.25
396.314	83.28
396.524	68.95
396.733	50.52
396.942	136.53
397.152	128.34
397.361	83.28
397.57	64.85
397.78	44.37
397.989	154.96
398.198	177.49
398.407	99.67
398.617	73.04
398.826	44.37
399.035	83.28
399.244	134.48
399.453	136.53
399.663	128.34
399.872	62.8
400.081	81.24
400.29	214.35
400.499	52.56
400.708	132.44
400.917	91.48
401.127	159.06
401.336	66.9
401.545	191.83
401.754	71
401.963	97.62
402.172	234.83
402.381	124.24
402.59	181.59
402.799	116.05
403.008	142.68
403.217	150.87
403.426	124.24
403.635	109.91
403.844	144.72
404.053	99.67
404.262	124.24
404.471	226.64
404.68	116.05
404.888	193.87
405.097	157.01
405.306	120.15
405.515	154.96
405.724	230.74
405.933	183.63
406.142	169.3
406.35	208.21
406.559	193.87
406.768	181.59
406.977	298.32
407.185	249.17
407.394	220.5
407.603	243.03
407.812	257.36
408.02	218.45
408.229	200.02
408.438	267.6
408.646	191.83
408.855	243.03
409.064	255.31
409.272	140.63
409.481	380.24
409.69	261.46
409.898	312.66
410.107	251.22
410.315	380.24
410.524	306.51
410.733	312.66
410.941	374.1
411.15	404.82
411.358	492.88
411.567	427.34
411.775	443.73
411.984	511.31
412.192	427.34
412.401	451.92
412.609	447.82
412.818	503.12
413.026	582.99
413.234	572.75
413.443	533.84
413.651	509.26
413.86	566.6
414.068	648.52
414.276	666.96
414.485	626
414.693	689.48
414.901	699.72
415.11	808.27
415.318	705.87
415.526	800.07
415.734	836.94
415.943	902.47
416.151	830.79
416.359	865.61
416.567	886.09
416.776	1004.87
416.984	1017.16
417.192	1017.16
417.4	976.2
417.608	1041.73
417.817	1029.45
418.025	1115.46
418.233	1205.57
418.441	1168.71
418.649	1271.11
418.857	1289.54
419.065	1420.61
419.273	1379.65
419.481	1371.46
419.689	1516.86
419.897	1553.73
420.105	1633.6
420.313	1649.98
420.521	1656.12
420.729	1746.23
420.937	1713.47
421.145	1877.3
421.353	1938.74
421.561	2098.49
421.769	2020.66
421.977	2196.79
422.185	2147.64
422.393	2315.57
422.601	2420.02
422.809	2338.1
423.017	2381.1
423.224	2567.47
423.432	2569.52
423.64	2665.77
423.848	2880.81
424.056	2741.55
424.263	2952.49
424.471	2852.14
424.679	3122.47
424.887	3282.21
425.094	3321.12
425.302	3298.59
425.51	3319.07
425.718	3589.41
425.925	3607.84
426.133	3833.11
426.341	3775.77
426.548	4181.27
426.756	4095.25
426.964	4177.17
427.171	4375.83
427.379	4531.47
427.586	4705.55
427.794	4621.58
428.001	4961.55
428.209	5156.1
428.417	5053.7
428.624	5418.24
428.832	5438.72
429.039	5346.56
429.247	5444.87
429.454	5950.71
429.662	6321.4
429.869	5895.42
430.076	6372.6
430.284	6272.25
430.491	6362.36
430.699	6851.82
430.906	6763.76
431.114	6915.31
431.321	7185.64
431.528	7224.55
431.736	7632.1
431.943	8045.79
432.15	8008.92
432.358	7877.85
432.565	8209.62
432.772	8285.4
432.979	8711.38
433.187	8815.82
433.394	8918.22
433.601	9446.6
433.808	9659.59
434.016	9467.08
434.223	9678.02
434.43	10431.67
434.637	10208.44
434.844	10794.16
435.052	10917.04
435.259	10992.81
435.466	11068.59
435.673	10972.33
435.88	11725.99
436.087	12530.84
436.294	12336.28
436.501	11943.07
436.708	12147.87
436.915	12749.97
437.122	13257.87
437.329	13241.48
437.537	13673.6
437.743	13870.21
437.95	13714.56
438.157	14830.71
438.364	14898.29
438.571	14713.97
438.778	14961.78
438.985	16235.61
439.192	15731.81
439.399	16292.96
439.606	15889.51
439.813	16813.14
440.02	17763.4
440.227	17441.87
440.433	17228.88
440.64	17777.73
440.847	17867.84
441.054	18482.24
441.261	19323.95
441.467	19186.74
441.674	19635.24
441.881	20436
442.088	20202.53
442.294	20089.89
442.501	20552.73
442.708	21167.12
442.914	21500.94
443.121	22852.6
443.328	22152.2
443.534	23759.85
443.741	22621.18
443.948	22557.69
444.154	24310.75
444.361	24032.23
444.568	24159.2
444.774	24165.35
444.981	24556.51
445.187	25500.62
445.394	26231.75
445.6	26149.83
445.807	28570.53
446.013	27147.19
446.22	27673.52
446.426	28396.45
446.633	29143.96
446.839	30061.45
447.046	28658.59
447.252	30505.86
447.459	30315.4
447.665	30358.41
447.871	31312.76
448.078	32535.4
448.284	31406.97
448.491	31787.89
448.697	33370.97
448.903	34114.38
449.11	34243.4
449.316	33661.78
449.522	33825.62
449.728	35212.09
449.935	35300.15
450.141	35101.5
450.347	36160.3
450.553	34708.29
450.76	35615.54
450.966	36723.49
451.172	36309.8
451.378	37266.2
451.584	36152.11
451.791	37135.13
451.997	37407.51
452.203	37649.17
452.409	37778.2
452.615	37804.82
452.821	36188.97
453.027	35593.01
453.233	37731.09
453.44	35945.26
453.646	37016.35
453.852	36840.23
454.058	37370.65
454.264	36334.38
454.47	37378.84
454.676	36051.76
454.882	37384.99
455.088	33966.93
455.294	34888.51
455.5	35367.74
455.705	35564.34
455.911	34016.08
456.117	33538.9
456.323	33063.77
456.529	31439.73
456.735	32981.85
456.941	31869.81
457.147	31277.94
457.352	30673.79
457.558	30077.83
457.764	30077.83
457.97	29490.07
458.176	29262.74
458.381	28758.94
458.587	27696.05
458.793	27669.42
458.999	26407.87
459.204	27859.88
459.41	27237.3
459.616	25445.33
459.821	25619.41
460.027	25344.98
460.233	25119.7
460.438	23645.16
460.644	24320.99
460.85	22840.31
461.055	22465.53
461.261	22701.05
461.466	20579.36
461.672	20382.75
461.878	21593.1
462.083	20059.17
462.289	19969.06
462.494	19727.4
462.7	18582.59
462.905	18428.99
463.111	18885.69
463.316	19029.04
463.522	18664.5
463.727	18555.96
463.932	18682.94
464.138	18287.68
464.343	18295.87
464.549	18150.46
464.754	18428.99
464.959	18492.48
465.165	18138.18
465.37	17560.65
465.575	17359.95
465.781	17607.75
465.986	17798.21
466.191	17003.6
466.397	16884.82
466.602	15967.33
466.807	16807
467.012	16510.04
467.218	16229.47
467.423	16051.3
467.628	16432.22
467.833	16856.15
