Data from USB4F104151__227__14-21-39-042.txt Node

Date: Thu Mar 13 14:21:39 EDT 2025
User: louis
Spectrometer: USB4F10415
Trigger mode: 4
Integration Time (sec): 2.000000E-2
Scans to average: 1
Electric dark correction enabled: true
Nonlinearity correction enabled: false
Boxcar width: 0
XAxis mode: Wavelengths
Number of Pixels in Spectrum: 3648
>>>>>Begin Spectral Data<<<<<
178.204	-156.16
178.424	-156.16
178.644	-156.16
178.864	-123.39
179.084	-84.48
179.304	3.58
179.524	-25.09
179.744	24.06
179.964	15.87
180.184	17.92
180.404	9.73
180.624	-31.23
180.844	1.54
181.064	-8.7
181.283	32.26
181.503	-41.47
181.723	1.54
181.943	-16.9
182.163	-0.51
182.383	-8.7
182.602	24.06
182.822	17.92
183.042	42.5
183.262	19.97
183.482	24.06
183.701	11.78
183.921	58.88
184.141	44.54
184.361	34.3
184.58	-0.51
184.8	58.88
185.02	40.45
185.239	32.26
185.459	28.16
185.679	42.5
185.898	-96.77
186.118	60.93
186.338	-41.47
186.557	103.93
186.777	15.87
186.997	36.35
187.216	-25.09
187.436	26.11
187.655	73.21
187.875	44.54
188.095	-37.38
188.314	75.26
188.534	124.41
188.753	52.74
188.973	28.16
189.192	81.41
189.412	48.64
189.631	28.16
189.851	11.78
190.07	-8.7
190.29	7.68
190.509	91.65
190.729	-45.57
190.948	108.03
191.168	136.7
191.387	38.4
191.607	32.26
191.826	30.21
192.045	38.4
192.265	17.92
192.484	-4.61
192.704	-23.04
192.923	-41.47
193.142	60.93
193.362	-14.85
193.581	34.3
193.8	1.54
194.02	112.13
194.239	79.36
194.458	9.73
194.678	69.12
194.897	24.06
195.116	-16.9
195.335	89.6
195.555	50.69
195.774	26.11
195.993	-55.81
196.212	67.07
196.432	17.92
196.651	77.31
196.87	7.68
197.089	1.54
197.308	58.88
197.528	50.69
197.747	97.79
197.966	17.92
198.185	48.64
198.404	32.26
198.623	22.02
198.842	89.6
199.062	62.98
199.281	15.87
199.5	24.06
199.719	-6.66
199.938	52.74
200.157	101.89
200.376	85.5
200.595	130.56
200.814	15.87
201.033	-0.51
201.252	73.21
201.471	179.71
201.69	22.02
201.909	19.97
202.128	65.02
202.347	97.79
202.566	77.31
202.785	-18.94
203.004	-49.66
203.223	77.31
203.442	1.54
203.661	-4.61
203.879	-10.75
204.098	34.3
204.317	50.69
204.536	58.88
204.755	42.5
204.974	3.58
205.193	52.74
205.411	99.84
205.63	114.17
205.849	83.45
206.068	-8.7
206.287	30.21
206.505	19.97
206.724	-33.28
206.943	7.68
207.162	-23.04
207.381	1.54
207.599	15.87
207.818	146.94
208.037	-14.85
208.255	3.58
208.474	32.26
208.693	17.92
208.911	-14.85
209.13	81.41
209.349	15.87
209.567	85.5
209.786	19.97
210.005	60.93
210.223	-8.7
210.442	-6.66
210.661	60.93
210.879	19.97
211.098	-4.61
211.316	69.12
211.535	15.87
211.753	7.68
211.972	-8.7
212.191	3.58
212.409	65.02
212.628	11.78
212.846	-45.57
213.065	110.08
213.283	87.55
213.502	56.83
213.72	40.45
213.938	73.21
214.157	-8.7
214.375	50.69
214.594	-0.51
214.812	58.88
215.031	101.89
215.249	24.06
215.467	-0.51
215.686	-25.09
215.904	56.83
216.122	40.45
216.341	-16.9
216.559	56.83
216.778	-0.51
216.996	83.45
217.214	50.69
217.432	52.74
217.651	-55.81
217.869	-92.67
218.087	48.64
218.306	1.54
218.524	58.88
218.742	15.87
218.96	77.31
219.179	52.74
219.397	34.3
219.615	75.26
219.833	36.35
220.051	38.4
220.27	-35.33
220.488	62.98
220.706	54.78
220.924	15.87
221.142	-2.56
221.36	-18.94
221.578	-2.56
221.796	48.64
222.015	30.21
222.233	-4.61
222.451	67.07
222.669	34.3
222.887	-14.85
223.105	38.4
223.323	44.54
223.541	75.26
223.759	3.58
223.977	28.16
224.195	42.5
224.413	1.54
224.631	44.54
224.849	77.31
225.067	97.79
225.285	-25.09
225.503	56.83
225.721	-27.14
225.939	75.26
226.157	48.64
226.375	60.93
226.592	-4.61
226.81	36.35
227.028	48.64
227.246	99.84
227.464	3.58
227.682	77.31
227.9	75.26
228.117	48.64
228.335	89.6
228.553	26.11
228.771	7.68
228.989	56.83
229.206	40.45
229.424	24.06
229.642	28.16
229.86	89.6
230.077	26.11
230.295	-16.9
230.513	89.6
230.731	65.02
230.948	5.63
231.166	62.98
231.384	-12.8
231.601	1.54
231.819	40.45
232.037	-39.42
232.254	-23.04
232.472	-33.28
232.689	7.68
232.907	163.33
233.125	-55.81
233.342	11.78
233.56	26.11
233.777	56.83
233.995	48.64
234.213	32.26
234.43	114.17
234.648	65.02
234.865	46.59
235.083	65.02
235.3	26.11
235.518	65.02
235.735	40.45
235.953	40.45
236.17	24.06
236.388	105.98
236.605	-8.7
236.822	17.92
237.04	-6.66
237.257	77.31
237.475	1.54
237.692	26.11
237.909	42.5
238.127	15.87
238.344	19.97
238.562	79.36
238.779	7.68
238.996	-2.56
239.214	1.54
239.431	73.21
239.648	28.16
239.865	-23.04
240.083	67.07
240.3	3.58
240.517	-16.9
240.735	44.54
240.952	50.69
241.169	50.69
241.386	24.06
241.603	-2.56
241.821	-31.23
242.038	60.93
242.255	85.5
242.472	7.68
242.689	46.59
242.907	24.06
243.124	-8.7
243.341	32.26
243.558	28.16
243.775	19.97
243.992	-8.7
244.209	-8.7
244.426	77.31
244.643	67.07
244.86	-31.23
245.078	32.26
245.295	-12.8
245.512	65.02
245.729	52.74
245.946	-6.66
246.163	40.45
246.38	36.35
246.597	52.74
246.814	-20.99
247.031	13.82
247.248	-0.51
247.464	26.11
247.681	17.92
247.898	65.02
248.115	19.97
248.332	85.5
248.549	42.5
248.766	-8.7
248.983	-12.8
249.2	-10.75
249.417	89.6
249.633	24.06
249.85	83.45
250.067	3.58
250.284	24.06
250.501	40.45
250.717	81.41
250.934	32.26
251.151	-29.18
251.368	-16.9
251.585	108.03
251.801	15.87
252.018	40.45
252.235	22.02
252.451	19.97
252.668	19.97
252.885	69.12
253.102	24.06
253.318	1.54
253.535	44.54
253.752	-8.7
253.968	58.88
254.185	11.78
254.401	-41.47
254.618	17.92
254.835	56.83
255.051	73.21
255.268	42.5
255.484	122.37
255.701	-25.09
255.917	42.5
256.134	-68.09
256.351	32.26
256.567	-0.51
256.784	34.3
257	32.26
257.217	58.88
257.433	60.93
257.65	11.78
257.866	144.89
258.082	58.88
258.299	-23.04
258.515	9.73
258.732	67.07
258.948	-41.47
259.165	-16.9
259.381	-8.7
259.597	-20.99
259.814	32.26
260.03	19.97
260.246	60.93
260.463	-20.99
260.679	91.65
260.895	-16.9
261.112	28.16
261.328	15.87
261.544	-37.38
261.761	116.22
261.977	-25.09
262.193	-2.56
262.409	32.26
262.626	-0.51
262.842	69.12
263.058	-57.86
263.274	46.59
263.49	42.5
263.707	1.54
263.923	-6.66
264.139	-61.95
264.355	-25.09
264.571	112.13
264.787	-0.51
265.004	67.07
265.22	32.26
265.436	-59.9
265.652	7.68
265.868	77.31
266.084	-0.51
266.3	110.08
266.516	-8.7
266.732	50.69
266.948	15.87
267.164	9.73
267.38	138.75
267.596	19.97
267.812	36.35
268.028	85.5
268.244	-8.7
268.46	19.97
268.676	101.89
268.892	32.26
269.108	-4.61
269.324	32.26
269.54	-14.85
269.756	56.83
269.972	40.45
270.188	32.26
270.403	-29.18
270.619	-25.09
270.835	50.69
271.051	116.22
271.267	1.54
271.483	42.5
271.698	13.82
271.914	42.5
272.13	-41.47
272.346	-43.52
272.562	-12.8
272.777	89.6
272.993	3.58
273.209	50.69
273.425	-23.04
273.64	-23.04
273.856	11.78
274.072	22.02
274.287	44.54
274.503	50.69
274.719	15.87
274.934	3.58
275.15	-47.62
275.366	93.69
275.581	1.54
275.797	42.5
276.012	87.55
276.228	67.07
276.444	-41.47
276.659	30.21
276.875	-25.09
277.09	69.12
277.306	13.82
277.521	91.65
277.737	13.82
277.952	89.6
278.168	81.41
278.383	-14.85
278.599	54.78
278.814	77.31
279.03	-16.9
279.245	97.79
279.461	-45.57
279.676	89.6
279.892	19.97
280.107	3.58
280.322	81.41
280.538	95.74
280.753	5.63
280.969	32.26
281.184	-14.85
281.399	46.59
281.615	15.87
281.83	-23.04
282.045	9.73
282.26	-10.75
282.476	-18.94
282.691	48.64
282.906	-57.86
283.122	48.64
283.337	40.45
283.552	97.79
283.767	32.26
283.983	120.32
284.198	48.64
284.413	58.88
284.628	17.92
284.843	46.59
285.058	28.16
285.274	46.59
285.489	-0.51
285.704	1.54
285.919	77.31
286.134	48.64
286.349	26.11
286.564	26.11
286.779	116.22
286.995	32.26
287.21	-35.33
287.425	93.69
287.64	-8.7
287.855	-0.51
288.07	58.88
288.285	30.21
288.5	83.45
288.715	81.41
288.93	48.64
289.145	77.31
289.36	32.26
289.575	19.97
289.79	89.6
290.004	-39.42
290.219	-4.61
290.434	17.92
290.649	1.54
290.864	-29.18
291.079	62.98
291.294	15.87
291.509	11.78
291.724	52.74
291.938	42.5
292.153	9.73
292.368	-20.99
292.583	58.88
292.798	22.02
293.012	26.11
293.227	-4.61
293.442	112.13
293.657	48.64
293.871	95.74
294.086	28.16
294.301	34.3
294.516	28.16
294.73	56.83
294.945	3.58
295.16	95.74
295.374	60.93
295.589	48.64
295.804	13.82
296.018	48.64
296.233	-25.09
296.447	83.45
296.662	-90.62
296.877	48.64
297.091	134.65
297.306	40.45
297.52	-41.47
297.735	71.17
297.949	52.74
298.164	122.37
298.378	36.35
298.593	5.63
298.807	-25.09
299.022	65.02
299.236	56.83
299.451	-0.51
299.665	19.97
299.88	81.41
300.094	26.11
300.309	-6.66
300.523	-6.66
300.737	-16.9
300.952	105.98
301.166	-8.7
301.381	32.26
301.595	40.45
301.809	7.68
302.024	44.54
302.238	24.06
302.452	48.64
302.667	26.11
302.881	26.11
303.095	15.87
303.309	42.5
303.524	19.97
303.738	40.45
303.952	1.54
304.166	89.6
304.381	-4.61
304.595	120.32
304.809	58.88
305.023	50.69
305.237	58.88
305.452	-18.94
305.666	34.3
305.88	24.06
306.094	40.45
306.308	3.58
306.522	50.69
306.736	73.21
306.95	3.58
307.164	52.74
307.379	-4.61
307.593	42.5
307.807	93.69
308.021	-27.14
308.235	32.26
308.449	58.88
308.663	-16.9
308.877	11.78
309.091	26.11
309.305	24.06
309.519	46.59
309.733	58.88
309.947	28.16
310.161	65.02
310.374	56.83
310.588	1.54
310.802	19.97
311.016	26.11
311.23	-16.9
311.444	60.93
311.658	52.74
311.872	24.06
312.085	77.31
312.299	17.92
312.513	50.69
312.727	48.64
312.941	15.87
313.154	58.88
313.368	62.98
313.582	40.45
313.796	30.21
314.009	19.97
314.223	58.88
314.437	-8.7
314.651	-2.56
314.864	32.26
315.078	83.45
315.292	-31.23
315.505	83.45
315.719	32.26
315.933	-8.7
316.146	-12.8
316.36	40.45
316.573	26.11
316.787	34.3
317.001	126.46
317.214	-6.66
317.428	71.17
317.641	19.97
317.855	19.97
318.068	50.69
318.282	17.92
318.495	138.75
318.709	40.45
318.922	-4.61
319.136	73.21
319.349	24.06
319.563	73.21
319.776	5.63
319.99	7.68
320.203	19.97
320.417	11.78
320.63	-41.47
320.843	73.21
321.057	-4.61
321.27	-2.56
321.483	-31.23
321.697	65.02
321.91	89.6
322.124	65.02
322.337	13.82
322.55	67.07
322.763	52.74
322.977	15.87
323.19	101.89
323.403	34.3
323.617	67.07
323.83	40.45
324.043	-4.61
324.256	-4.61
324.469	-0.51
324.683	65.02
324.896	65.02
325.109	89.6
325.322	69.12
325.535	54.78
325.748	38.4
325.962	40.45
326.175	9.73
326.388	95.74
326.601	85.5
326.814	73.21
327.027	34.3
327.24	48.64
327.453	-29.18
327.666	24.06
327.879	15.87
328.092	75.26
328.305	-25.09
328.518	50.69
328.731	-33.28
328.944	-25.09
329.157	67.07
329.37	36.35
329.583	24.06
329.796	26.11
330.009	7.68
330.222	73.21
330.435	17.92
330.648	79.36
330.861	-8.7
331.073	73.21
331.286	48.64
331.499	3.58
331.712	-39.42
331.925	28.16
332.138	34.3
332.35	60.93
332.563	-6.66
332.776	99.84
332.989	-16.9
333.202	44.54
333.414	69.12
333.627	46.59
333.84	36.35
334.053	30.21
334.265	1.54
334.478	42.5
334.691	48.64
334.903	-0.51
335.116	32.26
335.329	54.78
335.541	50.69
335.754	28.16
335.966	-4.61
336.179	38.4
336.392	3.58
336.604	-12.8
336.817	87.55
337.029	126.46
337.242	81.41
337.454	28.16
337.667	65.02
337.88	65.02
338.092	15.87
338.305	71.17
338.517	22.02
338.729	110.08
338.942	30.21
339.154	9.73
339.367	32.26
339.579	105.98
339.792	42.5
340.004	58.88
340.217	89.6
340.429	36.35
340.641	1.54
340.854	36.35
341.066	67.07
341.278	60.93
341.491	40.45
341.703	71.17
341.915	34.3
342.128	15.87
342.34	85.5
342.552	-33.28
342.764	75.26
342.977	26.11
343.189	19.97
343.401	83.45
343.613	9.73
343.826	-12.8
344.038	-33.28
344.25	-0.51
344.462	71.17
344.674	99.84
344.886	50.69
345.099	40.45
345.311	24.06
345.523	65.02
345.735	65.02
345.947	42.5
346.159	52.74
346.371	40.45
346.583	36.35
346.795	9.73
347.007	7.68
347.219	42.5
347.431	83.45
347.643	7.68
347.855	99.84
348.067	67.07
348.279	-8.7
348.491	38.4
348.703	50.69
348.915	73.21
349.127	-39.42
349.339	58.88
349.551	24.06
349.763	60.93
349.975	93.69
350.187	19.97
350.399	1.54
350.61	85.5
350.822	52.74
351.034	22.02
351.246	83.45
351.458	75.26
351.669	1.54
351.881	24.06
352.093	13.82
352.305	97.79
352.517	17.92
352.728	116.22
352.94	65.02
353.152	19.97
353.363	-4.61
353.575	48.64
353.787	42.5
353.999	50.69
354.21	77.31
354.422	81.41
354.633	75.26
354.845	56.83
355.057	32.26
355.268	15.87
355.48	81.41
355.692	-59.9
355.903	32.26
356.115	-25.09
356.326	42.5
356.538	52.74
356.749	56.83
356.961	34.3
357.172	56.83
357.384	7.68
357.595	75.26
357.807	46.59
358.018	118.27
358.23	-0.51
358.441	54.78
358.653	32.26
358.864	3.58
359.075	-31.23
359.287	99.84
359.498	99.84
359.709	-20.99
359.921	65.02
360.132	-8.7
360.344	58.88
360.555	89.6
360.766	65.02
360.977	62.98
361.189	108.03
361.4	22.02
361.611	77.31
361.823	52.74
362.034	32.26
362.245	-76.29
362.456	44.54
362.667	81.41
362.879	81.41
363.09	28.16
363.301	60.93
363.512	89.6
363.723	65.02
363.935	132.61
364.146	79.36
364.357	-18.94
364.568	69.12
364.779	65.02
364.99	17.92
365.201	73.21
365.412	122.37
365.623	36.35
365.834	24.06
366.045	22.02
366.256	40.45
366.467	56.83
366.678	42.5
366.889	15.87
367.1	38.4
367.311	17.92
367.522	-8.7
367.733	101.89
367.944	130.56
368.155	-43.52
368.366	77.31
368.577	89.6
368.788	69.12
368.999	103.93
369.209	62.98
369.42	105.98
369.631	65.02
369.842	110.08
370.053	44.54
370.264	42.5
370.474	65.02
370.685	114.17
370.896	60.93
371.107	85.5
371.317	54.78
371.528	36.35
371.739	97.79
371.95	13.82
372.16	28.16
372.371	116.22
372.582	28.16
372.792	97.79
373.003	67.07
373.214	40.45
373.424	-12.8
373.635	24.06
373.846	50.69
374.056	62.98
374.267	52.74
374.477	69.12
374.688	26.11
374.898	34.3
375.109	48.64
375.319	97.79
375.53	93.69
375.74	95.74
375.951	-12.8
376.161	120.32
376.372	40.45
376.582	-20.99
376.793	9.73
377.003	-6.66
377.214	34.3
377.424	114.17
377.635	89.6
377.845	24.06
378.055	108.03
378.266	-41.47
378.476	67.07
378.686	89.6
378.897	81.41
379.107	105.98
379.317	62.98
379.528	42.5
379.738	58.88
379.948	-53.76
380.158	114.17
380.369	58.88
380.579	146.94
380.789	11.78
380.999	67.07
381.21	19.97
381.42	87.55
381.63	19.97
381.84	81.41
382.05	73.21
382.261	99.84
382.471	24.06
382.681	7.68
382.891	67.07
383.101	22.02
383.311	3.58
383.521	40.45
383.731	28.16
383.941	126.46
384.151	148.99
384.361	77.31
384.571	50.69
384.781	91.65
384.991	85.5
385.201	112.13
385.411	122.37
385.621	11.78
385.831	-18.94
386.041	97.79
386.251	69.12
386.461	32.26
386.671	28.16
386.881	-12.8
387.091	99.84
387.301	40.45
387.511	1.54
387.72	56.83
387.93	75.26
388.14	56.83
388.35	91.65
388.56	48.64
388.769	22.02
388.979	163.33
389.189	75.26
389.399	95.74
389.609	85.5
389.818	56.83
390.028	118.27
390.238	122.37
390.447	122.37
390.657	30.21
390.867	65.02
391.076	60.93
391.286	77.31
391.496	-12.8
391.705	73.21
391.915	73.21
392.125	62.98
392.334	56.83
392.544	105.98
392.753	15.87
392.963	42.5
393.172	60.93
393.382	99.84
393.591	108.03
393.801	42.5
394.01	126.46
394.22	79.36
394.429	60.93
394.639	52.74
394.848	155.13
395.058	67.07
395.267	97.79
395.477	58.88
395.686	118.27
395.895	116.22
396.105	163.33
396.314	48.64
396.524	97.79
396.733	32.26
396.942	73.21
397.152	148.99
397.361	155.13
397.57	38.4
397.78	95.74
397.989	65.02
398.198	118.27
398.407	105.98
398.617	116.22
398.826	101.89
399.035	85.5
399.244	85.5
399.453	181.76
399.663	83.45
399.872	163.33
400.081	-35.33
400.29	148.99
400.499	97.79
400.708	89.6
400.917	91.65
401.127	118.27
401.336	32.26
401.545	134.65
401.754	163.33
401.963	163.33
402.172	89.6
402.381	132.61
402.59	112.13
402.799	132.61
403.008	116.22
403.217	128.51
403.426	85.5
403.635	97.79
403.844	77.31
404.053	173.57
404.262	81.41
404.471	124.41
404.68	157.18
404.888	204.28
405.097	167.42
405.306	108.03
405.515	185.85
405.724	89.6
405.933	177.66
406.142	138.75
406.35	165.37
406.559	151.04
406.768	220.67
406.977	187.9
407.185	228.86
407.394	241.15
407.603	167.42
407.812	189.95
408.02	183.81
408.229	179.71
408.438	251.39
408.646	130.56
408.855	194.05
409.064	278.01
409.272	253.44
409.481	216.57
409.69	208.38
409.898	298.49
410.107	323.07
410.315	366.07
410.524	288.25
410.733	333.31
410.941	282.11
411.15	384.51
411.358	273.92
411.567	388.6
411.775	331.26
411.984	323.07
412.192	409.08
412.401	359.93
412.609	345.59
412.818	447.99
413.026	441.85
413.234	488.95
413.443	468.47
413.651	472.57
413.86	523.77
414.068	597.49
414.276	564.73
414.485	564.73
414.693	646.65
414.901	603.64
415.11	675.32
415.318	577.02
415.526	650.74
415.734	679.41
415.943	665.08
416.151	712.18
416.359	765.43
416.567	703.99
416.776	814.58
416.984	830.96
417.192	900.59
417.4	941.55
417.608	804.34
417.817	933.36
418.025	1011.18
418.233	1134.06
418.441	953.84
418.649	1068.53
418.857	1086.96
419.065	1197.55
419.273	1105.39
419.481	1179.12
419.689	1326.57
419.897	1342.96
420.105	1396.2
420.313	1369.58
420.521	1478.12
420.729	1408.49
420.937	1539.56
421.145	1443.31
421.353	1611.24
421.561	1703.4
421.769	1727.97
421.977	1842.66
422.185	1666.53
422.393	1990.11
422.601	1959.39
422.809	1969.63
423.017	2004.45
423.224	2137.57
423.432	2215.39
423.64	2215.39
423.848	2463.19
424.056	2424.28
424.263	2516.44
424.471	2508.25
424.679	2520.54
424.887	2633.18
425.094	2760.15
425.302	2694.61
425.51	2825.68
425.718	2891.22
425.925	2940.37
426.133	3194.32
426.341	3370.44
426.548	3515.85
426.756	3382.73
426.964	3481.03
427.171	3587.53
427.379	3745.22
427.586	3857.86
427.794	4015.55
428.001	4083.14
428.209	4361.66
428.417	4244.93
428.624	4484.54
428.832	4570.55
429.039	4400.57
429.247	4429.24
429.454	4939.19
429.662	5221.81
429.869	4873.65
430.076	5088.69
430.284	5096.88
430.491	5283.25
430.699	5610.92
430.906	5490.09
431.114	5602.73
431.321	5940.65
431.528	6071.72
431.736	6389.15
431.943	6790.55
432.15	6362.53
432.358	6544.8
432.565	6882.71
432.772	6858.14
432.979	7275.92
433.187	7314.83
433.394	7396.75
433.601	7753.1
433.808	7857.54
434.016	7875.98
434.223	8217.99
434.43	8830.33
434.637	8619.39
434.844	9051.51
435.052	9305.46
435.259	8988.02
435.466	9264.5
435.673	9012.6
435.88	9500.02
436.087	10102.12
436.294	10268
436.501	9839.98
436.708	10255.72
436.915	10423.65
437.122	11093.33
437.329	11019.61
437.537	11330.9
437.743	11498.83
437.95	11363.67
438.157	11722.06
438.364	12158.28
438.571	12221.77
438.778	12453.19
438.985	13565.23
439.192	13083.96
439.399	13456.69
439.606	13176.12
439.813	13997.35
440.02	14503.2
440.227	14654.75
440.433	14511.39
440.64	14976.28
440.847	14824.73
441.054	15303.96
441.261	16125.19
441.467	15705.36
441.674	16065.8
441.881	16911.61
442.088	16981.24
442.294	16485.64
442.501	17235.19
442.708	17415.41
442.914	18013.42
443.121	18844.9
443.328	18343.14
443.534	19614.93
443.741	18941.15
443.948	18758.88
444.154	20212.94
444.361	19987.66
444.568	20221.13
444.774	19813.59
444.981	20450.5
445.187	20817.09
445.394	21791.92
445.6	21726.39
445.807	23567.51
446.013	22654.12
446.22	22871.2
446.426	24099.98
446.633	24149.14
446.839	24716.42
447.046	23803.03
447.252	25134.21
447.459	25259.13
447.665	24896.64
447.871	26264.69
448.078	27118.69
448.284	26104.95
448.491	26713.19
448.697	27808.86
448.903	28464.21
449.11	28294.22
449.316	27896.92
449.522	28363.86
449.728	28927.05
449.935	29180.99
450.141	29273.15
450.347	30049.33
450.553	29183.04
450.76	29615.16
450.966	30368.82
451.172	29858.87
451.378	30594.09
451.584	30295.09
451.791	30977.06
451.997	30532.65
452.203	31282.21
452.409	31562.78
452.615	31308.83
452.821	30102.58
453.027	29842.49
453.233	31208.48
453.44	29938.74
453.646	30280.75
453.852	30536.75
454.058	31110.18
454.264	30370.86
454.47	30897.19
454.676	30069.81
454.882	30870.57
455.088	28740.68
455.294	28752.97
455.5	29271.11
455.705	29498.43
455.911	28410.96
456.117	27761.75
456.323	27376.73
456.529	26225.78
456.735	26987.62
456.941	26580.07
457.147	26031.22
457.352	25435.26
457.558	24861.83
457.764	24804.49
457.97	24824.97
458.176	23962.77
458.381	24157.33
458.587	22998.18
458.793	22766.76
458.999	21634.23
459.204	23391.39
459.41	22242.48
459.616	20991.17
459.821	21204.16
460.027	21236.92
460.233	20778.18
460.438	20071.63
460.644	20036.81
460.85	19148
461.055	18625.76
461.261	18611.43
461.466	17394.93
461.672	16528.64
461.878	18085.1
462.083	16930.05
462.289	16438.53
462.494	16403.72
462.7	15746.32
462.905	15080.73
463.111	15830.29
463.316	15795.47
463.522	15389.97
463.727	15469.84
463.932	15295.77
464.138	15056.15
464.343	15320.34
464.549	14814.49
464.754	15226.14
464.959	15402.26
465.165	15209.75
465.37	14601.51
465.575	14093.61
465.781	14736.67
465.986	14736.67
466.191	14212.39
466.397	14144.81
466.602	13301.05
466.807	13780.27
467.012	13884.72
467.218	13819.18
467.423	13583.66
467.628	13722.93
467.833	14130.47
468.038	13798.7
