Data from USB4F104151__123__14-18-54-460.txt Node

Date: Thu Mar 13 14:18:54 EDT 2025
User: louis
Spectrometer: USB4F10415
Trigger mode: 4
Integration Time (sec): 2.000000E-2
Scans to average: 1
Electric dark correction enabled: true
Nonlinearity correction enabled: false
Boxcar width: 0
XAxis mode: Wavelengths
Number of Pixels in Spectrum: 3648
>>>>>Begin Spectral Data<<<<<
178.204	-109.91
178.424	-109.91
178.644	-109.91
178.864	-124.24
179.084	-77.14
179.304	-19.8
179.524	127.66
179.744	-25.94
179.964	4.78
180.184	-11.61
180.404	-52.56
180.624	-1.37
180.844	4.78
181.064	-23.89
181.283	66.22
181.503	-9.56
181.723	-58.71
181.943	35.5
182.163	-11.61
182.383	-32.08
182.602	64.17
182.822	17.07
183.042	80.55
183.262	-15.7
183.482	41.64
183.701	-97.62
183.921	78.51
184.141	-27.99
184.361	-19.8
184.58	66.22
184.8	21.16
185.02	0.68
185.239	21.16
185.459	53.93
185.679	35.5
185.898	-11.61
186.118	84.65
186.338	19.11
186.557	15.02
186.777	0.68
186.997	15.02
187.216	58.03
187.436	55.98
187.655	-19.8
187.875	103.08
188.095	-15.7
188.314	64.17
188.534	101.03
188.753	62.12
188.973	-1.37
189.192	25.26
189.412	27.31
189.631	49.83
189.851	-23.89
190.07	51.88
190.29	-27.99
190.509	6.83
190.729	55.98
190.948	-3.41
191.168	135.85
191.387	55.98
191.607	119.46
191.826	-19.8
192.045	47.79
192.265	76.46
192.484	-11.61
192.704	31.4
192.923	29.35
193.142	47.79
193.362	19.11
193.581	-44.37
193.8	29.35
194.02	62.12
194.239	15.02
194.458	23.21
194.678	-25.94
194.897	-1.37
195.116	21.16
195.335	37.55
195.555	33.45
195.774	4.78
195.993	55.98
196.212	4.78
196.432	0.68
196.651	39.59
196.87	-44.37
197.089	31.4
197.308	-11.61
197.528	35.5
197.747	8.87
197.966	0.68
198.185	66.22
198.404	-9.56
198.623	4.78
198.842	49.83
199.062	-1.37
199.281	121.51
199.5	27.31
199.719	17.07
199.938	25.26
200.157	127.66
200.376	17.07
200.595	47.79
200.814	-17.75
201.033	-27.99
201.252	60.07
201.471	37.55
201.69	152.23
201.909	74.41
202.128	-34.13
202.347	-15.7
202.566	37.55
202.785	23.21
203.004	-27.99
203.223	76.46
203.442	-5.46
203.661	-34.13
203.879	31.4
204.098	-3.41
204.317	0.68
204.536	12.97
204.755	29.35
204.974	58.03
205.193	78.51
205.411	70.31
205.63	-7.51
205.849	27.31
206.068	-81.24
206.287	64.17
206.505	62.12
206.724	-5.46
206.943	17.07
207.162	-52.56
207.381	37.55
207.599	43.69
207.818	23.21
208.037	-1.37
208.255	2.73
208.474	-9.56
208.693	33.45
208.911	33.45
209.13	27.31
209.349	8.87
209.567	29.35
209.786	88.75
210.005	53.93
210.223	55.98
210.442	-19.8
210.661	-21.85
210.879	6.83
211.098	23.21
211.316	-1.37
211.535	17.07
211.753	8.87
211.972	4.78
212.191	0.68
212.409	-48.47
212.628	-23.89
212.846	70.31
213.065	23.21
213.283	4.78
213.502	51.88
213.72	15.02
213.938	0.68
214.157	-54.61
214.375	-30.04
214.594	12.97
214.812	33.45
215.031	-11.61
215.249	23.21
215.467	39.59
215.686	21.16
215.904	72.36
216.122	10.92
216.341	33.45
216.559	-15.7
216.778	70.31
216.996	58.03
217.214	-9.56
217.432	47.79
217.651	4.78
217.869	-1.37
218.087	43.69
218.306	29.35
218.524	31.4
218.742	-11.61
218.96	29.35
219.179	-19.8
219.397	78.51
219.615	43.69
219.833	29.35
220.051	66.22
220.27	37.55
220.488	19.11
220.706	90.79
220.924	21.16
221.142	0.68
221.36	51.88
221.578	25.26
221.796	45.74
222.015	47.79
222.233	23.21
222.451	58.03
222.669	41.64
222.887	45.74
223.105	-17.75
223.323	-3.41
223.541	-11.61
223.759	58.03
223.977	-25.94
224.195	101.03
224.413	70.31
224.631	-17.75
224.849	-87.38
225.067	21.16
225.285	39.59
225.503	49.83
225.721	47.79
225.939	21.16
226.157	27.31
226.375	49.83
226.592	-50.52
226.81	-15.7
227.028	86.7
227.246	66.22
227.464	-25.94
227.682	17.07
227.9	29.35
228.117	31.4
228.335	62.12
228.553	45.74
228.771	19.11
228.989	4.78
229.206	-17.75
229.424	-3.41
229.642	31.4
229.86	72.36
230.077	33.45
230.295	17.07
230.513	72.36
230.731	49.83
230.948	10.92
231.166	70.31
231.384	41.64
231.601	-7.51
231.819	10.92
232.037	-15.7
232.254	-36.18
232.472	23.21
232.689	-81.24
232.907	23.21
233.125	111.27
233.342	82.6
233.56	0.68
233.777	4.78
233.995	78.51
234.213	92.84
234.43	62.12
234.648	35.5
234.865	-7.51
235.083	-3.41
235.3	58.03
235.518	21.16
235.735	21.16
235.953	29.35
236.17	27.31
236.388	80.55
236.605	-58.71
236.822	80.55
237.04	72.36
237.257	-52.56
237.475	-27.99
237.692	-1.37
237.909	37.55
238.127	-9.56
238.344	17.07
238.562	-11.61
238.779	-48.47
238.996	-38.23
239.214	58.03
239.431	82.6
239.648	-23.89
239.865	21.16
240.083	37.55
240.3	72.36
240.517	8.87
240.735	23.21
240.952	33.45
241.169	66.22
241.386	41.64
241.603	-52.56
241.821	-73.04
242.038	72.36
242.255	31.4
242.472	12.97
242.689	21.16
242.907	12.97
243.124	64.17
243.341	4.78
243.558	53.93
243.775	31.4
243.992	12.97
244.209	76.46
244.426	4.78
244.643	43.69
244.86	27.31
245.078	39.59
245.295	92.84
245.512	6.83
245.729	-60.76
245.946	45.74
246.163	2.73
246.38	31.4
246.597	-7.51
246.814	58.03
247.031	-40.28
247.248	0.68
247.464	23.21
247.681	96.94
247.898	21.16
248.115	55.98
248.332	21.16
248.549	12.97
248.766	21.16
248.983	37.55
249.2	29.35
249.417	31.4
249.633	-3.41
249.85	2.73
250.067	41.64
250.284	25.26
250.501	49.83
250.717	47.79
250.934	-32.08
251.151	12.97
251.368	23.21
251.585	92.84
251.801	53.93
252.018	-50.52
252.235	47.79
252.451	62.12
252.668	-23.89
252.885	49.83
253.102	47.79
253.318	12.97
253.535	17.07
253.752	25.26
253.968	0.68
254.185	-15.7
254.401	8.87
254.618	15.02
254.835	8.87
255.051	43.69
255.268	4.78
255.484	6.83
255.701	29.35
255.917	60.07
256.134	-17.75
256.351	70.31
256.567	-34.13
256.784	19.11
257	15.02
257.217	92.84
257.433	4.78
257.65	41.64
257.866	2.73
258.082	-21.85
258.299	27.31
258.515	45.74
258.732	39.59
258.948	58.03
259.165	62.12
259.381	25.26
259.597	33.45
259.814	25.26
260.03	-1.37
260.246	-17.75
260.463	-17.75
260.679	84.65
260.895	-19.8
261.112	12.97
261.328	-44.37
261.544	86.7
261.761	35.5
261.977	-1.37
262.193	-11.61
262.409	23.21
262.626	74.41
262.842	12.97
263.058	-73.04
263.274	-27.99
263.49	72.36
263.707	37.55
263.923	90.79
264.139	-42.32
264.355	-58.71
264.571	41.64
264.787	21.16
265.004	0.68
265.22	2.73
265.436	-21.85
265.652	0.68
265.868	-21.85
266.084	-5.46
266.3	29.35
266.516	-15.7
266.732	62.12
266.948	31.4
267.164	66.22
267.38	86.7
267.596	-36.18
267.812	47.79
268.028	62.12
268.244	29.35
268.46	33.45
268.676	37.55
268.892	45.74
269.108	25.26
269.324	-56.66
269.54	35.5
269.756	64.17
269.972	27.31
270.188	43.69
270.403	-42.32
270.619	-36.18
270.835	58.03
271.051	10.92
271.267	8.87
271.483	-21.85
271.698	45.74
271.914	29.35
272.13	-34.13
272.346	6.83
272.562	-11.61
272.777	53.93
272.993	-3.41
273.209	39.59
273.425	31.4
273.64	-19.8
273.856	55.98
274.072	-17.75
274.287	23.21
274.503	55.98
274.719	96.94
274.934	45.74
275.15	17.07
275.366	0.68
275.581	86.7
275.797	-3.41
276.012	-1.37
276.228	-11.61
276.444	51.88
276.659	33.45
276.875	-3.41
277.09	-36.18
277.306	23.21
277.521	33.45
277.737	72.36
277.952	53.93
278.168	4.78
278.383	4.78
278.599	-7.51
278.814	33.45
279.03	-1.37
279.245	58.03
279.461	45.74
279.676	86.7
279.892	-11.61
280.107	8.87
280.322	4.78
280.538	21.16
280.753	0.68
280.969	55.98
281.184	2.73
281.399	72.36
281.615	10.92
281.83	4.78
282.045	37.55
282.26	0.68
282.476	45.74
282.691	47.79
282.906	72.36
283.122	8.87
283.337	-36.18
283.552	-5.46
283.767	51.88
283.983	-9.56
284.198	-60.76
284.413	37.55
284.628	8.87
284.843	0.68
285.058	55.98
285.274	-21.85
285.489	0.68
285.704	-73.04
285.919	41.64
286.134	-7.51
286.349	53.93
286.564	64.17
286.779	78.51
286.995	41.64
287.21	72.36
287.425	-23.89
287.64	0.68
287.855	25.26
288.07	-11.61
288.285	33.45
288.5	35.5
288.715	78.51
288.93	-19.8
289.145	55.98
289.36	-30.04
289.575	19.11
289.79	15.02
290.004	47.79
290.219	39.59
290.434	23.21
290.649	29.35
290.864	-19.8
291.079	78.51
291.294	41.64
291.509	58.03
291.724	49.83
291.938	0.68
292.153	6.83
292.368	8.87
292.583	74.41
292.798	21.16
293.012	21.16
293.227	4.78
293.442	51.88
293.657	90.79
293.871	41.64
294.086	78.51
294.301	84.65
294.516	-11.61
294.73	82.6
294.945	-7.51
295.16	-11.61
295.374	119.46
295.589	45.74
295.804	-64.85
296.018	-42.32
296.233	58.03
296.447	-27.99
296.662	-19.8
296.877	35.5
297.091	70.31
297.306	62.12
297.52	6.83
297.735	119.46
297.949	53.93
298.164	45.74
298.378	62.12
298.593	29.35
298.807	55.98
299.022	98.99
299.236	58.03
299.451	43.69
299.665	-3.41
299.88	35.5
300.094	4.78
300.309	-17.75
300.523	17.07
300.737	-85.33
300.952	68.27
301.166	72.36
301.381	39.59
301.595	64.17
301.809	-30.04
302.024	47.79
302.238	0.68
302.452	25.26
302.667	17.07
302.881	64.17
303.095	60.07
303.309	-38.23
303.524	53.93
303.738	-1.37
303.952	-40.28
304.166	23.21
304.381	-42.32
304.595	23.21
304.809	12.97
305.023	33.45
305.237	4.78
305.452	74.41
305.666	6.83
305.88	45.74
306.094	103.08
306.308	86.7
306.522	29.35
306.736	23.21
306.95	129.7
307.164	4.78
307.379	31.4
307.593	90.79
307.807	45.74
308.021	25.26
308.235	-3.41
308.449	-11.61
308.663	-9.56
308.877	17.07
309.091	103.08
309.305	-19.8
309.519	0.68
309.733	49.83
309.947	12.97
310.161	37.55
310.374	29.35
310.588	8.87
310.802	49.83
311.016	-1.37
311.23	62.12
311.444	62.12
311.658	37.55
311.872	86.7
312.085	70.31
312.299	12.97
312.513	49.83
312.727	-19.8
312.941	-48.47
313.154	94.89
313.368	62.12
313.582	33.45
313.796	47.79
314.009	96.94
314.223	27.31
314.437	6.83
314.651	23.21
314.864	49.83
315.078	45.74
315.292	15.02
315.505	43.69
315.719	31.4
315.933	12.97
316.146	47.79
316.36	-50.52
316.573	103.08
316.787	45.74
317.001	84.65
317.214	15.02
317.428	27.31
317.641	15.02
317.855	33.45
318.068	12.97
318.282	53.93
318.495	94.89
318.709	62.12
318.922	53.93
319.136	111.27
319.349	55.98
319.563	-34.13
319.776	-19.8
319.99	-23.89
320.203	58.03
320.417	37.55
320.63	39.59
320.843	90.79
321.057	37.55
321.27	96.94
321.483	88.75
321.697	64.17
321.91	-9.56
322.124	37.55
322.337	45.74
322.55	-9.56
322.763	62.12
322.977	-23.89
323.19	25.26
323.403	45.74
323.617	86.7
323.83	84.65
324.043	-66.9
324.256	76.46
324.469	39.59
324.683	4.78
324.896	33.45
325.109	-17.75
325.322	-5.46
325.535	55.98
325.748	80.55
325.962	-9.56
326.175	107.18
326.388	47.79
326.601	37.55
326.814	-11.61
327.027	8.87
327.24	37.55
327.453	58.03
327.666	29.35
327.879	51.88
328.092	45.74
328.305	-13.65
328.518	12.97
328.731	-13.65
328.944	53.93
329.157	58.03
329.37	86.7
329.583	86.7
329.796	109.22
330.009	12.97
330.222	10.92
330.435	78.51
330.648	47.79
330.861	66.22
331.073	49.83
331.286	62.12
331.499	47.79
331.712	12.97
331.925	-36.18
332.138	-3.41
332.35	80.55
332.563	15.02
332.776	8.87
332.989	-25.94
333.202	82.6
333.414	23.21
333.627	-1.37
333.84	-68.95
334.053	58.03
334.265	43.69
334.478	-17.75
334.691	4.78
334.903	17.07
335.116	0.68
335.329	27.31
335.541	72.36
335.754	37.55
335.966	-40.28
336.179	84.65
336.392	29.35
336.604	12.97
336.817	23.21
337.029	78.51
337.242	35.5
337.454	64.17
337.667	-3.41
337.88	37.55
338.092	58.03
338.305	41.64
338.517	31.4
338.729	55.98
338.942	60.07
339.154	53.93
339.367	-3.41
339.579	55.98
339.792	33.45
340.004	58.03
340.217	19.11
340.429	76.46
340.641	45.74
340.854	27.31
341.066	39.59
341.278	-11.61
341.491	78.51
341.703	35.5
341.915	-77.14
342.128	4.78
342.34	70.31
342.552	92.84
342.764	33.45
342.977	123.56
343.189	94.89
343.401	19.11
343.613	12.97
343.826	146.09
344.038	-40.28
344.25	47.79
344.462	-19.8
344.674	-7.51
344.886	4.78
345.099	74.41
345.311	53.93
345.523	98.99
345.735	-25.94
345.947	58.03
346.159	49.83
346.371	62.12
346.583	80.55
346.795	33.45
347.007	45.74
347.219	-17.75
347.431	-3.41
347.643	62.12
347.855	53.93
348.067	148.14
348.279	0.68
348.491	29.35
348.703	82.6
348.915	41.64
349.127	0.68
349.339	-9.56
349.551	-3.41
349.763	37.55
349.975	2.73
350.187	115.37
350.399	37.55
350.61	125.61
350.822	62.12
351.034	64.17
351.246	66.22
351.458	78.51
351.669	-3.41
351.881	129.7
352.093	25.26
352.305	37.55
352.517	64.17
352.728	164.52
352.94	6.83
353.152	51.88
353.363	6.83
353.575	64.17
353.787	35.5
353.999	6.83
354.21	37.55
354.422	74.41
354.633	-56.66
354.845	-40.28
355.057	76.46
355.268	58.03
355.48	17.07
355.692	66.22
355.903	43.69
356.115	-1.37
356.326	-48.47
356.538	88.75
356.749	105.13
356.961	115.37
357.172	19.11
357.384	-58.71
357.595	86.7
357.807	35.5
358.018	25.26
358.23	70.31
358.441	33.45
358.653	21.16
358.864	29.35
359.075	111.27
359.287	53.93
359.498	70.31
359.709	29.35
359.921	2.73
360.132	39.59
360.344	-1.37
360.555	78.51
360.766	78.51
360.977	49.83
361.189	37.55
361.4	2.73
361.611	21.16
361.823	8.87
362.034	39.59
362.245	37.55
362.456	60.07
362.667	55.98
362.879	-19.8
363.09	33.45
363.301	58.03
363.512	12.97
363.723	15.02
363.935	31.4
364.146	23.21
364.357	4.78
364.568	58.03
364.779	8.87
364.99	31.4
365.201	8.87
365.412	107.18
365.623	-105.81
365.834	70.31
366.045	15.02
366.256	4.78
366.467	6.83
366.678	-32.08
366.889	66.22
367.1	70.31
367.311	82.6
367.522	25.26
367.733	-1.37
367.944	15.02
368.155	-9.56
368.366	90.79
368.577	111.27
368.788	15.02
368.999	-44.37
369.209	-25.94
369.42	78.51
369.631	37.55
369.842	76.46
370.053	21.16
370.264	70.31
370.474	45.74
370.685	62.12
370.896	47.79
371.107	31.4
371.317	25.26
371.528	29.35
371.739	58.03
371.95	29.35
372.16	37.55
372.371	6.83
372.582	37.55
372.792	17.07
373.003	6.83
373.214	45.74
373.424	107.18
373.635	31.4
373.846	25.26
374.056	12.97
374.267	82.6
374.477	-17.75
374.688	-3.41
374.898	137.9
375.109	62.12
375.319	64.17
375.53	103.08
375.74	101.03
375.951	86.7
376.161	-52.56
376.372	62.12
376.582	17.07
376.793	-3.41
377.003	27.31
377.214	12.97
377.424	47.79
377.635	98.99
377.845	15.02
378.055	0.68
378.266	-7.51
378.476	-7.51
378.686	31.4
378.897	62.12
379.107	12.97
379.317	90.79
379.528	25.26
379.738	58.03
379.948	49.83
380.158	25.26
380.369	41.64
380.579	31.4
380.789	-11.61
380.999	82.6
381.21	8.87
381.42	55.98
381.63	33.45
381.84	62.12
382.05	15.02
382.261	105.13
382.471	70.31
382.681	8.87
382.891	74.41
383.101	94.89
383.311	37.55
383.521	43.69
383.731	94.89
383.941	25.26
384.151	23.21
384.361	-62.8
384.571	-25.94
384.781	72.36
384.991	113.32
385.201	78.51
385.411	55.98
385.621	39.59
385.831	-25.94
386.041	119.46
386.251	29.35
386.461	94.89
386.671	21.16
386.881	47.79
387.091	37.55
387.301	37.55
387.511	64.17
387.72	33.45
387.93	72.36
388.14	51.88
388.35	70.31
388.56	129.7
388.769	74.41
388.979	72.36
389.189	19.11
389.399	62.12
389.609	94.89
389.818	68.27
390.028	43.69
390.238	70.31
390.447	19.11
390.657	58.03
390.867	78.51
391.076	-58.71
391.286	53.93
391.496	37.55
391.705	21.16
391.915	41.64
392.125	37.55
392.334	31.4
392.544	72.36
392.753	76.46
392.963	17.07
393.172	127.66
393.382	105.13
393.591	129.7
393.801	33.45
394.01	70.31
394.22	53.93
394.429	129.7
394.639	58.03
394.848	107.18
395.058	76.46
395.267	76.46
395.477	146.09
395.686	96.94
395.895	55.98
396.105	90.79
396.314	49.83
396.524	105.13
396.733	37.55
396.942	111.27
397.152	55.98
397.361	80.55
397.57	47.79
397.78	49.83
397.989	66.22
398.198	123.56
398.407	19.11
398.617	94.89
398.826	45.74
399.035	96.94
399.244	17.07
399.453	70.31
399.663	31.4
399.872	84.65
400.081	12.97
400.29	168.62
400.499	41.64
400.708	137.9
400.917	96.94
401.127	107.18
401.336	84.65
401.545	113.32
401.754	144.04
401.963	74.41
402.172	127.66
402.381	33.45
402.59	82.6
402.799	90.79
403.008	123.56
403.217	127.66
403.426	193.19
403.635	31.4
403.844	154.28
404.053	103.08
404.262	64.17
404.471	144.04
404.68	123.56
404.888	70.31
405.097	37.55
405.306	152.23
405.515	107.18
405.724	98.99
405.933	176.81
406.142	84.65
406.35	156.33
406.559	123.56
406.768	185
406.977	131.75
407.185	53.93
407.394	139.94
407.603	185
407.812	195.24
408.02	131.75
408.229	197.29
408.438	127.66
408.646	180.9
408.855	144.04
409.064	197.29
409.272	197.29
409.481	266.92
409.69	107.18
409.898	193.19
410.107	213.67
410.315	166.57
410.524	260.77
410.733	307.88
410.941	217.77
411.15	293.54
411.358	246.44
411.567	387.75
411.775	320.17
411.984	381.6
412.192	332.45
412.401	318.12
412.609	350.89
412.818	400.04
413.026	441
413.234	379.56
413.443	354.98
413.651	354.98
413.86	438.95
414.068	432.8
414.276	467.62
414.485	496.29
414.693	428.71
414.901	547.49
415.11	506.53
415.318	527.01
415.526	514.72
415.734	553.63
415.943	539.3
416.151	592.55
416.359	574.11
416.567	559.78
416.776	570.02
416.984	744.1
417.192	668.32
417.4	701.09
417.608	754.34
417.817	770.72
418.025	842.4
418.233	969.37
418.441	819.87
418.649	897.69
418.857	1041.05
419.065	967.32
419.273	981.66
419.481	983.71
419.689	1045.15
419.897	1053.34
420.105	1129.11
420.313	1153.69
420.521	1219.22
420.729	1184.41
420.937	1282.71
421.145	1350.29
421.353	1360.53
421.561	1516.18
421.769	1446.55
421.977	1573.52
422.185	1507.99
422.393	1589.91
422.601	1659.54
422.809	1690.26
423.017	1725.07
423.224	1774.22
423.432	1880.72
423.64	1993.36
423.848	2069.13
424.056	1956.49
424.263	2120.33
424.471	2085.51
424.679	2183.82
424.887	2282.12
425.094	2351.75
425.302	2396.81
425.51	2554.5
425.718	2515.59
425.925	2441.86
426.133	2660.99
426.341	2773.63
426.548	2890.37
426.756	2888.32
426.964	2990.72
427.171	3086.97
427.379	3144.31
427.586	3310.2
427.794	3306.1
428.001	3609.2
428.209	3652.21
428.417	3590.77
428.624	3863.15
428.832	3854.96
429.039	3742.32
429.247	3883.63
429.454	4211.31
429.662	4522.6
429.869	4194.92
430.076	4500.07
430.284	4422.25
430.491	4606.56
430.699	4856.42
430.906	4903.52
431.114	4864.61
431.321	5005.92
431.528	5227.1
431.736	5421.66
431.943	5804.63
432.15	5577.3
432.358	5556.82
432.565	5857.87
432.772	5886.54
432.979	6326.86
433.187	6263.37
433.394	6312.52
433.601	6924.86
433.808	6679.11
434.016	6599.24
434.223	6877.76
434.43	7176.77
434.637	7354.94
434.844	7715.38
435.052	8038.96
435.259	7797.3
435.466	7805.49
435.673	7815.73
435.88	8421.93
436.087	8796.71
436.294	8794.66
436.501	8497.7
436.708	8657.45
436.915	8993.31
437.122	9409.05
437.329	9296.41
437.537	9486.87
437.743	9720.34
437.95	9681.43
438.157	10172.94
438.364	10562.06
438.571	10418.7
438.778	10580.49
438.985	11596.28
439.192	11127.3
439.399	11231.74
439.606	11297.28
439.813	11956.72
440.02	12634.6
440.227	12325.36
440.433	12087.79
440.64	12763.62
440.847	12442.09
441.054	12823.01
441.261	13830.62
441.467	13717.98
441.674	13869.53
441.881	14346.7
442.088	14363.09
442.294	14191.06
442.501	14545.36
442.708	14528.97
442.914	15446.46
443.121	16069.05
443.328	15577.53
443.534	16851.37
443.741	16294.32
443.948	16093.62
444.154	17103.27
444.361	17027.49
444.568	17060.26
444.774	17387.94
444.981	17383.84
445.187	17748.38
445.394	18768.27
445.6	18061.72
445.807	20017.53
446.013	18909.58
446.22	19485.06
446.426	20435.31
446.633	20337.01
446.839	21328.23
447.046	20410.74
447.252	21578.08
447.459	21449.06
447.665	21381.48
447.871	22421.84
448.078	23413.06
448.284	22311.25
448.491	22708.56
448.697	23613.76
448.903	24277.3
449.11	24496.44
449.316	23687.49
449.522	24430.9
449.728	24764.72
449.935	25090.35
450.141	25252.14
450.347	25825.57
450.553	25049.39
450.76	25272.62
450.966	26032.41
451.172	25778.47
451.378	26155.29
451.584	25809.18
451.791	26499.35
451.997	26210.59
452.203	26655
452.409	26976.53
452.615	26587.41
452.821	25674.02
453.027	25575.72
453.233	27341.07
453.44	26126.62
453.646	26333.46
453.852	26749.2
454.058	26945.81
454.264	26122.52
454.47	26407.19
454.676	25874.72
454.882	26798.35
455.088	24490.29
455.294	24807.73
455.5	25348.39
455.705	25880.86
455.911	24643.89
456.117	24246.58
456.323	23456.07
456.529	22624.59
456.735	23742.78
456.941	23052.62
457.147	22645.07
457.352	21991.77
457.558	21438.82
457.764	21870.94
457.97	21420.39
458.176	20834.67
458.381	20857.2
458.587	19773.82
458.793	19802.49
458.999	18852.24
459.204	20224.37
459.41	19777.92
459.616	18397.59
459.821	18336.15
460.027	18383.25
460.233	18078.1
460.438	17322.4
460.644	17308.07
460.85	16378.29
461.055	16359.86
461.261	16032.18
461.466	14787.02
461.672	14475.73
461.878	15784.38
462.083	14537.16
462.289	14158.29
462.494	14240.21
462.7	13554.14
462.905	13183.46
463.111	13793.75
463.316	13853.14
463.522	13318.62
463.727	13423.07
463.932	13232.61
464.138	13279.71
464.343	13302.24
464.549	12868.07
464.754	13441.5
464.959	13210.08
465.165	13103.59
465.37	12562.92
465.575	12225.01
465.781	12773.86
465.986	12851.69
466.191	12325.36
466.397	12034.55
466.602	11344.38
466.807	11819.51
467.012	11977.2
467.218	11688.44
467.423	11891.19
467.628	11608.57
467.833	12231.15
468.038	11647.48
468.244	11475.45
