Data from USB4F104151__224__14-21-37-502.txt Node

Date: Thu Mar 13 14:21:37 EDT 2025
User: louis
Spectrometer: USB4F10415
Trigger mode: 4
Integration Time (sec): 2.000000E-2
Scans to average: 1
Electric dark correction enabled: true
Nonlinearity correction enabled: false
Boxcar width: 0
XAxis mode: Wavelengths
Number of Pixels in Spectrum: 3648
>>>>>Begin Spectral Data<<<<<
178.204	-106.49
178.424	-106.49
178.644	-106.49
178.864	-88.06
179.084	-96.25
179.304	-4.1
179.524	10.24
179.744	-38.91
179.964	65.54
180.184	104.45
180.404	30.72
180.624	-63.49
180.844	-12.29
181.064	-34.82
181.283	-55.3
181.503	-6.14
181.723	4.1
181.943	2.05
182.163	79.87
182.383	63.49
182.602	40.96
182.822	40.96
183.042	-24.58
183.262	-10.24
183.482	32.77
183.701	75.77
183.921	38.91
184.141	18.43
184.361	40.96
184.58	8.19
184.8	79.87
185.02	14.34
185.239	106.49
185.459	-24.58
185.679	112.64
185.898	-22.53
186.118	75.77
186.338	38.91
186.557	79.87
186.777	-2.05
186.997	-2.05
187.216	-32.77
187.436	100.35
187.655	18.43
187.875	24.58
188.095	0
188.314	83.97
188.534	18.43
188.753	24.58
188.973	-6.14
189.192	61.44
189.412	4.1
189.631	51.2
189.851	30.72
190.07	49.15
190.29	55.3
190.509	24.58
190.729	22.53
190.948	38.91
191.168	116.73
191.387	79.87
191.607	-8.19
191.826	83.97
192.045	6.14
192.265	8.19
192.484	36.86
192.704	63.49
192.923	-49.15
193.142	47.1
193.362	-10.24
193.581	116.73
193.8	38.91
194.02	96.25
194.239	-2.05
194.458	30.72
194.678	34.82
194.897	0
195.116	81.92
195.335	49.15
195.555	14.34
195.774	8.19
195.993	92.16
196.212	40.96
196.432	79.87
196.651	30.72
196.87	2.05
197.089	43.01
197.308	65.54
197.528	38.91
197.747	-10.24
197.966	-63.49
198.185	131.07
198.404	-57.34
198.623	40.96
198.842	0
199.062	38.91
199.281	94.21
199.5	-43.01
199.719	-32.77
199.938	30.72
200.157	108.54
200.376	2.05
200.595	43.01
200.814	-18.43
201.033	-26.62
201.252	22.53
201.471	30.72
201.69	24.58
201.909	59.39
202.128	26.62
202.347	38.91
202.566	108.54
202.785	-43.01
203.004	22.53
203.223	129.02
203.442	49.15
203.661	55.3
203.879	6.14
204.098	157.69
204.317	67.58
204.536	92.16
204.755	20.48
204.974	26.62
205.193	30.72
205.411	38.91
205.63	-18.43
205.849	2.05
206.068	38.91
206.287	30.72
206.505	96.25
206.724	14.34
206.943	-8.19
207.162	47.1
207.381	24.58
207.599	51.2
207.818	30.72
208.037	88.06
208.255	26.62
208.474	-2.05
208.693	4.1
208.911	-51.2
209.13	49.15
209.349	14.34
209.567	47.1
209.786	49.15
210.005	-32.77
210.223	51.2
210.442	-28.67
210.661	18.43
210.879	43.01
211.098	67.58
211.316	38.91
211.535	96.25
211.753	73.73
211.972	67.58
212.191	45.06
212.409	18.43
212.628	18.43
212.846	8.19
213.065	47.1
213.283	102.4
213.502	22.53
213.72	40.96
213.938	18.43
214.157	51.2
214.375	67.58
214.594	-8.19
214.812	6.14
215.031	-10.24
215.249	30.72
215.467	55.3
215.686	-10.24
215.904	73.73
216.122	-40.96
216.341	75.77
216.559	20.48
216.778	139.26
216.996	47.1
217.214	96.25
217.432	2.05
217.651	14.34
217.869	28.67
218.087	-34.82
218.306	26.62
218.524	88.06
218.742	-6.14
218.96	65.54
219.179	26.62
219.397	-59.39
219.615	43.01
219.833	81.92
220.051	2.05
220.27	20.48
220.488	81.92
220.706	34.82
220.924	55.3
221.142	-18.43
221.36	2.05
221.578	96.25
221.796	30.72
222.015	14.34
222.233	43.01
222.451	18.43
222.669	73.73
222.887	-63.49
223.105	-51.2
223.323	-2.05
223.541	-14.34
223.759	22.53
223.977	18.43
224.195	26.62
224.413	47.1
224.631	8.19
224.849	40.96
225.067	155.65
225.285	59.39
225.503	-47.1
225.721	-12.29
225.939	8.19
226.157	57.34
226.375	55.3
226.592	20.48
226.81	-2.05
227.028	92.16
227.246	57.34
227.464	47.1
227.682	32.77
227.9	65.54
228.117	0
228.335	-22.53
228.553	16.38
228.771	53.25
228.989	47.1
229.206	-6.14
229.424	38.91
229.642	55.3
229.86	28.67
230.077	71.68
230.295	-18.43
230.513	-14.34
230.731	49.15
230.948	6.14
231.166	34.82
231.384	18.43
231.601	24.58
231.819	116.73
232.037	-18.43
232.254	14.34
232.472	55.3
232.689	-6.14
232.907	55.3
233.125	20.48
233.342	45.06
233.56	4.1
233.777	65.54
233.995	63.49
234.213	40.96
234.43	34.82
234.648	22.53
234.865	-12.29
235.083	16.38
235.3	20.48
235.518	43.01
235.735	43.01
235.953	88.06
236.17	-10.24
236.388	30.72
236.605	63.49
236.822	67.58
237.04	28.67
237.257	-43.01
237.475	36.86
237.692	6.14
237.909	24.58
238.127	-2.05
238.344	8.19
238.562	57.34
238.779	-112.64
238.996	4.1
239.214	30.72
239.431	-2.05
239.648	-32.77
239.865	-20.48
240.083	47.1
240.3	-2.05
240.517	-65.53
240.735	73.73
240.952	88.06
241.169	63.49
241.386	4.1
241.603	12.29
241.821	-43.01
242.038	104.45
242.255	34.82
242.472	-43.01
242.689	90.11
242.907	-22.53
243.124	63.49
243.341	-2.05
243.558	-14.34
243.775	43.01
243.992	40.96
244.209	34.82
244.426	28.67
244.643	51.2
244.86	8.19
245.078	71.68
245.295	38.91
245.512	63.49
245.729	-47.1
245.946	30.72
246.163	79.87
246.38	-10.24
246.597	-34.82
246.814	61.44
247.031	47.1
247.248	88.06
247.464	75.77
247.681	59.39
247.898	6.14
248.115	10.24
248.332	-16.38
248.549	30.72
248.766	116.73
248.983	43.01
249.2	18.43
249.417	18.43
249.633	-36.86
249.85	86.01
250.067	16.38
250.284	47.1
250.501	38.91
250.717	83.97
250.934	-8.19
251.151	63.49
251.368	22.53
251.585	-32.77
251.801	6.14
252.018	6.14
252.235	18.43
252.451	28.67
252.668	-8.19
252.885	-14.34
253.102	73.73
253.318	47.1
253.535	-43.01
253.752	59.39
253.968	18.43
254.185	-18.43
254.401	-30.72
254.618	88.06
254.835	40.96
255.051	49.15
255.268	-4.1
255.484	-2.05
255.701	-43.01
255.917	98.3
256.134	-18.43
256.351	24.58
256.567	38.91
256.784	-47.1
257	22.53
257.217	18.43
257.433	75.77
257.65	96.25
257.866	53.25
258.082	24.58
258.299	24.58
258.515	65.54
258.732	-6.14
258.948	40.96
259.165	14.34
259.381	65.54
259.597	-32.77
259.814	34.82
260.03	6.14
260.246	79.87
260.463	63.49
260.679	49.15
260.895	-14.34
261.112	71.68
261.328	-10.24
261.544	61.44
261.761	135.17
261.977	38.91
262.193	4.1
262.409	47.1
262.626	67.58
262.842	73.73
263.058	28.67
263.274	0
263.49	98.3
263.707	57.34
263.923	65.54
264.139	-16.38
264.355	-49.15
264.571	40.96
264.787	51.2
265.004	57.34
265.22	-22.53
265.436	-16.38
265.652	-18.43
265.868	40.96
266.084	4.1
266.3	40.96
266.516	26.62
266.732	22.53
266.948	57.34
267.164	4.1
267.38	92.16
267.596	34.82
267.812	124.93
268.028	24.58
268.244	0
268.46	114.69
268.676	8.19
268.892	51.2
269.108	-2.05
269.324	-55.3
269.54	53.25
269.756	106.49
269.972	-34.82
270.188	110.59
270.403	-79.87
270.619	26.62
270.835	47.1
271.051	40.96
271.267	22.53
271.483	104.45
271.698	71.68
271.914	6.14
272.13	6.14
272.346	30.72
272.562	38.91
272.777	71.68
272.993	30.72
273.209	12.29
273.425	18.43
273.64	6.14
273.856	40.96
274.072	-2.05
274.287	14.34
274.503	43.01
274.719	51.2
274.934	22.53
275.15	-22.53
275.366	22.53
275.581	-61.44
275.797	32.77
276.012	16.38
276.228	24.58
276.444	-8.19
276.659	26.62
276.875	0
277.09	-57.34
277.306	55.3
277.521	73.73
277.737	28.67
277.952	14.34
278.168	28.67
278.383	32.77
278.599	24.58
278.814	16.38
279.03	-32.77
279.245	120.83
279.461	-51.2
279.676	96.25
279.892	-96.25
280.107	47.1
280.322	24.58
280.538	92.16
280.753	30.72
280.969	96.25
281.184	8.19
281.399	63.49
281.615	55.3
281.83	-40.96
282.045	6.14
282.26	24.58
282.476	88.06
282.691	94.21
282.906	77.82
283.122	49.15
283.337	69.63
283.552	59.39
283.767	22.53
283.983	-22.53
284.198	38.91
284.413	112.64
284.628	2.05
284.843	63.49
285.058	57.34
285.274	-8.19
285.489	30.72
285.704	55.3
285.919	20.48
286.134	43.01
286.349	34.82
286.564	8.19
286.779	75.77
286.995	14.34
287.21	-26.62
287.425	8.19
287.64	55.3
287.855	30.72
288.07	24.58
288.285	98.3
288.5	73.73
288.715	57.34
288.93	92.16
289.145	4.1
289.36	34.82
289.575	47.1
289.79	36.86
290.004	28.67
290.219	6.14
290.434	38.91
290.649	16.38
290.864	18.43
291.079	18.43
291.294	96.25
291.509	55.3
291.724	57.34
291.938	-22.53
292.153	51.2
292.368	61.44
292.583	57.34
292.798	38.91
293.012	112.64
293.227	73.73
293.442	-12.29
293.657	49.15
293.871	81.92
294.086	51.2
294.301	116.73
294.516	26.62
294.73	-22.53
294.945	47.1
295.16	120.83
295.374	63.49
295.589	81.92
295.804	38.91
296.018	4.1
296.233	73.73
296.447	71.68
296.662	-2.05
296.877	18.43
297.091	38.91
297.306	38.91
297.52	49.15
297.735	65.54
297.949	59.39
298.164	36.86
298.378	63.49
298.593	-40.96
298.807	38.91
299.022	40.96
299.236	22.53
299.451	-40.96
299.665	2.05
299.88	-4.1
300.094	26.62
300.309	65.54
300.523	-16.38
300.737	0
300.952	131.07
301.166	24.58
301.381	49.15
301.595	0
301.809	47.1
302.024	-2.05
302.238	16.38
302.452	28.67
302.667	16.38
302.881	75.77
303.095	88.06
303.309	-10.24
303.524	69.63
303.738	0
303.952	-2.05
304.166	108.54
304.381	-40.96
304.595	75.77
304.809	-10.24
305.023	71.68
305.237	22.53
305.452	47.1
305.666	14.34
305.88	104.45
306.094	6.14
306.308	63.49
306.522	55.3
306.736	51.2
306.95	32.77
307.164	26.62
307.379	-18.43
307.593	34.82
307.807	38.91
308.021	-2.05
308.235	43.01
308.449	73.73
308.663	51.2
308.877	47.1
309.091	34.82
309.305	141.31
309.519	-67.58
309.733	45.06
309.947	-40.96
310.161	81.92
310.374	73.73
310.588	57.34
310.802	-28.67
311.016	45.06
311.23	-18.43
311.444	30.72
311.658	63.49
311.872	108.54
312.085	73.73
312.299	61.44
312.513	65.54
312.727	92.16
312.941	-100.35
313.154	63.49
313.368	26.62
313.582	26.62
313.796	49.15
314.009	24.58
314.223	16.38
314.437	104.45
314.651	-43.01
314.864	73.73
315.078	22.53
315.292	-12.29
315.505	-28.67
315.719	65.54
315.933	79.87
316.146	65.54
316.36	77.82
316.573	55.3
316.787	38.91
317.001	49.15
317.214	51.2
317.428	49.15
317.641	61.44
317.855	65.54
318.068	45.06
318.282	38.91
318.495	24.58
318.709	49.15
318.922	30.72
319.136	30.72
319.349	-12.29
319.563	83.97
319.776	30.72
319.99	6.14
320.203	36.86
320.417	38.91
320.63	88.06
320.843	26.62
321.057	120.83
321.27	69.63
321.483	47.1
321.697	-6.14
321.91	36.86
322.124	24.58
322.337	65.54
322.55	49.15
322.763	18.43
322.977	49.15
323.19	75.77
323.403	92.16
323.617	67.58
323.83	59.39
324.043	69.63
324.256	47.1
324.469	55.3
324.683	6.14
324.896	26.62
325.109	55.3
325.322	-57.34
325.535	47.1
325.748	88.06
325.962	38.91
326.175	98.3
326.388	63.49
326.601	63.49
326.814	22.53
327.027	38.91
327.24	40.96
327.453	-4.1
327.666	-30.72
327.879	38.91
328.092	55.3
328.305	47.1
328.518	20.48
328.731	-16.38
328.944	51.2
329.157	61.44
329.37	83.97
329.583	49.15
329.796	88.06
330.009	-24.58
330.222	63.49
330.435	55.3
330.648	16.38
330.861	-55.3
331.073	38.91
331.286	14.34
331.499	67.58
331.712	-59.39
331.925	94.21
332.138	65.54
332.35	112.64
332.563	-16.38
332.776	63.49
332.989	18.43
333.202	-45.06
333.414	47.1
333.627	40.96
333.84	71.68
334.053	79.87
334.265	47.1
334.478	55.3
334.691	59.39
334.903	63.49
335.116	-24.58
335.329	24.58
335.541	30.72
335.754	18.43
335.966	38.91
336.179	-81.92
336.392	-24.58
336.604	40.96
336.817	63.49
337.029	88.06
337.242	-34.82
337.454	49.15
337.667	16.38
337.88	43.01
338.092	30.72
338.305	137.21
338.517	10.24
338.729	96.25
338.942	75.77
339.154	55.3
339.367	-51.2
339.579	43.01
339.792	55.3
340.004	43.01
340.217	-36.86
340.429	75.77
340.641	-14.34
340.854	-8.19
341.066	47.1
341.278	133.12
341.491	73.73
341.703	63.49
341.915	-12.29
342.128	79.87
342.34	65.54
342.552	63.49
342.764	12.29
342.977	16.38
343.189	-4.1
343.401	2.05
343.613	-16.38
343.826	75.77
344.038	4.1
344.25	-26.62
344.462	79.87
344.674	6.14
344.886	47.1
345.099	73.73
345.311	90.11
345.523	-34.82
345.735	20.48
345.947	34.82
346.159	34.82
346.371	-16.38
346.583	63.49
346.795	98.3
347.007	104.45
347.219	22.53
347.431	30.72
347.643	108.54
347.855	32.77
348.067	57.34
348.279	8.19
348.491	129.02
348.703	94.21
348.915	34.82
349.127	67.58
349.339	30.72
349.551	-38.91
349.763	104.45
349.975	-10.24
350.187	-14.34
350.399	106.49
350.61	10.24
350.822	30.72
351.034	43.01
351.246	63.49
351.458	49.15
351.669	-6.14
351.881	112.64
352.093	65.54
352.305	79.87
352.517	86.01
352.728	133.12
352.94	-36.86
353.152	14.34
353.363	26.62
353.575	45.06
353.787	6.14
353.999	14.34
354.21	-14.34
354.422	-14.34
354.633	65.54
354.845	30.72
355.057	40.96
355.268	124.93
355.48	90.11
355.692	-2.05
355.903	51.2
356.115	28.67
356.326	51.2
356.538	120.83
356.749	108.54
356.961	108.54
357.172	-40.96
357.384	24.58
357.595	96.25
357.807	18.43
358.018	69.63
358.23	32.77
358.441	55.3
358.653	22.53
358.864	94.21
359.075	55.3
359.287	79.87
359.498	92.16
359.709	8.19
359.921	-36.86
360.132	71.68
360.344	88.06
360.555	73.73
360.766	79.87
360.977	88.06
361.189	14.34
361.4	20.48
361.611	83.97
361.823	71.68
362.034	30.72
362.245	-4.1
362.456	63.49
362.667	59.39
362.879	22.53
363.09	139.26
363.301	-24.58
363.512	47.1
363.723	43.01
363.935	30.72
364.146	92.16
364.357	-10.24
364.568	104.45
364.779	79.87
364.99	6.14
365.201	0
365.412	116.73
365.623	-22.53
365.834	49.15
366.045	8.19
366.256	69.63
366.467	83.97
366.678	-32.77
366.889	8.19
367.1	112.64
367.311	104.45
367.522	63.49
367.733	83.97
367.944	34.82
368.155	51.2
368.366	-8.19
368.577	53.25
368.788	47.1
368.999	53.25
369.209	124.93
369.42	83.97
369.631	88.06
369.842	122.88
370.053	88.06
370.264	43.01
370.474	0
370.685	65.54
370.896	79.87
371.107	30.72
371.317	45.06
371.528	-40.96
371.739	100.35
371.95	98.3
372.16	63.49
372.371	24.58
372.582	49.15
372.792	79.87
373.003	77.82
373.214	8.19
373.424	102.4
373.635	22.53
373.846	47.1
374.056	-47.1
374.267	88.06
374.477	61.44
374.688	57.34
374.898	65.54
375.109	26.62
375.319	-6.14
375.53	51.2
375.74	81.92
375.951	22.53
376.161	49.15
376.372	133.12
376.582	12.29
376.793	6.14
377.003	14.34
377.214	106.49
377.424	-2.05
377.635	30.72
377.845	24.58
378.055	57.34
378.266	22.53
378.476	18.43
378.686	65.54
378.897	83.97
379.107	79.87
379.317	55.3
379.528	63.49
379.738	67.58
379.948	36.86
380.158	69.63
380.369	40.96
380.579	40.96
380.789	6.14
380.999	137.21
381.21	28.67
381.42	104.45
381.63	47.1
381.84	55.3
382.05	55.3
382.261	63.49
382.471	57.34
382.681	122.88
382.891	51.2
383.101	34.82
383.311	-45.06
383.521	71.68
383.731	61.44
383.941	88.06
384.151	63.49
384.361	26.62
384.571	86.01
384.781	57.34
384.991	79.87
385.201	165.89
385.411	81.92
385.621	75.77
385.831	-2.05
386.041	-8.19
386.251	40.96
386.461	57.34
386.671	129.02
386.881	-2.05
387.091	38.91
387.301	34.82
387.511	73.73
387.72	75.77
387.93	106.49
388.14	51.2
388.35	92.16
388.56	81.92
388.769	112.64
388.979	30.72
389.189	-18.43
389.399	26.62
389.609	79.87
389.818	55.3
390.028	32.77
390.238	63.49
390.447	47.1
390.657	67.58
390.867	53.25
391.076	108.54
391.286	112.64
391.496	106.49
391.705	16.38
391.915	73.73
392.125	75.77
392.334	34.82
392.544	79.87
392.753	55.3
392.963	106.49
393.172	34.82
393.382	73.73
393.591	151.55
393.801	38.91
394.01	180.22
394.22	45.06
394.429	129.02
394.639	47.1
394.848	114.69
395.058	43.01
395.267	16.38
395.477	92.16
395.686	98.3
395.895	188.41
396.105	145.41
396.314	47.1
396.524	129.02
396.733	153.6
396.942	147.45
397.152	122.88
397.361	155.65
397.57	178.17
397.78	190.46
397.989	92.16
398.198	118.78
398.407	112.64
398.617	49.15
398.826	116.73
399.035	126.97
399.244	131.07
399.453	137.21
399.663	141.31
399.872	75.77
400.081	116.73
400.29	139.26
400.499	106.49
400.708	124.93
400.917	96.25
401.127	88.06
401.336	100.35
401.545	239.61
401.754	135.17
401.963	73.73
402.172	106.49
402.381	131.07
402.59	194.56
402.799	147.45
403.008	182.27
403.217	169.98
403.426	124.93
403.635	131.07
403.844	96.25
404.053	126.97
404.262	237.56
404.471	194.56
404.68	169.98
404.888	106.49
405.097	178.17
405.306	196.61
405.515	212.99
405.724	182.27
405.933	223.23
406.142	147.45
406.35	245.76
406.559	210.94
406.768	215.04
406.977	243.71
407.185	219.13
407.394	190.46
407.603	178.17
407.812	333.82
408.02	251.9
408.229	231.42
408.438	235.52
408.646	198.65
408.855	251.9
409.064	286.72
409.272	225.28
409.481	329.72
409.69	253.95
409.898	268.28
410.107	253.95
410.315	362.49
410.524	399.35
410.733	440.31
410.941	368.63
411.15	425.98
411.358	436.22
411.567	444.41
411.775	497.66
411.984	436.22
412.192	493.56
412.401	542.71
412.609	593.91
412.818	546.81
413.026	518.14
413.234	634.87
413.443	643.06
413.651	542.71
413.86	571.38
414.068	571.38
414.276	739.32
414.485	751.6
414.693	710.65
414.901	808.95
415.11	837.62
415.318	681.97
415.526	804.85
415.734	800.76
415.943	819.19
416.151	872.43
416.359	851.96
416.567	993.26
416.776	1030.13
416.984	1034.22
417.192	1124.33
417.4	1064.94
417.608	1114.1
417.817	1187.82
418.025	1300.46
418.233	1312.75
418.441	1329.13
418.649	1396.71
418.857	1419.24
419.065	1421.29
419.273	1433.58
419.481	1497.07
419.689	1527.78
419.897	1701.86
420.105	1613.8
420.313	1693.67
420.521	1767.4
420.729	1886.18
420.937	1877.99
421.145	1957.86
421.353	1998.82
421.561	2103.26
421.769	2138.08
421.977	2240.48
422.185	2207.71
422.393	2402.27
422.601	2512.86
422.809	2465.75
423.017	2521.05
423.224	2666.46
423.432	2783.19
423.64	2834.39
423.848	2953.17
424.056	2877.4
424.263	3250.13
424.471	3184.59
424.679	3266.51
424.887	3356.62
425.094	3549.13
425.302	3497.93
425.51	3616.71
425.718	3700.68
425.925	3729.35
426.133	3850.18
426.341	4143.04
426.548	4407.23
426.756	4347.84
426.964	4306.88
427.171	4593.59
427.379	4814.77
427.586	5011.38
427.794	4980.66
428.001	5226.42
428.209	5466.03
428.417	5380.01
428.624	5676.97
428.832	5719.98
429.039	5703.59
429.247	5777.32
429.454	6354.85
429.662	6526.88
429.869	6252.45
430.076	6604.7
430.284	6461.34
430.491	6797.21
430.699	7063.44
430.906	7247.76
431.114	7143.31
431.321	7362.45
431.528	7659.4
431.736	8120.2
431.943	8308.61
432.15	8331.14
432.358	8296.32
432.565	8955.77
432.772	8621.95
432.979	9234.29
433.187	9269.11
433.394	9312.11
433.601	10266.47
433.808	10114.92
434.016	10018.66
434.223	10549.09
434.43	10778.46
434.637	10889.05
434.844	11642.7
435.052	11867.98
435.259	11917.13
435.466	11804.49
435.673	11757.39
435.88	12199.75
436.087	13133.62
436.294	13082.42
436.501	12640.06
436.708	13027.13
436.915	13375.28
437.122	14061.35
437.329	13977.39
437.537	14454.56
437.743	14645.02
437.95	14690.08
438.157	15126.3
438.364	15728.4
438.571	15820.56
438.778	16047.88
438.985	17254.14
439.192	16619.27
439.399	17153.79
439.606	17067.77
439.813	17725.17
440.02	18818.78
440.227	18454.25
440.433	18249.45
440.64	19062.49
440.847	18618.08
441.054	19111.64
441.261	20633.29
441.467	20303.56
441.674	20631.24
441.881	21159.61
442.088	21245.63
442.294	21092.03
442.501	21649.08
442.708	22126.25
442.914	22918.82
443.121	23955.09
443.328	23461.53
443.534	24850.05
443.741	23875.22
443.948	23926.42
444.154	25599.61
444.361	25820.79
444.568	25495.16
444.774	25446.01
444.981	26089.07
445.187	26932.84
445.394	27752.02
445.6	27483.74
445.807	30090.8
446.013	28665.42
446.22	29122.12
446.426	30324.27
446.633	30871.08
446.839	31684.12
447.046	30567.98
447.252	32400.91
447.459	32251.41
447.665	31759.9
447.871	33445.38
448.078	34721.26
448.284	33027.59
448.491	34022.9
448.697	35083.75
448.903	35982.81
449.11	36040.15
449.316	35349.99
449.522	36093.4
449.728	37098.95
449.935	36892.11
450.141	37121.48
450.347	37918.14
450.553	37258.7
450.76	37514.69
450.966	38636.98
451.172	38057.4
451.378	39005.61
451.584	38155.71
451.791	39247.27
451.997	39245.23
452.203	39865.76
452.409	39701.92
452.615	39536.04
452.821	37934.53
453.027	37660.1
453.233	39810.46
453.44	38321.59
453.646	38739.38
453.852	38684.08
454.058	39294.38
454.264	38108.6
454.47	39024.04
454.676	37780.93
454.882	39218.6
455.088	35868.12
455.294	36500.95
455.5	37256.65
455.705	37791.17
455.911	35825.12
456.117	35319.27
456.323	34887.15
456.529	33205.77
456.735	34342.39
456.941	33641.98
457.147	33123.85
457.352	31942.17
457.558	31551.01
457.764	31712.8
457.97	31438.37
458.176	30621.23
458.381	30828.07
458.587	29261.38
458.793	28927.56
458.999	27655.77
459.204	29636.16
459.41	28925.51
459.616	26830.44
459.821	26871.4
460.027	26879.59
460.233	26220.14
460.438	25167.49
460.644	25480.83
460.85	24331.92
461.055	23639.7
461.261	23756.44
461.466	21784.24
461.672	21235.39
461.878	23158.43
462.083	21223.1
462.289	20682.44
462.494	20756.16
462.7	19754.71
462.905	19175.13
463.111	20080.33
463.316	19945.17
463.522	19705.56
463.727	19568.34
463.932	19871.44
464.138	19392.22
464.343	19551.96
464.549	18779.87
464.754	19504.85
464.959	19433.18
465.165	19375.83
465.37	18421.48
465.575	17993.45
465.781	18482.92
465.986	18706.15
466.191	18079.47
466.397	17860.34
466.602	16963.33
466.807	17256.18
467.012	17598.2
467.218	17221.37
467.423	17221.37
467.628	17325.82
467.833	17897.2
