Data from USB4F104151__268__14-23-13-228.txt Node

Date: Thu Mar 13 14:23:13 EDT 2025
User: louis
Spectrometer: USB4F10415
Trigger mode: 4
Integration Time (sec): 2.000000E-2
Scans to average: 1
Electric dark correction enabled: true
Nonlinearity correction enabled: false
Boxcar width: 0
XAxis mode: Wavelengths
Number of Pixels in Spectrum: 3648
>>>>>Begin Spectral Data<<<<<
178.204	-98.47
178.424	-98.47
178.644	-98.47
178.864	-65.71
179.084	-112.81
179.304	-0.17
179.524	5.97
179.744	3.93
179.964	-6.31
180.184	-32.94
180.404	18.26
180.624	-0.17
180.844	24.4
181.064	-28.84
181.283	-20.65
181.503	3.93
181.723	32.6
181.943	-57.51
182.163	8.02
182.383	10.07
182.602	77.65
182.822	34.64
183.042	10.07
183.262	-0.17
183.482	40.79
183.701	3.93
183.921	24.4
184.141	-16.55
184.361	83.8
184.58	20.31
184.8	-22.7
185.02	-55.47
185.239	85.84
185.459	3.93
185.679	-0.17
185.898	-118.95
186.118	106.32
186.338	24.4
186.557	48.98
186.777	-4.27
186.997	-82.09
187.216	44.88
187.436	61.27
187.655	-20.65
187.875	-0.17
188.095	18.26
188.314	91.99
188.534	48.98
188.753	-30.89
188.973	-22.7
189.192	36.69
189.412	24.4
189.631	-8.36
189.851	16.21
190.07	32.6
190.29	-8.36
190.509	-24.75
190.729	-4.27
190.948	59.22
191.168	48.98
191.387	-14.51
191.607	-53.42
191.826	30.55
192.045	-32.94
192.265	48.98
192.484	-10.41
192.704	77.65
192.923	20.31
193.142	18.26
193.362	53.08
193.581	128.85
193.8	18.26
194.02	-8.36
194.239	36.69
194.458	26.45
194.678	-16.55
194.897	24.4
195.116	44.88
195.335	20.31
195.555	-16.55
195.774	44.88
195.993	20.31
196.212	26.45
196.432	-14.51
196.651	8.02
196.87	34.64
197.089	89.94
197.308	-37.03
197.528	51.03
197.747	-24.75
197.966	8.02
198.185	40.79
198.404	26.45
198.623	8.02
198.842	42.84
199.062	61.27
199.281	36.69
199.5	-0.17
199.719	40.79
199.938	1.88
200.157	75.6
200.376	40.79
200.595	40.79
200.814	63.32
201.033	18.26
201.252	73.56
201.471	44.88
201.69	81.75
201.909	51.03
202.128	32.6
202.347	34.64
202.566	75.6
202.785	-4.27
203.004	-12.46
203.223	10.07
203.442	16.21
203.661	26.45
203.879	-20.65
204.098	10.07
204.317	-6.31
204.536	32.6
204.755	69.46
204.974	53.08
205.193	22.36
205.411	89.94
205.63	12.12
205.849	36.69
206.068	57.17
206.287	8.02
206.505	77.65
206.724	32.6
206.943	10.07
207.162	-12.46
207.381	-39.08
207.599	87.89
207.818	34.64
208.037	-12.46
208.255	-0.17
208.474	20.31
208.693	12.12
208.911	-12.46
209.13	102.23
209.349	20.31
209.567	65.36
209.786	114.52
210.005	-12.46
210.223	16.21
210.442	36.69
210.661	5.97
210.879	40.79
211.098	73.56
211.316	5.97
211.535	75.6
211.753	81.75
211.972	63.32
212.191	48.98
212.409	22.36
212.628	40.79
212.846	59.22
213.065	-43.18
213.283	32.6
213.502	-32.94
213.72	12.12
213.938	44.88
214.157	59.22
214.375	-22.7
214.594	8.02
214.812	10.07
215.031	-8.36
215.249	-34.99
215.467	18.26
215.686	89.94
215.904	12.12
216.122	24.4
216.341	83.8
216.559	69.46
216.778	73.56
216.996	44.88
217.214	26.45
217.432	-32.94
217.651	32.6
217.869	48.98
218.087	8.02
218.306	-51.37
218.524	73.56
218.742	-45.23
218.96	65.36
219.179	-80.04
219.397	59.22
219.615	73.56
219.833	32.6
220.051	30.55
220.27	59.22
220.488	-0.17
220.706	94.04
220.924	-8.36
221.142	-28.84
221.36	8.02
221.578	32.6
221.796	40.79
222.015	26.45
222.233	18.26
222.451	36.69
222.669	8.02
222.887	122.71
223.105	14.17
223.323	-8.36
223.541	-8.36
223.759	28.5
223.977	-0.17
224.195	57.17
224.413	-6.31
224.631	73.56
224.849	81.75
225.067	77.65
225.285	20.31
225.503	63.32
225.721	-57.51
225.939	65.36
226.157	-24.75
226.375	71.51
226.592	-4.27
226.81	-28.84
227.028	73.56
227.246	61.27
227.464	83.8
227.682	10.07
227.9	57.17
228.117	75.6
228.335	-49.32
228.553	26.45
228.771	79.7
228.989	38.74
229.206	24.4
229.424	51.03
229.642	10.07
229.86	40.79
230.077	-28.84
230.295	57.17
230.513	42.84
230.731	36.69
230.948	44.88
231.166	65.36
231.384	42.84
231.601	-8.36
231.819	20.31
232.037	34.64
232.254	-41.13
232.472	53.08
232.689	36.69
232.907	32.6
233.125	28.5
233.342	46.93
233.56	5.97
233.777	-8.36
233.995	42.84
234.213	114.52
234.43	-12.46
234.648	26.45
234.865	-20.65
235.083	59.22
235.3	-39.08
235.518	73.56
235.735	48.98
235.953	100.18
236.17	24.4
236.388	-24.75
236.605	-6.31
236.822	89.94
237.04	32.6
237.257	55.12
237.475	8.02
237.692	-47.27
237.909	40.79
238.127	16.21
238.344	40.79
238.562	16.21
238.779	-22.7
238.996	12.12
239.214	16.21
239.431	132.95
239.648	-10.41
239.865	-28.84
240.083	24.4
240.3	12.12
240.517	18.26
240.735	-6.31
240.952	40.79
241.169	63.32
241.386	102.23
241.603	-37.03
241.821	48.98
242.038	57.17
242.255	63.32
242.472	42.84
242.689	91.99
242.907	24.4
243.124	51.03
243.341	24.4
243.558	-65.71
243.775	73.56
243.992	-53.42
244.209	69.46
244.426	149.33
244.643	24.4
244.86	-24.75
245.078	-47.27
245.295	55.12
245.512	40.79
245.729	18.26
245.946	-16.55
246.163	18.26
246.38	28.5
246.597	8.02
246.814	-37.03
247.031	-41.13
247.248	22.36
247.464	24.4
247.681	-22.7
247.898	-6.31
248.115	24.4
248.332	14.17
248.549	10.07
248.766	77.65
248.983	59.22
249.2	-6.31
249.417	104.28
249.633	20.31
249.85	40.79
250.067	22.36
250.284	46.93
250.501	28.5
250.717	-77.99
250.934	8.02
251.151	1.88
251.368	40.79
251.585	12.12
251.801	3.93
252.018	-16.55
252.235	24.4
252.451	42.84
252.668	-8.36
252.885	75.6
253.102	44.88
253.318	28.5
253.535	65.36
253.752	-16.55
253.968	-0.17
254.185	-69.8
254.401	122.71
254.618	28.5
254.835	-28.84
255.051	8.02
255.268	-22.7
255.484	26.45
255.701	-8.36
255.917	61.27
256.134	-0.17
256.351	128.85
256.567	57.17
256.784	-14.51
257	8.02
257.217	85.84
257.433	51.03
257.65	89.94
257.866	106.32
258.082	46.93
258.299	-41.13
258.515	44.88
258.732	22.36
258.948	-4.27
259.165	40.79
259.381	-16.55
259.597	44.88
259.814	53.08
260.03	32.6
260.246	44.88
260.463	51.03
260.679	-41.13
260.895	28.5
261.112	126.8
261.328	18.26
261.544	-4.27
261.761	16.21
261.977	16.21
262.193	-6.31
262.409	32.6
262.626	55.12
262.842	81.75
263.058	42.84
263.274	65.36
263.49	81.75
263.707	73.56
263.923	40.79
264.139	40.79
264.355	65.36
264.571	61.27
264.787	18.26
265.004	22.36
265.22	36.69
265.436	94.04
265.652	12.12
265.868	32.6
266.084	-37.03
266.3	40.79
266.516	1.88
266.732	-55.47
266.948	8.02
267.164	-8.36
267.38	-14.51
267.596	-0.17
267.812	16.21
268.028	-0.17
268.244	48.98
268.46	12.12
268.676	75.6
268.892	53.08
269.108	10.07
269.324	-16.55
269.54	10.07
269.756	83.8
269.972	-4.27
270.188	-0.17
270.403	32.6
270.619	34.64
270.835	12.12
271.051	34.64
271.267	108.37
271.483	1.88
271.698	10.07
271.914	40.79
272.13	3.93
272.346	65.36
272.562	10.07
272.777	-8.36
272.993	48.98
273.209	65.36
273.425	-77.99
273.64	22.36
273.856	40.79
274.072	3.93
274.287	16.21
274.503	73.56
274.719	8.02
274.934	73.56
275.15	-6.31
275.366	42.84
275.581	-32.94
275.797	8.02
276.012	53.08
276.228	14.17
276.444	-28.84
276.659	73.56
276.875	-32.94
277.09	26.45
277.306	-6.31
277.521	-4.27
277.737	61.27
277.952	20.31
278.168	106.32
278.383	38.74
278.599	63.32
278.814	65.36
279.03	16.21
279.245	34.64
279.461	-20.65
279.676	48.98
279.892	-0.17
280.107	51.03
280.322	-65.71
280.538	22.36
280.753	-55.47
280.969	46.93
281.184	-49.32
281.399	81.75
281.615	75.6
281.83	51.03
282.045	-24.75
282.26	42.84
282.476	-6.31
282.691	48.98
282.906	55.12
283.122	34.64
283.337	-41.13
283.552	10.07
283.767	14.17
283.983	98.13
284.198	-24.75
284.413	36.69
284.628	-49.32
284.843	73.56
285.058	61.27
285.274	10.07
285.489	42.84
285.704	81.75
285.919	42.84
286.134	10.07
286.349	-14.51
286.564	26.45
286.779	44.88
286.995	24.4
287.21	16.21
287.425	122.71
287.64	-18.6
287.855	89.94
288.07	36.69
288.285	38.74
288.5	57.17
288.715	42.84
288.93	34.64
289.145	79.7
289.36	65.36
289.575	18.26
289.79	24.4
290.004	8.02
290.219	8.02
290.434	67.41
290.649	-14.51
290.864	42.84
291.079	10.07
291.294	14.17
291.509	-45.23
291.724	12.12
291.938	51.03
292.153	8.02
292.368	36.69
292.583	8.02
292.798	28.5
293.012	1.88
293.227	40.79
293.442	8.02
293.657	71.51
293.871	69.46
294.086	-8.36
294.301	73.56
294.516	48.98
294.73	40.79
294.945	26.45
295.16	8.02
295.374	114.52
295.589	14.17
295.804	61.27
296.018	75.6
296.233	42.84
296.447	8.02
296.662	44.88
296.877	10.07
297.091	83.8
297.306	1.88
297.52	10.07
297.735	48.98
297.949	48.98
298.164	8.02
298.378	-32.94
298.593	81.75
298.807	42.84
299.022	59.22
299.236	12.12
299.451	51.03
299.665	83.8
299.88	67.41
300.094	-2.22
300.309	20.31
300.523	65.36
300.737	-37.03
300.952	53.08
301.166	-0.17
301.381	-24.75
301.595	-28.84
301.809	46.93
302.024	-6.31
302.238	-4.27
302.452	30.55
302.667	-8.36
302.881	71.51
303.095	42.84
303.309	14.17
303.524	-30.89
303.738	-34.99
303.952	34.64
304.166	32.6
304.381	20.31
304.595	102.23
304.809	14.17
305.023	3.93
305.237	48.98
305.452	-4.27
305.666	34.64
305.88	34.64
306.094	57.17
306.308	24.4
306.522	18.26
306.736	42.84
306.95	44.88
307.164	81.75
307.379	24.4
307.593	98.13
307.807	34.64
308.021	3.93
308.235	-16.55
308.449	-26.79
308.663	28.5
308.877	61.27
309.091	48.98
309.305	69.46
309.519	-45.23
309.733	83.8
309.947	-8.36
310.161	91.99
310.374	-6.31
310.588	75.6
310.802	24.4
311.016	-18.6
311.23	73.56
311.444	8.02
311.658	-24.75
311.872	77.65
312.085	118.61
312.299	147.28
312.513	79.7
312.727	-6.31
312.941	32.6
313.154	32.6
313.368	40.79
313.582	-12.46
313.796	110.42
314.009	-0.17
314.223	104.28
314.437	98.13
314.651	34.64
314.864	-28.84
315.078	26.45
315.292	34.64
315.505	116.56
315.719	69.46
315.933	-6.31
316.146	-20.65
316.36	8.02
316.573	69.46
316.787	-16.55
317.001	-6.31
317.214	12.12
317.428	44.88
317.641	38.74
317.855	73.56
318.068	59.22
318.282	48.98
318.495	79.7
318.709	100.18
318.922	-6.31
319.136	16.21
319.349	26.45
319.563	-30.89
319.776	112.47
319.99	-37.03
320.203	69.46
320.417	20.31
320.63	24.4
320.843	155.47
321.057	-75.95
321.27	3.93
321.483	-24.75
321.697	-4.27
321.91	-0.17
322.124	18.26
322.337	81.75
322.55	16.21
322.763	3.93
322.977	-14.51
323.19	40.79
323.403	42.84
323.617	-10.41
323.83	36.69
324.043	-41.13
324.256	110.42
324.469	-14.51
324.683	130.9
324.896	46.93
325.109	16.21
325.322	12.12
325.535	75.6
325.748	5.97
325.962	124.76
326.175	-14.51
326.388	-41.13
326.601	108.37
326.814	32.6
327.027	18.26
327.24	106.32
327.453	32.6
327.666	-6.31
327.879	24.4
328.092	98.13
328.305	14.17
328.518	-61.61
328.731	-4.27
328.944	22.36
329.157	42.84
329.37	44.88
329.583	59.22
329.796	57.17
330.009	-49.32
330.222	12.12
330.435	36.69
330.648	81.75
330.861	14.17
331.073	87.89
331.286	89.94
331.499	48.98
331.712	98.13
331.925	44.88
332.138	34.64
332.35	65.36
332.563	26.45
332.776	-8.36
332.989	-8.36
333.202	20.31
333.414	59.22
333.627	89.94
333.84	40.79
334.053	22.36
334.265	51.03
334.478	36.69
334.691	22.36
334.903	38.74
335.116	3.93
335.329	12.12
335.541	75.6
335.754	91.99
335.966	-8.36
336.179	38.74
336.392	8.02
336.604	-16.55
336.817	89.94
337.029	28.5
337.242	40.79
337.454	48.98
337.667	10.07
337.88	18.26
338.092	20.31
338.305	61.27
338.517	-24.75
338.729	57.17
338.942	-12.46
339.154	24.4
339.367	18.26
339.579	16.21
339.792	59.22
340.004	48.98
340.217	18.26
340.429	100.18
340.641	8.02
340.854	-22.7
341.066	120.66
341.278	87.89
341.491	98.13
341.703	1.88
341.915	-6.31
342.128	1.88
342.34	42.84
342.552	55.12
342.764	-8.36
342.977	59.22
343.189	-20.65
343.401	-8.36
343.613	20.31
343.826	48.98
344.038	-12.46
344.25	18.26
344.462	10.07
344.674	-10.41
344.886	-16.55
345.099	63.32
345.311	14.17
345.523	81.75
345.735	1.88
345.947	-8.36
346.159	-20.65
346.371	-16.55
346.583	10.07
346.795	12.12
347.007	53.08
347.219	100.18
347.431	38.74
347.643	-30.89
347.855	24.4
348.067	8.02
348.279	3.93
348.491	-37.03
348.703	40.79
348.915	65.36
349.127	1.88
349.339	57.17
349.551	10.07
349.763	-24.75
349.975	71.51
350.187	106.32
350.399	108.37
350.61	-41.13
350.822	65.36
351.034	-24.75
351.246	-24.75
351.458	48.98
351.669	73.56
351.881	61.27
352.093	94.04
352.305	-34.99
352.517	81.75
352.728	75.6
352.94	16.21
353.152	-0.17
353.363	34.64
353.575	10.07
353.787	28.5
353.999	18.26
354.21	16.21
354.422	-22.7
354.633	16.21
354.845	69.46
355.057	96.08
355.268	48.98
355.48	67.41
355.692	16.21
355.903	44.88
356.115	28.5
356.326	44.88
356.538	67.41
356.749	81.75
356.961	116.56
357.172	18.26
357.384	24.4
357.595	67.41
357.807	65.36
358.018	-14.51
358.23	57.17
358.441	34.64
358.653	-6.31
358.864	53.08
359.075	73.56
359.287	26.45
359.498	83.8
359.709	48.98
359.921	-20.65
360.132	48.98
360.344	24.4
360.555	8.02
360.766	77.65
360.977	-6.31
361.189	79.7
361.4	46.93
361.611	-41.13
361.823	69.46
362.034	112.47
362.245	63.32
362.456	42.84
362.667	42.84
362.879	59.22
363.09	18.26
363.301	10.07
363.512	30.55
363.723	26.45
363.935	-0.17
364.146	75.6
364.357	1.88
364.568	-55.47
364.779	-8.36
364.99	81.75
365.201	106.32
365.412	83.8
365.623	-24.75
365.834	44.88
366.045	73.56
366.256	67.41
366.467	18.26
366.678	77.65
366.889	67.41
367.1	-34.99
367.311	48.98
367.522	112.47
367.733	55.12
367.944	116.56
368.155	36.69
368.366	75.6
368.577	118.61
368.788	42.84
368.999	42.84
369.209	12.12
369.42	48.98
369.631	110.42
369.842	40.79
370.053	32.6
370.264	59.22
370.474	63.32
370.685	102.23
370.896	3.93
371.107	30.55
371.317	69.46
371.528	32.6
371.739	100.18
371.95	28.5
372.16	69.46
372.371	24.4
372.582	20.31
372.792	16.21
373.003	98.13
373.214	8.02
373.424	34.64
373.635	-75.95
373.846	83.8
374.056	42.84
374.267	30.55
374.477	77.65
374.688	114.52
374.898	20.31
375.109	8.02
375.319	38.74
375.53	1.88
375.74	65.36
375.951	28.5
376.161	-14.51
376.372	106.32
376.582	85.84
376.793	36.69
377.003	73.56
377.214	34.64
377.424	57.17
377.635	67.41
377.845	22.36
378.055	16.21
378.266	-14.51
378.476	34.64
378.686	98.13
378.897	42.84
379.107	75.6
379.317	73.56
379.528	32.6
379.738	20.31
379.948	3.93
380.158	48.98
380.369	24.4
380.579	55.12
380.789	59.22
380.999	57.17
381.21	91.99
381.42	69.46
381.63	44.88
381.84	42.84
382.05	110.42
382.261	48.98
382.471	42.84
382.681	65.36
382.891	24.4
383.101	81.75
383.311	-4.27
383.521	10.07
383.731	126.8
383.941	81.75
384.151	-57.51
384.361	65.36
384.571	98.13
384.781	139.09
384.991	14.17
385.201	24.4
385.411	48.98
385.621	3.93
385.831	65.36
386.041	-12.46
386.251	40.79
386.461	48.98
386.671	57.17
386.881	81.75
387.091	-24.75
387.301	110.42
387.511	38.74
387.72	77.65
387.93	71.51
388.14	77.65
388.35	73.56
388.56	102.23
388.769	106.32
388.979	46.93
389.189	3.93
389.399	65.36
389.609	104.28
389.818	112.47
390.028	108.37
390.238	122.71
390.447	100.18
390.657	83.8
390.867	114.52
391.076	126.8
391.286	48.98
391.496	63.32
391.705	32.6
391.915	38.74
392.125	36.69
392.334	67.41
392.544	124.76
392.753	67.41
392.963	26.45
393.172	8.02
393.382	40.79
393.591	12.12
393.801	75.6
394.01	165.71
394.22	102.23
394.429	110.42
394.639	77.65
394.848	83.8
395.058	75.6
395.267	89.94
395.477	112.47
395.686	143.19
395.895	104.28
396.105	16.21
396.314	151.38
396.524	69.46
396.733	151.38
396.942	98.13
397.152	69.46
397.361	98.13
397.57	69.46
397.78	122.71
397.989	143.19
398.198	182.1
398.407	44.88
398.617	114.52
398.826	151.38
399.035	73.56
399.244	196.43
399.453	75.6
399.663	126.8
399.872	89.94
400.081	89.94
400.29	165.71
400.499	53.08
400.708	65.36
400.917	94.04
401.127	130.9
401.336	137.04
401.545	118.61
401.754	139.09
401.963	139.09
402.172	124.76
402.381	65.36
402.59	91.99
402.799	137.04
403.008	143.19
403.217	182.1
403.426	143.19
403.635	155.47
403.844	91.99
404.053	188.24
404.262	122.71
404.471	130.9
404.68	141.14
404.888	151.38
405.097	139.09
405.306	149.33
405.515	173.91
405.724	155.47
405.933	155.47
406.142	114.52
406.35	159.57
406.559	198.48
406.768	167.76
406.977	245.59
407.185	225.11
407.394	206.67
407.603	182.1
407.812	186.19
408.02	147.28
408.229	282.45
408.438	190.29
408.646	257.87
408.855	192.34
409.064	182.1
409.272	286.54
409.481	327.5
409.69	212.82
409.898	202.58
410.107	304.98
410.315	278.35
410.524	319.31
410.733	368.46
410.941	335.7
411.15	331.6
411.358	378.7
411.567	362.32
411.775	376.66
411.984	376.66
412.192	390.99
412.401	417.61
412.609	530.25
412.818	429.9
413.026	454.48
413.234	452.43
413.443	509.77
413.651	501.58
413.86	560.97
414.068	526.16
414.276	567.12
414.485	548.68
414.693	591.69
414.901	646.99
415.11	698.19
415.318	706.38
415.526	634.7
415.734	749.39
415.943	737.1
416.151	870.22
416.359	806.73
416.567	859.98
416.776	884.55
416.984	970.57
417.192	982.85
417.4	939.85
417.608	964.42
417.817	952.13
418.025	1027.91
418.233	1081.16
418.441	1122.12
418.649	1187.65
418.857	1253.19
419.065	1238.85
419.273	1269.57
419.481	1255.23
419.689	1322.82
419.897	1410.88
420.105	1494.85
420.313	1482.56
420.521	1515.33
420.729	1519.42
420.937	1537.85
421.145	1648.44
421.353	1709.88
421.561	1914.68
421.769	1863.48
421.977	1859.38
422.185	2027.32
422.393	2090.81
422.601	2000.69
422.809	2115.38
423.017	2170.68
423.224	2295.6
423.432	2428.72
423.64	2299.7
423.848	2576.17
424.056	2588.46
424.263	2635.57
424.471	2590.51
424.679	2778.92
424.887	2748.2
425.094	3022.63
425.302	2991.91
425.51	3100.45
425.718	3260.2
425.925	3245.86
426.133	3481.38
426.341	3460.9
426.548	3540.77
426.756	3761.95
426.964	3757.85
427.171	3893.02
427.379	4128.53
427.586	4075.29
427.794	4161.3
428.001	4423.44
428.209	4640.53
428.417	4570.9
428.624	4898.57
428.832	4908.81
429.039	4851.47
429.247	4906.76
429.454	5498.63
429.662	5568.26
429.869	5263.11
430.076	5846.78
430.284	5488.39
430.491	5787.39
430.699	6211.32
430.906	5998.33
431.114	6192.89
431.321	6369.01
431.528	6522.61
431.736	6747.89
431.943	7184.1
432.15	7007.98
432.358	7118.57
432.565	7489.25
432.772	7257.83
432.979	7829.21
433.187	7794.4
433.394	7872.22
433.601	8462.04
433.808	8466.13
434.016	8341.21
434.223	8947.4
434.43	9324.23
434.637	9307.85
434.844	9780.93
435.052	9922.24
435.259	9828.03
435.466	9883.33
435.673	9944.77
435.88	10604.21
436.087	11067.05
436.294	10911.41
436.501	10849.97
436.708	10970.8
436.915	11503.27
437.122	11749.03
437.329	11888.29
437.537	12539.54
437.743	12469.91
437.95	12306.07
438.157	13020.81
438.364	13321.87
438.571	13491.85
438.778	13344.39
438.985	14628.47
439.192	14182.01
439.399	14628.47
439.606	14331.51
439.813	15152.75
440.02	15881.83
440.227	15523.43
440.433	15554.15
440.64	15855.2
440.847	15947.36
441.054	16264.8
441.261	17311.31
441.467	17030.74
441.674	17499.72
441.881	18024
442.088	18128.45
442.294	17888.84
442.501	18478.65
442.708	18624.06
442.914	19275.31
443.121	20164.13
443.328	19922.47
443.534	21102.1
443.741	20581.92
443.948	20145.7
444.154	21599.76
444.361	21212.69
444.568	21601.8
444.774	21663.24
444.981	21972.49
445.187	22568.44
445.394	23549.42
445.6	23336.43
445.807	25443.79
446.013	24595.93
446.22	24593.89
446.426	25679.31
446.633	26013.13
446.839	26863.04
447.046	25794
447.252	27309.49
447.459	27284.92
447.665	26830.27
447.871	28003.75
448.078	29642.13
448.284	28140.97
448.491	28886.43
448.697	30213.51
448.903	30569.86
449.11	30571.91
449.316	29885.84
449.522	30383.49
449.728	31391.09
449.935	31440.25
450.141	31737.2
450.347	32445.8
450.553	31014.27
450.76	31888.75
450.966	33066.33
451.172	32640.36
451.378	33471.83
451.584	32677.22
451.791	33342.81
451.997	33533.27
452.203	34037.07
452.409	33746.26
452.615	33723.73
452.821	32185.71
453.027	32142.7
453.233	33903.95
453.44	32777.57
453.646	32892.26
453.852	33344.86
454.058	33635.67
454.264	32429.41
454.47	33424.73
454.676	32335.21
454.882	33705.3
455.088	30879.1
455.294	31208.83
455.5	31630.71
455.705	31976.81
455.911	30682.5
456.117	30268.81
456.323	29742.48
456.529	28231.08
456.735	29328.79
456.941	28738.97
457.147	28296.61
457.352	27454.9
457.558	27377.08
457.764	27493.81
457.97	27065.78
458.176	26351.04
458.381	26518.98
458.587	24616.41
458.793	24780.25
458.999	23743.98
459.204	25439.7
459.41	24655.33
459.616	23242.23
459.821	23115.25
460.027	22830.58
460.233	22838.78
460.438	21566.99
460.644	21812.74
460.85	20753.94
461.055	20561.44
461.261	20313.63
461.466	18603.58
461.672	18148.93
461.878	19631.66
462.083	18454.08
462.289	17897.03
462.494	17696.33
462.7	17190.48
462.905	16442.97
463.111	17135.18
463.316	17233.49
463.522	16662.1
463.727	16899.67
463.932	16877.14
464.138	16543.32
464.343	16866.9
464.549	16189.02
464.754	16713.3
464.959	16641.62
465.165	16268.89
465.37	16014.94
465.575	15502.95
465.781	16162.4
465.986	16076.38
466.191	15408.75
466.397	15105.65
466.602	14315.13
466.807	15171.18
467.012	14802.55
467.218	14900.85
467.423	14837.36
467.628	15079.02
467.833	15427.18
