Data from USB4F104151__286__14-23-33-021.txt Node

Date: Thu Mar 13 14:23:33 EDT 2025
User: louis
Spectrometer: USB4F10415
Trigger mode: 4
Integration Time (sec): 2.000000E-2
Scans to average: 1
Electric dark correction enabled: true
Nonlinearity correction enabled: false
Boxcar width: 0
XAxis mode: Wavelengths
Number of Pixels in Spectrum: 3648
>>>>>Begin Spectral Data<<<<<
178.204	-57.34
178.424	-57.34
178.644	-57.34
178.864	-100.35
179.084	-163.84
179.304	-38.91
179.524	40.96
179.744	-51.2
179.964	14.34
180.184	38.91
180.404	16.38
180.624	-38.91
180.844	-20.48
181.064	-16.38
181.283	28.67
181.503	2.05
181.723	24.58
181.943	-71.68
182.163	63.49
182.383	22.53
182.602	73.73
182.822	40.96
183.042	34.82
183.262	26.62
183.482	14.34
183.701	-4.1
183.921	16.38
184.141	-2.05
184.361	45.06
184.58	-20.48
184.8	106.49
185.02	47.1
185.239	129.02
185.459	-10.24
185.679	104.45
185.898	38.91
186.118	73.73
186.338	57.34
186.557	30.72
186.777	-24.58
186.997	-49.15
187.216	30.72
187.436	88.06
187.655	22.53
187.875	-65.54
188.095	18.43
188.314	126.97
188.534	92.16
188.753	38.91
188.973	49.15
189.192	71.68
189.412	2.05
189.631	32.77
189.851	47.1
190.07	38.91
190.29	14.34
190.509	14.34
190.729	32.77
190.948	43.01
191.168	188.41
191.387	73.73
191.607	-34.82
191.826	81.92
192.045	79.87
192.265	49.15
192.484	30.72
192.704	-34.82
192.923	-8.19
193.142	43.01
193.362	67.58
193.581	51.2
193.8	92.16
194.02	88.06
194.239	4.1
194.458	96.25
194.678	-24.58
194.897	40.96
195.116	26.62
195.335	55.3
195.555	6.14
195.774	4.1
195.993	2.05
196.212	26.62
196.432	-16.38
196.651	71.68
196.87	100.35
197.089	90.11
197.308	55.3
197.528	88.06
197.747	4.1
197.966	51.2
198.185	106.49
198.404	6.14
198.623	26.62
198.842	-10.24
199.062	43.01
199.281	63.49
199.5	40.96
199.719	92.16
199.938	71.68
200.157	49.15
200.376	36.86
200.595	51.2
200.814	43.01
201.033	53.25
201.252	88.06
201.471	79.87
201.69	100.35
201.909	47.1
202.128	59.39
202.347	18.43
202.566	69.63
202.785	32.77
203.004	55.3
203.223	186.37
203.442	-47.1
203.661	16.38
203.879	57.34
204.098	81.92
204.317	-14.34
204.536	98.3
204.755	104.45
204.974	114.69
205.193	-26.62
205.411	86.01
205.63	106.49
205.849	16.38
206.068	2.05
206.287	40.96
206.505	18.43
206.724	30.72
206.943	77.82
207.162	88.06
207.381	83.97
207.599	47.1
207.818	32.77
208.037	30.72
208.255	6.14
208.474	20.48
208.693	96.25
208.911	-6.14
209.13	102.4
209.349	96.25
209.567	112.64
209.786	67.58
210.005	49.15
210.223	-26.62
210.442	-34.82
210.661	71.68
210.879	4.1
211.098	22.53
211.316	6.14
211.535	88.06
211.753	22.53
211.972	6.14
212.191	-8.19
212.409	8.19
212.628	16.38
212.846	-30.72
213.065	-16.38
213.283	94.21
213.502	30.72
213.72	57.34
213.938	38.91
214.157	75.77
214.375	53.25
214.594	26.62
214.812	-14.34
215.031	-63.49
215.249	-4.1
215.467	-22.53
215.686	8.19
215.904	8.19
216.122	16.38
216.341	112.64
216.559	100.35
216.778	34.82
216.996	49.15
217.214	69.63
217.432	-22.53
217.651	-6.14
217.869	14.34
218.087	30.72
218.306	22.53
218.524	61.44
218.742	92.16
218.96	-8.19
219.179	18.43
219.397	-8.19
219.615	129.02
219.833	81.92
220.051	55.3
220.27	104.45
220.488	65.53
220.706	18.43
220.924	30.72
221.142	18.43
221.36	61.44
221.578	20.48
221.796	67.58
222.015	22.53
222.233	114.69
222.451	12.29
222.669	10.24
222.887	45.06
223.105	22.53
223.323	131.07
223.541	-30.72
223.759	55.3
223.977	112.64
224.195	98.3
224.413	10.24
224.631	8.19
224.849	6.14
225.067	16.38
225.285	6.14
225.503	57.34
225.721	4.1
225.939	73.73
226.157	-55.3
226.375	88.06
226.592	32.77
226.81	73.73
227.028	47.1
227.246	124.93
227.464	73.73
227.682	98.3
227.9	86.01
228.117	63.49
228.335	79.87
228.553	65.53
228.771	47.1
228.989	79.87
229.206	106.49
229.424	12.29
229.642	26.62
229.86	-0
230.077	-6.14
230.295	-34.82
230.513	59.39
230.731	106.49
230.948	112.64
231.166	75.77
231.384	51.2
231.601	-18.43
231.819	122.88
232.037	22.53
232.254	34.82
232.472	32.77
232.689	55.3
232.907	98.3
233.125	47.1
233.342	30.72
233.56	10.24
233.777	36.86
233.995	-10.24
234.213	63.49
234.43	75.77
234.648	49.15
234.865	-36.86
235.083	40.96
235.3	38.91
235.518	71.68
235.735	53.25
235.953	47.1
236.17	-32.77
236.388	8.19
236.605	65.53
236.822	49.15
237.04	65.53
237.257	32.77
237.475	-16.38
237.692	-2.05
237.909	63.49
238.127	79.87
238.344	83.97
238.562	71.68
238.779	-22.53
238.996	22.53
239.214	26.62
239.431	38.91
239.648	-18.43
239.865	53.25
240.083	49.15
240.3	73.73
240.517	73.73
240.735	14.34
240.952	22.53
241.169	49.15
241.386	14.34
241.603	67.58
241.821	26.62
242.038	104.45
242.255	-8.19
242.472	38.91
242.689	102.4
242.907	40.96
243.124	34.82
243.341	49.15
243.558	-18.43
243.775	8.19
243.992	-18.43
244.209	55.3
244.426	92.16
244.643	43.01
244.86	14.34
245.078	88.06
245.295	12.29
245.512	12.29
245.729	32.77
245.946	30.72
246.163	88.06
246.38	20.48
246.597	28.67
246.814	59.39
247.031	-0
247.248	98.3
247.464	49.15
247.681	-14.34
247.898	38.91
248.115	22.53
248.332	47.1
248.549	143.36
248.766	106.49
248.983	65.53
249.2	73.73
249.417	4.1
249.633	63.49
249.85	63.49
250.067	43.01
250.284	-4.1
250.501	59.39
250.717	73.73
250.934	47.1
251.151	-73.73
251.368	63.49
251.585	47.1
251.801	-2.05
252.018	-18.43
252.235	118.78
252.451	65.53
252.668	16.38
252.885	32.77
253.102	32.77
253.318	40.96
253.535	79.87
253.752	120.83
253.968	106.49
254.185	-2.05
254.401	4.1
254.618	38.91
254.835	104.45
255.051	98.3
255.268	57.34
255.484	88.06
255.701	-16.38
255.917	-10.24
256.134	88.06
256.351	30.72
256.567	49.15
256.784	-18.43
257	-2.05
257.217	55.3
257.433	32.77
257.65	67.58
257.866	26.62
258.082	26.62
258.299	6.14
258.515	81.92
258.732	6.14
258.948	2.05
259.165	26.62
259.381	-49.15
259.597	43.01
259.814	26.62
260.03	124.93
260.246	14.34
260.463	55.3
260.679	40.96
260.895	57.34
261.112	81.92
261.328	129.02
261.544	-14.34
261.761	145.41
261.977	24.58
262.193	-14.34
262.409	79.87
262.626	55.3
262.842	30.72
263.058	-6.14
263.274	71.68
263.49	83.97
263.707	81.92
263.923	61.44
264.139	-59.39
264.355	83.97
264.571	147.45
264.787	20.48
265.004	108.54
265.22	92.16
265.436	112.64
265.652	-43.01
265.868	55.3
266.084	120.83
266.3	51.2
266.516	20.48
266.732	88.06
266.948	2.05
267.164	-22.53
267.38	102.4
267.596	61.44
267.812	49.15
268.028	94.21
268.244	-4.1
268.46	14.34
268.676	88.06
268.892	-0
269.108	26.62
269.324	-24.58
269.54	43.01
269.756	55.3
269.972	30.72
270.188	57.34
270.403	71.68
270.619	55.3
270.835	59.39
271.051	51.2
271.267	90.11
271.483	-18.43
271.698	8.19
271.914	28.67
272.13	36.86
272.346	104.45
272.562	73.73
272.777	79.87
272.993	55.3
273.209	55.3
273.425	28.67
273.64	79.87
273.856	28.67
274.072	34.82
274.287	14.34
274.503	71.68
274.719	65.53
274.934	53.25
275.15	49.15
275.366	34.82
275.581	69.63
275.797	59.39
276.012	36.86
276.228	71.68
276.444	43.01
276.659	-10.24
276.875	98.3
277.09	26.62
277.306	-4.1
277.521	-6.14
277.737	86.01
277.952	71.68
278.168	38.91
278.383	65.53
278.599	30.72
278.814	-51.2
279.03	65.53
279.245	172.03
279.461	2.05
279.676	86.01
279.892	43.01
280.107	43.01
280.322	-6.14
280.538	67.58
280.753	98.3
280.969	59.39
281.184	22.53
281.399	71.68
281.615	38.91
281.83	22.53
282.045	59.39
282.26	30.72
282.476	-10.24
282.691	57.34
282.906	59.39
283.122	55.3
283.337	38.91
283.552	47.1
283.767	59.39
283.983	135.17
284.198	57.34
284.413	30.72
284.628	24.58
284.843	-4.1
285.058	71.68
285.274	-10.24
285.489	51.2
285.704	79.87
285.919	100.35
286.134	47.1
286.349	10.24
286.564	16.38
286.779	112.64
286.995	71.68
287.21	-79.87
287.425	120.83
287.64	24.58
287.855	32.77
288.07	71.68
288.285	77.82
288.5	-55.3
288.715	65.53
288.93	79.87
289.145	32.77
289.36	59.39
289.575	83.97
289.79	55.3
290.004	-2.05
290.219	145.41
290.434	14.34
290.649	-24.58
290.864	20.48
291.079	49.15
291.294	96.25
291.509	67.58
291.724	88.06
291.938	38.91
292.153	47.1
292.368	14.34
292.583	51.2
292.798	79.87
293.012	-32.77
293.227	14.34
293.442	51.2
293.657	34.82
293.871	40.96
294.086	102.4
294.301	61.44
294.516	71.68
294.73	92.16
294.945	22.53
295.16	2.05
295.374	51.2
295.589	2.05
295.804	22.53
296.018	51.2
296.233	79.87
296.447	18.43
296.662	-18.43
296.877	104.45
297.091	88.06
297.306	65.53
297.52	90.11
297.735	53.25
297.949	6.14
298.164	65.53
298.378	65.53
298.593	67.58
298.807	26.62
299.022	53.25
299.236	81.92
299.451	75.77
299.665	-51.2
299.88	6.14
300.094	12.29
300.309	43.01
300.523	65.53
300.737	55.3
300.952	69.63
301.166	18.43
301.381	69.63
301.595	51.2
301.809	12.29
302.024	57.34
302.238	8.19
302.452	145.41
302.667	40.96
302.881	75.77
303.095	69.63
303.309	61.44
303.524	40.96
303.738	6.14
303.952	2.05
304.166	38.91
304.381	20.48
304.595	137.21
304.809	10.24
305.023	100.35
305.237	12.29
305.452	47.1
305.666	38.91
305.88	43.01
306.094	71.68
306.308	28.67
306.522	10.24
306.736	116.73
306.95	55.3
307.164	14.34
307.379	88.06
307.593	96.25
307.807	73.73
308.021	110.59
308.235	94.21
308.449	-30.72
308.663	112.64
308.877	71.68
309.091	34.82
309.305	63.49
309.519	10.24
309.733	63.49
309.947	69.63
310.161	75.77
310.374	47.1
310.588	57.34
310.802	49.15
311.016	32.77
311.23	59.39
311.444	53.25
311.658	40.96
311.872	63.49
312.085	96.25
312.299	63.49
312.513	40.96
312.727	38.91
312.941	34.82
313.154	32.77
313.368	55.3
313.582	34.82
313.796	-12.29
314.009	16.38
314.223	26.62
314.437	6.14
314.651	51.2
314.864	2.05
315.078	26.62
315.292	30.72
315.505	-59.39
315.719	49.15
315.933	65.53
316.146	102.4
316.36	14.34
316.573	22.53
316.787	24.58
317.001	59.39
317.214	38.91
317.428	65.53
317.641	-14.34
317.855	98.3
318.068	16.38
318.282	51.2
318.495	67.58
318.709	86.01
318.922	26.62
319.136	122.88
319.349	73.73
319.563	-26.62
319.776	10.24
319.99	38.91
320.203	55.3
320.417	-12.29
320.63	98.3
320.843	159.74
321.057	51.2
321.27	34.82
321.483	55.3
321.697	104.45
321.91	92.16
322.124	108.54
322.337	38.91
322.55	22.53
322.763	49.15
322.977	-47.1
323.19	49.15
323.403	55.3
323.617	73.73
323.83	71.68
324.043	40.96
324.256	63.49
324.469	-2.05
324.683	75.77
324.896	6.14
325.109	67.58
325.322	28.67
325.535	112.64
325.748	81.92
325.962	-6.14
326.175	57.34
326.388	79.87
326.601	81.92
326.814	8.19
327.027	36.86
327.24	129.02
327.453	8.19
327.666	81.92
327.879	65.53
328.092	122.88
328.305	43.01
328.518	16.38
328.731	22.53
328.944	-2.05
329.157	120.83
329.37	6.14
329.583	106.49
329.796	112.64
330.009	2.05
330.222	86.01
330.435	163.84
330.648	104.45
330.861	8.19
331.073	-10.24
331.286	83.97
331.499	43.01
331.712	47.1
331.925	6.14
332.138	63.49
332.35	20.48
332.563	30.72
332.776	20.48
332.989	16.38
333.202	65.53
333.414	100.35
333.627	63.49
333.84	-24.58
334.053	71.68
334.265	65.53
334.478	-10.24
334.691	28.67
334.903	88.06
335.116	22.53
335.329	59.39
335.541	73.73
335.754	79.87
335.966	71.68
336.179	77.82
336.392	40.96
336.604	63.49
336.817	6.14
337.029	30.72
337.242	32.77
337.454	83.97
337.667	81.92
337.88	153.6
338.092	79.87
338.305	92.16
338.517	108.54
338.729	45.06
338.942	59.39
339.154	16.38
339.367	-2.05
339.579	55.3
339.792	55.3
340.004	96.25
340.217	26.62
340.429	-32.77
340.641	53.25
340.854	88.06
341.066	24.58
341.278	49.15
341.491	98.3
341.703	88.06
341.915	57.34
342.128	86.01
342.34	-22.53
342.552	81.92
342.764	-32.77
342.977	30.72
343.189	71.68
343.401	-4.1
343.613	8.19
343.826	49.15
344.038	-16.38
344.25	90.11
344.462	6.14
344.674	47.1
344.886	6.14
345.099	59.39
345.311	83.97
345.523	14.34
345.735	-10.24
345.947	55.3
346.159	73.73
346.371	65.53
346.583	81.92
346.795	102.4
347.007	63.49
347.219	-6.14
347.431	55.3
347.643	55.3
347.855	22.53
348.067	16.38
348.279	-16.38
348.491	88.06
348.703	129.02
348.915	71.68
349.127	38.91
349.339	104.45
349.551	-34.82
349.763	151.55
349.975	43.01
350.187	112.64
350.399	102.4
350.61	96.25
350.822	20.48
351.034	-4.1
351.246	51.2
351.458	88.06
351.669	67.58
351.881	30.72
352.093	26.62
352.305	57.34
352.517	94.21
352.728	36.86
352.94	32.77
353.152	108.54
353.363	-10.24
353.575	38.91
353.787	32.77
353.999	-0
354.21	24.58
354.422	71.68
354.633	10.24
354.845	12.29
355.057	36.86
355.268	67.58
355.48	67.58
355.692	49.15
355.903	77.82
356.115	92.16
356.326	18.43
356.538	51.2
356.749	71.68
356.961	102.4
357.172	83.97
357.384	49.15
357.595	129.02
357.807	63.49
358.018	71.68
358.23	79.87
358.441	73.73
358.653	75.77
358.864	120.83
359.075	38.91
359.287	73.73
359.498	71.68
359.709	61.44
359.921	71.68
360.132	38.91
360.344	43.01
360.555	-10.24
360.766	61.44
360.977	55.3
361.189	69.63
361.4	-16.38
361.611	108.54
361.823	22.53
362.034	63.49
362.245	120.83
362.456	79.87
362.667	22.53
362.879	79.87
363.09	49.15
363.301	114.69
363.512	96.25
363.723	14.34
363.935	67.58
364.146	116.73
364.357	40.96
364.568	81.92
364.779	8.19
364.99	81.92
365.201	22.53
365.412	63.49
365.623	59.39
365.834	55.3
366.045	10.24
366.256	79.87
366.467	71.68
366.678	47.1
366.889	38.91
367.1	106.49
367.311	49.15
367.522	81.92
367.733	67.58
367.944	57.34
368.155	96.25
368.366	10.24
368.577	86.01
368.788	14.34
368.999	26.62
369.209	71.68
369.42	120.83
369.631	26.62
369.842	34.82
370.053	16.38
370.264	47.1
370.474	65.53
370.685	32.77
370.896	118.78
371.107	163.84
371.317	133.12
371.528	124.93
371.739	94.21
371.95	65.53
372.16	65.53
372.371	77.82
372.582	55.3
372.792	77.82
373.003	112.64
373.214	-14.34
373.424	59.39
373.635	67.58
373.846	65.53
374.056	65.53
374.267	32.77
374.477	-14.34
374.688	129.02
374.898	59.39
375.109	69.63
375.319	45.06
375.53	43.01
375.74	83.97
375.951	12.29
376.161	-16.38
376.372	108.54
376.582	81.92
376.793	16.38
377.003	75.77
377.214	83.97
377.424	65.53
377.635	6.14
377.845	-14.34
378.055	88.06
378.266	-51.2
378.476	55.3
378.686	57.34
378.897	-12.29
379.107	120.83
379.317	22.53
379.528	79.87
379.738	69.63
379.948	38.91
380.158	75.77
380.369	90.11
380.579	139.26
380.789	24.58
380.999	49.15
381.21	88.06
381.42	79.87
381.63	79.87
381.84	90.11
382.05	28.67
382.261	86.01
382.471	83.97
382.681	65.53
382.891	182.27
383.101	122.88
383.311	-10.24
383.521	75.77
383.731	51.2
383.941	131.07
384.151	77.82
384.361	34.82
384.571	65.53
384.781	49.15
384.991	53.25
385.201	169.98
385.411	102.4
385.621	73.73
385.831	38.91
386.041	96.25
386.251	129.02
386.461	65.53
386.671	92.16
386.881	88.06
387.091	106.49
387.301	108.54
387.511	63.49
387.72	67.58
387.93	-10.24
388.14	79.87
388.35	129.02
388.56	106.49
388.769	161.79
388.979	169.98
389.189	40.96
389.399	106.49
389.609	49.15
389.818	178.17
390.028	30.72
390.238	71.68
390.447	110.59
390.657	63.49
390.867	-28.67
391.076	73.73
391.286	57.34
391.496	65.53
391.705	100.35
391.915	90.11
392.125	77.82
392.334	30.72
392.544	36.86
392.753	26.62
392.963	49.15
393.172	137.21
393.382	47.1
393.591	100.35
393.801	69.63
394.01	120.83
394.22	151.55
394.429	196.6
394.639	81.92
394.848	59.39
395.058	71.68
395.267	88.06
395.477	131.07
395.686	79.87
395.895	161.79
396.105	114.69
396.314	110.59
396.524	86.01
396.733	43.01
396.942	135.17
397.152	120.83
397.361	145.41
397.57	90.11
397.78	126.97
397.989	169.98
398.198	202.75
398.407	135.17
398.617	106.49
398.826	86.01
399.035	83.97
399.244	112.64
399.453	161.79
399.663	153.6
399.872	116.73
400.081	83.97
400.29	145.41
400.499	102.4
400.708	153.6
400.917	102.4
401.127	92.16
401.336	98.3
401.545	196.6
401.754	153.6
401.963	147.45
402.172	100.35
402.381	79.87
402.59	98.3
402.799	157.69
403.008	147.45
403.217	129.02
403.426	153.6
403.635	155.65
403.844	194.56
404.053	137.21
404.262	133.12
404.471	260.09
404.68	139.26
404.888	208.89
405.097	176.13
405.306	260.09
405.515	229.37
405.724	143.36
405.933	235.52
406.142	219.13
406.35	202.75
406.559	253.95
406.768	215.04
406.977	235.52
407.185	301.05
407.394	235.52
407.603	188.41
407.812	284.67
408.02	260.09
408.229	245.76
408.438	169.98
408.646	206.84
408.855	253.95
409.064	243.71
409.272	333.82
409.481	290.81
409.69	305.15
409.898	272.38
410.107	352.25
410.315	393.21
410.524	350.2
410.733	421.88
410.941	374.78
411.15	342.01
411.358	325.63
411.567	481.27
411.775	481.27
411.984	391.16
412.192	479.22
412.401	425.98
412.609	497.66
412.818	530.42
413.026	548.86
413.234	507.9
413.443	581.62
413.651	573.43
413.86	583.67
414.068	669.69
414.276	661.49
414.485	669.69
414.693	700.41
414.901	737.27
415.11	767.99
415.318	751.6
415.526	739.32
415.734	770.04
415.943	899.06
416.151	868.34
416.359	901.11
416.567	851.95
416.776	940.02
416.984	1048.56
417.192	1044.46
417.4	972.79
417.608	1069.04
417.817	1023.98
418.025	1155.05
418.233	1273.84
418.441	1173.49
418.649	1193.97
418.857	1351.66
419.065	1398.76
419.273	1228.78
419.481	1441.77
419.689	1415.15
419.897	1613.8
420.105	1568.74
420.313	1523.69
420.521	1638.37
420.729	1777.64
420.937	1685.48
421.145	1794.02
421.353	1933.28
421.561	2041.82
421.769	2123.74
421.977	2123.74
422.185	2013.15
422.393	2129.89
422.601	2332.64
422.809	2322.4
423.017	2344.92
423.224	2611.16
423.432	2582.49
423.64	2537.43
423.848	2803.67
424.056	2762.71
424.263	2867.16
424.471	2932.69
424.679	2951.12
424.887	3186.64
425.094	3323.85
425.302	3223.5
425.51	3364.81
425.718	3418.06
425.925	3530.7
426.133	3626.95
426.341	3764.17
426.548	4128.7
426.756	3989.44
426.964	4214.72
427.171	4276.16
427.379	4460.48
427.586	4353.98
427.794	4560.83
428.001	4929.46
428.209	5038
428.417	4927.41
428.624	5314.48
428.832	5322.67
429.039	5281.71
429.247	5294
429.454	5646.25
429.662	6078.37
429.869	5619.63
430.076	6119.33
430.284	5926.82
430.491	6170.53
430.699	6520.73
430.906	6674.33
431.114	6616.99
431.321	6950.81
431.528	7063.44
431.736	7565.2
431.943	7890.82
432.15	7677.83
432.358	7839.62
432.565	7956.36
432.772	8036.23
432.979	8419.2
433.187	8398.72
433.394	8646.52
433.601	9287.54
433.808	9387.89
434.016	9299.83
434.223	9670.51
434.43	10073.96
434.637	9865.07
434.844	10712.92
435.052	10631.01
435.259	10620.77
435.466	10887
435.673	10954.58
435.88	11339.6
436.087	12121.93
436.294	12011.34
436.501	11853.64
436.708	12216.13
436.915	12341.06
437.122	12953.4
437.329	12771.13
437.537	13463.35
437.743	13418.29
437.95	13588.27
438.157	14159.66
438.364	14642.98
438.571	14722.85
438.778	14753.57
438.985	16178.95
439.192	15333.14
439.399	15976.2
439.606	15546.13
439.813	16334.6
440.02	17309.43
440.227	16744.19
440.433	16871.17
440.64	17465.08
440.847	17454.84
441.054	17936.11
441.261	18804.45
441.467	18618.08
441.674	18996.96
441.881	19506.9
442.088	19533.53
442.294	19599.06
442.501	20063.95
442.708	20522.69
442.914	21208.76
443.121	22298.28
443.328	21386.94
443.534	23037.6
443.741	22316.72
443.948	22116.01
444.154	23729.81
444.361	23422.62
444.568	23697.05
444.774	23903.89
444.981	23918.23
445.187	24350.35
445.394	25720.44
445.6	25222.78
445.807	27817.56
446.013	26515.05
446.22	26910.31
446.426	28163.67
446.633	28276.3
446.839	29167.17
447.046	27965.01
447.252	29431.36
447.459	29584.96
447.665	29580.86
447.871	30889.51
448.078	31921.69
448.284	30813.74
448.491	31098.41
448.697	32581.13
448.903	33515.01
449.11	33402.37
449.316	32843.27
449.522	33097.22
449.728	34053.62
449.935	34434.55
450.141	34545.14
450.347	35112.42
450.553	34272.76
450.76	34526.71
450.966	36064.73
451.172	35405.28
451.378	36236.76
451.584	35700.19
451.791	36406.74
451.997	36300.25
452.203	37297.61
452.409	37270.98
452.615	37307.85
452.821	35446.24
453.027	35165.67
453.233	37086.67
453.44	35538.4
453.646	36019.67
453.852	36425.17
454.058	36629.97
454.264	35519.97
454.47	36664.78
454.676	35835.36
454.882	36974.03
455.088	33373.7
455.294	34459.12
455.5	34799.08
455.705	35126.76
455.911	33795.58
456.117	32919.05
456.323	32603.66
456.529	31092.26
456.735	32695.82
456.941	31524.38
457.147	31122.98
457.352	29924.92
457.558	29871.67
457.764	30260.79
457.97	29554.24
458.176	28786.25
458.381	29058.63
458.587	27424.35
458.793	27522.65
458.999	25972.34
459.204	27924.05
459.41	27143.78
459.616	25179.78
459.821	25333.37
460.027	24999.55
460.233	25241.21
460.438	23611.03
460.644	23529.11
460.85	22550.18
461.055	22286
461.261	22283.95
461.466	20309.71
461.672	20125.39
461.878	21522.1
462.083	19973.84
462.289	19900.11
462.494	19523.29
462.7	18988.77
462.905	18388.71
463.111	18851.55
463.316	18917.09
463.522	18405.1
463.727	18337.51
463.932	18468.58
464.138	18357.99
464.343	18470.63
464.549	17585.91
464.754	18548.45
464.959	18257.64
465.165	18067.18
465.37	17479.41
465.575	16703.23
465.781	17387.25
465.986	17673.97
466.191	17090.3
466.397	16471.81
466.602	15820.56
466.807	16637.7
467.012	16463.62
467.218	16465.67
467.423	16131.85
