Data from USB4F104151__78__14-17-31-871.txt Node

Date: Thu Mar 13 14:17:31 EDT 2025
User: louis
Spectrometer: USB4F10415
Trigger mode: 4
Integration Time (sec): 2.000000E-2
Scans to average: 1
Electric dark correction enabled: true
Nonlinearity correction enabled: false
Boxcar width: 0
XAxis mode: Wavelengths
Number of Pixels in Spectrum: 3648
>>>>>Begin Spectral Data<<<<<
178.204	-116.73
178.424	-116.73
178.644	-116.73
178.864	-149.5
179.084	-116.73
179.304	14.34
179.524	-63.49
179.744	-71.68
179.964	30.72
180.184	-2.05
180.404	49.15
180.624	26.62
180.844	6.14
181.064	-73.73
181.283	59.39
181.503	0
181.723	24.58
181.943	55.3
182.163	55.3
182.383	100.35
182.602	40.96
182.822	49.15
183.042	14.34
183.262	55.3
183.482	106.49
183.701	49.15
183.921	28.67
184.141	22.53
184.361	86.01
184.58	18.43
184.8	-34.82
185.02	0
185.239	45.06
185.459	18.43
185.679	71.68
185.898	-26.62
186.118	90.11
186.338	40.96
186.557	73.73
186.777	14.34
186.997	81.92
187.216	55.3
187.436	88.06
187.655	79.87
187.875	0
188.095	49.15
188.314	71.68
188.534	28.67
188.753	-20.48
188.973	75.77
189.192	104.45
189.412	73.73
189.631	-10.24
189.851	65.54
190.07	122.88
190.29	86.01
190.509	-12.29
190.729	36.86
190.948	32.77
191.168	112.64
191.387	0
191.607	-26.62
191.826	108.54
192.045	47.1
192.265	67.58
192.484	77.82
192.704	24.58
192.923	8.19
193.142	65.54
193.362	38.91
193.581	88.06
193.8	22.53
194.02	-8.19
194.239	36.86
194.458	63.49
194.678	-49.15
194.897	38.91
195.116	-8.19
195.335	45.06
195.555	-8.19
195.774	71.68
195.993	67.58
196.212	40.96
196.432	26.62
196.651	4.1
196.87	0
197.089	112.64
197.308	129.02
197.528	38.91
197.747	-26.62
197.966	47.1
198.185	90.11
198.404	6.14
198.623	94.21
198.842	75.77
199.062	20.48
199.281	38.91
199.5	10.24
199.719	12.29
199.938	165.89
200.157	26.62
200.376	55.3
200.595	30.72
200.814	34.82
201.033	55.3
201.252	65.54
201.471	-36.86
201.69	59.39
201.909	116.73
202.128	49.15
202.347	43.01
202.566	63.49
202.785	81.92
203.004	-14.34
203.223	47.1
203.442	47.1
203.661	8.19
203.879	-14.34
204.098	71.68
204.317	30.72
204.536	16.38
204.755	108.54
204.974	43.01
205.193	94.21
205.411	126.97
205.63	57.34
205.849	38.91
206.068	-26.62
206.287	6.14
206.505	108.54
206.724	-16.38
206.943	24.58
207.162	30.72
207.381	65.54
207.599	34.82
207.818	63.49
208.037	18.43
208.255	47.1
208.474	18.43
208.693	28.67
208.911	55.3
209.13	10.24
209.349	14.34
209.567	49.15
209.786	57.34
210.005	98.3
210.223	90.11
210.442	-32.77
210.661	16.38
210.879	77.82
211.098	10.24
211.316	88.06
211.535	79.87
211.753	75.77
211.972	-47.1
212.191	-36.86
212.409	47.1
212.628	-16.38
212.846	57.34
213.065	71.68
213.283	116.73
213.502	30.72
213.72	32.77
213.938	12.29
214.157	30.72
214.375	71.68
214.594	43.01
214.812	26.62
215.031	16.38
215.249	-14.34
215.467	-34.82
215.686	6.14
215.904	137.21
216.122	71.68
216.341	-14.34
216.559	51.2
216.778	55.3
216.996	49.15
217.214	-26.62
217.432	30.72
217.651	30.72
217.869	90.11
218.087	63.49
218.306	8.19
218.524	55.3
218.742	20.48
218.96	47.1
219.179	98.3
219.397	26.62
219.615	124.93
219.833	32.77
220.051	49.15
220.27	79.87
220.488	47.1
220.706	98.3
220.924	-20.48
221.142	47.1
221.36	59.39
221.578	-22.53
221.796	30.72
222.015	55.3
222.233	6.14
222.451	77.82
222.669	55.3
222.887	22.53
223.105	-34.82
223.323	0
223.541	53.25
223.759	83.97
223.977	18.43
224.195	63.49
224.413	47.1
224.631	-8.19
224.849	18.43
225.067	88.06
225.285	71.68
225.503	83.97
225.721	-2.05
225.939	14.34
226.157	106.49
226.375	8.19
226.592	-18.43
226.81	-16.38
227.028	55.3
227.246	79.87
227.464	14.34
227.682	47.1
227.9	86.01
228.117	18.43
228.335	22.53
228.553	65.54
228.771	-4.1
228.989	51.2
229.206	24.58
229.424	22.53
229.642	69.63
229.86	22.53
230.077	51.2
230.295	133.12
230.513	73.73
230.731	43.01
230.948	73.73
231.166	153.6
231.384	34.82
231.601	110.59
231.819	137.21
232.037	32.77
232.254	28.67
232.472	59.39
232.689	20.48
232.907	45.06
233.125	-36.86
233.342	75.77
233.56	-26.62
233.777	30.72
233.995	43.01
234.213	88.06
234.43	38.91
234.648	2.05
234.865	30.72
235.083	100.35
235.3	16.38
235.518	55.3
235.735	100.35
235.953	63.49
236.17	6.14
236.388	71.68
236.605	-26.62
236.822	96.25
237.04	81.92
237.257	16.38
237.475	18.43
237.692	55.3
237.909	43.01
238.127	10.24
238.344	28.67
238.562	96.25
238.779	40.96
238.996	118.78
239.214	36.86
239.431	96.25
239.648	32.77
239.865	73.73
240.083	55.3
240.3	12.29
240.517	30.72
240.735	-16.38
240.952	43.01
241.169	28.67
241.386	14.34
241.603	92.16
241.821	45.06
242.038	55.3
242.255	124.93
242.472	57.34
242.689	67.58
242.907	16.38
243.124	-8.19
243.341	34.82
243.558	47.1
243.775	24.58
243.992	-51.2
244.209	75.77
244.426	137.21
244.643	45.06
244.86	63.49
245.078	114.69
245.295	43.01
245.512	57.34
245.729	45.06
245.946	18.43
246.163	65.54
246.38	118.78
246.597	63.49
246.814	-47.1
247.031	-2.05
247.248	-20.48
247.464	10.24
247.681	14.34
247.898	65.54
248.115	69.63
248.332	12.29
248.549	98.3
248.766	73.73
248.983	38.91
249.2	40.96
249.417	32.77
249.633	-14.34
249.85	26.62
250.067	51.2
250.284	65.54
250.501	30.72
250.717	77.82
250.934	6.14
251.151	-38.91
251.368	28.67
251.585	53.25
251.801	6.14
252.018	30.72
252.235	120.83
252.451	16.38
252.668	34.82
252.885	32.77
253.102	100.35
253.318	55.3
253.535	96.25
253.752	75.77
253.968	-16.38
254.185	24.58
254.401	71.68
254.618	47.1
254.835	14.34
255.051	75.77
255.268	67.58
255.484	10.24
255.701	30.72
255.917	47.1
256.134	43.01
256.351	65.54
256.567	49.15
256.784	4.1
257	75.77
257.217	81.92
257.433	18.43
257.65	94.21
257.866	104.45
258.082	53.25
258.299	47.1
258.515	75.77
258.732	139.26
258.948	26.62
259.165	45.06
259.381	71.68
259.597	81.92
259.814	43.01
260.03	61.44
260.246	51.2
260.463	4.1
260.679	8.19
260.895	40.96
261.112	71.68
261.328	-6.14
261.544	34.82
261.761	118.78
261.977	-55.3
262.193	71.68
262.409	114.69
262.626	120.83
262.842	20.48
263.058	79.87
263.274	90.11
263.49	43.01
263.707	88.06
263.923	77.82
264.139	30.72
264.355	55.3
264.571	145.41
264.787	51.2
265.004	67.58
265.22	57.34
265.436	0
265.652	30.72
265.868	30.72
266.084	24.58
266.3	14.34
266.516	2.05
266.732	55.3
266.948	18.43
267.164	43.01
267.38	24.58
267.596	28.67
267.812	112.64
268.028	49.15
268.244	18.43
268.46	-18.43
268.676	83.97
268.892	63.49
269.108	75.77
269.324	30.72
269.54	47.1
269.756	104.45
269.972	38.91
270.188	83.97
270.403	14.34
270.619	10.24
270.835	67.58
271.051	79.87
271.267	-2.05
271.483	10.24
271.698	53.25
271.914	38.91
272.13	40.96
272.346	24.58
272.562	63.49
272.777	14.34
272.993	-6.14
273.209	47.1
273.425	18.43
273.64	38.91
273.856	75.77
274.072	63.49
274.287	45.06
274.503	102.4
274.719	43.01
274.934	67.58
275.15	-18.43
275.366	79.87
275.581	-24.58
275.797	0
276.012	14.34
276.228	81.92
276.444	92.16
276.659	71.68
276.875	-22.53
277.09	55.3
277.306	75.77
277.521	120.83
277.737	45.06
277.952	59.39
278.168	94.21
278.383	47.1
278.599	53.25
278.814	67.58
279.03	55.3
279.245	90.11
279.461	55.3
279.676	18.43
279.892	45.06
280.107	10.24
280.322	38.91
280.538	53.25
280.753	47.1
280.969	88.06
281.184	86.01
281.399	18.43
281.615	-16.38
281.83	73.73
282.045	-22.53
282.26	0
282.476	75.77
282.691	114.69
282.906	40.96
283.122	63.49
283.337	18.43
283.552	10.24
283.767	8.19
283.983	81.92
284.198	73.73
284.413	6.14
284.628	51.2
284.843	88.06
285.058	14.34
285.274	86.01
285.489	-26.62
285.704	102.4
285.919	106.49
286.134	55.3
286.349	32.77
286.564	47.1
286.779	100.35
286.995	57.34
287.21	12.29
287.425	81.92
287.64	32.77
287.855	38.91
288.07	-12.29
288.285	6.14
288.5	40.96
288.715	96.25
288.93	24.58
289.145	28.67
289.36	51.2
289.575	38.91
289.79	67.58
290.004	8.19
290.219	22.53
290.434	22.53
290.649	-32.77
290.864	47.1
291.079	43.01
291.294	131.07
291.509	47.1
291.724	38.91
291.938	12.29
292.153	26.62
292.368	65.54
292.583	28.67
292.798	-38.91
293.012	16.38
293.227	83.97
293.442	53.25
293.657	96.25
293.871	47.1
294.086	61.44
294.301	38.91
294.516	47.1
294.73	32.77
294.945	-10.24
295.16	38.91
295.374	102.4
295.589	71.68
295.804	24.58
296.018	2.05
296.233	10.24
296.447	16.38
296.662	67.58
296.877	51.2
297.091	0
297.306	88.06
297.52	145.41
297.735	55.3
297.949	14.34
298.164	38.91
298.378	104.45
298.593	-40.96
298.807	-2.05
299.022	49.15
299.236	75.77
299.451	116.73
299.665	59.39
299.88	51.2
300.094	110.59
300.309	18.43
300.523	100.35
300.737	14.34
300.952	47.1
301.166	28.67
301.381	47.1
301.595	32.77
301.809	43.01
302.024	22.53
302.238	-47.1
302.452	40.96
302.667	36.86
302.881	83.97
303.095	79.87
303.309	75.77
303.524	100.35
303.738	-4.1
303.952	81.92
304.166	10.24
304.381	-30.72
304.595	32.77
304.809	57.34
305.023	28.67
305.237	38.91
305.452	22.53
305.666	79.87
305.88	53.25
306.094	71.68
306.308	65.54
306.522	43.01
306.736	22.53
306.95	61.44
307.164	14.34
307.379	32.77
307.593	51.2
307.807	28.67
308.021	79.87
308.235	102.4
308.449	-2.05
308.663	-4.1
308.877	112.64
309.091	36.86
309.305	38.91
309.519	-16.38
309.733	92.16
309.947	-6.14
310.161	63.49
310.374	59.39
310.588	53.25
310.802	32.77
311.016	30.72
311.23	32.77
311.444	4.1
311.658	61.44
311.872	55.3
312.085	90.11
312.299	90.11
312.513	79.87
312.727	92.16
312.941	67.58
313.154	51.2
313.368	108.54
313.582	98.3
313.796	30.72
314.009	86.01
314.223	92.16
314.437	102.4
314.651	32.77
314.864	83.97
315.078	14.34
315.292	51.2
315.505	14.34
315.719	92.16
315.933	133.12
316.146	32.77
316.36	16.38
316.573	36.86
316.787	81.92
317.001	43.01
317.214	65.54
317.428	22.53
317.641	65.54
317.855	92.16
318.068	120.83
318.282	14.34
318.495	73.73
318.709	81.92
318.922	4.1
319.136	143.36
319.349	22.53
319.563	30.72
319.776	-22.53
319.99	-4.1
320.203	36.86
320.417	40.96
320.63	106.49
320.843	81.92
321.057	36.86
321.27	47.1
321.483	0
321.697	106.49
321.91	73.73
322.124	57.34
322.337	47.1
322.55	4.1
322.763	45.06
322.977	55.3
323.19	114.69
323.403	88.06
323.617	79.87
323.83	81.92
324.043	79.87
324.256	106.49
324.469	75.77
324.683	26.62
324.896	-6.14
325.109	112.64
325.322	71.68
325.535	59.39
325.748	122.88
325.962	43.01
326.175	2.05
326.388	122.88
326.601	116.73
326.814	8.19
327.027	14.34
327.24	100.35
327.453	22.53
327.666	26.62
327.879	149.5
328.092	30.72
328.305	47.1
328.518	63.49
328.731	-2.05
328.944	32.77
329.157	63.49
329.37	75.77
329.583	6.14
329.796	108.54
330.009	16.38
330.222	96.25
330.435	4.1
330.648	98.3
330.861	12.29
331.073	100.35
331.286	32.77
331.499	22.53
331.712	30.72
331.925	96.25
332.138	51.2
332.35	40.96
332.563	63.49
332.776	47.1
332.989	-47.1
333.202	6.14
333.414	133.12
333.627	47.1
333.84	83.97
334.053	88.06
334.265	79.87
334.478	55.3
334.691	67.58
334.903	57.34
335.116	112.64
335.329	26.62
335.541	106.49
335.754	71.68
335.966	4.1
336.179	59.39
336.392	79.87
336.604	43.01
336.817	100.35
337.029	47.1
337.242	108.54
337.454	-12.29
337.667	40.96
337.88	133.12
338.092	34.82
338.305	14.34
338.517	61.44
338.729	143.36
338.942	18.43
339.154	-26.62
339.367	38.91
339.579	108.54
339.792	-57.34
340.004	47.1
340.217	20.48
340.429	104.45
340.641	38.91
340.854	-16.38
341.066	65.54
341.278	81.92
341.491	88.06
341.703	83.97
341.915	122.88
342.128	161.79
342.34	43.01
342.552	45.06
342.764	92.16
342.977	55.3
343.189	120.83
343.401	75.77
343.613	100.35
343.826	57.34
344.038	129.02
344.25	92.16
344.462	0
344.674	100.35
344.886	26.62
345.099	104.45
345.311	69.63
345.523	47.1
345.735	-10.24
345.947	67.58
346.159	2.05
346.371	32.77
346.583	-6.14
346.795	67.58
347.007	120.83
347.219	120.83
347.431	73.73
347.643	71.68
347.855	45.06
348.067	145.41
348.279	67.58
348.491	16.38
348.703	14.34
348.915	124.93
349.127	51.2
349.339	75.77
349.551	-51.2
349.763	24.58
349.975	14.34
350.187	96.25
350.399	40.96
350.61	147.45
350.822	51.2
351.034	30.72
351.246	2.05
351.458	38.91
351.669	38.91
351.881	94.21
352.093	124.93
352.305	75.77
352.517	73.73
352.728	77.82
352.94	106.49
353.152	43.01
353.363	14.34
353.575	180.22
353.787	36.86
353.999	90.11
354.21	24.58
354.422	24.58
354.633	36.86
354.845	124.93
355.057	110.59
355.268	22.53
355.48	51.2
355.692	6.14
355.903	24.58
356.115	34.82
356.326	63.49
356.538	79.87
356.749	124.93
356.961	71.68
357.172	10.24
357.384	126.97
357.595	118.78
357.807	12.29
358.018	71.68
358.23	-43.01
358.441	49.15
358.653	112.64
358.864	90.11
359.075	69.63
359.287	71.68
359.498	51.2
359.709	71.68
359.921	94.21
360.132	14.34
360.344	73.73
360.555	-8.19
360.766	47.1
360.977	90.11
361.189	79.87
361.4	71.68
361.611	73.73
361.823	30.72
362.034	81.92
362.245	51.2
362.456	124.93
362.667	86.01
362.879	65.54
363.09	14.34
363.301	90.11
363.512	145.41
363.723	77.82
363.935	51.2
364.146	98.3
364.357	81.92
364.568	104.45
364.779	-10.24
364.99	88.06
365.201	-51.2
365.412	-2.05
365.623	-16.38
365.834	163.84
366.045	-32.77
366.256	47.1
366.467	63.49
366.678	98.3
366.889	67.58
367.1	55.3
367.311	114.69
367.522	65.54
367.733	57.34
367.944	86.01
368.155	108.54
368.366	24.58
368.577	169.98
368.788	75.77
368.999	32.77
369.209	116.73
369.42	141.31
369.631	178.17
369.842	104.45
370.053	22.53
370.264	79.87
370.474	137.21
370.685	79.87
370.896	47.1
371.107	67.58
371.317	71.68
371.528	81.92
371.739	30.72
371.95	108.54
372.16	92.16
372.371	4.1
372.582	88.06
372.792	73.73
373.003	55.3
373.214	14.34
373.424	92.16
373.635	10.24
373.846	112.64
374.056	-6.14
374.267	88.06
374.477	90.11
374.688	77.82
374.898	73.73
375.109	26.62
375.319	126.97
375.53	118.78
375.74	45.06
375.951	118.78
376.161	120.83
376.372	71.68
376.582	67.58
376.793	63.49
377.003	147.45
377.214	77.82
377.424	28.67
377.635	106.49
377.845	-53.25
378.055	126.97
378.266	53.25
378.476	30.72
378.686	47.1
378.897	92.16
379.107	100.35
379.317	114.69
379.528	10.24
379.738	83.97
379.948	6.14
380.158	73.73
380.369	75.77
380.579	14.34
380.789	-2.05
380.999	100.35
381.21	63.49
381.42	100.35
381.63	55.3
381.84	133.12
382.05	71.68
382.261	55.3
382.471	55.3
382.681	63.49
382.891	63.49
383.101	34.82
383.311	49.15
383.521	38.91
383.731	129.02
383.941	116.73
384.151	108.54
384.361	94.21
384.571	22.53
384.781	110.59
384.991	126.97
385.201	106.49
385.411	145.41
385.621	73.73
385.831	71.68
386.041	100.35
386.251	98.3
386.461	32.77
386.671	98.3
386.881	71.68
387.091	67.58
387.301	135.17
387.511	38.91
387.72	104.45
387.93	169.98
388.14	122.88
388.35	43.01
388.56	36.86
388.769	104.45
388.979	96.25
389.189	100.35
389.399	65.54
389.609	100.35
389.818	79.87
390.028	6.14
390.238	96.25
390.447	55.3
390.657	139.26
390.867	59.39
391.076	73.73
391.286	90.11
391.496	81.92
391.705	153.6
391.915	135.17
392.125	94.21
392.334	75.77
392.544	114.69
392.753	106.49
392.963	73.73
393.172	104.45
393.382	116.73
393.591	129.02
393.801	124.93
394.01	108.54
394.22	75.77
394.429	112.64
394.639	67.58
394.848	147.45
395.058	32.77
395.267	174.08
395.477	79.87
395.686	88.06
395.895	180.22
396.105	108.54
396.314	114.69
396.524	163.84
396.733	129.02
396.942	161.79
397.152	106.49
397.361	163.84
397.57	143.36
397.78	34.82
397.989	190.46
398.198	178.17
398.407	108.54
398.617	112.64
398.826	90.11
399.035	118.78
399.244	143.36
399.453	192.51
399.663	153.6
399.872	94.21
400.081	79.87
400.29	194.56
400.499	90.11
400.708	145.41
400.917	120.83
401.127	96.25
401.336	159.74
401.545	206.84
401.754	210.94
401.963	129.02
402.172	231.42
402.381	163.84
402.59	141.31
402.799	131.07
403.008	182.27
403.217	110.59
403.426	159.74
403.635	96.25
403.844	169.98
404.053	190.46
404.262	221.18
404.471	294.91
404.68	202.75
404.888	188.41
405.097	215.04
405.306	237.56
405.515	131.07
405.724	249.85
405.933	276.48
406.142	194.56
406.35	339.96
406.559	149.5
406.768	245.76
406.977	229.37
407.185	260.09
407.394	202.75
407.603	212.99
407.812	268.28
408.02	352.25
408.229	219.13
408.438	344.06
408.646	284.67
408.855	317.44
409.064	296.96
409.272	346.11
409.481	342.01
409.69	311.29
409.898	366.59
410.107	327.67
410.315	417.79
410.524	378.87
410.733	473.08
410.941	432.12
411.15	452.6
411.358	432.12
411.567	491.51
411.775	475.13
411.984	456.7
412.192	550.9
412.401	589.82
412.609	632.82
412.818	616.44
413.026	626.68
413.234	645.11
413.443	589.82
413.651	661.49
413.86	657.4
414.068	745.46
414.276	761.84
414.485	749.56
414.693	729.08
414.901	800.76
415.11	862.19
415.318	860.15
415.526	808.95
415.734	917.49
415.943	983.03
416.151	1007.6
416.359	983.03
416.567	950.26
416.776	1112.05
416.984	1169.39
417.192	1087.47
417.4	1218.54
417.608	1144.81
417.817	1298.41
418.025	1300.46
418.233	1359.85
418.441	1325.04
418.649	1464.3
418.857	1601.51
419.065	1638.38
419.273	1578.98
419.481	1648.61
419.689	1665
419.897	1791.97
420.105	1853.41
420.313	1875.94
420.521	2004.96
420.729	2037.73
420.937	2078.69
421.145	2152.42
421.353	2209.76
421.561	2285.53
421.769	2373.6
421.977	2512.86
422.185	2521.05
422.393	2508.76
422.601	2611.16
422.809	2803.67
423.017	2803.67
423.224	2867.16
423.432	2848.72
423.64	2965.46
423.848	3291.09
424.056	3178.45
424.263	3442.64
424.471	3391.44
424.679	3446.73
424.887	3651.53
425.094	3766.21
425.302	3790.79
425.51	3975.11
425.718	4085.7
425.925	4331.45
426.133	4173.76
426.341	4366.27
426.548	4755.38
426.756	4704.18
426.964	4749.24
427.171	5062.58
427.379	5103.54
427.586	5382.06
427.794	5572.52
428.001	5638.06
428.209	5869.48
428.417	5791.66
428.624	6231.97
428.832	6211.49
429.039	6229.92
429.247	6039.46
429.454	6766.49
429.662	7120.79
429.869	6666.14
430.076	7231.38
430.284	6946.71
430.491	7270.29
430.699	7593.87
430.906	7866.25
431.114	7823.24
431.321	7907.21
431.528	8365.95
431.736	8683.39
431.943	9142.13
432.15	8894.33
432.358	8951.67
432.565	9512.81
432.772	9322.35
432.979	10010.47
433.187	9985.9
433.394	9994.09
433.601	10805.08
433.808	10917.72
434.016	10772.32
434.223	11394.9
434.43	11736.91
434.637	11718.48
434.844	12367.68
435.052	12732.22
435.259	12447.55
435.466	12676.93
435.673	12709.69
435.88	13281.08
436.087	13915.95
436.294	13915.95
436.501	13700.91
436.708	14128.94
436.915	14362.4
437.122	15101.72
437.329	15220.5
437.537	15480.6
437.743	15576.85
437.95	15853.33
438.157	16764.67
438.364	17061.63
438.571	16897.79
438.778	17317.62
438.985	18609.89
439.192	18089.71
439.399	18380.52
439.606	17942.25
439.813	19191.52
440.02	20352.71
440.227	20027.09
440.433	19812.05
440.64	20549.32
440.847	20190.92
441.054	20948.67
441.261	21989.04
441.467	22001.33
441.674	22032.05
441.881	22699.69
442.088	23160.48
442.294	22621.86
442.501	23543.45
442.708	23797.4
442.914	24860.29
443.121	25615.99
443.328	24956.55
443.534	26766.95
443.741	26224.24
443.948	25632.38
444.154	27512.41
444.361	27594.33
444.568	27700.83
444.774	27381.34
444.981	27733.59
445.187	28911.17
445.394	30041.65
445.6	29730.36
445.807	32099.86
446.013	31026.73
446.22	31092.26
446.426	32986.63
446.633	32873.99
446.839	34395.64
447.046	32439.83
447.252	34475.51
447.459	34352.63
447.665	34199.03
447.871	35696.1
448.078	37238.22
448.284	35390.95
448.491	36226.52
448.697	38143.42
448.903	38780.34
449.11	38833.58
449.316	38057.4
449.522	38784.43
449.728	39620
449.935	39964.06
450.141	40142.24
450.347	40730
450.553	39468.45
450.76	40029.6
450.966	41246.09
451.172	40887.7
451.378	41805.19
451.584	41616.77
451.791	42055.04
451.997	42102.14
452.203	42640.76
452.409	42798.45
452.615	42519.93
452.821	40504.73
453.027	40471.96
453.233	42526.07
453.44	40879.5
453.646	41297.29
453.852	41694.6
454.058	42284.41
454.264	41256.33
454.47	42161.53
454.676	40830.35
454.882	42087.81
455.088	38491.57
455.294	39218.6
455.5	40058.27
455.705	40109.47
455.911	38407.61
456.117	37846.46
456.323	37262.79
456.529	35165.67
456.735	36834.77
456.941	35984.86
457.147	35689.95
457.352	34592.24
457.558	33865.21
457.764	34182.65
457.97	33598.98
458.176	32826.89
458.381	32998.92
458.587	30993.96
458.793	31219.24
458.999	29558.33
459.204	31372.83
459.41	30746.15
459.616	28782.15
459.821	28845.64
460.027	28421.71
460.233	28159.57
460.438	27223.65
460.644	27332.19
460.85	25937.52
461.055	25497.21
461.261	25267.84
461.466	23387.8
461.672	22947.49
461.878	24108.69
462.083	22906.53
462.289	22433.45
462.494	22359.72
462.7	21055.17
462.905	20770.5
463.111	21370.55
463.316	21642.93
463.522	21089.98
463.727	20868.8
463.932	21010.11
464.138	20688.58
464.343	20592.33
464.549	20166.35
464.754	20723.4
464.959	20739.78
465.165	20627.14
465.37	19521.24
465.575	19037.92
465.781	20098.77
465.986	19992.27
466.191	19193.56
466.397	18937.57
466.602	17825.52
466.807	18740.96
467.012	18638.56
467.218	18585.32
467.423	18566.88
