Data from USB4F104151__207__14-20-44-861.txt Node

Date: Thu Mar 13 14:20:44 EDT 2025
User: louis
Spectrometer: USB4F10415
Trigger mode: 4
Integration Time (sec): 2.000000E-2
Scans to average: 1
Electric dark correction enabled: true
Nonlinearity correction enabled: false
Boxcar width: 0
XAxis mode: Wavelengths
Number of Pixels in Spectrum: 3648
>>>>>Begin Spectral Data<<<<<
178.204	-84.14
178.424	-84.14
178.644	-84.14
178.864	-184.49
179.084	-164.01
179.304	-41.13
179.524	20.31
179.744	-34.99
179.964	8.02
180.184	-28.84
180.404	48.98
180.624	14.17
180.844	-32.94
181.064	-28.84
181.283	16.21
181.503	-2.22
181.723	61.27
181.943	-65.71
182.163	12.12
182.383	-2.22
182.602	71.51
182.822	34.64
183.042	-12.46
183.262	3.93
183.482	-67.75
183.701	-45.23
183.921	63.32
184.141	28.5
184.361	46.93
184.58	-4.27
184.8	32.6
185.02	-8.36
185.239	46.93
185.459	-12.46
185.679	73.56
185.898	-57.51
186.118	85.84
186.338	26.45
186.557	-20.65
186.777	5.97
186.997	-12.46
187.216	53.08
187.436	36.69
187.655	-24.75
187.875	-12.46
188.095	18.26
188.314	-4.27
188.534	75.6
188.753	36.69
188.973	48.98
189.192	69.46
189.412	73.56
189.631	-12.46
189.851	-32.94
190.07	48.98
190.29	20.31
190.509	28.5
190.729	28.5
190.948	104.28
191.168	126.8
191.387	87.89
191.607	40.79
191.826	32.6
192.045	28.5
192.265	12.12
192.484	1.88
192.704	61.27
192.923	-75.95
193.142	46.93
193.362	102.23
193.581	71.51
193.8	14.17
194.02	135
194.239	3.93
194.458	16.21
194.678	-28.84
194.897	61.27
195.116	5.97
195.335	85.84
195.555	-20.65
195.774	73.56
195.993	77.65
196.212	1.88
196.432	-12.46
196.651	-20.65
196.87	-75.95
197.089	53.08
197.308	65.36
197.528	-14.51
197.747	-18.6
197.966	-12.46
198.185	44.88
198.404	53.08
198.623	73.56
198.842	91.99
199.062	38.74
199.281	-8.36
199.5	-37.03
199.719	55.12
199.938	61.27
200.157	79.7
200.376	48.98
200.595	14.17
200.814	32.6
201.033	-24.75
201.252	75.6
201.471	30.55
201.69	-53.42
201.909	-6.31
202.128	69.46
202.347	18.26
202.566	-10.41
202.785	-8.36
203.004	-26.79
203.223	77.65
203.442	12.12
203.661	81.75
203.879	-37.03
204.098	71.51
204.317	3.93
204.536	55.12
204.755	-12.46
204.974	61.27
205.193	30.55
205.411	71.51
205.63	77.65
205.849	-6.31
206.068	40.79
206.287	24.4
206.505	18.26
206.724	-2.22
206.943	77.65
207.162	-20.65
207.381	-34.99
207.599	-22.7
207.818	5.97
208.037	32.6
208.255	-41.13
208.474	63.32
208.693	38.74
208.911	-12.46
209.13	20.31
209.349	46.93
209.567	38.74
209.786	81.75
210.005	28.5
210.223	28.5
210.442	-12.46
210.661	87.89
210.879	-28.84
211.098	-6.31
211.316	-82.09
211.535	-10.41
211.753	22.36
211.972	5.97
212.191	34.64
212.409	63.32
212.628	94.04
212.846	-63.66
213.065	46.93
213.283	94.04
213.502	22.36
213.72	5.97
213.938	40.79
214.157	46.93
214.375	14.17
214.594	81.75
214.812	-71.85
215.031	12.12
215.249	-61.61
215.467	32.6
215.686	-4.27
215.904	28.5
216.122	5.97
216.341	30.55
216.559	3.93
216.778	63.32
216.996	57.17
217.214	-0.17
217.432	-69.8
217.651	57.17
217.869	-34.99
218.087	-8.36
218.306	38.74
218.524	-6.31
218.742	40.79
218.96	61.27
219.179	12.12
219.397	24.4
219.615	81.75
219.833	20.31
220.051	-0.17
220.27	44.88
220.488	-8.36
220.706	46.93
220.924	3.93
221.142	8.02
221.36	36.69
221.578	36.69
221.796	-20.65
222.015	48.98
222.233	3.93
222.451	53.08
222.669	18.26
222.887	42.84
223.105	30.55
223.323	22.36
223.541	-8.36
223.759	-28.84
223.977	96.08
224.195	-0.17
224.413	-34.99
224.631	69.46
224.849	18.26
225.067	73.56
225.285	20.31
225.503	36.69
225.721	-43.18
225.939	26.45
226.157	26.45
226.375	110.42
226.592	-32.94
226.81	24.4
227.028	69.46
227.246	30.55
227.464	81.75
227.682	44.88
227.9	-26.79
228.117	-37.03
228.335	59.22
228.553	44.88
228.771	32.6
228.989	16.21
229.206	20.31
229.424	-12.46
229.642	8.02
229.86	20.31
230.077	65.36
230.295	-0.17
230.513	34.64
230.731	8.02
230.948	55.12
231.166	-12.46
231.384	-0.17
231.601	-45.23
231.819	94.04
232.037	28.5
232.254	12.12
232.472	-49.32
232.689	-88.23
232.907	36.69
233.125	18.26
233.342	71.51
233.56	32.6
233.777	110.42
233.995	-55.47
234.213	98.13
234.43	12.12
234.648	3.93
234.865	28.5
235.083	77.65
235.3	110.42
235.518	16.21
235.735	12.12
235.953	128.85
236.17	24.4
236.388	-4.27
236.605	-10.41
236.822	51.03
237.04	-22.7
237.257	24.4
237.475	38.74
237.692	61.27
237.909	94.04
238.127	40.79
238.344	8.02
238.562	-53.42
238.779	3.93
238.996	-28.84
239.214	36.69
239.431	67.41
239.648	-24.75
239.865	44.88
240.083	75.6
240.3	12.12
240.517	-10.41
240.735	12.12
240.952	114.52
241.169	44.88
241.386	-6.31
241.603	65.36
241.821	-4.27
242.038	-4.27
242.255	87.89
242.472	8.02
242.689	8.02
242.907	-20.65
243.124	26.45
243.341	-69.8
243.558	12.12
243.775	28.5
243.992	-45.23
244.209	20.31
244.426	53.08
244.643	-0.17
244.86	69.46
245.078	-59.56
245.295	-20.65
245.512	46.93
245.729	3.93
245.946	38.74
246.163	-20.65
246.38	61.27
246.597	32.6
246.814	51.03
247.031	40.79
247.248	102.23
247.464	53.08
247.681	40.79
247.898	61.27
248.115	30.55
248.332	5.97
248.549	77.65
248.766	94.04
248.983	69.46
249.2	53.08
249.417	65.36
249.633	14.17
249.85	73.56
250.067	87.89
250.284	44.88
250.501	44.88
250.717	28.5
250.934	-2.22
251.151	-0.17
251.368	98.13
251.585	46.93
251.801	-16.55
252.018	-26.79
252.235	-2.22
252.451	28.5
252.668	-24.75
252.885	73.56
253.102	110.42
253.318	12.12
253.535	61.27
253.752	36.69
253.968	28.5
254.185	-41.13
254.401	48.98
254.618	14.17
254.835	-61.61
255.051	22.36
255.268	-12.46
255.484	65.36
255.701	36.69
255.917	100.18
256.134	53.08
256.351	57.17
256.567	-28.84
256.784	57.17
257	-20.65
257.217	26.45
257.433	30.55
257.65	36.69
257.866	79.7
258.082	32.6
258.299	22.36
258.515	-26.79
258.732	-20.65
258.948	-4.27
259.165	147.28
259.381	3.93
259.597	71.51
259.814	73.56
260.03	67.41
260.246	36.69
260.463	53.08
260.679	-12.46
260.895	-47.27
261.112	44.88
261.328	-8.36
261.544	36.69
261.761	120.66
261.977	53.08
262.193	-20.65
262.409	61.27
262.626	145.24
262.842	61.27
263.058	87.89
263.274	10.07
263.49	36.69
263.707	-0.17
263.923	14.17
264.139	36.69
264.355	24.4
264.571	69.46
264.787	18.26
265.004	1.88
265.22	-77.99
265.436	-24.75
265.652	-18.6
265.868	61.27
266.084	-37.03
266.3	36.69
266.516	-22.7
266.732	26.45
266.948	-37.03
267.164	14.17
267.38	24.4
267.596	14.17
267.812	69.46
268.028	81.75
268.244	38.74
268.46	-6.31
268.676	36.69
268.892	53.08
269.108	-18.6
269.324	-20.65
269.54	59.22
269.756	71.51
269.972	28.5
270.188	3.93
270.403	-4.27
270.619	75.6
270.835	55.12
271.051	38.74
271.267	-8.36
271.483	-4.27
271.698	42.84
271.914	-0.17
272.13	65.36
272.346	20.31
272.562	44.88
272.777	36.69
272.993	32.6
273.209	44.88
273.425	36.69
273.64	34.64
273.856	75.6
274.072	32.6
274.287	53.08
274.503	75.6
274.719	110.42
274.934	30.55
275.15	-16.55
275.366	34.64
275.581	-59.56
275.797	46.93
276.012	-4.27
276.228	3.93
276.444	22.36
276.659	100.18
276.875	61.27
277.09	-4.27
277.306	-2.22
277.521	77.65
277.737	18.26
277.952	89.94
278.168	-20.65
278.383	77.65
278.599	96.08
278.814	55.12
279.03	3.93
279.245	46.93
279.461	-20.65
279.676	46.93
279.892	-4.27
280.107	-37.03
280.322	81.75
280.538	28.5
280.753	-55.47
280.969	94.04
281.184	28.5
281.399	28.5
281.615	-4.27
281.83	69.46
282.045	20.31
282.26	12.12
282.476	55.12
282.691	102.23
282.906	16.21
283.122	75.6
283.337	-8.36
283.552	14.17
283.767	55.12
283.983	61.27
284.198	16.21
284.413	46.93
284.628	-2.22
284.843	16.21
285.058	18.26
285.274	18.26
285.489	-37.03
285.704	5.97
285.919	26.45
286.134	36.69
286.349	48.98
286.564	48.98
286.779	20.31
286.995	55.12
287.21	77.65
287.425	14.17
287.64	-65.71
287.855	44.88
288.07	-39.08
288.285	79.7
288.5	8.02
288.715	34.64
288.93	-12.46
289.145	-30.89
289.36	8.02
289.575	85.84
289.79	40.79
290.004	20.31
290.219	69.46
290.434	-37.03
290.649	24.4
290.864	28.5
291.079	69.46
291.294	28.5
291.509	10.07
291.724	85.84
291.938	65.36
292.153	85.84
292.368	-53.42
292.583	36.69
292.798	32.6
293.012	73.56
293.227	26.45
293.442	65.36
293.657	5.97
293.871	44.88
294.086	16.21
294.301	5.97
294.516	102.23
294.73	96.08
294.945	5.97
295.16	24.4
295.374	20.31
295.589	40.79
295.804	-6.31
296.018	42.84
296.233	48.98
296.447	48.98
296.662	94.04
296.877	57.17
297.091	-49.32
297.306	38.74
297.52	-75.95
297.735	30.55
297.949	51.03
298.164	57.17
298.378	46.93
298.593	3.93
298.807	-34.99
299.022	-12.46
299.236	110.42
299.451	24.4
299.665	118.61
299.88	175.95
300.094	48.98
300.309	61.27
300.523	44.88
300.737	12.12
300.952	46.93
301.166	-24.75
301.381	53.08
301.595	48.98
301.809	71.51
302.024	81.75
302.238	57.17
302.452	55.12
302.667	38.74
302.881	53.08
303.095	112.47
303.309	102.23
303.524	14.17
303.738	61.27
303.952	-18.6
304.166	98.13
304.381	-37.03
304.595	89.94
304.809	77.65
305.023	-4.27
305.237	5.97
305.452	-2.22
305.666	79.7
305.88	65.36
306.094	83.8
306.308	48.98
306.522	100.18
306.736	-8.36
306.95	-2.22
307.164	38.74
307.379	-24.75
307.593	73.56
307.807	61.27
308.021	20.31
308.235	77.65
308.449	36.69
308.663	3.93
308.877	126.8
309.091	67.41
309.305	77.65
309.519	53.08
309.733	120.66
309.947	53.08
310.161	46.93
310.374	69.46
310.588	44.88
310.802	-2.22
311.016	3.93
311.23	5.97
311.444	-41.13
311.658	57.17
311.872	106.32
312.085	63.32
312.299	77.65
312.513	44.88
312.727	53.08
312.941	44.88
313.154	65.36
313.368	3.93
313.582	16.21
313.796	16.21
314.009	20.31
314.223	85.84
314.437	30.55
314.651	77.65
314.864	55.12
315.078	61.27
315.292	38.74
315.505	36.69
315.719	71.51
315.933	28.5
316.146	12.12
316.36	-37.03
316.573	77.65
316.787	-8.36
317.001	24.4
317.214	24.4
317.428	36.69
317.641	20.31
317.855	-75.95
318.068	28.5
318.282	57.17
318.495	110.42
318.709	30.55
318.922	40.79
319.136	24.4
319.349	12.12
319.563	-16.55
319.776	94.04
319.99	38.74
320.203	61.27
320.417	16.21
320.63	69.46
320.843	40.79
321.057	51.03
321.27	63.32
321.483	-8.36
321.697	89.94
321.91	44.88
322.124	77.65
322.337	77.65
322.55	69.46
322.763	30.55
322.977	69.46
323.19	-2.22
323.403	30.55
323.617	36.69
323.83	102.23
324.043	10.07
324.256	12.12
324.469	18.26
324.683	38.74
324.896	16.21
325.109	57.17
325.322	-8.36
325.535	42.84
325.748	122.71
325.962	-2.22
326.175	-10.41
326.388	110.42
326.601	44.88
326.814	73.56
327.027	69.46
327.24	59.22
327.453	20.31
327.666	61.27
327.879	61.27
328.092	38.74
328.305	5.97
328.518	22.36
328.731	-6.31
328.944	-18.6
329.157	38.74
329.37	57.17
329.583	94.04
329.796	122.71
330.009	48.98
330.222	18.26
330.435	8.02
330.648	1.88
330.861	51.03
331.073	42.84
331.286	57.17
331.499	53.08
331.712	-24.75
331.925	42.84
332.138	110.42
332.35	61.27
332.563	48.98
332.776	53.08
332.989	3.93
333.202	12.12
333.414	-12.46
333.627	83.8
333.84	16.21
334.053	-4.27
334.265	22.36
334.478	42.84
334.691	44.88
334.903	59.22
335.116	-49.32
335.329	65.36
335.541	32.6
335.754	75.6
335.966	100.18
336.179	55.12
336.392	8.02
336.604	63.32
336.817	-18.6
337.029	98.13
337.242	28.5
337.454	98.13
337.667	81.75
337.88	128.85
338.092	32.6
338.305	44.88
338.517	12.12
338.729	89.94
338.942	69.46
339.154	102.23
339.367	-20.65
339.579	-16.55
339.792	3.93
340.004	28.5
340.217	3.93
340.429	46.93
340.641	36.69
340.854	3.93
341.066	65.36
341.278	48.98
341.491	12.12
341.703	22.36
341.915	12.12
342.128	24.4
342.34	44.88
342.552	65.36
342.764	51.03
342.977	-4.27
343.189	89.94
343.401	126.8
343.613	38.74
343.826	46.93
344.038	-8.36
344.25	28.5
344.462	57.17
344.674	40.79
344.886	38.74
345.099	61.27
345.311	18.26
345.523	36.69
345.735	12.12
345.947	79.7
346.159	38.74
346.371	79.7
346.583	3.93
346.795	85.84
347.007	36.69
347.219	61.27
347.431	12.12
347.643	53.08
347.855	61.27
348.067	81.75
348.279	20.31
348.491	61.27
348.703	59.22
348.915	57.17
349.127	36.69
349.339	73.56
349.551	71.51
349.763	38.74
349.975	22.36
350.187	30.55
350.399	110.42
350.61	40.79
350.822	42.84
351.034	61.27
351.246	30.55
351.458	14.17
351.669	59.22
351.881	112.47
352.093	100.18
352.305	8.02
352.517	104.28
352.728	53.08
352.94	20.31
353.152	130.9
353.363	-10.41
353.575	71.51
353.787	63.32
353.999	71.51
354.21	77.65
354.422	63.32
354.633	-34.99
354.845	79.7
355.057	98.13
355.268	91.99
355.48	55.12
355.692	32.6
355.903	61.27
356.115	-4.27
356.326	85.84
356.538	57.17
356.749	42.84
356.961	46.93
357.172	-30.89
357.384	63.32
357.595	53.08
357.807	53.08
358.018	3.93
358.23	46.93
358.441	89.94
358.653	79.7
358.864	55.12
359.075	20.31
359.287	63.32
359.498	57.17
359.709	18.26
359.921	77.65
360.132	-59.56
360.344	63.32
360.555	36.69
360.766	14.17
360.977	59.22
361.189	-32.94
361.4	26.45
361.611	44.88
361.823	63.32
362.034	94.04
362.245	-53.42
362.456	94.04
362.667	61.27
362.879	38.74
363.09	116.56
363.301	57.17
363.512	102.23
363.723	139.09
363.935	44.88
364.146	77.65
364.357	14.17
364.568	-12.46
364.779	32.6
364.99	79.7
365.201	28.5
365.412	106.32
365.623	-20.65
365.834	30.55
366.045	36.69
366.256	53.08
366.467	12.12
366.678	-16.55
366.889	36.69
367.1	36.69
367.311	-8.36
367.522	53.08
367.733	94.04
367.944	65.36
368.155	94.04
368.366	100.18
368.577	149.33
368.788	55.12
368.999	-6.31
369.209	30.55
369.42	46.93
369.631	46.93
369.842	-45.23
370.053	53.08
370.264	91.99
370.474	71.51
370.685	81.75
370.896	-20.65
371.107	81.75
371.317	96.08
371.528	3.93
371.739	65.36
371.95	104.28
372.16	-8.36
372.371	1.88
372.582	12.12
372.792	77.65
373.003	61.27
373.214	110.42
373.424	83.8
373.635	55.12
373.846	67.41
374.056	-18.6
374.267	16.21
374.477	-2.22
374.688	34.64
374.898	40.79
375.109	36.69
375.319	-28.84
375.53	71.51
375.74	28.5
375.951	73.56
376.161	26.45
376.372	106.32
376.582	16.21
376.793	71.51
377.003	40.79
377.214	36.69
377.424	73.56
377.635	-37.03
377.845	-12.46
378.055	126.8
378.266	-8.36
378.476	94.04
378.686	61.27
378.897	139.09
379.107	16.21
379.317	81.75
379.528	3.93
379.738	87.89
379.948	-12.46
380.158	61.27
380.369	81.75
380.579	114.52
380.789	18.26
380.999	14.17
381.21	73.56
381.42	171.86
381.63	67.41
381.84	30.55
382.05	22.36
382.261	46.93
382.471	44.88
382.681	69.46
382.891	98.13
383.101	192.34
383.311	67.41
383.521	69.46
383.731	46.93
383.941	94.04
384.151	77.65
384.361	3.93
384.571	110.42
384.781	114.52
384.991	63.32
385.201	135
385.411	53.08
385.621	51.03
385.831	3.93
386.041	-24.75
386.251	42.84
386.461	151.38
386.671	3.93
386.881	18.26
387.091	-4.27
387.301	28.5
387.511	46.93
387.72	69.46
387.93	61.27
388.14	-28.84
388.35	48.98
388.56	137.04
388.769	38.74
388.979	155.47
389.189	-4.27
389.399	135
389.609	30.55
389.818	26.45
390.028	16.21
390.238	48.98
390.447	53.08
390.657	163.67
390.867	61.27
391.076	57.17
391.286	98.13
391.496	81.75
391.705	71.51
391.915	53.08
392.125	94.04
392.334	32.6
392.544	81.75
392.753	-14.51
392.963	57.17
393.172	75.6
393.382	69.46
393.591	53.08
393.801	12.12
394.01	53.08
394.22	75.6
394.429	118.61
394.639	73.56
394.848	65.36
395.058	120.66
395.267	77.65
395.477	40.79
395.686	69.46
395.895	194.39
396.105	159.57
396.314	36.69
396.524	112.47
396.733	20.31
396.942	122.71
397.152	116.56
397.361	71.51
397.57	67.41
397.78	48.98
397.989	102.23
398.198	173.91
398.407	53.08
398.617	108.37
398.826	141.14
399.035	108.37
399.244	151.38
399.453	110.42
399.663	151.38
399.872	77.65
400.081	104.28
400.29	163.67
400.499	69.46
400.708	202.58
400.917	59.22
401.127	44.88
401.336	79.7
401.545	218.96
401.754	182.1
401.963	118.61
402.172	114.52
402.381	137.04
402.59	135
402.799	225.11
403.008	161.62
403.217	184.15
403.426	202.58
403.635	102.23
403.844	180.05
404.053	204.63
404.262	175.95
404.471	235.35
404.68	221.01
404.888	163.67
405.097	59.22
405.306	196.43
405.515	255.83
405.724	169.81
405.933	239.44
406.142	196.43
406.35	237.39
406.559	204.63
406.768	178
406.977	290.64
407.185	241.49
407.394	296.78
407.603	286.54
407.812	245.59
408.02	282.45
408.229	290.64
408.438	223.06
408.646	315.22
408.855	298.83
409.064	315.22
409.272	290.64
409.481	397.14
409.69	368.46
409.898	253.78
410.107	366.42
410.315	411.47
410.524	399.18
410.733	454.48
410.941	460.62
411.15	479.05
411.358	454.48
411.567	487.25
411.775	483.15
411.984	534.35
412.192	565.07
412.401	610.12
412.609	606.03
412.818	642.89
413.026	577.36
413.234	606.03
413.443	528.21
413.651	646.99
413.86	728.91
414.068	739.15
414.276	823.11
414.485	704.33
414.693	888.65
414.901	814.92
415.11	917.32
415.318	857.93
415.526	896.84
415.734	1005.38
415.943	1036.1
416.151	978.76
416.359	980.81
416.567	1105.73
416.776	1118.02
416.984	1191.75
417.192	1290.05
417.4	1146.69
417.608	1290.05
417.817	1394.5
418.025	1349.44
418.233	1464.13
418.441	1449.79
418.649	1341.25
418.857	1535.81
419.065	1677.12
419.273	1593.15
419.481	1595.2
419.689	1799.99
419.897	1849.15
420.105	1914.68
420.313	2035.51
420.521	1976.12
420.729	2156.34
420.937	2162.48
421.145	2215.73
421.353	2299.7
421.561	2340.66
421.769	2395.95
421.977	2547.5
422.185	2576.17
422.393	2705.2
422.601	2901.8
422.809	2875.18
423.017	2930.47
423.224	2998.06
423.432	3075.88
423.64	3088.17
423.848	3272.48
424.056	3362.59
424.263	3542.82
424.471	3514.14
424.679	3610.4
424.887	3895.07
425.094	3915.55
425.302	3895.07
425.51	4024.09
425.718	4321.04
425.925	4300.56
426.133	4562.7
426.341	4673.29
426.548	4947.72
426.756	4798.22
426.964	4771.6
427.171	5095.18
427.379	5418.75
427.586	5512.96
427.794	5670.65
428.001	6029.05
428.209	6188.79
428.417	5920.51
428.624	6545.14
428.832	6567.67
429.039	6328.05
429.247	6598.38
429.454	7003.88
429.662	7640.8
429.869	6991.59
430.076	7460.58
430.284	7479.01
430.491	7657.18
430.699	8173.27
430.906	8001.24
431.114	8099.55
431.321	8531.67
431.528	8589.01
431.736	9107.15
431.943	9447.11
432.15	9246.41
432.358	9668.29
432.565	9930.43
432.772	10012.35
432.979	10520.24
433.187	10682.03
433.394	10671.79
433.601	11425.45
433.808	11390.63
434.016	11230.89
434.223	11636.39
434.43	12279.45
434.637	12209.82
434.844	12869.26
435.052	13129.36
435.259	12926.61
435.466	13110.93
435.673	13151.88
435.88	14147.2
436.087	14581.37
436.294	14663.29
436.501	14087.81
436.708	14802.55
436.915	15066.74
437.122	15724.13
437.329	15920.74
437.537	16117.34
437.743	16465.5
437.95	16629.34
438.157	17151.57
438.364	17512.01
438.571	17718.85
438.778	17628.74
438.985	19613.23
439.192	18718.26
439.399	19271.22
439.606	18908.72
439.813	20043.3
440.02	21190.16
440.227	20540.96
440.433	20536.86
440.64	21378.58
440.847	21036.56
441.054	21704.2
441.261	22982.13
441.467	22748.67
441.674	23127.54
441.881	24006.12
442.088	24014.31
442.294	23588.33
442.501	24249.83
442.708	24798.68
442.914	25890.25
443.121	26934.71
443.328	26084.81
443.534	27895.21
443.741	27233.72
443.948	26930.62
444.154	28761.5
444.361	28540.32
444.568	28632.48
444.774	28779.93
444.981	28994.97
445.187	29756.82
445.394	31393.14
445.6	30967.16
445.807	33334.62
446.013	31794.54
446.22	32509.29
446.426	34061.65
446.633	34616.65
446.839	35525.94
447.046	34162
447.252	35849.52
447.459	35607.86
447.665	36138.29
447.871	37289.24
448.078	38667.53
448.284	37387.55
448.491	38036.75
448.697	39697.66
448.903	40109.3
449.11	40086.77
449.316	39247.1
449.522	40451.31
449.728	41579.74
449.935	41667.8
450.141	41444.57
450.347	42542.28
450.553	41174.24
450.76	41864.41
450.966	42935.49
451.172	42495.18
451.378	43697.34
451.584	42501.32
451.791	43701.43
451.997	43433.15
452.203	44434.61
452.409	43916.47
452.615	44270.77
452.821	42511.56
453.027	42147.03
453.233	44455.09
453.44	42640.59
453.646	43363.52
453.852	43502.78
454.058	43668.67
454.264	42962.12
454.47	43644.09
454.676	42370.25
454.882	43883.7
455.088	40008.95
455.294	40719.59
455.5	41565.4
455.705	41952.47
455.911	40092.91
456.117	39359.74
456.323	39154.94
456.529	36930.85
456.735	38239.5
456.941	37371.16
457.147	36531.5
457.352	35790.13
457.558	35906.87
457.764	35464.5
457.97	34862.4
458.176	34248.01
458.381	34086.22
458.587	32617.83
458.793	32396.65
458.999	30952.83
459.204	32935.26
459.41	32056.68
459.616	30170.5
459.821	29963.66
460.027	29797.77
460.233	29289.88
460.438	27907.5
460.644	28310.95
460.85	27108.79
461.055	26703.29
461.261	26590.66
461.466	24544.73
461.672	23809.51
461.878	25538
462.083	24079.85
462.289	23129.59
462.494	23268.85
462.7	22040.07
462.905	21503.5
463.111	22224.39
463.316	22349.31
463.522	21839.37
463.727	21988.87
463.932	21597.71
464.138	21550.6
464.343	21499.41
464.549	21061.14
464.754	21947.91
464.959	21483.02
465.165	21241.36
465.37	20518.43
465.575	20135.46
465.781	20878.87
465.986	21059.09
466.191	20184.61
466.397	19879.46
466.602	18941.49
466.807	19353.13
467.012	19713.58
467.218	19537.45
