Data from USB4F104151__139__14-19-12-934.txt Node

Date: Thu Mar 13 14:19:12 EDT 2025
User: louis
Spectrometer: USB4F10415
Trigger mode: 4
Integration Time (sec): 2.000000E-2
Scans to average: 1
Electric dark correction enabled: true
Nonlinearity correction enabled: false
Boxcar width: 0
XAxis mode: Wavelengths
Number of Pixels in Spectrum: 3648
>>>>>Begin Spectral Data<<<<<
178.204	-132.09
178.424	-132.09
178.644	-132.09
178.864	-93.18
179.084	-146.43
179.304	-7.17
179.524	-9.22
179.744	-84.99
179.964	29.7
180.184	54.27
180.404	-39.94
180.624	56.32
180.844	1.02
181.064	-17.41
181.283	9.22
181.503	-66.56
181.723	74.75
181.943	17.41
182.163	29.7
182.383	-41.98
182.602	78.85
182.822	13.31
183.042	-48.13
183.262	-35.84
183.482	-9.22
183.701	-66.56
183.921	-9.22
184.141	-39.94
184.361	23.55
184.58	-13.31
184.8	-39.94
185.02	-109.57
185.239	64.51
185.459	-7.17
185.679	27.65
185.898	-50.18
186.118	17.41
186.338	19.46
186.557	91.13
186.777	-25.6
186.997	13.31
187.216	-64.51
187.436	87.04
187.655	3.07
187.875	-29.7
188.095	-9.22
188.314	46.08
188.534	-25.6
188.753	7.17
188.973	3.07
189.192	99.33
189.412	46.08
189.631	1.02
189.851	1.02
190.07	33.79
190.29	-60.42
190.509	15.36
190.729	9.22
190.948	50.18
191.168	95.23
191.387	70.65
191.607	15.36
191.826	-52.22
192.045	-66.56
192.265	-44.03
192.484	-44.03
192.704	33.79
192.923	-23.55
193.142	41.98
193.362	54.27
193.581	54.27
193.8	-3.07
194.02	13.31
194.239	5.12
194.458	-54.27
194.678	54.27
194.897	46.08
195.116	-23.55
195.335	29.7
195.555	-17.41
195.774	-3.07
195.993	39.94
196.212	-35.84
196.432	-44.03
196.651	-21.5
196.87	-23.55
197.089	-17.41
197.308	-1.02
197.528	9.22
197.747	-3.07
197.966	-21.5
198.185	46.08
198.404	-56.32
198.623	-56.32
198.842	91.13
199.062	-25.6
199.281	87.04
199.5	-25.6
199.719	-7.17
199.938	72.7
200.157	7.17
200.376	31.74
200.595	31.74
200.814	-13.31
201.033	-3.07
201.252	66.56
201.471	5.12
201.69	23.55
201.909	-50.18
202.128	-17.41
202.347	-33.79
202.566	-72.7
202.785	-9.22
203.004	1.02
203.223	5.12
203.442	-9.22
203.661	-33.79
203.879	37.89
204.098	54.27
204.317	-60.42
204.536	-19.46
204.755	17.41
204.974	64.51
205.193	33.79
205.411	113.66
205.63	15.36
205.849	62.46
206.068	-39.94
206.287	-21.5
206.505	31.74
206.724	54.27
206.943	13.31
207.162	-11.26
207.381	-35.84
207.599	-1.02
207.818	56.32
208.037	-3.07
208.255	-82.94
208.474	-35.84
208.693	50.18
208.911	13.31
209.13	9.22
209.349	1.02
209.567	-41.98
209.786	60.42
210.005	7.17
210.223	74.75
210.442	-76.8
210.661	-19.46
210.879	-35.84
211.098	-21.5
211.316	-1.02
211.535	-17.41
211.753	39.94
211.972	-17.41
212.191	-52.22
212.409	82.94
212.628	107.52
212.846	46.08
213.065	-35.84
213.283	31.74
213.502	-11.26
213.72	17.41
213.938	-33.79
214.157	56.32
214.375	21.5
214.594	-11.26
214.812	31.74
215.031	70.65
215.249	35.84
215.467	17.41
215.686	70.65
215.904	64.51
216.122	-9.22
216.341	95.23
216.559	5.12
216.778	39.94
216.996	3.07
217.214	9.22
217.432	5.12
217.651	-15.36
217.869	29.7
218.087	56.32
218.306	31.74
218.524	-25.6
218.742	5.12
218.96	-21.5
219.179	-15.36
219.397	80.89
219.615	29.7
219.833	-27.65
220.051	25.6
220.27	54.27
220.488	1.02
220.706	-27.65
220.924	-35.84
221.142	9.22
221.36	-7.17
221.578	1.02
221.796	11.26
222.015	25.6
222.233	37.89
222.451	80.89
222.669	-17.41
222.887	-15.36
223.105	-70.65
223.323	56.32
223.541	60.42
223.759	5.12
223.977	23.55
224.195	37.89
224.413	97.28
224.631	76.8
224.849	44.03
225.067	52.22
225.285	-50.18
225.503	29.7
225.721	-68.61
225.939	78.85
226.157	-82.94
226.375	87.04
226.592	35.84
226.81	-33.79
227.028	-9.22
227.246	-25.6
227.464	-13.31
227.682	17.41
227.9	37.89
228.117	37.89
228.335	-117.76
228.553	-23.55
228.771	3.07
228.989	25.6
229.206	-3.07
229.424	29.7
229.642	27.65
229.86	-39.94
230.077	-27.65
230.295	62.46
230.513	-31.74
230.731	29.7
230.948	23.55
231.166	64.51
231.384	54.27
231.601	-44.03
231.819	78.85
232.037	-27.65
232.254	-70.65
232.472	-11.26
232.689	97.28
232.907	-11.26
233.125	54.27
233.342	37.89
233.56	-31.74
233.777	-60.42
233.995	-27.65
234.213	37.89
234.43	-27.65
234.648	23.55
234.865	-31.74
235.083	27.65
235.3	17.41
235.518	31.74
235.735	13.31
235.953	50.18
236.17	5.12
236.388	-5.12
236.605	-13.31
236.822	7.17
237.04	60.42
237.257	-1.02
237.475	-29.7
237.692	87.04
237.909	37.89
238.127	7.17
238.344	3.07
238.562	33.79
238.779	-50.18
238.996	23.55
239.214	31.74
239.431	5.12
239.648	31.74
239.865	11.26
240.083	-11.26
240.3	-7.17
240.517	-91.13
240.735	-9.22
240.952	54.27
241.169	-25.6
241.386	-7.17
241.603	-7.17
241.821	3.07
242.038	-7.17
242.255	13.31
242.472	1.02
242.689	39.94
242.907	-3.07
243.124	29.7
243.341	27.65
243.558	-19.46
243.775	-76.8
243.992	-66.56
244.209	21.5
244.426	-3.07
244.643	48.13
244.86	-31.74
245.078	46.08
245.295	46.08
245.512	89.09
245.729	-68.61
245.946	62.46
246.163	15.36
246.38	-9.22
246.597	7.17
246.814	50.18
247.031	15.36
247.248	-15.36
247.464	-5.12
247.681	62.46
247.898	-15.36
248.115	-39.94
248.332	5.12
248.549	62.46
248.766	62.46
248.983	-3.07
249.2	5.12
249.417	-23.55
249.633	5.12
249.85	-11.26
250.067	-29.7
250.284	-31.74
250.501	31.74
250.717	46.08
250.934	-19.46
251.151	-44.03
251.368	11.26
251.585	-46.08
251.801	62.46
252.018	-25.6
252.235	-17.41
252.451	-56.32
252.668	-9.22
252.885	41.98
253.102	64.51
253.318	33.79
253.535	25.6
253.752	-27.65
253.968	7.17
254.185	-33.79
254.401	97.28
254.618	-9.22
254.835	-21.5
255.051	25.6
255.268	23.55
255.484	15.36
255.701	-9.22
255.917	-44.03
256.134	29.7
256.351	60.42
256.567	-7.17
256.784	17.41
257	-58.37
257.217	58.37
257.433	5.12
257.65	-1.02
257.866	5.12
258.082	-9.22
258.299	21.5
258.515	5.12
258.732	-23.55
258.948	9.22
259.165	39.94
259.381	-80.89
259.597	-19.46
259.814	-9.22
260.03	35.84
260.246	33.79
260.463	-3.07
260.679	1.02
260.895	-44.03
261.112	33.79
261.328	64.51
261.544	23.55
261.761	87.04
261.977	-19.46
262.193	15.36
262.409	37.89
262.626	84.99
262.842	15.36
263.058	-41.98
263.274	15.36
263.49	29.7
263.707	-1.02
263.923	84.99
264.139	21.5
264.355	-15.36
264.571	-11.26
264.787	31.74
265.004	33.79
265.22	13.31
265.436	-35.84
265.652	-23.55
265.868	80.89
266.084	-54.27
266.3	74.75
266.516	13.31
266.732	33.79
266.948	39.94
267.164	-72.7
267.38	-41.98
267.596	-19.46
267.812	62.46
268.028	37.89
268.244	13.31
268.46	78.85
268.676	-60.42
268.892	-29.7
269.108	-46.08
269.324	-25.6
269.54	1.02
269.756	35.84
269.972	-31.74
270.188	87.04
270.403	-3.07
270.619	41.98
270.835	39.94
271.051	25.6
271.267	-31.74
271.483	25.6
271.698	62.46
271.914	29.7
272.13	41.98
272.346	-17.41
272.562	-31.74
272.777	54.27
272.993	39.94
273.209	87.04
273.425	1.02
273.64	-11.26
273.856	87.04
274.072	37.89
274.287	-74.75
274.503	1.02
274.719	-15.36
274.934	-31.74
275.15	-78.85
275.366	37.89
275.581	-15.36
275.797	23.55
276.012	13.31
276.228	-27.65
276.444	-35.84
276.659	48.13
276.875	-7.17
277.09	7.17
277.306	-7.17
277.521	58.37
277.737	-17.41
277.952	5.12
278.168	27.65
278.383	76.8
278.599	35.84
278.814	1.02
279.03	5.12
279.245	66.56
279.461	33.79
279.676	41.98
279.892	-37.89
280.107	-52.22
280.322	-48.13
280.538	-21.5
280.753	-74.75
280.969	-1.02
281.184	-21.5
281.399	50.18
281.615	21.5
281.83	33.79
282.045	-23.55
282.26	-48.13
282.476	37.89
282.691	15.36
282.906	5.12
283.122	-27.65
283.337	9.22
283.552	70.65
283.767	72.7
283.983	7.17
284.198	44.03
284.413	31.74
284.628	-17.41
284.843	27.65
285.058	-3.07
285.274	87.04
285.489	-13.31
285.704	70.65
285.919	-27.65
286.134	-3.07
286.349	9.22
286.564	80.89
286.779	64.51
286.995	11.26
287.21	13.31
287.425	62.46
287.64	-39.94
287.855	21.5
288.07	1.02
288.285	39.94
288.5	-50.18
288.715	80.89
288.93	23.55
289.145	35.84
289.36	5.12
289.575	-13.31
289.79	-35.84
290.004	-1.02
290.219	23.55
290.434	-25.6
290.649	17.41
290.864	44.03
291.079	31.74
291.294	21.5
291.509	64.51
291.724	21.5
291.938	56.32
292.153	27.65
292.368	-23.55
292.583	-23.55
292.798	-23.55
293.012	37.89
293.227	-1.02
293.442	-31.74
293.657	74.75
293.871	33.79
294.086	50.18
294.301	78.85
294.516	23.55
294.73	60.42
294.945	-37.89
295.16	-21.5
295.374	56.32
295.589	80.89
295.804	-35.84
296.018	13.31
296.233	21.5
296.447	21.5
296.662	15.36
296.877	5.12
297.091	9.22
297.306	21.5
297.52	-23.55
297.735	29.7
297.949	31.74
298.164	-21.5
298.378	5.12
298.593	-84.99
298.807	-29.7
299.022	7.17
299.236	23.55
299.451	52.22
299.665	21.5
299.88	41.98
300.094	7.17
300.309	46.08
300.523	37.89
300.737	-89.09
300.952	-39.94
301.166	23.55
301.381	-44.03
301.595	-19.46
301.809	29.7
302.024	66.56
302.238	-1.02
302.452	-3.07
302.667	21.5
302.881	82.94
303.095	31.74
303.309	39.94
303.524	9.22
303.738	13.31
303.952	-3.07
304.166	48.13
304.381	33.79
304.595	72.7
304.809	13.31
305.023	-33.79
305.237	-13.31
305.452	72.7
305.666	-11.26
305.88	29.7
306.094	17.41
306.308	9.22
306.522	41.98
306.736	-15.36
306.95	62.46
307.164	17.41
307.379	23.55
307.593	62.46
307.807	29.7
308.021	78.85
308.235	62.46
308.449	-31.74
308.663	72.7
308.877	41.98
309.091	-25.6
309.305	48.13
309.519	-44.03
309.733	31.74
309.947	-33.79
310.161	82.94
310.374	80.89
310.588	144.38
310.802	5.12
311.016	5.12
311.23	50.18
311.444	-21.5
311.658	21.5
311.872	74.75
312.085	103.42
312.299	46.08
312.513	52.22
312.727	13.31
312.941	-52.22
313.154	58.37
313.368	29.7
313.582	25.6
313.796	23.55
314.009	7.17
314.223	-3.07
314.437	-46.08
314.651	46.08
314.864	-19.46
315.078	13.31
315.292	70.65
315.505	33.79
315.719	-41.98
315.933	-11.26
316.146	-13.31
316.36	44.03
316.573	15.36
316.787	-19.46
317.001	13.31
317.214	-76.8
317.428	46.08
317.641	27.65
317.855	-35.84
318.068	5.12
318.282	25.6
318.495	31.74
318.709	37.89
318.922	9.22
319.136	27.65
319.349	25.6
319.563	50.18
319.776	7.17
319.99	-29.7
320.203	5.12
320.417	-27.65
320.63	-1.02
320.843	87.04
321.057	56.32
321.27	62.46
321.483	-11.26
321.697	52.22
321.91	21.5
322.124	13.31
322.337	50.18
322.55	-19.46
322.763	-35.84
322.977	41.98
323.19	17.41
323.403	31.74
323.617	41.98
323.83	37.89
324.043	-25.6
324.256	-62.46
324.469	-3.07
324.683	111.61
324.896	39.94
325.109	-35.84
325.322	-3.07
325.535	15.36
325.748	48.13
325.962	-11.26
326.175	15.36
326.388	27.65
326.601	-19.46
326.814	-23.55
327.027	11.26
327.24	119.81
327.453	-19.46
327.666	58.37
327.879	103.42
328.092	23.55
328.305	-15.36
328.518	41.98
328.731	-13.31
328.944	27.65
329.157	44.03
329.37	15.36
329.583	33.79
329.796	-9.22
330.009	17.41
330.222	5.12
330.435	-11.26
330.648	76.8
330.861	84.99
331.073	54.27
331.286	13.31
331.499	-3.07
331.712	1.02
331.925	-11.26
332.138	48.13
332.35	46.08
332.563	54.27
332.776	5.12
332.989	50.18
333.202	21.5
333.414	7.17
333.627	91.13
333.84	5.12
334.053	-19.46
334.265	15.36
334.478	29.7
334.691	3.07
334.903	-1.02
335.116	-17.41
335.329	-5.12
335.541	103.42
335.754	-50.18
335.966	-25.6
336.179	72.7
336.392	37.89
336.604	78.85
336.817	62.46
337.029	31.74
337.242	-60.42
337.454	21.5
337.667	27.65
337.88	54.27
338.092	31.74
338.305	39.94
338.517	-11.26
338.729	64.51
338.942	-17.41
339.154	54.27
339.367	17.41
339.579	29.7
339.792	-11.26
340.004	1.02
340.217	58.37
340.429	-3.07
340.641	-3.07
340.854	-33.79
341.066	23.55
341.278	56.32
341.491	56.32
341.703	39.94
341.915	-25.6
342.128	21.5
342.34	39.94
342.552	25.6
342.764	37.89
342.977	-7.17
343.189	44.03
343.401	39.94
343.613	-3.07
343.826	7.17
344.038	-84.99
344.25	-9.22
344.462	9.22
344.674	21.5
344.886	-44.03
345.099	25.6
345.311	9.22
345.523	-64.51
345.735	-23.55
345.947	17.41
346.159	72.7
346.371	21.5
346.583	29.7
346.795	115.71
347.007	-11.26
347.219	62.46
347.431	-17.41
347.643	95.23
347.855	-93.18
348.067	132.09
348.279	-74.75
348.491	58.37
348.703	-3.07
348.915	87.04
349.127	-25.6
349.339	9.22
349.551	37.89
349.763	78.85
349.975	29.7
350.187	80.89
350.399	15.36
350.61	9.22
350.822	1.02
351.034	46.08
351.246	-19.46
351.458	-13.31
351.669	27.65
351.881	89.09
352.093	50.18
352.305	74.75
352.517	-27.65
352.728	9.22
352.94	-27.65
353.152	5.12
353.363	-17.41
353.575	21.5
353.787	1.02
353.999	48.13
354.21	-19.46
354.422	-15.36
354.633	-5.12
354.845	-23.55
355.057	33.79
355.268	21.5
355.48	31.74
355.692	-3.07
355.903	-48.13
356.115	-1.02
356.326	-54.27
356.538	15.36
356.749	33.79
356.961	82.94
357.172	97.28
357.384	13.31
357.595	111.61
357.807	46.08
358.018	-44.03
358.23	54.27
358.441	91.13
358.653	1.02
358.864	-72.7
359.075	-35.84
359.287	97.28
359.498	7.17
359.709	9.22
359.921	-11.26
360.132	9.22
360.344	31.74
360.555	5.12
360.766	70.65
360.977	41.98
361.189	5.12
361.4	9.22
361.611	-33.79
361.823	-11.26
362.034	101.37
362.245	17.41
362.456	46.08
362.667	15.36
362.879	15.36
363.09	-7.17
363.301	23.55
363.512	29.7
363.723	29.7
363.935	-39.94
364.146	-7.17
364.357	41.98
364.568	54.27
364.779	-52.22
364.99	-11.26
365.201	9.22
365.412	64.51
365.623	13.31
365.834	17.41
366.045	13.31
366.256	41.98
366.467	-23.55
366.678	-7.17
366.889	-35.84
367.1	9.22
367.311	54.27
367.522	46.08
367.733	13.31
367.944	31.74
368.155	-7.17
368.366	113.66
368.577	-25.6
368.788	35.84
368.999	9.22
369.209	-33.79
369.42	62.46
369.631	64.51
369.842	31.74
370.053	1.02
370.264	29.7
370.474	23.55
370.685	58.37
370.896	-29.7
371.107	25.6
371.317	1.02
371.528	46.08
371.739	46.08
371.95	13.31
372.16	64.51
372.371	-48.13
372.582	-39.94
372.792	27.65
373.003	5.12
373.214	9.22
373.424	76.8
373.635	21.5
373.846	37.89
374.056	17.41
374.267	93.18
374.477	66.56
374.688	-27.65
374.898	-3.07
375.109	31.74
375.319	37.89
375.53	99.33
375.74	1.02
375.951	82.94
376.161	64.51
376.372	21.5
376.582	21.5
376.793	70.65
377.003	-9.22
377.214	23.55
377.424	105.47
377.635	136.19
377.845	5.12
378.055	105.47
378.266	5.12
378.476	11.26
378.686	-3.07
378.897	113.66
379.107	23.55
379.317	60.42
379.528	37.89
379.738	80.89
379.948	-35.84
380.158	82.94
380.369	95.23
380.579	46.08
380.789	46.08
380.999	27.65
381.21	31.74
381.42	29.7
381.63	54.27
381.84	33.79
382.05	-9.22
382.261	37.89
382.471	66.56
382.681	1.02
382.891	-7.17
383.101	37.89
383.311	-1.02
383.521	-5.12
383.731	84.99
383.941	46.08
384.151	1.02
384.361	13.31
384.571	-19.46
384.781	46.08
384.991	91.13
385.201	91.13
385.411	21.5
385.621	80.89
385.831	70.65
386.041	13.31
386.251	5.12
386.461	-1.02
386.671	62.46
386.881	62.46
387.091	5.12
387.301	146.43
387.511	58.37
387.72	52.22
387.93	35.84
388.14	21.5
388.35	-3.07
388.56	48.13
388.769	23.55
388.979	105.47
389.189	19.46
389.399	58.37
389.609	121.85
389.818	103.42
390.028	48.13
390.238	70.65
390.447	-7.17
390.657	41.98
390.867	5.12
391.076	-3.07
391.286	89.09
391.496	-1.02
391.705	-19.46
391.915	50.18
392.125	-19.46
392.334	37.89
392.544	89.09
392.753	-3.07
392.963	95.23
393.172	41.98
393.382	13.31
393.591	76.8
393.801	13.31
394.01	128
394.22	115.71
394.429	103.42
394.639	-39.94
394.848	138.24
395.058	78.85
395.267	58.37
395.477	37.89
395.686	64.51
395.895	60.42
396.105	39.94
396.314	82.94
396.524	128
396.733	60.42
396.942	78.85
397.152	80.89
397.361	140.29
397.57	62.46
397.78	95.23
397.989	50.18
398.198	23.55
398.407	107.52
398.617	35.84
398.826	70.65
399.035	99.33
399.244	1.02
399.453	128
399.663	41.98
399.872	3.07
400.081	80.89
400.29	58.37
400.499	29.7
400.708	95.23
400.917	41.98
401.127	23.55
401.336	29.7
401.545	185.34
401.754	91.13
401.963	160.77
402.172	97.28
402.381	-1.02
402.59	82.94
402.799	54.27
403.008	89.09
403.217	17.41
403.426	82.94
403.635	41.98
403.844	97.28
404.053	15.36
404.262	175.1
404.471	121.85
404.68	105.47
404.888	109.57
405.097	97.28
405.306	136.19
405.515	56.32
405.724	78.85
405.933	146.43
406.142	144.38
406.35	146.43
406.559	87.04
406.768	220.16
406.977	144.38
407.185	154.62
407.394	246.78
407.603	160.77
407.812	195.58
408.02	203.77
408.229	234.49
408.438	95.23
408.646	242.68
408.855	197.63
409.064	164.86
409.272	105.47
409.481	285.69
409.69	218.11
409.898	179.2
410.107	185.34
410.315	263.16
410.524	234.49
410.733	275.45
410.941	226.3
411.15	261.12
411.358	259.07
411.567	242.68
411.775	336.89
411.984	252.92
412.192	338.94
412.401	357.37
412.609	402.43
412.818	367.61
413.026	295.93
413.234	375.8
413.443	390.14
413.651	367.61
413.86	392.19
414.068	496.63
414.276	537.59
414.485	498.68
414.693	457.72
414.901	539.64
415.11	513.02
415.318	510.97
415.526	629.75
415.734	693.24
415.943	605.17
416.151	711.67
416.359	654.33
416.567	764.92
416.776	816.12
416.984	803.83
417.192	832.5
417.4	840.69
417.608	781.3
417.817	859.12
418.025	828.4
418.233	953.33
418.441	867.31
418.649	1053.68
418.857	1039.34
419.065	1014.77
419.273	1035.25
419.481	1135.6
419.689	1133.55
419.897	1303.53
420.105	1178.61
420.313	1303.53
420.521	1367.02
420.729	1332.2
420.937	1326.06
421.145	1420.27
421.353	1571.82
421.561	1588.2
421.769	1596.39
421.977	1770.47
422.185	1606.63
422.393	1778.66
422.601	1842.15
422.809	1743.85
423.017	1930.21
423.224	2012.13
423.432	2241.5
423.64	2044.9
423.848	2182.11
424.056	2145.25
424.263	2259.93
424.471	2192.35
424.679	2448.35
424.887	2552.79
425.094	2571.22
425.302	2571.22
425.51	2601.94
425.718	2800.6
425.925	2702.29
426.133	2827.22
426.341	3167.18
426.548	3183.57
426.756	3374.03
426.964	3298.25
427.171	3443.66
427.379	3535.82
427.586	3605.45
427.794	3707.85
428.001	3824.58
428.209	3871.68
428.417	4068.29
428.624	4203.46
428.832	4248.51
429.039	4191.17
429.247	4117.44
429.454	4567.99
429.662	4953.01
429.869	4651.96
430.076	4840.37
430.284	4764.6
430.491	4985.78
430.699	5338.03
430.906	5245.87
431.114	5223.34
431.321	5518.25
431.528	5469.1
431.736	6003.62
431.943	6343.58
432.15	5966.76
432.358	6060.96
432.565	6470.56
432.772	6448.03
432.979	6847.38
433.187	6927.25
433.394	6972.31
433.601	7361.42
433.808	7281.55
434.016	7406.48
434.223	7685
434.43	8160.13
434.637	7885.7
434.844	8631.16
435.052	8489.85
435.259	8524.67
435.466	8749.95
435.673	8543.1
435.88	9278.32
436.087	9616.24
436.294	9573.23
436.501	9464.69
436.708	9571.18
436.915	9997.16
437.122	10355.55
437.329	10212.2
437.537	10656.61
437.743	10814.3
437.95	10535.78
438.157	11375.44
438.364	11737.93
438.571	11811.66
438.778	11666.25
438.985	12870.46
439.192	12059.46
439.399	12630.85
439.606	12440.39
439.813	13034.3
440.02	13996.84
440.227	13630.26
440.433	13607.73
440.64	13966.12
440.847	13859.63
441.054	14162.73
441.261	15061.79
441.467	14826.27
441.674	15364.89
441.881	15670.03
442.088	15901.45
442.294	15577.87
442.501	15928.08
442.708	16413.45
442.914	16712.45
443.121	17777.39
443.328	17296.12
443.534	18348.78
443.741	17908.46
443.948	17804.02
444.154	18957.02
444.361	18612.96
444.568	18975.45
444.774	19047.13
444.981	19339.99
445.187	19616.47
445.394	20466.38
445.6	20222.67
445.807	22426.28
446.013	21187.26
446.22	21635.77
446.426	22262.44
446.633	22497.96
446.839	23175.84
447.046	22280.88
447.252	23804.56
447.459	23767.7
447.665	23601.82
447.871	24418.96
448.078	25412.22
448.284	24396.43
448.491	25016.96
448.697	26081.91
448.903	26534.51
449.11	26784.36
449.316	25948.79
449.522	26894.95
449.728	27404.89
449.935	27478.62
450.141	27445.85
450.347	28373.58
450.553	27277.92
450.76	27988.56
450.966	28658.25
451.172	28207.7
451.378	29045.32
451.584	28430.93
451.791	29272.64
451.997	29172.29
452.203	29708.86
452.409	29061.7
452.615	29653.56
452.821	28293.71
453.027	28314.19
453.233	29571.64
453.44	28523.08
453.646	28881.48
453.852	29026.89
454.058	29676.09
454.264	28605
454.47	29262.4
454.676	28576.33
454.882	29366.85
455.088	26800.74
455.294	27372.13
455.5	27656.79
455.705	28336.72
455.911	26860.13
456.117	26438.25
456.323	25916.02
456.529	24230.54
456.735	26131.06
456.941	25096.83
457.147	25016.96
457.352	24146.58
457.558	23835.28
457.764	23786.13
457.97	23579.29
458.176	23102.11
458.381	22872.74
458.587	21897.91
458.793	21686.97
458.999	20515.53
459.204	22393.51
459.41	21676.73
459.616	20081.36
459.821	20300.49
460.027	20230.86
460.233	19548.89
460.438	18920.16
460.644	19194.59
460.85	18096.88
461.055	17476.34
461.261	17642.23
461.466	16466.69
461.672	16149.26
461.878	17156.86
462.083	15819.53
462.289	15620.88
462.494	15452.95
462.7	14568.23
462.905	14347.05
463.111	14940.96
463.316	15020.83
463.522	14570.27
463.727	14750.49
463.932	14543.65
464.138	14523.17
464.343	14537.51
464.549	13990.7
464.754	14447.4
464.959	14412.58
465.165	14185.26
465.37	13736.75
465.575	13335.35
465.781	13857.58
465.986	13849.39
466.191	13329.2
466.397	12923.71
466.602	12350.28
466.807	13019.96
467.012	13054.78
467.218	12919.61
467.423	12786.49
467.628	12718.91
