Data from USB4F104151__200__14-20-31-938.txt Node

Date: Thu Mar 13 14:20:31 EDT 2025
User: louis
Spectrometer: USB4F10415
Trigger mode: 4
Integration Time (sec): 2.000000E-2
Scans to average: 1
Electric dark correction enabled: true
Nonlinearity correction enabled: false
Boxcar width: 0
XAxis mode: Wavelengths
Number of Pixels in Spectrum: 3648
>>>>>Begin Spectral Data<<<<<
178.204	-82.09
178.424	-82.09
178.644	-82.09
178.864	-51.37
179.084	-139.43
179.304	-28.84
179.524	-55.47
179.744	-14.51
179.964	48.98
180.184	18.26
180.404	-49.32
180.624	14.17
180.844	48.98
181.064	-20.65
181.283	-2.22
181.503	18.26
181.723	22.36
181.943	-57.51
182.163	186.19
182.383	8.02
182.602	57.17
182.822	67.41
183.042	36.69
183.262	-24.75
183.482	-34.99
183.701	-22.7
183.921	22.36
184.141	-10.41
184.361	63.32
184.58	14.17
184.8	16.21
185.02	46.93
185.239	106.32
185.459	38.74
185.679	75.6
185.898	8.02
186.118	1.88
186.338	-10.41
186.557	104.28
186.777	81.75
186.997	-2.22
187.216	16.21
187.436	122.71
187.655	-26.79
187.875	106.32
188.095	61.27
188.314	63.32
188.534	57.17
188.753	8.02
188.973	-14.51
189.192	24.4
189.412	51.03
189.631	22.36
189.851	46.93
190.07	110.42
190.29	20.31
190.509	30.55
190.729	-47.27
190.948	38.74
191.168	118.61
191.387	20.31
191.607	63.32
191.826	30.55
192.045	-22.7
192.265	-51.37
192.484	24.4
192.704	8.02
192.923	14.17
193.142	57.17
193.362	5.97
193.581	75.6
193.8	14.17
194.02	104.28
194.239	10.07
194.458	83.8
194.678	8.02
194.897	38.74
195.116	51.03
195.335	106.32
195.555	143.19
195.774	30.55
195.993	55.12
196.212	108.37
196.432	18.26
196.651	-10.41
196.87	-32.94
197.089	87.89
197.308	73.56
197.528	5.97
197.747	18.26
197.966	14.17
198.185	65.36
198.404	42.84
198.623	22.36
198.842	73.56
199.062	51.03
199.281	106.32
199.5	124.76
199.719	106.32
199.938	42.84
200.157	89.94
200.376	55.12
200.595	10.07
200.814	79.7
201.033	-18.6
201.252	46.93
201.471	22.36
201.69	108.37
201.909	-32.94
202.128	98.13
202.347	12.12
202.566	14.17
202.785	-30.89
203.004	-14.51
203.223	96.08
203.442	73.56
203.661	8.02
203.879	-20.65
204.098	79.7
204.317	-2.22
204.536	5.97
204.755	110.42
204.974	79.7
205.193	51.03
205.411	75.6
205.63	67.41
205.849	5.97
206.068	24.4
206.287	-18.6
206.505	106.32
206.724	18.26
206.943	65.36
207.162	-6.31
207.381	46.93
207.599	42.84
207.818	83.8
208.037	46.93
208.255	-10.41
208.474	98.13
208.693	22.36
208.911	26.45
209.13	-41.13
209.349	48.98
209.567	14.17
209.786	36.69
210.005	12.12
210.223	34.64
210.442	51.03
210.661	61.27
210.879	63.32
211.098	5.97
211.316	16.21
211.535	61.27
211.753	10.07
211.972	-10.41
212.191	20.31
212.409	98.13
212.628	79.7
212.846	8.02
213.065	67.41
213.283	87.89
213.502	8.02
213.72	-49.32
213.938	22.36
214.157	40.79
214.375	63.32
214.594	-34.99
214.812	24.4
215.031	-18.6
215.249	-2.22
215.467	22.36
215.686	51.03
215.904	71.51
216.122	34.64
216.341	40.79
216.559	65.36
216.778	46.93
216.996	46.93
217.214	-18.6
217.432	1.88
217.651	40.79
217.869	32.6
218.087	-18.6
218.306	38.74
218.524	57.17
218.742	-20.65
218.96	59.22
219.179	-0.17
219.397	34.64
219.615	87.89
219.833	55.12
220.051	-0.17
220.27	-12.46
220.488	79.7
220.706	22.36
220.924	40.79
221.142	-22.7
221.36	26.45
221.578	98.13
221.796	-51.37
222.015	48.98
222.233	-14.51
222.451	59.22
222.669	71.51
222.887	67.41
223.105	-12.46
223.323	65.36
223.541	32.6
223.759	63.32
223.977	12.12
224.195	75.6
224.413	83.8
224.631	44.88
224.849	24.4
225.067	132.95
225.285	26.45
225.503	34.64
225.721	-18.6
225.939	40.79
226.157	-2.22
226.375	171.86
226.592	10.07
226.81	-2.22
227.028	-8.36
227.246	114.52
227.464	44.88
227.682	40.79
227.9	8.02
228.117	18.26
228.335	122.71
228.553	14.17
228.771	55.12
228.989	46.93
229.206	8.02
229.424	34.64
229.642	46.93
229.86	34.64
230.077	28.5
230.295	55.12
230.513	34.64
230.731	85.84
230.948	75.6
231.166	28.5
231.384	38.74
231.601	112.47
231.819	79.7
232.037	71.51
232.254	26.45
232.472	14.17
232.689	-14.51
232.907	-16.55
233.125	-0.17
233.342	24.4
233.56	-10.41
233.777	71.51
233.995	5.97
234.213	116.56
234.43	-2.22
234.648	59.22
234.865	14.17
235.083	143.19
235.3	46.93
235.518	51.03
235.735	40.79
235.953	124.76
236.17	61.27
236.388	38.74
236.605	79.7
236.822	38.74
237.04	-8.36
237.257	63.32
237.475	5.97
237.692	42.84
237.909	55.12
238.127	-10.41
238.344	30.55
238.562	14.17
238.779	-2.22
238.996	-49.32
239.214	-12.46
239.431	89.94
239.648	-2.22
239.865	75.6
240.083	24.4
240.3	120.66
240.517	-18.6
240.735	38.74
240.952	65.36
241.169	59.22
241.386	51.03
241.603	26.45
241.821	-18.6
242.038	61.27
242.255	57.17
242.472	-14.51
242.689	51.03
242.907	22.36
243.124	14.17
243.341	-47.27
243.558	38.74
243.775	-65.71
243.992	-18.6
244.209	83.8
244.426	14.17
244.643	30.55
244.86	8.02
245.078	69.46
245.295	5.97
245.512	-8.36
245.729	-6.31
245.946	8.02
246.163	67.41
246.38	26.45
246.597	48.98
246.814	-49.32
247.031	85.84
247.248	79.7
247.464	22.36
247.681	44.88
247.898	5.97
248.115	20.31
248.332	-30.89
248.549	26.45
248.766	71.51
248.983	87.89
249.2	-16.55
249.417	-32.94
249.633	30.55
249.85	61.27
250.067	46.93
250.284	30.55
250.501	98.13
250.717	-18.6
250.934	-26.79
251.151	79.7
251.368	-4.27
251.585	91.99
251.801	87.89
252.018	34.64
252.235	87.89
252.451	-24.75
252.668	48.98
252.885	122.71
253.102	46.93
253.318	51.03
253.535	34.64
253.752	38.74
253.968	16.21
254.185	55.12
254.401	55.12
254.618	14.17
254.835	34.64
255.051	40.79
255.268	14.17
255.484	38.74
255.701	28.5
255.917	40.79
256.134	46.93
256.351	12.12
256.567	77.65
256.784	77.65
257	-8.36
257.217	91.99
257.433	46.93
257.65	-8.36
257.866	77.65
258.082	26.45
258.299	-14.51
258.515	10.07
258.732	71.51
258.948	46.93
259.165	22.36
259.381	67.41
259.597	65.36
259.814	63.32
260.03	14.17
260.246	14.17
260.463	63.32
260.679	24.4
260.895	32.6
261.112	91.99
261.328	38.74
261.544	53.08
261.761	18.26
261.977	16.21
262.193	8.02
262.409	24.4
262.626	55.12
262.842	-2.22
263.058	-57.51
263.274	89.94
263.49	59.22
263.707	71.51
263.923	-10.41
264.139	-14.51
264.355	26.45
264.571	38.74
264.787	24.4
265.004	-28.84
265.22	42.84
265.436	-26.79
265.652	75.6
265.868	91.99
266.084	26.45
266.3	51.03
266.516	14.17
266.732	71.51
266.948	3.93
267.164	108.37
267.38	18.26
267.596	42.84
267.812	57.17
268.028	73.56
268.244	-37.03
268.46	28.5
268.676	63.32
268.892	46.93
269.108	38.74
269.324	10.07
269.54	44.88
269.756	10.07
269.972	-59.56
270.188	-16.55
270.403	-20.65
270.619	85.84
270.835	-30.89
271.051	5.97
271.267	-26.79
271.483	14.17
271.698	36.69
271.914	46.93
272.13	36.69
272.346	51.03
272.562	79.7
272.777	14.17
272.993	14.17
273.209	63.32
273.425	-12.46
273.64	32.6
273.856	42.84
274.072	112.47
274.287	-18.6
274.503	132.95
274.719	-47.27
274.934	-61.61
275.15	-12.46
275.366	71.51
275.581	32.6
275.797	48.98
276.012	83.8
276.228	30.55
276.444	24.4
276.659	40.79
276.875	20.31
277.09	-6.31
277.306	96.08
277.521	79.7
277.737	8.02
277.952	100.18
278.168	40.79
278.383	34.64
278.599	-18.6
278.814	16.21
279.03	-18.6
279.245	59.22
279.461	-2.22
279.676	-2.22
279.892	16.21
280.107	-2.22
280.322	-0.17
280.538	38.74
280.753	-55.47
280.969	48.98
281.184	55.12
281.399	96.08
281.615	67.41
281.83	12.12
282.045	5.97
282.26	55.12
282.476	8.02
282.691	55.12
282.906	89.94
283.122	18.26
283.337	-26.79
283.552	51.03
283.767	26.45
283.983	79.7
284.198	10.07
284.413	83.8
284.628	-30.89
284.843	-34.99
285.058	79.7
285.274	22.36
285.489	16.21
285.704	-2.22
285.919	24.4
286.134	-2.22
286.349	14.17
286.564	20.31
286.779	128.85
286.995	22.36
287.21	51.03
287.425	-8.36
287.64	16.21
287.855	32.6
288.07	-0.17
288.285	42.84
288.5	71.51
288.715	38.74
288.93	57.17
289.145	5.97
289.36	32.6
289.575	5.97
289.79	71.51
290.004	-10.41
290.219	32.6
290.434	63.32
290.649	57.17
290.864	46.93
291.079	10.07
291.294	73.56
291.509	38.74
291.724	-8.36
291.938	51.03
292.153	14.17
292.368	-18.6
292.583	34.64
292.798	55.12
293.012	59.22
293.227	48.98
293.442	51.03
293.657	143.19
293.871	59.22
294.086	-26.79
294.301	44.88
294.516	79.7
294.73	14.17
294.945	40.79
295.16	16.21
295.374	98.13
295.589	83.8
295.804	75.6
296.018	48.98
296.233	112.47
296.447	46.93
296.662	-18.6
296.877	87.89
297.091	83.8
297.306	-16.55
297.52	59.22
297.735	89.94
297.949	85.84
298.164	48.98
298.378	32.6
298.593	32.6
298.807	-30.89
299.022	89.94
299.236	73.56
299.451	-18.6
299.665	38.74
299.88	30.55
300.094	-57.51
300.309	22.36
300.523	122.71
300.737	46.93
300.952	40.79
301.166	12.12
301.381	20.31
301.595	18.26
301.809	-2.22
302.024	22.36
302.238	38.74
302.452	55.12
302.667	-16.55
302.881	48.98
303.095	79.7
303.309	-34.99
303.524	69.46
303.738	26.45
303.952	-37.03
304.166	75.6
304.381	-10.41
304.595	38.74
304.809	53.08
305.023	8.02
305.237	10.07
305.452	8.02
305.666	44.88
305.88	18.26
306.094	87.89
306.308	91.99
306.522	100.18
306.736	65.36
306.95	67.41
307.164	83.8
307.379	30.55
307.593	91.99
307.807	30.55
308.021	83.8
308.235	18.26
308.449	-30.89
308.663	38.74
308.877	104.28
309.091	1.88
309.305	53.08
309.519	8.02
309.733	67.41
309.947	44.88
310.161	-32.94
310.374	-30.89
310.588	55.12
310.802	26.45
311.016	-0.17
311.23	71.51
311.444	34.64
311.658	-47.27
311.872	120.66
312.085	32.6
312.299	55.12
312.513	83.8
312.727	98.13
312.941	46.93
313.154	94.04
313.368	30.55
313.582	24.4
313.796	34.64
314.009	-22.7
314.223	57.17
314.437	30.55
314.651	38.74
314.864	20.31
315.078	42.84
315.292	32.6
315.505	14.17
315.719	14.17
315.933	-4.27
316.146	59.22
316.36	32.6
316.573	40.79
316.787	-0.17
317.001	108.37
317.214	-0.17
317.428	120.66
317.641	-18.6
317.855	26.45
318.068	85.84
318.282	63.32
318.495	67.41
318.709	87.89
318.922	48.98
319.136	71.51
319.349	79.7
319.563	8.02
319.776	-6.31
319.99	16.21
320.203	59.22
320.417	14.17
320.63	38.74
320.843	128.85
321.057	63.32
321.27	14.17
321.483	83.8
321.697	128.85
321.91	38.74
322.124	40.79
322.337	46.93
322.55	57.17
322.763	-6.31
322.977	38.74
323.19	79.7
323.403	55.12
323.617	-20.65
323.83	85.84
324.043	36.69
324.256	79.7
324.469	-2.22
324.683	-2.22
324.896	-22.7
325.109	14.17
325.322	51.03
325.535	102.23
325.748	128.85
325.962	14.17
326.175	5.97
326.388	81.75
326.601	120.66
326.814	-26.79
327.027	-22.7
327.24	87.89
327.453	-14.51
327.666	65.36
327.879	22.36
328.092	46.93
328.305	91.99
328.518	38.74
328.731	5.97
328.944	59.22
329.157	71.51
329.37	22.36
329.583	83.8
329.796	59.22
330.009	1.88
330.222	53.08
330.435	96.08
330.648	63.32
330.861	40.79
331.073	55.12
331.286	114.52
331.499	106.32
331.712	51.03
331.925	30.55
332.138	10.07
332.35	63.32
332.563	59.22
332.776	91.99
332.989	5.97
333.202	57.17
333.414	14.17
333.627	67.41
333.84	104.28
334.053	63.32
334.265	63.32
334.478	130.9
334.691	30.55
334.903	12.12
335.116	-2.22
335.329	79.7
335.541	71.51
335.754	128.85
335.966	40.79
336.179	46.93
336.392	38.74
336.604	26.45
336.817	67.41
337.029	-10.41
337.242	73.56
337.454	-18.6
337.667	-16.55
337.88	5.97
338.092	-32.94
338.305	48.98
338.517	53.08
338.729	40.79
338.942	137.04
339.154	81.75
339.367	14.17
339.579	83.8
339.792	-8.36
340.004	106.32
340.217	67.41
340.429	65.36
340.641	-34.99
340.854	22.36
341.066	63.32
341.278	53.08
341.491	100.18
341.703	32.6
341.915	-65.71
342.128	100.18
342.34	1.88
342.552	-92.33
342.764	5.97
342.977	20.31
343.189	71.51
343.401	46.93
343.613	8.02
343.826	71.51
344.038	-20.65
344.25	32.6
344.462	36.69
344.674	83.8
344.886	5.97
345.099	120.66
345.311	65.36
345.523	69.46
345.735	-16.55
345.947	130.9
346.159	69.46
346.371	-22.7
346.583	32.6
346.795	112.47
347.007	-67.75
347.219	59.22
347.431	87.89
347.643	89.94
347.855	26.45
348.067	63.32
348.279	-14.51
348.491	61.27
348.703	-10.41
348.915	71.51
349.127	-18.6
349.339	53.08
349.551	1.88
349.763	32.6
349.975	75.6
350.187	69.46
350.399	77.65
350.61	36.69
350.822	30.55
351.034	-10.41
351.246	-2.22
351.458	65.36
351.669	55.12
351.881	51.03
352.093	63.32
352.305	69.46
352.517	12.12
352.728	71.51
352.94	46.93
353.152	63.32
353.363	40.79
353.575	63.32
353.787	81.75
353.999	38.74
354.21	128.85
354.422	96.08
354.633	128.85
354.845	24.4
355.057	34.64
355.268	26.45
355.48	145.24
355.692	-10.41
355.903	26.45
356.115	40.79
356.326	14.17
356.538	106.32
356.749	91.99
356.961	112.47
357.172	-0.17
357.384	55.12
357.595	67.41
357.807	30.55
358.018	24.4
358.23	46.93
358.441	85.84
358.653	102.23
358.864	-10.41
359.075	48.98
359.287	-10.41
359.498	98.13
359.709	32.6
359.921	46.93
360.132	-10.41
360.344	79.7
360.555	-10.41
360.766	65.36
360.977	28.5
361.189	67.41
361.4	44.88
361.611	51.03
361.823	118.61
362.034	110.42
362.245	71.51
362.456	65.36
362.667	46.93
362.879	63.32
363.09	48.98
363.301	63.32
363.512	40.79
363.723	71.51
363.935	46.93
364.146	63.32
364.357	75.6
364.568	59.22
364.779	71.51
364.99	104.28
365.201	46.93
365.412	55.12
365.623	10.07
365.834	96.08
366.045	100.18
366.256	-2.22
366.467	48.98
366.678	46.93
366.889	30.55
367.1	57.17
367.311	106.32
367.522	-2.22
367.733	81.75
367.944	67.41
368.155	30.55
368.366	87.89
368.577	96.08
368.788	55.12
368.999	63.32
369.209	94.04
369.42	139.09
369.631	108.37
369.842	79.7
370.053	65.36
370.264	77.65
370.474	30.55
370.685	22.36
370.896	63.32
371.107	112.47
371.317	81.75
371.528	30.55
371.739	149.33
371.95	87.89
372.16	14.17
372.371	46.93
372.582	71.51
372.792	-6.31
373.003	40.79
373.214	65.36
373.424	145.24
373.635	42.84
373.846	69.46
374.056	104.28
374.267	118.61
374.477	69.46
374.688	14.17
374.898	67.41
375.109	67.41
375.319	40.79
375.53	73.56
375.74	57.17
375.951	65.36
376.161	44.88
376.372	106.32
376.582	18.26
376.793	110.42
377.003	55.12
377.214	51.03
377.424	57.17
377.635	79.7
377.845	81.75
378.055	89.94
378.266	79.7
378.476	89.94
378.686	104.28
378.897	24.4
379.107	55.12
379.317	46.93
379.528	30.55
379.738	34.64
379.948	-22.7
380.158	32.6
380.369	87.89
380.579	59.22
380.789	65.36
380.999	24.4
381.21	38.74
381.42	169.81
381.63	65.36
381.84	130.9
382.05	89.94
382.261	139.09
382.471	110.42
382.681	100.18
382.891	55.12
383.101	51.03
383.311	10.07
383.521	81.75
383.731	89.94
383.941	42.84
384.151	55.12
384.361	34.64
384.571	83.8
384.781	46.93
384.991	94.04
385.201	42.84
385.411	34.64
385.621	59.22
385.831	-0.17
386.041	51.03
386.251	108.37
386.461	116.56
386.671	96.08
386.881	96.08
387.091	79.7
387.301	96.08
387.511	112.47
387.72	155.47
387.93	36.69
388.14	91.99
388.35	30.55
388.56	100.18
388.769	53.08
388.979	100.18
389.189	22.36
389.399	26.45
389.609	153.43
389.818	112.47
390.028	63.32
390.238	100.18
390.447	26.45
390.657	32.6
390.867	118.61
391.076	110.42
391.286	130.9
391.496	65.36
391.705	57.17
391.915	91.99
392.125	42.84
392.334	96.08
392.544	155.47
392.753	46.93
392.963	30.55
393.172	98.13
393.382	57.17
393.591	81.75
393.801	106.32
394.01	161.62
394.22	73.56
394.429	149.33
394.639	42.84
394.848	106.32
395.058	48.98
395.267	73.56
395.477	104.28
395.686	48.98
395.895	87.89
396.105	167.76
396.314	106.32
396.524	63.32
396.733	153.43
396.942	100.18
397.152	85.84
397.361	143.19
397.57	147.28
397.78	81.75
397.989	132.95
398.198	155.47
398.407	128.85
398.617	81.75
398.826	120.66
399.035	155.47
399.244	114.52
399.453	89.94
399.663	165.71
399.872	178
400.081	120.66
400.29	155.47
400.499	155.47
400.708	161.62
400.917	190.29
401.127	122.71
401.336	42.84
401.545	106.32
401.754	153.43
401.963	153.43
402.172	143.19
402.381	104.28
402.59	143.19
402.799	147.28
403.008	143.19
403.217	165.71
403.426	153.43
403.635	130.9
403.844	184.15
404.053	157.52
404.262	114.52
404.471	247.63
404.68	116.56
404.888	192.34
405.097	161.62
405.306	167.76
405.515	214.87
405.724	143.19
405.933	245.59
406.142	218.96
406.35	210.77
406.559	284.5
406.768	180.05
406.977	300.88
407.185	231.25
407.394	255.83
407.603	251.73
407.812	227.15
408.02	317.26
408.229	323.41
408.438	294.74
408.646	270.16
408.855	366.42
409.064	206.67
409.272	403.28
409.481	341.84
409.69	333.65
409.898	352.08
410.107	384.85
410.315	423.76
410.524	431.95
410.733	501.58
410.941	458.57
411.15	440.14
411.358	505.68
411.567	616.27
411.775	466.77
411.984	505.68
412.192	538.45
412.401	530.25
412.609	595.79
412.818	653.13
413.026	687.95
413.234	587.6
413.443	743.24
413.651	704.33
413.86	704.33
414.068	808.78
414.276	812.87
414.485	769.87
414.693	882.5
414.901	913.22
415.11	821.06
415.318	974.66
415.526	968.52
415.734	1029.96
415.943	993.09
416.151	1179.46
416.359	1103.68
416.567	1105.73
416.776	1179.46
416.984	1300.29
417.192	1337.15
417.4	1222.47
417.608	1148.74
417.817	1351.49
418.025	1505.09
418.233	1613.63
418.441	1457.98
418.649	1636.16
418.857	1718.08
419.065	1754.94
419.273	1697.6
419.481	1804.09
419.689	1871.67
419.897	1924.92
420.105	1908.54
420.313	2111.29
420.521	2135.86
420.729	2033.46
420.937	2230.07
421.145	2307.89
421.353	2426.67
421.561	2508.59
421.769	2639.66
421.977	2819.88
422.185	2610.99
422.393	2791.21
422.601	2885.42
422.809	2989.86
423.017	3088.17
423.224	3209
423.432	3340.07
423.64	3325.73
423.848	3641.12
424.056	3487.52
424.263	3694.36
424.471	3671.84
424.679	3868.44
424.887	3999.51
425.094	4120.34
425.302	4146.97
425.51	4339.48
425.718	4519.7
425.925	4552.46
426.133	4609.81
426.341	4798.22
426.548	5134.09
426.756	5193.48
426.964	5347.08
427.171	5494.53
427.379	5535.49
427.586	5805.82
427.794	5764.86
428.001	6119.16
428.209	6450.93
428.417	6217.46
428.624	6682.35
428.832	6682.35
429.039	6645.49
429.247	6758.13
429.454	7403.24
429.662	7743.2
429.869	7425.76
430.076	7825.12
430.284	7630.56
430.491	8009.44
430.699	8498.9
430.906	8314.58
431.114	8740.56
431.321	8976.08
431.528	9060.04
431.736	9543.36
431.943	10182.33
432.15	9817.79
432.358	9805.5
432.565	10442.42
432.772	10348.22
432.979	10766
433.187	11032.24
433.394	11187.88
433.601	11798.18
433.808	11822.75
434.016	11902.62
434.223	12293.79
434.43	12986
434.637	12830.35
434.844	13555.33
435.052	13825.67
435.259	13651.59
435.466	13751.94
435.673	13796.99
435.88	14927.47
436.087	15509.1
436.294	15337.07
436.501	15005.3
436.708	15339.12
436.915	16131.68
437.122	16590.42
437.329	16506.46
437.537	17157.71
437.743	17208.91
437.95	17124.94
438.157	18236.99
438.364	18601.53
438.571	18257.47
438.778	18814.52
438.985	20416.03
439.192	19904.04
439.399	20287.01
439.606	19854.89
439.813	21065.24
440.02	22275.59
440.227	21982.73
440.433	21896.71
440.64	22388.22
440.847	22138.37
441.054	22664.7
441.261	24233.44
441.467	23786.99
441.674	24516.06
441.881	25394.64
442.088	25097.69
442.294	24913.37
442.501	25849.29
442.708	26004.94
442.914	27166.13
443.121	28140.97
443.328	27682.22
443.534	29324.69
443.741	28405.16
443.948	28018.09
444.154	30313.86
444.361	30190.98
444.568	30082.44
444.774	30502.28
444.981	30436.74
445.187	31520.12
445.394	32699.75
445.6	32501.09
445.807	35427.64
446.013	33867.09
446.22	34483.53
446.426	36082.99
446.633	36142.38
446.839	37250.33
447.046	35929.39
447.252	37834
447.459	37842.2
447.665	37979.41
447.871	39150.85
448.078	40789.22
448.284	38868.23
448.491	39781.62
448.697	41686.23
448.903	42157.27
449.11	42421.45
449.316	41659.61
449.522	42355.92
449.728	43470.01
449.935	43640
450.141	43586.75
450.347	44854.44
450.553	43402.43
450.76	43914.42
450.966	45407.39
451.172	44715.18
451.378	45776.03
451.584	45360.29
451.791	46187.67
451.997	46085.27
452.203	46795.92
452.409	47019.14
452.615	46374.03
452.821	45014.18
453.027	44371.12
453.233	46484.62
453.44	44553.39
453.646	45307.04
453.852	45804.7
454.058	46294.16
454.264	44868.78
454.47	45943.96
454.676	44887.21
454.882	46255.25
455.088	42073.3
455.294	42915.01
455.5	43547.84
455.705	43912.38
455.911	42024.15
456.117	41565.4
456.323	40778.98
456.529	38962.43
456.735	40719.59
456.941	39240.96
457.147	39240.96
457.352	37618.97
457.558	37311.77
457.764	37629.21
457.97	36597.03
458.176	35884.34
458.381	36093.23
458.587	34073.93
458.793	34008.4
458.999	32769.38
459.204	34932.03
459.41	33791.31
459.616	31454.58
459.821	31720.82
460.027	31214.97
460.233	30756.22
460.438	29375.89
460.644	30240.14
460.85	28460.45
461.055	28089.77
461.261	27917.74
461.466	25736.65
461.672	25368.02
461.878	26781.12
462.083	25175.51
462.289	24542.69
462.494	24372.71
462.7	23336.43
462.905	22488.57
463.111	23471.6
463.316	23686.64
463.522	23082.49
463.727	23029.24
463.932	23068.15
464.138	22740.47
464.343	22472.19
464.549	22263.3
464.754	22783.48
464.959	22687.23
465.165	22476.29
465.37	21710.35
465.575	20913.69
465.781	21923.33
465.986	22033.93
466.191	21020.18
466.397	20876.82
466.602	19834.41
466.807	20583.96
