Data from USB4F104151__174__14-19-58-597.txt Node

Date: Thu Mar 13 14:19:58 EDT 2025
User: louis
Spectrometer: USB4F10415
Trigger mode: 4
Integration Time (sec): 2.000000E-2
Scans to average: 1
Electric dark correction enabled: true
Nonlinearity correction enabled: false
Boxcar width: 0
XAxis mode: Wavelengths
Number of Pixels in Spectrum: 3648
>>>>>Begin Spectral Data<<<<<
178.204	-112.98
178.424	-112.98
178.644	-112.98
178.864	-121.17
179.084	-78.16
179.304	42.67
179.524	-4.44
179.744	-6.49
179.964	20.14
180.184	-14.68
180.404	-121.17
180.624	11.95
180.844	-22.87
181.064	1.71
181.283	42.67
181.503	-35.16
181.723	85.67
181.943	-39.25
182.163	102.06
182.383	-51.54
182.602	-22.87
182.822	63.15
183.042	69.29
183.262	30.38
183.482	26.28
183.701	44.71
183.921	11.95
184.141	-14.68
184.361	52.91
184.58	61.1
184.8	-14.68
185.02	38.57
185.239	104.11
185.459	-31.06
185.679	36.52
185.898	50.86
186.118	91.82
186.338	75.43
186.557	50.86
186.777	77.48
186.997	59.05
187.216	-16.73
187.436	26.28
187.655	63.15
187.875	42.67
188.095	18.09
188.314	63.15
188.534	145.06
188.753	54.95
188.973	116.39
189.192	34.47
189.412	18.09
189.631	71.34
189.851	63.15
190.07	79.53
190.29	11.95
190.509	5.8
190.729	83.63
190.948	-12.63
191.168	69.29
191.387	59.05
191.607	26.28
191.826	143.02
192.045	83.63
192.265	40.62
192.484	9.9
192.704	34.47
192.923	-51.54
193.142	75.43
193.362	112.3
193.581	104.11
193.8	22.19
194.02	-29.01
194.239	61.1
194.458	61.1
194.678	38.57
194.897	75.43
195.116	-18.77
195.335	63.15
195.555	52.91
195.774	67.24
195.993	-6.49
196.212	91.82
196.432	69.29
196.651	75.43
196.87	9.9
197.089	126.63
197.308	-53.59
197.528	16.04
197.747	48.81
197.966	75.43
198.185	11.95
198.404	52.91
198.623	91.82
198.842	-45.4
199.062	63.15
199.281	91.82
199.5	9.9
199.719	36.52
199.938	9.9
200.157	-2.39
200.376	48.81
200.595	26.28
200.814	44.71
201.033	-22.87
201.252	48.81
201.471	42.67
201.69	124.58
201.909	59.05
202.128	-6.49
202.347	11.95
202.566	5.8
202.785	42.67
203.004	-14.68
203.223	54.95
203.442	63.15
203.661	59.05
203.879	44.71
204.098	38.57
204.317	79.53
204.536	75.43
204.755	13.99
204.974	26.28
205.193	16.04
205.411	57
205.63	-14.68
205.849	-4.44
206.068	67.24
206.287	28.33
206.505	67.24
206.724	61.1
206.943	5.8
207.162	22.19
207.381	34.47
207.599	69.29
207.818	-31.06
208.037	34.47
208.255	32.43
208.474	-12.63
208.693	104.11
208.911	28.33
209.13	140.97
209.349	9.9
209.567	38.57
209.786	87.72
210.005	7.85
210.223	67.24
210.442	-78.16
210.661	-18.77
210.879	50.86
211.098	11.95
211.316	95.91
211.535	48.81
211.753	7.85
211.972	11.95
212.191	16.04
212.409	9.9
212.628	50.86
212.846	126.63
213.065	34.47
213.283	46.76
213.502	30.38
213.72	42.67
213.938	22.19
214.157	46.76
214.375	20.14
214.594	18.09
214.812	71.34
215.031	57
215.249	-31.06
215.467	42.67
215.686	-45.4
215.904	54.95
216.122	3.75
216.341	67.24
216.559	24.23
216.778	28.33
216.996	46.76
217.214	24.23
217.432	9.9
217.651	42.67
217.869	46.76
218.087	-31.06
218.306	-4.44
218.524	36.52
218.742	50.86
218.96	54.95
219.179	67.24
219.397	145.06
219.615	134.82
219.833	20.14
220.051	124.58
220.27	130.73
220.488	71.34
220.706	-8.53
220.924	9.9
221.142	-31.06
221.36	89.77
221.578	1.71
221.796	26.28
222.015	-10.58
222.233	93.87
222.451	22.19
222.669	44.71
222.887	20.14
223.105	5.8
223.323	13.99
223.541	-6.49
223.759	106.15
223.977	30.38
224.195	34.47
224.413	9.9
224.631	110.25
224.849	87.72
225.067	79.53
225.285	63.15
225.503	61.1
225.721	5.8
225.939	30.38
226.157	63.15
226.375	110.25
226.592	1.71
226.81	28.33
227.028	-0.34
227.246	114.34
227.464	57
227.682	1.71
227.9	30.38
228.117	20.14
228.335	50.86
228.553	18.09
228.771	30.38
228.989	69.29
229.206	26.28
229.424	102.06
229.642	36.52
229.86	30.38
230.077	11.95
230.295	22.19
230.513	-6.49
230.731	22.19
230.948	91.82
231.166	124.58
231.384	-2.39
231.601	30.38
231.819	52.91
232.037	18.09
232.254	-6.49
232.472	-6.49
232.689	3.75
232.907	42.67
233.125	106.15
233.342	38.57
233.56	50.86
233.777	83.63
233.995	13.99
234.213	-14.68
234.43	34.47
234.648	34.47
234.865	18.09
235.083	100.01
235.3	-2.39
235.518	38.57
235.735	83.63
235.953	93.87
236.17	-18.77
236.388	75.43
236.605	106.15
236.822	-4.44
237.04	83.63
237.257	83.63
237.475	40.62
237.692	16.04
237.909	63.15
238.127	65.19
238.344	50.86
238.562	-4.44
238.779	73.39
238.996	24.23
239.214	30.38
239.431	110.25
239.648	28.33
239.865	42.67
240.083	7.85
240.3	-12.63
240.517	38.57
240.735	85.67
240.952	126.63
241.169	52.91
241.386	3.75
241.603	44.71
241.821	18.09
242.038	22.19
242.255	-14.68
242.472	3.75
242.689	22.19
242.907	159.4
243.124	32.43
243.341	7.85
243.558	32.43
243.775	9.9
243.992	5.8
244.209	83.63
244.426	36.52
244.643	52.91
244.86	42.67
245.078	112.3
245.295	26.28
245.512	3.75
245.729	-12.63
245.946	54.95
246.163	-12.63
246.38	59.05
246.597	83.63
246.814	26.28
247.031	34.47
247.248	16.04
247.464	7.85
247.681	36.52
247.898	50.86
248.115	54.95
248.332	18.09
248.549	26.28
248.766	91.82
248.983	48.81
249.2	-6.49
249.417	-10.58
249.633	1.71
249.85	79.53
250.067	-12.63
250.284	85.67
250.501	30.38
250.717	75.43
250.934	-18.77
251.151	-31.06
251.368	38.57
251.585	44.71
251.801	57
252.018	63.15
252.235	-4.44
252.451	5.8
252.668	-10.58
252.885	79.53
253.102	5.8
253.318	18.09
253.535	-47.44
253.752	32.43
253.968	87.72
254.185	24.23
254.401	-2.39
254.618	9.9
254.835	97.96
255.051	110.25
255.268	3.75
255.484	-2.39
255.701	30.38
255.917	-4.44
256.134	59.05
256.351	54.95
256.567	20.14
256.784	13.99
257	-4.44
257.217	42.67
257.433	73.39
257.65	63.15
257.866	151.21
258.082	-29.01
258.299	46.76
258.515	-18.77
258.732	59.05
258.948	28.33
259.165	38.57
259.381	75.43
259.597	-24.92
259.814	28.33
260.03	3.75
260.246	18.09
260.463	57
260.679	87.72
260.895	28.33
261.112	100.01
261.328	91.82
261.544	67.24
261.761	71.34
261.977	-20.82
262.193	42.67
262.409	93.87
262.626	83.63
262.842	102.06
263.058	-104.79
263.274	89.77
263.49	-55.64
263.707	34.47
263.923	52.91
264.139	48.81
264.355	54.95
264.571	61.1
264.787	18.09
265.004	57
265.22	13.99
265.436	61.1
265.652	20.14
265.868	50.86
266.084	3.75
266.3	100.01
266.516	-2.39
266.732	54.95
266.948	48.81
267.164	30.38
267.38	54.95
267.596	61.1
267.812	44.71
268.028	93.87
268.244	3.75
268.46	50.86
268.676	71.34
268.892	30.38
269.108	-51.54
269.324	63.15
269.54	-22.87
269.756	42.67
269.972	-33.11
270.188	-10.58
270.403	9.9
270.619	46.76
270.835	79.53
271.051	59.05
271.267	-26.96
271.483	110.25
271.698	36.52
271.914	102.06
272.13	3.75
272.346	11.95
272.562	65.19
272.777	54.95
272.993	3.75
273.209	-2.39
273.425	1.71
273.64	26.28
273.856	147.11
274.072	11.95
274.287	26.28
274.503	26.28
274.719	50.86
274.934	42.67
275.15	-24.92
275.366	-6.49
275.581	61.1
275.797	42.67
276.012	50.86
276.228	44.71
276.444	1.71
276.659	157.35
276.875	-2.39
277.09	7.85
277.306	13.99
277.521	79.53
277.737	-16.73
277.952	50.86
278.168	16.04
278.383	-2.39
278.599	-31.06
278.814	44.71
279.03	71.34
279.245	52.91
279.461	-8.53
279.676	75.43
279.892	36.52
280.107	28.33
280.322	77.48
280.538	40.62
280.753	85.67
280.969	83.63
281.184	18.09
281.399	28.33
281.615	34.47
281.83	59.05
282.045	-12.63
282.26	16.04
282.476	38.57
282.691	-6.49
282.906	46.76
283.122	57
283.337	-2.39
283.552	83.63
283.767	61.1
283.983	73.39
284.198	79.53
284.413	91.82
284.628	-31.06
284.843	26.28
285.058	85.67
285.274	-16.73
285.489	-31.06
285.704	67.24
285.919	28.33
286.134	87.72
286.349	85.67
286.564	-14.68
286.779	57
286.995	1.71
287.21	-10.58
287.425	44.71
287.64	67.24
287.855	44.71
288.07	36.52
288.285	22.19
288.5	102.06
288.715	44.71
288.93	5.8
289.145	7.85
289.36	118.44
289.575	54.95
289.79	52.91
290.004	34.47
290.219	85.67
290.434	52.91
290.649	1.71
290.864	63.15
291.079	-39.25
291.294	91.82
291.509	-14.68
291.724	-6.49
291.938	52.91
292.153	85.67
292.368	28.33
292.583	5.8
292.798	63.15
293.012	75.43
293.227	3.75
293.442	-10.58
293.657	48.81
293.871	104.11
294.086	30.38
294.301	85.67
294.516	11.95
294.73	26.28
294.945	24.23
295.16	20.14
295.374	73.39
295.589	85.67
295.804	50.86
296.018	67.24
296.233	134.82
296.447	75.43
296.662	63.15
296.877	50.86
297.091	52.91
297.306	-31.06
297.52	-47.44
297.735	67.24
297.949	50.86
298.164	3.75
298.378	13.99
298.593	75.43
298.807	-29.01
299.022	20.14
299.236	52.91
299.451	63.15
299.665	63.15
299.88	36.52
300.094	71.34
300.309	32.43
300.523	-6.49
300.737	30.38
300.952	26.28
301.166	65.19
301.381	40.62
301.595	75.43
301.809	-6.49
302.024	85.67
302.238	9.9
302.452	157.35
302.667	-22.87
302.881	61.1
303.095	85.67
303.309	-10.58
303.524	7.85
303.738	50.86
303.952	44.71
304.166	9.9
304.381	-57.68
304.595	59.05
304.809	18.09
305.023	79.53
305.237	28.33
305.452	44.71
305.666	120.49
305.88	145.06
306.094	89.77
306.308	42.67
306.522	65.19
306.736	79.53
306.95	28.33
307.164	-12.63
307.379	61.1
307.593	54.95
307.807	-78.16
308.021	59.05
308.235	71.34
308.449	1.71
308.663	59.05
308.877	85.67
309.091	61.1
309.305	11.95
309.519	-74.07
309.733	79.53
309.947	3.75
310.161	85.67
310.374	97.96
310.588	26.28
310.802	30.38
311.016	20.14
311.23	67.24
311.444	38.57
311.658	16.04
311.872	67.24
312.085	65.19
312.299	52.91
312.513	71.34
312.727	36.52
312.941	1.71
313.154	54.95
313.368	-20.82
313.582	28.33
313.796	42.67
314.009	42.67
314.223	1.71
314.437	48.81
314.651	100.01
314.864	22.19
315.078	44.71
315.292	34.47
315.505	11.95
315.719	42.67
315.933	-43.35
316.146	-20.82
316.36	-4.44
316.573	18.09
316.787	-31.06
317.001	30.38
317.214	18.09
317.428	77.48
317.641	-6.49
317.855	3.75
318.068	34.47
318.282	124.58
318.495	16.04
318.709	44.71
318.922	-12.63
319.136	104.11
319.349	30.38
319.563	52.91
319.776	59.05
319.99	34.47
320.203	16.04
320.417	9.9
320.63	46.76
320.843	116.39
321.057	46.76
321.27	75.43
321.483	67.24
321.697	36.52
321.91	-29.01
322.124	75.43
322.337	36.52
322.55	85.67
322.763	77.48
322.977	11.95
323.19	-6.49
323.403	-4.44
323.617	52.91
323.83	112.3
324.043	81.58
324.256	46.76
324.469	13.99
324.683	40.62
324.896	61.1
325.109	18.09
325.322	-18.77
325.535	28.33
325.748	100.01
325.962	59.05
326.175	54.95
326.388	40.62
326.601	59.05
326.814	69.29
327.027	67.24
327.24	87.72
327.453	124.58
327.666	67.24
327.879	83.63
328.092	73.39
328.305	59.05
328.518	77.48
328.731	59.05
328.944	85.67
329.157	18.09
329.37	26.28
329.583	30.38
329.796	42.67
330.009	65.19
330.222	108.2
330.435	5.8
330.648	75.43
330.861	69.29
331.073	-47.44
331.286	75.43
331.499	38.57
331.712	20.14
331.925	75.43
332.138	65.19
332.35	1.71
332.563	61.1
332.776	95.91
332.989	69.29
333.202	44.71
333.414	-37.2
333.627	42.67
333.84	-2.39
334.053	71.34
334.265	26.28
334.478	16.04
334.691	24.23
334.903	-4.44
335.116	30.38
335.329	44.71
335.541	63.15
335.754	91.82
335.966	1.71
336.179	20.14
336.392	52.91
336.604	52.91
336.817	71.34
337.029	61.1
337.242	95.91
337.454	159.4
337.667	132.78
337.88	77.48
338.092	32.43
338.305	77.48
338.517	11.95
338.729	63.15
338.942	116.39
339.154	50.86
339.367	30.38
339.579	108.2
339.792	42.67
340.004	65.19
340.217	-10.58
340.429	13.99
340.641	65.19
340.854	9.9
341.066	65.19
341.278	28.33
341.491	167.59
341.703	44.71
341.915	46.76
342.128	40.62
342.34	73.39
342.552	-12.63
342.764	52.91
342.977	18.09
343.189	-14.68
343.401	11.95
343.613	32.43
343.826	75.43
344.038	36.52
344.25	9.9
344.462	59.05
344.674	3.75
344.886	46.76
345.099	69.29
345.311	69.29
345.523	38.57
345.735	-43.35
345.947	26.28
346.159	128.68
346.371	-4.44
346.583	20.14
346.795	71.34
347.007	26.28
347.219	46.76
347.431	75.43
347.643	32.43
347.855	108.2
348.067	71.34
348.279	26.28
348.491	30.38
348.703	-14.68
348.915	97.96
349.127	30.38
349.339	77.48
349.551	20.14
349.763	91.82
349.975	40.62
350.187	26.28
350.399	26.28
350.61	42.67
350.822	112.3
351.034	118.44
351.246	-6.49
351.458	22.19
351.669	65.19
351.881	73.39
352.093	59.05
352.305	75.43
352.517	59.05
352.728	36.52
352.94	89.77
353.152	91.82
353.363	65.19
353.575	67.24
353.787	102.06
353.999	52.91
354.21	145.06
354.422	-0.34
354.633	67.24
354.845	18.09
355.057	20.14
355.268	83.63
355.48	-4.44
355.692	32.43
355.903	59.05
356.115	67.24
356.326	75.43
356.538	87.72
356.749	-31.06
356.961	83.63
357.172	73.39
357.384	11.95
357.595	71.34
357.807	61.1
358.018	-2.39
358.23	67.24
358.441	79.53
358.653	18.09
358.864	26.28
359.075	34.47
359.287	-24.92
359.498	110.25
359.709	83.63
359.921	69.29
360.132	67.24
360.344	-4.44
360.555	83.63
360.766	-0.34
360.977	67.24
361.189	124.58
361.4	18.09
361.611	67.24
361.823	16.04
362.034	75.43
362.245	46.76
362.456	22.19
362.667	61.1
362.879	3.75
363.09	5.8
363.301	-4.44
363.512	93.87
363.723	20.14
363.935	54.95
364.146	34.47
364.357	34.47
364.568	75.43
364.779	-22.87
364.99	67.24
365.201	36.52
365.412	116.39
365.623	52.91
365.834	44.71
366.045	91.82
366.256	102.06
366.467	59.05
366.678	3.75
366.889	13.99
367.1	65.19
367.311	75.43
367.522	36.52
367.733	83.63
367.944	69.29
368.155	63.15
368.366	20.14
368.577	26.28
368.788	38.57
368.999	100.01
369.209	73.39
369.42	69.29
369.631	116.39
369.842	-22.87
370.053	-4.44
370.264	91.82
370.474	-12.63
370.685	83.63
370.896	57
371.107	52.91
371.317	32.43
371.528	28.33
371.739	112.3
371.95	73.39
372.16	140.97
372.371	54.95
372.582	108.2
372.792	52.91
373.003	73.39
373.214	116.39
373.424	155.3
373.635	87.72
373.846	136.87
374.056	52.91
374.267	11.95
374.477	100.01
374.688	20.14
374.898	42.67
375.109	91.82
375.319	11.95
375.53	52.91
375.74	48.81
375.951	22.19
376.161	112.3
376.372	120.49
376.582	110.25
376.793	69.29
377.003	59.05
377.214	87.72
377.424	50.86
377.635	67.24
377.845	75.43
378.055	13.99
378.266	50.86
378.476	32.43
378.686	118.44
378.897	46.76
379.107	145.06
379.317	61.1
379.528	54.95
379.738	85.67
379.948	-14.68
380.158	100.01
380.369	59.05
380.579	95.91
380.789	32.43
380.999	85.67
381.21	9.9
381.42	130.73
381.63	57
381.84	149.16
382.05	77.48
382.261	44.71
382.471	75.43
382.681	110.25
382.891	95.91
383.101	93.87
383.311	-22.87
383.521	46.76
383.731	48.81
383.941	132.78
384.151	83.63
384.361	13.99
384.571	36.52
384.781	7.85
384.991	75.43
385.201	100.01
385.411	65.19
385.621	134.82
385.831	-10.58
386.041	85.67
386.251	24.23
386.461	83.63
386.671	91.82
386.881	63.15
387.091	75.43
387.301	97.96
387.511	34.47
387.72	36.52
387.93	83.63
388.14	75.43
388.35	79.53
388.56	108.2
388.769	63.15
388.979	-6.49
389.189	79.53
389.399	36.52
389.609	67.24
389.818	79.53
390.028	67.24
390.238	59.05
390.447	147.11
390.657	89.77
390.867	59.05
391.076	-0.34
391.286	95.91
391.496	106.15
391.705	67.24
391.915	75.43
392.125	36.52
392.334	69.29
392.544	97.96
392.753	59.05
392.963	46.76
393.172	102.06
393.382	9.9
393.591	155.3
393.801	26.28
394.01	87.72
394.22	116.39
394.429	42.67
394.639	83.63
394.848	40.62
395.058	102.06
395.267	71.34
395.477	100.01
395.686	116.39
395.895	87.72
396.105	110.25
396.314	100.01
396.524	52.91
396.733	40.62
396.942	124.58
397.152	102.06
397.361	130.73
397.57	149.16
397.78	110.25
397.989	132.78
398.198	165.54
398.407	61.1
398.617	67.24
398.826	118.44
399.035	114.34
399.244	108.2
399.453	83.63
399.663	95.91
399.872	138.92
400.081	61.1
400.29	169.64
400.499	46.76
400.708	89.77
400.917	85.67
401.127	167.59
401.336	75.43
401.545	124.58
401.754	140.97
401.963	126.63
402.172	95.91
402.381	183.98
402.59	114.34
402.799	91.82
403.008	196.26
403.217	192.17
403.426	175.78
403.635	155.3
403.844	122.54
404.053	91.82
404.262	110.25
404.471	126.63
404.68	210.6
404.888	181.93
405.097	169.64
405.306	190.12
405.515	140.97
405.724	130.73
405.933	134.82
406.142	198.31
406.35	265.89
406.559	216.74
406.768	231.08
406.977	259.75
407.185	212.65
407.394	169.64
407.603	177.83
407.812	226.98
408.02	278.18
408.229	245.41
408.438	229.03
408.646	214.7
408.855	304.81
409.064	226.98
409.272	319.14
409.481	315.05
409.69	366.25
409.898	306.85
410.107	298.66
410.315	343.72
410.524	257.7
410.733	335.53
410.941	345.77
411.15	358.05
411.358	288.42
411.567	464.55
411.775	437.92
411.984	388.77
412.192	485.03
412.401	497.32
412.609	501.41
412.818	532.13
413.026	599.71
413.234	542.37
413.443	480.93
413.651	534.18
413.86	624.29
414.068	736.93
414.276	632.48
414.485	659.1
414.693	706.21
414.901	720.54
415.11	712.35
415.318	775.84
415.526	761.5
415.734	757.41
415.943	769.69
416.151	878.24
416.359	892.57
416.567	812.7
416.776	954.01
416.984	1074.84
417.192	1089.18
417.4	1052.31
417.608	935.58
417.817	1035.93
418.025	1128.09
418.233	1197.72
418.441	1197.72
418.649	1123.99
418.857	1285.78
419.065	1287.83
419.273	1230.49
419.481	1384.09
419.689	1420.95
419.897	1513.11
420.105	1543.83
420.313	1660.56
420.521	1648.27
420.729	1722
420.937	1724.05
421.145	1840.78
421.353	1846.93
421.561	1906.32
421.769	2027.15
421.977	1963.66
422.185	2180.75
422.393	2201.23
422.601	2385.54
422.809	2295.43
423.017	2424.45
423.224	2422.41
423.432	2588.29
423.64	2524.8
423.848	2729.6
424.056	2707.07
424.263	2920.06
424.471	2795.14
424.679	2973.31
424.887	3198.59
425.094	3282.55
425.302	3231.35
425.51	3294.84
425.718	3266.17
425.925	3534.45
426.133	3688.05
426.341	3765.87
426.548	3925.61
426.756	4019.82
426.964	3997.29
427.171	4265.58
427.379	4376.17
427.586	4601.44
427.794	4507.24
428.001	4886.11
428.209	4961.89
428.417	4822.63
428.624	5176.92
428.832	5260.89
429.039	5281.37
429.247	5181.02
429.454	5699.16
429.662	6172.24
429.869	5719.64
430.076	6032.97
430.284	5971.54
430.491	6215.24
430.699	6641.22
430.906	6741.57
431.114	6637.13
431.321	6772.29
431.528	7130.69
431.736	7351.87
431.943	7761.46
432.15	7695.93
432.358	7562.81
432.565	8048.18
432.772	7833.14
432.979	8474.15
433.187	8474.15
433.394	8545.83
433.601	9076.26
433.808	9276.96
434.016	9293.34
434.223	9498.14
434.43	9991.7
434.637	9842.2
434.844	10475.02
435.052	10751.49
435.259	10554.89
435.466	10831.37
435.673	10522.12
435.88	11460.09
436.087	11884.02
436.294	11851.25
436.501	11621.88
436.708	11843.06
436.915	12510.7
437.122	12725.74
437.329	12801.51
437.537	13102.56
437.743	13499.87
437.95	13161.95
438.157	14009.81
438.364	14396.88
438.571	14196.18
438.778	14630.35
438.985	15611.32
439.192	15156.68
439.399	15631.8
439.606	15289.79
439.813	16420.27
440.02	17245.6
440.227	16774.57
440.433	16635.31
440.64	17126.82
440.847	17182.12
441.054	17382.82
441.261	18906.51
441.467	18570.64
441.674	18662.8
441.881	19502.47
442.088	19051.91
442.294	19123.59
442.501	19729.79
442.708	20194.68
442.914	21087.59
443.121	21857.63
443.328	21106.02
443.534	23174.47
443.741	22023.51
443.948	21759.33
444.154	23442.76
444.361	23319.88
444.568	23405.89
444.774	23244.1
444.981	23805.25
445.187	23979.32
445.394	25474.34
445.6	24808.75
445.807	27346.19
446.013	26047.77
446.22	26592.53
446.426	27587.85
446.633	28032.25
446.839	28654.84
447.046	27677.96
447.252	29109.49
447.459	29322.48
447.665	29166.83
447.871	30391.51
448.078	31544.52
448.284	30311.64
448.491	30852.31
448.697	32027.84
448.903	32939.19
449.11	33017.01
449.316	32388.28
449.522	32773.3
449.728	33815.72
449.935	34129.06
450.141	33789.1
450.347	34497.69
450.553	33465.52
450.76	34284.7
450.966	34935.96
451.172	34808.98
451.378	35765.38
451.584	35214.48
451.791	35968.13
451.997	35237.01
452.203	36164.74
452.409	36508.8
452.615	36459.65
452.821	34540.7
453.027	34542.75
453.233	36115.59
453.44	34940.05
453.646	35060.88
453.852	36021.38
454.058	35937.41
454.264	34966.68
454.47	35609.74
454.676	34622.62
454.882	36074.63
455.088	33031.35
455.294	33109.17
455.5	33807.53
455.705	34532.51
455.911	32830.65
456.117	32214.21
456.323	31663.3
456.529	30592.22
456.735	31761.61
456.941	30711
457.147	30315.74
457.352	29152.49
457.558	29097.2
457.764	29099.25
457.97	28400.89
458.176	28122.37
458.381	27985.15
458.587	26514.71
458.793	26662.16
458.999	25406.76
459.204	27088.14
459.41	26271
459.616	24583.48
459.821	24614.2
460.027	24558.9
460.233	24079.68
460.438	23084.36
460.644	23065.93
460.85	21972.32
461.055	21644.64
461.261	21673.31
461.466	19918.2
461.672	19447.17
461.878	20784.49
462.083	19633.54
462.289	19154.31
462.494	18689.42
462.7	18199.96
462.905	17663.39
463.111	18294.16
463.316	18025.88
463.522	17806.75
463.727	17810.84
463.932	17833.37
464.138	17579.42
464.343	17687.96
464.549	17427.87
464.754	17687.96
464.959	17782.17
465.165	17536.42
465.37	16713.13
465.575	16600.49
465.781	16856.49
465.986	17196.45
466.191	16381.36
466.397	16242.1
466.602	15517.12
466.807	15941.05
467.012	15797.69
467.218	15795.64
467.423	15523.26
467.628	15717.82
