Data from USB4F104151__244__14-22-29-564.txt Node

Date: Thu Mar 13 14:22:29 EDT 2025
User: louis
Spectrometer: USB4F10415
Trigger mode: 4
Integration Time (sec): 2.000000E-2
Scans to average: 1
Electric dark correction enabled: true
Nonlinearity correction enabled: false
Boxcar width: 0
XAxis mode: Wavelengths
Number of Pixels in Spectrum: 3648
>>>>>Begin Spectral Data<<<<<
178.204	-196.09
178.424	-196.09
178.644	-196.09
178.864	-159.23
179.084	-144.89
179.304	-7.68
179.524	-7.68
179.744	-89.6
179.964	29.18
180.184	-38.4
180.404	37.38
180.624	12.8
180.844	-15.87
181.064	-17.92
181.283	25.09
181.503	61.95
181.723	10.75
181.943	-38.4
182.163	49.66
182.383	10.75
182.602	-38.4
182.822	-28.16
183.042	-36.35
183.262	-50.69
183.482	-19.97
183.701	-7.68
183.921	-48.64
184.141	-65.02
184.361	68.09
184.58	-34.3
184.8	49.66
185.02	-11.78
185.239	8.7
185.459	18.94
185.679	33.28
185.898	-56.83
186.118	0.51
186.338	-32.26
186.557	8.7
186.777	-15.87
186.997	-62.98
187.216	-118.27
187.436	29.18
187.655	-62.98
187.875	-85.5
188.095	-103.93
188.314	41.47
188.534	-15.87
188.753	-32.26
188.973	-36.35
189.192	84.48
189.412	25.09
189.631	-38.4
189.851	8.7
190.07	53.76
190.29	-36.35
190.509	-7.68
190.729	25.09
190.948	18.94
191.168	76.29
191.387	41.47
191.607	-7.68
191.826	0.51
192.045	-42.5
192.265	-32.26
192.484	-30.21
192.704	-36.35
192.923	-5.63
193.142	100.86
193.362	20.99
193.581	4.61
193.8	20.99
194.02	37.38
194.239	47.62
194.458	41.47
194.678	-34.3
194.897	-22.02
195.116	25.09
195.335	0.51
195.555	-32.26
195.774	-15.87
195.993	41.47
196.212	18.94
196.432	-5.63
196.651	-54.78
196.87	-36.35
197.089	59.9
197.308	57.86
197.528	-15.87
197.747	12.8
197.966	-79.36
198.185	12.8
198.404	25.09
198.623	31.23
198.842	-17.92
199.062	39.42
199.281	41.47
199.5	35.33
199.719	-36.35
199.938	23.04
200.157	35.33
200.376	10.75
200.595	4.61
200.814	-24.06
201.033	2.56
201.252	78.33
201.471	-46.59
201.69	55.81
201.909	16.9
202.128	29.18
202.347	2.56
202.566	-7.68
202.785	20.99
203.004	-50.69
203.223	57.86
203.442	-67.07
203.661	10.75
203.879	25.09
204.098	86.53
204.317	-71.17
204.536	66.05
204.755	16.9
204.974	-56.83
205.193	70.14
205.411	59.9
205.63	35.33
205.849	27.14
206.068	29.18
206.287	-73.21
206.505	27.14
206.724	-5.63
206.943	-7.68
207.162	8.7
207.381	-19.97
207.599	2.56
207.818	23.04
208.037	-7.68
208.255	4.61
208.474	-30.21
208.693	27.14
208.911	2.56
209.13	0.51
209.349	-54.78
209.567	10.75
209.786	55.81
210.005	39.42
210.223	0.51
210.442	47.62
210.661	-9.73
210.879	-22.02
211.098	-19.97
211.316	16.9
211.535	-11.78
211.753	25.09
211.972	-5.63
212.191	-46.59
212.409	25.09
212.628	51.71
212.846	43.52
213.065	25.09
213.283	16.9
213.502	-30.21
213.72	25.09
213.938	68.09
214.157	-60.93
214.375	-5.63
214.594	18.94
214.812	10.75
215.031	33.28
215.249	16.9
215.467	10.75
215.686	55.81
215.904	23.04
216.122	25.09
216.341	-24.06
216.559	51.71
216.778	20.99
216.996	0.51
217.214	-99.84
217.432	-11.78
217.651	8.7
217.869	-58.88
218.087	16.9
218.306	-9.73
218.524	29.18
218.742	25.09
218.96	90.62
219.179	-15.87
219.397	-3.58
219.615	12.8
219.833	10.75
220.051	2.56
220.27	39.42
220.488	-11.78
220.706	27.14
220.924	-17.92
221.142	-34.3
221.36	-38.4
221.578	16.9
221.796	37.38
222.015	49.66
222.233	-34.3
222.451	27.14
222.669	-15.87
222.887	25.09
223.105	33.28
223.323	20.99
223.541	-44.54
223.759	20.99
223.977	8.7
224.195	68.09
224.413	8.7
224.631	-15.87
224.849	-3.58
225.067	-56.83
225.285	-40.45
225.503	-28.16
225.721	-73.21
225.939	10.75
226.157	16.9
226.375	98.81
226.592	-56.83
226.81	76.29
227.028	2.56
227.246	57.86
227.464	18.94
227.682	92.67
227.9	25.09
228.117	-77.31
228.335	-28.16
228.553	49.66
228.771	16.9
228.989	25.09
229.206	74.24
229.424	27.14
229.642	-13.82
229.86	-15.87
230.077	66.05
230.295	92.67
230.513	-3.58
230.731	0.51
230.948	-48.64
231.166	72.19
231.384	35.33
231.601	-54.78
231.819	-5.63
232.037	-19.97
232.254	-9.73
232.472	33.28
232.689	-7.68
232.907	47.62
233.125	-62.98
233.342	-65.02
233.56	4.61
233.777	8.7
233.995	-79.36
234.213	18.94
234.43	6.66
234.648	-60.93
234.865	49.66
235.083	84.48
235.3	-38.4
235.518	8.7
235.735	111.1
235.953	66.05
236.17	4.61
236.388	-7.68
236.605	25.09
236.822	20.99
237.04	76.29
237.257	-3.58
237.475	-24.06
237.692	-44.54
237.909	20.99
238.127	-69.12
238.344	20.99
238.562	20.99
238.779	-34.3
238.996	12.8
239.214	57.86
239.431	49.66
239.648	-54.78
239.865	12.8
240.083	47.62
240.3	47.62
240.517	-26.11
240.735	-13.82
240.952	35.33
241.169	-15.87
241.386	0.51
241.603	-19.97
241.821	-11.78
242.038	14.85
242.255	29.18
242.472	-7.68
242.689	35.33
242.907	-13.82
243.124	4.61
243.341	-79.36
243.558	-40.45
243.775	49.66
243.992	-22.02
244.209	-5.63
244.426	61.95
244.643	-11.78
244.86	25.09
245.078	51.71
245.295	23.04
245.512	8.7
245.729	0.51
245.946	-30.21
246.163	41.47
246.38	47.62
246.597	4.61
246.814	29.18
247.031	25.09
247.248	-13.82
247.464	4.61
247.681	102.91
247.898	-28.16
248.115	0.51
248.332	-30.21
248.549	25.09
248.766	16.9
248.983	27.14
249.2	12.8
249.417	43.52
249.633	14.85
249.85	6.66
250.067	-22.02
250.284	4.61
250.501	25.09
250.717	66.05
250.934	0.51
251.151	29.18
251.368	16.9
251.585	2.56
251.801	4.61
252.018	-46.59
252.235	37.38
252.451	6.66
252.668	-36.35
252.885	-19.97
253.102	4.61
253.318	-1.54
253.535	-13.82
253.752	-5.63
253.968	-32.26
254.185	-122.37
254.401	41.47
254.618	-19.97
254.835	16.9
255.051	51.71
255.268	4.61
255.484	-24.06
255.701	27.14
255.917	-24.06
256.134	-13.82
256.351	35.33
256.567	-15.87
256.784	-65.02
257	-7.68
257.217	70.14
257.433	23.04
257.65	-36.35
257.866	57.86
258.082	-58.88
258.299	-9.73
258.515	-9.73
258.732	-7.68
258.948	90.62
259.165	37.38
259.381	-81.41
259.597	51.71
259.814	-46.59
260.03	-32.26
260.246	16.9
260.463	49.66
260.679	-13.82
260.895	-17.92
261.112	-89.6
261.328	16.9
261.544	-32.26
261.761	-24.06
261.977	-1.54
262.193	-54.78
262.409	-1.54
262.626	-3.58
262.842	29.18
263.058	74.24
263.274	4.61
263.49	-5.63
263.707	27.14
263.923	-13.82
264.139	-32.26
264.355	-62.98
264.571	8.7
264.787	-5.63
265.004	8.7
265.22	0.51
265.436	-40.45
265.652	-11.78
265.868	2.56
266.084	-7.68
266.3	-24.06
266.516	-5.63
266.732	25.09
266.948	-30.21
267.164	51.71
267.38	-30.21
267.596	16.9
267.812	23.04
268.028	74.24
268.244	68.09
268.46	2.56
268.676	8.7
268.892	8.7
269.108	-83.45
269.324	-65.02
269.54	-40.45
269.756	35.33
269.972	-77.31
270.188	-26.11
270.403	-97.79
270.619	57.86
270.835	10.75
271.051	16.9
271.267	-7.68
271.483	-52.74
271.698	12.8
271.914	-22.02
272.13	57.86
272.346	18.94
272.562	29.18
272.777	53.76
272.993	49.66
273.209	25.09
273.425	41.47
273.64	8.7
273.856	25.09
274.072	-58.88
274.287	-11.78
274.503	41.47
274.719	4.61
274.934	41.47
275.15	-1.54
275.366	45.57
275.581	-91.65
275.797	37.38
276.012	-13.82
276.228	25.09
276.444	74.24
276.659	-32.26
276.875	4.61
277.09	25.09
277.306	-81.41
277.521	12.8
277.737	-54.78
277.952	2.56
278.168	20.99
278.383	14.85
278.599	-42.5
278.814	10.75
279.03	6.66
279.245	27.14
279.461	-50.69
279.676	27.14
279.892	-89.6
280.107	-38.4
280.322	25.09
280.538	-19.97
280.753	41.47
280.969	-24.06
281.184	-44.54
281.399	35.33
281.615	-69.12
281.83	35.33
282.045	16.9
282.26	2.56
282.476	51.71
282.691	14.85
282.906	31.23
283.122	41.47
283.337	-36.35
283.552	-11.78
283.767	-3.58
283.983	33.28
284.198	-13.82
284.413	-1.54
284.628	51.71
284.843	29.18
285.058	51.71
285.274	-38.4
285.489	57.86
285.704	10.75
285.919	0.51
286.134	39.42
286.349	0.51
286.564	-110.08
286.779	-24.06
286.995	8.7
287.21	12.8
287.425	-7.68
287.64	37.38
287.855	31.23
288.07	-3.58
288.285	35.33
288.5	0.51
288.715	-46.59
288.93	-32.26
289.145	-120.32
289.36	33.28
289.575	6.66
289.79	-15.87
290.004	8.7
290.219	4.61
290.434	27.14
290.649	-46.59
290.864	-15.87
291.079	29.18
291.294	25.09
291.509	-7.68
291.724	-17.92
291.938	10.75
292.153	45.57
292.368	-40.45
292.583	8.7
292.798	41.47
293.012	51.71
293.227	-32.26
293.442	43.52
293.657	8.7
293.871	51.71
294.086	-19.97
294.301	41.47
294.516	59.9
294.73	51.71
294.945	-19.97
295.16	76.29
295.374	-60.93
295.589	16.9
295.804	-28.16
296.018	2.56
296.233	70.14
296.447	29.18
296.662	20.99
296.877	8.7
297.091	-7.68
297.306	-3.58
297.52	-7.68
297.735	68.09
297.949	39.42
298.164	92.67
298.378	-44.54
298.593	27.14
298.807	-44.54
299.022	0.51
299.236	-7.68
299.451	-3.58
299.665	-24.06
299.88	-32.26
300.094	-30.21
300.309	4.61
300.523	68.09
300.737	-7.68
300.952	16.9
301.166	45.57
301.381	31.23
301.595	35.33
301.809	-13.82
302.024	-7.68
302.238	-26.11
302.452	-19.97
302.667	-19.97
302.881	74.24
303.095	98.81
303.309	16.9
303.524	20.99
303.738	-42.5
303.952	0.51
304.166	-56.83
304.381	-28.16
304.595	41.47
304.809	-32.26
305.023	-7.68
305.237	-32.26
305.452	8.7
305.666	8.7
305.88	57.86
306.094	12.8
306.308	39.42
306.522	66.05
306.736	-28.16
306.95	-13.82
307.164	-58.88
307.379	18.94
307.593	27.14
307.807	27.14
308.021	8.7
308.235	25.09
308.449	2.56
308.663	25.09
308.877	-1.54
309.091	2.56
309.305	16.9
309.519	-7.68
309.733	16.9
309.947	-83.45
310.161	33.28
310.374	41.47
310.588	90.62
310.802	-11.78
311.016	-28.16
311.23	39.42
311.444	10.75
311.658	-32.26
311.872	-7.68
312.085	98.81
312.299	12.8
312.513	-48.64
312.727	-11.78
312.941	-56.83
313.154	-22.02
313.368	16.9
313.582	27.14
313.796	18.94
314.009	12.8
314.223	-48.64
314.437	-60.93
314.651	70.14
314.864	20.99
315.078	49.66
315.292	-65.02
315.505	16.9
315.719	-7.68
315.933	78.33
316.146	-40.45
316.36	47.62
316.573	49.66
316.787	6.66
317.001	2.56
317.214	33.28
317.428	66.05
317.641	-1.54
317.855	-44.54
318.068	-69.12
318.282	0.51
318.495	45.57
318.709	-1.54
318.922	-22.02
319.136	61.95
319.349	35.33
319.563	-1.54
319.776	-34.3
319.99	35.33
320.203	-28.16
320.417	-48.64
320.63	-24.06
320.843	47.62
321.057	70.14
321.27	-5.63
321.483	51.71
321.697	-1.54
321.91	-15.87
322.124	8.7
322.337	23.04
322.55	6.66
322.763	-7.68
322.977	-32.26
323.19	-28.16
323.403	-24.06
323.617	-13.82
323.83	45.57
324.043	6.66
324.256	10.75
324.469	-46.59
324.683	27.14
324.896	27.14
325.109	41.47
325.322	-11.78
325.535	-5.63
325.748	-32.26
325.962	14.85
326.175	16.9
326.388	-28.16
326.601	-1.54
326.814	-83.45
327.027	-48.64
327.24	2.56
327.453	-46.59
327.666	-11.78
327.879	37.38
328.092	12.8
328.305	-62.98
328.518	-101.89
328.731	-81.41
328.944	-1.54
329.157	18.94
329.37	0.51
329.583	61.95
329.796	121.34
330.009	45.57
330.222	100.86
330.435	23.04
330.648	-48.64
330.861	-7.68
331.073	64
331.286	0.51
331.499	49.66
331.712	-44.54
331.925	-58.88
332.138	-30.21
332.35	-62.98
332.563	-73.21
332.776	10.75
332.989	-42.5
333.202	-7.68
333.414	-22.02
333.627	2.56
333.84	27.14
334.053	-46.59
334.265	-48.64
334.478	-40.45
334.691	20.99
334.903	-15.87
335.116	-15.87
335.329	41.47
335.541	-7.68
335.754	57.86
335.966	-62.98
336.179	-24.06
336.392	4.61
336.604	-105.98
336.817	47.62
337.029	8.7
337.242	-65.02
337.454	57.86
337.667	2.56
337.88	10.75
338.092	33.28
338.305	8.7
338.517	2.56
338.729	0.51
338.942	53.76
339.154	6.66
339.367	16.9
339.579	27.14
339.792	-34.3
340.004	-48.64
340.217	-42.5
340.429	72.19
340.641	-15.87
340.854	-15.87
341.066	-19.97
341.278	-13.82
341.491	10.75
341.703	45.57
341.915	-81.41
342.128	59.9
342.34	45.57
342.552	41.47
342.764	-24.06
342.977	25.09
343.189	2.56
343.401	92.67
343.613	8.7
343.826	12.8
344.038	-32.26
344.25	66.05
344.462	37.38
344.674	-32.26
344.886	-15.87
345.099	-52.74
345.311	18.94
345.523	8.7
345.735	-36.35
345.947	12.8
346.159	43.52
346.371	49.66
346.583	66.05
346.795	29.18
347.007	0.51
347.219	18.94
347.431	-48.64
347.643	25.09
347.855	-24.06
348.067	49.66
348.279	0.51
348.491	4.61
348.703	12.8
348.915	-3.58
349.127	-44.54
349.339	55.81
349.551	33.28
349.763	-24.06
349.975	-1.54
350.187	27.14
350.399	47.62
350.61	88.57
350.822	-56.83
351.034	74.24
351.246	-46.59
351.458	-42.5
351.669	16.9
351.881	123.39
352.093	-30.21
352.305	47.62
352.517	-11.78
352.728	-5.63
352.94	35.33
353.152	-5.63
353.363	12.8
353.575	10.75
353.787	-36.35
353.999	-36.35
354.21	92.67
354.422	-50.69
354.633	6.66
354.845	-40.45
355.057	61.95
355.268	2.56
355.48	4.61
355.692	-40.45
355.903	-26.11
356.115	-40.45
356.326	-22.02
356.538	131.58
356.749	-15.87
356.961	2.56
357.172	16.9
357.384	-9.73
357.595	51.71
357.807	49.66
358.018	-32.26
358.23	-48.64
358.441	8.7
358.653	-26.11
358.864	8.7
359.075	68.09
359.287	-24.06
359.498	-81.41
359.709	-3.58
359.921	78.33
360.132	16.9
360.344	2.56
360.555	-48.64
360.766	49.66
360.977	39.42
361.189	25.09
361.4	-11.78
361.611	25.09
361.823	90.62
362.034	4.61
362.245	-69.12
362.456	90.62
362.667	4.61
362.879	-48.64
363.09	35.33
363.301	25.09
363.512	20.99
363.723	18.94
363.935	-15.87
364.146	12.8
364.357	-28.16
364.568	41.47
364.779	-36.35
364.99	47.62
365.201	-28.16
365.412	16.9
365.623	10.75
365.834	111.1
366.045	8.7
366.256	55.81
366.467	68.09
366.678	-30.21
366.889	-9.73
367.1	94.72
367.311	18.94
367.522	25.09
367.733	25.09
367.944	31.23
368.155	12.8
368.366	41.47
368.577	2.56
368.788	102.91
368.999	-52.74
369.209	18.94
369.42	25.09
369.631	92.67
369.842	12.8
370.053	37.38
370.264	25.09
370.474	-32.26
370.685	29.18
370.896	51.71
371.107	-5.63
371.317	4.61
371.528	25.09
371.739	-60.93
371.95	35.33
372.16	-48.64
372.371	-3.58
372.582	-5.63
372.792	66.05
373.003	-11.78
373.214	-32.26
373.424	18.94
373.635	-44.54
373.846	41.47
374.056	25.09
374.267	4.61
374.477	29.18
374.688	-65.02
374.898	-56.83
375.109	-5.63
375.319	-30.21
375.53	18.94
375.74	0.51
375.951	29.18
376.161	-40.45
376.372	35.33
376.582	31.23
376.793	25.09
377.003	12.8
377.214	43.52
377.424	-7.68
377.635	18.94
377.845	68.09
378.055	88.57
378.266	72.19
378.476	6.66
378.686	90.62
378.897	8.7
379.107	-5.63
379.317	35.33
379.528	-36.35
379.738	-5.63
379.948	0.51
380.158	68.09
380.369	-15.87
380.579	70.14
380.789	-5.63
380.999	41.47
381.21	53.76
381.42	74.24
381.63	-77.31
381.84	68.09
382.05	12.8
382.261	80.38
382.471	-15.87
382.681	16.9
382.891	45.57
383.101	59.9
383.311	-7.68
383.521	-32.26
383.731	59.9
383.941	82.43
384.151	-30.21
384.361	-32.26
384.571	74.24
384.781	47.62
384.991	117.25
385.201	98.81
385.411	49.66
385.621	49.66
385.831	-24.06
386.041	-24.06
386.251	2.56
386.461	35.33
386.671	-28.16
386.881	25.09
387.091	10.75
387.301	12.8
387.511	84.48
387.72	-15.87
387.93	100.86
388.14	-81.41
388.35	55.81
388.56	-28.16
388.769	102.91
388.979	-5.63
389.189	29.18
389.399	43.52
389.609	-58.88
389.818	45.57
390.028	4.61
390.238	27.14
390.447	35.33
390.657	49.66
390.867	-32.26
391.076	-5.63
391.286	61.95
391.496	49.66
391.705	2.56
391.915	18.94
392.125	43.52
392.334	25.09
392.544	-30.21
392.753	0.51
392.963	45.57
393.172	18.94
393.382	35.33
393.591	115.2
393.801	-1.54
394.01	102.91
394.22	-19.97
394.429	53.76
394.639	51.71
394.848	0.51
395.058	29.18
395.267	59.9
395.477	94.72
395.686	86.53
395.895	41.47
396.105	57.86
396.314	25.09
396.524	14.85
396.733	51.71
396.942	104.96
397.152	49.66
397.361	195.07
397.57	45.57
397.78	49.66
397.989	119.29
398.198	55.81
398.407	25.09
398.617	102.91
398.826	33.28
399.035	12.8
399.244	74.24
399.453	98.81
399.663	66.05
399.872	117.25
400.081	4.61
400.29	82.43
400.499	18.94
400.708	78.33
400.917	76.29
401.127	16.9
401.336	94.72
401.545	82.43
401.754	92.67
401.963	90.62
402.172	-36.35
402.381	4.61
402.59	8.7
402.799	102.91
403.008	109.05
403.217	43.52
403.426	49.66
403.635	92.67
403.844	6.66
404.053	45.57
404.262	49.66
404.471	51.71
404.68	-28.16
404.888	82.43
405.097	27.14
405.306	131.58
405.515	43.52
405.724	152.06
405.933	125.44
406.142	98.81
406.35	98.81
406.559	86.53
406.768	72.19
406.977	92.67
407.185	68.09
407.394	78.33
407.603	143.87
407.812	248.32
408.02	242.17
408.229	125.44
408.438	117.25
408.646	131.58
408.855	156.16
409.064	113.15
409.272	141.82
409.481	82.43
409.69	121.34
409.898	176.64
410.107	203.26
410.315	203.26
410.524	217.6
410.733	229.88
410.941	172.54
411.15	209.4
411.358	266.75
411.567	293.37
411.775	211.45
411.984	309.76
412.192	305.66
412.401	274.94
412.609	289.28
412.818	322.04
413.026	244.22
413.234	346.62
413.443	289.28
413.651	344.57
413.86	281.08
414.068	354.81
414.276	406.01
414.485	330.23
414.693	346.62
414.901	401.91
415.11	406.01
415.318	492.02
415.526	477.69
415.734	465.4
415.943	541.18
416.151	489.98
416.359	592.37
416.567	584.18
416.776	596.47
416.984	676.34
417.192	608.76
417.4	578.04
417.608	582.14
417.817	592.37
418.025	715.25
418.233	692.73
418.441	664.05
418.649	813.56
418.857	760.31
419.065	827.89
419.273	762.36
419.481	850.42
419.689	844.28
419.897	950.77
420.105	1012.21
420.313	977.39
420.521	868.85
420.729	1034.74
420.937	1057.26
421.145	1106.42
421.353	1200.62
421.561	1239.53
421.769	1313.26
421.977	1305.07
422.185	1294.83
422.393	1468.91
422.601	1323.5
422.809	1352.17
423.017	1438.19
423.224	1487.34
423.432	1499.63
423.64	1556.97
423.848	1837.54
424.056	1640.93
424.263	1810.92
424.471	1878.5
424.679	1827.3
424.887	2021.86
425.094	2028
425.302	1960.42
425.51	2050.53
425.718	2269.66
425.925	2183.65
426.133	2306.52
426.341	2318.81
426.548	2445.79
426.756	2466.27
426.964	2453.98
427.171	2652.63
427.379	2720.21
427.586	2712.02
427.794	2812.37
428.001	2945.49
428.209	3152.34
428.417	3111.38
428.624	3289.55
428.832	3203.54
429.039	3248.59
429.247	3348.94
429.454	3555.79
429.662	3627.46
429.869	3473.87
430.076	3719.62
430.284	3711.43
430.491	3916.23
430.699	4071.87
430.906	4118.98
431.114	4204.99
431.321	4229.57
431.528	4424.12
431.736	4538.81
431.943	4874.68
432.15	4698.55
432.358	4735.42
432.565	4925.88
432.772	4862.39
432.979	5343.66
433.187	5171.63
433.394	5310.89
433.601	5736.87
433.808	5824.94
434.016	5716.39
434.223	5923.24
434.43	6244.77
434.637	6193.57
434.844	6644.12
435.052	6769.05
435.259	6717.85
435.466	6760.86
435.673	6648.22
435.88	7117.2
436.087	7448.97
436.294	7336.34
436.501	7389.58
436.708	7381.39
436.915	7725.45
437.122	8034.69
437.329	7920.01
437.537	8313.22
437.743	8409.47
437.95	8268.16
438.157	8614.27
438.364	9030.01
438.571	8905.08
438.778	9050.49
438.985	9697.64
439.192	9249.14
439.399	9679.21
439.606	9681.26
439.813	10105.19
440.02	10672.48
440.227	10561.89
440.433	10355.04
440.64	10772.83
440.847	10711.39
441.054	11053.4
441.261	11555.15
441.467	11528.53
441.674	11686.22
441.881	12192.07
442.088	12046.66
442.294	12132.68
442.501	12112.2
442.708	12601.66
442.914	12869.95
443.121	13451.57
443.328	13324.6
443.534	14104.87
443.741	13754.67
443.948	13654.32
444.154	14586.15
444.361	14477.6
444.568	14567.71
444.774	14704.93
444.981	14825.76
445.187	15403.28
445.394	15544.59
445.6	15669.52
445.807	17254.65
446.013	16392.45
446.22	16441.61
446.426	17142.01
446.633	17234.17
446.839	18161.9
447.046	17295.61
447.252	18024.68
447.459	18256.11
447.665	17965.29
447.871	18790.63
448.078	19923.15
448.284	18680.03
448.491	19316.95
448.697	20211.92
448.903	20631.75
449.11	20146.38
449.316	20443.34
449.522	20709.57
449.728	21131.45
449.935	21438.65
450.141	21113.02
450.347	21676.21
450.553	20768.96
450.76	21622.97
450.966	22134.96
451.172	21731.51
451.378	22524.07
451.584	21897.39
451.791	22567.08
451.997	22429.87
452.203	22335.66
452.409	22732.97
452.615	22519.98
452.821	21827.76
453.027	21381.31
453.233	22720.68
453.44	21944.5
453.646	21938.35
453.852	22300.84
454.058	22454.44
454.264	21737.65
454.47	22548.65
454.676	21536.95
454.882	22632.61
455.088	20555.97
455.294	21055.68
455.5	21309.63
455.705	21272.76
455.911	20476.1
456.117	20242.64
456.323	19759.31
456.529	19005.66
456.735	19609.81
456.941	19206.36
457.147	18823.39
457.352	18280.68
457.558	18481.38
457.764	18368.74
457.97	17793.26
458.176	17395.96
458.381	17363.19
458.587	16711.94
458.793	16558.34
458.999	15757.58
459.204	17135.87
459.41	16130.31
459.616	15327.51
459.821	15239.45
460.027	15214.87
460.233	14960.92
460.438	14291.24
460.644	14309.67
460.85	13738.29
461.055	13547.83
461.261	13431.09
461.466	12583.23
461.672	12001.61
461.878	13091.13
462.083	12235.08
462.289	11888.97
462.494	11977.03
462.7	11143.51
462.905	10981.72
463.111	11329.88
463.316	11231.57
463.522	11221.33
463.727	11282.77
463.932	11096.41
464.138	11178.33
464.343	10946.9
464.549	10862.94
464.754	11198.81
464.959	10989.91
465.165	11018.58
465.37	10350.95
465.575	10346.85
465.781	10496.35
465.986	10621.28
466.191	10170.72
466.397	10135.91
466.602	9564.53
466.807	9955.69
467.012	9740.65
467.218	9791.85
467.423	9748.84
