Data from USB4F104151__258__14-22-44-518.txt Node

Date: Thu Mar 13 14:22:44 EDT 2025
User: louis
Spectrometer: USB4F10415
Trigger mode: 4
Integration Time (sec): 2.000000E-2
Scans to average: 1
Electric dark correction enabled: true
Nonlinearity correction enabled: false
Boxcar width: 0
XAxis mode: Wavelengths
Number of Pixels in Spectrum: 3648
>>>>>Begin Spectral Data<<<<<
178.204	-166.06
178.424	-166.06
178.644	-166.06
178.864	-106.67
179.084	-80.04
179.304	38.74
179.524	12.12
179.744	-22.7
179.964	38.74
180.184	-18.6
180.404	-26.79
180.624	-43.18
180.844	36.69
181.064	18.26
181.283	10.07
181.503	-59.56
181.723	16.21
181.943	-71.85
182.163	67.41
182.383	12.12
182.602	-4.27
182.822	59.22
183.042	67.41
183.262	3.93
183.482	26.45
183.701	20.31
183.921	14.17
184.141	-39.08
184.361	5.97
184.58	-10.41
184.8	3.93
185.02	-14.51
185.239	5.97
185.459	-0.17
185.679	44.88
185.898	-4.27
186.118	48.98
186.338	44.88
186.557	28.5
186.777	-22.7
186.997	-6.31
187.216	-10.41
187.436	14.17
187.655	53.08
187.875	42.84
188.095	1.88
188.314	1.88
188.534	26.45
188.753	46.93
188.973	26.45
189.192	28.5
189.412	53.08
189.631	-6.31
189.851	22.36
190.07	26.45
190.29	1.88
190.509	-59.56
190.729	57.17
190.948	22.36
191.168	40.79
191.387	5.97
191.607	-10.41
191.826	1.88
192.045	-22.7
192.265	38.74
192.484	-18.6
192.704	-20.65
192.923	32.6
193.142	26.45
193.362	67.41
193.581	-39.08
193.8	26.45
194.02	1.88
194.239	-37.03
194.458	-14.51
194.678	-88.23
194.897	59.22
195.116	1.88
195.335	-26.79
195.555	-6.31
195.774	-2.22
195.993	36.69
196.212	26.45
196.432	28.5
196.651	26.45
196.87	71.51
197.089	67.41
197.308	8.02
197.528	75.6
197.747	-14.51
197.966	63.32
198.185	108.37
198.404	-37.03
198.623	67.41
198.842	44.88
199.062	14.17
199.281	69.46
199.5	55.12
199.719	75.6
199.938	-0.17
200.157	63.32
200.376	42.84
200.595	10.07
200.814	85.84
201.033	-39.08
201.252	-10.41
201.471	-43.18
201.69	79.7
201.909	-53.42
202.128	36.69
202.347	1.88
202.566	55.12
202.785	-80.04
203.004	-55.47
203.223	1.88
203.442	51.03
203.661	65.36
203.879	-59.56
204.098	53.08
204.317	-30.89
204.536	75.6
204.755	-26.79
204.974	-18.6
205.193	-2.22
205.411	46.93
205.63	-12.46
205.849	24.4
206.068	40.79
206.287	44.88
206.505	-6.31
206.724	26.45
206.943	1.88
207.162	51.03
207.381	34.64
207.599	20.31
207.818	-30.89
208.037	-30.89
208.255	38.74
208.474	-18.6
208.693	12.12
208.911	12.12
209.13	-4.27
209.349	18.26
209.567	57.17
209.786	3.93
210.005	71.51
210.223	57.17
210.442	-80.04
210.661	-16.55
210.879	22.36
211.098	-8.36
211.316	-34.99
211.535	79.7
211.753	40.79
211.972	1.88
212.191	-30.89
212.409	51.03
212.628	26.45
212.846	24.4
213.065	12.12
213.283	24.4
213.502	3.93
213.72	61.27
213.938	-28.84
214.157	108.37
214.375	59.22
214.594	-12.46
214.812	44.88
215.031	10.07
215.249	-49.32
215.467	51.03
215.686	-4.27
215.904	-20.65
216.122	42.84
216.341	77.65
216.559	-57.51
216.778	10.07
216.996	34.64
217.214	1.88
217.432	18.26
217.651	-63.66
217.869	-118.95
218.087	14.17
218.306	-24.75
218.524	85.84
218.742	-16.55
218.96	36.69
219.179	10.07
219.397	-28.84
219.615	77.65
219.833	79.7
220.051	-26.79
220.27	69.46
220.488	-20.65
220.706	36.69
220.924	-82.09
221.142	61.27
221.36	-14.51
221.578	63.32
221.796	20.31
222.015	-0.17
222.233	-28.84
222.451	77.65
222.669	57.17
222.887	1.88
223.105	-39.08
223.323	18.26
223.541	-20.65
223.759	-39.08
223.977	28.5
224.195	100.18
224.413	57.17
224.631	-12.46
224.849	24.4
225.067	100.18
225.285	-45.23
225.503	34.64
225.721	-28.84
225.939	1.88
226.157	-14.51
226.375	91.99
226.592	-18.6
226.81	-26.79
227.028	-6.31
227.246	34.64
227.464	22.36
227.682	36.69
227.9	5.97
228.117	26.45
228.335	-43.18
228.553	-14.51
228.771	16.21
228.989	20.31
229.206	22.36
229.424	-6.31
229.642	20.31
229.86	-14.51
230.077	1.88
230.295	42.84
230.513	26.45
230.731	36.69
230.948	32.6
231.166	55.12
231.384	44.88
231.601	-28.84
231.819	67.41
232.037	38.74
232.254	20.31
232.472	51.03
232.689	-22.7
232.907	22.36
233.125	59.22
233.342	-26.79
233.56	42.84
233.777	16.21
233.995	-43.18
234.213	69.46
234.43	91.99
234.648	14.17
234.865	63.32
235.083	38.74
235.3	-28.84
235.518	12.12
235.735	34.64
235.953	28.5
236.17	-30.89
236.388	36.69
236.605	-30.89
236.822	46.93
237.04	3.93
237.257	-37.03
237.475	-47.27
237.692	16.21
237.909	71.51
238.127	-20.65
238.344	51.03
238.562	36.69
238.779	-10.41
238.996	-18.6
239.214	-12.46
239.431	-30.89
239.648	-47.27
239.865	12.12
240.083	-20.65
240.3	-28.84
240.517	3.93
240.735	44.88
240.952	51.03
241.169	10.07
241.386	-39.08
241.603	55.12
241.821	-20.65
242.038	16.21
242.255	-30.89
242.472	55.12
242.689	-20.65
242.907	55.12
243.124	-30.89
243.341	85.84
243.558	1.88
243.775	-41.13
243.992	-63.66
244.209	-2.22
244.426	67.41
244.643	42.84
244.86	34.64
245.078	-24.75
245.295	51.03
245.512	104.28
245.729	30.55
245.946	12.12
246.163	36.69
246.38	36.69
246.597	61.27
246.814	10.07
247.031	-24.75
247.248	48.98
247.464	126.8
247.681	-4.27
247.898	36.69
248.115	-18.6
248.332	-30.89
248.549	-20.65
248.766	55.12
248.983	-0.17
249.2	-22.7
249.417	114.52
249.633	-43.18
249.85	-10.41
250.067	-104.62
250.284	34.64
250.501	-14.51
250.717	20.31
250.934	-6.31
251.151	57.17
251.368	-34.99
251.585	63.32
251.801	-45.23
252.018	-30.89
252.235	51.03
252.451	3.93
252.668	53.08
252.885	108.37
253.102	1.88
253.318	10.07
253.535	1.88
253.752	-6.31
253.968	-67.75
254.185	5.97
254.401	42.84
254.618	83.8
254.835	-61.61
255.051	22.36
255.268	44.88
255.484	-16.55
255.701	137.04
255.917	30.55
256.134	-18.6
256.351	38.74
256.567	10.07
256.784	12.12
257	-18.6
257.217	55.12
257.433	-71.85
257.65	26.45
257.866	44.88
258.082	-61.61
258.299	1.88
258.515	57.17
258.732	-6.31
258.948	-43.18
259.165	-12.46
259.381	38.74
259.597	-18.6
259.814	28.5
260.03	-16.55
260.246	-53.42
260.463	18.26
260.679	51.03
260.895	3.93
261.112	-63.66
261.328	-39.08
261.544	-2.22
261.761	112.47
261.977	-18.6
262.193	26.45
262.409	3.93
262.626	-14.51
262.842	-4.27
263.058	-49.32
263.274	53.08
263.49	-51.37
263.707	-22.7
263.923	-55.47
264.139	3.93
264.355	-6.31
264.571	77.65
264.787	22.36
265.004	5.97
265.22	36.69
265.436	-75.95
265.652	-6.31
265.868	44.88
266.084	-63.66
266.3	44.88
266.516	-24.75
266.732	-2.22
266.948	44.88
267.164	-22.7
267.38	-30.89
267.596	67.41
267.812	5.97
268.028	-30.89
268.244	5.97
268.46	38.74
268.676	10.07
268.892	51.03
269.108	8.02
269.324	-28.84
269.54	1.88
269.756	46.93
269.972	-43.18
270.188	46.93
270.403	34.64
270.619	38.74
270.835	34.64
271.051	75.6
271.267	-4.27
271.483	26.45
271.698	-45.23
271.914	-2.22
272.13	75.6
272.346	-10.41
272.562	-0.17
272.777	59.22
272.993	-45.23
273.209	-57.51
273.425	83.8
273.64	-63.66
273.856	34.64
274.072	20.31
274.287	1.88
274.503	59.22
274.719	53.08
274.934	-96.43
275.15	-28.84
275.366	59.22
275.581	-6.31
275.797	5.97
276.012	18.26
276.228	14.17
276.444	-75.95
276.659	-14.51
276.875	22.36
277.09	12.12
277.306	10.07
277.521	18.26
277.737	30.55
277.952	48.98
278.168	-49.32
278.383	38.74
278.599	16.21
278.814	-6.31
279.03	51.03
279.245	-10.41
279.461	34.64
279.676	12.12
279.892	5.97
280.107	14.17
280.322	-53.42
280.538	-41.13
280.753	-30.89
280.969	14.17
281.184	-20.65
281.399	28.5
281.615	-65.71
281.83	42.84
282.045	18.26
282.26	3.93
282.476	-0.17
282.691	-12.46
282.906	3.93
283.122	-47.27
283.337	-57.51
283.552	-22.7
283.767	-53.42
283.983	69.46
284.198	-12.46
284.413	57.17
284.628	-45.23
284.843	-22.7
285.058	14.17
285.274	-0.17
285.489	-22.7
285.704	18.26
285.919	18.26
286.134	3.93
286.349	53.08
286.564	-28.84
286.779	67.41
286.995	26.45
287.21	20.31
287.425	14.17
287.64	-2.22
287.855	59.22
288.07	-45.23
288.285	-22.7
288.5	73.56
288.715	-4.27
288.93	-14.51
289.145	-28.84
289.36	38.74
289.575	18.26
289.79	75.6
290.004	18.26
290.219	30.55
290.434	51.03
290.649	42.84
290.864	32.6
291.079	-12.46
291.294	-55.47
291.509	61.27
291.724	75.6
291.938	-63.66
292.153	59.22
292.368	-49.32
292.583	91.99
292.798	46.93
293.012	14.17
293.227	-28.84
293.442	18.26
293.657	22.36
293.871	28.5
294.086	3.93
294.301	81.75
294.516	36.69
294.73	81.75
294.945	22.36
295.16	-63.66
295.374	12.12
295.589	106.32
295.804	20.31
296.018	46.93
296.233	87.89
296.447	-18.6
296.662	-96.43
296.877	46.93
297.091	59.22
297.306	44.88
297.52	-12.46
297.735	26.45
297.949	55.12
298.164	-4.27
298.378	-24.75
298.593	1.88
298.807	-20.65
299.022	36.69
299.236	-39.08
299.451	-20.65
299.665	-30.89
299.88	-28.84
300.094	-10.41
300.309	18.26
300.523	1.88
300.737	59.22
300.952	-16.55
301.166	28.5
301.381	-6.31
301.595	-6.31
301.809	-22.7
302.024	-4.27
302.238	-12.46
302.452	-2.22
302.667	61.27
302.881	69.46
303.095	26.45
303.309	22.36
303.524	55.12
303.738	-6.31
303.952	1.88
304.166	53.08
304.381	-34.99
304.595	87.89
304.809	5.97
305.023	12.12
305.237	22.36
305.452	18.26
305.666	53.08
305.88	67.41
306.094	61.27
306.308	10.07
306.522	53.08
306.736	24.4
306.95	14.17
307.164	-14.51
307.379	-14.51
307.593	30.55
307.807	10.07
308.021	53.08
308.235	26.45
308.449	-59.56
308.663	-4.27
308.877	89.94
309.091	-10.41
309.305	16.21
309.519	-55.47
309.733	28.5
309.947	-61.61
310.161	-39.08
310.374	-4.27
310.588	3.93
310.802	-12.46
311.016	53.08
311.23	67.41
311.444	14.17
311.658	51.03
311.872	-4.27
312.085	-4.27
312.299	51.03
312.513	59.22
312.727	71.51
312.941	22.36
313.154	30.55
313.368	-12.46
313.582	61.27
313.796	-22.7
314.009	-43.18
314.223	81.75
314.437	-6.31
314.651	-6.31
314.864	-6.31
315.078	61.27
315.292	69.46
315.505	-14.51
315.719	-6.31
315.933	75.6
316.146	5.97
316.36	55.12
316.573	3.93
316.787	-24.75
317.001	10.07
317.214	28.5
317.428	-10.41
317.641	-4.27
317.855	-10.41
318.068	100.18
318.282	83.8
318.495	59.22
318.709	30.55
318.922	1.88
319.136	73.56
319.349	22.36
319.563	-2.22
319.776	-55.47
319.99	20.31
320.203	53.08
320.417	1.88
320.63	77.65
320.843	51.03
321.057	-39.08
321.27	-61.61
321.483	61.27
321.697	63.32
321.91	3.93
322.124	-32.94
322.337	-14.51
322.55	-0.17
322.763	61.27
322.977	-18.6
323.19	10.07
323.403	36.69
323.617	8.02
323.83	14.17
324.043	38.74
324.256	10.07
324.469	-4.27
324.683	-2.22
324.896	67.41
325.109	67.41
325.322	-39.08
325.535	20.31
325.748	73.56
325.962	-34.99
326.175	100.18
326.388	-53.42
326.601	-6.31
326.814	42.84
327.027	34.64
327.24	77.65
327.453	22.36
327.666	34.64
327.879	34.64
328.092	28.5
328.305	42.84
328.518	-12.46
328.731	-22.7
328.944	28.5
329.157	51.03
329.37	30.55
329.583	94.04
329.796	-0.17
330.009	-24.75
330.222	26.45
330.435	5.97
330.648	26.45
330.861	-4.27
331.073	-0.17
331.286	122.71
331.499	44.88
331.712	26.45
331.925	-6.31
332.138	-55.47
332.35	61.27
332.563	-61.61
332.776	18.26
332.989	-47.27
333.202	-18.6
333.414	55.12
333.627	34.64
333.84	-41.13
334.053	55.12
334.265	1.88
334.478	-96.43
334.691	34.64
334.903	5.97
335.116	-96.43
335.329	-0.17
335.541	-6.31
335.754	118.61
335.966	-20.65
336.179	-20.65
336.392	79.7
336.604	-63.66
336.817	75.6
337.029	-2.22
337.242	-30.89
337.454	44.88
337.667	20.31
337.88	-2.22
338.092	83.8
338.305	46.93
338.517	1.88
338.729	26.45
338.942	48.98
339.154	-39.08
339.367	-69.8
339.579	61.27
339.792	-39.08
340.004	1.88
340.217	67.41
340.429	26.45
340.641	-14.51
340.854	-26.79
341.066	-12.46
341.278	18.26
341.491	44.88
341.703	48.98
341.915	-10.41
342.128	18.26
342.34	14.17
342.552	-14.51
342.764	-6.31
342.977	3.93
343.189	-4.27
343.401	-22.7
343.613	22.36
343.826	14.17
344.038	36.69
344.25	59.22
344.462	-16.55
344.674	3.93
344.886	1.88
345.099	-6.31
345.311	34.64
345.523	-14.51
345.735	36.69
345.947	-12.46
346.159	12.12
346.371	1.88
346.583	30.55
346.795	30.55
347.007	-41.13
347.219	42.84
347.431	-10.41
347.643	22.36
347.855	-30.89
348.067	85.84
348.279	-30.89
348.491	-22.7
348.703	36.69
348.915	-6.31
349.127	-32.94
349.339	28.5
349.551	20.31
349.763	-14.51
349.975	16.21
350.187	14.17
350.399	67.41
350.61	-6.31
350.822	-28.84
351.034	100.18
351.246	-8.36
351.458	71.51
351.669	1.88
351.881	14.17
352.093	-2.22
352.305	5.97
352.517	-22.7
352.728	28.5
352.94	-43.18
353.152	18.26
353.363	18.26
353.575	5.97
353.787	51.03
353.999	34.64
354.21	36.69
354.422	-39.08
354.633	40.79
354.845	36.69
355.057	24.4
355.268	81.75
355.48	18.26
355.692	-30.89
355.903	20.31
356.115	22.36
356.326	-6.31
356.538	-39.08
356.749	24.4
356.961	40.79
357.172	42.84
357.384	126.8
357.595	61.27
357.807	34.64
358.018	32.6
358.23	-53.42
358.441	71.51
358.653	28.5
358.864	108.37
359.075	5.97
359.287	61.27
359.498	5.97
359.709	-12.46
359.921	-26.79
360.132	-12.46
360.344	42.84
360.555	-53.42
360.766	-4.27
360.977	-18.6
361.189	38.74
361.4	-8.36
361.611	59.22
361.823	24.4
362.034	128.85
362.245	-114.86
362.456	-14.51
362.667	-32.94
362.879	26.45
363.09	14.17
363.301	51.03
363.512	28.5
363.723	40.79
363.935	-30.89
364.146	26.45
364.357	-26.79
364.568	61.27
364.779	28.5
364.99	5.97
365.201	-22.7
365.412	20.31
365.623	-59.56
365.834	40.79
366.045	10.07
366.256	1.88
366.467	-47.27
366.678	42.84
366.889	10.07
367.1	-4.27
367.311	14.17
367.522	14.17
367.733	22.36
367.944	-20.65
368.155	51.03
368.366	8.02
368.577	100.18
368.788	46.93
368.999	94.04
369.209	38.74
369.42	42.84
369.631	-20.65
369.842	30.55
370.053	42.84
370.264	59.22
370.474	3.93
370.685	34.64
370.896	65.36
371.107	5.97
371.317	28.5
371.528	34.64
371.739	24.4
371.95	-10.41
372.16	73.56
372.371	-20.65
372.582	26.45
372.792	-51.37
373.003	59.22
373.214	44.88
373.424	-10.41
373.635	-26.79
373.846	12.12
374.056	81.75
374.267	-26.79
374.477	38.74
374.688	18.26
374.898	-22.7
375.109	69.46
375.319	-8.36
375.53	51.03
375.74	44.88
375.951	36.69
376.161	38.74
376.372	1.88
376.582	18.26
376.793	59.22
377.003	38.74
377.214	10.07
377.424	14.17
377.635	34.64
377.845	-10.41
378.055	100.18
378.266	-41.13
378.476	69.46
378.686	18.26
378.897	44.88
379.107	-26.79
379.317	-49.32
379.528	53.08
379.738	-0.17
379.948	-8.36
380.158	-28.84
380.369	-6.31
380.579	-39.08
380.789	-2.22
380.999	1.88
381.21	-45.23
381.42	34.64
381.63	10.07
381.84	-22.7
382.05	34.64
382.261	46.93
382.471	96.08
382.681	-16.55
382.891	87.89
383.101	10.07
383.311	20.31
383.521	94.04
383.731	18.26
383.941	44.88
384.151	87.89
384.361	55.12
384.571	34.64
384.781	-30.89
384.991	28.5
385.201	34.64
385.411	38.74
385.621	-20.65
385.831	-37.03
386.041	-30.89
386.251	1.88
386.461	36.69
386.671	-28.84
386.881	20.31
387.091	-26.79
387.301	34.64
387.511	-8.36
387.72	-10.41
387.93	102.23
388.14	-49.32
388.35	34.64
388.56	51.03
388.769	83.8
388.979	1.88
389.189	1.88
389.399	26.45
389.609	5.97
389.818	-18.6
390.028	46.93
390.238	18.26
390.447	-30.89
390.657	71.51
390.867	28.5
391.076	34.64
391.286	42.84
391.496	5.97
391.705	65.36
391.915	40.79
392.125	42.84
392.334	83.8
392.544	12.12
392.753	-41.13
392.963	30.55
393.172	36.69
393.382	-45.23
393.591	59.22
393.801	-41.13
394.01	137.04
394.22	34.64
394.429	-10.41
394.639	-2.22
394.848	18.26
395.058	-12.46
395.267	69.46
395.477	69.46
395.686	36.69
395.895	20.31
396.105	96.08
396.314	61.27
396.524	34.64
396.733	42.84
396.942	122.71
397.152	26.45
397.361	79.7
397.57	22.36
397.78	18.26
397.989	-8.36
398.198	143.19
398.407	20.31
398.617	-32.94
398.826	81.75
399.035	34.64
399.244	22.36
399.453	1.88
399.663	44.88
399.872	75.6
400.081	-12.46
400.29	87.89
400.499	-55.47
400.708	61.27
400.917	38.74
401.127	26.45
401.336	34.64
401.545	63.32
401.754	36.69
401.963	57.17
402.172	71.51
402.381	28.5
402.59	96.08
402.799	114.52
403.008	20.31
403.217	22.36
403.426	26.45
403.635	46.93
403.844	-4.27
404.053	55.12
404.262	42.84
404.471	69.46
404.68	40.79
404.888	116.56
405.097	-0.17
405.306	87.89
405.515	85.84
405.724	69.46
405.933	116.56
406.142	94.04
406.35	182.1
406.559	83.8
406.768	91.99
406.977	91.99
407.185	77.65
407.394	96.08
407.603	124.76
407.812	108.37
408.02	151.38
408.229	165.71
408.438	141.14
408.646	94.04
408.855	94.04
409.064	118.61
409.272	192.34
409.481	225.11
409.69	194.39
409.898	132.95
410.107	120.66
410.315	161.62
410.524	157.52
410.733	159.57
410.941	171.86
411.15	167.76
411.358	214.87
411.567	235.35
411.775	175.95
411.984	178
412.192	264.02
412.401	178
412.609	319.31
412.818	241.49
413.026	288.59
413.234	321.36
413.443	309.07
413.651	345.94
413.86	251.73
414.068	243.54
414.276	419.66
414.485	415.57
414.693	390.99
414.901	337.74
415.11	388.94
415.318	378.7
415.526	442.19
415.734	454.48
415.943	390.99
416.151	456.53
416.359	364.37
416.567	532.3
416.776	477.01
416.984	544.59
417.192	583.5
417.4	542.54
417.608	526.16
417.817	460.62
418.025	517.97
418.233	681.8
418.441	542.54
418.649	655.18
418.857	692.04
419.065	776.01
419.273	665.42
419.481	735.05
419.689	790.35
419.897	749.39
420.105	839.5
420.313	839.5
420.521	896.84
420.729	964.42
420.937	960.33
421.145	929.61
421.353	911.18
421.561	1077.06
421.769	1050.44
421.977	1107.78
422.185	1204.03
422.393	1165.12
422.601	1271.62
422.809	1220.42
423.017	1279.81
423.224	1386.3
423.432	1363.78
423.64	1283.91
423.848	1468.22
424.056	1480.51
424.263	1525.57
424.471	1556.29
424.679	1632.06
424.887	1752.89
425.094	1713.98
425.302	1779.51
425.51	1697.6
425.718	1939.26
425.925	2010.93
426.133	1886.01
426.341	2062.13
426.548	2287.41
426.756	2074.42
426.964	2152.24
427.171	2225.97
427.379	2332.47
427.586	2332.47
427.794	2486.06
428.001	2498.35
428.209	2778.92
428.417	2615.09
428.624	2821.93
428.832	2778.92
429.039	2731.82
429.247	2809.64
429.454	3079.97
429.662	3319.59
429.869	2926.38
430.076	3323.68
430.284	3118.89
430.491	3313.44
430.699	3477.28
430.906	3491.62
431.114	3575.58
431.321	3614.49
431.528	3729.18
431.736	3985.18
431.943	4165.4
432.15	4058.9
432.358	4151.06
432.565	4284.18
432.772	4189.97
432.979	4554.51
433.187	4568.85
433.394	4599.57
433.601	4767.5
433.808	4988.68
434.016	4953.87
434.223	5033.74
434.43	5531.39
434.637	5406.47
434.844	5678.85
435.052	5920.51
435.259	5652.22
435.466	5764.86
435.673	5631.74
435.88	6199.03
436.087	6526.71
436.294	6264.57
436.501	5988.09
436.708	6293.24
436.915	6627.06
437.122	6887.15
437.329	7020.27
437.537	7007.98
437.743	7014.12
437.95	7270.12
438.157	7513.83
438.364	7571.17
438.571	7743.2
438.778	7667.42
438.985	8607.44
439.192	8117.98
439.399	8464.08
439.606	8160.98
439.813	8787.66
440.02	9119.43
440.227	9279.18
440.433	8976.08
440.64	9176.78
440.847	9021.13
441.054	9340.61
441.261	9895.61
441.467	9963.2
441.674	9967.29
441.881	10430.13
442.088	10372.79
442.294	10317.5
442.501	10520.24
442.708	10671.79
442.914	11228.84
443.121	11626.15
443.328	11302.57
443.534	12228.25
443.741	11708.07
443.948	11683.49
444.154	12285.59
444.361	12363.42
444.568	12357.27
444.774	12375.7
444.981	12517.01
445.187	12951.18
445.394	13448.84
445.6	13297.29
445.807	14532.22
446.013	13840
446.22	14239.36
446.426	14765.68
446.633	14904.95
446.839	15631.97
447.046	14814.84
447.252	15445.61
447.459	15533.67
447.665	15703.65
447.871	16166.49
448.078	16868.95
448.284	16340.57
448.491	16533.08
448.697	17495.63
448.903	17557.07
449.11	17618.5
449.316	17196.62
449.522	17618.5
449.728	17956.42
449.935	18359.87
450.141	18052.67
450.347	18490.94
450.553	18267.71
450.76	18267.71
450.966	19009.08
451.172	18521.66
451.378	19535.4
451.584	18570.81
451.791	19131.95
451.997	19246.64
452.203	19564.07
452.409	19768.87
452.615	19445.29
452.821	18791.99
453.027	18679.35
453.233	19727.91
453.44	18826.81
453.646	19369.52
453.852	19346.99
454.058	19674.67
454.264	18933.3
454.47	19514.92
454.676	18722.36
454.882	19545.64
455.088	17903.17
455.294	18064.96
455.5	18292.29
455.705	18943.54
455.911	17983.04
456.117	17774.15
456.323	17317.45
456.529	16582.23
456.735	17237.58
456.941	16926.29
457.147	16586.33
457.352	16006.75
457.558	15867.49
457.764	16016.99
457.97	15732.33
458.176	15484.52
458.381	15523.43
458.587	14681.72
458.793	14616.18
458.999	13940.35
459.204	15093.36
459.41	14370.43
459.616	13502.09
459.821	13448.84
460.027	13436.55
460.233	13260.43
460.438	12547.73
460.644	13029.01
460.85	12287.64
461.055	11839.14
461.261	12029.6
461.466	10892.98
461.672	10813.1
461.878	11445.93
462.083	10378.93
462.289	10575.54
462.494	10319.54
462.7	9895.61
462.905	9606.85
463.111	9987.77
463.316	10188.47
463.522	9707.2
463.727	9789.12
463.932	9627.33
464.138	9772.74
464.343	9651.91
464.549	9377.48
464.754	9594.56
464.959	9490.12
465.165	9514.69
465.37	9068.23
465.575	8830.67
465.781	9410.25
465.986	9191.11
466.191	9021.13
466.397	8734.42
466.602	8425.17
466.807	8740.56
467.012	8603.35
467.218	8468.18
467.423	8619.73
