Data from USB4F104151__3__14-15-54-485.txt Node

Date: Thu Mar 13 14:15:54 EDT 2025
User: louis
Spectrometer: USB4F10415
Trigger mode: 4
Integration Time (sec): 2.000000E-2
Scans to average: 1
Electric dark correction enabled: true
Nonlinearity correction enabled: false
Boxcar width: 0
XAxis mode: Wavelengths
Number of Pixels in Spectrum: 3648
>>>>>Begin Spectral Data<<<<<
178.204	-88.06
178.424	-88.06
178.644	-88.06
178.864	-65.53
179.084	-73.73
179.304	-12.29
179.524	-20.48
179.744	12.29
179.964	32.77
180.184	106.49
180.404	16.38
180.624	-32.77
180.844	-16.38
181.064	-34.82
181.283	-30.72
181.503	-28.67
181.723	8.19
181.943	14.34
182.163	22.53
182.383	12.29
182.602	40.96
182.822	47.1
183.042	26.62
183.262	114.69
183.482	45.06
183.701	45.06
183.921	57.34
184.141	-24.58
184.361	63.49
184.58	-16.38
184.8	-22.53
185.02	22.53
185.239	10.24
185.459	6.14
185.679	65.54
185.898	-16.38
186.118	40.96
186.338	36.86
186.557	45.06
186.777	-4.1
186.997	57.34
187.216	49.15
187.436	57.34
187.655	-2.05
187.875	-49.15
188.095	57.34
188.314	79.87
188.534	12.29
188.753	-47.1
188.973	-53.25
189.192	49.15
189.412	-59.39
189.631	38.91
189.851	32.77
190.07	69.63
190.29	-86.01
190.509	51.2
190.729	-65.53
190.948	12.29
191.168	90.11
191.387	36.86
191.607	36.86
191.826	2.05
192.045	-32.77
192.265	-26.62
192.484	18.43
192.704	4.1
192.923	8.19
193.142	100.35
193.362	69.63
193.581	75.77
193.8	-4.1
194.02	77.82
194.239	-14.34
194.458	67.58
194.678	-34.82
194.897	16.38
195.116	59.39
195.335	83.97
195.555	-36.86
195.774	12.29
195.993	-26.62
196.212	34.82
196.432	20.48
196.651	-16.38
196.87	14.34
197.089	51.2
197.308	86.01
197.528	-16.38
197.747	-6.14
197.966	26.62
198.185	69.63
198.404	81.92
198.623	-8.19
198.842	0
199.062	104.45
199.281	98.3
199.5	24.58
199.719	61.44
199.938	53.25
200.157	59.39
200.376	24.58
200.595	8.19
200.814	-32.77
201.033	16.38
201.252	4.1
201.471	-8.19
201.69	8.19
201.909	32.77
202.128	24.58
202.347	34.82
202.566	22.53
202.785	-40.96
203.004	18.43
203.223	40.96
203.442	8.19
203.661	57.34
203.879	32.77
204.098	94.21
204.317	-32.77
204.536	59.39
204.755	-30.72
204.974	22.53
205.193	18.43
205.411	57.34
205.63	-10.24
205.849	57.34
206.068	22.53
206.287	36.86
206.505	49.15
206.724	-65.53
206.943	16.38
207.162	2.05
207.381	8.19
207.599	79.87
207.818	36.86
208.037	20.48
208.255	6.14
208.474	49.15
208.693	38.91
208.911	-63.49
209.13	-8.19
209.349	45.06
209.567	69.63
209.786	34.82
210.005	94.21
210.223	-20.48
210.442	-75.77
210.661	-8.19
210.879	32.77
211.098	49.15
211.316	55.3
211.535	43.01
211.753	2.05
211.972	-24.58
212.191	-4.1
212.409	16.38
212.628	8.19
212.846	57.34
213.065	45.06
213.283	100.35
213.502	-8.19
213.72	14.34
213.938	26.62
214.157	36.86
214.375	-12.29
214.594	-32.77
214.812	24.58
215.031	-26.62
215.249	8.19
215.467	-20.48
215.686	20.48
215.904	24.58
216.122	10.24
216.341	98.3
216.559	51.2
216.778	-20.48
216.996	36.86
217.214	67.58
217.432	32.77
217.651	-40.96
217.869	2.05
218.087	12.29
218.306	-12.29
218.524	59.39
218.742	-14.34
218.96	34.82
219.179	-12.29
219.397	36.86
219.615	59.39
219.833	51.2
220.051	-26.62
220.27	-12.29
220.488	57.34
220.706	49.15
220.924	40.96
221.142	73.73
221.36	-24.58
221.578	32.77
221.796	-4.1
222.015	38.91
222.233	0
222.451	75.77
222.669	2.05
222.887	32.77
223.105	-20.48
223.323	81.92
223.541	40.96
223.759	28.67
223.977	81.92
224.195	104.45
224.413	0
224.631	63.49
224.849	8.19
225.067	65.54
225.285	12.29
225.503	32.77
225.721	-30.72
225.939	-4.1
226.157	81.92
226.375	131.07
226.592	-57.34
226.81	16.38
227.028	110.59
227.246	90.11
227.464	-26.62
227.682	36.86
227.9	43.01
228.117	10.24
228.335	96.25
228.553	92.16
228.771	28.67
228.989	65.54
229.206	34.82
229.424	8.19
229.642	61.44
229.86	43.01
230.077	20.48
230.295	69.63
230.513	51.2
230.731	43.01
230.948	75.77
231.166	94.21
231.384	-32.77
231.601	10.24
231.819	45.06
232.037	34.82
232.254	-6.14
232.472	106.49
232.689	-2.05
232.907	16.38
233.125	0
233.342	16.38
233.56	22.53
233.777	-14.34
233.995	49.15
234.213	59.39
234.43	10.24
234.648	65.54
234.865	-26.62
235.083	92.16
235.3	16.38
235.518	65.54
235.735	43.01
235.953	34.82
236.17	49.15
236.388	36.86
236.605	45.06
236.822	57.34
237.04	10.24
237.257	10.24
237.475	47.1
237.692	12.29
237.909	90.11
238.127	61.44
238.344	16.38
238.562	65.54
238.779	-6.14
238.996	-12.29
239.214	-8.19
239.431	-4.1
239.648	36.86
239.865	-8.19
240.083	2.05
240.3	36.86
240.517	18.43
240.735	-14.34
240.952	59.39
241.169	10.24
241.386	-24.58
241.603	-14.34
241.821	67.58
242.038	71.68
242.255	18.43
242.472	16.38
242.689	16.38
242.907	16.38
243.124	-24.58
243.341	36.86
243.558	43.01
243.775	-73.73
243.992	-24.58
244.209	106.49
244.426	65.54
244.643	81.92
244.86	2.05
245.078	24.58
245.295	53.25
245.512	26.62
245.729	8.19
245.946	-24.58
246.163	47.1
246.38	10.24
246.597	-32.77
246.814	10.24
247.031	81.92
247.248	32.77
247.464	6.14
247.681	26.62
247.898	-2.05
248.115	45.06
248.332	-67.58
248.549	20.48
248.766	116.73
248.983	12.29
249.2	34.82
249.417	2.05
249.633	6.14
249.85	149.5
250.067	14.34
250.284	38.91
250.501	24.58
250.717	0
250.934	-6.14
251.151	-40.96
251.368	110.59
251.585	55.3
251.801	-67.58
252.018	-6.14
252.235	45.06
252.451	53.25
252.668	59.39
252.885	14.34
253.102	0
253.318	-12.29
253.535	26.62
253.752	-30.72
253.968	8.19
254.185	40.96
254.401	47.1
254.618	0
254.835	45.06
255.051	53.25
255.268	-14.34
255.484	43.01
255.701	-57.34
255.917	-14.34
256.134	47.1
256.351	43.01
256.567	26.62
256.784	-22.53
257	63.49
257.217	49.15
257.433	40.96
257.65	90.11
257.866	14.34
258.082	-8.19
258.299	-8.19
258.515	51.2
258.732	4.1
258.948	65.54
259.165	-6.14
259.381	26.62
259.597	28.67
259.814	28.67
260.03	10.24
260.246	77.82
260.463	16.38
260.679	65.54
260.895	-28.67
261.112	81.92
261.328	20.48
261.544	-2.05
261.761	73.73
261.977	22.53
262.193	77.82
262.409	43.01
262.626	47.1
262.842	34.82
263.058	-53.25
263.274	16.38
263.49	36.86
263.707	28.67
263.923	69.63
264.139	-18.43
264.355	57.34
264.571	20.48
264.787	-30.72
265.004	90.11
265.22	67.58
265.436	98.3
265.652	34.82
265.868	53.25
266.084	28.67
266.3	10.24
266.516	-32.77
266.732	24.58
266.948	18.43
267.164	75.77
267.38	-14.34
267.596	61.44
267.812	114.69
268.028	108.54
268.244	59.39
268.46	36.86
268.676	45.06
268.892	51.2
269.108	40.96
269.324	-57.34
269.54	2.05
269.756	90.11
269.972	-12.29
270.188	49.15
270.403	-12.29
270.619	49.15
270.835	14.34
271.051	65.54
271.267	0
271.483	65.54
271.698	49.15
271.914	8.19
272.13	10.24
272.346	0
272.562	61.44
272.777	26.62
272.993	-22.53
273.209	65.54
273.425	79.87
273.64	-36.86
273.856	77.82
274.072	-53.25
274.287	67.58
274.503	-2.05
274.719	75.77
274.934	8.19
275.15	22.53
275.366	-4.1
275.581	10.24
275.797	61.44
276.012	24.58
276.228	59.39
276.444	6.14
276.659	36.86
276.875	-4.1
277.09	24.58
277.306	6.14
277.521	61.44
277.737	-40.96
277.952	65.54
278.168	18.43
278.383	38.91
278.599	-8.19
278.814	36.86
279.03	61.44
279.245	-32.77
279.461	-4.1
279.676	12.29
279.892	55.3
280.107	-22.53
280.322	24.58
280.538	65.54
280.753	57.34
280.969	96.25
281.184	10.24
281.399	57.34
281.615	106.49
281.83	-22.53
282.045	-24.58
282.26	57.34
282.476	-14.34
282.691	10.24
282.906	-8.19
283.122	8.19
283.337	38.91
283.552	40.96
283.767	98.3
283.983	-32.77
284.198	20.48
284.413	59.39
284.628	-40.96
284.843	59.39
285.058	24.58
285.274	-12.29
285.489	-12.29
285.704	51.2
285.919	24.58
286.134	49.15
286.349	24.58
286.564	65.54
286.779	-32.77
286.995	16.38
287.21	-22.53
287.425	51.2
287.64	0
287.855	63.49
288.07	49.15
288.285	51.2
288.5	26.62
288.715	45.06
288.93	-8.19
289.145	-20.48
289.36	94.21
289.575	45.06
289.79	-53.25
290.004	49.15
290.219	51.2
290.434	-40.96
290.649	28.67
290.864	26.62
291.079	2.05
291.294	57.34
291.509	108.54
291.724	-22.53
291.938	-12.29
292.153	18.43
292.368	43.01
292.583	28.67
292.798	43.01
293.012	28.67
293.227	-14.34
293.442	32.77
293.657	30.72
293.871	67.58
294.086	32.77
294.301	45.06
294.516	67.58
294.73	-24.58
294.945	-16.38
295.16	24.58
295.374	16.38
295.589	28.67
295.804	-28.67
296.018	-30.72
296.233	51.2
296.447	96.25
296.662	-4.1
296.877	106.49
297.091	47.1
297.306	8.19
297.52	73.73
297.735	51.2
297.949	53.25
298.164	108.54
298.378	92.16
298.593	24.58
298.807	24.58
299.022	6.14
299.236	40.96
299.451	-47.1
299.665	135.17
299.88	-36.86
300.094	28.67
300.309	20.48
300.523	34.82
300.737	71.68
300.952	71.68
301.166	40.96
301.381	10.24
301.595	-10.24
301.809	0
302.024	49.15
302.238	-8.19
302.452	92.16
302.667	28.67
302.881	36.86
303.095	100.35
303.309	38.91
303.524	-49.15
303.738	65.54
303.952	67.58
304.166	49.15
304.381	0
304.595	79.87
304.809	18.43
305.023	81.92
305.237	51.2
305.452	-6.14
305.666	65.54
305.88	69.63
306.094	90.11
306.308	-24.58
306.522	55.3
306.736	34.82
306.95	-30.72
307.164	57.34
307.379	0
307.593	65.54
307.807	67.58
308.021	81.92
308.235	61.44
308.449	34.82
308.663	-51.2
308.877	106.49
309.091	10.24
309.305	73.73
309.519	-24.58
309.733	22.53
309.947	2.05
310.161	43.01
310.374	73.73
310.588	98.3
310.802	12.29
311.016	49.15
311.23	-18.43
311.444	32.77
311.658	22.53
311.872	4.1
312.085	61.44
312.299	73.73
312.513	53.25
312.727	32.77
312.941	28.67
313.154	22.53
313.368	71.68
313.582	59.39
313.796	67.58
314.009	73.73
314.223	67.58
314.437	79.87
314.651	57.34
314.864	34.82
315.078	67.58
315.292	-36.86
315.505	18.43
315.719	61.44
315.933	4.1
316.146	36.86
316.36	57.34
316.573	51.2
316.787	24.58
317.001	69.63
317.214	12.29
317.428	55.3
317.641	-22.53
317.855	8.19
318.068	43.01
318.282	6.14
318.495	81.92
318.709	2.05
318.922	-2.05
319.136	81.92
319.349	8.19
319.563	81.92
319.776	51.2
319.99	2.05
320.203	-6.14
320.417	34.82
320.63	65.54
320.843	32.77
321.057	57.34
321.27	92.16
321.483	-24.58
321.697	83.97
321.91	65.54
322.124	45.06
322.337	61.44
322.55	-20.48
322.763	-22.53
322.977	49.15
323.19	34.82
323.403	16.38
323.617	-4.1
323.83	67.58
324.043	73.73
324.256	24.58
324.469	-10.24
324.683	53.25
324.896	-2.05
325.109	36.86
325.322	-8.19
325.535	55.3
325.748	-24.58
325.962	40.96
326.175	98.3
326.388	-18.43
326.601	4.1
326.814	-16.38
327.027	81.92
327.24	98.3
327.453	4.1
327.666	100.35
327.879	65.54
328.092	92.16
328.305	61.44
328.518	-22.53
328.731	10.24
328.944	90.11
329.157	12.29
329.37	20.48
329.583	92.16
329.796	116.73
330.009	22.53
330.222	40.96
330.435	83.97
330.648	49.15
330.861	51.2
331.073	-16.38
331.286	18.43
331.499	14.34
331.712	-2.05
331.925	-6.14
332.138	-4.1
332.35	59.39
332.563	2.05
332.776	57.34
332.989	-24.58
333.202	90.11
333.414	75.77
333.627	22.53
333.84	20.48
334.053	49.15
334.265	65.54
334.478	40.96
334.691	2.05
334.903	-8.19
335.116	45.06
335.329	0
335.541	55.3
335.754	75.77
335.966	24.58
336.179	2.05
336.392	43.01
336.604	81.92
336.817	12.29
337.029	-6.14
337.242	32.77
337.454	34.82
337.667	45.06
337.88	24.58
338.092	18.43
338.305	26.62
338.517	73.73
338.729	2.05
338.942	34.82
339.154	8.19
339.367	8.19
339.579	61.44
339.792	-104.45
340.004	53.25
340.217	-16.38
340.429	40.96
340.641	18.43
340.854	40.96
341.066	12.29
341.278	59.39
341.491	53.25
341.703	43.01
341.915	0
342.128	16.38
342.34	51.2
342.552	40.96
342.764	0
342.977	65.54
343.189	18.43
343.401	-14.34
343.613	2.05
343.826	133.12
344.038	-8.19
344.25	77.82
344.462	2.05
344.674	20.48
344.886	81.92
345.099	49.15
345.311	90.11
345.523	40.96
345.735	-51.2
345.947	106.49
346.159	0
346.371	90.11
346.583	34.82
346.795	57.34
347.007	57.34
347.219	0
347.431	59.39
347.643	122.88
347.855	30.72
348.067	59.39
348.279	-16.38
348.491	47.1
348.703	20.48
348.915	92.16
349.127	65.54
349.339	24.58
349.551	10.24
349.763	16.38
349.975	8.19
350.187	18.43
350.399	86.01
350.61	122.88
350.822	53.25
351.034	10.24
351.246	0
351.458	94.21
351.669	90.11
351.881	16.38
352.093	40.96
352.305	73.73
352.517	73.73
352.728	98.3
352.94	49.15
353.152	-24.58
353.363	55.3
353.575	98.3
353.787	53.25
353.999	65.54
354.21	71.68
354.422	57.34
354.633	16.38
354.845	110.59
355.057	0
355.268	65.54
355.48	124.93
355.692	12.29
355.903	16.38
356.115	116.73
356.326	-14.34
356.538	12.29
356.749	137.21
356.961	8.19
357.172	8.19
357.384	28.67
357.595	112.64
357.807	32.77
358.018	51.2
358.23	73.73
358.441	57.34
358.653	24.58
358.864	30.72
359.075	88.06
359.287	-14.34
359.498	69.63
359.709	2.05
359.921	90.11
360.132	-32.77
360.344	43.01
360.555	45.06
360.766	65.54
360.977	53.25
361.189	28.67
361.4	10.24
361.611	59.39
361.823	12.29
362.034	10.24
362.245	2.05
362.456	67.58
362.667	96.25
362.879	65.54
363.09	102.4
363.301	81.92
363.512	2.05
363.723	-20.48
363.935	77.82
364.146	16.38
364.357	-45.06
364.568	81.92
364.779	36.86
364.99	75.77
365.201	75.77
365.412	114.69
365.623	-30.72
365.834	28.67
366.045	-28.67
366.256	57.34
366.467	6.14
366.678	0
366.889	-32.77
367.1	18.43
367.311	133.12
367.522	65.54
367.733	20.48
367.944	57.34
368.155	90.11
368.366	51.2
368.577	98.3
368.788	4.1
368.999	-40.96
369.209	73.73
369.42	69.63
369.631	77.82
369.842	28.67
370.053	24.58
370.264	81.92
370.474	43.01
370.685	10.24
370.896	133.12
371.107	114.69
371.317	32.77
371.528	34.82
371.739	16.38
371.95	-8.19
372.16	-24.58
372.371	43.01
372.582	43.01
372.792	43.01
373.003	102.4
373.214	28.67
373.424	63.49
373.635	73.73
373.846	24.58
374.056	-30.72
374.267	90.11
374.477	90.11
374.688	-18.43
374.898	-6.14
375.109	36.86
375.319	108.54
375.53	122.88
375.74	-22.53
375.951	-34.82
376.161	36.86
376.372	59.39
376.582	-81.92
376.793	4.1
377.003	-24.58
377.214	24.58
377.424	40.96
377.635	98.3
377.845	81.92
378.055	81.92
378.266	-59.39
378.476	49.15
378.686	4.1
378.897	18.43
379.107	100.35
379.317	61.44
379.528	83.97
379.738	40.96
379.948	8.19
380.158	59.39
380.369	38.91
380.579	16.38
380.789	-14.34
380.999	73.73
381.21	28.67
381.42	114.69
381.63	0
381.84	131.07
382.05	24.58
382.261	57.34
382.471	65.54
382.681	-10.24
382.891	73.73
383.101	73.73
383.311	110.59
383.521	-12.29
383.731	73.73
383.941	49.15
384.151	77.82
384.361	98.3
384.571	40.96
384.781	83.97
384.991	71.68
385.201	124.93
385.411	75.77
385.621	10.24
385.831	139.26
386.041	34.82
386.251	65.54
386.461	79.87
386.671	-14.34
386.881	0
387.091	49.15
387.301	165.89
387.511	32.77
387.72	49.15
387.93	12.29
388.14	22.53
388.35	24.58
388.56	49.15
388.769	-24.58
388.979	34.82
389.189	-20.48
389.399	24.58
389.609	94.21
389.818	67.58
390.028	14.34
390.238	106.49
390.447	36.86
390.657	49.15
390.867	51.2
391.076	16.38
391.286	55.3
391.496	30.72
391.705	67.58
391.915	81.92
392.125	65.54
392.334	32.77
392.544	108.54
392.753	98.3
392.963	55.3
393.172	83.97
393.382	61.44
393.591	106.49
393.801	63.49
394.01	147.45
394.22	-4.1
394.429	92.16
394.639	100.35
394.848	116.73
395.058	34.82
395.267	129.02
395.477	94.21
395.686	100.35
395.895	96.25
396.105	88.06
396.314	159.74
396.524	79.87
396.733	32.77
396.942	174.08
397.152	129.02
397.361	157.69
397.57	88.06
397.78	124.93
397.989	163.84
398.198	110.59
398.407	120.83
398.617	34.82
398.826	139.26
399.035	94.21
399.244	147.45
399.453	180.22
399.663	75.77
399.872	133.12
400.081	75.77
400.29	155.65
400.499	100.35
400.708	75.77
400.917	151.55
401.127	61.44
401.336	34.82
401.545	94.21
401.754	212.99
401.963	149.5
402.172	55.3
402.381	149.5
402.59	149.5
402.799	131.07
403.008	186.37
403.217	147.45
403.426	104.45
403.635	167.93
403.844	139.26
404.053	139.26
404.262	155.65
404.471	180.22
404.68	157.69
404.888	141.31
405.097	139.26
405.306	112.64
405.515	135.17
405.724	108.54
405.933	126.97
406.142	165.89
406.35	243.71
406.559	147.45
406.768	194.56
406.977	229.37
407.185	215.04
407.394	159.74
407.603	155.65
407.812	253.95
408.02	247.8
408.229	229.37
408.438	245.76
408.646	272.38
408.855	282.62
409.064	253.95
409.272	294.91
409.481	354.3
409.69	258.04
409.898	274.43
410.107	319.48
410.315	321.53
410.524	325.63
410.733	364.54
410.941	370.68
411.15	393.21
411.358	385.02
411.567	421.88
411.775	471.03
411.984	503.8
412.192	405.5
412.401	401.4
412.609	598.01
412.818	577.53
413.026	409.59
413.234	540.66
413.443	544.76
413.651	552.95
413.86	608.25
414.068	696.31
414.276	655.35
414.485	577.53
414.693	598.01
414.901	702.45
415.11	739.32
415.318	772.08
415.526	786.42
415.734	839.67
415.943	858.1
416.151	909.3
416.359	831.48
416.567	890.87
416.776	1028.08
416.984	1064.94
417.192	999.41
417.4	1064.94
417.608	1046.51
417.817	1077.23
418.025	1107.95
418.233	1202.16
418.441	1150.96
418.649	1234.93
418.857	1306.6
419.065	1368.04
419.273	1300.46
419.481	1503.21
419.689	1535.98
419.897	1640.42
420.105	1550.31
420.313	1671.14
420.521	1722.34
420.729	1734.63
420.937	1855.46
421.145	1685.48
421.353	1886.18
421.561	1982.43
421.769	2129.89
421.977	2082.78
422.185	2064.35
422.393	2203.61
422.601	2490.33
422.809	2453.47
423.017	2400.22
423.224	2449.37
423.432	2645.98
423.64	2682.84
423.848	2805.72
424.056	2811.86
424.263	2926.55
424.471	2981.84
424.679	3014.61
424.887	3272.65
425.094	3334.09
425.302	3368.91
425.51	3524.55
425.718	3532.75
425.925	3540.94
426.133	3657.67
426.341	3866.56
426.548	4089.79
426.756	4128.7
426.964	4243.39
427.171	4407.23
427.379	4521.91
427.586	4622.27
427.794	4614.07
428.001	5029.81
428.209	5193.65
428.417	4964.28
428.624	5384.11
428.832	5463.98
429.039	5502.89
429.247	5320.62
429.454	5955.49
429.662	6279.07
429.869	5771.18
430.076	6299.55
430.284	6193.06
430.491	6414.24
430.699	6711.19
430.906	6580.12
431.114	6815.64
431.321	7350.16
431.528	7270.29
431.736	7669.64
431.943	8030.09
432.15	7954.31
432.358	7991.17
432.565	8314.75
432.772	8372.1
432.979	8701.82
433.187	8806.27
433.394	8908.66
433.601	9531.25
433.808	9543.53
434.016	9580.4
434.223	9852.78
434.43	10332
434.637	10268.52
434.844	10831.71
435.052	11071.32
435.259	11032.41
435.466	11224.92
435.673	11278.16
435.88	11669.33
436.087	12189.51
436.294	12285.76
436.501	12044.1
436.708	11839.31
436.915	12570.43
437.122	13356.85
437.329	13100.86
437.537	13752.11
437.743	13748.01
437.95	13741.87
438.157	14278.44
438.364	14858.01
438.571	14796.57
438.778	14733.09
438.985	16203.53
439.192	15648.53
439.399	16135.95
439.606	15683.34
439.813	16959.23
440.02	17743.6
440.227	17563.38
440.433	17309.43
440.64	17751.79
440.847	17540.85
441.054	18054.89
441.261	19295.96
441.467	19490.52
441.674	19259.1
441.881	20070.09
442.088	20244.17
442.294	20195.02
442.501	20297.42
442.708	20739.78
442.914	21370.55
443.121	22597.29
443.328	21939.89
443.534	23664.28
443.741	22644.39
443.948	22392.49
444.154	24069.78
444.361	24018.58
444.568	24284.81
444.774	24155.79
444.981	24346.25
445.187	24940.16
445.394	26185.33
445.6	25867.89
445.807	28274.26
446.013	27164.26
446.22	27582.04
446.426	28700.23
446.633	28778.06
446.839	29972.02
447.046	28370.51
447.252	30254.64
447.459	30228.02
447.665	29664.83
447.871	31288.87
448.078	32656.91
448.284	31094.31
448.491	32413.2
448.697	33490.43
448.903	33795.58
449.11	33844.73
449.316	33367.55
449.522	34078.2
449.728	34997.74
449.935	35419.62
450.141	34866.67
450.347	35792.35
450.553	34549.23
450.76	35196.39
450.966	36361.69
451.172	36068.83
451.378	37049.8
451.584	36355.54
451.791	36689.36
451.997	36992.46
452.203	37289.42
452.409	37195.21
452.615	37406.15
452.821	35913.18
453.027	35343.84
453.233	37363.14
453.44	35958.24
453.646	36437.46
453.852	36435.41
454.058	37021.13
454.264	35745.25
454.47	36711.89
454.676	35597.79
454.882	36959.69
455.088	33617.41
455.294	33920.51
455.5	34768.37
455.705	34719.21
455.911	33699.33
456.117	32648.72
456.323	32677.39
456.529	30996.01
456.735	32409.11
456.941	31591.97
457.147	30905.9
457.352	30088.76
457.558	29855.29
457.764	29664.83
457.97	28933.7
458.176	28698.19
458.381	28472.91
458.587	27203.17
458.793	27033.19
458.999	25597.56
459.204	27635.29
459.41	26930.79
459.616	25173.63
459.821	25073.28
460.027	24970.88
460.233	24311.44
460.438	23381.66
460.644	23930.51
460.85	22716.07
461.055	22261.42
461.261	22154.93
461.466	20278.99
461.672	19613.4
461.878	21423.8
462.083	19965.65
462.289	19611.35
462.494	19216.09
462.7	18294.5
462.905	18102
463.111	18527.97
463.316	18464.49
463.522	18433.77
463.727	18106.09
463.932	18585.32
464.138	18079.47
464.343	18185.96
464.549	17778.42
464.754	18210.54
464.959	18075.37
465.165	17938.16
465.37	17153.79
465.575	16676.61
465.781	17321.72
465.986	17458.93
466.191	16846.59
466.397	16721.66
466.602	16033.55
466.807	16414.47
467.012	16621.31
467.218	16295.69
467.423	16054.03
467.628	16295.69
467.833	16850.69
468.038	16137.99
