Data from USB4F104151__191__14-20-20-870.txt Node

Date: Thu Mar 13 14:20:20 EDT 2025
User: louis
Spectrometer: USB4F10415
Trigger mode: 4
Integration Time (sec): 2.000000E-2
Scans to average: 1
Electric dark correction enabled: true
Nonlinearity correction enabled: false
Boxcar width: 0
XAxis mode: Wavelengths
Number of Pixels in Spectrum: 3648
>>>>>Begin Spectral Data<<<<<
178.204	-127.66
178.424	-127.66
178.644	-127.66
178.864	-178.86
179.084	-101.03
179.304	36.18
179.524	-25.26
179.744	34.13
179.964	79.19
180.184	27.99
180.404	34.13
180.624	-88.75
180.844	-15.02
181.064	-78.51
181.283	1.37
181.503	9.56
181.723	-15.02
181.943	-15.02
182.163	93.52
182.383	-8.87
182.602	66.9
182.822	30.04
183.042	1.37
183.262	27.99
183.482	91.48
183.701	15.7
183.921	83.28
184.141	9.56
184.361	34.13
184.58	27.99
184.8	1.37
185.02	91.48
185.239	87.38
185.459	17.75
185.679	97.62
185.898	-31.4
186.118	60.76
186.338	71
186.557	46.42
186.777	40.28
186.997	-4.78
187.216	-21.16
187.436	66.9
187.655	19.8
187.875	25.94
188.095	40.28
188.314	105.81
188.534	58.71
188.753	44.37
188.973	73.04
189.192	17.75
189.412	38.23
189.631	60.76
189.851	34.13
190.07	36.18
190.29	54.61
190.509	17.75
190.729	9.56
190.948	50.52
191.168	99.67
191.387	66.9
191.607	73.04
191.826	66.9
192.045	30.04
192.265	97.62
192.484	50.52
192.704	50.52
192.923	19.8
193.142	71
193.362	83.28
193.581	68.95
193.8	-19.11
194.02	73.04
194.239	126.29
194.458	71
194.678	58.71
194.897	83.28
195.116	50.52
195.335	89.43
195.555	124.24
195.774	30.04
195.993	11.61
196.212	50.52
196.432	1.37
196.651	-6.83
196.87	-62.12
197.089	83.28
197.308	77.14
197.528	62.8
197.747	38.23
197.966	81.24
198.185	77.14
198.404	36.18
198.623	13.65
198.842	81.24
199.062	99.67
199.281	42.32
199.5	1.37
199.719	83.28
199.938	83.28
200.157	46.42
200.376	122.2
200.595	32.08
200.814	91.48
201.033	11.61
201.252	116.05
201.471	50.52
201.69	54.61
201.909	66.9
202.128	71
202.347	68.95
202.566	58.71
202.785	1.37
203.004	19.8
203.223	95.57
203.442	107.86
203.661	42.32
203.879	-21.16
204.098	87.38
204.317	83.28
204.536	83.28
204.755	32.08
204.974	3.41
205.193	50.52
205.411	79.19
205.63	77.14
205.849	30.04
206.068	13.65
206.287	66.9
206.505	58.71
206.724	54.61
206.943	34.13
207.162	21.85
207.381	50.52
207.599	-4.78
207.818	58.71
208.037	30.04
208.255	-21.16
208.474	120.15
208.693	-4.78
208.911	50.52
209.13	40.28
209.349	87.38
209.567	9.56
209.786	-10.92
210.005	34.13
210.223	5.46
210.442	17.75
210.661	107.86
210.879	15.7
211.098	81.24
211.316	34.13
211.535	34.13
211.753	91.48
211.972	64.85
212.191	27.99
212.409	75.09
212.628	50.52
212.846	36.18
213.065	-15.02
213.283	93.52
213.502	9.56
213.72	50.52
213.938	89.43
214.157	83.28
214.375	46.42
214.594	38.23
214.812	44.37
215.031	66.9
215.249	87.38
215.467	-31.4
215.686	27.99
215.904	66.9
216.122	-15.02
216.341	21.85
216.559	3.41
216.778	23.89
216.996	89.43
217.214	75.09
217.432	85.33
217.651	42.32
217.869	25.94
218.087	60.76
218.306	44.37
218.524	91.48
218.742	-84.65
218.96	25.94
219.179	-49.83
219.397	25.94
219.615	116.05
219.833	87.38
220.051	50.52
220.27	54.61
220.488	27.99
220.706	60.76
220.924	54.61
221.142	58.71
221.36	17.75
221.578	83.28
221.796	19.8
222.015	66.9
222.233	32.08
222.451	68.95
222.669	-10.92
222.887	42.32
223.105	-15.02
223.323	140.63
223.541	-4.78
223.759	58.71
223.977	83.28
224.195	44.37
224.413	15.7
224.631	50.52
224.849	25.94
225.067	50.52
225.285	17.75
225.503	87.38
225.721	-15.02
225.939	62.8
226.157	15.7
226.375	142.68
226.592	75.09
226.81	19.8
227.028	19.8
227.246	167.25
227.464	64.85
227.682	36.18
227.9	103.76
228.117	3.41
228.335	42.32
228.553	50.52
228.771	60.76
228.989	95.57
229.206	-15.02
229.424	56.66
229.642	68.95
229.86	-17.07
230.077	48.47
230.295	-53.93
230.513	83.28
230.731	146.77
230.948	44.37
231.166	124.24
231.384	17.75
231.601	30.04
231.819	42.32
232.037	40.28
232.254	42.32
232.472	68.95
232.689	17.75
232.907	58.71
233.125	34.13
233.342	34.13
233.56	17.75
233.777	13.65
233.995	9.56
234.213	93.52
234.43	54.61
234.648	161.11
234.865	38.23
235.083	62.8
235.3	79.19
235.518	48.47
235.735	103.76
235.953	118.1
236.17	-21.16
236.388	50.52
236.605	30.04
236.822	107.86
237.04	120.15
237.257	44.37
237.475	75.09
237.692	83.28
237.909	62.8
238.127	5.46
238.344	62.8
238.562	103.76
238.779	50.52
238.996	1.37
239.214	36.18
239.431	81.24
239.648	-31.4
239.865	99.67
240.083	60.76
240.3	62.8
240.517	-68.27
240.735	-10.92
240.952	68.95
241.169	77.14
241.386	85.33
241.603	77.14
241.821	-2.73
242.038	148.82
242.255	11.61
242.472	93.52
242.689	36.18
242.907	-12.97
243.124	38.23
243.341	58.71
243.558	66.9
243.775	50.52
243.992	11.61
244.209	58.71
244.426	48.47
244.643	66.9
244.86	48.47
245.078	27.99
245.295	-23.21
245.512	42.32
245.729	75.09
245.946	42.32
246.163	68.95
246.38	62.8
246.597	58.71
246.814	54.61
247.031	71
247.248	71
247.464	75.09
247.681	25.94
247.898	-19.11
248.115	44.37
248.332	-35.5
248.549	46.42
248.766	173.39
248.983	36.18
249.2	99.67
249.417	66.9
249.633	-2.73
249.85	87.38
250.067	-15.02
250.284	99.67
250.501	44.37
250.717	38.23
250.934	34.13
251.151	83.28
251.368	34.13
251.585	101.72
251.801	60.76
252.018	52.56
252.235	109.91
252.451	44.37
252.668	38.23
252.885	40.28
253.102	34.13
253.318	91.48
253.535	11.61
253.752	23.89
253.968	-45.74
254.185	-39.59
254.401	-6.83
254.618	1.37
254.835	30.04
255.051	66.9
255.268	44.37
255.484	32.08
255.701	60.76
255.917	27.99
256.134	5.46
256.351	56.66
256.567	-23.21
256.784	-45.74
257	34.13
257.217	9.56
257.433	71
257.65	116.05
257.866	9.56
258.082	83.28
258.299	-23.21
258.515	17.75
258.732	83.28
258.948	52.56
259.165	19.8
259.381	85.33
259.597	91.48
259.814	36.18
260.03	-15.02
260.246	54.61
260.463	99.67
260.679	36.18
260.895	-6.83
261.112	-4.78
261.328	56.66
261.544	1.37
261.761	163.15
261.977	99.67
262.193	17.75
262.409	95.57
262.626	58.71
262.842	103.76
263.058	9.56
263.274	101.72
263.49	107.86
263.707	13.65
263.923	114
264.139	48.47
264.355	91.48
264.571	54.61
264.787	-6.83
265.004	116.05
265.22	46.42
265.436	3.41
265.652	25.94
265.868	79.19
266.084	50.52
266.3	-2.73
266.516	32.08
266.732	58.71
266.948	9.56
267.164	62.8
267.38	77.14
267.596	42.32
267.812	81.24
268.028	17.75
268.244	1.37
268.46	107.86
268.676	5.46
268.892	19.8
269.108	34.13
269.324	19.8
269.54	-17.07
269.756	99.67
269.972	17.75
270.188	34.13
270.403	46.42
270.619	36.18
270.835	34.13
271.051	62.8
271.267	-39.59
271.483	17.75
271.698	179.54
271.914	126.29
272.13	50.52
272.346	38.23
272.562	-10.92
272.777	122.2
272.993	19.8
273.209	1.37
273.425	50.52
273.64	54.61
273.856	87.38
274.072	-15.02
274.287	62.8
274.503	44.37
274.719	107.86
274.934	89.43
275.15	-10.92
275.366	25.94
275.581	75.09
275.797	44.37
276.012	44.37
276.228	-15.02
276.444	66.9
276.659	89.43
276.875	32.08
277.09	30.04
277.306	95.57
277.521	34.13
277.737	91.48
277.952	77.14
278.168	48.47
278.383	116.05
278.599	30.04
278.814	128.34
279.03	38.23
279.245	126.29
279.461	36.18
279.676	30.04
279.892	25.94
280.107	25.94
280.322	25.94
280.538	73.04
280.753	5.46
280.969	1.37
281.184	11.61
281.399	79.19
281.615	99.67
281.83	50.52
282.045	-23.21
282.26	-37.55
282.476	5.46
282.691	64.85
282.906	-10.92
283.122	83.28
283.337	40.28
283.552	38.23
283.767	5.46
283.983	42.32
284.198	60.76
284.413	30.04
284.628	25.94
284.843	38.23
285.058	50.52
285.274	25.94
285.489	48.47
285.704	52.56
285.919	42.32
286.134	21.85
286.349	58.71
286.564	-10.92
286.779	79.19
286.995	-23.21
287.21	25.94
287.425	66.9
287.64	34.13
287.855	99.67
288.07	50.52
288.285	66.9
288.5	103.76
288.715	42.32
288.93	60.76
289.145	38.23
289.36	34.13
289.575	75.09
289.79	25.94
290.004	-4.78
290.219	46.42
290.434	101.72
290.649	21.85
290.864	44.37
291.079	-29.35
291.294	9.56
291.509	132.44
291.724	87.38
291.938	1.37
292.153	73.04
292.368	66.9
292.583	95.57
292.798	13.65
293.012	56.66
293.227	36.18
293.442	19.8
293.657	66.9
293.871	75.09
294.086	99.67
294.301	66.9
294.516	3.41
294.73	1.37
294.945	32.08
295.16	66.9
295.374	30.04
295.589	87.38
295.804	17.75
296.018	19.8
296.233	97.62
296.447	30.04
296.662	38.23
296.877	60.76
297.091	9.56
297.306	124.24
297.52	44.37
297.735	52.56
297.949	87.38
298.164	50.52
298.378	44.37
298.593	1.37
298.807	-8.87
299.022	9.56
299.236	38.23
299.451	66.9
299.665	25.94
299.88	93.52
300.094	-2.73
300.309	30.04
300.523	32.08
300.737	21.85
300.952	87.38
301.166	52.56
301.381	27.99
301.595	42.32
301.809	71
302.024	17.75
302.238	-12.97
302.452	101.72
302.667	81.24
302.881	116.05
303.095	50.52
303.309	38.23
303.524	126.29
303.738	38.23
303.952	50.52
304.166	19.8
304.381	-21.16
304.595	99.67
304.809	32.08
305.023	36.18
305.237	-31.4
305.452	66.9
305.666	93.52
305.88	25.94
306.094	54.61
306.308	66.9
306.522	81.24
306.736	71
306.95	62.8
307.164	21.85
307.379	-4.78
307.593	60.76
307.807	85.33
308.021	95.57
308.235	95.57
308.449	93.52
308.663	34.13
308.877	83.28
309.091	56.66
309.305	52.56
309.519	-29.35
309.733	103.76
309.947	25.94
310.161	5.46
310.374	42.32
310.588	34.13
310.802	52.56
311.016	60.76
311.23	101.72
311.444	54.61
311.658	42.32
311.872	101.72
312.085	77.14
312.299	93.52
312.513	120.15
312.727	120.15
312.941	-31.4
313.154	118.1
313.368	48.47
313.582	66.9
313.796	9.56
314.009	60.76
314.223	56.66
314.437	48.47
314.651	-27.31
314.864	34.13
315.078	-8.87
315.292	21.85
315.505	52.56
315.719	36.18
315.933	138.58
316.146	93.52
316.36	-37.55
316.573	93.52
316.787	58.71
317.001	91.48
317.214	83.28
317.428	116.05
317.641	60.76
317.855	134.48
318.068	66.9
318.282	68.95
318.495	118.1
318.709	54.61
318.922	54.61
319.136	79.19
319.349	30.04
319.563	58.71
319.776	27.99
319.99	-27.31
320.203	-6.83
320.417	116.05
320.63	111.96
320.843	34.13
321.057	34.13
321.27	42.32
321.483	58.71
321.697	77.14
321.91	60.76
322.124	101.72
322.337	99.67
322.55	99.67
322.763	3.41
322.977	46.42
323.19	46.42
323.403	99.67
323.617	77.14
323.83	118.1
324.043	25.94
324.256	83.28
324.469	7.51
324.683	36.18
324.896	38.23
325.109	-6.83
325.322	52.56
325.535	130.39
325.748	71
325.962	64.85
326.175	58.71
326.388	34.13
326.601	89.43
326.814	75.09
327.027	13.65
327.24	62.8
327.453	19.8
327.666	75.09
327.879	46.42
328.092	128.34
328.305	58.71
328.518	-0.68
328.731	25.94
328.944	7.51
329.157	-0.68
329.37	77.14
329.583	124.24
329.796	128.34
330.009	-23.21
330.222	48.47
330.435	34.13
330.648	114
330.861	50.52
331.073	68.95
331.286	60.76
331.499	120.15
331.712	-15.02
331.925	116.05
332.138	1.37
332.35	27.99
332.563	9.56
332.776	30.04
332.989	17.75
333.202	-10.92
333.414	58.71
333.627	42.32
333.84	79.19
334.053	60.76
334.265	-25.26
334.478	66.9
334.691	17.75
334.903	91.48
335.116	30.04
335.329	38.23
335.541	91.48
335.754	107.86
335.966	-23.21
336.179	5.46
336.392	13.65
336.604	19.8
336.817	3.41
337.029	73.04
337.242	36.18
337.454	202.07
337.667	52.56
337.88	116.05
338.092	75.09
338.305	11.61
338.517	7.51
338.729	95.57
338.942	19.8
339.154	66.9
339.367	13.65
339.579	9.56
339.792	91.48
340.004	79.19
340.217	48.47
340.429	66.9
340.641	13.65
340.854	64.85
341.066	34.13
341.278	132.44
341.491	42.32
341.703	73.04
341.915	-15.02
342.128	64.85
342.34	50.52
342.552	89.43
342.764	36.18
342.977	-10.92
343.189	42.32
343.401	-6.83
343.613	62.8
343.826	68.95
344.038	11.61
344.25	148.82
344.462	46.42
344.674	64.85
344.886	48.47
345.099	75.09
345.311	-17.07
345.523	64.85
345.735	111.96
345.947	93.52
346.159	42.32
346.371	68.95
346.583	30.04
346.795	85.33
347.007	66.9
347.219	124.24
347.431	44.37
347.643	58.71
347.855	-6.83
348.067	95.57
348.279	52.56
348.491	77.14
348.703	116.05
348.915	140.63
349.127	44.37
349.339	30.04
349.551	97.62
349.763	60.76
349.975	62.8
350.187	58.71
350.399	165.2
350.61	68.95
350.822	-15.02
351.034	58.71
351.246	21.85
351.458	89.43
351.669	46.42
351.881	89.43
352.093	42.32
352.305	13.65
352.517	93.52
352.728	107.86
352.94	122.2
353.152	81.24
353.363	17.75
353.575	71
353.787	91.48
353.999	68.95
354.21	68.95
354.422	50.52
354.633	97.62
354.845	75.09
355.057	62.8
355.268	-17.07
355.48	71
355.692	-45.74
355.903	50.52
356.115	32.08
356.326	17.75
356.538	146.77
356.749	68.95
356.961	79.19
357.172	52.56
357.384	77.14
357.595	71
357.807	44.37
358.018	27.99
358.23	71
358.441	75.09
358.653	118.1
358.864	120.15
359.075	54.61
359.287	36.18
359.498	107.86
359.709	101.72
359.921	75.09
360.132	95.57
360.344	5.46
360.555	25.94
360.766	116.05
360.977	5.46
361.189	83.28
361.4	-21.16
361.611	157.01
361.823	140.63
362.034	30.04
362.245	7.51
362.456	83.28
362.667	15.7
362.879	68.95
363.09	60.76
363.301	140.63
363.512	52.56
363.723	30.04
363.935	71
364.146	85.33
364.357	5.46
364.568	189.78
364.779	77.14
364.99	58.71
365.201	89.43
365.412	136.53
365.623	17.75
365.834	109.91
366.045	77.14
366.256	77.14
366.467	30.04
366.678	107.86
366.889	52.56
367.1	66.9
367.311	58.71
367.522	-27.31
367.733	58.71
367.944	40.28
368.155	62.8
368.366	46.42
368.577	-10.92
368.788	79.19
368.999	13.65
369.209	9.56
369.42	71
369.631	7.51
369.842	34.13
370.053	5.46
370.264	91.48
370.474	19.8
370.685	103.76
370.896	27.99
371.107	83.28
371.317	118.1
371.528	91.48
371.739	109.91
371.95	77.14
372.16	50.52
372.371	17.75
372.582	91.48
372.792	99.67
373.003	101.72
373.214	3.41
373.424	-10.92
373.635	42.32
373.846	87.38
374.056	91.48
374.267	38.23
374.477	11.61
374.688	50.52
374.898	48.47
375.109	103.76
375.319	58.71
375.53	99.67
375.74	50.52
375.951	101.72
376.161	62.8
376.372	148.82
376.582	5.46
376.793	157.01
377.003	-10.92
377.214	23.89
377.424	13.65
377.635	34.13
377.845	15.7
378.055	91.48
378.266	79.19
378.476	118.1
378.686	68.95
378.897	52.56
379.107	77.14
379.317	34.13
379.528	66.9
379.738	93.52
379.948	58.71
380.158	42.32
380.369	62.8
380.579	93.52
380.789	21.85
380.999	91.48
381.21	83.28
381.42	105.81
381.63	25.94
381.84	118.1
382.05	132.44
382.261	66.9
382.471	116.05
382.681	116.05
382.891	21.85
383.101	85.33
383.311	25.94
383.521	93.52
383.731	107.86
383.941	73.04
384.151	85.33
384.361	75.09
384.571	109.91
384.781	107.86
384.991	99.67
385.201	122.2
385.411	52.56
385.621	-23.21
385.831	19.8
386.041	99.67
386.251	91.48
386.461	173.39
386.671	52.56
386.881	89.43
387.091	1.37
387.301	36.18
387.511	21.85
387.72	60.76
387.93	93.52
388.14	60.76
388.35	62.8
388.56	60.76
388.769	89.43
388.979	107.86
389.189	50.52
389.399	101.72
389.609	116.05
389.818	157.01
390.028	-10.92
390.238	116.05
390.447	23.89
390.657	118.1
390.867	71
391.076	66.9
391.286	42.32
391.496	150.87
391.705	68.95
391.915	103.76
392.125	157.01
392.334	79.19
392.544	144.72
392.753	27.99
392.963	19.8
393.172	66.9
393.382	85.33
393.591	165.2
393.801	68.95
394.01	44.37
394.22	44.37
394.429	150.87
394.639	132.44
394.848	-4.78
395.058	132.44
395.267	124.24
395.477	52.56
395.686	68.95
395.895	200.02
396.105	142.68
396.314	132.44
396.524	132.44
396.733	75.09
396.942	165.2
397.152	130.39
397.361	120.15
397.57	116.05
397.78	116.05
397.989	144.72
398.198	179.54
398.407	124.24
398.617	226.64
398.826	142.68
399.035	68.95
399.244	136.53
399.453	157.01
399.663	157.01
399.872	175.44
400.081	107.86
400.29	169.3
400.499	77.14
400.708	116.05
400.917	140.63
401.127	154.96
401.336	99.67
401.545	165.2
401.754	116.05
401.963	111.96
402.172	187.73
402.381	128.34
402.59	107.86
402.799	126.29
403.008	200.02
403.217	75.09
403.426	111.96
403.635	99.67
403.844	140.63
404.053	208.21
404.262	238.93
404.471	173.39
404.68	175.44
404.888	200.02
405.097	163.15
405.306	226.64
405.515	220.5
405.724	261.46
405.933	189.78
406.142	277.84
406.35	165.2
406.559	304.46
406.768	208.21
406.977	226.64
407.185	341.33
407.394	214.35
407.603	206.16
407.812	279.89
408.02	243.03
408.229	240.98
408.438	306.51
408.646	230.74
408.855	308.56
409.064	263.51
409.272	345.42
409.481	355.66
409.69	296.27
409.898	306.51
410.107	310.61
410.315	361.81
410.524	298.32
410.733	353.62
410.941	372.05
411.15	419.15
411.358	439.63
411.567	443.73
411.775	453.97
411.984	501.07
412.192	525.65
412.401	560.46
412.609	548.17
412.818	568.65
413.026	554.32
413.234	548.17
413.443	585.04
413.651	533.84
413.86	617.8
414.068	623.95
414.276	718.15
414.485	681.29
414.693	738.63
414.901	787.79
415.11	779.59
415.318	730.44
415.526	802.12
415.734	787.79
415.943	904.52
416.151	808.27
416.359	879.94
416.567	935.24
416.776	1002.82
416.984	1082.69
417.192	1025.35
417.4	1035.59
417.608	1123.65
417.817	1203.52
418.025	1049.93
418.233	1213.76
418.441	1254.72
418.649	1254.72
418.857	1344.83
419.065	1426.75
419.273	1406.27
419.481	1418.56
419.689	1451.33
419.897	1549.63
420.105	1602.88
420.313	1649.98
420.521	1647.93
420.729	1705.28
420.937	1754.43
421.145	1848.63
421.353	2000.18
421.561	2106.68
421.769	2106.68
421.977	2188.6
422.185	2078.01
422.393	2209.08
422.601	2344.24
422.809	2409.78
423.017	2506.03
423.224	2491.7
423.432	2708.78
423.64	2610.48
423.848	2911.53
424.056	2833.71
424.263	2946.34
424.471	3089.7
424.679	3255.59
424.887	3282.21
425.094	3247.4
425.302	3300.64
425.51	3523.87
425.718	3542.3
425.925	3599.65
426.133	3716.38
426.341	3972.38
426.548	4072.73
426.756	4091.16
426.964	4277.52
427.171	4359.44
427.379	4435.22
427.586	4605.2
427.794	4697.36
428.001	4883.72
428.209	5385.48
428.417	5123.34
428.624	5506.31
428.832	5463.3
429.039	5354.76
429.247	5319.94
429.454	5936.38
429.662	6309.11
429.869	5907.71
430.076	6391.03
430.284	5963
430.491	6456.56
430.699	6774
430.906	6837.48
431.114	6939.88
431.321	7169.26
431.528	7193.83
431.736	7781.6
431.943	8000.73
432.15	7939.29
432.358	7884
432.565	8621.27
432.772	8205.53
432.979	8672.47
433.187	8936.65
433.394	9090.25
433.601	9768.13
433.808	9528.52
434.016	9577.67
434.223	9934.01
434.43	10622.13
434.637	10249.4
434.844	11160.75
435.052	11134.12
435.259	11099.31
435.466	11089.07
435.673	11060.4
435.88	11707.55
436.087	12422.3
436.294	12457.11
436.501	11986.08
436.708	12348.57
436.915	12872.85
437.122	13257.87
437.329	13173.9
437.537	13626.5
437.743	13892.74
437.95	13986.94
438.157	14488.7
438.364	14875.76
438.571	14984.3
438.778	14935.15
438.985	16329.82
439.192	15721.57
439.399	16501.85
439.606	15895.65
439.813	16747.61
440.02	17990.72
440.227	17587.27
440.433	17325.13
440.64	17974.34
440.847	17818.69
441.054	18211.9
441.261	19612.71
441.467	19387.44
441.674	19455.02
441.881	20397.09
442.088	19903.53
442.294	20194.34
442.501	20538.4
442.708	21122.07
442.914	22043.65
443.121	22858.74
443.328	22330.37
443.534	23722.99
443.741	23020.53
443.948	22797.31
444.154	24622.05
444.361	23905.26
444.568	24331.23
444.774	24198.12
444.981	24411.1
445.187	25187.28
445.394	26309.57
445.6	26096.58
445.807	28343.2
446.013	27440.05
446.22	27524.02
446.426	28996.51
446.633	29137.82
446.839	30161.8
447.046	28500.9
447.252	30618.5
447.459	30368.65
447.665	30051.21
447.871	31314.81
448.078	32891.74
448.284	31409.01
448.491	32232.3
448.697	33200.99
448.903	34452.3
449.11	34095.95
449.316	33829.71
449.522	34532.17
449.728	35322.68
449.935	35267.39
450.141	35195.71
450.347	36129.58
450.553	35038.01
450.76	35609.4
450.966	36504.36
451.172	36170.54
451.378	37364.51
451.584	36467.5
451.791	37409.56
451.997	37374.75
452.203	37661.46
452.409	37567.26
452.615	37524.25
452.821	35978.03
453.027	35564.34
453.233	38011.67
453.44	36535.08
453.646	36967.2
453.852	36725.54
454.058	37597.98
454.264	36051.76
454.47	37204.77
454.676	36293.42
454.882	37444.38
455.088	33991.5
455.294	34773.83
455.5	35074.88
455.705	35531.58
455.911	34243.4
456.117	33321.82
456.323	33088.35
456.529	31458.17
456.735	32504.68
456.941	32064.36
457.147	31540.08
457.352	30395.27
457.558	30239.62
457.764	29832.08
457.97	29680.53
458.176	29055.9
458.381	29139.86
458.587	27483.06
458.793	27620.27
458.999	26411.97
459.204	28332.96
459.41	27227.06
459.616	25433.04
459.821	25566.16
460.027	25482.19
460.233	24957.91
460.438	23788.52
460.644	24108.01
460.85	22975.48
461.055	22567.93
461.261	22750.2
461.466	20855.83
461.672	19829.8
461.878	21677.07
462.083	20296.74
462.289	19905.57
462.494	19473.45
462.7	18799.67
462.905	18244.67
463.111	19010.61
463.316	18658.36
463.522	18504.76
463.727	18617.4
463.932	18658.36
464.138	18531.39
464.343	18132.03
464.549	17814.6
464.754	18402.36
464.959	18498.62
465.165	18093.12
465.37	17454.15
465.575	17042.51
465.781	17501.26
465.986	17650.76
466.191	17108.05
466.397	16909.4
466.602	16161.89
466.807	16657.5
467.012	16520.28
467.218	16401.5
467.423	16161.89
467.628	16421.98
467.833	17095.76
468.038	16659.54
