Data from USB4F104151__257__14-22-42-599.txt Node

Date: Thu Mar 13 14:22:42 EDT 2025
User: louis
Spectrometer: USB4F10415
Trigger mode: 4
Integration Time (sec): 2.000000E-2
Scans to average: 1
Electric dark correction enabled: true
Nonlinearity correction enabled: false
Boxcar width: 0
XAxis mode: Wavelengths
Number of Pixels in Spectrum: 3648
>>>>>Begin Spectral Data<<<<<
178.204	-111.61
178.424	-111.61
178.644	-111.61
178.864	-111.61
179.084	-101.37
179.304	66.56
179.524	1.02
179.744	-27.65
179.964	76.8
180.184	-44.03
180.404	19.46
180.624	-9.22
180.844	-60.42
181.064	-50.18
181.283	-5.12
181.503	13.31
181.723	19.46
181.943	5.12
182.163	117.76
182.383	-39.94
182.602	99.33
182.822	7.17
183.042	-11.26
183.262	64.51
183.482	56.32
183.701	-5.12
183.921	52.22
184.141	-13.31
184.361	46.08
184.58	-5.12
184.8	48.13
185.02	27.65
185.239	76.8
185.459	3.07
185.679	39.94
185.898	-54.27
186.118	70.65
186.338	23.55
186.557	33.79
186.777	-29.7
186.997	23.55
187.216	93.18
187.436	107.52
187.655	64.51
187.875	70.65
188.095	-9.22
188.314	37.89
188.534	17.41
188.753	5.12
188.973	70.65
189.192	130.05
189.412	19.46
189.631	3.07
189.851	39.94
190.07	76.8
190.29	21.5
190.509	31.74
190.729	-17.41
190.948	50.18
191.168	101.37
191.387	29.7
191.607	109.57
191.826	-5.12
192.045	39.94
192.265	58.37
192.484	11.26
192.704	5.12
192.923	27.65
193.142	109.57
193.362	-9.22
193.581	60.42
193.8	46.08
194.02	27.65
194.239	35.84
194.458	17.41
194.678	-21.5
194.897	60.42
195.116	44.03
195.335	11.26
195.555	50.18
195.774	-5.12
195.993	54.27
196.212	23.55
196.432	-17.41
196.651	19.46
196.87	52.22
197.089	23.55
197.308	52.22
197.528	-21.5
197.747	-21.5
197.966	44.03
198.185	80.89
198.404	-37.89
198.623	68.61
198.842	60.42
199.062	-1.02
199.281	46.08
199.5	62.46
199.719	101.37
199.938	5.12
200.157	44.03
200.376	15.36
200.595	62.46
200.814	29.7
201.033	3.07
201.252	9.22
201.471	-7.17
201.69	56.32
201.909	89.09
202.128	74.75
202.347	60.42
202.566	31.74
202.785	35.84
203.004	15.36
203.223	144.38
203.442	7.17
203.661	-17.41
203.879	11.26
204.098	15.36
204.317	-19.46
204.536	-1.02
204.755	66.56
204.974	56.32
205.193	-13.31
205.411	72.7
205.63	56.32
205.849	44.03
206.068	19.46
206.287	15.36
206.505	76.8
206.724	70.65
206.943	44.03
207.162	19.46
207.381	27.65
207.599	-52.22
207.818	11.26
208.037	-21.5
208.255	117.76
208.474	84.99
208.693	46.08
208.911	-37.89
209.13	84.99
209.349	25.6
209.567	56.32
209.786	19.46
210.005	44.03
210.223	35.84
210.442	33.79
210.661	95.23
210.879	11.26
211.098	35.84
211.316	15.36
211.535	21.5
211.753	84.99
211.972	52.22
212.191	-37.89
212.409	72.7
212.628	29.7
212.846	5.12
213.065	87.04
213.283	74.75
213.502	37.89
213.72	64.51
213.938	11.26
214.157	41.98
214.375	11.26
214.594	31.74
214.812	68.61
215.031	113.66
215.249	39.94
215.467	60.42
215.686	29.7
215.904	37.89
216.122	-11.26
216.341	35.84
216.559	27.65
216.778	84.99
216.996	21.5
217.214	-19.46
217.432	-27.65
217.651	-37.89
217.869	35.84
218.087	93.18
218.306	-35.84
218.524	84.99
218.742	7.17
218.96	-5.12
219.179	41.98
219.397	-29.7
219.615	68.61
219.833	-19.46
220.051	52.22
220.27	52.22
220.488	15.36
220.706	-35.84
220.924	-29.7
221.142	64.51
221.36	21.5
221.578	-5.12
221.796	19.46
222.015	35.84
222.233	72.7
222.451	109.57
222.669	17.41
222.887	31.74
223.105	-1.02
223.323	7.17
223.541	-44.03
223.759	46.08
223.977	3.07
224.195	46.08
224.413	31.74
224.631	52.22
224.849	-29.7
225.067	97.28
225.285	-29.7
225.503	9.22
225.721	-37.89
225.939	76.8
226.157	68.61
226.375	117.76
226.592	-37.89
226.81	44.03
227.028	68.61
227.246	117.76
227.464	11.26
227.682	117.76
227.9	-19.46
228.117	68.61
228.335	21.5
228.553	52.22
228.771	7.17
228.989	-17.41
229.206	56.32
229.424	29.7
229.642	-13.31
229.86	29.7
230.077	15.36
230.295	56.32
230.513	54.27
230.731	-35.84
230.948	105.47
231.166	33.79
231.384	-5.12
231.601	19.46
231.819	15.36
232.037	-5.12
232.254	27.65
232.472	111.61
232.689	27.65
232.907	95.23
233.125	9.22
233.342	-50.18
233.56	19.46
233.777	-5.12
233.995	-17.41
234.213	62.46
234.43	-1.02
234.648	44.03
234.865	-5.12
235.083	37.89
235.3	-29.7
235.518	60.42
235.735	70.65
235.953	80.89
236.17	35.84
236.388	119.81
236.605	23.55
236.822	39.94
237.04	136.19
237.257	-33.79
237.475	44.03
237.692	121.85
237.909	-25.6
238.127	52.22
238.344	-25.6
238.562	-62.46
238.779	68.61
238.996	9.22
239.214	29.7
239.431	31.74
239.648	35.84
239.865	60.42
240.083	68.61
240.3	-9.22
240.517	-29.7
240.735	-11.26
240.952	29.7
241.169	39.94
241.386	54.27
241.603	-74.75
241.821	84.99
242.038	68.61
242.255	21.5
242.472	-21.5
242.689	46.08
242.907	35.84
243.124	21.5
243.341	44.03
243.558	-11.26
243.775	76.8
243.992	-41.98
244.209	11.26
244.426	52.22
244.643	23.55
244.86	31.74
245.078	21.5
245.295	60.42
245.512	68.61
245.729	-46.08
245.946	52.22
246.163	84.99
246.38	72.7
246.597	-13.31
246.814	11.26
247.031	109.57
247.248	-13.31
247.464	37.89
247.681	70.65
247.898	48.13
248.115	52.22
248.332	-50.18
248.549	146.43
248.766	80.89
248.983	101.37
249.2	-29.7
249.417	82.94
249.633	-17.41
249.85	-56.32
250.067	15.36
250.284	68.61
250.501	82.94
250.717	-37.89
250.934	74.75
251.151	-5.12
251.368	-15.36
251.585	72.7
251.801	35.84
252.018	1.02
252.235	95.23
252.451	-33.79
252.668	-13.31
252.885	76.8
253.102	19.46
253.318	117.76
253.535	-21.5
253.752	19.46
253.968	33.79
254.185	-25.6
254.401	7.17
254.618	7.17
254.835	-3.07
255.051	60.42
255.268	31.74
255.484	62.46
255.701	-7.17
255.917	76.8
256.134	101.37
256.351	-11.26
256.567	-5.12
256.784	64.51
257	21.5
257.217	89.09
257.433	35.84
257.65	76.8
257.866	-41.98
258.082	5.12
258.299	29.7
258.515	27.65
258.732	31.74
258.948	44.03
259.165	44.03
259.381	-62.46
259.597	68.61
259.814	-41.98
260.03	23.55
260.246	23.55
260.463	70.65
260.679	31.74
260.895	-13.31
261.112	15.36
261.328	-5.12
261.544	-29.7
261.761	44.03
261.977	78.85
262.193	44.03
262.409	35.84
262.626	-25.6
262.842	-3.07
263.058	13.31
263.274	117.76
263.49	-3.07
263.707	84.99
263.923	37.89
264.139	35.84
264.355	-31.74
264.571	52.22
264.787	46.08
265.004	125.95
265.22	44.03
265.436	-27.65
265.652	29.7
265.868	27.65
266.084	44.03
266.3	37.89
266.516	25.6
266.732	87.04
266.948	33.79
267.164	54.27
267.38	37.89
267.596	60.42
267.812	80.89
268.028	5.12
268.244	-1.02
268.46	39.94
268.676	29.7
268.892	33.79
269.108	31.74
269.324	-9.22
269.54	44.03
269.756	78.85
269.972	-56.32
270.188	21.5
270.403	-29.7
270.619	-44.03
270.835	29.7
271.051	7.17
271.267	-19.46
271.483	78.85
271.698	41.98
271.914	27.65
272.13	48.13
272.346	5.12
272.562	15.36
272.777	101.37
272.993	11.26
273.209	44.03
273.425	3.07
273.64	25.6
273.856	27.65
274.072	29.7
274.287	33.79
274.503	-21.5
274.719	50.18
274.934	27.65
275.15	3.07
275.366	35.84
275.581	-17.41
275.797	119.81
276.012	-37.89
276.228	37.89
276.444	44.03
276.659	35.84
276.875	44.03
277.09	78.85
277.306	37.89
277.521	95.23
277.737	44.03
277.952	62.46
278.168	1.02
278.383	84.99
278.599	37.89
278.814	76.8
279.03	-5.12
279.245	35.84
279.461	46.08
279.676	44.03
279.892	-9.22
280.107	11.26
280.322	17.41
280.538	15.36
280.753	35.84
280.969	37.89
281.184	-17.41
281.399	27.65
281.615	33.79
281.83	46.08
282.045	-39.94
282.26	-62.46
282.476	5.12
282.691	-3.07
282.906	48.13
283.122	21.5
283.337	-3.07
283.552	19.46
283.767	15.36
283.983	70.65
284.198	78.85
284.413	-11.26
284.628	46.08
284.843	27.65
285.058	56.32
285.274	19.46
285.489	46.08
285.704	25.6
285.919	13.31
286.134	27.65
286.349	39.94
286.564	-13.31
286.779	109.57
286.995	-52.22
287.21	44.03
287.425	25.6
287.64	52.22
287.855	89.09
288.07	-13.31
288.285	17.41
288.5	29.7
288.715	62.46
288.93	-21.5
289.145	-27.65
289.36	-21.5
289.575	37.89
289.79	25.6
290.004	33.79
290.219	84.99
290.434	78.85
290.649	11.26
290.864	46.08
291.079	13.31
291.294	80.89
291.509	3.07
291.724	41.98
291.938	44.03
292.153	3.07
292.368	19.46
292.583	-11.26
292.798	3.07
293.012	23.55
293.227	-9.22
293.442	-17.41
293.657	-25.6
293.871	109.57
294.086	113.66
294.301	52.22
294.516	44.03
294.73	21.5
294.945	-5.12
295.16	56.32
295.374	29.7
295.589	74.75
295.804	76.8
296.018	48.13
296.233	52.22
296.447	15.36
296.662	46.08
296.877	68.61
297.091	101.37
297.306	3.07
297.52	54.27
297.735	21.5
297.949	44.03
298.164	5.12
298.378	64.51
298.593	-9.22
298.807	-33.79
299.022	101.37
299.236	1.02
299.451	27.65
299.665	-33.79
299.88	78.85
300.094	15.36
300.309	13.31
300.523	70.65
300.737	3.07
300.952	27.65
301.166	-9.22
301.381	52.22
301.595	-5.12
301.809	31.74
302.024	11.26
302.238	41.98
302.452	50.18
302.667	-5.12
302.881	29.7
303.095	11.26
303.309	52.22
303.524	17.41
303.738	17.41
303.952	64.51
304.166	44.03
304.381	-7.17
304.595	136.19
304.809	19.46
305.023	70.65
305.237	44.03
305.452	-50.18
305.666	35.84
305.88	44.03
306.094	13.31
306.308	46.08
306.522	66.56
306.736	25.6
306.95	-21.5
307.164	13.31
307.379	48.13
307.593	87.04
307.807	82.94
308.021	-17.41
308.235	101.37
308.449	46.08
308.663	52.22
308.877	99.33
309.091	37.89
309.305	64.51
309.519	-27.65
309.733	64.51
309.947	-17.41
310.161	80.89
310.374	56.32
310.588	60.42
310.802	-29.7
311.016	-27.65
311.23	3.07
311.444	-46.08
311.658	52.22
311.872	56.32
312.085	23.55
312.299	76.8
312.513	19.46
312.727	78.85
312.941	44.03
313.154	46.08
313.368	5.12
313.582	46.08
313.796	123.9
314.009	48.13
314.223	52.22
314.437	66.56
314.651	54.27
314.864	25.6
315.078	-19.46
315.292	-13.31
315.505	-95.23
315.719	76.8
315.933	84.99
316.146	84.99
316.36	91.13
316.573	76.8
316.787	29.7
317.001	64.51
317.214	35.84
317.428	-54.27
317.641	-37.89
317.855	3.07
318.068	25.6
318.282	21.5
318.495	27.65
318.709	37.89
318.922	60.42
319.136	25.6
319.349	60.42
319.563	44.03
319.776	89.09
319.99	19.46
320.203	99.33
320.417	125.95
320.63	15.36
320.843	74.75
321.057	9.22
321.27	29.7
321.483	31.74
321.697	76.8
321.91	3.07
322.124	62.46
322.337	29.7
322.55	-5.12
322.763	56.32
322.977	60.42
323.19	5.12
323.403	76.8
323.617	84.99
323.83	60.42
324.043	-54.27
324.256	3.07
324.469	11.26
324.683	68.61
324.896	62.46
325.109	3.07
325.322	35.84
325.535	-37.89
325.748	95.23
325.962	78.85
326.175	-5.12
326.388	37.89
326.601	60.42
326.814	78.85
327.027	23.55
327.24	105.47
327.453	-68.61
327.666	-35.84
327.879	25.6
328.092	84.99
328.305	68.61
328.518	-1.02
328.731	21.5
328.944	54.27
329.157	-27.65
329.37	64.51
329.583	60.42
329.796	134.14
330.009	-21.5
330.222	60.42
330.435	62.46
330.648	23.55
330.861	21.5
331.073	-21.5
331.286	-9.22
331.499	13.31
331.712	-29.7
331.925	23.55
332.138	-15.36
332.35	105.47
332.563	11.26
332.776	74.75
332.989	7.17
333.202	56.32
333.414	-17.41
333.627	7.17
333.84	19.46
334.053	29.7
334.265	82.94
334.478	-35.84
334.691	89.09
334.903	58.37
335.116	-19.46
335.329	15.36
335.541	142.33
335.754	52.22
335.966	23.55
336.179	21.5
336.392	142.33
336.604	27.65
336.817	70.65
337.029	103.42
337.242	72.7
337.454	68.61
337.667	-29.7
337.88	19.46
338.092	41.98
338.305	89.09
338.517	29.7
338.729	46.08
338.942	44.03
339.154	29.7
339.367	52.22
339.579	56.32
339.792	-39.94
340.004	60.42
340.217	-11.26
340.429	-5.12
340.641	-1.02
340.854	23.55
341.066	11.26
341.278	46.08
341.491	105.47
341.703	23.55
341.915	-1.02
342.128	64.51
342.34	58.37
342.552	82.94
342.764	39.94
342.977	84.99
343.189	31.74
343.401	70.65
343.613	21.5
343.826	70.65
344.038	-19.46
344.25	121.85
344.462	35.84
344.674	11.26
344.886	-11.26
345.099	-21.5
345.311	89.09
345.523	21.5
345.735	-27.65
345.947	3.07
346.159	35.84
346.371	13.31
346.583	19.46
346.795	132.09
347.007	62.46
347.219	5.12
347.431	29.7
347.643	27.65
347.855	11.26
348.067	-19.46
348.279	27.65
348.491	7.17
348.703	68.61
348.915	60.42
349.127	-60.42
349.339	70.65
349.551	3.07
349.763	60.42
349.975	23.55
350.187	-7.17
350.399	66.56
350.61	58.37
350.822	39.94
351.034	95.23
351.246	33.79
351.458	39.94
351.669	39.94
351.881	62.46
352.093	97.28
352.305	52.22
352.517	33.79
352.728	1.02
352.94	35.84
353.152	60.42
353.363	21.5
353.575	103.42
353.787	60.42
353.999	27.65
354.21	52.22
354.422	52.22
354.633	7.17
354.845	52.22
355.057	68.61
355.268	78.85
355.48	60.42
355.692	27.65
355.903	33.79
356.115	89.09
356.326	93.18
356.538	68.61
356.749	19.46
356.961	95.23
357.172	5.12
357.384	-27.65
357.595	125.95
357.807	1.02
358.018	-5.12
358.23	23.55
358.441	74.75
358.653	89.09
358.864	41.98
359.075	109.57
359.287	31.74
359.498	-35.84
359.709	13.31
359.921	11.26
360.132	68.61
360.344	27.65
360.555	-56.32
360.766	48.13
360.977	72.7
361.189	111.61
361.4	15.36
361.611	136.19
361.823	109.57
362.034	62.46
362.245	29.7
362.456	11.26
362.667	87.04
362.879	-78.85
363.09	60.42
363.301	68.61
363.512	48.13
363.723	56.32
363.935	-9.22
364.146	78.85
364.357	29.7
364.568	84.99
364.779	-29.7
364.99	58.37
365.201	-62.46
365.412	138.24
365.623	-64.51
365.834	25.6
366.045	-9.22
366.256	64.51
366.467	103.42
366.678	68.61
366.889	37.89
367.1	27.65
367.311	52.22
367.522	70.65
367.733	25.6
367.944	54.27
368.155	44.03
368.366	44.03
368.577	68.61
368.788	37.89
368.999	3.07
369.209	48.13
369.42	117.76
369.631	89.09
369.842	21.5
370.053	48.13
370.264	64.51
370.474	13.31
370.685	66.56
370.896	35.84
371.107	68.61
371.317	84.99
371.528	37.89
371.739	35.84
371.95	25.6
372.16	44.03
372.371	-5.12
372.582	37.89
372.792	31.74
373.003	3.07
373.214	72.7
373.424	60.42
373.635	-62.46
373.846	44.03
374.056	-9.22
374.267	101.37
374.477	31.74
374.688	5.12
374.898	101.37
375.109	68.61
375.319	-39.94
375.53	130.05
375.74	27.65
375.951	9.22
376.161	29.7
376.372	123.9
376.582	-25.6
376.793	62.46
377.003	62.46
377.214	93.18
377.424	52.22
377.635	107.52
377.845	-3.07
378.055	144.38
378.266	68.61
378.476	82.94
378.686	21.5
378.897	78.85
379.107	-9.22
379.317	39.94
379.528	54.27
379.738	62.46
379.948	3.07
380.158	68.61
380.369	15.36
380.579	3.07
380.789	13.31
380.999	44.03
381.21	33.79
381.42	76.8
381.63	27.65
381.84	95.23
382.05	35.84
382.261	93.18
382.471	15.36
382.681	80.89
382.891	76.8
383.101	125.95
383.311	23.55
383.521	11.26
383.731	87.04
383.941	78.85
384.151	54.27
384.361	31.74
384.571	-21.5
384.781	68.61
384.991	93.18
385.201	52.22
385.411	19.46
385.621	105.47
385.831	27.65
386.041	64.51
386.251	70.65
386.461	60.42
386.671	27.65
386.881	7.17
387.091	66.56
387.301	23.55
387.511	60.42
387.72	54.27
387.93	60.42
388.14	11.26
388.35	21.5
388.56	60.42
388.769	68.61
388.979	80.89
389.189	5.12
389.399	70.65
389.609	52.22
389.818	13.31
390.028	46.08
390.238	37.89
390.447	19.46
390.657	68.61
390.867	58.37
391.076	23.55
391.286	-17.41
391.496	11.26
391.705	84.99
391.915	70.65
392.125	19.46
392.334	35.84
392.544	97.28
392.753	23.55
392.963	15.36
393.172	74.75
393.382	15.36
393.591	121.85
393.801	35.84
394.01	183.29
394.22	93.18
394.429	54.27
394.639	60.42
394.848	50.18
395.058	52.22
395.267	27.65
395.477	123.9
395.686	44.03
395.895	132.09
396.105	166.91
396.314	109.57
396.524	29.7
396.733	35.84
396.942	123.9
397.152	82.94
397.361	111.61
397.57	44.03
397.78	113.66
397.989	123.9
398.198	160.77
398.407	76.8
398.617	152.57
398.826	93.18
399.035	62.46
399.244	140.29
399.453	82.94
399.663	76.8
399.872	95.23
400.081	105.47
400.29	97.28
400.499	140.29
400.708	158.72
400.917	48.13
401.127	101.37
401.336	105.47
401.545	148.48
401.754	39.94
401.963	154.62
402.172	95.23
402.381	101.37
402.59	70.65
402.799	76.8
403.008	150.53
403.217	113.66
403.426	76.8
403.635	91.13
403.844	52.22
404.053	130.05
404.262	95.23
404.471	166.91
404.68	105.47
404.888	166.91
405.097	76.8
405.306	191.49
405.515	136.19
405.724	150.53
405.933	60.42
406.142	105.47
406.35	146.43
406.559	105.47
406.768	134.14
406.977	171.01
407.185	125.95
407.394	93.18
407.603	142.33
407.812	125.95
408.02	146.43
408.229	201.72
408.438	134.14
408.646	119.81
408.855	160.77
409.064	267.26
409.272	207.87
409.481	220.16
409.69	130.05
409.898	193.53
410.107	240.64
410.315	293.88
410.524	252.92
410.733	340.99
410.941	242.68
411.15	263.16
411.358	257.02
411.567	291.84
411.775	244.73
411.984	310.27
412.192	310.27
412.401	265.21
412.609	381.95
412.818	291.84
413.026	343.03
413.234	357.37
413.443	304.12
413.651	392.19
413.86	304.12
414.068	457.72
414.276	508.92
414.485	396.28
414.693	525.3
414.901	580.6
415.11	465.91
415.318	578.55
415.526	537.59
415.734	611.32
415.943	613.37
416.151	527.35
416.359	531.45
416.567	592.89
416.776	621.56
416.984	611.32
417.192	744.44
417.4	621.56
417.608	662.52
417.817	678.9
418.025	836.6
418.233	832.5
418.441	822.26
418.649	850.93
418.857	902.13
419.065	881.65
419.273	916.47
419.481	859.12
419.689	1039.34
419.897	1080.3
420.105	1088.5
420.313	1068.02
420.521	1063.92
420.729	1141.74
420.937	1240.05
421.145	1229.81
421.353	1317.87
421.561	1403.88
421.769	1338.35
421.977	1436.65
422.185	1498.09
422.393	1436.65
422.601	1573.86
422.809	1586.15
423.017	1618.92
423.224	1645.54
423.432	1721.32
423.64	1760.23
423.848	1860.58
424.056	1764.33
424.263	1956.83
424.471	1870.82
424.679	2059.23
424.887	2108.38
425.094	2167.77
425.302	2214.88
425.51	2288.61
425.718	2284.51
425.925	2227.17
426.133	2474.97
426.341	2577.37
426.548	2642.9
426.756	2620.38
426.964	2716.63
427.171	2886.61
427.379	2814.93
427.586	2966.48
427.794	3048.4
428.001	3109.84
428.209	3333.07
428.417	3460.04
428.624	3527.63
428.832	3529.67
429.039	3453.9
429.247	3595.21
429.454	3806.15
429.662	4019.14
429.869	3806.15
430.076	4137.92
430.284	4094.91
430.491	4150.21
430.699	4369.34
430.906	4391.87
431.114	4418.49
431.321	4672.44
431.528	4641.72
431.736	4934.58
431.943	5213.1
432.15	5116.85
432.358	5053.36
432.565	5286.83
432.772	5352.37
432.979	5581.74
433.187	5598.12
433.394	5649.32
433.601	6208.42
433.808	6359.97
434.016	6216.61
434.223	6452.13
434.43	6904.73
434.637	6699.93
434.844	7080.85
435.052	6974.36
435.259	7121.81
435.466	7130
435.673	7123.86
435.88	7426.96
436.087	7949.19
436.294	7822.22
436.501	7725.96
436.708	8010.63
436.915	8205.19
437.122	8530.81
437.329	8569.73
437.537	8811.39
437.743	8950.65
437.95	8881.02
438.157	9354.1
438.364	9544.56
438.571	9616.24
438.778	9849.71
438.985	10595.17
439.192	10003.3
439.399	10394.47
439.606	10255.2
439.813	10701.66
440.02	11318.1
440.227	11266.9
440.433	11135.83
440.64	11301.72
440.847	11500.37
441.054	11686.73
441.261	12477.25
441.467	12251.97
441.674	12639.04
441.881	12823.36
442.088	13042.49
442.294	12856.12
442.501	13187.89
442.708	13548.34
442.914	13886.25
443.121	14748.45
443.328	14179.11
443.534	15037.21
443.741	14955.29
443.948	14500.64
444.154	15694.61
444.361	15469.33
444.568	15680.27
444.774	15878.93
444.981	15756.05
445.187	16202.5
445.394	16702.21
445.6	16560.9
445.807	18219.75
446.013	17320.7
446.22	17601.27
446.426	18262.76
446.633	18518.76
446.839	19555.03
447.046	18529
447.252	19370.71
447.459	19493.59
447.665	19231.45
447.871	19995.34
448.078	21035.71
448.284	19999.44
448.491	20691.65
448.697	21576.37
448.903	21758.64
449.11	22084.27
449.316	21764.79
449.522	21945.01
449.728	22504.1
449.935	22553.26
450.141	22465.19
450.347	23003.81
450.553	22444.71
450.76	22882.98
450.966	23567
451.172	23251.61
451.378	23966.35
451.584	23087.78
451.791	24470.15
451.997	23702.17
452.203	24242.83
452.409	24044.18
452.615	24337.04
452.821	23319.2
453.027	23057.06
453.233	24203.92
453.44	23210.65
453.646	23610.01
453.852	23728.79
454.058	23984.79
454.264	23610.01
454.47	24244.88
454.676	23251.61
454.882	24265.36
455.088	21752.5
455.294	22565.54
455.5	22735.53
455.705	23143.07
455.911	22031.02
456.117	21772.98
456.323	21347
456.529	20130.51
456.735	21170.88
456.941	20503.24
457.147	20632.26
457.352	19706.58
457.558	19430.1
457.764	19432.15
457.97	19204.83
458.176	18848.48
458.381	18905.82
458.587	18029.29
458.793	17681.14
458.999	16823.04
459.204	18076.4
459.41	17619.7
459.616	16448.26
459.821	16382.73
460.027	16438.02
460.233	16134.92
460.438	15278.87
460.644	15541.01
460.85	14883.61
461.055	14813.98
461.261	14652.19
461.466	13466.42
461.672	13093.69
461.878	14060.33
462.083	13214.52
462.289	12899.13
462.494	12559.17
462.7	12233.54
462.905	11891.53
463.111	12157.77
463.316	12421.95
463.522	12053.32
463.727	12139.33
463.932	12045.13
464.138	11979.59
464.343	11789.13
464.549	11389.78
464.754	12090.18
464.959	11684.69
465.165	11733.84
465.37	11219.8
465.575	10881.88
465.781	11623.25
465.986	11301.72
466.191	11176.79
466.397	10689.37
466.602	10253.16
466.807	10818.39
467.012	10722.14
467.218	10664.8
467.423	10521.44
467.628	10572.64
467.833	10926.94
468.038	10531.68
468.244	10283.88
