Data from USB4F104151__122__14-18-53-961.txt Node

Date: Thu Mar 13 14:18:53 EDT 2025
User: louis
Spectrometer: USB4F10415
Trigger mode: 4
Integration Time (sec): 2.000000E-2
Scans to average: 1
Electric dark correction enabled: true
Nonlinearity correction enabled: false
Boxcar width: 0
XAxis mode: Wavelengths
Number of Pixels in Spectrum: 3648
>>>>>Begin Spectral Data<<<<<
178.204	-132.78
178.424	-132.78
178.644	-132.78
178.864	-153.26
179.084	-128.68
179.304	-42.67
179.524	31.06
179.744	-3.75
179.964	39.25
180.184	8.53
180.404	39.25
180.624	-52.91
180.844	63.83
181.064	-44.71
181.283	-11.95
181.503	-38.57
181.723	12.63
181.943	-22.19
182.163	26.96
182.383	14.68
182.602	12.63
182.822	51.54
183.042	51.54
183.262	-34.47
183.482	37.2
183.701	51.54
183.921	12.63
184.141	-69.29
184.361	26.96
184.58	53.59
184.8	2.39
185.02	-28.33
185.239	45.4
185.459	26.96
185.679	74.07
185.898	41.3
186.118	31.06
186.338	-38.57
186.557	29.01
186.777	-11.95
186.997	45.4
187.216	86.36
187.436	86.36
187.655	29.01
187.875	-11.95
188.095	-5.8
188.314	61.78
188.534	76.12
188.753	-36.52
188.973	10.58
189.192	-26.28
189.412	-38.57
189.631	-5.8
189.851	-9.9
190.07	57.68
190.29	31.06
190.509	55.64
190.729	-9.9
190.948	125.27
191.168	117.08
191.387	84.31
191.607	-13.99
191.826	69.97
192.045	108.88
192.265	-30.38
192.484	-36.52
192.704	-20.14
192.923	2.39
193.142	141.65
193.362	35.16
193.581	18.77
193.8	12.63
194.02	92.5
194.239	39.25
194.458	33.11
194.678	16.73
194.897	-3.75
195.116	18.77
195.335	57.68
195.555	63.83
195.774	43.35
195.993	76.12
196.212	35.16
196.432	-5.8
196.651	6.49
196.87	-3.75
197.089	90.45
197.308	6.49
197.528	-30.38
197.747	-38.57
197.966	61.78
198.185	31.06
198.404	18.77
198.623	2.39
198.842	37.2
199.062	12.63
199.281	102.74
199.5	45.4
199.719	-34.47
199.938	12.63
200.157	45.4
200.376	-44.71
200.595	55.64
200.814	-18.09
201.033	-46.76
201.252	-13.99
201.471	-30.38
201.69	26.96
201.909	29.01
202.128	18.77
202.347	-5.8
202.566	-1.71
202.785	-5.8
203.004	55.64
203.223	84.31
203.442	2.39
203.661	35.16
203.879	108.88
204.098	84.31
204.317	51.54
204.536	51.54
204.755	51.54
204.974	-50.86
205.193	76.12
205.411	92.5
205.63	-38.57
205.849	41.3
206.068	-13.99
206.287	-38.57
206.505	55.64
206.724	2.39
206.943	-28.33
207.162	-69.29
207.381	82.26
207.599	51.54
207.818	-5.8
208.037	37.2
208.255	0.34
208.474	35.16
208.693	-5.8
208.911	26.96
209.13	-44.71
209.349	18.77
209.567	-44.71
209.786	100.69
210.005	61.78
210.223	-5.8
210.442	-13.99
210.661	-22.19
210.879	33.11
211.098	-1.71
211.316	106.84
211.535	51.54
211.753	26.96
211.972	-30.38
212.191	-26.28
212.409	20.82
212.628	72.02
212.846	-11.95
213.065	-28.33
213.283	51.54
213.502	-28.33
213.72	51.54
213.938	-44.71
214.157	29.01
214.375	43.35
214.594	2.39
214.812	119.12
215.031	-38.57
215.249	-22.19
215.467	6.49
215.686	-5.8
215.904	10.58
216.122	6.49
216.341	29.01
216.559	49.49
216.778	80.21
216.996	-26.28
217.214	22.87
217.432	20.82
217.651	35.16
217.869	-52.91
218.087	20.82
218.306	12.63
218.524	6.49
218.742	69.97
218.96	29.01
219.179	-11.95
219.397	63.83
219.615	47.44
219.833	92.5
220.051	-13.99
220.27	26.96
220.488	26.96
220.706	76.12
220.924	-30.38
221.142	31.06
221.36	2.39
221.578	-30.38
221.796	6.49
222.015	31.06
222.233	12.63
222.451	-18.09
222.669	-22.19
222.887	26.96
223.105	10.58
223.323	45.4
223.541	49.49
223.759	35.16
223.977	33.11
224.195	29.01
224.413	4.44
224.631	18.77
224.849	49.49
225.067	84.31
225.285	67.92
225.503	63.83
225.721	-16.04
225.939	20.82
226.157	-5.8
226.375	51.54
226.592	43.35
226.81	45.4
227.028	-24.23
227.246	12.63
227.464	-67.24
227.682	-9.9
227.9	45.4
228.117	22.87
228.335	33.11
228.553	35.16
228.771	20.82
228.989	57.68
229.206	76.12
229.424	20.82
229.642	51.54
229.86	-13.99
230.077	10.58
230.295	33.11
230.513	22.87
230.731	45.4
230.948	10.58
231.166	18.77
231.384	18.77
231.601	10.58
231.819	26.96
232.037	-5.8
232.254	-16.04
232.472	-38.57
232.689	22.87
232.907	-5.8
233.125	29.01
233.342	-5.8
233.56	100.69
233.777	4.44
233.995	-5.8
234.213	49.49
234.43	18.77
234.648	43.35
234.865	43.35
235.083	63.83
235.3	43.35
235.518	-1.71
235.735	49.49
235.953	26.96
236.17	35.16
236.388	69.97
236.605	26.96
236.822	59.73
237.04	37.2
237.257	29.01
237.475	4.44
237.692	29.01
237.909	-28.33
238.127	102.74
238.344	18.77
238.562	35.16
238.779	43.35
238.996	-3.75
239.214	-7.85
239.431	2.39
239.648	45.4
239.865	8.53
240.083	55.64
240.3	14.68
240.517	-1.71
240.735	18.77
240.952	59.73
241.169	6.49
241.386	12.63
241.603	67.92
241.821	-3.75
242.038	86.36
242.255	78.16
242.472	-30.38
242.689	47.44
242.907	53.59
243.124	10.58
243.341	-13.99
243.558	-7.85
243.775	-13.99
243.992	12.63
244.209	8.53
244.426	76.12
244.643	-22.19
244.86	18.77
245.078	-32.43
245.295	55.64
245.512	-11.95
245.729	-26.28
245.946	35.16
246.163	10.58
246.38	10.58
246.597	82.26
246.814	47.44
247.031	-42.67
247.248	51.54
247.464	63.83
247.681	-20.14
247.898	18.77
248.115	61.78
248.332	-26.28
248.549	4.44
248.766	123.22
248.983	82.26
249.2	10.58
249.417	39.25
249.633	35.16
249.85	45.4
250.067	2.39
250.284	43.35
250.501	33.11
250.717	-34.47
250.934	16.73
251.151	-34.47
251.368	10.58
251.585	51.54
251.801	67.92
252.018	53.59
252.235	84.31
252.451	31.06
252.668	-9.9
252.885	8.53
253.102	76.12
253.318	-5.8
253.535	-69.29
253.752	8.53
253.968	-13.99
254.185	-50.86
254.401	-26.28
254.618	-1.71
254.835	6.49
255.051	129.36
255.268	39.25
255.484	-24.23
255.701	33.11
255.917	16.73
256.134	10.58
256.351	51.54
256.567	86.36
256.784	-54.95
257	-18.09
257.217	63.83
257.433	35.16
257.65	72.02
257.866	92.5
258.082	2.39
258.299	35.16
258.515	45.4
258.732	61.78
258.948	-26.28
259.165	18.77
259.381	-13.99
259.597	51.54
259.814	43.35
260.03	10.58
260.246	18.77
260.463	33.11
260.679	59.73
260.895	35.16
261.112	26.96
261.328	35.16
261.544	47.44
261.761	2.39
261.977	47.44
262.193	-38.57
262.409	43.35
262.626	29.01
262.842	18.77
263.058	-5.8
263.274	24.92
263.49	-30.38
263.707	92.5
263.923	-11.95
264.139	-63.15
264.355	12.63
264.571	53.59
264.787	24.92
265.004	-30.38
265.22	51.54
265.436	39.25
265.652	-46.76
265.868	18.77
266.084	10.58
266.3	67.92
266.516	-77.48
266.732	-5.8
266.948	-18.09
267.164	43.35
267.38	10.58
267.596	47.44
267.812	67.92
268.028	20.82
268.244	10.58
268.46	-26.28
268.676	35.16
268.892	100.69
269.108	2.39
269.324	-22.19
269.54	39.25
269.756	84.31
269.972	63.83
270.188	41.3
270.403	-9.9
270.619	22.87
270.835	76.12
271.051	-11.95
271.267	-20.14
271.483	72.02
271.698	59.73
271.914	43.35
272.13	22.87
272.346	20.82
272.562	0.34
272.777	69.97
272.993	-42.67
273.209	22.87
273.425	24.92
273.64	43.35
273.856	26.96
274.072	43.35
274.287	-34.47
274.503	35.16
274.719	10.58
274.934	43.35
275.15	12.63
275.366	0.34
275.581	-16.04
275.797	45.4
276.012	22.87
276.228	-3.75
276.444	110.93
276.659	61.78
276.875	-3.75
277.09	-13.99
277.306	-1.71
277.521	51.54
277.737	29.01
277.952	69.97
278.168	37.2
278.383	16.73
278.599	41.3
278.814	14.68
279.03	18.77
279.245	24.92
279.461	69.97
279.676	76.12
279.892	-44.71
280.107	26.96
280.322	104.79
280.538	61.78
280.753	59.73
280.969	18.77
281.184	-9.9
281.399	18.77
281.615	6.49
281.83	59.73
282.045	16.73
282.26	104.79
282.476	37.2
282.691	31.06
282.906	24.92
283.122	-20.14
283.337	33.11
283.552	137.56
283.767	20.82
283.983	108.88
284.198	6.49
284.413	-13.99
284.628	-5.8
284.843	10.58
285.058	55.64
285.274	-30.38
285.489	22.87
285.704	26.96
285.919	-3.75
286.134	-28.33
286.349	-30.38
286.564	-18.09
286.779	43.35
286.995	-1.71
287.21	-22.19
287.425	31.06
287.64	0.34
287.855	-5.8
288.07	61.78
288.285	158.03
288.5	2.39
288.715	-18.09
288.93	26.96
289.145	-46.76
289.36	16.73
289.575	29.01
289.79	67.92
290.004	98.64
290.219	-11.95
290.434	-3.75
290.649	-28.33
290.864	4.44
291.079	2.39
291.294	61.78
291.509	33.11
291.724	-22.19
291.938	18.77
292.153	26.96
292.368	-50.86
292.583	0.34
292.798	4.44
293.012	8.53
293.227	37.2
293.442	37.2
293.657	-1.71
293.871	51.54
294.086	12.63
294.301	76.12
294.516	92.5
294.73	35.16
294.945	-9.9
295.16	43.35
295.374	29.01
295.589	51.54
295.804	-69.29
296.018	37.2
296.233	86.36
296.447	61.78
296.662	-52.91
296.877	39.25
297.091	49.49
297.306	2.39
297.52	4.44
297.735	10.58
297.949	12.63
298.164	-20.14
298.378	-5.8
298.593	65.88
298.807	26.96
299.022	63.83
299.236	51.54
299.451	47.44
299.665	-54.95
299.88	-36.52
300.094	-50.86
300.309	18.77
300.523	-5.8
300.737	-18.09
300.952	-18.09
301.166	51.54
301.381	-34.47
301.595	76.12
301.809	10.58
302.024	26.96
302.238	59.73
302.452	59.73
302.667	2.39
302.881	-20.14
303.095	98.64
303.309	72.02
303.524	-102.06
303.738	57.68
303.952	43.35
304.166	76.12
304.381	31.06
304.595	37.2
304.809	-11.95
305.023	31.06
305.237	-44.71
305.452	37.2
305.666	26.96
305.88	43.35
306.094	6.49
306.308	26.96
306.522	22.87
306.736	-3.75
306.95	-26.28
307.164	76.12
307.379	12.63
307.593	84.31
307.807	59.73
308.021	78.16
308.235	31.06
308.449	2.39
308.663	-13.99
308.877	69.97
309.091	18.77
309.305	37.2
309.519	-36.52
309.733	63.83
309.947	-11.95
310.161	-11.95
310.374	29.01
310.588	18.77
310.802	6.49
311.016	49.49
311.23	26.96
311.444	33.11
311.658	29.01
311.872	59.73
312.085	33.11
312.299	20.82
312.513	20.82
312.727	43.35
312.941	24.92
313.154	49.49
313.368	43.35
313.582	67.92
313.796	31.06
314.009	-34.47
314.223	31.06
314.437	61.78
314.651	88.4
314.864	51.54
315.078	-54.95
315.292	6.49
315.505	59.73
315.719	-5.8
315.933	104.79
316.146	51.54
316.36	-30.38
316.573	20.82
316.787	78.16
317.001	57.68
317.214	53.59
317.428	88.4
317.641	-73.39
317.855	-34.47
318.068	-46.76
318.282	4.44
318.495	24.92
318.709	78.16
318.922	59.73
319.136	12.63
319.349	88.4
319.563	12.63
319.776	63.83
319.99	51.54
320.203	-16.04
320.417	80.21
320.63	35.16
320.843	24.92
321.057	26.96
321.27	84.31
321.483	35.16
321.697	35.16
321.91	72.02
322.124	20.82
322.337	-46.76
322.55	53.59
322.763	10.58
322.977	16.73
323.19	14.68
323.403	-24.23
323.617	61.78
323.83	78.16
324.043	51.54
324.256	100.69
324.469	35.16
324.683	88.4
324.896	41.3
325.109	0.34
325.322	72.02
325.535	43.35
325.748	-30.38
325.962	-5.8
326.175	-38.57
326.388	51.54
326.601	26.96
326.814	39.25
327.027	22.87
327.24	43.35
327.453	26.96
327.666	-5.8
327.879	43.35
328.092	82.26
328.305	59.73
328.518	20.82
328.731	4.44
328.944	18.77
329.157	61.78
329.37	59.73
329.583	49.49
329.796	26.96
330.009	-30.38
330.222	127.32
330.435	-5.8
330.648	-22.19
330.861	67.92
331.073	10.58
331.286	100.69
331.499	10.58
331.712	29.01
331.925	78.16
332.138	6.49
332.35	88.4
332.563	-22.19
332.776	61.78
332.989	12.63
333.202	74.07
333.414	18.77
333.627	-5.8
333.84	90.45
334.053	43.35
334.265	-69.29
334.478	20.82
334.691	-13.99
334.903	55.64
335.116	-3.75
335.329	33.11
335.541	72.02
335.754	55.64
335.966	20.82
336.179	55.64
336.392	4.44
336.604	84.31
336.817	18.77
337.029	12.63
337.242	57.68
337.454	47.44
337.667	39.25
337.88	86.36
338.092	57.68
338.305	8.53
338.517	-36.52
338.729	18.77
338.942	59.73
339.154	4.44
339.367	-22.19
339.579	39.25
339.792	-38.57
340.004	43.35
340.217	-38.57
340.429	20.82
340.641	-28.33
340.854	18.77
341.066	35.16
341.278	29.01
341.491	96.6
341.703	55.64
341.915	-61.1
342.128	24.92
342.34	-13.99
342.552	57.68
342.764	29.01
342.977	16.73
343.189	10.58
343.401	51.54
343.613	26.96
343.826	18.77
344.038	29.01
344.25	10.58
344.462	57.68
344.674	55.64
344.886	96.6
345.099	43.35
345.311	-1.71
345.523	100.69
345.735	29.01
345.947	-11.95
346.159	22.87
346.371	-38.57
346.583	-13.99
346.795	63.83
347.007	-100.01
347.219	49.49
347.431	84.31
347.643	26.96
347.855	37.2
348.067	153.94
348.279	12.63
348.491	18.77
348.703	53.59
348.915	112.98
349.127	4.44
349.339	26.96
349.551	69.97
349.763	26.96
349.975	12.63
350.187	26.96
350.399	10.58
350.61	94.55
350.822	-34.47
351.034	18.77
351.246	55.64
351.458	72.02
351.669	18.77
351.881	39.25
352.093	22.87
352.305	92.5
352.517	10.58
352.728	14.68
352.94	59.73
353.152	67.92
353.363	-38.57
353.575	74.07
353.787	112.98
353.999	43.35
354.21	115.03
354.422	8.53
354.633	100.69
354.845	35.16
355.057	76.12
355.268	47.44
355.48	10.58
355.692	10.58
355.903	-28.33
356.115	24.92
356.326	26.96
356.538	18.77
356.749	14.68
356.961	51.54
357.172	-26.28
357.384	-20.14
357.595	98.64
357.807	39.25
358.018	4.44
358.23	47.44
358.441	117.08
358.653	45.4
358.864	4.44
359.075	39.25
359.287	39.25
359.498	53.59
359.709	-18.09
359.921	55.64
360.132	26.96
360.344	18.77
360.555	29.01
360.766	67.92
360.977	24.92
361.189	80.21
361.4	22.87
361.611	69.97
361.823	55.64
362.034	18.77
362.245	-16.04
362.456	26.96
362.667	14.68
362.879	29.01
363.09	72.02
363.301	10.58
363.512	-40.62
363.723	16.73
363.935	-11.95
364.146	10.58
364.357	45.4
364.568	84.31
364.779	-18.09
364.99	69.97
365.201	-5.8
365.412	57.68
365.623	88.4
365.834	14.68
366.045	-3.75
366.256	72.02
366.467	-5.8
366.678	104.79
366.889	-34.47
367.1	45.4
367.311	69.97
367.522	-46.76
367.733	-13.99
367.944	92.5
368.155	10.58
368.366	51.54
368.577	51.54
368.788	61.78
368.999	-44.71
369.209	45.4
369.42	63.83
369.631	127.32
369.842	102.74
370.053	76.12
370.264	57.68
370.474	59.73
370.685	76.12
370.896	57.68
371.107	98.64
371.317	14.68
371.528	10.58
371.739	43.35
371.95	102.74
372.16	55.64
372.371	-30.38
372.582	18.77
372.792	51.54
373.003	67.92
373.214	51.54
373.424	4.44
373.635	2.39
373.846	67.92
374.056	-30.38
374.267	37.2
374.477	26.96
374.688	67.92
374.898	59.73
375.109	45.4
375.319	26.96
375.53	51.54
375.74	4.44
375.951	100.69
376.161	45.4
376.372	-1.71
376.582	-26.28
376.793	20.82
377.003	-42.67
377.214	41.3
377.424	67.92
377.635	61.78
377.845	31.06
378.055	53.59
378.266	-30.38
378.476	61.78
378.686	65.88
378.897	24.92
379.107	18.77
379.317	29.01
379.528	18.77
379.738	45.4
379.948	35.16
380.158	4.44
380.369	18.77
380.579	33.11
380.789	43.35
380.999	82.26
381.21	86.36
381.42	141.65
381.63	-20.14
381.84	76.12
382.05	61.78
382.261	53.59
382.471	12.63
382.681	53.59
382.891	106.84
383.101	69.97
383.311	31.06
383.521	12.63
383.731	110.93
383.941	110.93
384.151	-52.91
384.361	49.49
384.571	76.12
384.781	18.77
384.991	72.02
385.201	117.08
385.411	86.36
385.621	59.73
385.831	24.92
386.041	12.63
386.251	63.83
386.461	78.16
386.671	74.07
386.881	112.98
387.091	-13.99
387.301	108.88
387.511	-79.53
387.72	61.78
387.93	41.3
388.14	37.2
388.35	-42.67
388.56	94.55
388.769	41.3
388.979	94.55
389.189	-20.14
389.399	78.16
389.609	10.58
389.818	26.96
390.028	100.69
390.238	29.01
390.447	-1.71
390.657	69.97
390.867	16.73
391.076	67.92
391.286	51.54
391.496	53.59
391.705	59.73
391.915	59.73
392.125	49.49
392.334	61.78
392.544	69.97
392.753	55.64
392.963	31.06
393.172	76.12
393.382	-13.99
393.591	141.65
393.801	18.77
394.01	96.6
394.22	53.59
394.429	51.54
394.639	51.54
394.848	123.22
395.058	123.22
395.267	84.31
395.477	55.64
395.686	43.35
395.895	90.45
396.105	84.31
396.314	135.51
396.524	94.55
396.733	47.44
396.942	26.96
397.152	39.25
397.361	76.12
397.57	53.59
397.78	8.53
397.989	53.59
398.198	178.51
398.407	69.97
398.617	24.92
398.826	10.58
399.035	76.12
399.244	112.98
399.453	43.35
399.663	110.93
399.872	63.83
400.081	123.22
400.29	2.39
400.499	53.59
400.708	88.4
400.917	69.97
401.127	78.16
401.336	96.6
401.545	115.03
401.754	41.3
401.963	100.69
402.172	117.08
402.381	43.35
402.59	76.12
402.799	125.27
403.008	86.36
403.217	72.02
403.426	196.95
403.635	2.39
403.844	80.21
404.053	61.78
404.262	92.5
404.471	84.31
404.68	43.35
404.888	121.17
405.097	121.17
405.306	170.32
405.515	106.84
405.724	88.4
405.933	180.56
406.142	133.46
406.35	151.89
406.559	203.09
406.768	98.64
406.977	237.91
407.185	149.84
407.394	264.53
407.603	78.16
407.812	127.32
408.02	192.85
408.229	158.03
408.438	117.08
408.646	223.57
408.855	174.42
409.064	190.8
409.272	176.47
409.481	264.53
409.69	194.9
409.898	260.43
410.107	231.76
410.315	274.77
410.524	272.72
410.733	239.95
410.941	231.76
411.15	256.34
411.358	280.91
411.567	323.92
411.775	276.82
411.984	330.06
412.192	272.72
412.401	389.46
412.609	397.65
412.818	383.31
413.026	371.02
413.234	291.15
413.443	416.08
413.651	477.52
413.86	379.22
414.068	459.09
414.276	475.47
414.485	432.46
414.693	457.04
414.901	551.24
415.11	553.29
415.318	479.57
415.526	579.92
415.734	543.05
415.943	604.49
416.151	627.02
416.359	633.16
416.567	674.12
416.776	702.79
416.984	788.81
417.192	700.75
417.4	715.08
417.608	788.81
417.817	786.76
418.025	788.81
418.233	956.74
418.441	846.15
418.649	895.3
418.857	1018.18
419.065	995.65
419.273	975.17
419.481	1007.94
419.689	1108.29
419.897	1046.85
420.105	1182.02
420.313	1241.41
420.521	1091.91
420.729	1284.42
420.937	1202.5
421.145	1208.64
421.353	1335.62
421.561	1378.62
421.769	1413.44
421.977	1395.01
422.185	1638.72
422.393	1595.71
422.601	1784.12
422.809	1747.26
423.017	1608
423.224	1739.07
423.432	1855.8
423.64	1911.1
423.848	2011.45
424.056	1995.06
424.263	2148.66
424.471	2036.02
424.679	2173.24
424.887	2320.69
425.094	2273.59
425.302	2418.99
425.51	2466.1
425.718	2511.15
425.925	2435.38
426.133	2629.93
426.341	2838.83
426.548	2963.75
426.756	2935.08
426.964	2924.84
427.171	3064.1
427.379	3182.88
427.586	3201.32
427.794	3262.76
428.001	3467.55
428.209	3649.82
428.417	3528.99
428.624	3868.95
428.832	3911.96
429.039	3914.01
429.247	3791.13
429.454	4378.9
429.662	4557.07
429.869	4186.39
430.076	4532.5
430.284	4358.42
430.491	4581.65
430.699	4630.8
430.906	4765.96
431.114	4718.86
431.321	4868.36
431.528	5001.48
431.736	5466.37
431.943	5636.35
432.15	5568.77
432.358	5607.68
432.565	5820.67
432.772	5822.72
432.979	6326.52
433.187	6293.75
433.394	6322.42
433.601	6736.11
433.808	6562.03
434.016	6646
434.223	6928.62
434.43	7545.06
434.637	7489.76
434.844	7938.27
435.052	7928.03
435.259	7796.96
435.466	7753.95
435.673	7762.14
435.88	8288.47
436.087	8747.22
436.294	8853.71
436.501	8388.82
436.708	8788.18
436.915	8931.53
437.122	9504.96
437.329	9216.2
437.537	9756.86
437.743	9765.06
437.95	9801.92
438.157	10307.77
438.364	10467.51
438.571	10500.28
438.778	10516.66
438.985	11722.91
439.192	11147.44
439.399	11511.97
439.606	11274.41
439.813	11909.28
440.02	12640.4
440.227	12298.39
440.433	12302.49
440.64	12671.12
440.847	12486.81
441.054	12828.82
441.261	13746.31
441.467	13576.33
441.674	13834.37
441.881	14293.12
442.088	14237.82
442.294	14059.65
442.501	14680.18
442.708	14782.58
442.914	15446.12
443.121	15935.59
443.328	15706.21
443.534	16586.84
443.741	16167.01
443.948	16074.85
444.154	17152.08
444.361	16980.05
444.568	17199.18
444.774	17420.36
444.981	17412.17
445.187	17834.05
445.394	18860.09
445.6	18372.67
445.807	20289.57
446.013	19662.89
446.22	19609.64
446.426	20371.49
446.633	20699.16
446.839	21233.68
447.046	20461.6
447.252	21825.54
447.459	21471.25
447.665	21370.9
447.871	22587.39
448.078	23267.31
448.284	22323.2
448.491	22794.23
448.697	23609.33
448.903	24393.7
449.11	24227.81
449.316	23797.74
449.522	24193
449.728	25012.18
449.935	25104.34
450.141	24985.56
450.347	25391.06
450.553	24778.72
450.76	25176.02
450.966	26138.57
451.172	26091.46
451.378	26554.3
451.584	26003.4
451.791	26650.56
451.997	26726.33
452.203	26738.62
452.409	27158.45
452.615	26982.33
452.821	25978.82
453.027	25833.42
453.233	27011
453.44	26154.95
453.646	26253.25
453.852	26609.6
454.058	27221.94
454.264	25821.13
454.47	26838.97
454.676	25917.39
454.882	26795.96
455.088	24643.55
455.294	24973.27
455.5	25540.56
455.705	25806.8
455.911	24412.13
456.117	24123.37
456.323	23980.01
456.529	22441.98
456.735	23717.87
456.941	23031.8
457.147	22566.91
457.352	21909.51
457.558	21907.46
457.764	21669.9
457.97	21293.07
458.176	20887.57
458.381	20774.94
458.587	19597.35
458.793	20111.39
458.999	18937.91
459.204	20367.39
459.41	19800.1
459.616	18470.97
459.821	18577.47
460.027	18282.56
460.233	18004.03
460.438	17322.06
460.644	17164.37
460.85	16738.39
461.055	16222.3
461.261	16287.84
461.466	15226.99
461.672	14657.65
461.878	15884.39
462.083	14520.44
462.289	14123.13
462.494	14149.76
462.7	13701.25
462.905	13291.66
463.111	13805.7
463.316	13883.52
463.522	13551.75
463.727	13183.12
463.932	13228.17
464.138	13303.95
464.343	13254.8
464.549	12671.12
464.754	13125.77
464.959	13291.66
465.165	12933.26
465.37	12722.32
465.575	12144.8
465.781	12796.05
465.986	12744.85
466.191	12167.32
466.397	12021.92
466.602	11333.8
466.807	11954.33
467.012	11905.18
467.218	11962.53
467.423	11837.6
467.628	11954.33
