Data from USB4F104151__232__14-21-51-077.txt Node

Date: Thu Mar 13 14:21:51 EDT 2025
User: louis
Spectrometer: USB4F10415
Trigger mode: 4
Integration Time (sec): 2.000000E-2
Scans to average: 1
Electric dark correction enabled: true
Nonlinearity correction enabled: false
Boxcar width: 0
XAxis mode: Wavelengths
Number of Pixels in Spectrum: 3648
>>>>>Begin Spectral Data<<<<<
178.204	-63.66
178.424	-63.66
178.644	-63.66
178.864	-104.62
179.084	-137.38
179.304	18.26
179.524	46.93
179.744	26.45
179.964	-14.51
180.184	-22.7
180.404	26.45
180.624	-0.17
180.844	10.07
181.064	-86.19
181.283	26.45
181.503	-4.27
181.723	-26.79
181.943	-26.79
182.163	79.7
182.383	20.31
182.602	26.45
182.822	24.4
183.042	36.69
183.262	53.08
183.482	30.55
183.701	73.56
183.921	-41.13
184.141	16.21
184.361	48.98
184.58	-14.51
184.8	55.12
185.02	63.32
185.239	-10.41
185.459	26.45
185.679	28.5
185.898	26.45
186.118	67.41
186.338	34.64
186.557	26.45
186.777	10.07
186.997	-28.84
187.216	5.97
187.436	75.6
187.655	1.88
187.875	85.84
188.095	24.4
188.314	110.42
188.534	46.93
188.753	26.45
188.973	30.55
189.192	94.04
189.412	67.41
189.631	44.88
189.851	51.03
190.07	42.84
190.29	-28.84
190.509	40.79
190.729	1.88
190.948	42.84
191.168	87.89
191.387	89.94
191.607	-2.22
191.826	79.7
192.045	-28.84
192.265	-37.03
192.484	38.74
192.704	44.88
192.923	-4.27
193.142	112.47
193.362	79.7
193.581	81.75
193.8	53.08
194.02	1.88
194.239	22.36
194.458	143.19
194.678	-6.31
194.897	-28.84
195.116	26.45
195.335	34.64
195.555	1.88
195.774	-4.27
195.993	85.84
196.212	38.74
196.432	38.74
196.651	22.36
196.87	26.45
197.089	40.79
197.308	-2.22
197.528	48.98
197.747	1.88
197.966	-6.31
198.185	106.32
198.404	-45.23
198.623	34.64
198.842	10.07
199.062	55.12
199.281	77.65
199.5	28.5
199.719	34.64
199.938	75.6
200.157	91.99
200.376	30.55
200.595	77.65
200.814	73.56
201.033	18.26
201.252	-22.7
201.471	36.69
201.69	44.88
201.909	75.6
202.128	12.12
202.347	10.07
202.566	5.97
202.785	12.12
203.004	-22.7
203.223	122.71
203.442	36.69
203.661	26.45
203.879	63.32
204.098	100.18
204.317	18.26
204.536	106.32
204.755	118.61
204.974	126.8
205.193	75.6
205.411	73.56
205.63	20.31
205.849	63.32
206.068	128.85
206.287	34.64
206.505	59.22
206.724	55.12
206.943	61.27
207.162	30.55
207.381	51.03
207.599	36.69
207.818	91.99
208.037	75.6
208.255	1.88
208.474	-22.7
208.693	26.45
208.911	-10.41
209.13	-22.7
209.349	-39.08
209.567	75.6
209.786	51.03
210.005	34.64
210.223	5.97
210.442	10.07
210.661	69.46
210.879	-4.27
211.098	12.12
211.316	16.21
211.535	75.6
211.753	-6.31
211.972	14.17
212.191	69.46
212.409	24.4
212.628	71.51
212.846	-37.03
213.065	69.46
213.283	42.84
213.502	-4.27
213.72	16.21
213.938	100.18
214.157	12.12
214.375	55.12
214.594	1.88
214.812	55.12
215.031	34.64
215.249	-12.46
215.467	36.69
215.686	46.93
215.904	51.03
216.122	20.31
216.341	38.74
216.559	28.5
216.778	38.74
216.996	30.55
217.214	51.03
217.432	26.45
217.651	57.17
217.869	22.36
218.087	-8.36
218.306	89.94
218.524	46.93
218.742	128.85
218.96	61.27
219.179	12.12
219.397	83.8
219.615	57.17
219.833	42.84
220.051	57.17
220.27	12.12
220.488	55.12
220.706	69.46
220.924	-12.46
221.142	38.74
221.36	102.23
221.578	22.36
221.796	75.6
222.015	14.17
222.233	98.13
222.451	61.27
222.669	20.31
222.887	85.84
223.105	38.74
223.323	61.27
223.541	-16.55
223.759	153.43
223.977	-14.51
224.195	67.41
224.413	77.65
224.631	124.76
224.849	-6.31
225.067	126.8
225.285	42.84
225.503	94.04
225.721	-4.27
225.939	36.69
226.157	-0.17
226.375	178
226.592	42.84
226.81	1.88
227.028	110.42
227.246	118.61
227.464	55.12
227.682	22.36
227.9	77.65
228.117	-14.51
228.335	12.12
228.553	38.74
228.771	20.31
228.989	65.36
229.206	53.08
229.424	12.12
229.642	-10.41
229.86	10.07
230.077	-18.6
230.295	42.84
230.513	91.99
230.731	44.88
230.948	53.08
231.166	114.52
231.384	26.45
231.601	55.12
231.819	157.52
232.037	48.98
232.254	-18.6
232.472	20.31
232.689	79.7
232.907	30.55
233.125	30.55
233.342	28.5
233.56	1.88
233.777	48.98
233.995	34.64
234.213	69.46
234.43	102.23
234.648	51.03
234.865	102.23
235.083	71.51
235.3	30.55
235.518	18.26
235.735	18.26
235.953	124.76
236.17	-0.17
236.388	130.9
236.605	75.6
236.822	132.95
237.04	147.28
237.257	12.12
237.475	26.45
237.692	30.55
237.909	-2.22
238.127	28.5
238.344	-24.75
238.562	61.27
238.779	-18.6
238.996	81.75
239.214	59.22
239.431	75.6
239.648	5.97
239.865	28.5
240.083	96.08
240.3	59.22
240.517	36.69
240.735	26.45
240.952	126.8
241.169	69.46
241.386	96.08
241.603	-4.27
241.821	106.32
242.038	69.46
242.255	10.07
242.472	-32.94
242.689	83.8
242.907	75.6
243.124	-0.17
243.341	59.22
243.558	42.84
243.775	1.88
243.992	-28.84
244.209	30.55
244.426	46.93
244.643	69.46
244.86	5.97
245.078	53.08
245.295	83.8
245.512	94.04
245.729	59.22
245.946	53.08
246.163	116.56
246.38	-2.22
246.597	-14.51
246.814	12.12
247.031	-6.31
247.248	3.93
247.464	8.02
247.681	65.36
247.898	118.61
248.115	18.26
248.332	-63.66
248.549	112.47
248.766	89.94
248.983	75.6
249.2	3.93
249.417	118.61
249.633	26.45
249.85	34.64
250.067	-6.31
250.284	22.36
250.501	145.24
250.717	67.41
250.934	28.5
251.151	100.18
251.368	46.93
251.585	81.75
251.801	59.22
252.018	-45.23
252.235	91.99
252.451	61.27
252.668	34.64
252.885	-6.31
253.102	46.93
253.318	10.07
253.535	36.69
253.752	46.93
253.968	28.5
254.185	12.12
254.401	-2.22
254.618	3.93
254.835	34.64
255.051	55.12
255.268	67.41
255.484	-6.31
255.701	59.22
255.917	59.22
256.134	20.31
256.351	5.97
256.567	-2.22
256.784	51.03
257	-28.84
257.217	20.31
257.433	104.28
257.65	20.31
257.866	30.55
258.082	-16.55
258.299	87.89
258.515	20.31
258.732	137.04
258.948	44.88
259.165	102.23
259.381	-6.31
259.597	-47.27
259.814	59.22
260.03	42.84
260.246	59.22
260.463	8.02
260.679	61.27
260.895	18.26
261.112	34.64
261.328	67.41
261.544	59.22
261.761	116.56
261.977	-22.7
262.193	22.36
262.409	61.27
262.626	77.65
262.842	77.65
263.058	53.08
263.274	85.84
263.49	42.84
263.707	67.41
263.923	42.84
264.139	14.17
264.355	-6.31
264.571	106.32
264.787	108.37
265.004	69.46
265.22	104.28
265.436	-12.46
265.652	57.17
265.868	77.65
266.084	26.45
266.3	116.56
266.516	-26.79
266.732	61.27
266.948	-28.84
267.164	-18.6
267.38	94.04
267.596	30.55
267.812	75.6
268.028	65.36
268.244	-0.17
268.46	36.69
268.676	59.22
268.892	51.03
269.108	104.28
269.324	20.31
269.54	75.6
269.756	30.55
269.972	-26.79
270.188	67.41
270.403	-41.13
270.619	42.84
270.835	53.08
271.051	3.93
271.267	42.84
271.483	34.64
271.698	30.55
271.914	102.23
272.13	81.75
272.346	40.79
272.562	67.41
272.777	75.6
272.993	-30.89
273.209	-2.22
273.425	87.89
273.64	65.36
273.856	1.88
274.072	34.64
274.287	-49.32
274.503	26.45
274.719	-51.37
274.934	-28.84
275.15	-57.51
275.366	-8.36
275.581	46.93
275.797	104.28
276.012	34.64
276.228	-18.6
276.444	30.55
276.659	59.22
276.875	38.74
277.09	30.55
277.306	20.31
277.521	61.27
277.737	-22.7
277.952	75.6
278.168	16.21
278.383	22.36
278.599	-2.22
278.814	124.76
279.03	53.08
279.245	98.13
279.461	104.28
279.676	106.32
279.892	-20.65
280.107	71.51
280.322	83.8
280.538	14.17
280.753	55.12
280.969	42.84
281.184	46.93
281.399	48.98
281.615	46.93
281.83	53.08
282.045	8.02
282.26	69.46
282.476	59.22
282.691	94.04
282.906	8.02
283.122	55.12
283.337	-22.7
283.552	55.12
283.767	24.4
283.983	42.84
284.198	-39.08
284.413	124.76
284.628	44.88
284.843	83.8
285.058	63.32
285.274	-18.6
285.489	59.22
285.704	67.41
285.919	34.64
286.134	89.94
286.349	75.6
286.564	32.6
286.779	51.03
286.995	14.17
287.21	8.02
287.425	18.26
287.64	42.84
287.855	14.17
288.07	-6.31
288.285	65.36
288.5	61.27
288.715	69.46
288.93	34.64
289.145	-14.51
289.36	-30.89
289.575	-8.36
289.79	-41.13
290.004	48.98
290.219	46.93
290.434	-4.27
290.649	96.08
290.864	75.6
291.079	46.93
291.294	67.41
291.509	-61.61
291.724	106.32
291.938	12.12
292.153	110.42
292.368	-14.51
292.583	126.8
292.798	28.5
293.012	116.56
293.227	57.17
293.442	16.21
293.657	48.98
293.871	53.08
294.086	89.94
294.301	132.95
294.516	79.7
294.73	32.6
294.945	-65.71
295.16	91.99
295.374	102.23
295.589	55.12
295.804	24.4
296.018	83.8
296.233	104.28
296.447	104.28
296.662	83.8
296.877	55.12
297.091	69.46
297.306	53.08
297.52	-28.84
297.735	110.42
297.949	14.17
298.164	118.61
298.378	85.84
298.593	18.26
298.807	85.84
299.022	14.17
299.236	69.46
299.451	71.51
299.665	32.6
299.88	83.8
300.094	91.99
300.309	46.93
300.523	30.55
300.737	34.64
300.952	28.5
301.166	30.55
301.381	22.36
301.595	69.46
301.809	132.95
302.024	87.89
302.238	36.69
302.452	44.88
302.667	77.65
302.881	38.74
303.095	48.98
303.309	83.8
303.524	10.07
303.738	100.18
303.952	20.31
304.166	-18.6
304.381	24.4
304.595	10.07
304.809	53.08
305.023	128.85
305.237	-47.27
305.452	61.27
305.666	77.65
305.88	69.46
306.094	77.65
306.308	178
306.522	36.69
306.736	38.74
306.95	51.03
307.164	73.56
307.379	12.12
307.593	10.07
307.807	83.8
308.021	87.89
308.235	75.6
308.449	14.17
308.663	3.93
308.877	91.99
309.091	63.32
309.305	94.04
309.519	-4.27
309.733	137.04
309.947	85.84
310.161	59.22
310.374	59.22
310.588	42.84
310.802	69.46
311.016	18.26
311.23	-32.94
311.444	51.03
311.658	-2.22
311.872	69.46
312.085	126.8
312.299	46.93
312.513	85.84
312.727	22.36
312.941	-8.36
313.154	126.8
313.368	46.93
313.582	34.64
313.796	100.18
314.009	40.79
314.223	57.17
314.437	106.32
314.651	26.45
314.864	12.12
315.078	22.36
315.292	40.79
315.505	120.66
315.719	104.28
315.933	118.61
316.146	87.89
316.36	28.5
316.573	102.23
316.787	75.6
317.001	87.89
317.214	10.07
317.428	26.45
317.641	-22.7
317.855	69.46
318.068	12.12
318.282	89.94
318.495	147.28
318.709	81.75
318.922	30.55
319.136	63.32
319.349	94.04
319.563	28.5
319.776	51.03
319.99	30.55
320.203	85.84
320.417	51.03
320.63	32.6
320.843	102.23
321.057	79.7
321.27	26.45
321.483	59.22
321.697	26.45
321.91	110.42
322.124	85.84
322.337	59.22
322.55	26.45
322.763	-67.75
322.977	18.26
323.19	42.84
323.403	77.65
323.617	59.22
323.83	77.65
324.043	-12.46
324.256	118.61
324.469	10.07
324.683	51.03
324.896	42.84
325.109	34.64
325.322	38.74
325.535	59.22
325.748	71.51
325.962	-26.79
326.175	12.12
326.388	42.84
326.601	24.4
326.814	42.84
327.027	-39.08
327.24	10.07
327.453	18.26
327.666	65.36
327.879	69.46
328.092	132.95
328.305	34.64
328.518	1.88
328.731	10.07
328.944	120.66
329.157	16.21
329.37	55.12
329.583	63.32
329.796	112.47
330.009	44.88
330.222	116.56
330.435	69.46
330.648	51.03
330.861	96.08
331.073	112.47
331.286	36.69
331.499	42.84
331.712	10.07
331.925	116.56
332.138	36.69
332.35	75.6
332.563	89.94
332.776	128.85
332.989	42.84
333.202	30.55
333.414	18.26
333.627	1.88
333.84	-12.46
334.053	34.64
334.265	36.69
334.478	14.17
334.691	71.51
334.903	102.23
335.116	8.02
335.329	-6.31
335.541	18.26
335.754	81.75
335.966	59.22
336.179	28.5
336.392	110.42
336.604	42.84
336.817	42.84
337.029	102.23
337.242	-2.22
337.454	67.41
337.667	-22.7
337.88	67.41
338.092	34.64
338.305	89.94
338.517	67.41
338.729	120.66
338.942	36.69
339.154	51.03
339.367	67.41
339.579	91.99
339.792	53.08
340.004	44.88
340.217	91.99
340.429	59.22
340.641	36.69
340.854	14.17
341.066	67.41
341.278	83.8
341.491	10.07
341.703	116.56
341.915	36.69
342.128	14.17
342.34	110.42
342.552	36.69
342.764	55.12
342.977	55.12
343.189	108.37
343.401	79.7
343.613	20.31
343.826	59.22
344.038	75.6
344.25	40.79
344.462	38.74
344.674	83.8
344.886	77.65
345.099	1.88
345.311	-39.08
345.523	32.6
345.735	22.36
345.947	18.26
346.159	91.99
346.371	26.45
346.583	38.74
346.795	116.56
347.007	3.93
347.219	112.47
347.431	63.32
347.643	51.03
347.855	5.97
348.067	69.46
348.279	-22.7
348.491	5.97
348.703	5.97
348.915	26.45
349.127	26.45
349.339	85.84
349.551	46.93
349.763	120.66
349.975	53.08
350.187	79.7
350.399	79.7
350.61	30.55
350.822	42.84
351.034	98.13
351.246	32.6
351.458	65.36
351.669	67.41
351.881	85.84
352.093	69.46
352.305	75.6
352.517	36.69
352.728	110.42
352.94	126.8
353.152	67.41
353.363	-6.31
353.575	149.33
353.787	-0.17
353.999	108.37
354.21	61.27
354.422	36.69
354.633	22.36
354.845	10.07
355.057	69.46
355.268	67.41
355.48	69.46
355.692	-12.46
355.903	67.41
356.115	42.84
356.326	-22.7
356.538	67.41
356.749	48.98
356.961	59.22
357.172	85.84
357.384	100.18
357.595	85.84
357.807	40.79
358.018	132.95
358.23	83.8
358.441	51.03
358.653	28.5
358.864	3.93
359.075	16.21
359.287	71.51
359.498	132.95
359.709	10.07
359.921	51.03
360.132	26.45
360.344	59.22
360.555	46.93
360.766	132.95
360.977	77.65
361.189	30.55
361.4	1.88
361.611	81.75
361.823	83.8
362.034	34.64
362.245	67.41
362.456	-14.51
362.667	153.43
362.879	42.84
363.09	81.75
363.301	100.18
363.512	77.65
363.723	91.99
363.935	69.46
364.146	46.93
364.357	53.08
364.568	10.07
364.779	40.79
364.99	36.69
365.201	28.5
365.412	57.17
365.623	42.84
365.834	-2.22
366.045	126.8
366.256	26.45
366.467	20.31
366.678	83.8
366.889	3.93
367.1	44.88
367.311	59.22
367.522	36.69
367.733	87.89
367.944	94.04
368.155	55.12
368.366	61.27
368.577	120.66
368.788	149.33
368.999	10.07
369.209	85.84
369.42	120.66
369.631	46.93
369.842	-6.31
370.053	69.46
370.264	-10.41
370.474	67.41
370.685	67.41
370.896	-77.99
371.107	77.65
371.317	122.71
371.528	69.46
371.739	79.7
371.95	71.51
372.16	91.99
372.371	100.18
372.582	55.12
372.792	77.65
373.003	98.13
373.214	83.8
373.424	106.32
373.635	-24.75
373.846	85.84
374.056	63.32
374.267	132.95
374.477	67.41
374.688	38.74
374.898	59.22
375.109	98.13
375.319	128.85
375.53	20.31
375.74	75.6
375.951	42.84
376.161	36.69
376.372	173.91
376.582	100.18
376.793	75.6
377.003	36.69
377.214	42.84
377.424	118.61
377.635	34.64
377.845	71.51
378.055	112.47
378.266	42.84
378.476	63.32
378.686	108.37
378.897	87.89
379.107	63.32
379.317	94.04
379.528	42.84
379.738	91.99
379.948	141.14
380.158	5.97
380.369	40.79
380.579	61.27
380.789	53.08
380.999	59.22
381.21	91.99
381.42	116.56
381.63	28.5
381.84	83.8
382.05	75.6
382.261	100.18
382.471	85.84
382.681	65.36
382.891	75.6
383.101	-6.31
383.311	55.12
383.521	87.89
383.731	143.19
383.941	16.21
384.151	26.45
384.361	-10.41
384.571	10.07
384.781	132.95
384.991	87.89
385.201	135
385.411	67.41
385.621	71.51
385.831	53.08
386.041	122.71
386.251	18.26
386.461	118.61
386.671	30.55
386.881	12.12
387.091	10.07
387.301	100.18
387.511	48.98
387.72	79.7
387.93	44.88
388.14	20.31
388.35	34.64
388.56	36.69
388.769	81.75
388.979	67.41
389.189	-53.42
389.399	75.6
389.609	42.84
389.818	96.08
390.028	69.46
390.238	65.36
390.447	112.47
390.657	108.37
390.867	26.45
391.076	63.32
391.286	71.51
391.496	108.37
391.705	26.45
391.915	75.6
392.125	44.88
392.334	38.74
392.544	137.04
392.753	71.51
392.963	26.45
393.172	36.69
393.382	135
393.591	116.56
393.801	98.13
394.01	175.95
394.22	53.08
394.429	102.23
394.639	110.42
394.848	110.42
395.058	59.22
395.267	85.84
395.477	89.94
395.686	83.8
395.895	182.1
396.105	85.84
396.314	89.94
396.524	137.04
396.733	18.26
396.942	165.71
397.152	124.76
397.361	100.18
397.57	116.56
397.78	61.27
397.989	10.07
398.198	223.06
398.407	108.37
398.617	102.23
398.826	96.08
399.035	48.98
399.244	173.91
399.453	83.8
399.663	96.08
399.872	102.23
400.081	110.42
400.29	151.38
400.499	202.58
400.708	110.42
400.917	120.66
401.127	98.13
401.336	59.22
401.545	186.19
401.754	71.51
401.963	167.76
402.172	124.76
402.381	102.23
402.59	141.14
402.799	59.22
403.008	128.85
403.217	128.85
403.426	175.95
403.635	110.42
403.844	149.33
404.053	110.42
404.262	132.95
404.471	178
404.68	137.04
404.888	132.95
405.097	155.47
405.306	141.14
405.515	190.29
405.724	159.57
405.933	132.95
406.142	145.24
406.35	223.06
406.559	290.64
406.768	202.58
406.977	231.25
407.185	290.64
407.394	210.77
407.603	214.87
407.812	251.73
408.02	329.55
408.229	206.67
408.438	198.48
408.646	214.87
408.855	274.26
409.064	264.02
409.272	194.39
409.481	290.64
409.69	302.93
409.898	280.4
410.107	374.61
410.315	378.7
410.524	315.22
410.733	350.03
410.941	325.46
411.15	403.28
411.358	411.47
411.567	481.1
411.775	362.32
411.984	485.2
412.192	419.66
412.401	460.62
412.609	528.21
412.818	540.49
413.026	505.68
413.234	517.97
413.443	419.66
413.651	542.54
413.86	669.52
414.068	696.14
414.276	673.61
414.485	599.88
414.693	683.85
414.901	753.48
415.11	743.24
415.318	765.77
415.526	769.87
415.734	880.46
415.943	765.77
416.151	864.07
416.359	792.39
416.567	905.03
416.776	960.33
416.984	921.42
417.192	927.56
417.4	1085.25
417.608	989
417.817	1132.36
418.025	1214.27
418.233	1263.43
418.441	1177.41
418.649	1165.12
418.857	1316.67
419.065	1302.34
419.273	1242.95
419.481	1347.39
419.689	1414.98
419.897	1541.95
420.105	1484.61
420.313	1599.29
420.521	1658.68
420.729	1609.53
420.937	1619.77
421.145	1673.02
421.353	1929.02
421.561	1933.11
421.769	1931.06
421.977	2043.7
422.185	2053.94
422.393	2168.63
422.601	2209.59
422.809	2230.07
423.017	2373.43
423.224	2488.11
423.432	2520.88
423.64	2533.17
423.848	2819.88
424.056	2787.11
424.263	2694.96
424.471	2838.31
424.679	2860.84
424.887	2948.9
425.094	3188.52
425.302	3229.48
425.51	3262.24
425.718	3499.81
425.925	3464.99
426.133	3577.63
426.341	3747.61
426.548	3913.5
426.756	3903.26
426.964	4007.7
427.171	4198.17
427.379	4292.37
427.586	4390.67
427.794	4456.21
428.001	4646.67
428.209	5091.08
428.417	4925.19
428.624	5162.76
428.832	5129.99
429.039	5175.05
429.247	5213.96
429.454	5711.61
429.662	6102.78
429.869	5474.05
430.076	5990.14
430.284	5947.13
430.491	6102.78
430.699	6471.41
430.906	6401.78
431.114	6608.62
431.321	6838
431.528	6825.71
431.736	7261.93
431.943	7724.77
432.15	7393
432.358	7673.57
432.565	7997.15
432.772	8001.24
432.979	8275.67
433.187	8367.83
433.394	8529.62
433.601	8939.21
433.808	9168.59
434.016	9006.8
434.223	9375.43
434.43	9799.36
434.637	9854.65
434.844	10487.48
435.052	10593.97
435.259	10632.88
435.466	10618.55
435.673	10434.23
435.88	11300.52
436.087	11687.59
436.294	11566.76
436.501	11579.04
436.708	11724.45
436.915	12136.09
437.122	12646.04
437.329	12773.01
437.537	13039.25
437.743	13242
437.95	13086.35
438.157	13825.67
438.364	14184.06
438.571	14304.89
438.778	14485.11
438.985	15445.61
439.192	15099.5
439.399	15607.4
439.606	15005.3
439.813	16176.73
440.02	17184.34
440.227	16651.86
440.433	16547.42
440.64	17051.22
440.847	16914
441.054	17460.81
441.261	18560.57
441.467	18474.56
441.674	18515.51
441.881	19203.63
442.088	19260.98
442.294	18972.21
442.501	19504.68
442.708	19901.99
442.914	20786.71
443.121	21806.6
443.328	20966.93
443.534	22760.95
443.741	21818.89
443.948	21620.24
444.154	23203.32
444.361	23094.77
444.568	23072.25
444.774	23117.3
444.981	23498.22
445.187	24004.07
445.394	25077.21
445.6	24905.18
445.807	27565.49
446.013	25832.91
446.22	26697.15
446.426	27704.75
446.633	27880.88
446.839	28738.97
447.046	27676.08
447.252	28708.26
447.459	28964.25
447.665	29003.16
447.871	30217.61
448.078	31247.74
448.284	30066.06
448.491	30803.33
448.697	31825.26
448.903	32486.76
449.11	32548.2
449.316	32142.7
449.522	32832.86
449.728	33627.48
449.935	33518.93
450.141	33928.53
450.347	34354.51
450.553	33703.25
450.76	33578.32
450.966	35030.33
451.172	34712.9
451.378	35149.12
451.584	34667.84
451.791	35429.69
451.997	35777.84
452.203	36574.5
452.409	36306.22
452.615	36068.65
452.821	34717
453.027	34170.19
453.233	36265.26
453.44	34657.6
453.646	34868.55
453.852	35429.69
454.058	36158.77
454.264	34739.52
454.47	35372.35
454.676	34651.46
454.882	35548.47
455.088	32802.14
455.294	33355.1
455.5	33787.22
455.705	34321.74
455.911	33138.01
456.117	32071.02
456.323	31731.06
456.529	30031.24
456.735	31522.16
456.941	30963.07
457.147	30121.35
457.352	29316.5
457.558	28954.01
457.764	29048.22
457.97	28687.78
458.176	27995.56
458.381	28065.19
458.587	26594.75
458.793	26400.19
458.999	25179.61
459.204	26838.46
459.41	26334.66
459.616	24671.71
459.821	24636.89
460.027	24468.96
460.233	24151.52
460.438	22945.27
460.644	23010.81
460.85	22025.73
461.055	21761.55
461.261	21874.18
461.466	20155.94
461.672	19516.97
461.878	21022.23
462.083	19588.65
462.289	19170.86
462.494	18611.77
462.7	18286.14
462.905	17626.7
463.111	18206.27
463.316	18116.16
463.522	17673.8
463.727	17851.97
463.932	17778.25
464.138	17704.52
464.343	17641.03
464.549	17180.24
464.754	17935.94
464.959	17329.74
465.165	17745.48
465.37	16875.09
465.575	16311.9
465.781	17112.66
465.986	17024.59
466.191	16492.12
466.397	16010.85
466.602	15263.34
466.807	16025.18
467.012	16035.42
467.218	16006.75
