Data from USB4F104151__65__14-17-17-956.txt Node

Date: Thu Mar 13 14:17:17 EDT 2025
User: louis
Spectrometer: USB4F10415
Trigger mode: 4
Integration Time (sec): 2.000000E-2
Scans to average: 1
Electric dark correction enabled: true
Nonlinearity correction enabled: false
Boxcar width: 0
XAxis mode: Wavelengths
Number of Pixels in Spectrum: 3648
>>>>>Begin Spectral Data<<<<<
178.204	-147.8
178.424	-147.8
178.644	-147.8
178.864	-82.26
179.084	-102.74
179.304	-31.06
179.524	-33.11
179.744	-24.92
179.964	16.04
180.184	9.9
180.404	73.39
180.624	28.33
180.844	57
181.064	-47.44
181.283	11.95
181.503	-45.4
181.723	-14.68
181.943	-65.88
182.163	73.39
182.383	-0.34
182.602	59.05
182.822	34.47
183.042	34.47
183.262	-65.88
183.482	-16.73
183.701	40.62
183.921	-24.92
184.141	110.25
184.361	32.43
184.58	-39.25
184.8	57
185.02	85.67
185.239	-24.92
185.459	32.43
185.679	52.91
185.898	-47.44
186.118	18.09
186.338	-31.06
186.557	46.76
186.777	63.15
186.997	57
187.216	85.67
187.436	57
187.655	13.99
187.875	32.43
188.095	-39.25
188.314	134.82
188.534	42.67
188.753	-20.82
188.973	-41.3
189.192	57
189.412	67.24
189.631	42.67
189.851	-29.01
190.07	57
190.29	1.71
190.509	-16.73
190.729	81.58
190.948	36.52
191.168	116.39
191.387	81.58
191.607	22.19
191.826	-31.06
192.045	-4.44
192.265	32.43
192.484	-22.87
192.704	-14.68
192.923	-49.49
193.142	42.67
193.362	36.52
193.581	81.58
193.8	7.85
194.02	120.49
194.239	18.09
194.458	83.63
194.678	77.48
194.897	52.91
195.116	93.87
195.335	3.75
195.555	-10.58
195.774	-6.49
195.993	-8.53
196.212	11.95
196.432	79.53
196.651	-24.92
196.87	108.2
197.089	-0.34
197.308	57
197.528	-22.87
197.747	-47.44
197.966	75.43
198.185	89.77
198.404	24.23
198.623	81.58
198.842	11.95
199.062	46.76
199.281	34.47
199.5	28.33
199.719	42.67
199.938	52.91
200.157	48.81
200.376	69.29
200.595	65.19
200.814	67.24
201.033	65.19
201.252	-4.44
201.471	65.19
201.69	20.14
201.909	36.52
202.128	-0.34
202.347	128.68
202.566	50.86
202.785	-35.16
203.004	-0.34
203.223	46.76
203.442	48.81
203.661	-0.34
203.879	7.85
204.098	97.96
204.317	-61.78
204.536	46.76
204.755	67.24
204.974	57
205.193	9.9
205.411	7.85
205.63	-35.16
205.849	89.77
206.068	-39.25
206.287	-14.68
206.505	16.04
206.724	-6.49
206.943	42.67
207.162	7.85
207.381	40.62
207.599	20.14
207.818	9.9
208.037	26.28
208.255	40.62
208.474	34.47
208.693	-47.44
208.911	-16.73
209.13	73.39
209.349	91.82
209.567	57
209.786	79.53
210.005	57
210.223	54.95
210.442	-39.25
210.661	-20.82
210.879	34.47
211.098	57
211.316	26.28
211.535	69.29
211.753	7.85
211.972	50.86
212.191	7.85
212.409	3.75
212.628	48.81
212.846	18.09
213.065	75.43
213.283	50.86
213.502	-0.34
213.72	22.19
213.938	9.9
214.157	50.86
214.375	112.3
214.594	-8.53
214.812	34.47
215.031	50.86
215.249	48.81
215.467	75.43
215.686	63.15
215.904	65.19
216.122	-10.58
216.341	83.63
216.559	7.85
216.778	54.95
216.996	-6.49
217.214	42.67
217.432	-12.63
217.651	7.85
217.869	34.47
218.087	-24.92
218.306	73.39
218.524	9.9
218.742	-31.06
218.96	-12.63
219.179	9.9
219.397	-8.53
219.615	57
219.833	16.04
220.051	24.23
220.27	79.53
220.488	20.14
220.706	40.62
220.924	52.91
221.142	1.71
221.36	18.09
221.578	32.43
221.796	65.19
222.015	95.91
222.233	26.28
222.451	50.86
222.669	22.19
222.887	57
223.105	32.43
223.323	34.47
223.541	-72.02
223.759	77.48
223.977	-14.68
224.195	42.67
224.413	22.19
224.631	69.29
224.849	38.57
225.067	100.01
225.285	50.86
225.503	-24.92
225.721	-41.3
225.939	7.85
226.157	-6.49
226.375	104.11
226.592	26.28
226.81	11.95
227.028	87.72
227.246	81.58
227.464	-47.44
227.682	-0.34
227.9	112.3
228.117	-20.82
228.335	34.47
228.553	-26.96
228.771	3.75
228.989	100.01
229.206	100.01
229.424	9.9
229.642	18.09
229.86	-8.53
230.077	-0.34
230.295	34.47
230.513	1.71
230.731	-8.53
230.948	38.57
231.166	63.15
231.384	-2.39
231.601	1.71
231.819	61.1
232.037	-16.73
232.254	-67.92
232.472	61.1
232.689	18.09
232.907	30.38
233.125	61.1
233.342	77.48
233.56	16.04
233.777	-22.87
233.995	30.38
234.213	18.09
234.43	100.01
234.648	26.28
234.865	-6.49
235.083	63.15
235.3	77.48
235.518	34.47
235.735	50.86
235.953	40.62
236.17	32.43
236.388	-2.39
236.605	28.33
236.822	24.23
237.04	73.39
237.257	52.91
237.475	-55.64
237.692	13.99
237.909	-0.34
238.127	-31.06
238.344	48.81
238.562	32.43
238.779	13.99
238.996	28.33
239.214	42.67
239.431	46.76
239.648	75.43
239.865	-16.73
240.083	7.85
240.3	40.62
240.517	73.39
240.735	16.04
240.952	50.86
241.169	26.28
241.386	57
241.603	34.47
241.821	40.62
242.038	48.81
242.255	77.48
242.472	-8.53
242.689	54.95
242.907	75.43
243.124	7.85
243.341	83.63
243.558	48.81
243.775	-63.83
243.992	85.67
244.209	-43.35
244.426	83.63
244.643	-0.34
244.86	-61.78
245.078	3.75
245.295	59.05
245.512	67.24
245.729	-12.63
245.946	-0.34
246.163	5.8
246.38	32.43
246.597	16.04
246.814	9.9
247.031	-14.68
247.248	-4.44
247.464	28.33
247.681	65.19
247.898	-0.34
248.115	65.19
248.332	18.09
248.549	73.39
248.766	97.96
248.983	59.05
249.2	44.71
249.417	104.11
249.633	20.14
249.85	65.19
250.067	3.75
250.284	42.67
250.501	24.23
250.717	130.73
250.934	-4.44
251.151	30.38
251.368	61.1
251.585	32.43
251.801	26.28
252.018	85.67
252.235	38.57
252.451	20.14
252.668	-26.96
252.885	46.76
253.102	-24.92
253.318	11.95
253.535	-18.77
253.752	-22.87
253.968	16.04
254.185	-4.44
254.401	9.9
254.618	5.8
254.835	22.19
255.051	44.71
255.268	97.96
255.484	57
255.701	-10.58
255.917	32.43
256.134	-45.4
256.351	-4.44
256.567	-8.53
256.784	-24.92
257	-29.01
257.217	32.43
257.433	116.39
257.65	93.87
257.866	24.23
258.082	28.33
258.299	-41.3
258.515	79.53
258.732	54.95
258.948	-20.82
259.165	7.85
259.381	26.28
259.597	-8.53
259.814	1.71
260.03	42.67
260.246	34.47
260.463	81.58
260.679	16.04
260.895	61.1
261.112	26.28
261.328	18.09
261.544	-39.25
261.761	138.92
261.977	42.67
262.193	69.29
262.409	128.68
262.626	50.86
262.842	48.81
263.058	-24.92
263.274	71.34
263.49	34.47
263.707	128.68
263.923	52.91
264.139	24.23
264.355	26.28
264.571	22.19
264.787	30.38
265.004	7.85
265.22	18.09
265.436	57
265.652	16.04
265.868	-24.92
266.084	71.34
266.3	24.23
266.516	11.95
266.732	32.43
266.948	32.43
267.164	-0.34
267.38	89.77
267.596	54.95
267.812	97.96
268.028	32.43
268.244	79.53
268.46	18.09
268.676	9.9
268.892	28.33
269.108	-12.63
269.324	59.05
269.54	48.81
269.756	77.48
269.972	75.43
270.188	61.1
270.403	81.58
270.619	-35.16
270.835	50.86
271.051	48.81
271.267	3.75
271.483	-10.58
271.698	18.09
271.914	89.77
272.13	1.71
272.346	26.28
272.562	57
272.777	9.9
272.993	-0.34
273.209	57
273.425	32.43
273.64	7.85
273.856	34.47
274.072	69.29
274.287	1.71
274.503	-16.73
274.719	50.86
274.934	-18.77
275.15	-41.3
275.366	-20.82
275.581	73.39
275.797	-39.25
276.012	18.09
276.228	-31.06
276.444	13.99
276.659	32.43
276.875	-43.35
277.09	34.47
277.306	16.04
277.521	-31.06
277.737	67.24
277.952	134.82
278.168	-2.39
278.383	-8.53
278.599	13.99
278.814	42.67
279.03	9.9
279.245	69.29
279.461	69.29
279.676	-0.34
279.892	-16.73
280.107	40.62
280.322	16.04
280.538	89.77
280.753	-47.44
280.969	32.43
281.184	44.71
281.399	97.96
281.615	46.76
281.83	-26.96
282.045	-63.83
282.26	81.58
282.476	52.91
282.691	108.2
282.906	44.71
283.122	-8.53
283.337	7.85
283.552	3.75
283.767	-92.5
283.983	-26.96
284.198	9.9
284.413	24.23
284.628	26.28
284.843	83.63
285.058	122.54
285.274	-24.92
285.489	26.28
285.704	-6.49
285.919	-0.34
286.134	24.23
286.349	71.34
286.564	-6.49
286.779	104.11
286.995	-41.3
287.21	7.85
287.425	69.29
287.64	-0.34
287.855	-29.01
288.07	-18.77
288.285	20.14
288.5	16.04
288.715	65.19
288.93	11.95
289.145	52.91
289.36	65.19
289.575	9.9
289.79	38.57
290.004	-16.73
290.219	38.57
290.434	-14.68
290.649	32.43
290.864	-8.53
291.079	26.28
291.294	24.23
291.509	40.62
291.724	-22.87
291.938	-16.73
292.153	71.34
292.368	34.47
292.583	57
292.798	46.76
293.012	59.05
293.227	24.23
293.442	57
293.657	106.15
293.871	54.95
294.086	40.62
294.301	73.39
294.516	11.95
294.73	85.67
294.945	9.9
295.16	16.04
295.374	59.05
295.589	48.81
295.804	22.19
296.018	65.19
296.233	67.24
296.447	24.23
296.662	34.47
296.877	40.62
297.091	48.81
297.306	28.33
297.52	-14.68
297.735	-8.53
297.949	-6.49
298.164	95.91
298.378	-8.53
298.593	44.71
298.807	-4.44
299.022	44.71
299.236	85.67
299.451	-4.44
299.665	7.85
299.88	52.91
300.094	28.33
300.309	69.29
300.523	1.71
300.737	1.71
300.952	28.33
301.166	91.82
301.381	52.91
301.595	50.86
301.809	61.1
302.024	57
302.238	-14.68
302.452	59.05
302.667	7.85
302.881	157.35
303.095	48.81
303.309	112.3
303.524	34.47
303.738	-59.73
303.952	11.95
304.166	48.81
304.381	26.28
304.595	48.81
304.809	1.71
305.023	-53.59
305.237	-10.58
305.452	-16.73
305.666	63.15
305.88	57
306.094	87.72
306.308	9.9
306.522	20.14
306.736	1.71
306.95	-22.87
307.164	114.34
307.379	-14.68
307.593	91.82
307.807	102.06
308.021	20.14
308.235	114.34
308.449	1.71
308.663	71.34
308.877	42.67
309.091	52.91
309.305	32.43
309.519	-35.16
309.733	5.8
309.947	30.38
310.161	32.43
310.374	-12.63
310.588	73.39
310.802	5.8
311.016	93.87
311.23	65.19
311.444	7.85
311.658	-31.06
311.872	-6.49
312.085	65.19
312.299	67.24
312.513	81.58
312.727	69.29
312.941	-8.53
313.154	75.43
313.368	-16.73
313.582	75.43
313.796	-20.82
314.009	-29.01
314.223	57
314.437	91.82
314.651	-2.39
314.864	57
315.078	-22.87
315.292	48.81
315.505	9.9
315.719	22.19
315.933	83.63
316.146	57
316.36	1.71
316.573	65.19
316.787	57
317.001	22.19
317.214	-10.58
317.428	93.87
317.641	-16.73
317.855	83.63
318.068	38.57
318.282	42.67
318.495	50.86
318.709	95.91
318.922	-41.3
319.136	79.53
319.349	81.58
319.563	24.23
319.776	48.81
319.99	-49.49
320.203	26.28
320.417	1.71
320.63	91.82
320.843	40.62
321.057	-26.96
321.27	71.34
321.483	89.77
321.697	83.63
321.91	9.9
322.124	11.95
322.337	69.29
322.55	71.34
322.763	89.77
322.977	-33.11
323.19	30.38
323.403	-4.44
323.617	48.81
323.83	42.67
324.043	16.04
324.256	83.63
324.469	3.75
324.683	26.28
324.896	-12.63
325.109	81.58
325.322	11.95
325.535	-10.58
325.748	32.43
325.962	-33.11
326.175	57
326.388	48.81
326.601	61.1
326.814	67.24
327.027	-16.73
327.24	83.63
327.453	57
327.666	16.04
327.879	87.72
328.092	110.25
328.305	-8.53
328.518	34.47
328.731	-35.16
328.944	61.1
329.157	89.77
329.37	32.43
329.583	44.71
329.796	-4.44
330.009	-41.3
330.222	71.34
330.435	26.28
330.648	59.05
330.861	42.67
331.073	48.81
331.286	11.95
331.499	126.63
331.712	30.38
331.925	32.43
332.138	34.47
332.35	102.06
332.563	-31.06
332.776	40.62
332.989	-16.73
333.202	110.25
333.414	57
333.627	40.62
333.84	34.47
334.053	81.58
334.265	-72.02
334.478	69.29
334.691	18.09
334.903	91.82
335.116	26.28
335.329	16.04
335.541	81.58
335.754	67.24
335.966	63.15
336.179	59.05
336.392	13.99
336.604	106.15
336.817	44.71
337.029	108.2
337.242	13.99
337.454	5.8
337.667	-16.73
337.88	46.76
338.092	61.1
338.305	130.73
338.517	81.58
338.729	81.58
338.942	61.1
339.154	44.71
339.367	16.04
339.579	32.43
339.792	124.58
340.004	30.38
340.217	81.58
340.429	9.9
340.641	3.75
340.854	20.14
341.066	20.14
341.278	30.38
341.491	50.86
341.703	54.95
341.915	5.8
342.128	-8.53
342.34	108.2
342.552	-16.73
342.764	22.19
342.977	3.75
343.189	67.24
343.401	-4.44
343.613	42.67
343.826	28.33
344.038	-0.34
344.25	73.39
344.462	40.62
344.674	24.23
344.886	67.24
345.099	48.81
345.311	32.43
345.523	-47.44
345.735	65.19
345.947	-0.34
346.159	57
346.371	75.43
346.583	40.62
346.795	81.58
347.007	26.28
347.219	28.33
347.431	3.75
347.643	9.9
347.855	16.04
348.067	57
348.279	42.67
348.491	-61.78
348.703	52.91
348.915	91.82
349.127	16.04
349.339	-8.53
349.551	61.1
349.763	32.43
349.975	42.67
350.187	81.58
350.399	65.19
350.61	36.52
350.822	16.04
351.034	108.2
351.246	89.77
351.458	-41.3
351.669	65.19
351.881	143.02
352.093	100.01
352.305	59.05
352.517	95.91
352.728	57
352.94	42.67
353.152	57
353.363	-20.82
353.575	79.53
353.787	57
353.999	106.15
354.21	20.14
354.422	52.91
354.633	-26.96
354.845	77.48
355.057	61.1
355.268	67.24
355.48	100.01
355.692	73.39
355.903	81.58
356.115	61.1
356.326	20.14
356.538	71.34
356.749	7.85
356.961	26.28
357.172	1.71
357.384	24.23
357.595	61.1
357.807	7.85
358.018	-53.59
358.23	20.14
358.441	102.06
358.653	63.15
358.864	-29.01
359.075	13.99
359.287	11.95
359.498	48.81
359.709	22.19
359.921	16.04
360.132	75.43
360.344	16.04
360.555	38.57
360.766	-24.92
360.977	9.9
361.189	97.96
361.4	11.95
361.611	81.58
361.823	59.05
362.034	48.81
362.245	89.77
362.456	89.77
362.667	48.81
362.879	-10.58
363.09	-57.68
363.301	97.96
363.512	75.43
363.723	48.81
363.935	36.52
364.146	83.63
364.357	114.34
364.568	116.39
364.779	18.09
364.99	71.34
365.201	24.23
365.412	73.39
365.623	18.09
365.834	44.71
366.045	16.04
366.256	104.11
366.467	151.21
366.678	-0.34
366.889	50.86
367.1	65.19
367.311	81.58
367.522	83.63
367.733	32.43
367.944	26.28
368.155	-10.58
368.366	36.52
368.577	65.19
368.788	153.26
368.999	-31.06
369.209	32.43
369.42	44.71
369.631	75.43
369.842	24.23
370.053	36.52
370.264	61.1
370.474	-12.63
370.685	42.67
370.896	18.09
371.107	63.15
371.317	59.05
371.528	-2.39
371.739	110.25
371.95	157.35
372.16	48.81
372.371	-29.01
372.582	34.47
372.792	73.39
373.003	65.19
373.214	-2.39
373.424	65.19
373.635	24.23
373.846	83.63
374.056	5.8
374.267	1.71
374.477	52.91
374.688	73.39
374.898	40.62
375.109	81.58
375.319	46.76
375.53	59.05
375.74	73.39
375.951	20.14
376.161	97.96
376.372	106.15
376.582	16.04
376.793	67.24
377.003	93.87
377.214	3.75
377.424	3.75
377.635	24.23
377.845	5.8
378.055	69.29
378.266	48.81
378.476	77.48
378.686	67.24
378.897	63.15
379.107	-0.34
379.317	34.47
379.528	1.71
379.738	69.29
379.948	-43.35
380.158	95.91
380.369	1.71
380.579	46.76
380.789	-31.06
380.999	54.95
381.21	34.47
381.42	151.21
381.63	22.19
381.84	26.28
382.05	108.2
382.261	61.1
382.471	18.09
382.681	65.19
382.891	48.81
383.101	61.1
383.311	16.04
383.521	83.63
383.731	-24.92
383.941	114.34
384.151	40.62
384.361	91.82
384.571	13.99
384.781	48.81
384.991	61.1
385.201	83.63
385.411	89.77
385.621	32.43
385.831	24.23
386.041	48.81
386.251	83.63
386.461	44.71
386.671	44.71
386.881	102.06
387.091	57
387.301	81.58
387.511	34.47
387.72	36.52
387.93	7.85
388.14	18.09
388.35	79.53
388.56	79.53
388.769	89.77
388.979	89.77
389.189	16.04
389.399	40.62
389.609	28.33
389.818	54.95
390.028	89.77
390.238	153.26
390.447	-0.34
390.657	67.24
390.867	-12.63
391.076	11.95
391.286	106.15
391.496	118.44
391.705	108.2
391.915	77.48
392.125	93.87
392.334	63.15
392.544	44.71
392.753	48.81
392.963	57
393.172	93.87
393.382	95.91
393.591	89.77
393.801	110.25
394.01	97.96
394.22	77.48
394.429	122.54
394.639	20.14
394.848	122.54
395.058	83.63
395.267	54.95
395.477	102.06
395.686	79.53
395.895	128.68
396.105	59.05
396.314	61.1
396.524	93.87
396.733	81.58
396.942	130.73
397.152	24.23
397.361	140.97
397.57	7.85
397.78	102.06
397.989	108.2
398.198	112.3
398.407	198.31
398.617	59.05
398.826	73.39
399.035	108.2
399.244	136.87
399.453	89.77
399.663	61.1
399.872	155.3
400.081	48.81
400.29	198.31
400.499	118.44
400.708	114.34
400.917	91.82
401.127	77.48
401.336	100.01
401.545	231.08
401.754	147.11
401.963	100.01
402.172	116.39
402.381	130.73
402.59	110.25
402.799	114.34
403.008	122.54
403.217	71.34
403.426	118.44
403.635	126.63
403.844	114.34
404.053	100.01
404.262	200.36
404.471	171.69
404.68	155.3
404.888	116.39
405.097	171.69
405.306	157.35
405.515	155.3
405.724	204.46
405.933	220.84
406.142	183.98
406.35	161.45
406.559	173.74
406.768	204.46
406.977	183.98
407.185	222.89
407.394	188.07
407.603	204.46
407.812	202.41
408.02	186.02
408.229	206.5
408.438	204.46
408.646	181.93
408.855	278.18
409.064	329.38
409.272	243.37
409.481	280.23
409.69	253.61
409.898	327.33
410.107	278.18
410.315	261.8
410.524	300.71
410.733	392.87
410.941	345.77
411.15	386.72
411.358	345.77
411.567	366.25
411.775	415.4
411.984	452.26
412.192	499.36
412.401	478.88
412.609	466.6
412.818	577.19
413.026	503.46
413.234	607.91
413.443	482.98
413.651	564.9
413.86	591.52
414.068	698.02
414.276	609.95
414.485	655.01
414.693	679.58
414.901	700.06
415.11	720.54
415.318	695.97
415.526	671.39
415.734	763.55
415.943	714.4
416.151	831.13
416.359	845.47
416.567	777.89
416.776	949.92
416.984	949.92
417.192	999.07
417.4	1023.64
417.608	1048.22
417.817	1072.79
418.025	1119.9
418.233	1191.58
418.441	1134.23
418.649	1162.9
418.857	1314.45
419.065	1371.8
419.273	1220.25
419.481	1353.37
419.689	1474.2
419.897	1466
420.105	1449.62
420.313	1619.6
420.521	1592.98
420.729	1642.13
420.937	1670.8
421.145	1836.69
421.353	1873.55
421.561	1914.51
421.769	1904.27
421.977	1939.09
422.185	2039.44
422.393	2213.51
422.601	2346.63
422.809	2379.4
423.017	2272.9
423.224	2360.97
423.432	2473.6
423.64	2614.91
423.848	2795.14
424.056	2705.03
424.263	2868.86
424.471	2686.59
424.679	2850.43
424.887	3100.28
425.094	3169.91
425.302	3239.55
425.51	3260.02
425.718	3411.57
425.925	3518.07
426.133	3595.89
426.341	3868.27
426.548	3980.91
426.756	3913.33
426.964	4005.49
427.171	4175.47
427.379	4484.71
427.586	4443.75
427.794	4531.81
428.001	4646.5
428.209	4965.98
428.417	4810.34
428.624	5195.36
428.832	5254.75
429.039	5185.12
429.247	5117.53
429.454	5627.48
429.662	6166.09
429.869	5738.07
430.076	6082.13
430.284	5918.29
430.491	6213.2
430.699	6471.24
430.906	6512.2
431.114	6587.97
431.321	6819.39
431.528	7020.1
431.736	7360.06
431.943	7759.41
432.15	7611.96
432.358	7632.44
432.565	7992.88
432.772	7906.87
432.979	8341.04
433.187	8670.76
433.394	8486.44
433.601	9162.27
433.808	9354.78
434.016	9178.65
434.223	9481.75
434.43	9965.07
434.637	10018.32
434.844	10427.92
435.052	10677.77
435.259	10767.88
435.466	10671.62
435.673	10511.88
435.88	11187.71
436.087	11951.6
436.294	11978.23
436.501	11576.83
436.708	11918.84
436.915	12369.39
437.122	12750.31
437.329	12631.53
437.537	13164
437.743	13342.18
437.95	13487.58
438.157	13929.94
438.364	14568.91
438.571	14384.59
438.778	14607.82
438.985	15683
439.192	15105.48
439.399	15738.3
439.606	15236.55
439.813	16510.38
440.02	17141.16
440.227	17010.09
440.433	16653.74
440.64	17026.47
440.847	17190.31
441.054	17423.78
441.261	18777.48
441.467	18574.74
441.674	18660.75
441.881	19477.89
442.088	19391.87
442.294	19135.88
442.501	19836.28
442.708	20170.1
442.914	20876.65
443.121	21839.2
443.328	21185.9
443.534	22762.83
443.741	22007.13
443.948	21972.32
444.154	23797.06
444.361	23450.95
444.568	23215.43
444.774	23579.97
444.981	23596.35
445.187	24571.19
445.394	25709.86
445.6	25199.91
445.807	27489.54
446.013	26316.06
446.22	26668.31
446.426	27890.95
446.633	28093.69
446.839	29230.32
447.046	27741.44
447.252	29185.26
447.459	29263.08
447.665	29369.58
447.871	30645.46
448.078	31552.71
448.284	30332.12
448.491	31012.05
448.697	32478.4
448.903	32496.83
449.11	32742.58
449.316	32249.02
449.522	32928.95
449.728	33834.15
449.935	34063.52
450.141	34059.43
450.347	34950.29
450.553	33864.87
450.76	34491.55
450.966	35464.33
451.172	34981.01
451.378	35818.63
451.584	35069.08
451.791	36306.05
451.997	36062.34
452.203	36818.04
452.409	36568.19
452.615	36105.35
452.821	34966.68
453.027	35052.69
453.233	36283.52
453.44	35163.28
453.646	35599.5
453.852	35693.71
454.058	36160.64
454.264	35011.73
454.47	35808.39
454.676	34856.09
454.882	36398.21
455.088	33000.63
455.294	33584.3
455.5	34014.37
455.705	34530.46
455.911	33217.71
456.117	32431.29
456.323	32384.19
456.529	30160.09
456.735	31792.33
456.941	31075.54
457.147	30690.52
457.352	29494.5
457.558	29041.9
457.764	29428.97
457.97	28826.87
458.176	28353.79
458.381	28083.45
458.587	26887.44
458.793	26445.08
458.999	25226.54
459.204	27372.81
459.41	26354.97
459.616	24603.96
459.821	25298.22
460.027	24698.16
460.233	24165.69
460.438	23018.83
460.644	23192.9
460.85	22386.01
461.055	21898.59
461.261	22136.15
461.466	20241.78
461.672	19588.48
461.878	20911.47
462.083	19443.07
462.289	19342.72
462.494	19199.37
462.7	18220.44
462.905	17974.68
463.111	18267.54
463.316	18490.77
463.522	18025.88
463.727	18154.9
463.932	18072.98
464.138	17761.69
464.343	18019.74
464.549	17530.27
464.754	17937.82
464.959	17745.31
465.165	17497.5
465.37	17175.97
465.575	16403.89
465.781	17051.05
465.986	17173.92
466.191	16440.75
466.397	16176.56
466.602	15459.77
466.807	16186.8
467.012	16082.36
467.218	16162.23
467.423	15756.73
467.628	15670.72
467.833	16375.22
468.038	15758.78
468.244	15547.84
468.449	16041.4
468.654	15568.32
