Data from USB4F104151__150__14-19-24-950.txt Node

Date: Thu Mar 13 14:19:24 EDT 2025
User: louis
Spectrometer: USB4F10415
Trigger mode: 4
Integration Time (sec): 2.000000E-2
Scans to average: 1
Electric dark correction enabled: true
Nonlinearity correction enabled: false
Boxcar width: 0
XAxis mode: Wavelengths
Number of Pixels in Spectrum: 3648
>>>>>Begin Spectral Data<<<<<
178.204	-113.49
178.424	-113.49
178.644	-113.49
178.864	-95.06
179.084	-99.16
179.304	15.53
179.524	-39.76
179.744	1.19
179.964	42.15
180.184	-47.96
180.404	52.39
180.624	17.58
180.844	19.63
181.064	-0.85
181.283	-58.2
181.503	3.24
181.723	-4.95
181.943	-82.77
182.163	87.21
182.383	-33.62
182.602	72.87
182.822	-9.05
183.042	50.35
183.262	48.3
183.482	-0.85
183.701	50.35
183.921	19.63
184.141	-72.53
184.361	85.16
184.58	7.34
184.8	-25.43
185.02	-70.48
185.239	27.82
185.459	-27.48
185.679	83.11
185.898	-9.05
186.118	42.15
186.338	83.11
186.557	40.11
186.777	-27.48
186.997	-17.24
187.216	7.34
187.436	-11.09
187.655	48.3
187.875	15.53
188.095	21.67
188.314	122.02
188.534	40.11
188.753	-13.14
188.973	97.45
189.192	-50
189.412	27.82
189.631	54.44
189.851	56.49
190.07	40.11
190.29	60.59
190.509	19.63
190.729	19.63
190.948	31.91
191.168	89.26
191.387	36.01
191.607	60.59
191.826	25.77
192.045	-33.62
192.265	27.82
192.484	44.2
192.704	31.91
192.923	15.53
193.142	81.07
193.362	36.01
193.581	-2.9
193.8	68.78
194.02	9.39
194.239	-76.63
194.458	-9.05
194.678	21.67
194.897	72.87
195.116	62.63
195.335	44.2
195.555	-31.57
195.774	50.35
195.993	42.15
196.212	-7
196.432	27.82
196.651	7.34
196.87	21.67
197.089	119.98
197.308	48.3
197.528	19.63
197.747	40.11
197.966	50.35
198.185	70.83
198.404	3.24
198.623	25.77
198.842	31.91
199.062	-7
199.281	40.11
199.5	58.54
199.719	68.78
199.938	-17.24
200.157	23.72
200.376	42.15
200.595	29.87
200.814	31.91
201.033	93.35
201.252	38.06
201.471	42.15
201.69	64.68
201.909	48.3
202.128	-23.38
202.347	60.59
202.566	9.39
202.785	-7
203.004	-33.62
203.223	115.88
203.442	-29.52
203.661	23.72
203.879	31.91
204.098	64.68
204.317	-2.9
204.536	-23.38
204.755	101.55
204.974	-17.24
205.193	113.83
205.411	103.59
205.63	33.96
205.849	58.54
206.068	7.34
206.287	-84.82
206.505	42.15
206.724	23.72
206.943	21.67
207.162	-39.76
207.381	87.21
207.599	40.11
207.818	9.39
208.037	48.3
208.255	-15.19
208.474	89.26
208.693	52.39
208.911	74.92
209.13	1.19
209.349	11.43
209.567	19.63
209.786	7.34
210.005	-0.85
210.223	17.58
210.442	-0.85
210.661	7.34
210.879	81.07
211.098	83.11
211.316	11.43
211.535	23.72
211.753	15.53
211.972	38.06
212.191	-50
212.409	17.58
212.628	17.58
212.846	27.82
213.065	62.63
213.283	66.73
213.502	15.53
213.72	-7
213.938	72.87
214.157	23.72
214.375	76.97
214.594	72.87
214.812	66.73
215.031	-2.9
215.249	93.35
215.467	36.01
215.686	23.72
215.904	99.5
216.122	-23.38
216.341	83.11
216.559	-33.62
216.778	19.63
216.996	60.59
217.214	40.11
217.432	-27.48
217.651	58.54
217.869	50.35
218.087	58.54
218.306	31.91
218.524	19.63
218.742	38.06
218.96	62.63
219.179	-50
219.397	-25.43
219.615	117.93
219.833	62.63
220.051	11.43
220.27	36.01
220.488	23.72
220.706	15.53
220.924	-0.85
221.142	25.77
221.36	33.96
221.578	-19.29
221.796	33.96
222.015	7.34
222.233	36.01
222.451	-9.05
222.669	-21.33
222.887	122.02
223.105	-82.77
223.323	-29.52
223.541	-9.05
223.759	-7
223.977	31.91
224.195	29.87
224.413	-29.52
224.631	72.87
224.849	58.54
225.067	70.83
225.285	31.91
225.503	50.35
225.721	-4.95
225.939	130.22
226.157	7.34
226.375	91.31
226.592	-23.38
226.81	50.35
227.028	81.07
227.246	144.55
227.464	17.58
227.682	83.11
227.9	50.35
228.117	93.35
228.335	25.77
228.553	-0.85
228.771	97.45
228.989	-78.68
229.206	58.54
229.424	50.35
229.642	-41.81
229.86	40.11
230.077	31.91
230.295	-9.05
230.513	19.63
230.731	81.07
230.948	27.82
231.166	64.68
231.384	40.11
231.601	1.19
231.819	97.45
232.037	3.24
232.254	-25.43
232.472	48.3
232.689	29.87
232.907	42.15
233.125	19.63
233.342	29.87
233.56	44.2
233.777	27.82
233.995	-52.05
234.213	48.3
234.43	38.06
234.648	54.44
234.865	31.91
235.083	3.24
235.3	31.91
235.518	-11.09
235.735	27.82
235.953	19.63
236.17	-7
236.388	36.01
236.605	40.11
236.822	19.63
237.04	1.19
237.257	-17.24
237.475	25.77
237.692	68.78
237.909	17.58
238.127	52.39
238.344	76.97
238.562	85.16
238.779	-11.09
238.996	-0.85
239.214	21.67
239.431	17.58
239.648	-33.62
239.865	42.15
240.083	36.01
240.3	33.96
240.517	48.3
240.735	58.54
240.952	76.97
241.169	62.63
241.386	66.73
241.603	72.87
241.821	-43.86
242.038	9.39
242.255	40.11
242.472	56.49
242.689	-54.1
242.907	23.72
243.124	27.82
243.341	33.96
243.558	48.3
243.775	-41.81
243.992	23.72
244.209	40.11
244.426	44.2
244.643	11.43
244.86	-31.57
245.078	5.29
245.295	-33.62
245.512	36.01
245.729	-41.81
245.946	111.78
246.163	25.77
246.38	76.97
246.597	74.92
246.814	-9.05
247.031	-7
247.248	48.3
247.464	40.11
247.681	58.54
247.898	7.34
248.115	-52.05
248.332	-52.05
248.549	103.59
248.766	66.73
248.983	-11.09
249.2	21.67
249.417	122.02
249.633	27.82
249.85	83.11
250.067	38.06
250.284	-9.05
250.501	-4.95
250.717	48.3
250.934	7.34
251.151	64.68
251.368	19.63
251.585	81.07
251.801	9.39
252.018	91.31
252.235	-17.24
252.451	-9.05
252.668	68.78
252.885	-7
253.102	29.87
253.318	-17.24
253.535	66.73
253.752	7.34
253.968	-37.72
254.185	44.2
254.401	17.58
254.618	5.29
254.835	19.63
255.051	115.88
255.268	9.39
255.484	40.11
255.701	44.2
255.917	19.63
256.134	25.77
256.351	66.73
256.567	1.19
256.784	56.49
257	-25.43
257.217	36.01
257.433	-64.34
257.65	27.82
257.866	66.73
258.082	-33.62
258.299	38.06
258.515	31.91
258.732	-45.91
258.948	-13.14
259.165	7.34
259.381	-13.14
259.597	56.49
259.814	58.54
260.03	-4.95
260.246	46.25
260.463	-21.33
260.679	-0.85
260.895	-47.96
261.112	-2.9
261.328	-25.43
261.544	-0.85
261.761	101.55
261.977	25.77
262.193	-25.43
262.409	13.48
262.626	107.69
262.842	58.54
263.058	-0.85
263.274	-15.19
263.49	58.54
263.707	97.45
263.923	56.49
264.139	-25.43
264.355	-47.96
264.571	58.54
264.787	27.82
265.004	15.53
265.22	70.83
265.436	-29.52
265.652	85.16
265.868	58.54
266.084	68.78
266.3	11.43
266.516	-47.96
266.732	-17.24
266.948	-33.62
267.164	48.3
267.38	40.11
267.596	19.63
267.812	52.39
268.028	25.77
268.244	46.25
268.46	38.06
268.676	89.26
268.892	64.68
269.108	-19.29
269.324	-60.24
269.54	-13.14
269.756	21.67
269.972	-39.76
270.188	97.45
270.403	19.63
270.619	-13.14
270.835	81.07
271.051	97.45
271.267	19.63
271.483	13.48
271.698	58.54
271.914	31.91
272.13	19.63
272.346	25.77
272.562	15.53
272.777	89.26
272.993	-0.85
273.209	-45.91
273.425	15.53
273.64	-58.2
273.856	44.2
274.072	19.63
274.287	-29.52
274.503	-39.76
274.719	13.48
274.934	31.91
275.15	3.24
275.366	36.01
275.581	33.96
275.797	115.88
276.012	83.11
276.228	21.67
276.444	-33.62
276.659	109.74
276.875	1.19
277.09	56.49
277.306	36.01
277.521	-11.09
277.737	5.29
277.952	40.11
278.168	33.96
278.383	72.87
278.599	-19.29
278.814	31.91
279.03	-0.85
279.245	1.19
279.461	56.49
279.676	81.07
279.892	1.19
280.107	-72.53
280.322	1.19
280.538	42.15
280.753	19.63
280.969	50.35
281.184	64.68
281.399	95.4
281.615	23.72
281.83	27.82
282.045	15.53
282.26	60.59
282.476	-39.76
282.691	48.3
282.906	7.34
283.122	56.49
283.337	-33.62
283.552	-25.43
283.767	-47.96
283.983	38.06
284.198	64.68
284.413	-19.29
284.628	-15.19
284.843	9.39
285.058	44.2
285.274	-2.9
285.489	44.2
285.704	66.73
285.919	-15.19
286.134	5.29
286.349	19.63
286.564	66.73
286.779	13.48
286.995	42.15
287.21	23.72
287.425	-0.85
287.64	3.24
287.855	15.53
288.07	-64.34
288.285	1.19
288.5	42.15
288.715	111.78
288.93	60.59
289.145	-4.95
289.36	74.92
289.575	-99.16
289.79	-2.9
290.004	-7
290.219	-29.52
290.434	70.83
290.649	40.11
290.864	81.07
291.079	-7
291.294	-0.85
291.509	-11.09
291.724	-25.43
291.938	-4.95
292.153	40.11
292.368	19.63
292.583	99.5
292.798	-17.24
293.012	64.68
293.227	31.91
293.442	31.91
293.657	130.22
293.871	44.2
294.086	15.53
294.301	56.49
294.516	93.35
294.73	68.78
294.945	11.43
295.16	-7
295.374	-47.96
295.589	36.01
295.804	-2.9
296.018	21.67
296.233	124.07
296.447	1.19
296.662	-21.33
296.877	56.49
297.091	42.15
297.306	17.58
297.52	50.35
297.735	76.97
297.949	-17.24
298.164	42.15
298.378	-13.14
298.593	76.97
298.807	48.3
299.022	33.96
299.236	101.55
299.451	11.43
299.665	56.49
299.88	-23.38
300.094	-0.85
300.309	1.19
300.523	60.59
300.737	9.39
300.952	-15.19
301.166	15.53
301.381	19.63
301.595	13.48
301.809	23.72
302.024	-9.05
302.238	68.78
302.452	105.64
302.667	64.68
302.881	132.26
303.095	-11.09
303.309	58.54
303.524	87.21
303.738	-7
303.952	64.68
304.166	72.87
304.381	-50
304.595	76.97
304.809	-37.72
305.023	-25.43
305.237	-17.24
305.452	29.87
305.666	38.06
305.88	85.16
306.094	56.49
306.308	33.96
306.522	-4.95
306.736	23.72
306.95	56.49
307.164	23.72
307.379	44.2
307.593	107.69
307.807	74.92
308.021	64.68
308.235	48.3
308.449	54.44
308.663	42.15
308.877	85.16
309.091	-13.14
309.305	-17.24
309.519	-7
309.733	97.45
309.947	7.34
310.161	52.39
310.374	-0.85
310.588	-15.19
310.802	85.16
311.016	132.26
311.23	3.24
311.444	42.15
311.658	-25.43
311.872	122.02
312.085	27.82
312.299	74.92
312.513	60.59
312.727	31.91
312.941	103.59
313.154	23.72
313.368	11.43
313.582	60.59
313.796	-27.48
314.009	36.01
314.223	93.35
314.437	52.39
314.651	56.49
314.864	5.29
315.078	-23.38
315.292	11.43
315.505	72.87
315.719	23.72
315.933	-21.33
316.146	7.34
316.36	50.35
316.573	-29.52
316.787	58.54
317.001	72.87
317.214	9.39
317.428	15.53
317.641	-45.91
317.855	-31.57
318.068	40.11
318.282	15.53
318.495	52.39
318.709	60.59
318.922	36.01
319.136	105.64
319.349	187.56
319.563	7.34
319.776	1.19
319.99	-25.43
320.203	85.16
320.417	40.11
320.63	25.77
320.843	79.02
321.057	-2.9
321.27	54.44
321.483	-9.05
321.697	48.3
321.91	-39.76
322.124	5.29
322.337	42.15
322.55	-52.05
322.763	-7
322.977	3.24
323.19	13.48
323.403	48.3
323.617	31.91
323.83	64.68
324.043	54.44
324.256	36.01
324.469	23.72
324.683	38.06
324.896	17.58
325.109	66.73
325.322	-37.72
325.535	-29.52
325.748	11.43
325.962	31.91
326.175	-0.85
326.388	58.54
326.601	31.91
326.814	42.15
327.027	76.97
327.24	60.59
327.453	-47.96
327.666	85.16
327.879	-13.14
328.092	89.26
328.305	48.3
328.518	66.73
328.731	128.17
328.944	44.2
329.157	19.63
329.37	68.78
329.583	31.91
329.796	99.5
330.009	-29.52
330.222	101.55
330.435	-9.05
330.648	50.35
330.861	76.97
331.073	85.16
331.286	64.68
331.499	7.34
331.712	-33.62
331.925	7.34
332.138	54.44
332.35	36.01
332.563	60.59
332.776	113.83
332.989	33.96
333.202	66.73
333.414	79.02
333.627	25.77
333.84	9.39
334.053	58.54
334.265	-2.9
334.478	1.19
334.691	-33.62
334.903	3.24
335.116	40.11
335.329	-4.95
335.541	81.07
335.754	50.35
335.966	5.29
336.179	25.77
336.392	66.73
336.604	89.26
336.817	7.34
337.029	64.68
337.242	15.53
337.454	-23.38
337.667	-17.24
337.88	56.49
338.092	38.06
338.305	31.91
338.517	5.29
338.729	-15.19
338.942	79.02
339.154	115.88
339.367	1.19
339.579	64.68
339.792	17.58
340.004	91.31
340.217	50.35
340.429	48.3
340.641	-37.72
340.854	7.34
341.066	52.39
341.278	97.45
341.491	81.07
341.703	21.67
341.915	40.11
342.128	42.15
342.34	38.06
342.552	15.53
342.764	72.87
342.977	89.26
343.189	74.92
343.401	56.49
343.613	7.34
343.826	-54.1
344.038	64.68
344.25	48.3
344.462	33.96
344.674	-17.24
344.886	1.19
345.099	62.63
345.311	56.49
345.523	19.63
345.735	-82.77
345.947	31.91
346.159	-74.58
346.371	-37.72
346.583	9.39
346.795	97.45
347.007	31.91
347.219	7.34
347.431	64.68
347.643	31.91
347.855	83.11
348.067	122.02
348.279	-39.76
348.491	105.64
348.703	-27.48
348.915	23.72
349.127	-58.2
349.339	66.73
349.551	-15.19
349.763	25.77
349.975	42.15
350.187	101.55
350.399	101.55
350.61	36.01
350.822	15.53
351.034	50.35
351.246	5.29
351.458	-15.19
351.669	52.39
351.881	-11.09
352.093	56.49
352.305	81.07
352.517	42.15
352.728	50.35
352.94	29.87
353.152	31.91
353.363	50.35
353.575	15.53
353.787	3.24
353.999	-31.57
354.21	-0.85
354.422	36.01
354.633	-11.09
354.845	9.39
355.057	23.72
355.268	23.72
355.48	50.35
355.692	15.53
355.903	33.96
356.115	-39.76
356.326	-37.72
356.538	48.3
356.749	-0.85
356.961	60.59
357.172	52.39
357.384	33.96
357.595	89.26
357.807	38.06
358.018	56.49
358.23	11.43
358.441	31.91
358.653	103.59
358.864	124.07
359.075	72.87
359.287	46.25
359.498	27.82
359.709	-7
359.921	-0.85
360.132	42.15
360.344	76.97
360.555	-7
360.766	-50
360.977	83.11
361.189	44.2
361.4	64.68
361.611	64.68
361.823	19.63
362.034	13.48
362.245	1.19
362.456	7.34
362.667	50.35
362.879	-47.96
363.09	7.34
363.301	1.19
363.512	25.77
363.723	52.39
363.935	23.72
364.146	64.68
364.357	38.06
364.568	64.68
364.779	19.63
364.99	23.72
365.201	11.43
365.412	33.96
365.623	58.54
365.834	36.01
366.045	33.96
366.256	107.69
366.467	70.83
366.678	48.3
366.889	81.07
367.1	81.07
367.311	46.25
367.522	9.39
367.733	25.77
367.944	117.93
368.155	56.49
368.366	74.92
368.577	66.73
368.788	81.07
368.999	-25.43
369.209	56.49
369.42	66.73
369.631	87.21
369.842	81.07
370.053	64.68
370.264	40.11
370.474	97.45
370.685	9.39
370.896	76.97
371.107	48.3
371.317	105.64
371.528	19.63
371.739	46.25
371.95	56.49
372.16	48.3
372.371	-21.33
372.582	81.07
372.792	13.48
373.003	128.17
373.214	54.44
373.424	64.68
373.635	87.21
373.846	99.5
374.056	87.21
374.267	85.16
374.477	89.26
374.688	-17.24
374.898	36.01
375.109	72.87
375.319	64.68
375.53	144.55
375.74	33.96
375.951	52.39
376.161	36.01
376.372	97.45
376.582	17.58
376.793	138.41
377.003	68.78
377.214	115.88
377.424	-15.19
377.635	-9.05
377.845	33.96
378.055	3.24
378.266	7.34
378.476	36.01
378.686	36.01
378.897	109.74
379.107	31.91
379.317	64.68
379.528	15.53
379.738	23.72
379.948	-2.9
380.158	13.48
380.369	81.07
380.579	27.82
380.789	44.2
380.999	89.26
381.21	-4.95
381.42	99.5
381.63	-13.14
381.84	7.34
382.05	-11.09
382.261	13.48
382.471	66.73
382.681	101.55
382.891	72.87
383.101	48.3
383.311	-25.43
383.521	-33.62
383.731	36.01
383.941	74.92
384.151	89.26
384.361	113.83
384.571	93.35
384.781	97.45
384.991	58.54
385.201	81.07
385.411	15.53
385.621	85.16
385.831	42.15
386.041	42.15
386.251	74.92
386.461	58.54
386.671	85.16
386.881	-21.33
387.091	81.07
387.301	44.2
387.511	42.15
387.72	40.11
387.93	60.59
388.14	7.34
388.35	72.87
388.56	89.26
388.769	27.82
388.979	81.07
389.189	93.35
389.399	64.68
389.609	97.45
389.818	85.16
390.028	-29.52
390.238	119.98
390.447	23.72
390.657	-13.14
390.867	44.2
391.076	-15.19
391.286	19.63
391.496	25.77
391.705	9.39
391.915	107.69
392.125	25.77
392.334	17.58
392.544	85.16
392.753	48.3
392.963	52.39
393.172	33.96
393.382	48.3
393.591	122.02
393.801	136.36
394.01	76.97
394.22	89.26
394.429	62.63
394.639	15.53
394.848	56.49
395.058	97.45
395.267	72.87
395.477	33.96
395.686	48.3
395.895	148.65
396.105	109.74
396.314	23.72
396.524	74.92
396.733	62.63
396.942	107.69
397.152	68.78
397.361	115.88
397.57	52.39
397.78	81.07
397.989	52.39
398.198	146.6
398.407	91.31
398.617	99.5
398.826	107.69
399.035	134.31
399.244	72.87
399.453	81.07
399.663	93.35
399.872	103.59
400.081	132.26
400.29	113.83
400.499	48.3
400.708	165.03
400.917	101.55
401.127	31.91
401.336	126.12
401.545	113.83
401.754	191.66
401.963	203.94
402.172	117.93
402.381	68.78
402.59	119.98
402.799	138.41
403.008	122.02
403.217	158.89
403.426	132.26
403.635	76.97
403.844	165.03
404.053	185.51
404.262	122.02
404.471	234.66
404.68	218.28
404.888	140.46
405.097	144.55
405.306	97.45
405.515	138.41
405.724	140.46
405.933	197.8
406.142	253.09
406.35	142.5
406.559	85.16
406.768	183.46
406.977	212.14
407.185	210.09
407.394	195.75
407.603	183.46
407.812	261.29
408.02	271.53
408.229	253.09
408.438	222.38
408.646	253.09
408.855	257.19
409.064	271.53
409.272	320.68
409.481	259.24
409.69	263.33
409.898	300.2
410.107	316.58
410.315	388.26
410.524	310.44
410.733	388.26
410.941	363.69
411.15	359.59
411.358	392.36
411.567	429.22
411.775	404.64
411.984	414.88
412.192	443.56
412.401	449.7
412.609	523.43
412.818	443.56
413.026	511.14
413.234	539.81
413.443	504.99
413.651	584.87
413.86	566.43
414.068	654.5
414.276	668.83
414.485	631.97
414.693	760.99
414.901	740.51
415.11	656.54
415.318	730.27
415.526	754.85
415.734	724.13
415.943	736.42
416.151	869.53
416.359	832.67
416.567	877.73
416.776	844.96
416.984	1035.42
417.192	969.88
417.4	953.5
417.608	1064.09
417.817	1059.99
418.025	1227.93
418.233	1313.94
418.441	1266.84
418.649	1301.65
418.857	1309.85
419.065	1330.33
419.273	1262.74
419.481	1391.77
419.689	1434.77
419.897	1526.93
420.105	1477.78
420.313	1541.27
420.521	1709.2
420.729	1670.29
420.937	1807.5
421.145	1868.94
421.353	1866.89
421.561	1936.53
421.769	2096.27
421.977	2098.31
422.185	2069.64
422.393	2260.1
422.601	2358.41
422.809	2307.21
423.017	2387.08
423.224	2522.24
423.432	2587.78
423.64	2471.04
423.848	2722.95
424.056	2868.35
424.263	2851.97
424.471	2964.61
424.679	2942.08
424.887	3116.16
425.094	3142.78
425.302	3279.99
425.51	3456.12
425.718	3488.89
425.925	3417.21
426.133	3681.39
426.341	3748.98
426.548	4029.55
426.756	4013.17
426.964	4017.26
427.171	4279.4
427.379	4285.55
427.586	4570.21
427.794	4578.4
428.001	4672.61
428.209	5053.53
428.417	4904.03
428.624	5096.54
428.832	5256.28
429.039	5295.19
429.247	5301.34
429.454	5743.7
429.662	6028.37
429.869	5725.27
430.076	6224.97
430.284	5913.68
430.491	6188.11
430.699	6626.37
430.906	6421.58
431.114	6722.63
431.321	6929.47
431.528	6902.85
431.736	7459.9
431.943	7654.45
432.15	7576.63
432.358	7650.36
432.565	7906.35
432.772	8084.53
432.979	8381.48
433.187	8565.8
433.394	8686.63
433.601	9354.27
433.808	9331.74
434.016	9108.51
434.223	9462.81
434.43	9993.23
434.637	9915.41
434.844	10435.6
435.052	10658.82
435.259	10630.15
435.466	10810.37
435.673	10642.44
435.88	11287.55
436.087	11908.08
436.294	11924.47
436.501	11697.14
436.708	11762.68
436.915	12088.31
437.122	12862.44
437.329	12725.22
437.537	13190.11
437.743	13532.12
437.95	13036.52
438.157	14060.5
438.364	14547.92
438.571	14486.48
438.778	14451.66
438.985	15850.42
439.192	15236.03
439.399	15494.08
439.606	15080.39
439.813	16192.44
440.02	17073.06
440.227	16776.11
440.433	16952.23
440.64	17161.12
440.847	17351.59
441.054	17664.93
441.261	18795.4
441.467	18457.49
441.674	18924.43
441.881	19520.38
442.088	19538.82
442.294	19235.72
442.501	19729.28
442.708	20482.93
442.914	21103.46
443.121	21865.31
443.328	20972.39
443.534	22895.44
443.741	22149.98
443.948	21680.99
444.154	23546.69
444.361	23149.39
444.568	23384.9
444.774	23434.05
444.981	23784.26
445.187	24347.45
445.394	25322.28
445.6	24949.55
445.807	27573
446.013	26321.69
446.22	26643.22
446.426	27671.3
446.633	27853.57
446.839	28895.99
447.046	27798.27
447.252	28920.56
447.459	29324.01
447.665	29242.09
447.871	30327.52
448.078	31789.77
448.284	30323.42
448.491	31001.3
448.697	32148.16
448.903	32451.26
449.11	32584.38
449.316	32398.01
449.522	32692.92
449.728	33680.04
449.935	34120.35
450.141	34325.15
450.347	34542.24
450.553	33598.12
450.76	34089.63
450.966	35009.17
451.172	34771.61
451.378	35719.82
451.584	34867.86
451.791	35635.85
451.997	35814.02
452.203	36139.65
452.409	36450.94
452.615	36125.32
452.821	34726.55
453.027	34726.55
453.233	36137.6
453.44	34773.66
453.646	35682.95
453.852	35250.83
454.058	35977.86
454.264	34560.67
454.47	35558.03
454.676	35041.94
454.882	35955.33
455.088	32817.85
455.294	33583.79
455.5	34028.2
455.705	34339.49
455.911	33108.66
456.117	32225.98
456.323	31791.81
456.529	29913.83
456.735	31562.44
456.941	30853.84
457.147	30307.04
457.352	29633.25
457.558	29106.93
457.764	28807.92
457.97	28343.03
458.176	27632.39
458.381	27849.47
458.587	26632.98
458.793	26776.34
458.999	25219.88
459.204	27085.58
459.41	26450.71
459.616	24593.2
459.821	24693.55
460.027	24443.7
460.233	24208.19
460.438	23020.36
460.644	22911.82
460.85	22125.4
461.055	21601.12
461.261	21767.01
461.466	19975.03
461.672	19399.55
461.878	20777.84
462.083	19487.62
462.289	19108.74
462.494	19106.7
462.7	17890.2
462.905	17619.87
463.111	18084.76
463.316	18033.56
463.522	17947.54
463.727	17773.47
463.932	17734.56
464.138	17513.38
464.343	17816.47
464.549	17195.94
464.754	17748.89
464.959	17505.18
465.165	17464.22
465.37	16819.11
465.575	16559.02
465.781	16898.98
465.986	17056.68
466.191	16284.59
466.397	16073.65
466.602	15461.31
466.807	15973.3
467.012	15852.47
467.218	15506.37
467.423	15719.35
467.628	15528.89
