Data from USB4F104151__99__14-18-01-959.txt Node

Date: Thu Mar 13 14:18:01 EDT 2025
User: louis
Spectrometer: USB4F10415
Trigger mode: 4
Integration Time (sec): 2.000000E-2
Scans to average: 1
Electric dark correction enabled: true
Nonlinearity correction enabled: false
Boxcar width: 0
XAxis mode: Wavelengths
Number of Pixels in Spectrum: 3648
>>>>>Begin Spectral Data<<<<<
178.204	-92.67
178.424	-92.67
178.644	-92.67
178.864	-145.92
179.084	-131.58
179.304	-29.18
179.524	-4.61
179.744	26.11
179.964	9.73
180.184	24.06
180.404	-31.23
180.624	9.73
180.844	-6.66
181.064	-10.75
181.283	1.54
181.503	-25.09
181.723	36.35
181.943	-53.76
182.163	67.07
182.383	24.06
182.602	34.3
182.822	28.16
183.042	17.92
183.262	99.84
183.482	17.92
183.701	-4.61
183.921	54.78
184.141	-29.18
184.361	46.59
184.58	1.54
184.8	67.07
185.02	1.54
185.239	42.5
185.459	30.21
185.679	69.12
185.898	-43.52
186.118	-18.94
186.338	-39.42
186.557	65.02
186.777	5.63
186.997	26.11
187.216	32.26
187.436	28.16
187.655	26.11
187.875	93.69
188.095	69.12
188.314	58.88
188.534	56.83
188.753	44.54
188.973	69.12
189.192	110.08
189.412	56.83
189.631	9.73
189.851	46.59
190.07	38.4
190.29	69.12
190.509	34.3
190.729	-2.56
190.948	-4.61
191.168	122.37
191.387	52.74
191.607	13.82
191.826	19.97
192.045	52.74
192.265	50.69
192.484	67.07
192.704	83.45
192.923	50.69
193.142	69.12
193.362	13.82
193.581	118.27
193.8	28.16
194.02	140.8
194.239	-4.61
194.458	38.4
194.678	30.21
194.897	89.6
195.116	-86.53
195.335	58.88
195.555	60.93
195.774	1.54
195.993	42.5
196.212	50.69
196.432	17.92
196.651	48.64
196.87	13.82
197.089	30.21
197.308	52.74
197.528	3.58
197.747	-51.71
197.966	62.98
198.185	81.41
198.404	5.63
198.623	52.74
198.842	-4.61
199.062	22.02
199.281	46.59
199.5	83.45
199.719	26.11
199.938	-10.75
200.157	105.98
200.376	-2.56
200.595	36.35
200.814	28.16
201.033	-2.56
201.252	50.69
201.471	-23.04
201.69	44.54
201.909	28.16
202.128	58.88
202.347	42.5
202.566	-20.99
202.785	-39.42
203.004	62.98
203.223	132.61
203.442	48.64
203.661	77.31
203.879	71.17
204.098	38.4
204.317	30.21
204.536	30.21
204.755	48.64
204.974	56.83
205.193	42.5
205.411	58.88
205.63	3.58
205.849	58.88
206.068	73.21
206.287	28.16
206.505	77.31
206.724	50.69
206.943	13.82
207.162	13.82
207.381	36.35
207.599	-41.47
207.818	-8.7
208.037	28.16
208.255	22.02
208.474	19.97
208.693	1.54
208.911	-43.52
209.13	-10.75
209.349	87.55
209.567	11.78
209.786	42.5
210.005	75.26
210.223	30.21
210.442	50.69
210.661	83.45
210.879	46.59
211.098	81.41
211.316	11.78
211.535	19.97
211.753	67.07
211.972	99.84
212.191	11.78
212.409	-12.8
212.628	9.73
212.846	-51.71
213.065	17.92
213.283	73.21
213.502	-57.86
213.72	75.26
213.938	-14.85
214.157	42.5
214.375	-23.04
214.594	-2.56
214.812	118.27
215.031	36.35
215.249	1.54
215.467	7.68
215.686	5.63
215.904	148.99
216.122	30.21
216.341	60.93
216.559	9.73
216.778	34.3
216.996	40.45
217.214	38.4
217.432	-23.04
217.651	56.83
217.869	3.58
218.087	13.82
218.306	-57.86
218.524	36.35
218.742	17.92
218.96	34.3
219.179	19.97
219.397	71.17
219.615	89.6
219.833	-10.75
220.051	19.97
220.27	60.93
220.488	40.45
220.706	-6.66
220.924	65.02
221.142	3.58
221.36	89.6
221.578	-23.04
221.796	56.83
222.015	22.02
222.233	58.88
222.451	81.41
222.669	36.35
222.887	22.02
223.105	46.59
223.323	22.02
223.541	30.21
223.759	17.92
223.977	24.06
224.195	159.23
224.413	1.54
224.631	75.26
224.849	-2.56
225.067	75.26
225.285	71.17
225.503	28.16
225.721	-18.94
225.939	26.11
226.157	42.5
226.375	151.04
226.592	15.87
226.81	-12.8
227.028	46.59
227.246	17.92
227.464	-8.7
227.682	52.74
227.9	3.58
228.117	34.3
228.335	67.07
228.553	9.73
228.771	-6.66
228.989	-6.66
229.206	52.74
229.424	-25.09
229.642	62.98
229.86	34.3
230.077	103.93
230.295	62.98
230.513	19.97
230.731	79.36
230.948	-43.52
231.166	52.74
231.384	7.68
231.601	3.58
231.819	101.89
232.037	17.92
232.254	22.02
232.472	1.54
232.689	9.73
232.907	50.69
233.125	48.64
233.342	71.17
233.56	26.11
233.777	42.5
233.995	50.69
234.213	13.82
234.43	112.13
234.648	34.3
234.865	79.36
235.083	32.26
235.3	44.54
235.518	101.89
235.735	36.35
235.953	58.88
236.17	-18.94
236.388	101.89
236.605	28.16
236.822	3.58
237.04	40.45
237.257	-14.85
237.475	58.88
237.692	116.22
237.909	38.4
238.127	-18.94
238.344	-39.42
238.562	26.11
238.779	69.12
238.996	3.58
239.214	118.27
239.431	79.36
239.648	83.45
239.865	99.84
240.083	52.74
240.3	60.93
240.517	34.3
240.735	54.78
240.952	-45.57
241.169	9.73
241.386	79.36
241.603	81.41
241.821	-25.09
242.038	132.61
242.255	19.97
242.472	-64
242.689	30.21
242.907	110.08
243.124	42.5
243.341	62.98
243.558	-31.23
243.775	62.98
243.992	-78.33
244.209	79.36
244.426	30.21
244.643	56.83
244.86	54.78
245.078	93.69
245.295	11.78
245.512	-14.85
245.729	-25.09
245.946	52.74
246.163	71.17
246.38	60.93
246.597	30.21
246.814	38.4
247.031	11.78
247.248	54.78
247.464	22.02
247.681	91.65
247.898	-6.66
248.115	87.55
248.332	38.4
248.549	91.65
248.766	105.98
248.983	73.21
249.2	85.5
249.417	-29.18
249.633	58.88
249.85	40.45
250.067	-55.81
250.284	17.92
250.501	42.5
250.717	26.11
250.934	44.54
251.151	26.11
251.368	-25.09
251.585	105.98
251.801	3.58
252.018	50.69
252.235	81.41
252.451	-41.47
252.668	34.3
252.885	60.93
253.102	-4.61
253.318	11.78
253.535	22.02
253.752	48.64
253.968	-31.23
254.185	-23.04
254.401	36.35
254.618	28.16
254.835	9.73
255.051	58.88
255.268	-23.04
255.484	15.87
255.701	50.69
255.917	62.98
256.134	-59.9
256.351	-23.04
256.567	-14.85
256.784	58.88
257	36.35
257.217	91.65
257.433	-14.85
257.65	112.13
257.866	108.03
258.082	-14.85
258.299	-12.8
258.515	32.26
258.732	-33.28
258.948	52.74
259.165	50.69
259.381	75.26
259.597	81.41
259.814	42.5
260.03	62.98
260.246	38.4
260.463	132.61
260.679	91.65
260.895	81.41
261.112	58.88
261.328	-16.9
261.544	50.69
261.761	46.59
261.977	-31.23
262.193	34.3
262.409	34.3
262.626	7.68
262.842	28.16
263.058	-18.94
263.274	67.07
263.49	34.3
263.707	-6.66
263.923	-51.71
264.139	28.16
264.355	-47.62
264.571	105.98
264.787	30.21
265.004	34.3
265.22	-20.99
265.436	71.17
265.652	22.02
265.868	71.17
266.084	1.54
266.3	36.35
266.516	-4.61
266.732	-29.18
266.948	-2.56
267.164	71.17
267.38	44.54
267.596	9.73
267.812	97.79
268.028	60.93
268.244	-4.61
268.46	50.69
268.676	38.4
268.892	-14.85
269.108	28.16
269.324	19.97
269.54	48.64
269.756	99.84
269.972	1.54
270.188	42.5
270.403	30.21
270.619	7.68
270.835	13.82
271.051	32.26
271.267	17.92
271.483	1.54
271.698	9.73
271.914	5.63
272.13	46.59
272.346	-35.33
272.562	15.87
272.777	38.4
272.993	38.4
273.209	19.97
273.425	9.73
273.64	116.22
273.856	42.5
274.072	60.93
274.287	65.02
274.503	75.26
274.719	69.12
274.934	56.83
275.15	52.74
275.366	75.26
275.581	3.58
275.797	83.45
276.012	22.02
276.228	67.07
276.444	1.54
276.659	50.69
276.875	42.5
277.09	11.78
277.306	19.97
277.521	19.97
277.737	-31.23
277.952	36.35
278.168	17.92
278.383	65.02
278.599	42.5
278.814	65.02
279.03	-2.56
279.245	50.69
279.461	11.78
279.676	-4.61
279.892	-0.51
280.107	75.26
280.322	-31.23
280.538	71.17
280.753	30.21
280.969	-31.23
281.184	40.45
281.399	17.92
281.615	58.88
281.83	62.98
282.045	-4.61
282.26	87.55
282.476	108.03
282.691	73.21
282.906	65.02
283.122	15.87
283.337	1.54
283.552	71.17
283.767	-27.14
283.983	67.07
284.198	67.07
284.413	-55.81
284.628	65.02
284.843	42.5
285.058	40.45
285.274	-45.57
285.489	-14.85
285.704	75.26
285.919	40.45
286.134	81.41
286.349	40.45
286.564	65.02
286.779	114.17
286.995	50.69
287.21	42.5
287.425	62.98
287.64	-33.28
287.855	3.58
288.07	36.35
288.285	44.54
288.5	54.78
288.715	99.84
288.93	62.98
289.145	-8.7
289.36	22.02
289.575	60.93
289.79	79.36
290.004	58.88
290.219	85.5
290.434	-31.23
290.649	28.16
290.864	5.63
291.079	62.98
291.294	5.63
291.509	5.63
291.724	-12.8
291.938	-0.51
292.153	71.17
292.368	1.54
292.583	42.5
292.798	-6.66
293.012	58.88
293.227	46.59
293.442	60.93
293.657	110.08
293.871	28.16
294.086	50.69
294.301	75.26
294.516	85.5
294.73	67.07
294.945	-25.09
295.16	-6.66
295.374	83.45
295.589	54.78
295.804	26.11
296.018	13.82
296.233	101.89
296.447	83.45
296.662	42.5
296.877	11.78
297.091	95.74
297.306	34.3
297.52	60.93
297.735	11.78
297.949	128.51
298.164	110.08
298.378	-2.56
298.593	-72.19
298.807	-27.14
299.022	5.63
299.236	19.97
299.451	97.79
299.665	-31.23
299.88	30.21
300.094	9.73
300.309	58.88
300.523	81.41
300.737	-10.75
300.952	-2.56
301.166	79.36
301.381	38.4
301.595	32.26
301.809	56.83
302.024	118.27
302.238	38.4
302.452	91.65
302.667	67.07
302.881	93.69
303.095	17.92
303.309	91.65
303.524	79.36
303.738	54.78
303.952	-20.99
304.166	32.26
304.381	9.73
304.595	75.26
304.809	91.65
305.023	22.02
305.237	71.17
305.452	46.59
305.666	71.17
305.88	65.02
306.094	73.21
306.308	112.13
306.522	62.98
306.736	56.83
306.95	38.4
307.164	9.73
307.379	22.02
307.593	-10.75
307.807	32.26
308.021	-20.99
308.235	-12.8
308.449	32.26
308.663	52.74
308.877	91.65
309.091	1.54
309.305	52.74
309.519	9.73
309.733	52.74
309.947	26.11
310.161	83.45
310.374	95.74
310.588	118.27
310.802	69.12
311.016	26.11
311.23	50.69
311.444	-4.61
311.658	17.92
311.872	-18.94
312.085	140.8
312.299	75.26
312.513	81.41
312.727	-14.85
312.941	-37.38
313.154	38.4
313.368	38.4
313.582	50.69
313.796	38.4
314.009	79.36
314.223	83.45
314.437	58.88
314.651	-35.33
314.864	34.3
315.078	46.59
315.292	-31.23
315.505	9.73
315.719	67.07
315.933	91.65
316.146	9.73
316.36	-76.29
316.573	26.11
316.787	142.85
317.001	5.63
317.214	38.4
317.428	38.4
317.641	19.97
317.855	38.4
318.068	56.83
318.282	-4.61
318.495	26.11
318.709	75.26
318.922	26.11
319.136	50.69
319.349	54.78
319.563	26.11
319.776	75.26
319.99	22.02
320.203	-6.66
320.417	62.98
320.63	19.97
320.843	9.73
321.057	42.5
321.27	-6.66
321.483	62.98
321.697	50.69
321.91	13.82
322.124	52.74
322.337	28.16
322.55	116.22
322.763	34.3
322.977	58.88
323.19	26.11
323.403	46.59
323.617	91.65
323.83	89.6
324.043	62.98
324.256	36.35
324.469	52.74
324.683	112.13
324.896	42.5
325.109	52.74
325.322	15.87
325.535	112.13
325.748	67.07
325.962	32.26
326.175	26.11
326.388	42.5
326.601	122.37
326.814	-10.75
327.027	15.87
327.24	75.26
327.453	17.92
327.666	58.88
327.879	91.65
328.092	108.03
328.305	99.84
328.518	95.74
328.731	-51.71
328.944	40.45
329.157	58.88
329.37	34.3
329.583	3.58
329.796	36.35
330.009	-10.75
330.222	-47.62
330.435	19.97
330.648	-6.66
330.861	99.84
331.073	67.07
331.286	38.4
331.499	52.74
331.712	1.54
331.925	67.07
332.138	44.54
332.35	81.41
332.563	46.59
332.776	124.41
332.989	40.45
333.202	-14.85
333.414	105.98
333.627	99.84
333.84	95.74
334.053	34.3
334.265	58.88
334.478	79.36
334.691	36.35
334.903	1.54
335.116	19.97
335.329	50.69
335.541	42.5
335.754	81.41
335.966	52.74
336.179	58.88
336.392	50.69
336.604	28.16
336.817	85.5
337.029	124.41
337.242	71.17
337.454	71.17
337.667	73.21
337.88	138.75
338.092	75.26
338.305	140.8
338.517	58.88
338.729	69.12
338.942	42.5
339.154	132.61
339.367	22.02
339.579	62.98
339.792	65.02
340.004	144.89
340.217	36.35
340.429	44.54
340.641	34.3
340.854	79.36
341.066	-31.23
341.278	79.36
341.491	48.64
341.703	26.11
341.915	48.64
342.128	95.74
342.34	19.97
342.552	97.79
342.764	-29.18
342.977	110.08
343.189	140.8
343.401	99.84
343.613	-8.7
343.826	30.21
344.038	11.78
344.25	-31.23
344.462	-31.23
344.674	103.93
344.886	79.36
345.099	1.54
345.311	36.35
345.523	40.45
345.735	5.63
345.947	105.98
346.159	38.4
346.371	34.3
346.583	81.41
346.795	142.85
347.007	-4.61
347.219	118.27
347.431	1.54
347.643	83.45
347.855	36.35
348.067	108.03
348.279	-43.52
348.491	103.93
348.703	77.31
348.915	58.88
349.127	50.69
349.339	15.87
349.551	52.74
349.763	-14.85
349.975	75.26
350.187	93.69
350.399	101.89
350.61	38.4
350.822	1.54
351.034	26.11
351.246	52.74
351.458	34.3
351.669	54.78
351.881	142.85
352.093	67.07
352.305	11.78
352.517	22.02
352.728	159.23
352.94	60.93
353.152	73.21
353.363	3.58
353.575	62.98
353.787	136.7
353.999	87.55
354.21	17.92
354.422	54.78
354.633	42.5
354.845	95.74
355.057	83.45
355.268	26.11
355.48	60.93
355.692	19.97
355.903	38.4
356.115	67.07
356.326	28.16
356.538	60.93
356.749	108.03
356.961	75.26
357.172	83.45
357.384	54.78
357.595	-0.51
357.807	44.54
358.018	-6.66
358.23	56.83
358.441	138.75
358.653	91.65
358.864	42.5
359.075	26.11
359.287	22.02
359.498	42.5
359.709	93.69
359.921	28.16
360.132	50.69
360.344	1.54
360.555	30.21
360.766	58.88
360.977	99.84
361.189	58.88
361.4	17.92
361.611	79.36
361.823	36.35
362.034	87.55
362.245	-8.7
362.456	17.92
362.667	44.54
362.879	95.74
363.09	46.59
363.301	3.58
363.512	67.07
363.723	89.6
363.935	87.55
364.146	77.31
364.357	22.02
364.568	50.69
364.779	91.65
364.99	97.79
365.201	-31.23
365.412	93.69
365.623	22.02
365.834	58.88
366.045	85.5
366.256	91.65
366.467	44.54
366.678	36.35
366.889	46.59
367.1	60.93
367.311	99.84
367.522	17.92
367.733	87.55
367.944	95.74
368.155	71.17
368.366	46.59
368.577	83.45
368.788	142.85
368.999	116.22
369.209	-10.75
369.42	87.55
369.631	124.41
369.842	140.8
370.053	36.35
370.264	101.89
370.474	28.16
370.685	81.41
370.896	85.5
371.107	58.88
371.317	26.11
371.528	-39.42
371.739	75.26
371.95	67.07
372.16	48.64
372.371	85.5
372.582	1.54
372.792	-6.66
373.003	22.02
373.214	75.26
373.424	60.93
373.635	-2.56
373.846	116.22
374.056	60.93
374.267	17.92
374.477	75.26
374.688	89.6
374.898	42.5
375.109	9.73
375.319	28.16
375.53	58.88
375.74	91.65
375.951	75.26
376.161	30.21
376.372	142.85
376.582	67.07
376.793	85.5
377.003	-12.8
377.214	38.4
377.424	46.59
377.635	48.64
377.845	52.74
378.055	99.84
378.266	54.78
378.476	91.65
378.686	69.12
378.897	-4.61
379.107	67.07
379.317	46.59
379.528	26.11
379.738	93.69
379.948	36.35
380.158	95.74
380.369	-14.85
380.579	151.04
380.789	58.88
380.999	50.69
381.21	77.31
381.42	161.28
381.63	34.3
381.84	69.12
382.05	15.87
382.261	26.11
382.471	93.69
382.681	-33.28
382.891	69.12
383.101	75.26
383.311	22.02
383.521	48.64
383.731	5.63
383.941	22.02
384.151	30.21
384.361	1.54
384.571	-4.61
384.781	58.88
384.991	126.46
385.201	153.09
385.411	79.36
385.621	52.74
385.831	116.22
386.041	50.69
386.251	42.5
386.461	87.55
386.671	19.97
386.881	87.55
387.091	-18.94
387.301	101.89
387.511	26.11
387.72	7.68
387.93	77.31
388.14	-6.66
388.35	42.5
388.56	42.5
388.769	91.65
388.979	134.65
389.189	79.36
389.399	69.12
389.609	93.69
389.818	126.46
390.028	34.3
390.238	52.74
390.447	118.27
390.657	136.7
390.867	73.21
391.076	46.59
391.286	75.26
391.496	89.6
391.705	54.78
391.915	120.32
392.125	134.65
392.334	79.36
392.544	128.51
392.753	87.55
392.963	93.69
393.172	114.17
393.382	142.85
393.591	148.99
393.801	11.78
394.01	148.99
394.22	110.08
394.429	108.03
394.639	52.74
394.848	83.45
395.058	77.31
395.267	136.7
395.477	151.04
395.686	146.94
395.895	151.04
396.105	136.7
396.314	177.66
396.524	58.88
396.733	142.85
396.942	157.18
397.152	128.51
397.361	67.07
397.57	83.45
397.78	108.03
397.989	93.69
398.198	173.57
398.407	142.85
398.617	17.92
398.826	110.08
399.035	71.17
399.244	97.79
399.453	167.42
399.663	87.55
399.872	159.23
400.081	17.92
400.29	177.66
400.499	77.31
400.708	138.75
400.917	185.85
401.127	140.8
401.336	108.03
401.545	120.32
401.754	153.09
401.963	112.13
402.172	62.98
402.381	128.51
402.59	136.7
402.799	151.04
403.008	206.33
403.217	148.99
403.426	165.37
403.635	173.57
403.844	167.42
404.053	181.76
404.262	112.13
404.471	214.52
404.68	144.89
404.888	263.68
405.097	208.38
405.306	173.57
405.515	196.09
405.724	214.52
405.933	132.61
406.142	235
406.35	208.38
406.559	140.8
406.768	259.58
406.977	290.3
407.185	222.72
407.394	278.01
407.603	206.33
407.812	298.49
408.02	321.02
408.229	208.38
408.438	353.79
408.646	290.3
408.855	255.48
409.064	312.83
409.272	288.25
409.481	298.49
409.69	280.06
409.898	296.44
410.107	411.13
410.315	345.59
410.524	370.17
410.733	392.7
410.941	445.95
411.15	427.51
411.358	460.28
411.567	534.01
411.775	464.38
411.984	519.67
412.192	509.43
412.401	517.62
412.609	566.78
412.818	615.93
413.026	650.74
413.234	609.78
413.443	638.45
413.651	759.28
413.86	681.46
414.068	667.13
414.276	775.67
414.485	744.95
414.693	724.47
414.901	790
415.11	820.72
415.318	806.39
415.526	921.07
415.734	921.07
415.943	845.3
416.151	1025.52
416.359	1009.14
416.567	1046
416.776	1066.48
416.984	1234.41
417.192	1258.99
417.4	1181.17
417.608	1183.21
417.817	1258.99
418.025	1385.96
418.233	1289.71
418.441	1338.86
418.649	1484.27
418.857	1545.7
419.065	1607.14
419.273	1568.23
419.481	1512.94
419.689	1658.34
419.897	1809.89
420.105	1775.08
420.313	1857
420.521	1936.87
420.729	1824.23
420.937	1938.91
421.145	2106.85
421.353	2131.42
421.561	2268.64
421.769	2334.17
421.977	2301.4
422.185	2330.08
422.393	2655.7
422.601	2774.49
422.809	2688.47
423.017	2655.7
423.224	2794.97
423.432	2786.77
423.64	2977.23
423.848	3251.66
424.056	3231.18
424.263	3352.01
424.471	3362.25
424.679	3571.15
424.887	3577.29
425.094	3816.9
425.302	3718.6
425.51	3855.81
425.718	4050.37
425.925	4171.2
426.133	4156.86
426.341	4396.48
426.548	4533.69
426.756	4771.26
426.964	4660.66
427.171	5090.74
427.379	5273.01
427.586	5033.4
427.794	5361.07
428.001	5412.27
428.209	5836.2
428.417	5795.24
428.624	6063.52
428.832	6047.14
429.039	6108.58
429.247	6133.15
429.454	6737.31
429.662	6991.25
429.869	6477.21
430.076	7056.79
430.284	6884.76
430.491	7095.7
430.699	7722.38
430.906	7652.75
431.114	7685.51
431.321	8045.96
431.528	8304
431.736	8650.11
431.943	9139.57
432.15	8752.51
432.358	8918.39
432.565	9604.46
432.772	9368.95
432.979	9846.12
433.187	9866.6
433.394	9938.28
433.601	10743.13
433.808	10945.88
434.016	10837.34
434.223	11058.52
434.43	11760.97
434.637	11785.55
434.844	12375.36
435.052	12643.65
435.259	12475.71
435.466	12729.66
435.673	12576.06
435.88	13157.69
436.087	13778.22
436.294	13843.76
436.501	13673.78
436.708	13774.13
436.915	14306.6
437.122	15138.07
437.329	15019.29
437.537	15287.57
437.743	15863.05
437.95	15537.43
438.157	16409.86
438.364	17202.43
438.571	17020.16
438.778	16798.98
438.985	18646.24
439.192	17786.1
439.399	18593
439.606	17884.4
439.813	18920.67
440.02	19995.85
440.227	19809.49
440.433	19588.31
440.64	20034.77
440.847	20249.8
441.054	20581.57
441.261	21912.75
441.467	21718.2
441.674	21759.16
441.881	22830.24
442.088	22729.89
442.294	22389.93
442.501	22977.7
442.708	23510.17
442.914	24599.69
443.121	25625.72
443.328	24747.14
443.534	26739.82
443.741	26121.33
443.948	25173.12
444.154	27587.68
444.361	27360.35
444.568	27001.96
444.774	27663.45
444.981	27688.03
445.187	28652.62
445.394	29680.7
445.6	29131.84
445.807	31867.93
446.013	30723.12
446.22	31083.56
446.426	32095.25
446.633	32812.04
446.839	33782.78
447.046	32459.79
447.252	34395.12
447.459	33993.72
447.665	33838.08
447.871	35496.93
448.078	37141.45
448.284	35204.07
448.491	36398.04
448.697	37374.92
448.903	38364.09
449.11	38151.1
449.316	37919.68
449.522	38230.97
449.728	39422.89
449.935	39556
450.141	39306.15
450.347	40909.71
450.553	39556
450.76	40031.13
450.966	40999.82
451.172	40579.99
451.378	41249.67
451.584	40872.85
451.791	41597.83
451.997	41526.15
452.203	42539.89
452.409	42597.24
452.615	42101.63
452.821	40721.3
453.027	39910.3
453.233	42570.61
453.44	40561.56
453.646	41005.97
453.852	41157.52
454.058	42232.7
454.264	40588.18
454.47	41825.15
454.676	40444.82
454.882	41431.94
455.088	38233.02
455.294	38558.64
455.5	39603.11
455.705	40068
455.911	38183.87
456.117	37579.71
456.323	37405.64
456.529	35324.9
456.735	36862.93
456.941	35998.68
457.147	35376.1
457.352	34350.07
457.558	34081.78
457.764	34368.5
457.97	33227.78
458.176	32879.63
458.381	32658.45
458.587	31104.04
458.793	30575.66
458.999	29213.76
459.204	31892.51
459.41	30825.51
459.616	28798.02
459.821	28851.27
460.027	28632.14
460.233	27862.1
460.438	26811.49
460.644	26958.95
460.85	25615.48
461.055	25150.59
461.261	25406.59
461.466	23454.87
461.672	22758.56
461.878	24302.73
462.083	23026.85
462.289	22185.13
462.494	22199.47
462.7	21216.44
462.905	20487.37
463.111	21351.61
463.316	21296.32
463.522	20853.95
463.727	20810.95
463.932	20999.36
464.138	20516.04
464.343	20565.19
464.549	20077.77
464.754	20772.04
464.959	20571.33
465.165	20319.43
465.37	19682.52
465.575	18986.21
465.781	19786.96
465.986	20120.78
466.191	19258.59
466.397	18842.85
466.602	18097.39
466.807	18679.01
467.012	19197.15
467.218	18584.8
467.423	18361.58
467.628	18636
467.833	19129.56
