Data from USB4F104151__285__14-23-32-569.txt Node

Date: Thu Mar 13 14:23:32 EDT 2025
User: louis
Spectrometer: USB4F10415
Trigger mode: 4
Integration Time (sec): 2.000000E-2
Scans to average: 1
Electric dark correction enabled: true
Nonlinearity correction enabled: false
Boxcar width: 0
XAxis mode: Wavelengths
Number of Pixels in Spectrum: 3648
>>>>>Begin Spectral Data<<<<<
178.204	-73.04
178.424	-73.04
178.644	-73.04
178.864	-97.62
179.084	-40.28
179.304	-19.8
179.524	29.35
179.744	-101.72
179.964	33.45
180.184	4.78
180.404	-36.18
180.624	2.73
180.844	25.26
181.064	2.73
181.283	8.87
181.503	37.55
181.723	12.97
181.943	37.55
182.163	33.45
182.383	47.79
182.602	8.87
182.822	68.27
183.042	107.18
183.262	8.87
183.482	4.78
183.701	33.45
183.921	-15.7
184.141	35.5
184.361	66.22
184.58	-50.52
184.8	78.51
185.02	45.74
185.239	29.35
185.459	25.26
185.679	70.31
185.898	53.93
186.118	82.6
186.338	8.87
186.557	33.45
186.777	-1.37
186.997	-44.37
187.216	4.78
187.436	43.69
187.655	33.45
187.875	76.46
188.095	45.74
188.314	123.56
188.534	19.11
188.753	84.65
188.973	115.37
189.192	64.17
189.412	101.03
189.631	45.74
189.851	76.46
190.07	-5.46
190.29	23.21
190.509	17.07
190.729	74.41
190.948	37.55
191.168	191.14
191.387	70.31
191.607	45.74
191.826	39.59
192.045	-11.61
192.265	82.6
192.484	37.55
192.704	0.68
192.923	17.07
193.142	121.51
193.362	107.18
193.581	101.03
193.8	92.84
194.02	109.22
194.239	25.26
194.458	105.13
194.678	78.51
194.897	17.07
195.116	-5.46
195.335	33.45
195.555	37.55
195.774	0.68
195.993	94.89
196.212	2.73
196.432	19.11
196.651	47.79
196.87	12.97
197.089	88.75
197.308	58.03
197.528	92.84
197.747	64.17
197.966	68.27
198.185	86.7
198.404	74.41
198.623	82.6
198.842	84.65
199.062	72.36
199.281	80.55
199.5	51.88
199.719	47.79
199.938	10.92
200.157	45.74
200.376	84.65
200.595	80.55
200.814	72.36
201.033	-62.8
201.252	86.7
201.471	60.07
201.69	109.22
201.909	17.07
202.128	49.83
202.347	49.83
202.566	6.83
202.785	76.46
203.004	12.97
203.223	68.27
203.442	70.31
203.661	8.87
203.879	58.03
204.098	51.88
204.317	-5.46
204.536	33.45
204.755	68.27
204.974	49.83
205.193	94.89
205.411	27.31
205.63	58.03
205.849	2.73
206.068	33.45
206.287	-15.7
206.505	12.97
206.724	4.78
206.943	41.64
207.162	45.74
207.381	23.21
207.599	25.26
207.818	45.74
208.037	60.07
208.255	0.68
208.474	55.98
208.693	76.46
208.911	2.73
209.13	84.65
209.349	49.83
209.567	125.61
209.786	107.18
210.005	60.07
210.223	41.64
210.442	2.73
210.661	39.59
210.879	19.11
211.098	90.79
211.316	45.74
211.535	33.45
211.753	41.64
211.972	6.83
212.191	-7.51
212.409	107.18
212.628	82.6
212.846	39.59
213.065	103.08
213.283	80.55
213.502	-15.7
213.72	19.11
213.938	29.35
214.157	58.03
214.375	88.75
214.594	41.64
214.812	64.17
215.031	103.08
215.249	17.07
215.467	8.87
215.686	-3.41
215.904	60.07
216.122	2.73
216.341	94.89
216.559	62.12
216.778	41.64
216.996	107.18
217.214	21.16
217.432	-23.89
217.651	82.6
217.869	8.87
218.087	88.75
218.306	49.83
218.524	82.6
218.742	-19.8
218.96	41.64
219.179	21.16
219.397	90.79
219.615	58.03
219.833	76.46
220.051	27.31
220.27	70.31
220.488	74.41
220.706	41.64
220.924	-7.51
221.142	58.03
221.36	-11.61
221.578	19.11
221.796	90.79
222.015	90.79
222.233	49.83
222.451	23.21
222.669	47.79
222.887	90.79
223.105	88.75
223.323	53.93
223.541	70.31
223.759	84.65
223.977	49.83
224.195	74.41
224.413	82.6
224.631	86.7
224.849	-3.41
225.067	86.7
225.285	-32.08
225.503	58.03
225.721	-19.8
225.939	0.68
226.157	8.87
226.375	125.61
226.592	21.16
226.81	4.78
227.028	17.07
227.246	98.99
227.464	-23.89
227.682	76.46
227.9	41.64
228.117	84.65
228.335	94.89
228.553	76.46
228.771	103.08
228.989	94.89
229.206	41.64
229.424	74.41
229.642	-7.51
229.86	19.11
230.077	45.74
230.295	25.26
230.513	58.03
230.731	58.03
230.948	72.36
231.166	39.59
231.384	103.08
231.601	21.16
231.819	35.5
232.037	78.51
232.254	-19.8
232.472	68.27
232.689	43.69
232.907	10.92
233.125	80.55
233.342	86.7
233.56	25.26
233.777	90.79
233.995	94.89
234.213	74.41
234.43	12.97
234.648	60.07
234.865	25.26
235.083	33.45
235.3	154.28
235.518	92.84
235.735	45.74
235.953	96.94
236.17	105.13
236.388	33.45
236.605	41.64
236.822	76.46
237.04	84.65
237.257	-11.61
237.475	111.27
237.692	103.08
237.909	68.27
238.127	-1.37
238.344	23.21
238.562	17.07
238.779	45.74
238.996	111.27
239.214	115.37
239.431	109.22
239.648	-21.85
239.865	43.69
240.083	37.55
240.3	-44.37
240.517	31.4
240.735	35.5
240.952	62.12
241.169	58.03
241.386	-3.41
241.603	86.7
241.821	35.5
242.038	94.89
242.255	39.59
242.472	45.74
242.689	47.79
242.907	82.6
243.124	68.27
243.341	117.42
243.558	33.45
243.775	-11.61
243.992	107.18
244.209	33.45
244.426	90.79
244.643	47.79
244.86	17.07
245.078	127.66
245.295	139.94
245.512	62.12
245.729	-7.51
245.946	84.65
246.163	-5.46
246.38	41.64
246.597	45.74
246.814	8.87
247.031	43.69
247.248	51.88
247.464	43.69
247.681	2.73
247.898	6.83
248.115	41.64
248.332	-27.99
248.549	49.83
248.766	51.88
248.983	80.55
249.2	49.83
249.417	156.33
249.633	-68.95
249.85	-15.7
250.067	6.83
250.284	62.12
250.501	43.69
250.717	-21.85
250.934	19.11
251.151	25.26
251.368	80.55
251.585	6.83
251.801	144.04
252.018	12.97
252.235	84.65
252.451	-19.8
252.668	-30.04
252.885	51.88
253.102	105.13
253.318	90.79
253.535	-15.7
253.752	-3.41
253.968	78.51
254.185	62.12
254.401	49.83
254.618	58.03
254.835	70.31
255.051	60.07
255.268	41.64
255.484	17.07
255.701	98.99
255.917	51.88
256.134	25.26
256.351	76.46
256.567	17.07
256.784	51.88
257	70.31
257.217	60.07
257.433	84.65
257.65	29.35
257.866	66.22
258.082	37.55
258.299	53.93
258.515	107.18
258.732	80.55
258.948	-11.61
259.165	51.88
259.381	49.83
259.597	72.36
259.814	0.68
260.03	2.73
260.246	58.03
260.463	78.51
260.679	84.65
260.895	33.45
261.112	51.88
261.328	10.92
261.544	-3.41
261.761	117.42
261.977	33.45
262.193	58.03
262.409	58.03
262.626	62.12
262.842	-7.51
263.058	17.07
263.274	25.26
263.49	109.22
263.707	76.46
263.923	12.97
264.139	41.64
264.355	33.45
264.571	133.8
264.787	-7.51
265.004	98.99
265.22	70.31
265.436	35.5
265.652	17.07
265.868	103.08
266.084	25.26
266.3	33.45
266.516	66.22
266.732	94.89
266.948	-21.85
267.164	123.56
267.38	-40.28
267.596	96.94
267.812	66.22
268.028	98.99
268.244	27.31
268.46	29.35
268.676	60.07
268.892	33.45
269.108	68.27
269.324	-3.41
269.54	0.68
269.756	51.88
269.972	58.03
270.188	43.69
270.403	-11.61
270.619	58.03
270.835	78.51
271.051	62.12
271.267	-11.61
271.483	62.12
271.698	60.07
271.914	66.22
272.13	-3.41
272.346	66.22
272.562	74.41
272.777	158.38
272.993	41.64
273.209	60.07
273.425	35.5
273.64	27.31
273.856	39.59
274.072	37.55
274.287	43.69
274.503	49.83
274.719	58.03
274.934	0.68
275.15	-21.85
275.366	4.78
275.581	-5.46
275.797	25.26
276.012	45.74
276.228	62.12
276.444	78.51
276.659	90.79
276.875	-40.28
277.09	37.55
277.306	-34.13
277.521	72.36
277.737	103.08
277.952	115.37
278.168	51.88
278.383	66.22
278.599	29.35
278.814	25.26
279.03	62.12
279.245	115.37
279.461	98.99
279.676	47.79
279.892	25.26
280.107	-46.42
280.322	-17.75
280.538	27.31
280.753	78.51
280.969	90.79
281.184	12.97
281.399	8.87
281.615	96.94
281.83	94.89
282.045	107.18
282.26	33.45
282.476	39.59
282.691	158.38
282.906	-1.37
283.122	64.17
283.337	-11.61
283.552	41.64
283.767	90.79
283.983	58.03
284.198	74.41
284.413	21.16
284.628	21.16
284.843	66.22
285.058	70.31
285.274	35.5
285.489	15.02
285.704	66.22
285.919	127.66
286.134	-23.89
286.349	103.08
286.564	41.64
286.779	150.18
286.995	0.68
287.21	15.02
287.425	117.42
287.64	41.64
287.855	2.73
288.07	39.59
288.285	43.69
288.5	17.07
288.715	49.83
288.93	74.41
289.145	68.27
289.36	70.31
289.575	10.92
289.79	90.79
290.004	55.98
290.219	8.87
290.434	62.12
290.649	-21.85
290.864	41.64
291.079	80.55
291.294	-13.65
291.509	10.92
291.724	43.69
291.938	45.74
292.153	19.11
292.368	78.51
292.583	35.5
292.798	17.07
293.012	35.5
293.227	0.68
293.442	25.26
293.657	27.31
293.871	82.6
294.086	2.73
294.301	96.94
294.516	31.4
294.73	33.45
294.945	76.46
295.16	35.5
295.374	49.83
295.589	76.46
295.804	31.4
296.018	76.46
296.233	84.65
296.447	62.12
296.662	35.5
296.877	33.45
297.091	8.87
297.306	41.64
297.52	43.69
297.735	41.64
297.949	62.12
298.164	141.99
298.378	82.6
298.593	33.45
298.807	123.56
299.022	8.87
299.236	60.07
299.451	41.64
299.665	31.4
299.88	23.21
300.094	41.64
300.309	33.45
300.523	31.4
300.737	23.21
300.952	74.41
301.166	74.41
301.381	103.08
301.595	70.31
301.809	37.55
302.024	19.11
302.238	66.22
302.452	55.98
302.667	-19.8
302.881	182.95
303.095	23.21
303.309	137.9
303.524	25.26
303.738	37.55
303.952	27.31
304.166	41.64
304.381	-11.61
304.595	41.64
304.809	98.99
305.023	49.83
305.237	129.7
305.452	-38.23
305.666	78.51
305.88	-19.8
306.094	66.22
306.308	58.03
306.522	103.08
306.736	33.45
306.95	53.93
307.164	117.42
307.379	53.93
307.593	39.59
307.807	45.74
308.021	58.03
308.235	41.64
308.449	-15.7
308.663	141.99
308.877	51.88
309.091	45.74
309.305	19.11
309.519	-34.13
309.733	25.26
309.947	60.07
310.161	111.27
310.374	41.64
310.588	-23.89
310.802	39.59
311.016	141.99
311.23	12.97
311.444	31.4
311.658	51.88
311.872	109.22
312.085	66.22
312.299	72.36
312.513	66.22
312.727	-7.51
312.941	33.45
313.154	35.5
313.368	133.8
313.582	51.88
313.796	115.37
314.009	43.69
314.223	111.27
314.437	51.88
314.651	64.17
314.864	-38.23
315.078	72.36
315.292	-9.56
315.505	2.73
315.719	58.03
315.933	82.6
316.146	-11.61
316.36	82.6
316.573	60.07
316.787	19.11
317.001	76.46
317.214	43.69
317.428	98.99
317.641	66.22
317.855	17.07
318.068	19.11
318.282	76.46
318.495	68.27
318.709	55.98
318.922	37.55
319.136	113.32
319.349	144.04
319.563	17.07
319.776	82.6
319.99	41.64
320.203	27.31
320.417	70.31
320.63	76.46
320.843	101.03
321.057	33.45
321.27	39.59
321.483	172.71
321.697	82.6
321.91	49.83
322.124	76.46
322.337	33.45
322.55	66.22
322.763	45.74
322.977	101.03
323.19	27.31
323.403	10.92
323.617	84.65
323.83	107.18
324.043	6.83
324.256	64.17
324.469	0.68
324.683	139.94
324.896	41.64
325.109	21.16
325.322	33.45
325.535	70.31
325.748	141.99
325.962	51.88
326.175	103.08
326.388	37.55
326.601	35.5
326.814	35.5
327.027	82.6
327.24	29.35
327.453	-5.46
327.666	47.79
327.879	51.88
328.092	66.22
328.305	15.02
328.518	-3.41
328.731	33.45
328.944	-38.23
329.157	88.75
329.37	78.51
329.583	35.5
329.796	92.84
330.009	-21.85
330.222	72.36
330.435	139.94
330.648	74.41
330.861	80.55
331.073	62.12
331.286	66.22
331.499	53.93
331.712	10.92
331.925	23.21
332.138	64.17
332.35	62.12
332.563	35.5
332.776	123.56
332.989	53.93
333.202	107.18
333.414	74.41
333.627	107.18
333.84	-11.61
334.053	41.64
334.265	0.68
334.478	66.22
334.691	39.59
334.903	0.68
335.116	29.35
335.329	88.75
335.541	-23.89
335.754	131.75
335.966	-19.8
336.179	172.71
336.392	51.88
336.604	51.88
336.817	21.16
337.029	27.31
337.242	-11.61
337.454	33.45
337.667	17.07
337.88	109.22
338.092	-3.41
338.305	80.55
338.517	98.99
338.729	64.17
338.942	119.46
339.154	33.45
339.367	47.79
339.579	78.51
339.792	72.36
340.004	72.36
340.217	64.17
340.429	123.56
340.641	53.93
340.854	17.07
341.066	21.16
341.278	144.04
341.491	37.55
341.703	45.74
341.915	29.35
342.128	8.87
342.34	74.41
342.552	10.92
342.764	90.79
342.977	70.31
343.189	76.46
343.401	107.18
343.613	58.03
343.826	80.55
344.038	27.31
344.25	68.27
344.462	29.35
344.674	19.11
344.886	4.78
345.099	41.64
345.311	8.87
345.523	49.83
345.735	8.87
345.947	90.79
346.159	19.11
346.371	66.22
346.583	33.45
346.795	43.69
347.007	115.37
347.219	86.7
347.431	33.45
347.643	94.89
347.855	94.89
348.067	135.85
348.279	60.07
348.491	96.94
348.703	6.83
348.915	51.88
349.127	35.5
349.339	92.84
349.551	103.08
349.763	107.18
349.975	35.5
350.187	41.64
350.399	111.27
350.61	60.07
350.822	66.22
351.034	55.98
351.246	66.22
351.458	68.27
351.669	68.27
351.881	125.61
352.093	103.08
352.305	84.65
352.517	64.17
352.728	139.94
352.94	66.22
353.152	70.31
353.363	-46.42
353.575	76.46
353.787	53.93
353.999	133.8
354.21	90.79
354.422	25.26
354.633	51.88
354.845	66.22
355.057	103.08
355.268	53.93
355.48	17.07
355.692	82.6
355.903	-9.56
356.115	60.07
356.326	29.35
356.538	107.18
356.749	125.61
356.961	117.42
357.172	111.27
357.384	66.22
357.595	107.18
357.807	41.64
358.018	33.45
358.23	58.03
358.441	86.7
358.653	15.02
358.864	10.92
359.075	90.79
359.287	107.18
359.498	86.7
359.709	-15.7
359.921	115.37
360.132	64.17
360.344	47.79
360.555	0.68
360.766	123.56
360.977	2.73
361.189	53.93
361.4	90.79
361.611	98.99
361.823	98.99
362.034	94.89
362.245	-11.61
362.456	43.69
362.667	51.88
362.879	51.88
363.09	66.22
363.301	33.45
363.512	64.17
363.723	62.12
363.935	-15.7
364.146	92.84
364.357	60.07
364.568	84.65
364.779	109.22
364.99	74.41
365.201	0.68
365.412	62.12
365.623	58.03
365.834	41.64
366.045	43.69
366.256	109.22
366.467	49.83
366.678	-19.8
366.889	25.26
367.1	148.14
367.311	51.88
367.522	58.03
367.733	68.27
367.944	92.84
368.155	49.83
368.366	43.69
368.577	111.27
368.788	90.79
368.999	8.87
369.209	39.59
369.42	86.7
369.631	135.85
369.842	51.88
370.053	41.64
370.264	53.93
370.474	62.12
370.685	58.03
370.896	60.07
371.107	51.88
371.317	58.03
371.528	123.56
371.739	53.93
371.95	19.11
372.16	90.79
372.371	21.16
372.582	-32.08
372.792	62.12
373.003	76.46
373.214	78.51
373.424	92.84
373.635	49.83
373.846	133.8
374.056	66.22
374.267	62.12
374.477	68.27
374.688	10.92
374.898	33.45
375.109	119.46
375.319	49.83
375.53	131.75
375.74	82.6
375.951	45.74
376.161	49.83
376.372	111.27
376.582	0.68
376.793	2.73
377.003	8.87
377.214	90.79
377.424	68.27
377.635	74.41
377.845	-3.41
378.055	107.18
378.266	33.45
378.476	94.89
378.686	68.27
378.897	109.22
379.107	74.41
379.317	90.79
379.528	68.27
379.738	115.37
379.948	27.31
380.158	60.07
380.369	74.41
380.579	119.46
380.789	53.93
380.999	92.84
381.21	66.22
381.42	84.65
381.63	55.98
381.84	62.12
382.05	74.41
382.261	154.28
382.471	76.46
382.681	98.99
382.891	74.41
383.101	41.64
383.311	115.37
383.521	115.37
383.731	64.17
383.941	51.88
384.151	49.83
384.361	111.27
384.571	49.83
384.781	84.65
384.991	74.41
385.201	127.66
385.411	68.27
385.621	25.26
385.831	78.51
386.041	133.8
386.251	98.99
386.461	84.65
386.671	123.56
386.881	35.5
387.091	70.31
387.301	35.5
387.511	6.83
387.72	90.79
387.93	103.08
388.14	27.31
388.35	101.03
388.56	90.79
388.769	62.12
388.979	80.55
389.189	90.79
389.399	41.64
389.609	76.46
389.818	78.51
390.028	144.04
390.238	68.27
390.447	82.6
390.657	115.37
390.867	58.03
391.076	37.55
391.286	86.7
391.496	117.42
391.705	51.88
391.915	119.46
392.125	139.94
392.334	94.89
392.544	70.31
392.753	84.65
392.963	45.74
393.172	58.03
393.382	21.16
393.591	131.75
393.801	78.51
394.01	180.9
394.22	115.37
394.429	10.92
394.639	35.5
394.848	74.41
395.058	66.22
395.267	125.61
395.477	58.03
395.686	96.94
395.895	156.33
396.105	139.94
396.314	125.61
396.524	78.51
396.733	103.08
396.942	133.8
397.152	111.27
397.361	115.37
397.57	117.42
397.78	101.03
397.989	101.03
398.198	170.66
398.407	115.37
398.617	90.79
398.826	76.46
399.035	84.65
399.244	172.71
399.453	148.14
399.663	172.71
399.872	139.94
400.081	98.99
400.29	146.09
400.499	107.18
400.708	164.52
400.917	152.23
401.127	103.08
401.336	139.94
401.545	191.14
401.754	205.48
401.963	176.81
402.172	94.89
402.381	58.03
402.59	195.24
402.799	113.32
403.008	131.75
403.217	193.19
403.426	109.22
403.635	17.07
403.844	189.1
404.053	66.22
404.262	98.99
404.471	215.72
404.68	139.94
404.888	182.95
405.097	197.29
405.306	207.53
405.515	141.99
405.724	166.57
405.933	189.1
406.142	156.33
406.35	152.23
406.559	191.14
406.768	158.38
406.977	266.92
407.185	187.05
407.394	205.48
407.603	228.01
407.812	250.53
408.02	283.3
408.229	295.59
408.438	264.87
408.646	225.96
408.855	225.96
409.064	295.59
409.272	303.78
409.481	322.21
409.69	262.82
409.898	252.58
410.107	381.6
410.315	322.21
410.524	352.93
410.733	395.94
410.941	365.22
411.15	371.37
411.358	393.89
411.567	377.51
411.775	438.95
411.984	445.09
412.192	447.14
412.401	445.09
412.609	445.09
412.818	420.52
413.026	543.39
413.234	494.24
413.443	529.06
413.651	561.83
413.86	625.31
414.068	672.42
414.276	606.88
414.485	623.27
414.693	674.46
414.901	762.53
415.11	805.53
415.318	746.14
415.526	787.1
415.734	832.16
415.943	823.97
416.151	854.69
416.359	772.77
416.567	877.21
416.776	901.79
416.984	959.13
417.192	934.56
417.4	985.76
417.608	955.04
417.817	1010.33
418.025	1188.5
418.233	1262.23
418.441	1129.11
418.649	1251.99
418.857	1245.85
419.065	1389.21
419.273	1278.62
419.481	1428.12
419.689	1479.32
419.897	1510.04
420.105	1518.23
420.313	1620.63
420.521	1667.73
420.729	1669.78
420.937	1659.54
421.145	1809.04
421.353	1931.92
421.561	2052.75
421.769	1911.44
421.977	2083.47
422.185	2101.9
422.393	2294.41
422.601	2357.89
422.809	2394.76
423.017	2394.76
423.224	2488.96
423.432	2509.44
423.64	2540.16
423.848	2785.92
424.056	2800.26
424.263	2884.22
424.471	2916.99
424.679	3000.96
424.887	3056.25
425.094	3232.38
425.302	3205.75
425.51	3398.26
425.718	3465.85
425.925	3449.46
426.133	3603.06
426.341	3852.91
426.548	3975.79
426.756	3879.54
426.964	3998.32
427.171	4276.84
427.379	4332.14
427.586	4430.44
427.794	4622.95
428.001	4792.93
428.209	4995.68
428.417	4915.81
428.624	5163.61
428.832	5177.95
429.039	5274.2
429.247	5177.95
429.454	5790.29
429.662	6169.16
429.869	5679.7
430.076	6228.56
430.284	5861.97
430.491	5978.7
430.699	6607.43
430.906	6382.15
431.114	6644.29
431.321	6873.67
431.528	6898.24
431.736	7512.63
431.943	7780.92
432.15	7676.47
432.358	7744.05
432.565	7973.42
432.772	8020.53
432.979	8532.52
433.187	8626.73
433.394	8532.52
433.601	9259.55
433.808	9177.63
434.016	9290.27
434.223	9583.13
434.43	10228.24
434.637	9978.39
434.844	10617.35
435.052	10887.68
435.259	10816.01
435.466	10826.25
435.673	10627.59
435.88	11448.83
436.087	11903.48
436.294	12042.74
436.501	11788.79
436.708	12055.03
436.915	12403.18
437.122	13214.18
437.329	12902.89
437.537	13279.71
437.743	13713.88
437.95	13550.04
438.157	14162.39
438.364	14254.55
438.571	14606.8
438.778	14485.97
438.985	16116.15
439.192	15292.87
439.399	15770.04
439.606	15468.99
439.813	16296.37
440.02	17379.75
440.227	17031.59
440.433	16785.83
440.64	17639.84
440.847	17506.72
441.054	17725.85
441.261	18823.56
441.467	18729.36
441.674	18833.8
441.881	19626.37
442.088	19630.46
442.294	19640.7
442.501	20052.34
442.708	20543.86
442.914	21164.39
443.121	22122.84
443.328	21168.49
443.534	22909.26
443.741	22346.07
443.948	22157.66
444.154	23800.13
444.361	23380.29
444.568	23515.46
444.774	23591.23
444.981	23939.39
445.187	24545.59
445.394	25518.37
445.6	25250.09
445.807	27595.01
446.013	26530.07
446.22	27253
446.426	27887.87
446.633	28270.84
446.839	29159.66
447.046	28012.8
447.252	29565.16
447.459	29329.64
447.665	29329.64
447.871	30839
448.078	32276.67
448.284	30687.45
448.491	31310.03
448.697	32481.47
448.903	33314.99
449.11	33104.05
449.316	32846.01
449.522	33464.49
449.728	34228.38
449.935	34279.58
450.141	34410.65
450.347	35354.77
450.553	34173.09
450.76	34287.78
450.966	35733.64
451.172	35350.67
451.378	36143.24
451.584	35799.18
451.791	36319.36
451.997	36190.34
452.203	36823.16
452.409	37353.58
452.615	36587.64
452.821	35281.04
453.027	35154.07
453.233	36911.22
453.44	35549.32
453.646	35776.65
453.852	36024.45
454.058	37073.01
454.264	35557.52
454.47	36655.23
454.676	35709.07
454.882	37005.43
455.088	33755.3
455.294	34304.16
455.5	34496.67
455.705	35156.11
455.911	33364.14
456.117	33132.72
456.323	32639.16
456.529	31174.86
456.735	32397.5
456.941	31580.36
457.147	30912.72
457.352	29913.31
457.558	29987.04
457.764	30025.95
457.97	29294.83
458.176	28874.99
458.381	28840.18
458.587	27347.21
458.793	27418.89
458.999	26278.17
459.204	27953.41
459.41	27136.27
459.616	25141.55
459.821	25307.43
460.027	25454.89
460.233	24873.26
460.438	23781.7
460.644	23630.15
460.85	22509.91
461.055	22425.94
461.261	22311.25
461.466	20603.25
461.672	20158.84
461.878	21344.61
462.083	20097.4
462.289	19628.42
462.494	19261.83
462.7	18768.27
462.905	18051.48
463.111	18803.08
463.316	18854.28
463.522	18465.17
463.727	18524.56
463.932	18241.94
464.138	18399.63
464.343	18020.76
464.549	17727.9
464.754	17990.04
464.959	18092.44
465.165	17779.1
465.37	17465.76
465.575	16794.03
465.781	17590.69
465.986	17658.27
466.191	17291.68
466.397	16568.75
466.602	15743.42
466.807	16413.1
467.012	16538.03
