Data from USB4F104151__308__14-24-22-845.txt Node

Date: Thu Mar 13 14:24:22 EDT 2025
User: louis
Spectrometer: USB4F10415
Trigger mode: 4
Integration Time (sec): 2.000000E-2
Scans to average: 1
Electric dark correction enabled: true
Nonlinearity correction enabled: false
Boxcar width: 0
XAxis mode: Wavelengths
Number of Pixels in Spectrum: 3648
>>>>>Begin Spectral Data<<<<<
178.204	-27.14
178.424	-27.14
178.644	-27.14
178.864	-156.16
179.084	-111.1
179.304	19.97
179.524	-14.85
179.744	-0.51
179.964	87.55
180.184	26.11
180.404	-45.57
180.624	-33.28
180.844	-49.66
181.064	-31.23
181.283	26.11
181.503	34.3
181.723	-18.94
181.943	-45.57
182.163	110.08
182.383	-37.38
182.602	116.22
182.822	17.92
183.042	19.97
183.262	-27.14
183.482	38.4
183.701	73.21
183.921	75.26
184.141	-4.61
184.361	99.84
184.58	24.06
184.8	91.65
185.02	28.16
185.239	46.59
185.459	5.63
185.679	69.12
185.898	-39.42
186.118	71.17
186.338	-2.56
186.557	62.98
186.777	3.58
186.997	28.16
187.216	1.54
187.436	87.55
187.655	34.3
187.875	9.73
188.095	1.54
188.314	67.07
188.534	93.69
188.753	-14.85
188.973	103.93
189.192	26.11
189.412	-47.62
189.631	60.93
189.851	89.6
190.07	-18.94
190.29	-6.66
190.509	26.11
190.729	19.97
190.948	13.82
191.168	87.55
191.387	38.4
191.607	108.03
191.826	52.74
192.045	-8.7
192.265	30.21
192.484	-6.66
192.704	34.3
192.923	-6.66
193.142	83.45
193.362	69.12
193.581	9.73
193.8	95.74
194.02	-29.18
194.239	-10.75
194.458	3.58
194.678	-31.23
194.897	73.21
195.116	-8.7
195.335	93.69
195.555	48.64
195.774	24.06
195.993	32.26
196.212	3.58
196.432	42.5
196.651	30.21
196.87	-4.61
197.089	95.74
197.308	17.92
197.528	62.98
197.747	36.35
197.966	65.02
198.185	38.4
198.404	34.3
198.623	34.3
198.842	30.21
199.062	17.92
199.281	112.13
199.5	75.26
199.719	36.35
199.938	120.32
200.157	83.45
200.376	58.88
200.595	112.13
200.814	34.3
201.033	50.69
201.252	58.88
201.471	108.03
201.69	99.84
201.909	97.79
202.128	65.02
202.347	83.45
202.566	11.78
202.785	11.78
203.004	1.54
203.223	75.26
203.442	-23.04
203.661	52.74
203.879	-12.8
204.098	11.78
204.317	28.16
204.536	71.17
204.755	-39.42
204.974	17.92
205.193	3.58
205.411	67.07
205.63	-27.14
205.849	52.74
206.068	-14.85
206.287	-6.66
206.505	7.68
206.724	42.5
206.943	28.16
207.162	28.16
207.381	-8.7
207.599	5.63
207.818	30.21
208.037	9.73
208.255	7.68
208.474	118.27
208.693	26.11
208.911	108.03
209.13	44.54
209.349	38.4
209.567	46.59
209.786	38.4
210.005	-2.56
210.223	97.79
210.442	-0.51
210.661	9.73
210.879	130.56
211.098	1.54
211.316	46.59
211.535	46.59
211.753	97.79
211.972	1.54
212.191	-18.94
212.409	42.5
212.628	38.4
212.846	50.69
213.065	103.93
213.283	24.06
213.502	-59.9
213.72	75.26
213.938	34.3
214.157	97.79
214.375	67.07
214.594	58.88
214.812	44.54
215.031	9.73
215.249	-23.04
215.467	9.73
215.686	87.55
215.904	19.97
216.122	91.65
216.341	65.02
216.559	34.3
216.778	77.31
216.996	-23.04
217.214	28.16
217.432	87.55
217.651	28.16
217.869	42.5
218.087	17.92
218.306	34.3
218.524	34.3
218.742	38.4
218.96	58.88
219.179	-6.66
219.397	28.16
219.615	13.82
219.833	65.02
220.051	-14.85
220.27	67.07
220.488	108.03
220.706	11.78
220.924	-35.33
221.142	15.87
221.36	-43.52
221.578	83.45
221.796	34.3
222.015	77.31
222.233	56.83
222.451	69.12
222.669	17.92
222.887	46.59
223.105	-14.85
223.323	34.3
223.541	67.07
223.759	5.63
223.977	42.5
224.195	24.06
224.413	52.74
224.631	44.54
224.849	60.93
225.067	132.61
225.285	-6.66
225.503	-72.19
225.721	36.35
225.939	83.45
226.157	-2.56
226.375	22.02
226.592	-10.75
226.81	26.11
227.028	13.82
227.246	103.93
227.464	71.17
227.682	42.5
227.9	67.07
228.117	44.54
228.335	54.78
228.553	56.83
228.771	73.21
228.989	83.45
229.206	60.93
229.424	19.97
229.642	7.68
229.86	24.06
230.077	-10.75
230.295	58.88
230.513	50.69
230.731	69.12
230.948	79.36
231.166	58.88
231.384	44.54
231.601	-12.8
231.819	118.27
232.037	50.69
232.254	50.69
232.472	108.03
232.689	22.02
232.907	44.54
233.125	11.78
233.342	-8.7
233.56	69.12
233.777	-10.75
233.995	7.68
234.213	122.37
234.43	26.11
234.648	58.88
234.865	19.97
235.083	34.3
235.3	34.3
235.518	58.88
235.735	32.26
235.953	108.03
236.17	7.68
236.388	40.45
236.605	-12.8
236.822	-6.66
237.04	83.45
237.257	-23.04
237.475	99.84
237.692	-59.9
237.909	22.02
238.127	-4.61
238.344	9.73
238.562	60.93
238.779	46.59
238.996	-6.66
239.214	87.55
239.431	44.54
239.648	54.78
239.865	36.35
240.083	-23.04
240.3	118.27
240.517	3.58
240.735	54.78
240.952	-10.75
241.169	9.73
241.386	48.64
241.603	46.59
241.821	42.5
242.038	-4.61
242.255	52.74
242.472	19.97
242.689	75.26
242.907	42.5
243.124	-16.9
243.341	1.54
243.558	-12.8
243.775	9.73
243.992	-12.8
244.209	38.4
244.426	54.78
244.643	95.74
244.86	32.26
245.078	24.06
245.295	13.82
245.512	65.02
245.729	5.63
245.946	83.45
246.163	-29.18
246.38	22.02
246.597	77.31
246.814	24.06
247.031	-59.9
247.248	75.26
247.464	17.92
247.681	67.07
247.898	93.69
248.115	34.3
248.332	50.69
248.549	58.88
248.766	83.45
248.983	91.65
249.2	108.03
249.417	79.36
249.633	50.69
249.85	34.3
250.067	44.54
250.284	32.26
250.501	177.66
250.717	30.21
250.934	3.58
251.151	-14.85
251.368	60.93
251.585	7.68
251.801	-14.85
252.018	19.97
252.235	83.45
252.451	58.88
252.668	62.98
252.885	28.16
253.102	54.78
253.318	42.5
253.535	65.02
253.752	28.16
253.968	15.87
254.185	75.26
254.401	22.02
254.618	-14.85
254.835	-18.94
255.051	11.78
255.268	42.5
255.484	126.46
255.701	3.58
255.917	19.97
256.134	44.54
256.351	38.4
256.567	58.88
256.784	108.03
257	17.92
257.217	67.07
257.433	48.64
257.65	-6.66
257.866	77.31
258.082	40.45
258.299	42.5
258.515	11.78
258.732	87.55
258.948	22.02
259.165	50.69
259.381	-6.66
259.597	-0.51
259.814	65.02
260.03	67.07
260.246	15.87
260.463	62.98
260.679	132.61
260.895	93.69
261.112	17.92
261.328	62.98
261.544	17.92
261.761	32.26
261.977	9.73
262.193	-10.75
262.409	17.92
262.626	36.35
262.842	-0.51
263.058	13.82
263.274	1.54
263.49	67.07
263.707	83.45
263.923	91.65
264.139	-6.66
264.355	71.17
264.571	99.84
264.787	-37.38
265.004	87.55
265.22	120.32
265.436	26.11
265.652	-12.8
265.868	52.74
266.084	-31.23
266.3	58.88
266.516	-35.33
266.732	52.74
266.948	77.31
267.164	-31.23
267.38	44.54
267.596	-18.94
267.812	169.47
268.028	38.4
268.244	42.5
268.46	34.3
268.676	19.97
268.892	75.26
269.108	-10.75
269.324	-8.7
269.54	-10.75
269.756	110.08
269.972	-4.61
270.188	17.92
270.403	17.92
270.619	34.3
270.835	17.92
271.051	89.6
271.267	-2.56
271.483	19.97
271.698	46.59
271.914	83.45
272.13	58.88
272.346	19.97
272.562	17.92
272.777	118.27
272.993	17.92
273.209	-20.99
273.425	42.5
273.64	15.87
273.856	42.5
274.072	-14.85
274.287	67.07
274.503	54.78
274.719	-4.61
274.934	34.3
275.15	22.02
275.366	52.74
275.581	1.54
275.797	17.92
276.012	-31.23
276.228	75.26
276.444	38.4
276.659	81.41
276.875	-39.42
277.09	46.59
277.306	9.73
277.521	108.03
277.737	36.35
277.952	110.08
278.168	36.35
278.383	26.11
278.599	75.26
278.814	62.98
279.03	62.98
279.245	103.93
279.461	-20.99
279.676	17.92
279.892	-27.14
280.107	-2.56
280.322	-41.47
280.538	65.02
280.753	11.78
280.969	77.31
281.184	13.82
281.399	52.74
281.615	-10.75
281.83	17.92
282.045	-53.76
282.26	40.45
282.476	11.78
282.691	50.69
282.906	-25.09
283.122	13.82
283.337	9.73
283.552	42.5
283.767	-2.56
283.983	34.3
284.198	-2.56
284.413	36.35
284.628	-37.38
284.843	120.32
285.058	65.02
285.274	83.45
285.489	38.4
285.704	11.78
285.919	34.3
286.134	58.88
286.349	22.02
286.564	103.93
286.779	50.69
286.995	1.54
287.21	-43.52
287.425	60.93
287.64	-6.66
287.855	42.5
288.07	28.16
288.285	120.32
288.5	42.5
288.715	34.3
288.93	-43.52
289.145	26.11
289.36	11.78
289.575	-27.14
289.79	54.78
290.004	46.59
290.219	-0.51
290.434	50.69
290.649	42.5
290.864	-6.66
291.079	75.26
291.294	50.69
291.509	50.69
291.724	-27.14
291.938	32.26
292.153	60.93
292.368	44.54
292.583	52.74
292.798	58.88
293.012	75.26
293.227	11.78
293.442	26.11
293.657	-8.7
293.871	91.65
294.086	28.16
294.301	116.22
294.516	28.16
294.73	-8.7
294.945	58.88
295.16	52.74
295.374	73.21
295.589	38.4
295.804	42.5
296.018	-55.81
296.233	85.5
296.447	44.54
296.662	-31.23
296.877	81.41
297.091	173.57
297.306	36.35
297.52	81.41
297.735	34.3
297.949	85.5
298.164	58.88
298.378	108.03
298.593	-8.7
298.807	77.31
299.022	28.16
299.236	22.02
299.451	36.35
299.665	-16.9
299.88	54.78
300.094	38.4
300.309	38.4
300.523	19.97
300.737	13.82
300.952	62.98
301.166	60.93
301.381	-12.8
301.595	50.69
301.809	42.5
302.024	44.54
302.238	58.88
302.452	56.83
302.667	52.74
302.881	144.89
303.095	-31.23
303.309	79.36
303.524	99.84
303.738	-4.61
303.952	36.35
304.166	62.98
304.381	-23.04
304.595	52.74
304.809	50.69
305.023	9.73
305.237	60.93
305.452	148.99
305.666	17.92
305.88	97.79
306.094	17.92
306.308	34.3
306.522	40.45
306.736	-57.86
306.95	124.41
307.164	-4.61
307.379	-27.14
307.593	3.58
307.807	65.02
308.021	34.3
308.235	67.07
308.449	17.92
308.663	48.64
308.877	11.78
309.091	-8.7
309.305	65.02
309.519	1.54
309.733	48.64
309.947	-8.7
310.161	116.22
310.374	91.65
310.588	52.74
310.802	34.3
311.016	42.5
311.23	75.26
311.444	71.17
311.658	22.02
311.872	24.06
312.085	13.82
312.299	67.07
312.513	67.07
312.727	71.17
312.941	3.58
313.154	32.26
313.368	42.5
313.582	75.26
313.796	26.11
314.009	60.93
314.223	46.59
314.437	-2.56
314.651	79.36
314.864	75.26
315.078	87.55
315.292	40.45
315.505	22.02
315.719	13.82
315.933	36.35
316.146	126.46
316.36	52.74
316.573	3.58
316.787	73.21
317.001	75.26
317.214	-18.94
317.428	144.89
317.641	42.5
317.855	93.69
318.068	52.74
318.282	58.88
318.495	46.59
318.709	95.74
318.922	17.92
319.136	42.5
319.349	83.45
319.563	-14.85
319.776	-8.7
319.99	-39.42
320.203	52.74
320.417	9.73
320.63	26.11
320.843	36.35
321.057	38.4
321.27	38.4
321.483	17.92
321.697	17.92
321.91	40.45
322.124	34.3
322.337	79.36
322.55	9.73
322.763	65.02
322.977	24.06
323.19	26.11
323.403	-23.04
323.617	34.3
323.83	73.21
324.043	50.69
324.256	110.08
324.469	22.02
324.683	112.13
324.896	13.82
325.109	103.93
325.322	-29.18
325.535	17.92
325.748	71.17
325.962	-45.57
326.175	26.11
326.388	69.12
326.601	9.73
326.814	11.78
327.027	17.92
327.24	95.74
327.453	-31.23
327.666	48.64
327.879	77.31
328.092	30.21
328.305	71.17
328.518	48.64
328.731	-23.04
328.944	112.13
329.157	73.21
329.37	50.69
329.583	87.55
329.796	-18.94
330.009	-18.94
330.222	81.41
330.435	50.69
330.648	73.21
330.861	26.11
331.073	81.41
331.286	46.59
331.499	17.92
331.712	9.73
331.925	52.74
332.138	-27.14
332.35	9.73
332.563	-18.94
332.776	62.98
332.989	17.92
333.202	-39.42
333.414	15.87
333.627	120.32
333.84	19.97
334.053	56.83
334.265	58.88
334.478	71.17
334.691	11.78
334.903	62.98
335.116	26.11
335.329	58.88
335.541	-64
335.754	99.84
335.966	87.55
336.179	24.06
336.392	-12.8
336.604	103.93
336.817	19.97
337.029	28.16
337.242	50.69
337.454	48.64
337.667	79.36
337.88	116.22
338.092	60.93
338.305	116.22
338.517	62.98
338.729	36.35
338.942	36.35
339.154	-70.14
339.367	50.69
339.579	11.78
339.792	28.16
340.004	65.02
340.217	67.07
340.429	36.35
340.641	-23.04
340.854	48.64
341.066	11.78
341.278	69.12
341.491	136.7
341.703	13.82
341.915	-27.14
342.128	7.68
342.34	-8.7
342.552	71.17
342.764	62.98
342.977	38.4
343.189	-23.04
343.401	42.5
343.613	62.98
343.826	19.97
344.038	140.8
344.25	46.59
344.462	34.3
344.674	-20.99
344.886	52.74
345.099	124.41
345.311	60.93
345.523	73.21
345.735	28.16
345.947	34.3
346.159	136.7
346.371	1.54
346.583	22.02
346.795	69.12
347.007	69.12
347.219	124.41
347.431	50.69
347.643	9.73
347.855	19.97
348.067	5.63
348.279	-64
348.491	58.88
348.703	22.02
348.915	38.4
349.127	-2.56
349.339	50.69
349.551	69.12
349.763	83.45
349.975	24.06
350.187	62.98
350.399	95.74
350.61	69.12
350.822	28.16
351.034	62.98
351.246	1.54
351.458	87.55
351.669	1.54
351.881	83.45
352.093	56.83
352.305	142.85
352.517	50.69
352.728	46.59
352.94	50.69
353.152	89.6
353.363	56.83
353.575	65.02
353.787	75.26
353.999	85.5
354.21	83.45
354.422	34.3
354.633	60.93
354.845	85.5
355.057	-57.86
355.268	62.98
355.48	67.07
355.692	-31.23
355.903	9.73
356.115	5.63
356.326	-6.66
356.538	69.12
356.749	93.69
356.961	67.07
357.172	30.21
357.384	69.12
357.595	157.18
357.807	19.97
358.018	-2.56
358.23	52.74
358.441	58.88
358.653	48.64
358.864	58.88
359.075	3.58
359.287	15.87
359.498	140.8
359.709	22.02
359.921	-20.99
360.132	62.98
360.344	77.31
360.555	60.93
360.766	30.21
360.977	17.92
361.189	155.13
361.4	26.11
361.611	79.36
361.823	105.98
362.034	103.93
362.245	28.16
362.456	67.07
362.667	75.26
362.879	-6.66
363.09	26.11
363.301	9.73
363.512	38.4
363.723	19.97
363.935	9.73
364.146	19.97
364.357	58.88
364.568	-2.56
364.779	-8.7
364.99	1.54
365.201	-64
365.412	67.07
365.623	1.54
365.834	56.83
366.045	99.84
366.256	54.78
366.467	50.69
366.678	9.73
366.889	1.54
367.1	75.26
367.311	108.03
367.522	114.17
367.733	42.5
367.944	128.51
368.155	101.89
368.366	62.98
368.577	97.79
368.788	101.89
368.999	38.4
369.209	17.92
369.42	91.65
369.631	62.98
369.842	15.87
370.053	30.21
370.264	58.88
370.474	71.17
370.685	17.92
370.896	5.63
371.107	-4.61
371.317	132.61
371.528	58.88
371.739	81.41
371.95	69.12
372.16	34.3
372.371	9.73
372.582	-10.75
372.792	36.35
373.003	60.93
373.214	-8.7
373.424	1.54
373.635	42.5
373.846	44.54
374.056	-33.28
374.267	-20.99
374.477	48.64
374.688	87.55
374.898	1.54
375.109	54.78
375.319	15.87
375.53	67.07
375.74	91.65
375.951	50.69
376.161	44.54
376.372	62.98
376.582	19.97
376.793	93.69
377.003	87.55
377.214	75.26
377.424	-4.61
377.635	83.45
377.845	75.26
378.055	67.07
378.266	52.74
378.476	-18.94
378.686	99.84
378.897	34.3
379.107	15.87
379.317	120.32
379.528	38.4
379.738	-39.42
379.948	22.02
380.158	56.83
380.369	30.21
380.579	17.92
380.789	-14.85
380.999	24.06
381.21	95.74
381.42	67.07
381.63	17.92
381.84	95.74
382.05	67.07
382.261	67.07
382.471	99.84
382.681	22.02
382.891	75.26
383.101	44.54
383.311	69.12
383.521	71.17
383.731	79.36
383.941	120.32
384.151	9.73
384.361	44.54
384.571	103.93
384.781	110.08
384.991	81.41
385.201	148.99
385.411	77.31
385.621	148.99
385.831	-18.94
386.041	-37.38
386.251	83.45
386.461	46.59
386.671	91.65
386.881	34.3
387.091	11.78
387.301	17.92
387.511	108.03
387.72	1.54
387.93	130.56
388.14	13.82
388.35	17.92
388.56	75.26
388.769	17.92
388.979	28.16
389.189	44.54
389.399	50.69
389.609	67.07
389.818	116.22
390.028	62.98
390.238	110.08
390.447	42.5
390.657	108.03
390.867	11.78
391.076	-12.8
391.286	-33.28
391.496	91.65
391.705	93.69
391.915	110.08
392.125	134.65
392.334	128.51
392.544	60.93
392.753	17.92
392.963	15.87
393.172	36.35
393.382	99.84
393.591	79.36
393.801	75.26
394.01	77.31
394.22	126.46
394.429	46.59
394.639	83.45
394.848	151.04
395.058	95.74
395.267	19.97
395.477	103.93
395.686	42.5
395.895	75.26
396.105	116.22
396.314	58.88
396.524	58.88
396.733	36.35
396.942	62.98
397.152	112.13
397.361	120.32
397.57	42.5
397.78	34.3
397.989	67.07
398.198	108.03
398.407	118.27
398.617	1.54
398.826	85.5
399.035	126.46
399.244	83.45
399.453	11.78
399.663	140.8
399.872	124.41
400.081	99.84
400.29	103.93
400.499	126.46
400.708	122.37
400.917	42.5
401.127	120.32
401.336	85.5
401.545	99.84
401.754	124.41
401.963	103.93
402.172	136.7
402.381	77.31
402.59	58.88
402.799	116.22
403.008	124.41
403.217	157.18
403.426	124.41
403.635	83.45
403.844	99.84
404.053	126.46
404.262	91.65
404.471	189.95
404.68	95.74
404.888	91.65
405.097	99.84
405.306	140.8
405.515	173.57
405.724	83.45
405.933	159.23
406.142	140.8
406.35	167.42
406.559	112.13
406.768	167.42
406.977	155.13
407.185	173.57
407.394	187.9
407.603	165.37
407.812	202.24
408.02	194.05
408.229	163.33
408.438	216.57
408.646	175.61
408.855	165.37
409.064	230.91
409.272	181.76
409.481	206.33
409.69	271.87
409.898	222.72
410.107	241.15
410.315	189.95
410.524	263.68
410.733	341.5
410.941	230.91
411.15	282.11
411.358	349.69
411.567	296.44
411.775	271.87
411.984	380.41
412.192	361.98
412.401	437.75
412.609	394.75
412.818	431.61
413.026	337.4
413.234	417.27
413.443	427.51
413.651	372.22
413.86	470.52
414.068	517.62
414.276	495.1
414.485	534.01
414.693	501.24
414.901	550.39
415.11	542.2
415.318	521.72
415.526	534.01
415.734	652.79
415.943	585.21
416.151	611.83
416.359	755.19
416.567	691.7
416.776	726.52
416.984	691.7
417.192	765.43
417.4	767.48
417.608	785.91
417.817	828.92
418.025	853.49
418.233	853.49
418.441	978.42
418.649	927.22
418.857	1009.14
419.065	941.55
419.273	990.7
419.481	1058.29
419.689	1021.42
419.897	1066.48
420.105	1105.39
420.313	1248.75
420.521	1222.13
420.729	1211.89
420.937	1316.33
421.145	1410.54
421.353	1359.34
421.561	1426.92
421.769	1486.31
421.977	1584.62
422.185	1496.55
422.393	1680.87
422.601	1818.08
422.809	1578.47
423.017	1639.91
423.224	1951.2
423.432	1920.48
423.64	1951.2
423.848	2076.13
424.056	2084.32
424.263	2225.63
424.471	2248.16
424.679	2268.64
424.887	2256.35
425.094	2426.33
425.302	2399.71
425.51	2403.8
425.718	2455
425.925	2616.79
426.133	2610.65
426.341	2852.31
426.548	2995.67
426.756	2885.08
426.964	2971.09
427.171	3046.87
427.379	3261.9
427.586	3333.58
427.794	3503.56
428.001	3653.06
428.209	3673.54
428.417	3567.05
428.624	3818.95
428.832	3943.88
429.039	3872.2
429.247	3843.53
429.454	4277.69
429.662	4453.82
429.869	4347.33
430.076	4533.69
430.284	4298.17
430.491	4689.34
430.699	4953.52
430.906	4810.17
431.114	4920.76
431.321	5029.3
431.528	5195.18
431.736	5422.51
431.943	5756.33
432.15	5635.5
432.358	5758.38
432.565	6071.72
432.772	5893.54
432.979	6315.42
433.187	6235.55
433.394	6391.2
433.601	6749.59
433.808	6860.18
434.016	6641.05
434.223	7026.07
434.43	7536.01
434.637	7292.3
434.844	7703.95
435.052	8095.11
435.259	7880.07
435.466	8029.57
435.673	7765.39
435.88	8445.31
436.087	8697.21
436.294	8867.19
436.501	8637.82
436.708	8789.37
436.915	8973.69
437.122	9561.45
437.329	9438.58
437.537	9743.72
437.743	9948.52
437.95	9940.33
438.157	10331.49
438.364	10657.12
438.571	10673.5
438.778	10788.19
438.985	11840.84
439.192	11328.85
439.399	11597.14
439.606	11251.03
439.813	11920.71
440.02	12834.11
440.227	12449.09
440.433	12367.17
440.64	12514.63
440.847	12932.41
441.054	12883.26
441.261	13690.16
441.467	13903.15
441.674	13950.25
441.881	14222.63
442.088	14445.86
442.294	14306.6
442.501	14732.58
442.708	14935.32
442.914	15400.21
443.121	16106.76
443.328	15807.76
443.534	16819.46
443.741	16569.6
443.948	16012.56
444.154	17302.78
444.361	17171.71
444.568	17292.54
444.774	17493.24
444.981	17536.24
445.187	17990.89
445.394	18707.68
445.6	18482.41
445.807	20516.04
446.013	19340.5
446.22	19653.84
446.426	20239.56
446.633	20663.49
446.839	21578.93
447.046	20516.04
447.252	21515.45
447.459	21654.71
447.665	21458.1
447.871	22697.13
448.078	23282.84
448.284	22201.52
448.491	22922.4
448.697	23708.82
448.903	24226.96
449.11	24382.6
449.316	23798.93
449.522	24562.83
449.728	25097.35
449.935	25148.54
450.141	25240.7
450.347	25529.47
450.553	25003.14
450.76	25250.94
450.966	26365.04
451.172	25836.66
451.378	26528.88
451.584	26381.42
451.791	26803.3
451.997	26575.98
452.203	27171.94
452.409	26836.07
452.615	27212.9
452.821	26231.92
453.027	25654.39
453.233	27225.18
453.44	26070.13
453.646	26383.47
453.852	26840.17
454.058	26725.48
454.264	25887.86
454.47	27053.16
454.676	25746.55
454.882	26602.6
455.088	24530.06
455.294	25027.71
455.5	25418.88
455.705	25566.33
455.911	24818.82
456.117	24194.19
456.323	23979.15
456.529	22310.06
456.735	23620.76
456.941	23305.37
457.147	22666.41
457.352	22303.92
457.558	21966
457.764	21941.43
457.97	21456.06
458.176	20753.6
458.381	21044.41
458.587	19915.98
458.793	19881.17
458.999	19125.47
459.204	20409.54
459.41	19547.35
459.616	18601.19
459.821	18400.49
460.027	18418.92
460.233	17714.42
460.438	17310.97
460.644	17288.44
460.85	16674.05
461.055	16059.66
461.261	16450.82
461.466	15289.62
461.672	14714.14
461.878	15734.03
462.083	14773.53
462.289	14361.89
462.494	14308.65
462.7	13739.31
462.905	13583.66
463.111	13942.06
463.316	13841.71
463.522	13511.99
463.727	13172.02
463.932	13473.07
464.138	13464.88
464.343	13294.9
464.549	12963.13
464.754	13382.96
464.959	13407.54
465.165	12995.9
465.37	12494.15
465.575	12408.13
465.781	12813.63
465.986	12655.93
466.191	12258.63
466.397	12102.98
466.602	11681.1
466.807	11939.15
467.012	11785.55
467.218	12068.17
467.423	11767.12
467.628	11928.91
467.833	12184.9
468.038	11859.28
468.244	11570.51
468.449	12041.54
