Data from USB4F104151__31__14-16-32-891.txt Node

Date: Thu Mar 13 14:16:32 EDT 2025
User: louis
Spectrometer: USB4F10415
Trigger mode: 4
Integration Time (sec): 2.000000E-2
Scans to average: 1
Electric dark correction enabled: true
Nonlinearity correction enabled: false
Boxcar width: 0
XAxis mode: Wavelengths
Number of Pixels in Spectrum: 3648
>>>>>Begin Spectral Data<<<<<
178.204	-70.83
178.424	-70.83
178.644	-70.83
178.864	-160.94
179.084	-117.93
179.304	11.09
179.524	19.29
179.744	-40.11
179.964	43.86
180.184	-11.43
180.404	70.48
180.624	2.9
180.844	-7.34
181.064	-91.31
181.283	39.76
181.503	-36.01
181.723	-1.19
181.943	-44.2
182.163	105.3
182.383	-23.72
182.602	29.52
182.822	19.29
183.042	2.9
183.262	-13.48
183.482	70.48
183.701	-27.82
183.921	-5.29
184.141	-7.34
184.361	64.34
184.58	64.34
184.8	-5.29
185.02	21.33
185.239	-29.87
185.459	50
185.679	15.19
185.898	54.1
186.118	60.24
186.338	2.9
186.557	60.24
186.777	35.67
186.997	-11.43
187.216	11.09
187.436	-27.82
187.655	-66.73
187.875	74.58
188.095	-17.58
188.314	15.19
188.534	21.33
188.753	45.91
188.973	-5.29
189.192	86.87
189.412	-1.19
189.631	15.19
189.851	50
190.07	27.48
190.29	21.33
190.509	11.09
190.729	23.38
190.948	13.14
191.168	127.83
191.387	13.14
191.607	21.33
191.826	21.33
192.045	-21.67
192.265	84.82
192.484	2.9
192.704	11.09
192.923	19.29
193.142	138.07
193.362	97.11
193.581	117.59
193.8	9.05
194.02	56.15
194.239	66.39
194.458	43.86
194.678	-21.67
194.897	76.63
195.116	68.44
195.335	2.9
195.555	-1.19
195.774	7
195.993	72.53
196.212	60.24
196.432	-17.58
196.651	23.38
196.87	19.29
197.089	125.78
197.308	11.09
197.528	52.05
197.747	72.53
197.966	-36.01
198.185	54.1
198.404	-3.24
198.623	11.09
198.842	62.29
199.062	19.29
199.281	56.15
199.5	2.9
199.719	23.38
199.938	52.05
200.157	88.92
200.376	62.29
200.595	17.24
200.814	19.29
201.033	76.63
201.252	93.01
201.471	35.67
201.69	50
201.909	70.48
202.128	99.16
202.347	95.06
202.566	29.52
202.785	-25.77
203.004	82.77
203.223	166.74
203.442	58.2
203.661	27.48
203.879	56.15
204.098	-13.48
204.317	33.62
204.536	43.86
204.755	39.76
204.974	99.16
205.193	127.83
205.411	140.12
205.63	2.9
205.849	93.01
206.068	39.76
206.287	11.09
206.505	70.48
206.724	19.29
206.943	95.06
207.162	-54.44
207.381	2.9
207.599	-13.48
207.818	23.38
208.037	-5.29
208.255	-5.29
208.474	35.67
208.693	70.48
208.911	52.05
209.13	35.67
209.349	93.01
209.567	76.63
209.786	103.25
210.005	35.67
210.223	-21.67
210.442	-19.63
210.661	37.72
210.879	21.33
211.098	60.24
211.316	125.78
211.535	23.38
211.753	35.67
211.972	58.2
212.191	72.53
212.409	60.24
212.628	78.68
212.846	52.05
213.065	52.05
213.283	105.3
213.502	15.19
213.72	2.9
213.938	-56.49
214.157	-46.25
214.375	17.24
214.594	25.43
214.812	-44.2
215.031	27.48
215.249	70.48
215.467	45.91
215.686	-19.63
215.904	-3.24
216.122	-21.67
216.341	19.29
216.559	4.95
216.778	129.88
216.996	111.44
217.214	9.05
217.432	74.58
217.651	29.52
217.869	11.09
218.087	-46.25
218.306	76.63
218.524	45.91
218.742	-40.11
218.96	21.33
219.179	19.29
219.397	109.4
219.615	138.07
219.833	2.9
220.051	-17.58
220.27	84.82
220.488	35.67
220.706	76.63
220.924	29.52
221.142	41.81
221.36	115.54
221.578	101.2
221.796	74.58
222.015	101.2
222.233	54.1
222.451	27.48
222.669	2.9
222.887	54.1
223.105	103.25
223.323	-5.29
223.541	43.86
223.759	86.87
223.977	-33.96
224.195	39.76
224.413	54.1
224.631	45.91
224.849	27.48
225.067	52.05
225.285	-7.34
225.503	97.11
225.721	43.86
225.939	80.72
226.157	-21.67
226.375	66.39
226.592	15.19
226.81	-21.67
227.028	43.86
227.246	88.92
227.464	62.29
227.682	68.44
227.9	47.96
228.117	52.05
228.335	15.19
228.553	33.62
228.771	21.33
228.989	29.52
229.206	-58.54
229.424	0.85
229.642	95.06
229.86	43.86
230.077	43.86
230.295	-31.91
230.513	35.67
230.731	82.77
230.948	70.48
231.166	70.48
231.384	76.63
231.601	64.34
231.819	43.86
232.037	35.67
232.254	4.95
232.472	-33.96
232.689	19.29
232.907	-3.24
233.125	52.05
233.342	60.24
233.56	54.1
233.777	54.1
233.995	11.09
234.213	90.96
234.43	35.67
234.648	-5.29
234.865	29.52
235.083	60.24
235.3	-1.19
235.518	62.29
235.735	60.24
235.953	43.86
236.17	-5.29
236.388	-9.39
236.605	-7.34
236.822	43.86
237.04	15.19
237.257	43.86
237.475	-5.29
237.692	35.67
237.909	21.33
238.127	52.05
238.344	35.67
238.562	2.9
238.779	19.29
238.996	15.19
239.214	-21.67
239.431	-11.43
239.648	-5.29
239.865	70.48
240.083	27.48
240.3	41.81
240.517	43.86
240.735	-17.58
240.952	76.63
241.169	54.1
241.386	9.05
241.603	7
241.821	19.29
242.038	86.87
242.255	88.92
242.472	31.57
242.689	13.14
242.907	27.48
243.124	76.63
243.341	58.2
243.558	-1.19
243.775	45.91
243.992	-36.01
244.209	52.05
244.426	125.78
244.643	90.96
244.86	70.48
245.078	84.82
245.295	60.24
245.512	95.06
245.729	15.19
245.946	68.44
246.163	129.88
246.38	19.29
246.597	66.39
246.814	-19.63
247.031	76.63
247.248	52.05
247.464	23.38
247.681	15.19
247.898	4.95
248.115	35.67
248.332	43.86
248.549	43.86
248.766	13.14
248.983	33.62
249.2	27.48
249.417	78.68
249.633	23.38
249.85	54.1
250.067	2.9
250.284	-46.25
250.501	50
250.717	62.29
250.934	37.72
251.151	56.15
251.368	-3.24
251.585	31.57
251.801	72.53
252.018	45.91
252.235	37.72
252.451	-25.77
252.668	54.1
252.885	68.44
253.102	39.76
253.318	-29.87
253.535	37.72
253.752	45.91
253.968	68.44
254.185	17.24
254.401	31.57
254.618	56.15
254.835	-29.87
255.051	127.83
255.268	-13.48
255.484	17.24
255.701	-11.43
255.917	52.05
256.134	-19.63
256.351	47.96
256.567	23.38
256.784	35.67
257	-58.54
257.217	64.34
257.433	64.34
257.65	15.19
257.866	93.01
258.082	29.52
258.299	2.9
258.515	29.52
258.732	-38.06
258.948	50
259.165	64.34
259.381	62.29
259.597	29.52
259.814	72.53
260.03	21.33
260.246	-46.25
260.463	45.91
260.679	93.01
260.895	11.09
261.112	35.67
261.328	2.9
261.544	19.29
261.761	31.57
261.977	13.14
262.193	-3.24
262.409	50
262.626	39.76
262.842	80.72
263.058	54.1
263.274	62.29
263.49	4.95
263.707	52.05
263.923	37.72
264.139	7
264.355	7
264.571	39.76
264.787	54.1
265.004	86.87
265.22	-11.43
265.436	11.09
265.652	-1.19
265.868	17.24
266.084	-38.06
266.3	37.72
266.516	-11.43
266.732	-11.43
266.948	68.44
267.164	11.09
267.38	0.85
267.596	64.34
267.812	99.16
268.028	-29.87
268.244	62.29
268.46	19.29
268.676	-11.43
268.892	68.44
269.108	19.29
269.324	0.85
269.54	19.29
269.756	84.82
269.972	50
270.188	74.58
270.403	27.48
270.619	27.48
270.835	23.38
271.051	52.05
271.267	-38.06
271.483	93.01
271.698	64.34
271.914	-38.06
272.13	45.91
272.346	23.38
272.562	121.68
272.777	23.38
272.993	-9.39
273.209	121.68
273.425	45.91
273.64	117.59
273.856	66.39
274.072	43.86
274.287	52.05
274.503	7
274.719	70.48
274.934	2.9
275.15	-17.58
275.366	-21.67
275.581	-21.67
275.797	35.67
276.012	74.58
276.228	0.85
276.444	13.14
276.659	37.72
276.875	58.2
277.09	-19.63
277.306	-50.35
277.521	27.48
277.737	52.05
277.952	35.67
278.168	47.96
278.383	4.95
278.599	35.67
278.814	29.52
279.03	88.92
279.245	90.96
279.461	43.86
279.676	86.87
279.892	-13.48
280.107	21.33
280.322	0.85
280.538	86.87
280.753	41.81
280.969	21.33
281.184	29.52
281.399	52.05
281.615	62.29
281.83	45.91
282.045	60.24
282.26	-5.29
282.476	52.05
282.691	50
282.906	47.96
283.122	127.83
283.337	-21.67
283.552	76.63
283.767	-17.58
283.983	109.4
284.198	-9.39
284.413	93.01
284.628	-21.67
284.843	60.24
285.058	103.25
285.274	-5.29
285.489	54.1
285.704	62.29
285.919	27.48
286.134	35.67
286.349	41.81
286.564	47.96
286.779	35.67
286.995	35.67
287.21	23.38
287.425	56.15
287.64	47.96
287.855	52.05
288.07	-87.21
288.285	66.39
288.5	19.29
288.715	27.48
288.93	60.24
289.145	-25.77
289.36	-25.77
289.575	35.67
289.79	50
290.004	15.19
290.219	62.29
290.434	4.95
290.649	66.39
290.864	52.05
291.079	47.96
291.294	27.48
291.509	9.05
291.724	47.96
291.938	13.14
292.153	2.9
292.368	43.86
292.583	19.29
292.798	15.19
293.012	60.24
293.227	68.44
293.442	47.96
293.657	39.76
293.871	64.34
294.086	33.62
294.301	86.87
294.516	76.63
294.73	127.83
294.945	-46.25
295.16	35.67
295.374	90.96
295.589	76.63
295.804	21.33
296.018	52.05
296.233	95.06
296.447	-21.67
296.662	23.38
296.877	11.09
297.091	-19.63
297.306	74.58
297.52	9.05
297.735	31.57
297.949	43.86
298.164	41.81
298.378	11.09
298.593	37.72
298.807	29.52
299.022	39.76
299.236	54.1
299.451	27.48
299.665	-7.34
299.88	37.72
300.094	19.29
300.309	25.43
300.523	72.53
300.737	27.48
300.952	31.57
301.166	43.86
301.381	-48.3
301.595	47.96
301.809	52.05
302.024	-19.63
302.238	29.52
302.452	56.15
302.667	-27.82
302.881	84.82
303.095	37.72
303.309	37.72
303.524	84.82
303.738	23.38
303.952	88.92
304.166	90.96
304.381	13.14
304.595	58.2
304.809	54.1
305.023	7
305.237	-1.19
305.452	33.62
305.666	64.34
305.88	68.44
306.094	56.15
306.308	62.29
306.522	45.91
306.736	27.48
306.95	68.44
307.164	58.2
307.379	19.29
307.593	90.96
307.807	35.67
308.021	62.29
308.235	64.34
308.449	19.29
308.663	27.48
308.877	19.29
309.091	27.48
309.305	35.67
309.519	-11.43
309.733	43.86
309.947	41.81
310.161	27.48
310.374	68.44
310.588	62.29
310.802	39.76
311.016	39.76
311.23	-7.34
311.444	62.29
311.658	68.44
311.872	-9.39
312.085	60.24
312.299	60.24
312.513	58.2
312.727	76.63
312.941	21.33
313.154	90.96
313.368	15.19
313.582	37.72
313.796	-23.72
314.009	70.48
314.223	60.24
314.437	127.83
314.651	47.96
314.864	52.05
315.078	-58.54
315.292	4.95
315.505	64.34
315.719	29.52
315.933	25.43
316.146	82.77
316.36	29.52
316.573	117.59
316.787	-13.48
317.001	19.29
317.214	60.24
317.428	52.05
317.641	27.48
317.855	39.76
318.068	37.72
318.282	62.29
318.495	56.15
318.709	19.29
318.922	11.09
319.136	170.83
319.349	62.29
319.563	-52.39
319.776	23.38
319.99	-29.87
320.203	11.09
320.417	43.86
320.63	93.01
320.843	50
321.057	101.2
321.27	23.38
321.483	131.92
321.697	54.1
321.91	37.72
322.124	17.24
322.337	-15.53
322.55	52.05
322.763	39.76
322.977	43.86
323.19	45.91
323.403	78.68
323.617	-3.24
323.83	-13.48
324.043	-40.11
324.256	90.96
324.469	52.05
324.683	78.68
324.896	-1.19
325.109	68.44
325.322	35.67
325.535	50
325.748	103.25
325.962	11.09
326.175	7
326.388	39.76
326.601	31.57
326.814	45.91
327.027	39.76
327.24	50
327.453	-23.72
327.666	50
327.879	13.14
328.092	-7.34
328.305	54.1
328.518	54.1
328.731	93.01
328.944	72.53
329.157	70.48
329.37	-5.29
329.583	84.82
329.796	62.29
330.009	-36.01
330.222	127.83
330.435	41.81
330.648	19.29
330.861	31.57
331.073	70.48
331.286	27.48
331.499	27.48
331.712	60.24
331.925	84.82
332.138	13.14
332.35	70.48
332.563	41.81
332.776	109.4
332.989	66.39
333.202	19.29
333.414	64.34
333.627	2.9
333.84	64.34
334.053	133.97
334.265	2.9
334.478	0.85
334.691	95.06
334.903	35.67
335.116	27.48
335.329	50
335.541	64.34
335.754	76.63
335.966	21.33
336.179	-9.39
336.392	62.29
336.604	84.82
336.817	101.2
337.029	109.4
337.242	43.86
337.454	54.1
337.667	111.44
337.88	191.31
338.092	-19.63
338.305	76.63
338.517	-5.29
338.729	72.53
338.942	2.9
339.154	-3.24
339.367	2.9
339.579	113.49
339.792	29.52
340.004	43.86
340.217	45.91
340.429	90.96
340.641	154.45
340.854	39.76
341.066	80.72
341.278	43.86
341.491	64.34
341.703	23.38
341.915	-9.39
342.128	70.48
342.34	43.86
342.552	23.38
342.764	-38.06
342.977	76.63
343.189	21.33
343.401	11.09
343.613	35.67
343.826	11.09
344.038	-21.67
344.25	15.19
344.462	103.25
344.674	29.52
344.886	19.29
345.099	47.96
345.311	37.72
345.523	52.05
345.735	-1.19
345.947	76.63
346.159	54.1
346.371	-33.96
346.583	52.05
346.795	58.2
347.007	41.81
347.219	101.2
347.431	84.82
347.643	17.24
347.855	21.33
348.067	84.82
348.279	13.14
348.491	23.38
348.703	35.67
348.915	39.76
349.127	117.59
349.339	43.86
349.551	64.34
349.763	80.72
349.975	31.57
350.187	33.62
350.399	56.15
350.61	84.82
350.822	4.95
351.034	19.29
351.246	62.29
351.458	11.09
351.669	54.1
351.881	64.34
352.093	43.86
352.305	23.38
352.517	35.67
352.728	39.76
352.94	27.48
353.152	35.67
353.363	19.29
353.575	-1.19
353.787	-5.29
353.999	23.38
354.21	13.14
354.422	-3.24
354.633	7
354.845	31.57
355.057	33.62
355.268	27.48
355.48	64.34
355.692	39.76
355.903	-19.63
356.115	19.29
356.326	25.43
356.538	105.3
356.749	62.29
356.961	68.44
357.172	7
357.384	101.2
357.595	103.25
357.807	86.87
358.018	58.2
358.23	35.67
358.441	58.2
358.653	45.91
358.864	54.1
359.075	107.35
359.287	101.2
359.498	78.68
359.709	123.73
359.921	101.2
360.132	62.29
360.344	13.14
360.555	52.05
360.766	72.53
360.977	35.67
361.189	62.29
361.4	54.1
361.611	74.58
361.823	123.73
362.034	47.96
362.245	105.3
362.456	72.53
362.667	84.82
362.879	56.15
363.09	-33.96
363.301	62.29
363.512	105.3
363.723	-5.29
363.935	19.29
364.146	52.05
364.357	66.39
364.568	21.33
364.779	76.63
364.99	35.67
365.201	37.72
365.412	62.29
365.623	7
365.834	45.91
366.045	66.39
366.256	-1.19
366.467	43.86
366.678	62.29
366.889	56.15
367.1	-1.19
367.311	84.82
367.522	47.96
367.733	64.34
367.944	82.77
368.155	-21.67
368.366	72.53
368.577	111.44
368.788	60.24
368.999	60.24
369.209	-1.19
369.42	54.1
369.631	52.05
369.842	115.54
370.053	68.44
370.264	35.67
370.474	23.38
370.685	62.29
370.896	52.05
371.107	101.2
371.317	17.24
371.528	-40.11
371.739	-5.29
371.95	52.05
372.16	29.52
372.371	45.91
372.582	68.44
372.792	62.29
373.003	60.24
373.214	47.96
373.424	47.96
373.635	31.57
373.846	127.83
374.056	41.81
374.267	2.9
374.477	68.44
374.688	35.67
374.898	78.68
375.109	68.44
375.319	56.15
375.53	27.48
375.74	84.82
375.951	64.34
376.161	-1.19
376.372	123.73
376.582	2.9
376.793	54.1
377.003	66.39
377.214	-17.58
377.424	39.76
377.635	107.35
377.845	109.4
378.055	113.49
378.266	60.24
378.476	45.91
378.686	56.15
378.897	125.78
379.107	50
379.317	43.86
379.528	47.96
379.738	62.29
379.948	9.05
380.158	50
380.369	68.44
380.579	86.87
380.789	35.67
380.999	76.63
381.21	72.53
381.42	109.4
381.63	68.44
381.84	76.63
382.05	43.86
382.261	60.24
382.471	54.1
382.681	-5.29
382.891	144.21
383.101	-60.59
383.311	43.86
383.521	-15.53
383.731	52.05
383.941	78.68
384.151	25.43
384.361	56.15
384.571	95.06
384.781	109.4
384.991	97.11
385.201	136.02
385.411	103.25
385.621	88.92
385.831	60.24
386.041	52.05
386.251	54.1
386.461	88.92
386.671	90.96
386.881	23.38
387.091	64.34
387.301	154.45
387.511	133.97
387.72	54.1
387.93	23.38
388.14	27.48
388.35	43.86
388.56	142.16
388.769	39.76
388.979	43.86
389.189	37.72
389.399	78.68
389.609	15.19
389.818	109.4
390.028	93.01
390.238	78.68
390.447	19.29
390.657	125.78
390.867	31.57
391.076	23.38
391.286	95.06
391.496	133.97
391.705	76.63
391.915	56.15
392.125	93.01
392.334	80.72
392.544	179.03
392.753	19.29
392.963	39.76
393.172	119.64
393.382	2.9
393.591	115.54
393.801	37.72
394.01	101.2
394.22	37.72
394.429	109.4
394.639	97.11
394.848	80.72
395.058	154.45
395.267	58.2
395.477	56.15
395.686	113.49
395.895	103.25
396.105	199.51
396.314	117.59
396.524	68.44
396.733	105.3
396.942	152.4
397.152	113.49
397.361	84.82
397.57	117.59
397.78	54.1
397.989	117.59
398.198	109.4
398.407	101.2
398.617	125.78
398.826	52.05
399.035	84.82
399.244	125.78
399.453	70.48
399.663	93.01
399.872	144.21
400.081	115.54
400.29	142.16
400.499	52.05
400.708	142.16
400.917	86.87
401.127	179.03
401.336	105.3
401.545	226.13
401.754	125.78
401.963	105.3
402.172	99.16
402.381	76.63
402.59	185.17
402.799	99.16
403.008	119.64
403.217	133.97
403.426	156.5
403.635	127.83
403.844	150.36
404.053	160.59
404.262	138.07
404.471	228.18
404.68	217.94
404.888	170.83
405.097	191.31
405.306	176.98
405.515	93.01
405.724	185.17
405.933	185.17
406.142	215.89
406.35	164.69
406.559	193.36
406.768	226.13
406.977	230.23
407.185	138.07
407.394	209.75
407.603	117.59
407.812	207.7
408.02	387.92
408.229	228.18
408.438	224.08
408.646	297.81
408.855	289.62
409.064	242.51
409.272	242.51
409.481	318.29
409.69	351.06
409.898	258.9
410.107	303.95
410.315	306
410.524	291.66
410.733	373.58
410.941	394.06
411.15	441.17
411.358	398.16
411.567	430.93
411.775	461.65
411.984	504.65
412.192	396.11
412.401	498.51
412.609	465.74
412.818	486.22
413.026	430.93
413.234	529.23
413.443	498.51
413.651	529.23
413.86	555.85
414.068	521.04
414.276	605
414.485	572.24
414.693	719.69
414.901	799.56
415.11	725.83
415.318	715.59
415.526	668.49
415.734	662.35
415.943	760.65
416.151	824.14
416.359	873.29
416.567	861
416.776	885.58
416.984	936.78
417.192	1008.45
417.4	875.34
417.608	1004.36
417.817	1039.17
418.025	1059.65
418.233	1149.76
418.441	1248.07
418.649	1198.92
418.857	1239.87
419.065	1307.46
419.273	1286.98
419.481	1172.29
419.689	1477.44
419.897	1530.69
420.105	1508.16
420.313	1676.09
420.521	1553.21
420.729	1583.93
420.937	1692.48
421.145	1772.35
421.353	1796.92
421.561	2001.72
421.769	2040.63
421.977	2091.83
422.185	2009.91
422.393	2059.06
422.601	2267.95
422.809	2196.28
423.017	2200.37
423.224	2411.31
423.432	2347.83
423.64	2480.94
423.848	2698.03
424.056	2591.53
424.263	2865.96
424.471	2741.04
424.679	2945.83
424.887	2911.02
425.094	3109.67
425.302	3085.09
425.51	3363.62
425.718	3349.28
425.925	3394.34
426.133	3478.3
426.341	3699.48
426.548	3746.59
426.756	3791.64
426.964	3926.81
427.171	4199.19
427.379	4221.72
427.586	4283.16
427.794	4401.94
428.001	4670.22
428.209	4887.31
428.417	4676.37
428.624	5188.36
428.832	5073.67
429.039	5128.97
429.247	5057.29
429.454	5528.32
429.662	6009.59
429.869	5747.45
430.076	5974.78
430.284	5714.69
430.491	6157.05
430.699	6353.65
430.906	6329.08
431.114	6556.4
431.321	6638.32
431.528	6859.5
431.736	7150.31
431.943	7432.93
432.15	7271.14
432.358	7314.15
432.565	7899.87
432.772	7871.2
432.979	8381.14
433.187	8389.33
433.394	8475.35
433.601	9013.96
433.808	9032.4
434.016	8919.76
434.223	9145.03
434.43	9743.04
434.637	9681.6
434.844	10263.22
435.052	10300.09
435.259	10275.51
435.466	10351.29
435.673	10429.11
435.88	11082.41
436.087	11588.26
436.294	11635.36
436.501	11397.8
436.708	11567.78
436.915	11952.8
437.122	12481.17
437.329	12450.46
437.537	13093.52
437.743	13257.36
437.95	12823.19
438.157	13449.86
438.364	14205.56
438.571	14094.97
438.778	14021.25
438.985	15319.66
439.192	14840.43
439.399	15235.69
439.606	15018.61
439.813	15979.11
440.02	16929.36
440.227	16407.13
440.433	16437.85
440.64	16566.87
440.847	16816.72
441.054	17095.25
441.261	18219.58
441.467	18129.47
441.674	18623.03
441.881	19083.83
442.088	19087.92
442.294	18926.13
442.501	19446.32
442.708	19632.68
442.914	20234.78
443.121	21547.53
443.328	20449.82
443.534	22485.5
443.741	21459.47
443.948	21121.56
444.154	22841.85
444.361	22788.6
444.568	22917.62
444.774	22557.18
444.981	23126.52
445.187	23726.57
445.394	24771.04
445.6	24449.5
445.807	26853.82
446.013	25907.66
446.22	26096.07
446.426	26810.81
446.633	27374
446.839	28545.44
447.046	27169.21
447.252	28725.66
447.459	28430.76
447.665	28629.41
447.871	29569.43
448.078	30890.37
448.284	29405.59
448.491	30122.38
448.697	31797.62
448.903	31932.78
449.11	32080.24
449.316	31635.83
449.522	32301.42
449.728	32778.59
449.935	33098.08
450.141	32928.09
450.347	33995.09
450.553	33497.43
450.76	33501.53
450.966	34562.37
451.172	34007.37
451.378	34808.13
451.584	34220.36
451.791	35025.21
451.997	34939.2
452.203	35387.71
452.409	35627.32
452.615	35465.53
452.821	33911.12
453.027	33769.81
453.233	35619.13
453.44	34255.18
453.646	34345.29
453.852	34574.66
454.058	35344.7
454.264	34019.66
454.47	34574.66
454.676	33634.64
454.882	35166.52
455.088	31975.79
455.294	32760.16
455.5	33018.21
455.705	33212.76
455.911	32190.83
456.117	31404.41
456.323	30904.7
456.529	29282.71
456.735	30822.78
456.941	29979.02
457.147	29395.35
457.352	28524.96
457.558	28105.13
457.764	28156.33
457.97	27855.28
458.176	27417.01
458.381	27367.86
458.587	25666
458.793	25805.26
458.999	24543.71
459.204	26608.06
459.41	25334.23
459.616	24201.7
459.821	24039.91
460.027	23876.07
460.233	23359.98
460.438	22462.97
460.644	22733.31
460.85	21395.98
461.055	21174.8
461.261	21254.67
461.466	19450.41
461.672	18995.76
461.878	20140.58
462.083	19028.53
462.289	18901.56
462.494	18393.66
462.7	17662.54
462.905	17136.21
463.111	17873.48
463.316	17941.06
463.522	17736.26
463.727	17535.56
463.932	17629.77
464.138	17205.84
464.343	17324.62
464.549	16857.68
464.754	17523.27
464.959	17246.8
465.165	17189.46
465.37	16228.96
465.575	16304.73
465.781	16650.84
465.986	16779.86
466.191	16061.02
466.397	15782.5
466.602	15133.29
466.807	15708.77
467.012	15792.74
467.218	15471.21
467.423	15401.58
467.628	15325.8
467.833	15962.72
468.038	15149.68
468.244	14983.79
468.449	15372.91
