Data from USB4F104151__127__14-19-00-698.txt Node

Date: Thu Mar 13 14:19:00 EDT 2025
User: louis
Spectrometer: USB4F10415
Trigger mode: 4
Integration Time (sec): 2.000000E-2
Scans to average: 1
Electric dark correction enabled: true
Nonlinearity correction enabled: false
Boxcar width: 0
XAxis mode: Wavelengths
Number of Pixels in Spectrum: 3648
>>>>>Begin Spectral Data<<<<<
178.204	-105.3
178.424	-105.3
178.644	-105.3
178.864	-74.58
179.084	-50
179.304	-15.19
179.524	-54.1
179.744	-4.95
179.964	19.63
180.184	62.63
180.404	9.39
180.624	9.39
180.844	-50
181.064	7.34
181.283	23.72
181.503	-21.33
181.723	13.48
181.943	-41.81
182.163	130.22
182.383	103.59
182.602	83.11
182.822	9.39
183.042	-45.91
183.262	25.77
183.482	40.11
183.701	-17.24
183.921	25.77
184.141	-72.53
184.361	17.58
184.58	36.01
184.8	-9.05
185.02	-58.2
185.239	76.97
185.459	7.34
185.679	-0.85
185.898	-84.82
186.118	25.77
186.338	81.07
186.557	-50
186.777	-25.43
186.997	44.2
187.216	-86.87
187.436	91.31
187.655	42.15
187.875	7.34
188.095	64.68
188.314	17.58
188.534	109.74
188.753	-37.72
188.973	29.87
189.192	7.34
189.412	-11.09
189.631	-39.76
189.851	31.91
190.07	23.72
190.29	-15.19
190.509	46.25
190.729	-41.81
190.948	-4.95
191.168	74.92
191.387	105.64
191.607	13.48
191.826	40.11
192.045	9.39
192.265	52.39
192.484	52.39
192.704	-45.91
192.923	-4.95
193.142	122.02
193.362	9.39
193.581	66.73
193.8	36.01
194.02	95.4
194.239	46.25
194.458	-27.48
194.678	-0.85
194.897	15.53
195.116	-7
195.335	15.53
195.555	15.53
195.774	-23.38
195.993	-13.14
196.212	46.25
196.432	-17.24
196.651	3.24
196.87	19.63
197.089	66.73
197.308	52.39
197.528	19.63
197.747	-17.24
197.966	33.96
198.185	72.87
198.404	15.53
198.623	27.82
198.842	66.73
199.062	42.15
199.281	15.53
199.5	3.24
199.719	-23.38
199.938	7.34
200.157	76.97
200.376	15.53
200.595	130.22
200.814	27.82
201.033	40.11
201.252	44.2
201.471	54.44
201.69	29.87
201.909	-23.38
202.128	5.29
202.347	87.21
202.566	40.11
202.785	-41.81
203.004	-21.33
203.223	72.87
203.442	-29.52
203.661	-60.24
203.879	1.19
204.098	25.77
204.317	33.96
204.536	19.63
204.755	74.92
204.974	40.11
205.193	44.2
205.411	64.68
205.63	44.2
205.849	40.11
206.068	5.29
206.287	44.2
206.505	-13.14
206.724	15.53
206.943	5.29
207.162	-23.38
207.381	21.67
207.599	-39.76
207.818	58.54
208.037	23.72
208.255	5.29
208.474	36.01
208.693	99.5
208.911	15.53
209.13	134.31
209.349	-29.52
209.567	54.44
209.786	48.3
210.005	72.87
210.223	-21.33
210.442	33.96
210.661	-39.76
210.879	60.59
211.098	5.29
211.316	-0.85
211.535	89.26
211.753	44.2
211.972	23.72
212.191	19.63
212.409	48.3
212.628	23.72
212.846	-27.48
213.065	85.16
213.283	64.68
213.502	3.24
213.72	-13.14
213.938	9.39
214.157	-93.01
214.375	50.35
214.594	31.91
214.812	72.87
215.031	-25.43
215.249	19.63
215.467	76.97
215.686	68.78
215.904	103.59
216.122	31.91
216.341	-19.29
216.559	1.19
216.778	89.26
216.996	27.82
217.214	-52.05
217.432	-58.2
217.651	7.34
217.869	-9.05
218.087	-17.24
218.306	-7
218.524	93.35
218.742	-70.48
218.96	62.63
219.179	52.39
219.397	17.58
219.615	113.83
219.833	-2.9
220.051	1.19
220.27	31.91
220.488	7.34
220.706	-54.1
220.924	-15.19
221.142	-9.05
221.36	27.82
221.578	50.35
221.796	-0.85
222.015	-0.85
222.233	19.63
222.451	5.29
222.669	-54.1
222.887	40.11
223.105	56.49
223.323	-17.24
223.541	-0.85
223.759	85.16
223.977	3.24
224.195	76.97
224.413	-0.85
224.631	56.49
224.849	72.87
225.067	103.59
225.285	40.11
225.503	-23.38
225.721	-125.78
225.939	-2.9
226.157	21.67
226.375	74.92
226.592	3.24
226.81	-64.34
227.028	81.07
227.246	60.59
227.464	23.72
227.682	52.39
227.9	66.73
228.117	-23.38
228.335	-13.14
228.553	3.24
228.771	101.55
228.989	64.68
229.206	-17.24
229.424	-33.62
229.642	27.82
229.86	-9.05
230.077	27.82
230.295	38.06
230.513	21.67
230.731	1.19
230.948	50.35
231.166	7.34
231.384	19.63
231.601	-41.81
231.819	48.3
232.037	-17.24
232.254	-29.52
232.472	-7
232.689	-39.76
232.907	101.55
233.125	-50
233.342	-52.05
233.56	3.24
233.777	15.53
233.995	56.49
234.213	138.41
234.43	40.11
234.648	44.2
234.865	7.34
235.083	72.87
235.3	66.73
235.518	48.3
235.735	9.39
235.953	72.87
236.17	21.67
236.388	7.34
236.605	81.07
236.822	81.07
237.04	25.77
237.257	19.63
237.475	-17.24
237.692	40.11
237.909	-27.48
238.127	31.91
238.344	1.19
238.562	21.67
238.779	38.06
238.996	1.19
239.214	60.59
239.431	33.96
239.648	31.91
239.865	107.69
240.083	-25.43
240.3	27.82
240.517	-56.15
240.735	1.19
240.952	-0.85
241.169	60.59
241.386	62.63
241.603	31.91
241.821	17.58
242.038	79.02
242.255	99.5
242.472	7.34
242.689	72.87
242.907	66.73
243.124	11.43
243.341	-19.29
243.558	-58.2
243.775	-23.38
243.992	-31.57
244.209	15.53
244.426	58.54
244.643	31.91
244.86	7.34
245.078	46.25
245.295	64.68
245.512	97.45
245.729	64.68
245.946	-17.24
246.163	9.39
246.38	40.11
246.597	40.11
246.814	89.26
247.031	40.11
247.248	76.97
247.464	-23.38
247.681	11.43
247.898	11.43
248.115	66.73
248.332	-23.38
248.549	42.15
248.766	79.02
248.983	31.91
249.2	9.39
249.417	-9.05
249.633	64.68
249.85	68.78
250.067	50.35
250.284	-19.29
250.501	48.3
250.717	33.96
250.934	-37.72
251.151	25.77
251.368	40.11
251.585	93.35
251.801	52.39
252.018	-29.52
252.235	50.35
252.451	-29.52
252.668	72.87
252.885	31.91
253.102	9.39
253.318	-29.52
253.535	-33.62
253.752	17.58
253.968	-0.85
254.185	-2.9
254.401	-41.81
254.618	-11.09
254.835	-4.95
255.051	31.91
255.268	15.53
255.484	83.11
255.701	-4.95
255.917	3.24
256.134	25.77
256.351	40.11
256.567	-62.29
256.784	85.16
257	-17.24
257.217	48.3
257.433	42.15
257.65	44.2
257.866	-31.57
258.082	-25.43
258.299	1.19
258.515	25.77
258.732	31.91
258.948	31.91
259.165	89.26
259.381	23.72
259.597	44.2
259.814	-17.24
260.03	-35.67
260.246	48.3
260.463	17.58
260.679	23.72
260.895	9.39
261.112	-21.33
261.328	9.39
261.544	23.72
261.761	48.3
261.977	-0.85
262.193	21.67
262.409	15.53
262.626	107.69
262.842	-25.43
263.058	83.11
263.274	122.02
263.49	15.53
263.707	31.91
263.923	-33.62
264.139	9.39
264.355	25.77
264.571	44.2
264.787	58.54
265.004	60.59
265.22	60.59
265.436	-9.05
265.652	81.07
265.868	-27.48
266.084	-27.48
266.3	3.24
266.516	-17.24
266.732	52.39
266.948	48.3
267.164	29.87
267.38	70.83
267.596	5.29
267.812	60.59
268.028	23.72
268.244	-31.57
268.46	36.01
268.676	-9.05
268.892	-13.14
269.108	-54.1
269.324	-19.29
269.54	-15.19
269.756	122.02
269.972	42.15
270.188	-9.05
270.403	-9.05
270.619	-0.85
270.835	-0.85
271.051	50.35
271.267	31.91
271.483	11.43
271.698	27.82
271.914	44.2
272.13	21.67
272.346	15.53
272.562	9.39
272.777	-45.91
272.993	-56.15
273.209	15.53
273.425	23.72
273.64	48.3
273.856	-50
274.072	15.53
274.287	81.07
274.503	15.53
274.719	42.15
274.934	31.91
275.15	-41.81
275.366	-45.91
275.581	-9.05
275.797	-74.58
276.012	17.58
276.228	7.34
276.444	-35.67
276.659	-9.05
276.875	-31.57
277.09	48.3
277.306	-37.72
277.521	48.3
277.737	9.39
277.952	91.31
278.168	66.73
278.383	-25.43
278.599	-47.96
278.814	7.34
279.03	52.39
279.245	17.58
279.461	-33.62
279.676	52.39
279.892	-15.19
280.107	-19.29
280.322	-13.14
280.538	-33.62
280.753	-15.19
280.969	-9.05
281.184	33.96
281.399	3.24
281.615	21.67
281.83	-15.19
282.045	-9.05
282.26	50.35
282.476	44.2
282.691	15.53
282.906	54.44
283.122	-60.24
283.337	31.91
283.552	89.26
283.767	9.39
283.983	31.91
284.198	42.15
284.413	15.53
284.628	-41.81
284.843	-15.19
285.058	42.15
285.274	72.87
285.489	44.2
285.704	23.72
285.919	21.67
286.134	48.3
286.349	-43.86
286.564	-11.09
286.779	25.77
286.995	38.06
287.21	52.39
287.425	48.3
287.64	33.96
287.855	91.31
288.07	-7
288.285	38.06
288.5	119.98
288.715	50.35
288.93	87.21
289.145	91.31
289.36	-35.67
289.575	27.82
289.79	64.68
290.004	21.67
290.219	-2.9
290.434	-2.9
290.649	5.29
290.864	-25.43
291.079	48.3
291.294	-7
291.509	-39.76
291.724	54.44
291.938	-33.62
292.153	7.34
292.368	23.72
292.583	-21.33
292.798	122.02
293.012	15.53
293.227	15.53
293.442	1.19
293.657	29.87
293.871	66.73
294.086	95.4
294.301	58.54
294.516	58.54
294.73	42.15
294.945	68.78
295.16	27.82
295.374	99.5
295.589	97.45
295.804	29.87
296.018	64.68
296.233	-9.05
296.447	40.11
296.662	-37.72
296.877	15.53
297.091	11.43
297.306	31.91
297.52	-33.62
297.735	21.67
297.949	89.26
298.164	72.87
298.378	23.72
298.593	23.72
298.807	68.78
299.022	93.35
299.236	74.92
299.451	36.01
299.665	74.92
299.88	-23.38
300.094	48.3
300.309	56.49
300.523	50.35
300.737	19.63
300.952	83.11
301.166	58.54
301.381	-11.09
301.595	-13.14
301.809	21.67
302.024	56.49
302.238	11.43
302.452	101.55
302.667	-17.24
302.881	48.3
303.095	31.91
303.309	56.49
303.524	-4.95
303.738	-4.95
303.952	42.15
304.166	21.67
304.381	-82.77
304.595	1.19
304.809	-11.09
305.023	-11.09
305.237	50.35
305.452	7.34
305.666	66.73
305.88	31.91
306.094	9.39
306.308	58.54
306.522	9.39
306.736	99.5
306.95	79.02
307.164	50.35
307.379	23.72
307.593	15.53
307.807	36.01
308.021	79.02
308.235	-4.95
308.449	-9.05
308.663	11.43
308.877	117.93
309.091	42.15
309.305	-2.9
309.519	15.53
309.733	48.3
309.947	27.82
310.161	9.39
310.374	7.34
310.588	52.39
310.802	15.53
311.016	42.15
311.23	52.39
311.444	-39.76
311.658	40.11
311.872	40.11
312.085	31.91
312.299	85.16
312.513	-54.1
312.727	44.2
312.941	3.24
313.154	17.58
313.368	93.35
313.582	40.11
313.796	3.24
314.009	-0.85
314.223	-21.33
314.437	7.34
314.651	-0.85
314.864	48.3
315.078	17.58
315.292	-0.85
315.505	-0.85
315.719	52.39
315.933	68.78
316.146	-4.95
316.36	-0.85
316.573	72.87
316.787	-27.48
317.001	19.63
317.214	23.72
317.428	97.45
317.641	-45.91
317.855	25.77
318.068	-35.67
318.282	-25.43
318.495	74.92
318.709	72.87
318.922	62.63
319.136	115.88
319.349	56.49
319.563	11.43
319.776	62.63
319.99	-17.24
320.203	40.11
320.417	7.34
320.63	-82.77
320.843	105.64
321.057	-29.52
321.27	81.07
321.483	48.3
321.697	122.02
321.91	23.72
322.124	-13.14
322.337	109.74
322.55	-47.96
322.763	13.48
322.977	38.06
323.19	-25.43
323.403	-60.24
323.617	33.96
323.83	17.58
324.043	-0.85
324.256	15.53
324.469	31.91
324.683	25.77
324.896	109.74
325.109	-17.24
325.322	-17.24
325.535	46.25
325.748	50.35
325.962	31.91
326.175	-33.62
326.388	64.68
326.601	-13.14
326.814	23.72
327.027	38.06
327.24	122.02
327.453	-23.38
327.666	91.31
327.879	99.5
328.092	-0.85
328.305	19.63
328.518	27.82
328.731	17.58
328.944	40.11
329.157	3.24
329.37	99.5
329.583	42.15
329.796	130.22
330.009	25.77
330.222	29.87
330.435	105.64
330.648	33.96
330.861	97.45
331.073	40.11
331.286	58.54
331.499	89.26
331.712	7.34
331.925	-4.95
332.138	-13.14
332.35	27.82
332.563	40.11
332.776	66.73
332.989	9.39
333.202	-25.43
333.414	-33.62
333.627	-23.38
333.84	-56.15
334.053	74.92
334.265	-37.72
334.478	60.59
334.691	15.53
334.903	-13.14
335.116	-21.33
335.329	31.91
335.541	-0.85
335.754	23.72
335.966	-4.95
336.179	105.64
336.392	7.34
336.604	15.53
336.817	50.35
337.029	52.39
337.242	91.31
337.454	25.77
337.667	66.73
337.88	66.73
338.092	-17.24
338.305	48.3
338.517	79.02
338.729	89.26
338.942	36.01
339.154	33.96
339.367	-0.85
339.579	56.49
339.792	-45.91
340.004	-0.85
340.217	36.01
340.429	97.45
340.641	40.11
340.854	23.72
341.066	-0.85
341.278	74.92
341.491	64.68
341.703	74.92
341.915	-7
342.128	85.16
342.34	15.53
342.552	52.39
342.764	23.72
342.977	23.72
343.189	17.58
343.401	44.2
343.613	-33.62
343.826	79.02
344.038	23.72
344.25	17.58
344.462	-23.38
344.674	54.44
344.886	56.49
345.099	72.87
345.311	46.25
345.523	-0.85
345.735	19.63
345.947	60.59
346.159	50.35
346.371	128.17
346.583	44.2
346.795	99.5
347.007	33.96
347.219	5.29
347.431	-27.48
347.643	74.92
347.855	56.49
348.067	-0.85
348.279	-72.53
348.491	15.53
348.703	31.91
348.915	31.91
349.127	66.73
349.339	60.59
349.551	25.77
349.763	27.82
349.975	23.72
350.187	56.49
350.399	50.35
350.61	40.11
350.822	15.53
351.034	68.78
351.246	72.87
351.458	89.26
351.669	52.39
351.881	52.39
352.093	46.25
352.305	64.68
352.517	-9.05
352.728	-15.19
352.94	74.92
353.152	85.16
353.363	-45.91
353.575	9.39
353.787	48.3
353.999	40.11
354.21	29.87
354.422	7.34
354.633	7.34
354.845	97.45
355.057	9.39
355.268	15.53
355.48	107.69
355.692	-9.05
355.903	27.82
356.115	33.96
356.326	23.72
356.538	56.49
356.749	79.02
356.961	64.68
357.172	140.46
357.384	9.39
357.595	72.87
357.807	7.34
358.018	-11.09
358.23	60.59
358.441	-15.19
358.653	64.68
358.864	58.54
359.075	-0.85
359.287	62.63
359.498	103.59
359.709	68.78
359.921	38.06
360.132	23.72
360.344	29.87
360.555	-0.85
360.766	-4.95
360.977	-13.14
361.189	66.73
361.4	-21.33
361.611	76.97
361.823	3.24
362.034	19.63
362.245	27.82
362.456	64.68
362.667	87.21
362.879	44.2
363.09	68.78
363.301	81.07
363.512	38.06
363.723	44.2
363.935	-0.85
364.146	74.92
364.357	66.73
364.568	36.01
364.779	56.49
364.99	72.87
365.201	25.77
365.412	3.24
365.623	-25.43
365.834	81.07
366.045	54.44
366.256	11.43
366.467	44.2
366.678	17.58
366.889	48.3
367.1	101.55
367.311	11.43
367.522	7.34
367.733	7.34
367.944	17.58
368.155	-41.81
368.366	19.63
368.577	48.3
368.788	-7
368.999	91.31
369.209	44.2
369.42	132.26
369.631	154.79
369.842	68.78
370.053	42.15
370.264	33.96
370.474	-37.72
370.685	48.3
370.896	5.29
371.107	48.3
371.317	105.64
371.528	54.44
371.739	48.3
371.95	11.43
372.16	15.53
372.371	23.72
372.582	-2.9
372.792	85.16
373.003	-7
373.214	-13.14
373.424	140.46
373.635	5.29
373.846	54.44
374.056	46.25
374.267	9.39
374.477	93.35
374.688	72.87
374.898	-47.96
375.109	31.91
375.319	-29.52
375.53	83.11
375.74	105.64
375.951	31.91
376.161	111.78
376.372	105.64
376.582	17.58
376.793	64.68
377.003	9.39
377.214	-56.15
377.424	58.54
377.635	52.39
377.845	56.49
378.055	68.78
378.266	33.96
378.476	9.39
378.686	9.39
378.897	25.77
379.107	50.35
379.317	36.01
379.528	42.15
379.738	81.07
379.948	23.72
380.158	36.01
380.369	48.3
380.579	42.15
380.789	62.63
380.999	113.83
381.21	68.78
381.42	72.87
381.63	-21.33
381.84	7.34
382.05	85.16
382.261	48.3
382.471	68.78
382.681	81.07
382.891	89.26
383.101	91.31
383.311	19.63
383.521	74.92
383.731	83.11
383.941	101.55
384.151	72.87
384.361	-9.05
384.571	7.34
384.781	50.35
384.991	115.88
385.201	107.69
385.411	83.11
385.621	72.87
385.831	11.43
386.041	99.5
386.251	3.24
386.461	40.11
386.671	162.98
386.881	-0.85
387.091	76.97
387.301	46.25
387.511	31.91
387.72	64.68
387.93	3.24
388.14	23.72
388.35	27.82
388.56	70.83
388.769	97.45
388.979	89.26
389.189	-0.85
389.399	81.07
389.609	31.91
389.818	60.59
390.028	-29.52
390.238	89.26
390.447	15.53
390.657	-4.95
390.867	50.35
391.076	13.48
391.286	9.39
391.496	109.74
391.705	60.59
391.915	74.92
392.125	89.26
392.334	21.67
392.544	76.97
392.753	54.44
392.963	79.02
393.172	109.74
393.382	64.68
393.591	103.59
393.801	48.3
394.01	97.45
394.22	56.49
394.429	36.01
394.639	58.54
394.848	66.73
395.058	101.55
395.267	89.26
395.477	122.02
395.686	171.18
395.895	56.49
396.105	140.46
396.314	31.91
396.524	81.07
396.733	74.92
396.942	99.5
397.152	115.88
397.361	105.64
397.57	27.82
397.78	205.99
397.989	113.83
398.198	128.17
398.407	50.35
398.617	7.34
398.826	60.59
399.035	105.64
399.244	52.39
399.453	148.65
399.663	122.02
399.872	56.49
400.081	72.87
400.29	48.3
400.499	72.87
400.708	126.12
400.917	68.78
401.127	58.54
401.336	70.83
401.545	138.41
401.754	83.11
401.963	113.83
402.172	21.67
402.381	81.07
402.59	97.45
402.799	109.74
403.008	115.88
403.217	95.4
403.426	56.49
403.635	101.55
403.844	89.26
404.053	122.02
404.262	210.09
404.471	140.46
404.68	122.02
404.888	154.79
405.097	113.83
405.306	140.46
405.515	251.05
405.724	156.84
405.933	162.98
406.142	167.08
406.35	177.32
406.559	285.86
406.768	117.93
406.977	191.66
407.185	195.75
407.394	187.56
407.603	136.36
407.812	212.14
408.02	179.37
408.229	195.75
408.438	162.98
408.646	156.84
408.855	154.79
409.064	371.88
409.272	226.47
409.481	261.29
409.69	246.95
409.898	242.85
410.107	267.43
410.315	261.29
410.524	255.14
410.733	314.53
410.941	265.38
411.15	359.59
411.358	382.12
411.567	449.7
411.775	353.45
411.984	455.84
412.192	445.6
412.401	369.83
412.609	437.41
412.818	437.41
413.026	539.81
413.234	416.93
413.443	457.89
413.651	466.08
413.86	517.28
414.068	552.1
414.276	576.67
414.485	580.77
414.693	599.2
414.901	703.65
415.11	709.79
415.318	591.01
415.526	687.26
415.734	726.18
415.943	756.9
416.151	763.04
416.359	795.81
416.567	785.57
416.776	857.25
416.984	861.34
417.192	847.01
417.4	945.31
417.608	906.4
417.817	928.92
418.025	1068.19
418.233	1047.71
418.441	1051.8
418.649	986.27
418.857	1117.34
419.065	1260.7
419.273	1166.49
419.481	1279.13
419.689	1313.94
419.897	1420.44
420.105	1375.38
420.313	1404.05
420.521	1571.99
420.729	1436.82
420.937	1621.14
421.145	1664.15
421.353	1621.14
421.561	1813.65
421.769	1811.6
421.977	1817.74
422.185	1883.28
422.393	1932.43
422.601	2139.27
422.809	2200.71
423.017	2096.27
423.224	2116.75
423.432	2337.93
423.64	2116.75
423.848	2559.11
424.056	2477.19
424.263	2665.6
424.471	2712.71
424.679	2655.36
424.887	2915.45
425.094	2866.3
425.302	2858.11
425.51	3048.57
425.718	3155.07
425.925	3107.96
426.133	3267.7
426.341	3544.18
426.548	3603.57
426.756	3587.19
426.964	3708.02
427.171	3980.4
427.379	3957.87
427.586	4031.6
427.794	4099.18
428.001	4381.8
428.209	4533.35
428.417	4402.28
428.624	4850.78
428.832	4891.74
429.039	4705.38
429.247	4805.73
429.454	5260.38
429.662	5506.13
429.869	5174.36
430.076	5610.58
430.284	5456.98
430.491	5588.05
430.699	6003.79
430.906	5925.97
431.114	6030.41
431.321	6249.55
431.528	6345.8
431.736	6650.95
431.943	7091.26
432.15	6892.61
432.358	6872.13
432.565	7408.7
432.772	7273.53
432.979	7662.65
433.187	7765.04
433.394	7892.02
433.601	8401.96
433.808	8354.86
434.016	8062
434.223	8789.03
434.43	9176.09
434.637	8856.61
434.844	9727
435.052	9868.31
435.259	9718.81
435.466	9874.45
435.673	9868.31
435.88	10363.92
436.087	10841.09
436.294	10966.02
436.501	10693.64
436.708	11019.27
436.915	11224.06
437.122	11723.77
437.329	11658.23
437.537	11920.37
437.743	12200.94
437.95	12016.63
438.157	12970.98
438.364	13155.3
438.571	13147.11
438.778	13247.46
438.985	14607.31
439.192	14248.91
439.399	14347.22
439.606	14220.24
439.813	14853.06
440.02	15793.08
440.227	15459.26
440.433	15270.85
440.64	15823.8
440.847	15702.97
441.054	16087.99
441.261	17087.4
441.467	17007.53
441.674	17318.82
441.881	18049.94
442.088	17963.93
442.294	17767.32
442.501	18162.58
442.708	18703.25
442.914	19043.21
443.121	19927.93
443.328	19426.18
443.534	20659.06
443.741	20358
443.948	20013.95
444.154	21230.44
444.361	21336.93
444.568	21437.28
444.774	21580.64
444.981	21412.71
445.187	22268.76
445.394	23253.83
445.6	23059.27
445.807	25326.38
446.013	23804.74
446.22	24853.3
446.426	25574.18
446.633	25598.76
446.839	26430.23
447.046	25197.35
447.252	26753.81
447.459	26987.28
447.665	26733.33
447.871	27857.67
448.078	29192.94
448.284	27777.79
448.491	28392.19
448.697	29616.87
448.903	30229.21
449.11	30290.65
449.316	29747.94
449.522	30278.36
449.728	31367.88
449.935	31101.65
450.141	31425.23
450.347	31924.93
450.553	30771.93
450.76	31382.22
450.966	32643.77
451.172	31961.79
451.378	32959.16
451.584	32334.53
451.791	33024.69
451.997	33114.8
452.203	33663.66
452.409	33258.16
452.615	33340.08
452.821	32025.28
453.027	31656.65
453.233	33714.86
453.44	32008.9
453.646	32262.85
453.852	32815.8
454.058	33731.24
454.264	32223.93
454.47	32983.73
454.676	32215.74
454.882	33372.85
455.088	30673.62
455.294	31120.08
455.5	31308.49
455.705	32217.79
455.911	30687.96
456.117	30233.31
456.323	29324.01
456.529	28250.88
456.735	29151.98
456.941	28613.37
457.147	28273.4
457.352	27585.29
457.558	27151.12
457.764	26882.83
457.97	26528.53
458.176	25957.15
458.381	25910.05
458.587	24730.42
458.793	24841.01
458.999	23657.28
459.204	25064.24
459.41	24603.44
459.616	22784.85
459.821	22856.53
460.027	22817.61
460.233	22217.56
460.438	21212.01
460.644	21504.87
460.85	20478.83
461.055	20335.48
461.261	19970.94
461.466	18617.23
461.672	18074.52
461.878	19671.93
462.083	18043.8
462.289	17865.63
462.494	17519.52
462.7	16847.79
462.905	16233.39
463.111	16997.29
463.316	17179.56
463.522	16804.78
463.727	16554.93
463.932	16389.04
464.138	16452.53
464.343	16677.8
464.549	15944.63
464.754	16427.95
464.959	16491.44
465.165	16196.53
465.37	15715.26
465.575	15145.92
465.781	15799.23
465.986	15666.11
466.191	15238.08
466.397	14920.65
466.602	14253.01
466.807	14986.18
467.012	14775.24
467.218	14908.36
467.423	14533.58
467.628	14447.57
467.833	15180.74
