Data from USB4F104151__292__14-23-47-731.txt Node

Date: Thu Mar 13 14:23:47 EDT 2025
User: louis
Spectrometer: USB4F10415
Trigger mode: 4
Integration Time (sec): 2.000000E-2
Scans to average: 1
Electric dark correction enabled: true
Nonlinearity correction enabled: false
Boxcar width: 0
XAxis mode: Wavelengths
Number of Pixels in Spectrum: 3648
>>>>>Begin Spectral Data<<<<<
178.204	-86.87
178.424	-86.87
178.644	-86.87
178.864	-56.15
179.084	-90.96
179.304	-68.44
179.524	81.07
179.744	-25.43
179.964	-21.33
180.184	-17.24
180.404	-0.85
180.624	9.39
180.844	27.82
181.064	52.39
181.283	-31.57
181.503	-29.52
181.723	23.72
181.943	-25.43
182.163	27.82
182.383	33.96
182.602	31.91
182.822	44.2
183.042	103.59
183.262	7.34
183.482	36.01
183.701	19.63
183.921	-82.77
184.141	-9.05
184.361	-0.85
184.58	72.87
184.8	15.53
185.02	-13.14
185.239	-15.19
185.459	33.96
185.679	33.96
185.898	-72.53
186.118	101.55
186.338	50.35
186.557	72.87
186.777	-39.76
186.997	-7
187.216	19.63
187.436	19.63
187.655	27.82
187.875	17.58
188.095	-2.9
188.314	17.58
188.534	56.49
188.753	-7
188.973	27.82
189.192	23.72
189.412	-4.95
189.631	23.72
189.851	-0.85
190.07	-25.43
190.29	-25.43
190.509	36.01
190.729	-45.91
190.948	21.67
191.168	85.16
191.387	-0.85
191.607	-17.24
191.826	36.01
192.045	7.34
192.265	15.53
192.484	-17.24
192.704	-4.95
192.923	-50
193.142	1.19
193.362	42.15
193.581	74.92
193.8	-9.05
194.02	64.68
194.239	1.19
194.458	74.92
194.678	48.3
194.897	-11.09
195.116	23.72
195.335	-15.19
195.555	-19.29
195.774	-33.62
195.993	38.06
196.212	-35.67
196.432	72.87
196.651	-15.19
196.87	33.96
197.089	81.07
197.308	79.02
197.528	19.63
197.747	-74.58
197.966	-17.24
198.185	29.87
198.404	23.72
198.623	-4.95
198.842	68.78
199.062	89.26
199.281	-15.19
199.5	1.19
199.719	56.49
199.938	40.11
200.157	25.77
200.376	15.53
200.595	91.31
200.814	-17.24
201.033	42.15
201.252	25.77
201.471	-17.24
201.69	-45.91
201.909	-0.85
202.128	-17.24
202.347	-0.85
202.566	-58.2
202.785	-0.85
203.004	23.72
203.223	7.34
203.442	-2.9
203.661	31.91
203.879	-0.85
204.098	15.53
204.317	-0.85
204.536	60.59
204.755	-17.24
204.974	64.68
205.193	3.24
205.411	109.74
205.63	-21.33
205.849	-25.43
206.068	-66.39
206.287	44.2
206.505	44.2
206.724	-52.05
206.943	-0.85
207.162	40.11
207.381	99.5
207.599	3.24
207.818	-15.19
208.037	21.67
208.255	1.19
208.474	-7
208.693	54.44
208.911	27.82
209.13	-25.43
209.349	-4.95
209.567	15.53
209.786	74.92
210.005	52.39
210.223	54.44
210.442	15.53
210.661	25.77
210.879	5.29
211.098	-4.95
211.316	23.72
211.535	27.82
211.753	-35.67
211.972	-0.85
212.191	-0.85
212.409	31.91
212.628	15.53
212.846	23.72
213.065	74.92
213.283	87.21
213.502	56.49
213.72	23.72
213.938	-50
214.157	-23.38
214.375	-33.62
214.594	-39.76
214.812	-4.95
215.031	-58.2
215.249	29.87
215.467	-9.05
215.686	1.19
215.904	119.98
216.122	13.48
216.341	89.26
216.559	76.97
216.778	74.92
216.996	-21.33
217.214	38.06
217.432	38.06
217.651	-9.05
217.869	7.34
218.087	52.39
218.306	36.01
218.524	48.3
218.742	17.58
218.96	-9.05
219.179	40.11
219.397	-19.29
219.615	115.88
219.833	40.11
220.051	9.39
220.27	72.87
220.488	40.11
220.706	-4.95
220.924	-21.33
221.142	23.72
221.36	-23.38
221.578	74.92
221.796	44.2
222.015	27.82
222.233	-31.57
222.451	74.92
222.669	-58.2
222.887	66.73
223.105	-33.62
223.323	33.96
223.541	1.19
223.759	56.49
223.977	36.01
224.195	66.73
224.413	23.72
224.631	81.07
224.849	19.63
225.067	68.78
225.285	-9.05
225.503	15.53
225.721	-35.67
225.939	-43.86
226.157	3.24
226.375	111.78
226.592	58.54
226.81	-19.29
227.028	15.53
227.246	-9.05
227.464	-23.38
227.682	66.73
227.9	36.01
228.117	31.91
228.335	3.24
228.553	-0.85
228.771	36.01
228.989	60.59
229.206	-31.57
229.424	56.49
229.642	1.19
229.86	-33.62
230.077	9.39
230.295	66.73
230.513	19.63
230.731	15.53
230.948	97.45
231.166	54.44
231.384	-0.85
231.601	36.01
231.819	-13.14
232.037	-9.05
232.254	-41.81
232.472	-17.24
232.689	-9.05
232.907	-9.05
233.125	-21.33
233.342	31.91
233.56	3.24
233.777	79.02
233.995	64.68
234.213	31.91
234.43	91.31
234.648	15.53
234.865	23.72
235.083	-4.95
235.3	-23.38
235.518	42.15
235.735	17.58
235.953	50.35
236.17	13.48
236.388	48.3
236.605	-2.9
236.822	68.78
237.04	48.3
237.257	-33.62
237.475	-2.9
237.692	-7
237.909	-17.24
238.127	-47.96
238.344	89.26
238.562	33.96
238.779	-23.38
238.996	-9.05
239.214	29.87
239.431	64.68
239.648	23.72
239.865	-9.05
240.083	-13.14
240.3	-13.14
240.517	-33.62
240.735	9.39
240.952	113.83
241.169	1.19
241.386	-2.9
241.603	21.67
241.821	-41.81
242.038	21.67
242.255	1.19
242.472	25.77
242.689	-7
242.907	40.11
243.124	60.59
243.341	56.49
243.558	-19.29
243.775	19.63
243.992	-50
244.209	15.53
244.426	27.82
244.643	-9.05
244.86	-72.53
245.078	-17.24
245.295	-9.05
245.512	-45.91
245.729	-95.06
245.946	23.72
246.163	42.15
246.38	-33.62
246.597	31.91
246.814	15.53
247.031	3.24
247.248	13.48
247.464	36.01
247.681	-29.52
247.898	48.3
248.115	40.11
248.332	-33.62
248.549	44.2
248.766	56.49
248.983	56.49
249.2	95.4
249.417	48.3
249.633	27.82
249.85	48.3
250.067	23.72
250.284	48.3
250.501	-23.38
250.717	31.91
250.934	-62.29
251.151	48.3
251.368	-43.86
251.585	11.43
251.801	52.39
252.018	29.87
252.235	-50
252.451	23.72
252.668	-54.1
252.885	68.78
253.102	-45.91
253.318	50.35
253.535	68.78
253.752	5.29
253.968	19.63
254.185	15.53
254.401	85.16
254.618	33.96
254.835	-2.9
255.051	40.11
255.268	-4.95
255.484	1.19
255.701	3.24
255.917	66.73
256.134	23.72
256.351	17.58
256.567	-25.43
256.784	17.58
257	-7
257.217	-45.91
257.433	58.54
257.65	66.73
257.866	9.39
258.082	3.24
258.299	23.72
258.515	42.15
258.732	36.01
258.948	40.11
259.165	76.97
259.381	23.72
259.597	58.54
259.814	50.35
260.03	-0.85
260.246	56.49
260.463	105.64
260.679	11.43
260.895	31.91
261.112	-0.85
261.328	7.34
261.544	58.54
261.761	46.25
261.977	-7
262.193	33.96
262.409	3.24
262.626	60.59
262.842	81.07
263.058	36.01
263.274	29.87
263.49	-0.85
263.707	81.07
263.923	-23.38
264.139	-7
264.355	42.15
264.571	89.26
264.787	23.72
265.004	23.72
265.22	103.59
265.436	27.82
265.652	-17.24
265.868	-41.81
266.084	-0.85
266.3	1.19
266.516	44.2
266.732	-23.38
266.948	17.58
267.164	19.63
267.38	68.78
267.596	76.97
267.812	48.3
268.028	29.87
268.244	31.91
268.46	9.39
268.676	42.15
268.892	44.2
269.108	-0.85
269.324	29.87
269.54	7.34
269.756	25.77
269.972	58.54
270.188	-13.14
270.403	3.24
270.619	-0.85
270.835	-17.24
271.051	-45.91
271.267	-21.33
271.483	13.48
271.698	9.39
271.914	33.96
272.13	9.39
272.346	7.34
272.562	-11.09
272.777	40.11
272.993	25.77
273.209	52.39
273.425	-25.43
273.64	89.26
273.856	68.78
274.072	19.63
274.287	15.53
274.503	23.72
274.719	40.11
274.934	60.59
275.15	-21.33
275.366	97.45
275.581	-13.14
275.797	27.82
276.012	-25.43
276.228	40.11
276.444	113.83
276.659	58.54
276.875	-39.76
277.09	-21.33
277.306	15.53
277.521	9.39
277.737	-64.34
277.952	-19.29
278.168	31.91
278.383	-7
278.599	-33.62
278.814	42.15
279.03	7.34
279.245	72.87
279.461	64.68
279.676	83.11
279.892	-31.57
280.107	-35.67
280.322	29.87
280.538	31.91
280.753	72.87
280.969	9.39
281.184	3.24
281.399	15.53
281.615	36.01
281.83	60.59
282.045	1.19
282.26	-47.96
282.476	19.63
282.691	56.49
282.906	42.15
283.122	25.77
283.337	17.58
283.552	54.44
283.767	-9.05
283.983	79.02
284.198	-52.05
284.413	46.25
284.628	-9.05
284.843	85.16
285.058	54.44
285.274	15.53
285.489	72.87
285.704	-17.24
285.919	1.19
286.134	31.91
286.349	25.77
286.564	9.39
286.779	50.35
286.995	-11.09
287.21	5.29
287.425	105.64
287.64	60.59
287.855	-33.62
288.07	7.34
288.285	64.68
288.5	50.35
288.715	-11.09
288.93	23.72
289.145	17.58
289.36	64.68
289.575	19.63
289.79	21.67
290.004	21.67
290.219	23.72
290.434	72.87
290.649	33.96
290.864	-33.62
291.079	50.35
291.294	-4.95
291.509	50.35
291.724	19.63
291.938	62.63
292.153	105.64
292.368	-2.9
292.583	1.19
292.798	74.92
293.012	50.35
293.227	19.63
293.442	-13.14
293.657	74.92
293.871	95.4
294.086	-4.95
294.301	76.97
294.516	93.35
294.73	74.92
294.945	-2.9
295.16	-66.39
295.374	74.92
295.589	107.69
295.804	-39.76
296.018	56.49
296.233	11.43
296.447	-45.91
296.662	-23.38
296.877	48.3
297.091	-9.05
297.306	-33.62
297.52	50.35
297.735	21.67
297.949	-29.52
298.164	40.11
298.378	-7
298.593	40.11
298.807	38.06
299.022	31.91
299.236	-17.24
299.451	1.19
299.665	33.96
299.88	9.39
300.094	-25.43
300.309	9.39
300.523	27.82
300.737	25.77
300.952	-0.85
301.166	87.21
301.381	-37.72
301.595	27.82
301.809	-4.95
302.024	-23.38
302.238	-4.95
302.452	76.97
302.667	17.58
302.881	-4.95
303.095	60.59
303.309	58.54
303.524	-7
303.738	36.01
303.952	50.35
304.166	33.96
304.381	-0.85
304.595	130.22
304.809	-21.33
305.023	64.68
305.237	15.53
305.452	-62.29
305.666	85.16
305.88	25.77
306.094	-4.95
306.308	-58.2
306.522	56.49
306.736	72.87
306.95	42.15
307.164	50.35
307.379	-9.05
307.593	40.11
307.807	79.02
308.021	23.72
308.235	91.31
308.449	-52.05
308.663	-13.14
308.877	60.59
309.091	54.44
309.305	23.72
309.519	-17.24
309.733	91.31
309.947	1.19
310.161	-9.05
310.374	5.29
310.588	17.58
310.802	-52.05
311.016	66.73
311.23	-17.24
311.444	-54.1
311.658	-15.19
311.872	60.59
312.085	62.63
312.299	-15.19
312.513	-0.85
312.727	11.43
312.941	21.67
313.154	66.73
313.368	48.3
313.582	48.3
313.796	72.87
314.009	-13.14
314.223	42.15
314.437	52.39
314.651	91.31
314.864	31.91
315.078	-29.52
315.292	-0.85
315.505	83.11
315.719	58.54
315.933	38.06
316.146	68.78
316.36	-33.62
316.573	76.97
316.787	42.15
317.001	81.07
317.214	-33.62
317.428	64.68
317.641	50.35
317.855	-0.85
318.068	-4.95
318.282	15.53
318.495	56.49
318.709	-9.05
318.922	23.72
319.136	50.35
319.349	-19.29
319.563	7.34
319.776	72.87
319.99	-7
320.203	72.87
320.417	58.54
320.63	83.11
320.843	40.11
321.057	31.91
321.27	31.91
321.483	33.96
321.697	76.97
321.91	27.82
322.124	31.91
322.337	27.82
322.55	31.91
322.763	66.73
322.977	-25.43
323.19	15.53
323.403	85.16
323.617	-37.72
323.83	48.3
324.043	-9.05
324.256	42.15
324.469	29.87
324.683	9.39
324.896	15.53
325.109	31.91
325.322	27.82
325.535	74.92
325.748	23.72
325.962	58.54
326.175	33.96
326.388	42.15
326.601	-33.62
326.814	40.11
327.027	-21.33
327.24	48.3
327.453	-15.19
327.666	48.3
327.879	-23.38
328.092	40.11
328.305	93.35
328.518	33.96
328.731	48.3
328.944	11.43
329.157	-4.95
329.37	-13.14
329.583	93.35
329.796	33.96
330.009	-15.19
330.222	54.44
330.435	15.53
330.648	66.73
330.861	-29.52
331.073	11.43
331.286	40.11
331.499	56.49
331.712	23.72
331.925	42.15
332.138	-19.29
332.35	1.19
332.563	-0.85
332.776	-33.62
332.989	-9.05
333.202	27.82
333.414	-2.9
333.627	-9.05
333.84	60.59
334.053	36.01
334.265	62.63
334.478	5.29
334.691	-25.43
334.903	58.54
335.116	-17.24
335.329	58.54
335.541	72.87
335.754	70.83
335.966	-9.05
336.179	-15.19
336.392	56.49
336.604	25.77
336.817	-39.76
337.029	9.39
337.242	1.19
337.454	97.45
337.667	23.72
337.88	52.39
338.092	-45.91
338.305	29.87
338.517	23.72
338.729	44.2
338.942	-27.48
339.154	15.53
339.367	40.11
339.579	-0.85
339.792	31.91
340.004	85.16
340.217	66.73
340.429	31.91
340.641	-15.19
340.854	-21.33
341.066	-68.44
341.278	81.07
341.491	66.73
341.703	-35.67
341.915	-25.43
342.128	44.2
342.34	-2.9
342.552	40.11
342.764	52.39
342.977	-9.05
343.189	15.53
343.401	72.87
343.613	72.87
343.826	40.11
344.038	15.53
344.25	81.07
344.462	-78.68
344.674	42.15
344.886	-17.24
345.099	115.88
345.311	23.72
345.523	64.68
345.735	56.49
345.947	40.11
346.159	60.59
346.371	13.48
346.583	58.54
346.795	105.64
347.007	-15.19
347.219	9.39
347.431	105.64
347.643	40.11
347.855	-27.48
348.067	48.3
348.279	-13.14
348.491	19.63
348.703	128.17
348.915	40.11
349.127	-4.95
349.339	17.58
349.551	-11.09
349.763	-39.76
349.975	60.59
350.187	44.2
350.399	105.64
350.61	23.72
350.822	40.11
351.034	70.83
351.246	7.34
351.458	42.15
351.669	-4.95
351.881	52.39
352.093	64.68
352.305	50.35
352.517	56.49
352.728	27.82
352.94	-41.81
353.152	89.26
353.363	40.11
353.575	56.49
353.787	85.16
353.999	9.39
354.21	50.35
354.422	72.87
354.633	50.35
354.845	15.53
355.057	64.68
355.268	-4.95
355.48	52.39
355.692	48.3
355.903	-33.62
356.115	-17.24
356.326	-31.57
356.538	52.39
356.749	64.68
356.961	42.15
357.172	-7
357.384	-0.85
357.595	97.45
357.807	44.2
358.018	40.11
358.23	-31.57
358.441	38.06
358.653	48.3
358.864	25.77
359.075	40.11
359.287	105.64
359.498	23.72
359.709	56.49
359.921	79.02
360.132	-27.48
360.344	-29.52
360.555	-25.43
360.766	89.26
360.977	-15.19
361.189	107.69
361.4	3.24
361.611	17.58
361.823	122.02
362.034	64.68
362.245	-29.52
362.456	62.63
362.667	66.73
362.879	66.73
363.09	70.83
363.301	23.72
363.512	54.44
363.723	-31.57
363.935	38.06
364.146	5.29
364.357	-15.19
364.568	29.87
364.779	44.2
364.99	97.45
365.201	-27.48
365.412	101.55
365.623	62.63
365.834	101.55
366.045	11.43
366.256	56.49
366.467	17.58
366.678	31.91
366.889	5.29
367.1	31.91
367.311	50.35
367.522	52.39
367.733	40.11
367.944	60.59
368.155	-29.52
368.366	56.49
368.577	21.67
368.788	138.41
368.999	5.29
369.209	36.01
369.42	42.15
369.631	146.6
369.842	33.96
370.053	93.35
370.264	70.83
370.474	3.24
370.685	101.55
370.896	56.49
371.107	21.67
371.317	66.73
371.528	64.68
371.739	31.91
371.95	-4.95
372.16	27.82
372.371	-15.19
372.582	33.96
372.792	64.68
373.003	-0.85
373.214	56.49
373.424	83.11
373.635	56.49
373.846	72.87
374.056	7.34
374.267	42.15
374.477	23.72
374.688	72.87
374.898	-35.67
375.109	-7
375.319	89.26
375.53	91.31
375.74	23.72
375.951	72.87
376.161	81.07
376.372	66.73
376.582	36.01
376.793	48.3
377.003	58.54
377.214	25.77
377.424	52.39
377.635	56.49
377.845	33.96
378.055	17.58
378.266	-23.38
378.476	33.96
378.686	33.96
378.897	-25.43
379.107	97.45
379.317	40.11
379.528	72.87
379.738	31.91
379.948	52.39
380.158	105.64
380.369	38.06
380.579	130.22
380.789	7.34
380.999	9.39
381.21	60.59
381.42	97.45
381.63	33.96
381.84	70.83
382.05	7.34
382.261	81.07
382.471	48.3
382.681	74.92
382.891	113.83
383.101	-0.85
383.311	25.77
383.521	95.4
383.731	50.35
383.941	42.15
384.151	-9.05
384.361	36.01
384.571	-29.52
384.781	15.53
384.991	29.87
385.201	64.68
385.411	103.59
385.621	101.55
385.831	23.72
386.041	56.49
386.251	15.53
386.461	31.91
386.671	74.92
386.881	132.26
387.091	52.39
387.301	122.02
387.511	36.01
387.72	132.26
387.93	60.59
388.14	21.67
388.35	-9.05
388.56	113.83
388.769	11.43
388.979	23.72
389.189	33.96
389.399	48.3
389.609	36.01
389.818	19.63
390.028	76.97
390.238	1.19
390.447	1.19
390.657	52.39
390.867	54.44
391.076	-7
391.286	76.97
391.496	54.44
391.705	50.35
391.915	15.53
392.125	66.73
392.334	33.96
392.544	15.53
392.753	11.43
392.963	15.53
393.172	31.91
393.382	85.16
393.591	56.49
393.801	85.16
394.01	169.13
394.22	97.45
394.429	85.16
394.639	7.34
394.848	66.73
395.058	70.83
395.267	64.68
395.477	105.64
395.686	187.56
395.895	97.45
396.105	115.88
396.314	36.01
396.524	79.02
396.733	52.39
396.942	162.98
397.152	31.91
397.361	89.26
397.57	44.2
397.78	81.07
397.989	64.68
398.198	111.78
398.407	109.74
398.617	64.68
398.826	177.32
399.035	132.26
399.244	124.07
399.453	68.78
399.663	29.87
399.872	99.5
400.081	52.39
400.29	99.5
400.499	64.68
400.708	89.26
400.917	91.31
401.127	52.39
401.336	91.31
401.545	107.69
401.754	89.26
401.963	117.93
402.172	103.59
402.381	81.07
402.59	103.59
402.799	56.49
403.008	171.18
403.217	17.58
403.426	158.89
403.635	72.87
403.844	52.39
404.053	122.02
404.262	150.7
404.471	113.83
404.68	187.56
404.888	97.45
405.097	165.03
405.306	189.61
405.515	193.7
405.724	138.41
405.933	107.69
406.142	158.89
406.35	183.46
406.559	154.79
406.768	162.98
406.977	179.37
407.185	167.08
407.394	226.47
407.603	203.94
407.812	187.56
408.02	232.62
408.229	191.66
408.438	244.9
408.646	173.22
408.855	238.76
409.064	224.42
409.272	238.76
409.481	322.73
409.69	171.18
409.898	224.42
410.107	236.71
410.315	212.14
410.524	292.01
410.733	279.72
410.941	281.77
411.15	363.69
411.358	337.06
411.567	351.4
411.775	351.4
411.984	359.59
412.192	373.92
412.401	396.45
412.609	507.04
412.818	484.52
413.026	482.47
413.234	498.85
413.443	451.75
413.651	482.47
413.86	531.62
414.068	621.73
414.276	486.56
414.485	525.47
414.693	695.46
414.901	662.69
415.11	705.7
415.318	609.44
415.526	703.65
415.734	715.94
415.943	711.84
416.151	724.13
416.359	752.8
416.567	711.84
416.776	767.13
416.984	910.49
417.192	904.35
417.4	885.92
417.608	867.49
417.817	930.97
418.025	953.5
418.233	1105.05
418.441	1035.42
418.649	1033.37
418.857	1137.82
419.065	1137.82
419.273	1105.05
419.481	1189.02
419.689	1299.61
419.897	1346.71
420.105	1307.8
420.313	1369.24
420.521	1457.3
420.729	1457.3
420.937	1490.07
421.145	1571.99
421.353	1578.13
421.561	1744.02
421.769	1711.25
421.977	1860.75
422.185	1817.74
422.393	1879.18
422.601	2014.35
422.809	2038.92
423.017	2092.17
423.224	2194.57
423.432	2315.4
423.64	2251.91
423.848	2432.13
424.056	2221.19
424.263	2495.62
424.471	2483.33
424.679	2595.97
424.887	2751.62
425.094	2868.35
425.302	2735.23
425.51	2942.08
425.718	3001.47
425.925	3202.17
426.133	3105.92
426.341	3320.95
426.548	3501.17
426.756	3372.15
426.964	3638.39
427.171	3583.09
427.379	3832.94
427.586	3902.58
427.794	4023.41
428.001	4297.83
428.209	4357.22
428.417	4430.95
428.624	4547.69
428.832	4713.57
429.039	4566.12
429.247	4590.69
429.454	5082.21
429.662	5332.06
429.869	4959.33
430.076	5407.83
430.284	5112.92
430.491	5590.1
430.699	5897.3
430.906	5725.27
431.114	5774.42
431.321	6081.61
431.528	6169.68
431.736	6626.37
431.943	6843.46
432.15	6487.11
432.358	6650.95
432.565	7162.94
432.772	7011.39
432.979	7470.14
433.187	7461.94
433.394	7482.42
433.601	8010.8
433.808	8336.43
434.016	8223.79
434.223	8469.55
434.43	8903.71
434.637	8815.65
434.844	9368.6
435.052	9600.02
435.259	9346.08
435.466	9378.84
435.673	9292.83
435.88	10236.94
436.087	10707.98
436.294	10454.03
436.501	10359.82
436.708	10556.43
436.915	10992.64
437.122	11445.24
437.329	11262.97
437.537	11719.67
437.743	11701.24
437.95	11828.21
438.157	12581.87
438.364	12936.17
438.571	12727.27
438.778	12688.36
438.985	14214.1
439.192	13300.7
439.399	13808.6
439.606	13720.54
439.813	14408.65
440.02	15375.3
440.227	14859.21
440.433	14937.03
440.64	15367.1
440.847	15367.1
441.054	15621.05
441.261	16468.91
441.467	16536.49
441.674	16804.78
441.881	17531.81
442.088	17228.71
442.294	17025.96
442.501	17525.66
442.708	17980.31
442.914	18578.32
443.121	19374.98
443.328	18729.87
443.534	20050.81
443.741	19667.84
443.948	19239.81
444.154	20781.93
444.361	20872.04
444.568	20757.36
444.774	20671.34
444.981	21042.03
445.187	21773.15
445.394	22516.56
445.6	22256.47
445.807	24372.02
446.013	23225.16
446.22	23718.72
446.426	24464.18
446.633	25213.74
446.839	25848.61
447.046	24470.33
447.252	26053.41
447.459	25981.73
447.665	26012.45
447.871	26938.13
448.078	28224.25
448.284	26747.67
448.491	27548.42
448.697	28568.31
448.903	29209.32
449.11	29090.54
449.316	28695.28
449.522	29313.77
449.728	30380.76
449.935	30208.73
450.141	30155.49
450.347	30956.24
450.553	29991.65
450.76	30624.47
450.966	31300.3
451.172	31419.08
451.378	31924.93
451.584	31273.68
451.791	32197.31
451.997	32139.97
452.203	32324.29
452.409	32375.48
452.615	32406.2
452.821	31236.81
453.027	31388.36
453.233	32594.62
453.44	31365.84
453.646	31670.98
453.852	31654.6
454.058	32197.31
454.264	31333.07
454.47	32053.95
454.676	31181.52
454.882	32451.26
455.088	29483.75
455.294	30225.12
455.5	30483.16
455.705	30771.93
455.911	29635.3
456.117	29047.54
456.323	29176.56
456.529	27089.68
456.735	28545.78
456.941	27800.32
457.147	27278.09
457.352	26618.64
457.558	26409.75
457.764	26213.15
457.97	26127.13
458.176	25346.86
458.381	25361.19
458.587	24075.07
458.793	24120.12
458.999	22877.01
459.204	24638.26
459.41	23987
459.616	22297.43
459.821	22424.4
460.027	22340.44
460.233	21713.76
460.438	20831.08
460.644	21220.2
460.85	19925.88
461.055	19780.48
461.261	19610.5
461.466	18228.12
461.672	17701.79
461.878	18998.15
462.083	17699.74
462.289	17253.28
462.494	17046.44
462.7	16313.27
462.905	16075.7
463.111	16622.51
463.316	16618.41
463.522	16266.16
463.727	16202.68
463.932	16049.08
464.138	16036.79
464.343	16270.26
464.549	15662.01
464.754	16268.21
464.959	15930.3
465.165	15879.1
465.37	15082.44
465.575	14691.27
465.781	15432.64
465.986	15133.64
466.191	14681.03
466.397	14611.4
466.602	13847.51
466.807	14318.54
467.012	14511.05
467.218	14351.31
467.423	14236.63
467.628	14232.53
