Data from USB4F104151__284__14-23-32-041.txt Node

Date: Thu Mar 13 14:23:32 EDT 2025
User: louis
Spectrometer: USB4F10415
Trigger mode: 4
Integration Time (sec): 2.000000E-2
Scans to average: 1
Electric dark correction enabled: true
Nonlinearity correction enabled: false
Boxcar width: 0
XAxis mode: Wavelengths
Number of Pixels in Spectrum: 3648
>>>>>Begin Spectral Data<<<<<
178.204	-16.55
178.424	-16.55
178.644	-16.55
178.864	-98.47
179.084	-102.57
179.304	-41.13
179.524	16.21
179.744	-2.22
179.964	40.79
180.184	-0.17
180.404	3.93
180.624	8.02
180.844	28.5
181.064	-0.17
181.283	28.5
181.503	-20.65
181.723	-61.61
181.943	36.69
182.163	130.9
182.383	36.69
182.602	141.14
182.822	67.41
183.042	14.17
183.262	40.79
183.482	69.46
183.701	46.93
183.921	12.12
184.141	-51.37
184.361	73.56
184.58	-16.55
184.8	16.21
185.02	-2.22
185.239	38.74
185.459	44.88
185.679	-6.31
185.898	-12.46
186.118	-0.17
186.338	30.55
186.557	96.08
186.777	16.21
186.997	28.5
187.216	28.5
187.436	102.23
187.655	22.36
187.875	-10.41
188.095	44.88
188.314	53.08
188.534	65.36
188.753	55.12
188.973	-2.22
189.192	36.69
189.412	10.07
189.631	26.45
189.851	57.17
190.07	36.69
190.29	-39.08
190.509	51.03
190.729	34.64
190.948	44.88
191.168	120.66
191.387	69.46
191.607	30.55
191.826	122.71
192.045	14.17
192.265	-0.17
192.484	69.46
192.704	83.8
192.923	20.31
193.142	135
193.362	14.17
193.581	28.5
193.8	53.08
194.02	44.88
194.239	46.93
194.458	124.76
194.678	61.27
194.897	89.94
195.116	28.5
195.335	94.04
195.555	-28.84
195.774	-12.46
195.993	96.08
196.212	20.31
196.432	-84.14
196.651	-26.79
196.87	22.36
197.089	28.5
197.308	12.12
197.528	53.08
197.747	10.07
197.966	-12.46
198.185	34.64
198.404	26.45
198.623	55.12
198.842	-14.51
199.062	3.93
199.281	77.65
199.5	69.46
199.719	65.36
199.938	-8.36
200.157	110.42
200.376	55.12
200.595	-2.22
200.814	36.69
201.033	14.17
201.252	69.46
201.471	-10.41
201.69	61.27
201.909	20.31
202.128	71.51
202.347	108.37
202.566	20.31
202.785	-12.46
203.004	-69.8
203.223	143.19
203.442	32.6
203.661	-69.8
203.879	36.69
204.098	10.07
204.317	-0.17
204.536	-22.7
204.755	3.93
204.974	48.98
205.193	-20.65
205.411	128.85
205.63	14.17
205.849	85.84
206.068	48.98
206.287	55.12
206.505	36.69
206.724	-4.27
206.943	-18.6
207.162	-12.46
207.381	-8.36
207.599	24.4
207.818	32.6
208.037	3.93
208.255	110.42
208.474	63.32
208.693	24.4
208.911	77.65
209.13	-69.8
209.349	16.21
209.567	46.93
209.786	106.32
210.005	53.08
210.223	-18.6
210.442	36.69
210.661	24.4
210.879	55.12
211.098	28.5
211.316	44.88
211.535	38.74
211.753	65.36
211.972	28.5
212.191	-28.84
212.409	71.51
212.628	-0.17
212.846	-37.03
213.065	32.6
213.283	102.23
213.502	12.12
213.72	-18.6
213.938	3.93
214.157	122.71
214.375	87.89
214.594	-4.27
214.812	-4.27
215.031	3.93
215.249	28.5
215.467	24.4
215.686	40.79
215.904	104.28
216.122	12.12
216.341	22.36
216.559	94.04
216.778	85.84
216.996	53.08
217.214	91.99
217.432	-12.46
217.651	14.17
217.869	-0.17
218.087	-2.22
218.306	71.51
218.524	28.5
218.742	44.88
218.96	87.89
219.179	44.88
219.397	126.8
219.615	85.84
219.833	151.38
220.051	12.12
220.27	51.03
220.488	75.6
220.706	28.5
220.924	12.12
221.142	40.79
221.36	-39.08
221.578	65.36
221.796	-32.94
222.015	10.07
222.233	5.97
222.451	44.88
222.669	28.5
222.887	87.89
223.105	28.5
223.323	24.4
223.541	20.31
223.759	53.08
223.977	3.93
224.195	65.36
224.413	63.32
224.631	22.36
224.849	85.84
225.067	139.09
225.285	40.79
225.503	8.02
225.721	-59.56
225.939	-22.7
226.157	22.36
226.375	94.04
226.592	-45.23
226.81	22.36
227.028	73.56
227.246	73.56
227.464	14.17
227.682	77.65
227.9	55.12
228.117	46.93
228.335	42.84
228.553	1.88
228.771	69.46
228.989	-4.27
229.206	55.12
229.424	12.12
229.642	100.18
229.86	55.12
230.077	5.97
230.295	8.02
230.513	77.65
230.731	79.7
230.948	48.98
231.166	79.7
231.384	30.55
231.601	14.17
231.819	81.75
232.037	-26.79
232.254	51.03
232.472	89.94
232.689	30.55
232.907	55.12
233.125	20.31
233.342	-71.85
233.56	20.31
233.777	5.97
233.995	61.27
234.213	153.43
234.43	44.88
234.648	-37.03
234.865	20.31
235.083	87.89
235.3	-18.6
235.518	53.08
235.735	79.7
235.953	69.46
236.17	-41.13
236.388	104.28
236.605	24.4
236.822	108.37
237.04	38.74
237.257	34.64
237.475	53.08
237.692	8.02
237.909	42.84
238.127	69.46
238.344	30.55
238.562	30.55
238.779	-18.6
238.996	14.17
239.214	20.31
239.431	110.42
239.648	12.12
239.865	24.4
240.083	40.79
240.3	12.12
240.517	28.5
240.735	106.32
240.952	79.7
241.169	61.27
241.386	57.17
241.603	65.36
241.821	3.93
242.038	61.27
242.255	48.98
242.472	-47.27
242.689	30.55
242.907	-18.6
243.124	22.36
243.341	20.31
243.558	-26.79
243.775	-28.84
243.992	-24.75
244.209	116.56
244.426	91.99
244.643	55.12
244.86	69.46
245.078	75.6
245.295	51.03
245.512	3.93
245.729	96.08
245.946	104.28
246.163	61.27
246.38	120.66
246.597	30.55
246.814	36.69
247.031	10.07
247.248	71.51
247.464	8.02
247.681	44.88
247.898	61.27
248.115	-8.36
248.332	36.69
248.549	-4.27
248.766	106.32
248.983	77.65
249.2	79.7
249.417	59.22
249.633	-12.46
249.85	8.02
250.067	26.45
250.284	38.74
250.501	59.22
250.717	20.31
250.934	20.31
251.151	-20.65
251.368	71.51
251.585	65.36
251.801	89.94
252.018	-28.84
252.235	30.55
252.451	-20.65
252.668	53.08
252.885	69.46
253.102	94.04
253.318	69.46
253.535	38.74
253.752	102.23
253.968	28.5
254.185	69.46
254.401	87.89
254.618	3.93
254.835	1.88
255.051	100.18
255.268	28.5
255.484	-2.22
255.701	75.6
255.917	53.08
256.134	53.08
256.351	118.61
256.567	46.93
256.784	-61.61
257	-20.65
257.217	91.99
257.433	44.88
257.65	51.03
257.866	77.65
258.082	30.55
258.299	22.36
258.515	98.13
258.732	-24.75
258.948	106.32
259.165	40.79
259.381	-57.51
259.597	55.12
259.814	44.88
260.03	-18.6
260.246	3.93
260.463	104.28
260.679	94.04
260.895	57.17
261.112	61.27
261.328	48.98
261.544	20.31
261.761	110.42
261.977	32.6
262.193	28.5
262.409	-8.36
262.626	46.93
262.842	-41.13
263.058	36.69
263.274	79.7
263.49	171.86
263.707	81.75
263.923	55.12
264.139	67.41
264.355	-37.03
264.571	-4.27
264.787	-6.31
265.004	53.08
265.22	38.74
265.436	46.93
265.652	10.07
265.868	94.04
266.084	24.4
266.3	38.74
266.516	53.08
266.732	55.12
266.948	55.12
267.164	-4.27
267.38	26.45
267.596	-0.17
267.812	85.84
268.028	34.64
268.244	55.12
268.46	44.88
268.676	20.31
268.892	53.08
269.108	-12.46
269.324	83.8
269.54	22.36
269.756	51.03
269.972	42.84
270.188	-41.13
270.403	53.08
270.619	46.93
270.835	51.03
271.051	-10.41
271.267	44.88
271.483	14.17
271.698	8.02
271.914	110.42
272.13	10.07
272.346	57.17
272.562	20.31
272.777	28.5
272.993	77.65
273.209	36.69
273.425	26.45
273.64	-20.65
273.856	3.93
274.072	108.37
274.287	22.36
274.503	20.31
274.719	167.76
274.934	40.79
275.15	-12.46
275.366	55.12
275.581	61.27
275.797	184.15
276.012	61.27
276.228	40.79
276.444	48.98
276.659	89.94
276.875	44.88
277.09	81.75
277.306	36.69
277.521	79.7
277.737	28.5
277.952	53.08
278.168	44.88
278.383	61.27
278.599	73.56
278.814	16.21
279.03	55.12
279.245	65.36
279.461	32.6
279.676	132.95
279.892	26.45
280.107	55.12
280.322	5.97
280.538	55.12
280.753	32.6
280.969	89.94
281.184	61.27
281.399	77.65
281.615	-53.42
281.83	59.22
282.045	-12.46
282.26	16.21
282.476	32.6
282.691	48.98
282.906	-20.65
283.122	55.12
283.337	69.46
283.552	85.84
283.767	-12.46
283.983	110.42
284.198	51.03
284.413	20.31
284.628	38.74
284.843	16.21
285.058	53.08
285.274	-6.31
285.489	-8.36
285.704	24.4
285.919	-4.27
286.134	-18.6
286.349	100.18
286.564	20.31
286.779	79.7
286.995	20.31
287.21	67.41
287.425	63.32
287.64	28.5
287.855	59.22
288.07	48.98
288.285	28.5
288.5	-4.27
288.715	3.93
288.93	65.36
289.145	28.5
289.36	77.65
289.575	30.55
289.79	73.56
290.004	-4.27
290.219	48.98
290.434	40.79
290.649	-10.41
290.864	44.88
291.079	28.5
291.294	28.5
291.509	34.64
291.724	30.55
291.938	81.75
292.153	14.17
292.368	-10.41
292.583	40.79
292.798	57.17
293.012	85.84
293.227	-18.6
293.442	53.08
293.657	57.17
293.871	85.84
294.086	63.32
294.301	65.36
294.516	30.55
294.73	89.94
294.945	-10.41
295.16	81.75
295.374	-22.7
295.589	44.88
295.804	28.5
296.018	-49.32
296.233	106.32
296.447	-2.22
296.662	-32.94
296.877	143.19
297.091	24.4
297.306	28.5
297.52	53.08
297.735	28.5
297.949	-10.41
298.164	81.75
298.378	96.08
298.593	32.6
298.807	-2.22
299.022	44.88
299.236	94.04
299.451	34.64
299.665	12.12
299.88	57.17
300.094	36.69
300.309	-2.22
300.523	22.36
300.737	12.12
300.952	77.65
301.166	8.02
301.381	36.69
301.595	-22.7
301.809	44.88
302.024	57.17
302.238	-14.51
302.452	87.89
302.667	53.08
302.881	63.32
303.095	69.46
303.309	59.22
303.524	28.5
303.738	57.17
303.952	20.31
304.166	28.5
304.381	-139.43
304.595	83.8
304.809	38.74
305.023	40.79
305.237	36.69
305.452	61.27
305.666	57.17
305.88	102.23
306.094	53.08
306.308	53.08
306.522	46.93
306.736	69.46
306.95	57.17
307.164	5.97
307.379	57.17
307.593	118.61
307.807	89.94
308.021	77.65
308.235	73.56
308.449	44.88
308.663	126.8
308.877	94.04
309.091	67.41
309.305	46.93
309.519	24.4
309.733	81.75
309.947	12.12
310.161	126.8
310.374	38.74
310.588	77.65
310.802	36.69
311.016	110.42
311.23	71.51
311.444	38.74
311.658	118.61
311.872	124.76
312.085	53.08
312.299	55.12
312.513	147.28
312.727	85.84
312.941	69.46
313.154	44.88
313.368	3.93
313.582	36.69
313.796	75.6
314.009	46.93
314.223	32.6
314.437	36.69
314.651	34.64
314.864	-12.46
315.078	83.8
315.292	32.6
315.505	69.46
315.719	38.74
315.933	8.02
316.146	28.5
316.36	10.07
316.573	81.75
316.787	57.17
317.001	48.98
317.214	-18.6
317.428	63.32
317.641	14.17
317.855	55.12
318.068	61.27
318.282	55.12
318.495	89.94
318.709	85.84
318.922	40.79
319.136	81.75
319.349	69.46
319.563	63.32
319.776	28.5
319.99	-8.36
320.203	77.65
320.417	87.89
320.63	42.84
320.843	69.46
321.057	48.98
321.27	44.88
321.483	77.65
321.697	20.31
321.91	1.88
322.124	89.94
322.337	73.56
322.55	18.26
322.763	51.03
322.977	106.32
323.19	-28.84
323.403	69.46
323.617	5.97
323.83	153.43
324.043	69.46
324.256	108.37
324.469	-2.22
324.683	135
324.896	73.56
325.109	94.04
325.322	-41.13
325.535	48.98
325.748	61.27
325.962	22.36
326.175	114.52
326.388	112.47
326.601	22.36
326.814	40.79
327.027	-18.6
327.24	40.79
327.453	40.79
327.666	159.57
327.879	108.37
328.092	75.6
328.305	-2.22
328.518	46.93
328.731	16.21
328.944	135
329.157	102.23
329.37	85.84
329.583	44.88
329.796	20.31
330.009	-8.36
330.222	28.5
330.435	14.17
330.648	36.69
330.861	22.36
331.073	20.31
331.286	85.84
331.499	30.55
331.712	-49.32
331.925	-32.94
332.138	26.45
332.35	30.55
332.563	57.17
332.776	61.27
332.989	-39.08
333.202	63.32
333.414	24.4
333.627	118.61
333.84	12.12
334.053	36.69
334.265	71.51
334.478	36.69
334.691	24.4
334.903	110.42
335.116	-2.22
335.329	46.93
335.541	73.56
335.754	32.6
335.966	20.31
336.179	-12.46
336.392	24.4
336.604	96.08
336.817	89.94
337.029	55.12
337.242	55.12
337.454	36.69
337.667	61.27
337.88	153.43
338.092	63.32
338.305	30.55
338.517	28.5
338.729	57.17
338.942	77.65
339.154	32.6
339.367	44.88
339.579	81.75
339.792	-49.32
340.004	126.8
340.217	65.36
340.429	36.69
340.641	-8.36
340.854	12.12
341.066	8.02
341.278	118.61
341.491	65.36
341.703	73.56
341.915	69.46
342.128	98.13
342.34	77.65
342.552	28.5
342.764	36.69
342.977	16.21
343.189	48.98
343.401	48.98
343.613	28.5
343.826	69.46
344.038	-18.6
344.25	67.41
344.462	-22.7
344.674	3.93
344.886	26.45
345.099	75.6
345.311	48.98
345.523	22.36
345.735	40.79
345.947	38.74
346.159	73.56
346.371	26.45
346.583	38.74
346.795	67.41
347.007	63.32
347.219	40.79
347.431	22.36
347.643	69.46
347.855	-2.22
348.067	114.52
348.279	20.31
348.491	57.17
348.703	16.21
348.915	67.41
349.127	36.69
349.339	-8.36
349.551	28.5
349.763	63.32
349.975	48.98
350.187	96.08
350.399	110.42
350.61	42.84
350.822	114.52
351.034	65.36
351.246	44.88
351.458	63.32
351.669	79.7
351.881	104.28
352.093	38.74
352.305	73.56
352.517	69.46
352.728	96.08
352.94	118.61
353.152	24.4
353.363	46.93
353.575	71.51
353.787	71.51
353.999	20.31
354.21	96.08
354.422	69.46
354.633	28.5
354.845	44.88
355.057	53.08
355.268	118.61
355.48	-2.22
355.692	22.36
355.903	65.36
356.115	79.7
356.326	-16.55
356.538	110.42
356.749	30.55
356.961	151.38
357.172	71.51
357.384	55.12
357.595	57.17
357.807	16.21
358.018	53.08
358.23	24.4
358.441	130.9
358.653	130.9
358.864	36.69
359.075	81.75
359.287	57.17
359.498	77.65
359.709	46.93
359.921	135
360.132	73.56
360.344	-14.51
360.555	5.97
360.766	71.51
360.977	61.27
361.189	61.27
361.4	28.5
361.611	112.47
361.823	63.32
362.034	59.22
362.245	-14.51
362.456	87.89
362.667	-24.75
362.879	22.36
363.09	-20.65
363.301	22.36
363.512	83.8
363.723	22.36
363.935	34.64
364.146	116.56
364.357	91.99
364.568	106.32
364.779	53.08
364.99	102.23
365.201	3.93
365.412	69.46
365.623	81.75
365.834	53.08
366.045	61.27
366.256	63.32
366.467	65.36
366.678	48.98
366.889	57.17
367.1	8.02
367.311	3.93
367.522	53.08
367.733	57.17
367.944	69.46
368.155	-14.51
368.366	18.26
368.577	94.04
368.788	44.88
368.999	14.17
369.209	118.61
369.42	102.23
369.631	135
369.842	-10.41
370.053	61.27
370.264	112.47
370.474	20.31
370.685	40.79
370.896	73.56
371.107	44.88
371.317	61.27
371.528	-4.27
371.739	42.84
371.95	81.75
372.16	57.17
372.371	20.31
372.582	-22.7
372.792	34.64
373.003	96.08
373.214	143.19
373.424	63.32
373.635	5.97
373.846	96.08
374.056	61.27
374.267	36.69
374.477	55.12
374.688	20.31
374.898	81.75
375.109	40.79
375.319	-16.55
375.53	79.7
375.74	89.94
375.951	137.04
376.161	67.41
376.372	73.56
376.582	73.56
376.793	100.18
377.003	79.7
377.214	94.04
377.424	-53.42
377.635	89.94
377.845	-8.36
378.055	126.8
378.266	83.8
378.476	89.94
378.686	20.31
378.897	118.61
379.107	126.8
379.317	145.24
379.528	108.37
379.738	102.23
379.948	-12.46
380.158	182.1
380.369	-12.46
380.579	73.56
380.789	10.07
380.999	55.12
381.21	-45.23
381.42	147.28
381.63	77.65
381.84	67.41
382.05	128.85
382.261	36.69
382.471	114.52
382.681	108.37
382.891	192.34
383.101	59.22
383.311	38.74
383.521	53.08
383.731	116.56
383.941	44.88
384.151	14.17
384.361	110.42
384.571	12.12
384.781	167.76
384.991	106.32
385.201	79.7
385.411	75.6
385.621	141.14
385.831	65.36
386.041	53.08
386.251	38.74
386.461	104.28
386.671	167.76
386.881	91.99
387.091	14.17
387.301	30.55
387.511	116.56
387.72	44.88
387.93	94.04
388.14	143.19
388.35	24.4
388.56	79.7
388.769	81.75
388.979	104.28
389.189	34.64
389.399	26.45
389.609	-18.6
389.818	83.8
390.028	44.88
390.238	77.65
390.447	77.65
390.657	118.61
390.867	14.17
391.076	77.65
391.286	130.9
391.496	96.08
391.705	28.5
391.915	77.65
392.125	48.98
392.334	87.89
392.544	10.07
392.753	63.32
392.963	46.93
393.172	120.66
393.382	69.46
393.591	85.84
393.801	57.17
394.01	139.09
394.22	100.18
394.429	77.65
394.639	122.71
394.848	57.17
395.058	51.03
395.267	69.46
395.477	122.71
395.686	130.9
395.895	126.8
396.105	143.19
396.314	180.05
396.524	85.84
396.733	114.52
396.942	122.71
397.152	114.52
397.361	128.85
397.57	98.13
397.78	59.22
397.989	114.52
398.198	167.76
398.407	147.28
398.617	135
398.826	87.89
399.035	87.89
399.244	40.79
399.453	132.95
399.663	157.52
399.872	96.08
400.081	110.42
400.29	128.85
400.499	55.12
400.708	106.32
400.917	112.47
401.127	233.3
401.336	122.71
401.545	120.66
401.754	175.95
401.963	143.19
402.172	1.88
402.381	87.89
402.59	141.14
402.799	118.61
403.008	137.04
403.217	102.23
403.426	122.71
403.635	94.04
403.844	184.15
404.053	182.1
404.262	112.47
404.471	251.73
404.68	163.67
404.888	151.38
405.097	120.66
405.306	200.53
405.515	151.38
405.724	208.72
405.933	184.15
406.142	171.86
406.35	175.95
406.559	249.68
406.768	153.43
406.977	241.49
407.185	208.72
407.394	257.87
407.603	112.47
407.812	192.34
408.02	235.35
408.229	249.68
408.438	317.26
408.646	239.44
408.855	229.2
409.064	249.68
409.272	286.54
409.481	241.49
409.69	347.98
409.898	266.07
410.107	290.64
410.315	323.41
410.524	302.93
410.733	354.13
410.941	337.74
411.15	444.24
411.358	380.75
411.567	393.04
411.775	356.18
411.984	464.72
412.192	360.27
412.401	458.57
412.609	507.73
412.818	513.87
413.026	597.84
413.234	544.59
413.443	603.98
413.651	528.21
413.86	487.25
414.068	626.51
414.276	722.76
414.485	651.08
414.693	663.37
414.901	737.1
415.11	790.35
415.318	765.77
415.526	761.67
415.734	806.73
415.943	839.5
416.151	808.78
416.359	857.93
416.567	929.61
416.776	989
416.984	986.95
417.192	1044.29
417.4	1019.72
417.608	1027.91
417.817	1060.68
418.025	1161.03
418.233	1244.99
418.441	1167.17
418.649	1275.71
418.857	1298.24
419.065	1349.44
419.273	1298.24
419.481	1388.35
419.689	1507.13
419.897	1525.57
420.105	1584.96
420.313	1623.87
420.521	1730.36
420.729	1763.13
420.937	1781.56
421.145	1840.95
421.353	1935.16
421.561	2031.41
421.769	2015.03
421.977	2133.81
422.185	2086.71
422.393	2264.88
422.601	2330.42
422.809	2371.38
423.017	2354.99
423.224	2502.45
423.432	2686.76
423.64	2510.64
423.848	2836.27
424.056	2811.69
424.263	2905.9
424.471	2987.82
424.679	3012.39
424.887	3096.36
425.094	3137.32
425.302	3317.54
425.51	3194.66
425.718	3442.46
425.925	3583.77
426.133	3641.12
426.341	3927.83
426.548	4009.75
426.756	3940.12
426.964	4153.11
427.171	4275.99
427.379	4462.35
427.586	4388.63
427.794	4661.01
428.001	4820.75
428.209	4921.1
428.417	5050.12
428.624	5406.47
428.832	5263.11
429.039	5254.92
429.247	5199.62
429.454	5771.01
429.662	5910.27
429.869	5701.37
430.076	5969.66
430.284	5871.36
430.491	6301.43
430.699	6586.1
430.906	6696.69
431.114	6549.23
431.321	7012.07
431.528	7112.42
431.736	7311.08
431.943	7685.86
432.15	7732.96
432.358	7778.01
432.565	8091.35
432.772	8062.68
432.979	8629.97
433.187	8568.53
433.394	8685.26
433.601	9307.85
433.808	9254.6
434.016	9117.39
434.223	9742.02
434.43	10219.19
434.637	9901.76
434.844	10677.94
435.052	10796.72
435.259	10671.79
435.466	11009.71
435.673	10905.26
435.88	11468.45
436.087	12011.17
436.294	11898.53
436.501	11703.97
436.708	12021.41
436.915	12347.03
437.122	12830.35
437.329	12889.74
437.537	13299.34
437.743	13749.89
437.95	13569.67
438.157	14159.49
438.364	14790.26
438.571	14497.4
438.778	14751.35
438.985	15986.27
439.192	15472.23
439.399	15959.65
439.606	15490.66
439.813	16604.76
440.02	17397.32
440.227	16948.82
440.433	16856.66
440.64	17667.66
440.847	17403.47
441.054	17905.22
441.261	18830.9
441.467	18759.22
441.674	19242.54
441.881	19871.27
442.088	19858.98
442.294	19213.87
442.501	20106.79
442.708	20430.37
442.914	21202.45
443.121	21984.77
443.328	21433.87
443.534	23154.16
443.741	22500.86
443.948	21982.73
444.154	23545.33
444.361	23756.27
444.568	23930.34
444.774	23692.78
444.981	23743.98
445.187	24661.47
445.394	25634.25
445.6	25593.29
445.807	27805.1
446.013	26848.7
446.22	27035.06
446.426	28226.98
446.633	28501.41
446.839	29152.66
447.046	27798.96
447.252	29511.06
447.459	29547.92
447.665	29480.34
447.871	30866.81
448.078	32224.62
448.284	30766.46
448.491	31620.47
448.697	32931.17
448.903	33369.43
449.11	33588.56
449.316	32939.36
449.522	33377.62
449.728	34409.8
449.935	34641.22
450.141	34856.26
450.347	35368.25
450.553	34118.99
450.76	34827.59
450.966	35826.99
451.172	35413.3
451.378	36310.32
451.584	35595.57
451.791	36455.72
451.997	36805.92
452.203	37145.89
452.409	36812.07
452.615	37074.21
452.821	35640.63
453.027	35153.21
453.233	37205.28
453.44	35581.24
453.646	36480.3
453.852	36672.81
454.058	36568.36
454.264	35837.23
454.47	36508.97
454.676	35515.7
454.882	36869.41
455.088	33805.65
455.294	34506.05
455.5	34950.46
455.705	35188.03
455.911	33795.41
456.117	33484.12
456.323	32669.03
456.529	30993.79
456.735	32347.5
456.941	31649.14
457.147	31686
457.352	30350.73
457.558	30270.86
457.764	30205.32
457.97	29457.81
458.176	28755.36
458.381	28966.3
458.587	27436.47
458.793	27491.76
458.999	26353.09
459.204	28210.6
459.41	27139.51
459.616	25449.94
459.821	25462.22
460.027	25468.37
460.233	24845.79
460.438	23766.51
460.644	23993.83
460.85	22873.59
461.055	22357.5
461.261	22418.94
461.466	20571.68
461.672	20094.5
461.878	21485.07
462.083	20360.73
462.289	19713.58
462.494	19633.71
462.7	18433.6
462.905	18449.98
463.111	19138.1
463.316	18730.55
463.522	18447.93
463.727	18390.59
463.932	18429.5
464.138	18177.6
464.343	18216.51
464.549	17737.29
464.754	18388.54
464.959	18304.57
465.165	18105.92
465.37	17471.05
465.575	17063.5
465.781	17462.86
465.986	17522.25
466.191	16997.97
466.397	16651.86
466.602	15781.48
466.807	16377.44
467.012	16453.21
467.218	16305.76
467.423	15978.08
