Data from USB4F104151__159__14-19-36-145.txt Node

Date: Thu Mar 13 14:19:36 EDT 2025
User: louis
Spectrometer: USB4F10415
Trigger mode: 4
Integration Time (sec): 2.000000E-2
Scans to average: 1
Electric dark correction enabled: true
Nonlinearity correction enabled: false
Boxcar width: 0
XAxis mode: Wavelengths
Number of Pixels in Spectrum: 3648
>>>>>Begin Spectral Data<<<<<
178.204	-59.39
178.424	-59.39
178.644	-59.39
178.864	-180.22
179.084	-32.77
179.304	40.96
179.524	-75.77
179.744	36.86
179.964	40.96
180.184	-24.58
180.404	-8.19
180.624	-10.24
180.844	22.53
181.064	-59.39
181.283	-26.62
181.503	47.1
181.723	16.38
181.943	-104.45
182.163	94.21
182.383	28.67
182.602	-8.19
182.822	77.82
183.042	55.3
183.262	2.05
183.482	-22.53
183.701	22.53
183.921	4.1
184.141	-92.16
184.361	129.02
184.58	22.53
184.8	24.58
185.02	-45.06
185.239	-34.82
185.459	57.34
185.679	83.97
185.898	-67.58
186.118	43.01
186.338	24.58
186.557	73.73
186.777	6.14
186.997	-34.82
187.216	-16.38
187.436	47.1
187.655	-14.34
187.875	65.53
188.095	-2.05
188.314	40.96
188.534	38.91
188.753	-12.29
188.973	36.86
189.192	43.01
189.412	51.2
189.631	-26.62
189.851	36.86
190.07	24.58
190.29	-12.29
190.509	2.05
190.729	6.14
190.948	77.82
191.168	122.88
191.387	71.68
191.607	16.38
191.826	-18.43
192.045	6.14
192.265	-32.77
192.484	2.05
192.704	-4.1
192.923	-10.24
193.142	51.2
193.362	-6.14
193.581	4.1
193.8	-2.05
194.02	-40.96
194.239	36.86
194.458	14.34
194.678	51.2
194.897	49.15
195.116	47.1
195.335	47.1
195.555	65.53
195.774	22.53
195.993	-20.48
196.212	-10.24
196.432	-16.38
196.651	-81.92
196.87	-2.05
197.089	137.21
197.308	-4.1
197.528	16.38
197.747	34.82
197.966	65.53
198.185	47.1
198.404	-14.34
198.623	51.2
198.842	30.72
199.062	24.58
199.281	116.73
199.5	-18.43
199.719	-34.82
199.938	30.72
200.157	-49.15
200.376	4.1
200.595	34.82
200.814	22.53
201.033	-8.19
201.252	36.86
201.471	6.14
201.69	59.39
201.909	49.15
202.128	90.11
202.347	71.68
202.566	-14.34
202.785	10.24
203.004	-18.43
203.223	131.07
203.442	24.58
203.661	16.38
203.879	-43.01
204.098	88.06
204.317	-26.62
204.536	47.1
204.755	38.91
204.974	6.14
205.193	71.68
205.411	79.87
205.63	-2.05
205.849	55.3
206.068	22.53
206.287	-22.53
206.505	120.83
206.724	43.01
206.943	98.3
207.162	-43.01
207.381	43.01
207.599	-8.19
207.818	-2.05
208.037	55.3
208.255	-30.72
208.474	96.25
208.693	-0
208.911	126.97
209.13	47.1
209.349	-2.05
209.567	8.19
209.786	69.63
210.005	104.45
210.223	90.11
210.442	-43.01
210.661	22.53
210.879	-22.53
211.098	-30.72
211.316	32.77
211.535	55.3
211.753	75.77
211.972	38.91
212.191	-0
212.409	30.72
212.628	55.3
212.846	10.24
213.065	-2.05
213.283	67.58
213.502	14.34
213.72	63.49
213.938	26.62
214.157	38.91
214.375	55.3
214.594	22.53
214.812	114.69
215.031	-51.2
215.249	71.68
215.467	30.72
215.686	32.77
215.904	63.49
216.122	-0
216.341	-26.62
216.559	-10.24
216.778	57.34
216.996	96.25
217.214	34.82
217.432	-104.45
217.651	16.38
217.869	51.2
218.087	-24.58
218.306	-47.1
218.524	2.05
218.742	55.3
218.96	8.19
219.179	-0
219.397	-10.24
219.615	88.06
219.833	20.48
220.051	-14.34
220.27	67.58
220.488	2.05
220.706	30.72
220.924	22.53
221.142	26.62
221.36	65.53
221.578	6.14
221.796	6.14
222.015	63.49
222.233	55.3
222.451	71.68
222.669	2.05
222.887	112.64
223.105	-36.86
223.323	30.72
223.541	8.19
223.759	106.49
223.977	-26.62
224.195	49.15
224.413	104.45
224.631	131.07
224.849	47.1
225.067	104.45
225.285	-0
225.503	47.1
225.721	6.14
225.939	8.19
226.157	45.06
226.375	88.06
226.592	34.82
226.81	55.3
227.028	38.91
227.246	55.3
227.464	-26.62
227.682	-38.91
227.9	73.73
228.117	16.38
228.335	30.72
228.553	30.72
228.771	57.34
228.989	-0
229.206	71.68
229.424	71.68
229.642	55.3
229.86	59.39
230.077	-6.14
230.295	49.15
230.513	59.39
230.731	12.29
230.948	-8.19
231.166	96.25
231.384	-18.43
231.601	-26.62
231.819	67.58
232.037	10.24
232.254	20.48
232.472	49.15
232.689	38.91
232.907	-2.05
233.125	-24.58
233.342	63.49
233.56	16.38
233.777	47.1
233.995	71.68
234.213	120.83
234.43	26.62
234.648	32.77
234.865	57.34
235.083	40.96
235.3	75.77
235.518	-2.05
235.735	100.35
235.953	157.69
236.17	-18.43
236.388	34.82
236.605	104.45
236.822	40.96
237.04	67.58
237.257	10.24
237.475	63.49
237.692	43.01
237.909	-0
238.127	34.82
238.344	-2.05
238.562	67.58
238.779	-18.43
238.996	-18.43
239.214	30.72
239.431	36.86
239.648	22.53
239.865	-20.48
240.083	30.72
240.3	40.96
240.517	-0
240.735	18.43
240.952	100.35
241.169	96.25
241.386	34.82
241.603	-47.1
241.821	69.63
242.038	65.53
242.255	-18.43
242.472	106.49
242.689	51.2
242.907	40.96
243.124	79.87
243.341	45.06
243.558	-2.05
243.775	100.35
243.992	-40.96
244.209	30.72
244.426	81.92
244.643	49.15
244.86	14.34
245.078	-2.05
245.295	-12.29
245.512	22.53
245.729	-16.38
245.946	34.82
246.163	83.97
246.38	49.15
246.597	18.43
246.814	-12.29
247.031	53.25
247.248	-12.29
247.464	-16.38
247.681	16.38
247.898	32.77
248.115	75.77
248.332	38.91
248.549	98.3
248.766	38.91
248.983	38.91
249.2	-18.43
249.417	81.92
249.633	67.58
249.85	139.26
250.067	10.24
250.284	26.62
250.501	-10.24
250.717	47.1
250.934	2.05
251.151	36.86
251.368	24.58
251.585	22.53
251.801	61.44
252.018	59.39
252.235	36.86
252.451	8.19
252.668	49.15
252.885	-12.29
253.102	45.06
253.318	-2.05
253.535	-6.14
253.752	-26.62
253.968	-0
254.185	-10.24
254.401	-14.34
254.618	51.2
254.835	73.73
255.051	40.96
255.268	49.15
255.484	-14.34
255.701	98.3
255.917	79.87
256.134	43.01
256.351	-2.05
256.567	100.35
256.784	38.91
257	30.72
257.217	8.19
257.433	112.64
257.65	-16.38
257.866	32.77
258.082	-0
258.299	98.3
258.515	75.77
258.732	-34.82
258.948	-16.38
259.165	22.53
259.381	-10.24
259.597	57.34
259.814	-26.62
260.03	88.06
260.246	14.34
260.463	32.77
260.679	30.72
260.895	53.25
261.112	63.49
261.328	20.48
261.544	26.62
261.761	79.87
261.977	-28.67
262.193	-26.62
262.409	-34.82
262.626	6.14
262.842	79.87
263.058	-6.14
263.274	40.96
263.49	73.73
263.707	63.49
263.923	-26.62
264.139	-30.72
264.355	22.53
264.571	32.77
264.787	26.62
265.004	-0
265.22	32.77
265.436	34.82
265.652	24.58
265.868	40.96
266.084	73.73
266.3	55.3
266.516	-63.49
266.732	20.48
266.948	20.48
267.164	-26.62
267.38	-14.34
267.596	-0
267.812	106.49
268.028	55.3
268.244	-14.34
268.46	-26.62
268.676	73.73
268.892	8.19
269.108	90.11
269.324	65.53
269.54	22.53
269.756	24.58
269.972	75.77
270.188	14.34
270.403	-12.29
270.619	104.45
270.835	-18.43
271.051	20.48
271.267	10.24
271.483	65.53
271.698	-8.19
271.914	-18.43
272.13	49.15
272.346	8.19
272.562	32.77
272.777	53.25
272.993	32.77
273.209	14.34
273.425	34.82
273.64	-14.34
273.856	14.34
274.072	59.39
274.287	-0
274.503	90.11
274.719	18.43
274.934	71.68
275.15	6.14
275.366	55.3
275.581	43.01
275.797	2.05
276.012	75.77
276.228	-10.24
276.444	63.49
276.659	24.58
276.875	-45.06
277.09	30.72
277.306	57.34
277.521	71.68
277.737	12.29
277.952	88.06
278.168	-32.77
278.383	32.77
278.599	55.3
278.814	32.77
279.03	59.39
279.245	92.16
279.461	51.2
279.676	28.67
279.892	14.34
280.107	-34.82
280.322	-6.14
280.538	26.62
280.753	98.3
280.969	-0
281.184	65.53
281.399	79.87
281.615	45.06
281.83	114.69
282.045	59.39
282.26	67.58
282.476	38.91
282.691	69.63
282.906	59.39
283.122	6.14
283.337	-47.1
283.552	71.68
283.767	4.1
283.983	65.53
284.198	18.43
284.413	26.62
284.628	-2.05
284.843	38.91
285.058	57.34
285.274	-20.48
285.489	-24.58
285.704	40.96
285.919	81.92
286.134	2.05
286.349	-0
286.564	-6.14
286.779	71.68
286.995	38.91
287.21	-53.25
287.425	2.05
287.64	10.24
287.855	14.34
288.07	49.15
288.285	92.16
288.5	-24.58
288.715	55.3
288.93	14.34
289.145	-32.77
289.36	63.49
289.575	-18.43
289.79	63.49
290.004	14.34
290.219	-6.14
290.434	34.82
290.649	22.53
290.864	-6.14
291.079	-32.77
291.294	86.01
291.509	-8.19
291.724	26.62
291.938	14.34
292.153	65.53
292.368	-30.72
292.583	122.88
292.798	14.34
293.012	24.58
293.227	-10.24
293.442	63.49
293.657	116.73
293.871	102.4
294.086	8.19
294.301	49.15
294.516	47.1
294.73	38.91
294.945	65.53
295.16	47.1
295.374	55.3
295.589	-73.73
295.804	8.19
296.018	47.1
296.233	26.62
296.447	43.01
296.662	38.91
296.877	63.49
297.091	100.35
297.306	14.34
297.52	32.77
297.735	40.96
297.949	14.34
298.164	30.72
298.378	18.43
298.593	-2.05
298.807	24.58
299.022	92.16
299.236	10.24
299.451	40.96
299.665	-40.96
299.88	26.62
300.094	34.82
300.309	24.58
300.523	61.44
300.737	34.82
300.952	30.72
301.166	18.43
301.381	10.24
301.595	-14.34
301.809	51.2
302.024	24.58
302.238	2.05
302.452	-24.58
302.667	88.06
302.881	131.07
303.095	49.15
303.309	-0
303.524	49.15
303.738	14.34
303.952	22.53
304.166	73.73
304.381	-0
304.595	34.82
304.809	71.68
305.023	-16.38
305.237	-16.38
305.452	38.91
305.666	55.3
305.88	75.77
306.094	47.1
306.308	10.24
306.522	32.77
306.736	30.72
306.95	73.73
307.164	22.53
307.379	24.58
307.593	104.45
307.807	-14.34
308.021	22.53
308.235	47.1
308.449	-65.54
308.663	32.77
308.877	63.49
309.091	32.77
309.305	71.68
309.519	-36.86
309.733	36.86
309.947	26.62
310.161	32.77
310.374	18.43
310.588	-16.38
310.802	98.3
311.016	51.2
311.23	75.77
311.444	67.58
311.658	43.01
311.872	108.54
312.085	45.06
312.299	4.1
312.513	26.62
312.727	57.34
312.941	-22.53
313.154	14.34
313.368	88.06
313.582	94.21
313.796	-18.43
314.009	8.19
314.223	81.92
314.437	90.11
314.651	51.2
314.864	14.34
315.078	40.96
315.292	-63.49
315.505	-10.24
315.719	22.53
315.933	-36.86
316.146	92.16
316.36	-34.82
316.573	88.06
316.787	65.53
317.001	10.24
317.214	24.58
317.428	77.82
317.641	-43.01
317.855	32.77
318.068	57.34
318.282	104.45
318.495	51.2
318.709	73.73
318.922	10.24
319.136	145.41
319.349	49.15
319.563	110.59
319.776	49.15
319.99	40.96
320.203	14.34
320.417	-6.14
320.63	71.68
320.843	67.58
321.057	73.73
321.27	28.67
321.483	53.25
321.697	96.25
321.91	16.38
322.124	116.73
322.337	38.91
322.55	71.68
322.763	6.14
322.977	79.87
323.19	24.58
323.403	6.14
323.617	67.58
323.83	-8.19
324.043	26.62
324.256	4.1
324.469	22.53
324.683	10.24
324.896	71.68
325.109	71.68
325.322	-14.34
325.535	61.44
325.748	143.36
325.962	22.53
326.175	6.14
326.388	24.58
326.601	40.96
326.814	-36.86
327.027	-8.19
327.24	24.58
327.453	-28.67
327.666	59.39
327.879	55.3
328.092	90.11
328.305	-24.58
328.518	-26.62
328.731	-34.82
328.944	102.4
329.157	18.43
329.37	34.82
329.583	81.92
329.796	36.86
330.009	10.24
330.222	98.3
330.435	51.2
330.648	20.48
330.861	59.39
331.073	8.19
331.286	38.91
331.499	24.58
331.712	24.58
331.925	47.1
332.138	38.91
332.35	49.15
332.563	18.43
332.776	102.4
332.989	30.72
333.202	30.72
333.414	30.72
333.627	14.34
333.84	47.1
334.053	47.1
334.265	22.53
334.478	-10.24
334.691	59.39
334.903	116.73
335.116	38.91
335.329	10.24
335.541	90.11
335.754	98.3
335.966	73.73
336.179	81.92
336.392	81.92
336.604	83.97
336.817	79.87
337.029	10.24
337.242	92.16
337.454	96.25
337.667	14.34
337.88	75.77
338.092	36.86
338.305	40.96
338.517	14.34
338.729	102.4
338.942	18.43
339.154	-26.62
339.367	10.24
339.579	77.82
339.792	-0
340.004	71.68
340.217	63.49
340.429	61.44
340.641	47.1
340.854	104.45
341.066	20.48
341.278	55.3
341.491	30.72
341.703	120.83
341.915	40.96
342.128	124.93
342.34	43.01
342.552	16.38
342.764	137.21
342.977	-14.34
343.189	22.53
343.401	55.3
343.613	-22.53
343.826	43.01
344.038	116.73
344.25	120.83
344.462	-26.62
344.674	36.86
344.886	38.91
345.099	120.83
345.311	-2.05
345.523	14.34
345.735	47.1
345.947	63.49
346.159	43.01
346.371	-26.62
346.583	-49.15
346.795	71.68
347.007	8.19
347.219	96.25
347.431	88.06
347.643	90.11
347.855	57.34
348.067	20.48
348.279	75.77
348.491	10.24
348.703	38.91
348.915	71.68
349.127	14.34
349.339	47.1
349.551	-43.01
349.763	92.16
349.975	106.49
350.187	30.72
350.399	34.82
350.61	96.25
350.822	92.16
351.034	32.77
351.246	55.3
351.458	79.87
351.669	45.06
351.881	34.82
352.093	75.77
352.305	71.68
352.517	57.34
352.728	67.58
352.94	49.15
353.152	112.64
353.363	79.87
353.575	6.14
353.787	81.92
353.999	104.45
354.21	73.73
354.422	38.91
354.633	10.24
354.845	104.45
355.057	24.58
355.268	63.49
355.48	71.68
355.692	38.91
355.903	30.72
356.115	6.14
356.326	-14.34
356.538	49.15
356.749	71.68
356.961	147.45
357.172	40.96
357.384	-0
357.595	155.65
357.807	120.83
358.018	14.34
358.23	26.62
358.441	63.49
358.653	92.16
358.864	32.77
359.075	-18.43
359.287	98.3
359.498	43.01
359.709	96.25
359.921	18.43
360.132	61.44
360.344	24.58
360.555	28.67
360.766	12.29
360.977	61.44
361.189	65.53
361.4	40.96
361.611	81.92
361.823	38.91
362.034	32.77
362.245	38.91
362.456	57.34
362.667	135.17
362.879	8.19
363.09	-10.24
363.301	34.82
363.512	-2.05
363.723	22.53
363.935	96.25
364.146	153.6
364.357	63.49
364.568	34.82
364.779	26.62
364.99	102.4
365.201	12.29
365.412	75.77
365.623	47.1
365.834	38.91
366.045	129.02
366.256	30.72
366.467	38.91
366.678	-22.53
366.889	30.72
367.1	-2.05
367.311	73.73
367.522	-8.19
367.733	77.82
367.944	34.82
368.155	51.2
368.366	40.96
368.577	47.1
368.788	145.41
368.999	38.91
369.209	69.63
369.42	88.06
369.631	57.34
369.842	81.92
370.053	71.68
370.264	145.41
370.474	45.06
370.685	55.3
370.896	51.2
371.107	139.26
371.317	-0
371.528	73.73
371.739	36.86
371.95	32.77
372.16	40.96
372.371	51.2
372.582	65.53
372.792	38.91
373.003	96.25
373.214	10.24
373.424	47.1
373.635	100.35
373.846	83.97
374.056	106.49
374.267	-2.05
374.477	47.1
374.688	57.34
374.898	86.01
375.109	12.29
375.319	45.06
375.53	73.73
375.74	-2.05
375.951	10.24
376.161	67.58
376.372	83.97
376.582	67.58
376.793	120.83
377.003	55.3
377.214	81.92
377.424	10.24
377.635	24.58
377.845	6.14
378.055	110.59
378.266	47.1
378.476	63.49
378.686	77.82
378.897	-26.62
379.107	49.15
379.317	88.06
379.528	67.58
379.738	59.39
379.948	55.3
380.158	47.1
380.369	79.87
380.579	106.49
380.789	57.34
380.999	45.06
381.21	32.77
381.42	34.82
381.63	30.72
381.84	94.21
382.05	55.3
382.261	38.91
382.471	63.49
382.681	-2.05
382.891	55.3
383.101	47.1
383.311	88.06
383.521	34.82
383.731	71.68
383.941	69.63
384.151	49.15
384.361	118.78
384.571	43.01
384.781	73.73
384.991	83.97
385.201	104.45
385.411	51.2
385.621	8.19
385.831	106.49
386.041	24.58
386.251	112.64
386.461	120.83
386.671	83.97
386.881	8.19
387.091	30.72
387.301	124.93
387.511	45.06
387.72	129.02
387.93	86.01
388.14	63.49
388.35	38.91
388.56	71.68
388.769	79.87
388.979	79.87
389.189	8.19
389.399	112.64
389.609	126.97
389.818	88.06
390.028	114.69
390.238	55.3
390.447	49.15
390.657	88.06
390.867	79.87
391.076	71.68
391.286	157.69
391.496	98.3
391.705	38.91
391.915	32.77
392.125	124.93
392.334	81.92
392.544	100.35
392.753	106.49
392.963	18.43
393.172	88.06
393.382	79.87
393.591	182.27
393.801	73.73
394.01	34.82
394.22	108.54
394.429	98.3
394.639	161.79
394.848	114.69
395.058	108.54
395.267	129.02
395.477	137.21
395.686	108.54
395.895	96.25
396.105	143.36
396.314	100.35
396.524	114.69
396.733	83.97
396.942	131.07
397.152	137.21
397.361	155.65
397.57	122.88
397.78	114.69
397.989	112.64
398.198	139.26
398.407	133.12
398.617	96.25
398.826	176.13
399.035	137.21
399.244	153.6
399.453	155.65
399.663	163.84
399.872	104.45
400.081	90.11
400.29	112.64
400.499	63.49
400.708	221.18
400.917	131.07
401.127	77.82
401.336	161.79
401.545	169.98
401.754	133.12
401.963	147.45
402.172	18.43
402.381	122.88
402.59	161.79
402.799	126.97
403.008	163.84
403.217	276.48
403.426	204.8
403.635	124.93
403.844	124.93
404.053	73.73
404.262	155.65
404.471	262.14
404.68	194.56
404.888	169.98
405.097	217.08
405.306	120.83
405.515	284.67
405.724	182.27
405.933	274.43
406.142	165.89
406.35	249.85
406.559	286.72
406.768	182.27
406.977	296.96
407.185	237.56
407.394	286.72
407.603	262.14
407.812	317.44
408.02	292.86
408.229	210.94
408.438	292.86
408.646	288.76
408.855	309.24
409.064	319.48
409.272	342.01
409.481	442.36
409.69	348.15
409.898	374.78
410.107	450.55
410.315	446.46
410.524	364.54
410.733	464.89
410.941	419.83
411.15	487.42
411.358	522.23
411.567	595.96
411.775	522.23
411.984	538.62
412.192	532.47
412.401	671.73
412.609	657.4
412.818	681.97
413.026	757.75
413.234	722.93
413.443	684.02
413.651	784.37
413.86	780.28
414.068	833.52
414.276	825.33
414.485	894.96
414.693	897.01
414.901	1038.32
415.11	1005.55
415.318	1015.79
415.526	1005.55
415.734	1046.51
415.943	1038.32
416.151	1169.39
416.359	1185.77
416.567	1173.49
416.776	1308.65
416.984	1275.88
417.192	1288.17
417.4	1331.18
417.608	1378.28
417.817	1458.15
418.025	1685.48
418.233	1695.72
418.441	1607.66
418.649	1730.53
418.857	1767.4
419.065	1931.23
419.273	1810.4
419.481	1896.42
419.689	2058.21
419.897	2097.12
420.105	2119.65
420.313	2201.57
420.521	2246.62
420.729	2301.92
420.937	2416.6
421.145	2490.33
421.353	2668.5
421.561	2758.61
421.769	2815.96
421.977	2717.65
422.185	2799.57
422.393	3082.19
422.601	3160.02
422.809	3143.63
423.017	3108.82
423.224	3381.2
423.432	3502.03
423.64	3579.85
423.848	3919.81
424.056	3758.02
424.263	3983.3
424.471	4036.55
424.679	3987.4
424.887	4356.03
425.094	4405.18
425.302	4495.29
425.51	4691.9
425.718	4763.58
425.925	4921.27
426.133	4923.32
426.341	5152.69
426.548	5398.45
426.756	5509.04
426.964	5449.64
427.171	5932.97
427.379	6021.03
427.586	6084.52
427.794	6414.24
428.001	6623.13
428.209	6911.89
428.417	6672.28
428.624	7296.91
428.832	7141.27
429.039	7143.31
429.247	7184.27
429.454	7853.96
429.662	8443.78
429.869	7931.78
430.076	8343.42
430.284	8300.42
430.491	8630.14
430.699	9043.83
430.906	9013.11
431.114	9246.58
431.321	9408.37
431.528	9770.86
431.736	10239.84
431.943	10461.02
432.15	10323.81
432.358	10551.13
432.565	10960.73
432.772	10792.8
432.979	11493.2
433.187	11777.87
433.394	12015.43
433.601	12832.57
433.808	12744.51
434.016	12699.45
434.223	13252.41
434.43	13948.72
434.637	13901.61
434.844	14589.73
435.052	14823.2
435.259	14753.57
435.466	14982.94
435.673	14673.7
435.88	15558.42
436.087	16549.64
436.294	16422.66
436.501	16119.56
436.708	16482.05
436.915	16910.08
437.122	17590
437.329	17673.97
437.537	18212.59
437.743	18448.1
437.95	18294.5
438.157	19539.67
438.364	19955.41
438.571	19789.52
438.778	20070.09
438.985	22279.85
439.192	21100.22
439.399	21698.23
439.606	21259.96
439.813	22171.31
440.02	23279.26
440.227	23383.71
440.433	22875.81
440.64	23781.01
440.847	23664.28
441.054	24352.4
441.261	25493.11
441.467	25169.54
441.674	26099.31
441.881	26789.48
442.088	27072.1
442.294	26433.13
442.501	27903.57
442.708	27647.58
442.914	28943.94
443.121	30029.37
443.328	29087.3
443.534	31292.96
443.741	30451.25
443.948	30223.92
444.154	32175.64
444.361	31837.72
444.568	32171.54
444.774	32312.85
444.981	32626.19
445.187	33361.41
445.394	34821.61
445.6	34348.53
445.807	37377.48
446.013	36363.73
446.22	36623.83
446.426	38002.11
446.633	38172.09
446.839	39581.09
447.046	38018.49
447.252	39906.72
447.459	39871.9
447.665	39998.88
447.871	41440.65
448.078	43402.6
448.284	41180.56
448.491	42196.35
448.697	44148.06
448.903	44895.57
449.11	44428.63
449.316	44184.93
449.522	45059.41
449.728	46353.72
449.935	46310.72
450.141	46728.5
450.347	47529.26
450.553	45913.41
450.76	46464.31
450.966	48035.11
451.172	47224.11
451.378	48467.23
451.584	47519.02
451.791	48717.08
451.997	48702.74
452.203	49675.53
452.409	49433.87
452.615	49386.77
452.821	47621.42
453.027	47183.15
453.233	49376.53
453.44	47353.13
453.646	48160.03
453.852	48825.62
454.058	49024.28
454.264	47418.67
454.47	48411.93
454.676	47269.17
454.882	49171.73
455.088	44987.73
455.294	45618.5
455.5	46413.12
455.705	46927.16
455.911	44744.02
456.117	44078.43
456.323	43312.49
456.529	40994.19
456.735	42796.4
456.941	42134.91
457.147	41510.28
457.352	40017.31
457.558	39818.66
457.764	39681.44
457.97	39077.29
458.176	38081.98
458.381	37897.66
458.587	36271.57
458.793	36464.08
458.999	34674.16
459.204	37182.92
459.41	35904.99
459.616	33342.98
459.821	33705.47
460.027	33512.96
460.233	32943.63
460.438	31190.56
460.644	31837.72
460.85	29904.44
461.055	29941.3
461.261	29726.27
461.466	27166.31
461.672	26910.31
461.878	28425.81
462.083	26740.33
462.289	26189.42
462.494	25628.28
462.7	24561.29
462.905	24182.41
463.111	24921.73
463.316	24888.96
463.522	24475.27
463.727	24364.68
463.932	24235.66
464.138	24139.41
464.343	24149.65
464.549	23514.78
464.754	24428.17
464.959	24364.68
465.165	24120.98
465.37	23166.62
465.575	22527.66
465.781	23273.12
465.986	23406.23
466.191	22412.97
466.397	22097.58
466.602	20963.01
466.807	21870.26
467.012	21872.31
