Data from USB4F104151__274__14-23-19-166.txt Node

Date: Thu Mar 13 14:23:19 EDT 2025
User: louis
Spectrometer: USB4F10415
Trigger mode: 4
Integration Time (sec): 2.000000E-2
Scans to average: 1
Electric dark correction enabled: true
Nonlinearity correction enabled: false
Boxcar width: 0
XAxis mode: Wavelengths
Number of Pixels in Spectrum: 3648
>>>>>Begin Spectral Data<<<<<
178.204	-140.63
178.424	-140.63
178.644	-140.63
178.864	-120.15
179.084	-109.91
179.304	-11.61
179.524	35.5
179.744	-17.75
179.964	35.5
180.184	-23.89
180.404	-9.56
180.624	-5.46
180.844	25.26
181.064	-58.71
181.283	21.16
181.503	-44.37
181.723	53.93
181.943	43.69
182.163	27.31
182.383	6.83
182.602	53.93
182.822	19.11
183.042	-54.61
183.262	-21.84
183.482	21.16
183.701	88.75
183.921	10.92
184.141	-17.75
184.361	55.98
184.58	47.79
184.8	-15.7
185.02	12.97
185.239	68.27
185.459	55.98
185.679	35.5
185.898	27.31
186.118	66.22
186.338	39.59
186.557	78.51
186.777	27.31
186.997	-21.84
187.216	-30.04
187.436	-5.46
187.655	19.11
187.875	33.45
188.095	10.92
188.314	-5.46
188.534	35.5
188.753	62.12
188.973	45.74
189.192	19.11
189.412	-48.47
189.631	-9.56
189.851	-30.04
190.07	92.84
190.29	21.16
190.509	27.31
190.729	-44.37
190.948	49.83
191.168	152.23
191.387	15.02
191.607	-13.65
191.826	-46.42
192.045	-50.52
192.265	19.11
192.484	72.36
192.704	-36.18
192.923	15.02
193.142	43.69
193.362	-25.94
193.581	62.12
193.8	53.93
194.02	53.93
194.239	-5.46
194.458	17.07
194.678	60.07
194.897	62.12
195.116	23.21
195.335	2.73
195.555	76.46
195.774	60.07
195.993	-5.46
196.212	-19.8
196.432	37.55
196.651	33.45
196.87	12.97
197.089	60.07
197.308	27.31
197.528	76.46
197.747	10.92
197.966	19.11
198.185	47.79
198.404	-3.41
198.623	92.84
198.842	37.55
199.062	60.07
199.281	23.21
199.5	-1.37
199.719	29.35
199.938	17.07
200.157	8.87
200.376	2.73
200.595	-21.84
200.814	33.45
201.033	23.21
201.252	88.75
201.471	55.98
201.69	51.88
201.909	-21.84
202.128	45.74
202.347	45.74
202.566	-34.13
202.785	-25.94
203.004	21.16
203.223	70.31
203.442	96.94
203.661	70.31
203.879	31.4
204.098	27.31
204.317	-1.37
204.536	-13.65
204.755	51.88
204.974	60.07
205.193	6.83
205.411	109.23
205.63	35.5
205.849	35.5
206.068	27.31
206.287	21.16
206.505	-7.51
206.724	37.55
206.943	-27.99
207.162	35.5
207.381	43.69
207.599	53.93
207.818	39.59
208.037	31.4
208.255	-21.84
208.474	10.92
208.693	-5.46
208.911	-56.66
209.13	103.08
209.349	-38.23
209.567	76.46
209.786	119.46
210.005	-25.94
210.223	39.59
210.442	-13.65
210.661	2.73
210.879	43.69
211.098	49.83
211.316	68.27
211.535	62.12
211.753	-17.75
211.972	-44.37
212.191	-21.84
212.409	12.97
212.628	-13.65
212.846	-17.75
213.065	33.45
213.283	43.69
213.502	51.88
213.72	19.11
213.938	-54.61
214.157	6.83
214.375	55.98
214.594	21.16
214.812	-48.47
215.031	43.69
215.249	23.21
215.467	-11.61
215.686	10.92
215.904	60.07
216.122	-3.41
216.341	39.59
216.559	35.5
216.778	76.46
216.996	43.69
217.214	-79.19
217.432	4.78
217.651	29.35
217.869	15.02
218.087	0.68
218.306	31.4
218.524	-36.18
218.742	19.11
218.96	-3.41
219.179	-17.75
219.397	-5.46
219.615	105.13
219.833	23.21
220.051	-50.52
220.27	98.99
220.488	64.17
220.706	-17.75
220.924	-11.61
221.142	-19.8
221.36	-5.46
221.578	-38.23
221.796	19.11
222.015	35.5
222.233	-15.7
222.451	133.8
222.669	-44.37
222.887	-3.41
223.105	-11.61
223.323	-30.04
223.541	-68.95
223.759	62.12
223.977	-17.75
224.195	76.46
224.413	12.97
224.631	-19.8
224.849	35.5
225.067	76.46
225.285	19.11
225.503	10.92
225.721	-1.37
225.939	-21.84
226.157	43.69
226.375	144.04
226.592	4.78
226.81	-68.95
227.028	45.74
227.246	35.5
227.464	-9.56
227.682	33.45
227.9	78.51
228.117	41.64
228.335	103.08
228.553	-27.99
228.771	-44.37
228.989	121.51
229.206	37.55
229.424	51.88
229.642	-13.65
229.86	60.07
230.077	62.12
230.295	47.79
230.513	117.42
230.731	78.51
230.948	43.69
231.166	74.41
231.384	-5.46
231.601	51.88
231.819	27.31
232.037	-17.75
232.254	12.97
232.472	-3.41
232.689	-27.99
232.907	4.78
233.125	-36.18
233.342	51.88
233.56	31.4
233.777	60.07
233.995	-40.28
234.213	15.02
234.43	64.17
234.648	19.11
234.865	72.36
235.083	76.46
235.3	45.74
235.518	51.88
235.735	80.55
235.953	60.07
236.17	15.02
236.388	33.45
236.605	-13.65
236.822	35.5
237.04	-19.8
237.257	62.12
237.475	2.73
237.692	6.83
237.909	4.78
238.127	27.31
238.344	-34.13
238.562	21.16
238.779	53.93
238.996	43.69
239.214	39.59
239.431	72.36
239.648	6.83
239.865	10.92
240.083	101.03
240.3	49.83
240.517	60.07
240.735	-38.23
240.952	41.64
241.169	37.55
241.386	-13.65
241.603	31.4
241.821	-21.84
242.038	43.69
242.255	125.61
242.472	-21.84
242.689	117.42
242.907	68.27
243.124	27.31
243.341	-87.38
243.558	-30.04
243.775	-58.71
243.992	-13.65
244.209	43.69
244.426	45.74
244.643	8.87
244.86	-21.84
245.078	29.35
245.295	70.31
245.512	-7.51
245.729	17.07
245.946	62.12
246.163	47.79
246.38	-17.75
246.597	-38.23
246.814	21.16
247.031	-5.46
247.248	51.88
247.464	49.83
247.681	31.4
247.898	101.03
248.115	17.07
248.332	-83.28
248.549	41.64
248.766	82.6
248.983	27.31
249.2	49.83
249.417	27.31
249.633	19.11
249.85	78.51
250.067	-3.41
250.284	10.92
250.501	49.83
250.717	17.07
250.934	-46.42
251.151	-11.61
251.368	-5.46
251.585	125.61
251.801	15.02
252.018	-30.04
252.235	27.31
252.451	-13.65
252.668	-7.51
252.885	39.59
253.102	-58.71
253.318	23.21
253.535	-5.46
253.752	-3.41
253.968	10.92
254.185	-34.13
254.401	10.92
254.618	80.55
254.835	-40.28
255.051	19.11
255.268	4.78
255.484	10.92
255.701	64.17
255.917	62.12
256.134	37.55
256.351	-64.85
256.567	-5.46
256.784	2.73
257	35.5
257.217	27.31
257.433	58.03
257.65	45.74
257.866	80.55
258.082	17.07
258.299	-30.04
258.515	27.31
258.732	-25.94
258.948	-46.42
259.165	19.11
259.381	39.59
259.597	-25.94
259.814	21.16
260.03	58.03
260.246	6.83
260.463	92.84
260.679	-54.61
260.895	19.11
261.112	53.93
261.328	10.92
261.544	29.35
261.761	125.61
261.977	-107.86
262.193	-75.09
262.409	51.88
262.626	-40.28
262.842	15.02
263.058	94.89
263.274	4.78
263.49	55.98
263.707	12.97
263.923	-32.08
264.139	-60.76
264.355	-5.46
264.571	78.51
264.787	-32.08
265.004	86.7
265.22	109.23
265.436	72.36
265.652	35.5
265.868	-5.46
266.084	8.87
266.3	19.11
266.516	-3.41
266.732	39.59
266.948	2.73
267.164	53.93
267.38	4.78
267.596	27.31
267.812	78.51
268.028	115.37
268.244	-25.94
268.46	-3.41
268.676	-15.7
268.892	-17.75
269.108	21.16
269.324	12.97
269.54	-5.46
269.756	19.11
269.972	-1.37
270.188	45.74
270.403	-46.42
270.619	4.78
270.835	74.41
271.051	6.83
271.267	49.83
271.483	84.65
271.698	15.02
271.914	51.88
272.13	19.11
272.346	-27.99
272.562	27.31
272.777	58.03
272.993	19.11
273.209	53.93
273.425	29.35
273.64	-50.52
273.856	88.75
274.072	86.7
274.287	-27.99
274.503	76.46
274.719	21.16
274.934	-5.46
275.15	-52.56
275.366	51.88
275.581	-36.18
275.797	12.97
276.012	15.02
276.228	86.7
276.444	-13.65
276.659	-13.65
276.875	-5.46
277.09	23.21
277.306	105.13
277.521	76.46
277.737	168.62
277.952	-44.37
278.168	23.21
278.383	2.73
278.599	68.27
278.814	-27.99
279.03	47.79
279.245	27.31
279.461	37.55
279.676	45.74
279.892	31.4
280.107	39.59
280.322	-21.84
280.538	43.69
280.753	2.73
280.969	2.73
281.184	8.87
281.399	49.83
281.615	68.27
281.83	2.73
282.045	4.78
282.26	10.92
282.476	55.98
282.691	86.7
282.906	-5.46
283.122	-5.46
283.337	-25.94
283.552	-15.7
283.767	21.16
283.983	29.35
284.198	29.35
284.413	21.16
284.628	-21.84
284.843	-19.8
285.058	62.12
285.274	19.11
285.489	49.83
285.704	78.51
285.919	49.83
286.134	23.21
286.349	8.87
286.564	0.68
286.779	60.07
286.995	45.74
287.21	-13.65
287.425	19.11
287.64	53.93
287.855	86.7
288.07	4.78
288.285	29.35
288.5	17.07
288.715	125.61
288.93	-11.61
289.145	86.7
289.36	60.07
289.575	12.97
289.79	60.07
290.004	-23.89
290.219	84.65
290.434	-30.04
290.649	2.73
290.864	-5.46
291.079	12.97
291.294	35.5
291.509	12.97
291.724	23.21
291.938	43.69
292.153	-13.65
292.368	47.79
292.583	10.92
292.798	64.17
293.012	43.69
293.227	17.07
293.442	-17.75
293.657	12.97
293.871	45.74
294.086	19.11
294.301	96.94
294.516	62.12
294.73	-13.65
294.945	10.92
295.16	-9.56
295.374	45.74
295.589	-3.41
295.804	96.94
296.018	39.59
296.233	2.73
296.447	10.92
296.662	31.4
296.877	74.41
297.091	68.27
297.306	45.74
297.52	21.16
297.735	17.07
297.949	-21.84
298.164	19.11
298.378	17.07
298.593	-17.75
298.807	-46.42
299.022	19.11
299.236	78.51
299.451	17.07
299.665	23.21
299.88	-3.41
300.094	45.74
300.309	2.73
300.523	35.5
300.737	-15.7
300.952	29.35
301.166	17.07
301.381	-17.75
301.595	64.17
301.809	-62.8
302.024	29.35
302.238	39.59
302.452	35.5
302.667	-3.41
302.881	117.42
303.095	109.23
303.309	-21.84
303.524	21.16
303.738	29.35
303.952	41.64
304.166	53.93
304.381	27.31
304.595	78.51
304.809	-38.23
305.023	41.64
305.237	12.97
305.452	0.68
305.666	10.92
305.88	19.11
306.094	88.75
306.308	39.59
306.522	35.5
306.736	53.93
306.95	2.73
307.164	19.11
307.379	-50.52
307.593	35.5
307.807	35.5
308.021	4.78
308.235	12.97
308.449	-89.43
308.663	72.36
308.877	62.12
309.091	64.17
309.305	113.32
309.519	-13.65
309.733	4.78
309.947	-23.89
310.161	19.11
310.374	68.27
310.588	29.35
310.802	2.73
311.016	-25.94
311.23	45.74
311.444	29.35
311.658	-32.08
311.872	-21.84
312.085	55.98
312.299	53.93
312.513	82.6
312.727	-13.65
312.941	-1.37
313.154	15.02
313.368	-23.89
313.582	60.07
313.796	-17.75
314.009	45.74
314.223	-17.75
314.437	-5.46
314.651	53.93
314.864	-13.65
315.078	43.69
315.292	2.73
315.505	-44.37
315.719	2.73
315.933	21.16
316.146	10.92
316.36	51.88
316.573	-17.75
316.787	19.11
317.001	27.31
317.214	-36.18
317.428	-11.61
317.641	39.59
317.855	19.11
318.068	31.4
318.282	60.07
318.495	47.79
318.709	12.97
318.922	51.88
319.136	39.59
319.349	86.7
319.563	-7.51
319.776	55.98
319.99	-68.95
320.203	43.69
320.417	76.46
320.63	76.46
320.843	45.74
321.057	35.5
321.27	2.73
321.483	53.93
321.697	64.17
321.91	31.4
322.124	84.65
322.337	4.78
322.55	19.11
322.763	-3.41
322.977	64.17
323.19	-30.04
323.403	49.83
323.617	39.59
323.83	76.46
324.043	12.97
324.256	64.17
324.469	-21.84
324.683	62.12
324.896	-17.75
325.109	-19.8
325.322	-21.84
325.535	31.4
325.748	-17.75
325.962	43.69
326.175	19.11
326.388	15.02
326.601	98.99
326.814	62.12
327.027	6.83
327.24	64.17
327.453	2.73
327.666	43.69
327.879	84.65
328.092	2.73
328.305	-9.56
328.518	98.99
328.731	-21.84
328.944	64.17
329.157	96.94
329.37	12.97
329.583	-3.41
329.796	68.27
330.009	60.07
330.222	70.31
330.435	6.83
330.648	64.17
330.861	12.97
331.073	92.84
331.286	105.13
331.499	78.51
331.712	0.68
331.925	25.26
332.138	27.31
332.35	2.73
332.563	43.69
332.776	19.11
332.989	92.84
333.202	27.31
333.414	21.16
333.627	84.65
333.84	2.73
334.053	33.45
334.265	23.21
334.478	-30.04
334.691	51.88
334.903	17.07
335.116	80.55
335.329	58.03
335.541	51.88
335.754	-17.75
335.966	-42.32
336.179	39.59
336.392	6.83
336.604	-19.8
336.817	68.27
337.029	88.75
337.242	19.11
337.454	70.31
337.667	68.27
337.88	72.36
338.092	68.27
338.305	109.23
338.517	4.78
338.729	78.51
338.942	154.28
339.154	35.5
339.367	4.78
339.579	-11.61
339.792	-97.62
340.004	25.26
340.217	-1.37
340.429	27.31
340.641	45.74
340.854	10.92
341.066	43.69
341.278	35.5
341.491	70.31
341.703	90.79
341.915	58.03
342.128	35.5
342.34	31.4
342.552	45.74
342.764	66.22
342.977	82.6
343.189	72.36
343.401	31.4
343.613	-5.46
343.826	86.7
344.038	23.21
344.25	45.74
344.462	-58.71
344.674	27.31
344.886	60.07
345.099	4.78
345.311	62.12
345.523	49.83
345.735	21.16
345.947	66.22
346.159	6.83
346.371	-1.37
346.583	-25.94
346.795	29.35
347.007	58.03
347.219	35.5
347.431	21.16
347.643	-13.65
347.855	31.4
348.067	62.12
348.279	6.83
348.491	51.88
348.703	62.12
348.915	-11.61
349.127	-15.7
349.339	39.59
349.551	-7.51
349.763	31.4
349.975	68.27
350.187	53.93
350.399	43.69
350.61	-3.41
350.822	78.51
351.034	105.13
351.246	-3.41
351.458	105.13
351.669	27.31
351.881	76.46
352.093	60.07
352.305	10.92
352.517	17.07
352.728	111.27
352.94	43.69
353.152	45.74
353.363	-13.65
353.575	55.98
353.787	64.17
353.999	62.12
354.21	29.35
354.422	82.6
354.633	53.93
354.845	72.36
355.057	8.87
355.268	-58.71
355.48	31.4
355.692	27.31
355.903	-5.46
356.115	31.4
356.326	19.11
356.538	64.17
356.749	70.31
356.961	-19.8
357.172	10.92
357.384	-42.32
357.595	41.64
357.807	-1.37
358.018	43.69
358.23	80.55
358.441	35.5
358.653	70.31
358.864	66.22
359.075	78.51
359.287	35.5
359.498	113.32
359.709	64.17
359.921	27.31
360.132	-11.61
360.344	53.93
360.555	12.97
360.766	-9.56
360.977	19.11
361.189	33.45
361.4	45.74
361.611	101.03
361.823	19.11
362.034	60.07
362.245	-7.51
362.456	135.85
362.667	19.11
362.879	10.92
363.09	-13.65
363.301	27.31
363.512	2.73
363.723	43.69
363.935	41.64
364.146	-1.37
364.357	53.93
364.568	101.03
364.779	19.11
364.99	72.36
365.201	27.31
365.412	96.94
365.623	2.73
365.834	68.27
366.045	55.98
366.256	10.92
366.467	68.27
366.678	-1.37
366.889	-19.8
367.1	2.73
367.311	-5.46
367.522	-19.8
367.733	43.69
367.944	51.88
368.155	117.42
368.366	58.03
368.577	105.13
368.788	70.31
368.999	6.83
369.209	-27.99
369.42	55.98
369.631	158.38
369.842	96.94
370.053	70.31
370.264	84.65
370.474	33.45
370.685	37.55
370.896	35.5
371.107	86.7
371.317	-13.65
371.528	43.69
371.739	101.03
371.95	25.26
372.16	47.79
372.371	-87.38
372.582	-9.56
372.792	35.5
373.003	80.55
373.214	-5.46
373.424	78.51
373.635	-11.61
373.846	121.51
374.056	109.23
374.267	-5.46
374.477	92.84
374.688	80.55
374.898	55.98
375.109	70.31
375.319	-38.23
375.53	68.27
375.74	70.31
375.951	21.16
376.161	84.65
376.372	2.73
376.582	-54.61
376.793	107.18
377.003	76.46
377.214	-5.46
377.424	64.17
377.635	35.5
377.845	0.68
378.055	51.88
378.266	19.11
378.476	-5.46
378.686	92.84
378.897	84.65
379.107	33.45
379.317	-38.23
379.528	-5.46
379.738	94.89
379.948	51.88
380.158	2.73
380.369	10.92
380.579	45.74
380.789	2.73
380.999	86.7
381.21	31.4
381.42	72.36
381.63	-1.37
381.84	70.31
382.05	66.22
382.261	101.03
382.471	-13.65
382.681	4.78
382.891	113.32
383.101	27.31
383.311	27.31
383.521	29.35
383.731	25.26
383.941	96.94
384.151	72.36
384.361	68.27
384.571	43.69
384.781	55.98
384.991	37.55
385.201	43.69
385.411	35.5
385.621	43.69
385.831	60.07
386.041	35.5
386.251	72.36
386.461	105.13
386.671	25.26
386.881	6.83
387.091	72.36
387.301	31.4
387.511	78.51
387.72	66.22
387.93	45.74
388.14	51.88
388.35	41.64
388.56	62.12
388.769	66.22
388.979	72.36
389.189	27.31
389.399	2.73
389.609	109.23
389.818	76.46
390.028	68.27
390.238	154.28
390.447	39.59
390.657	88.75
390.867	37.55
391.076	72.36
391.286	10.92
391.496	86.7
391.705	84.65
391.915	35.5
392.125	94.89
392.334	2.73
392.544	35.5
392.753	39.59
392.963	82.6
393.172	21.16
393.382	-21.84
393.591	78.51
393.801	58.03
394.01	96.94
394.22	70.31
394.429	96.94
394.639	19.11
394.848	27.31
395.058	-27.99
395.267	76.46
395.477	62.12
395.686	133.8
395.895	117.42
396.105	29.35
396.314	21.16
396.524	101.03
396.733	105.13
396.942	195.24
397.152	72.36
397.361	129.7
397.57	98.99
397.78	146.09
397.989	62.12
398.198	203.43
398.407	105.13
398.617	113.32
398.826	150.18
399.035	47.79
399.244	94.89
399.453	127.66
399.663	109.23
399.872	121.51
400.081	127.66
400.29	146.09
400.499	115.37
400.708	174.76
400.917	94.89
401.127	152.23
401.336	131.75
401.545	96.94
401.754	127.66
401.963	113.32
402.172	43.69
402.381	174.76
402.59	144.04
402.799	78.51
403.008	113.32
403.217	152.23
403.426	152.23
403.635	111.27
403.844	160.42
404.053	45.74
404.262	139.94
404.471	191.14
404.68	101.03
404.888	172.71
405.097	133.8
405.306	252.58
405.515	178.86
405.724	119.46
405.933	127.66
406.142	158.38
406.35	139.94
406.559	152.23
406.768	201.38
406.977	320.17
407.185	207.53
407.394	158.38
407.603	185
407.812	172.71
408.02	273.06
408.229	246.44
408.438	174.76
408.646	254.63
408.855	334.5
409.064	256.68
409.272	201.38
409.481	354.98
409.69	305.83
409.898	252.58
410.107	338.6
410.315	371.37
410.524	336.55
410.733	379.56
410.941	354.98
411.15	420.52
411.358	404.13
411.567	412.32
411.775	436.9
411.984	402.08
412.192	463.52
412.401	453.28
412.609	539.3
412.818	494.24
413.026	457.38
413.234	522.91
413.443	594.59
413.651	527.01
413.86	524.96
414.068	625.31
414.276	674.46
414.485	666.27
414.693	742.05
414.901	701.09
415.11	699.04
415.318	674.46
415.526	821.92
415.734	766.62
415.943	907.93
416.151	885.41
416.359	877.21
416.567	762.53
416.776	1049.24
416.984	977.56
417.192	1020.57
417.4	955.04
417.608	1010.33
417.817	1030.81
418.025	1100.44
418.233	1149.59
418.441	1094.3
418.649	1227.42
418.857	1333.91
419.065	1340.05
419.273	1325.72
419.481	1374.87
419.689	1499.8
419.897	1602.19
420.105	1583.76
420.313	1612.43
420.521	1757.84
420.729	1634.96
420.937	1747.6
421.145	1788.56
421.353	1952.4
421.561	2060.94
421.769	1931.92
421.977	2280.07
422.185	2099.85
422.393	2073.23
422.601	2376.33
422.809	2306.7
423.017	2353.8
423.224	2394.76
423.432	2566.79
423.64	2568.84
423.848	2871.93
424.056	2685.57
424.263	2953.85
424.471	2820.74
424.679	3013.24
424.887	3068.54
425.094	3164.79
425.302	3215.99
425.51	3355.26
425.718	3469.94
425.925	3480.18
426.133	3590.77
426.341	3715.7
426.548	4041.32
426.756	4024.94
426.964	4096.62
427.171	4264.55
427.379	4401.77
427.586	4412.01
427.794	4588.13
428.001	4747.87
428.209	5098.08
428.417	4862.56
428.624	5253.72
428.832	5253.72
429.039	5294.68
429.247	5255.77
429.454	5681.75
429.662	6240.84
429.869	5782.1
430.076	6236.75
430.284	5921.36
430.491	6298.19
430.699	6519.37
430.906	6494.79
431.114	6732.36
431.321	7090.75
431.528	7000.64
431.736	7490.1
431.943	7723.57
432.15	7576.12
432.358	7699
432.565	8079.92
432.772	8272.43
432.979	8655.4
433.187	8811.04
433.394	8722.98
433.601	9194.01
433.808	9216.54
434.016	9118.24
434.223	9476.63
434.43	10201.61
434.637	10054.16
434.844	10578.44
435.052	10854.92
435.259	10684.94
435.466	10967.56
435.673	10689.03
435.88	11344.38
436.087	11966.96
436.294	11928.05
436.501	11739.64
436.708	12091.89
436.915	12452.33
437.122	13027.81
437.329	12741.1
437.537	13388.25
437.743	13459.93
437.95	13455.84
438.157	14158.29
438.364	14494.16
438.571	14438.86
438.778	14850.5
438.985	16146.87
439.192	15518.14
439.399	15587.77
439.606	15530.43
439.813	16286.13
440.02	17215.91
440.227	16748.97
440.433	16820.65
440.64	17672.6
440.847	17430.94
441.054	17959.32
441.261	19106.18
441.467	18700.69
441.674	19175.81
441.881	19775.87
442.088	19718.53
442.294	19341.7
442.501	19855.74
442.708	20308.34
442.914	21369.19
443.121	21715.3
443.328	21428.58
443.534	22747.47
443.741	22520.15
443.948	22085.98
444.154	23521.6
444.361	23144.78
444.568	23783.74
444.774	23656.77
444.981	23937.34
445.187	24654.13
445.394	25557.28
445.6	25383.21
445.807	27601.16
446.013	26431.77
446.22	26732.82
446.426	27810.05
446.633	28385.53
446.839	29231.34
447.046	27969.79
447.252	29491.43
447.459	29364.46
447.665	29358.31
447.871	30687.45
448.078	32106.69
448.284	30255.32
448.491	31441.1
448.697	32895.16
448.903	33411.24
449.11	33325.23
449.316	32753.85
449.522	33231.02
449.728	34177.19
449.935	34607.26
450.141	34384.03
450.347	35121.3
450.553	34234.53
450.76	34732.18
450.966	35989.64
451.172	35418.25
451.378	36155.52
451.584	35479.69
451.791	36227.2
451.997	36284.54
452.203	37089.4
452.409	37124.21
452.615	36810.87
452.821	35377.29
453.027	35217.55
453.233	36847.74
453.44	35590.28
453.646	35934.34
453.852	36321.41
454.058	36835.45
454.264	35192.98
454.47	36454.53
454.676	35643.53
454.882	36362.37
455.088	33441.96
455.294	34193.57
455.5	34560.16
455.705	35188.88
455.911	33444.01
456.117	33028.27
456.323	32751.8
456.529	30886.1
456.735	32450.75
456.941	31625.42
457.147	31066.32
457.352	29892.83
457.558	29575.4
457.764	29933.79
457.97	29395.18
458.176	28700.92
458.381	28768.5
458.587	27343.11
458.793	27216.14
458.999	26016.03
459.204	27832.58
459.41	26931.47
459.616	25504.04
459.821	25207.08
460.027	25268.52
460.233	24906.03
460.438	23488.84
460.644	23914.81
460.85	22778.19
461.055	22253.91
461.261	22116.7
461.466	20556.15
461.672	20238.71
461.878	21473.63
462.083	20277.62
462.289	19786.11
462.494	19507.58
462.7	18542.99
462.905	18149.78
463.111	18887.05
463.316	18872.71
463.522	18485.65
463.727	18440.59
463.932	18373.01
464.138	17967.51
464.343	18604.43
464.549	17682.84
464.754	18401.68
464.959	18305.43
465.165	18133.4
465.37	17303.97
465.575	16974.25
465.781	17555.87
465.986	17705.37
466.191	17129.89
466.397	16509.36
466.602	15962.55
466.807	16363.95
