Data from USB4F104151__256__14-22-42-180.txt Node

Date: Thu Mar 13 14:22:42 EDT 2025
User: louis
Spectrometer: USB4F10415
Trigger mode: 4
Integration Time (sec): 2.000000E-2
Scans to average: 1
Electric dark correction enabled: true
Nonlinearity correction enabled: false
Boxcar width: 0
XAxis mode: Wavelengths
Number of Pixels in Spectrum: 3648
>>>>>Begin Spectral Data<<<<<
178.204	-156.5
178.424	-156.5
178.644	-156.5
178.864	-107.35
179.084	-84.82
179.304	9.39
179.524	42.15
179.744	11.43
179.964	-11.09
180.184	9.39
180.404	-39.76
180.624	-31.57
180.844	-7
181.064	-52.05
181.283	50.35
181.503	-7
181.723	25.77
181.943	-97.11
182.163	117.93
182.383	27.82
182.602	17.58
182.822	-35.67
183.042	91.31
183.262	15.53
183.482	3.24
183.701	-23.38
183.921	15.53
184.141	-39.76
184.361	33.96
184.58	3.24
184.8	33.96
185.02	17.58
185.239	9.39
185.459	17.58
185.679	40.11
185.898	17.58
186.118	9.39
186.338	-4.95
186.557	33.96
186.777	-7
186.997	36.01
187.216	-37.72
187.436	52.39
187.655	42.15
187.875	-23.38
188.095	-27.48
188.314	44.2
188.534	85.16
188.753	-19.29
188.973	68.78
189.192	46.25
189.412	-29.52
189.631	46.25
189.851	58.54
190.07	13.48
190.29	36.01
190.509	17.58
190.729	-15.19
190.948	70.83
191.168	99.5
191.387	33.96
191.607	46.25
191.826	58.54
192.045	42.15
192.265	62.63
192.484	50.35
192.704	21.67
192.923	1.19
193.142	113.83
193.362	13.48
193.581	56.49
193.8	-23.38
194.02	62.63
194.239	89.26
194.458	17.58
194.678	-43.86
194.897	38.06
195.116	99.5
195.335	1.19
195.555	-23.38
195.774	5.29
195.993	-35.67
196.212	33.96
196.432	17.58
196.651	5.29
196.87	-7
197.089	33.96
197.308	60.59
197.528	-52.05
197.747	21.67
197.966	48.3
198.185	52.39
198.404	-78.68
198.623	19.63
198.842	58.54
199.062	50.35
199.281	79.02
199.5	-50
199.719	19.63
199.938	95.4
200.157	50.35
200.376	19.63
200.595	74.92
200.814	46.25
201.033	50.35
201.252	76.97
201.471	-11.09
201.69	97.45
201.909	81.07
202.128	-17.24
202.347	17.58
202.566	54.44
202.785	-0.85
203.004	-60.24
203.223	66.73
203.442	-21.33
203.661	97.45
203.879	-31.57
204.098	40.11
204.317	42.15
204.536	33.96
204.755	46.25
204.974	1.19
205.193	-15.19
205.411	44.2
205.63	29.87
205.849	48.3
206.068	11.43
206.287	-31.57
206.505	38.06
206.724	11.43
206.943	-31.57
207.162	-52.05
207.381	-13.14
207.599	17.58
207.818	-15.19
208.037	-23.38
208.255	9.39
208.474	-19.29
208.693	-54.1
208.911	-21.33
209.13	-23.38
209.349	29.87
209.567	15.53
209.786	83.11
210.005	5.29
210.223	13.48
210.442	-45.91
210.661	-19.29
210.879	19.63
211.098	33.96
211.316	25.77
211.535	83.11
211.753	74.92
211.972	40.11
212.191	46.25
212.409	38.06
212.628	-52.05
212.846	-13.14
213.065	58.54
213.283	29.87
213.502	19.63
213.72	64.68
213.938	68.78
214.157	52.39
214.375	50.35
214.594	23.72
214.812	79.02
215.031	64.68
215.249	103.59
215.467	-25.43
215.686	103.59
215.904	33.96
216.122	31.91
216.341	136.36
216.559	5.29
216.778	29.87
216.996	21.67
217.214	117.93
217.432	1.19
217.651	-52.05
217.869	58.54
218.087	-7
218.306	-13.14
218.524	33.96
218.742	-47.96
218.96	79.02
219.179	-19.29
219.397	-13.14
219.615	68.78
219.833	27.82
220.051	-17.24
220.27	-2.9
220.488	-9.05
220.706	33.96
220.924	9.39
221.142	17.58
221.36	-17.24
221.578	3.24
221.796	-11.09
222.015	-37.72
222.233	11.43
222.451	25.77
222.669	5.29
222.887	19.63
223.105	-27.48
223.323	81.07
223.541	-13.14
223.759	29.87
223.977	46.25
224.195	21.67
224.413	15.53
224.631	25.77
224.849	1.19
225.067	124.07
225.285	-47.96
225.503	83.11
225.721	-35.67
225.939	52.39
226.157	-9.05
226.375	115.88
226.592	-7
226.81	66.73
227.028	-4.95
227.246	64.68
227.464	-31.57
227.682	48.3
227.9	27.82
228.117	29.87
228.335	23.72
228.553	3.24
228.771	-41.81
228.989	38.06
229.206	-2.9
229.424	-45.91
229.642	15.53
229.86	-23.38
230.077	29.87
230.295	60.59
230.513	58.54
230.731	72.87
230.948	93.35
231.166	83.11
231.384	25.77
231.601	-37.72
231.819	74.92
232.037	50.35
232.254	19.63
232.472	42.15
232.689	17.58
232.907	-25.43
233.125	42.15
233.342	50.35
233.56	-13.14
233.777	128.17
233.995	-4.95
234.213	70.83
234.43	-19.29
234.648	-2.9
234.865	54.44
235.083	62.63
235.3	-19.29
235.518	-15.19
235.735	17.58
235.953	13.48
236.17	44.2
236.388	-37.72
236.605	-17.24
236.822	25.77
237.04	33.96
237.257	44.2
237.475	-41.81
237.692	68.78
237.909	79.02
238.127	-15.19
238.344	25.77
238.562	3.24
238.779	-39.76
238.996	-27.48
239.214	-29.52
239.431	33.96
239.648	-54.1
239.865	17.58
240.083	-35.67
240.3	7.34
240.517	33.96
240.735	31.91
240.952	95.4
241.169	46.25
241.386	19.63
241.603	9.39
241.821	-15.19
242.038	72.87
242.255	58.54
242.472	11.43
242.689	93.35
242.907	5.29
243.124	25.77
243.341	95.4
243.558	-21.33
243.775	-21.33
243.992	-72.53
244.209	40.11
244.426	44.2
244.643	1.19
244.86	-15.19
245.078	29.87
245.295	87.21
245.512	-13.14
245.729	-0.85
245.946	70.83
246.163	50.35
246.38	52.39
246.597	46.25
246.814	93.35
247.031	-41.81
247.248	-4.95
247.464	11.43
247.681	-62.29
247.898	5.29
248.115	58.54
248.332	-23.38
248.549	1.19
248.766	54.44
248.983	33.96
249.2	17.58
249.417	-11.09
249.633	21.67
249.85	58.54
250.067	-33.62
250.284	52.39
250.501	38.06
250.717	-39.76
250.934	17.58
251.151	9.39
251.368	44.2
251.585	54.44
251.801	83.11
252.018	-19.29
252.235	-39.76
252.451	21.67
252.668	33.96
252.885	58.54
253.102	-11.09
253.318	58.54
253.535	64.68
253.752	9.39
253.968	23.72
254.185	-11.09
254.401	-2.9
254.618	-43.86
254.835	21.67
255.051	52.39
255.268	-27.48
255.484	7.34
255.701	-35.67
255.917	-27.48
256.134	21.67
256.351	25.77
256.567	-15.19
256.784	62.63
257	-13.14
257.217	-23.38
257.433	60.59
257.65	17.58
257.866	33.96
258.082	60.59
258.299	19.63
258.515	17.58
258.732	-15.19
258.948	42.15
259.165	33.96
259.381	25.77
259.597	-39.76
259.814	50.35
260.03	-17.24
260.246	40.11
260.463	1.19
260.679	48.3
260.895	50.35
261.112	42.15
261.328	17.58
261.544	-47.96
261.761	74.92
261.977	21.67
262.193	-37.72
262.409	-60.24
262.626	66.73
262.842	7.34
263.058	-41.81
263.274	66.73
263.49	44.2
263.707	50.35
263.923	76.97
264.139	5.29
264.355	-39.76
264.571	9.39
264.787	42.15
265.004	17.58
265.22	-31.57
265.436	-23.38
265.652	19.63
265.868	23.72
266.084	58.54
266.3	52.39
266.516	-70.48
266.732	9.39
266.948	46.25
267.164	3.24
267.38	27.82
267.596	103.59
267.812	42.15
268.028	68.78
268.244	-4.95
268.46	-15.19
268.676	50.35
268.892	66.73
269.108	-64.34
269.324	-23.38
269.54	9.39
269.756	99.5
269.972	-68.44
270.188	42.15
270.403	-23.38
270.619	11.43
270.835	-15.19
271.051	-4.95
271.267	-43.86
271.483	-15.19
271.698	27.82
271.914	38.06
272.13	19.63
272.346	48.3
272.562	19.63
272.777	-23.38
272.993	-15.19
273.209	50.35
273.425	-2.9
273.64	46.25
273.856	3.24
274.072	-15.19
274.287	21.67
274.503	97.45
274.719	13.48
274.934	36.01
275.15	11.43
275.366	19.63
275.581	-27.48
275.797	46.25
276.012	-39.76
276.228	-15.19
276.444	95.4
276.659	-43.86
276.875	-45.91
277.09	19.63
277.306	-7
277.521	91.31
277.737	5.29
277.952	68.78
278.168	11.43
278.383	-4.95
278.599	-11.09
278.814	-21.33
279.03	74.92
279.245	62.63
279.461	13.48
279.676	33.96
279.892	-7
280.107	-21.33
280.322	-4.95
280.538	11.43
280.753	42.15
280.969	38.06
281.184	25.77
281.399	33.96
281.615	-15.19
281.83	17.58
282.045	17.58
282.26	-2.9
282.476	38.06
282.691	-17.24
282.906	27.82
283.122	74.92
283.337	-37.72
283.552	38.06
283.767	-13.14
283.983	62.63
284.198	68.78
284.413	1.19
284.628	-7
284.843	-31.57
285.058	7.34
285.274	76.97
285.489	-62.29
285.704	79.02
285.919	-2.9
286.134	48.3
286.349	5.29
286.564	31.91
286.779	85.16
286.995	48.3
287.21	-60.24
287.425	33.96
287.64	27.82
287.855	9.39
288.07	13.48
288.285	68.78
288.5	27.82
288.715	62.63
288.93	31.91
289.145	-27.48
289.36	-4.95
289.575	42.15
289.79	-25.43
290.004	25.77
290.219	25.77
290.434	56.49
290.649	-0.85
290.864	-56.15
291.079	40.11
291.294	111.78
291.509	115.88
291.724	3.24
291.938	27.82
292.153	58.54
292.368	31.91
292.583	-27.48
292.798	9.39
293.012	91.31
293.227	7.34
293.442	25.77
293.657	33.96
293.871	3.24
294.086	-2.9
294.301	66.73
294.516	19.63
294.73	27.82
294.945	15.53
295.16	-31.57
295.374	-31.57
295.589	3.24
295.804	38.06
296.018	42.15
296.233	128.17
296.447	-35.67
296.662	-76.63
296.877	-54.1
297.091	17.58
297.306	44.2
297.52	-52.05
297.735	25.77
297.949	60.59
298.164	46.25
298.378	27.82
298.593	33.96
298.807	17.58
299.022	9.39
299.236	72.87
299.451	42.15
299.665	-23.38
299.88	42.15
300.094	-2.9
300.309	-11.09
300.523	-35.67
300.737	25.77
300.952	74.92
301.166	-7
301.381	-0.85
301.595	-23.38
301.809	3.24
302.024	62.63
302.238	17.58
302.452	79.02
302.667	-45.91
302.881	38.06
303.095	40.11
303.309	48.3
303.524	-82.77
303.738	-13.14
303.952	-47.96
304.166	33.96
304.381	-15.19
304.595	70.83
304.809	21.67
305.023	9.39
305.237	60.59
305.452	27.82
305.666	13.48
305.88	19.63
306.094	19.63
306.308	25.77
306.522	62.63
306.736	-21.33
306.95	38.06
307.164	-39.76
307.379	-29.52
307.593	27.82
307.807	58.54
308.021	3.24
308.235	54.44
308.449	-21.33
308.663	9.39
308.877	115.88
309.091	60.59
309.305	33.96
309.519	-31.57
309.733	62.63
309.947	-7
310.161	66.73
310.374	11.43
310.588	-4.95
310.802	-11.09
311.016	44.2
311.23	1.19
311.444	-4.95
311.658	-15.19
311.872	25.77
312.085	122.02
312.299	68.78
312.513	36.01
312.727	5.29
312.941	-7
313.154	3.24
313.368	-52.05
313.582	-9.05
313.796	50.35
314.009	-4.95
314.223	87.21
314.437	1.19
314.651	72.87
314.864	25.77
315.078	19.63
315.292	-72.53
315.505	17.58
315.719	58.54
315.933	-17.24
316.146	11.43
316.36	-21.33
316.573	62.63
316.787	-35.67
317.001	62.63
317.214	-39.76
317.428	66.73
317.641	-15.19
317.855	-4.95
318.068	11.43
318.282	25.77
318.495	83.11
318.709	33.96
318.922	-9.05
319.136	66.73
319.349	11.43
319.563	11.43
319.776	62.63
319.99	-27.48
320.203	62.63
320.417	-60.24
320.63	91.31
320.843	46.25
321.057	93.35
321.27	103.59
321.483	58.54
321.697	25.77
321.91	1.19
322.124	91.31
322.337	87.21
322.55	-29.52
322.763	54.44
322.977	25.77
323.19	-4.95
323.403	-4.95
323.617	5.29
323.83	85.16
324.043	-0.85
324.256	-29.52
324.469	52.39
324.683	42.15
324.896	79.02
325.109	50.35
325.322	42.15
325.535	109.74
325.748	60.59
325.962	-15.19
326.175	1.19
326.388	27.82
326.601	44.2
326.814	46.25
327.027	-13.14
327.24	60.59
327.453	-25.43
327.666	25.77
327.879	46.25
328.092	83.11
328.305	70.83
328.518	3.24
328.731	33.96
328.944	42.15
329.157	50.35
329.37	9.39
329.583	70.83
329.796	5.29
330.009	36.01
330.222	19.63
330.435	76.97
330.648	15.53
330.861	-31.57
331.073	9.39
331.286	-21.33
331.499	29.87
331.712	-43.86
331.925	36.01
332.138	113.83
332.35	1.19
332.563	-41.81
332.776	23.72
332.989	27.82
333.202	87.21
333.414	52.39
333.627	-21.33
333.84	-17.24
334.053	-15.19
334.265	-2.9
334.478	27.82
334.691	97.45
334.903	54.44
335.116	5.29
335.329	48.3
335.541	-19.29
335.754	48.3
335.966	-7
336.179	50.35
336.392	107.69
336.604	-72.53
336.817	-7
337.029	-17.24
337.242	13.48
337.454	17.58
337.667	25.77
337.88	62.63
338.092	38.06
338.305	66.73
338.517	13.48
338.729	66.73
338.942	115.88
339.154	-50
339.367	-4.95
339.579	11.43
339.792	21.67
340.004	58.54
340.217	1.19
340.429	58.54
340.641	-56.15
340.854	19.63
341.066	-4.95
341.278	29.87
341.491	81.07
341.703	-2.9
341.915	-43.86
342.128	-23.38
342.34	74.92
342.552	-15.19
342.764	33.96
342.977	29.87
343.189	58.54
343.401	19.63
343.613	-29.52
343.826	-7
344.038	-13.14
344.25	74.92
344.462	62.63
344.674	13.48
344.886	74.92
345.099	3.24
345.311	7.34
345.523	29.87
345.735	5.29
345.947	46.25
346.159	15.53
346.371	-7
346.583	42.15
346.795	60.59
347.007	60.59
347.219	85.16
347.431	46.25
347.643	50.35
347.855	-0.85
348.067	50.35
348.279	38.06
348.491	42.15
348.703	66.73
348.915	46.25
349.127	-7
349.339	54.44
349.551	42.15
349.763	70.83
349.975	-37.72
350.187	25.77
350.399	117.93
350.61	25.77
350.822	-21.33
351.034	17.58
351.246	1.19
351.458	11.43
351.669	17.58
351.881	38.06
352.093	99.5
352.305	74.92
352.517	-19.29
352.728	38.06
352.94	21.67
353.152	89.26
353.363	58.54
353.575	7.34
353.787	-9.05
353.999	-21.33
354.21	13.48
354.422	36.01
354.633	9.39
354.845	-7
355.057	-13.14
355.268	25.77
355.48	-29.52
355.692	-11.09
355.903	19.63
356.115	11.43
356.326	9.39
356.538	-4.95
356.749	36.01
356.961	74.92
357.172	-29.52
357.384	5.29
357.595	25.77
357.807	1.19
358.018	1.19
358.23	58.54
358.441	33.96
358.653	56.49
358.864	58.54
359.075	38.06
359.287	33.96
359.498	54.44
359.709	36.01
359.921	117.93
360.132	-19.29
360.344	-13.14
360.555	68.78
360.766	33.96
360.977	-47.96
361.189	111.78
361.4	-47.96
361.611	83.11
361.823	62.63
362.034	58.54
362.245	-17.24
362.456	1.19
362.667	19.63
362.879	19.63
363.09	-21.33
363.301	17.58
363.512	27.82
363.723	-19.29
363.935	25.77
364.146	-2.9
364.357	-13.14
364.568	46.25
364.779	31.91
364.99	25.77
365.201	40.11
365.412	9.39
365.623	-19.29
365.834	91.31
366.045	50.35
366.256	36.01
366.467	85.16
366.678	25.77
366.889	48.3
367.1	-54.1
367.311	-15.19
367.522	-15.19
367.733	-15.19
367.944	74.92
368.155	9.39
368.366	5.29
368.577	17.58
368.788	60.59
368.999	68.78
369.209	109.74
369.42	74.92
369.631	23.72
369.842	-47.96
370.053	17.58
370.264	124.07
370.474	-23.38
370.685	74.92
370.896	7.34
371.107	52.39
371.317	128.17
371.528	-31.57
371.739	36.01
371.95	21.67
372.16	134.31
372.371	3.24
372.582	-11.09
372.792	-25.43
373.003	-23.38
373.214	11.43
373.424	-4.95
373.635	50.35
373.846	99.5
374.056	23.72
374.267	58.54
374.477	-4.95
374.688	-23.38
374.898	-23.38
375.109	-0.85
375.319	62.63
375.53	25.77
375.74	-70.48
375.951	54.44
376.161	85.16
376.372	68.78
376.582	-23.38
376.793	48.3
377.003	74.92
377.214	-66.39
377.424	-19.29
377.635	7.34
377.845	-19.29
378.055	40.11
378.266	31.91
378.476	25.77
378.686	50.35
378.897	99.5
379.107	89.26
379.317	48.3
379.528	27.82
379.738	93.35
379.948	25.77
380.158	72.87
380.369	48.3
380.579	62.63
380.789	17.58
380.999	64.68
381.21	42.15
381.42	-23.38
381.63	-35.67
381.84	52.39
382.05	19.63
382.261	-19.29
382.471	58.54
382.681	-7
382.891	115.88
383.101	25.77
383.311	-4.95
383.521	19.63
383.731	54.44
383.941	64.68
384.151	-21.33
384.361	70.83
384.571	46.25
384.781	66.73
384.991	-11.09
385.201	79.02
385.411	58.54
385.621	3.24
385.831	91.31
386.041	79.02
386.251	81.07
386.461	107.69
386.671	93.35
386.881	42.15
387.091	31.91
387.301	36.01
387.511	29.87
387.72	1.19
387.93	17.58
388.14	-7
388.35	21.67
388.56	150.7
388.769	42.15
388.979	19.63
389.189	-9.05
389.399	42.15
389.609	33.96
389.818	7.34
390.028	79.02
390.238	54.44
390.447	62.63
390.657	44.2
390.867	13.48
391.076	42.15
391.286	42.15
391.496	44.2
391.705	52.39
391.915	13.48
392.125	42.15
392.334	46.25
392.544	13.48
392.753	46.25
392.963	48.3
393.172	99.5
393.382	33.96
393.591	109.74
393.801	66.73
394.01	115.88
394.22	56.49
394.429	87.21
394.639	9.39
394.848	15.53
395.058	25.77
395.267	66.73
395.477	142.5
395.686	99.5
395.895	23.72
396.105	89.26
396.314	175.27
396.524	44.2
396.733	19.63
396.942	91.31
397.152	5.29
397.361	48.3
397.57	136.36
397.78	31.91
397.989	29.87
398.198	115.88
398.407	-4.95
398.617	91.31
398.826	36.01
399.035	52.39
399.244	119.98
399.453	5.29
399.663	152.74
399.872	66.73
400.081	38.06
400.29	134.31
400.499	60.59
400.708	50.35
400.917	60.59
401.127	-7
401.336	56.49
401.545	107.69
401.754	87.21
401.963	173.22
402.172	48.3
402.381	109.74
402.59	95.4
402.799	101.55
403.008	85.16
403.217	107.69
403.426	-25.43
403.635	87.21
403.844	109.74
404.053	21.67
404.262	33.96
404.471	126.12
404.68	117.93
404.888	167.08
405.097	140.46
405.306	191.66
405.515	93.35
405.724	173.22
405.933	105.64
406.142	54.44
406.35	113.83
406.559	181.42
406.768	126.12
406.977	175.27
407.185	156.84
407.394	109.74
407.603	87.21
407.812	183.46
408.02	142.5
408.229	156.84
408.438	220.33
408.646	117.93
408.855	181.42
409.064	173.22
409.272	195.75
409.481	240.81
409.69	265.38
409.898	185.51
410.107	251.05
410.315	240.81
410.524	193.7
410.733	244.9
410.941	214.18
411.15	345.25
411.358	304.29
411.567	306.34
411.775	242.85
411.984	263.33
412.192	337.06
412.401	312.49
412.609	402.6
412.818	296.1
413.026	273.57
413.234	277.67
413.443	365.73
413.651	361.64
413.86	435.36
414.068	533.67
414.276	476.32
414.485	421.03
414.693	558.24
414.901	560.29
415.11	498.85
415.318	566.43
415.526	468.13
415.734	615.59
415.943	595.11
416.151	623.78
416.359	636.06
416.567	642.21
416.776	693.41
416.984	660.64
417.192	849.05
417.4	697.5
417.608	625.83
417.817	724.13
418.025	789.66
418.233	832.67
418.441	783.52
418.649	922.78
418.857	890.01
419.065	1012.89
419.273	916.64
419.481	955.55
419.689	990.36
419.897	969.88
420.105	1113.24
420.313	1133.72
420.521	1221.78
420.729	1197.21
420.937	1254.55
421.145	1289.37
421.353	1289.37
421.561	1492.12
421.769	1440.92
421.977	1502.36
422.185	1420.44
422.393	1467.54
422.601	1606.8
422.809	1651.86
423.017	1645.71
423.224	1672.34
423.432	1844.37
423.64	1680.53
423.848	1944.72
424.056	1889.42
424.263	1950.86
424.471	2051.21
424.679	2098.31
424.887	2157.71
425.094	2282.63
425.302	2258.06
425.51	2223.24
425.718	2389.13
425.925	2444.42
426.133	2509.96
426.341	2634.88
426.548	2817.15
426.756	2780.29
426.964	2843.78
427.171	2892.93
427.379	3163.26
427.586	3085.44
427.794	3204.22
428.001	3241.08
428.209	3458.17
428.417	3476.6
428.624	3701.87
428.832	3556.47
429.039	3593.33
429.247	3599.48
429.454	3941.49
429.662	4322.41
429.869	3849.33
430.076	4338.79
430.284	4043.88
430.491	4383.85
430.699	4443.24
430.906	4516.97
431.114	4490.34
431.321	4738.15
431.528	4877.41
431.736	5082.21
431.943	5416.02
432.15	5145.69
432.358	5272.67
432.565	5538.9
432.772	5452.89
432.979	5653.59
433.187	5897.3
433.394	5942.35
433.601	6249.55
433.808	6540.36
434.016	6493.26
434.223	6487.11
434.43	7009.34
434.637	7025.73
434.844	7222.33
435.052	7466.04
435.259	7384.12
435.466	7433.27
435.673	7320.63
435.88	8080.43
436.087	8416.3
436.294	8377.39
436.501	8049.71
436.708	8416.3
436.915	8602.66
437.122	8959.01
437.329	8815.65
437.537	9151.52
437.743	9391.13
437.95	9440.28
438.157	9589.78
438.364	10032.15
438.571	10198.03
438.778	10161.17
438.985	10853.38
439.192	10542.09
439.399	11142.14
439.606	10540.04
439.813	11242.5
440.02	11885.56
440.227	11621.37
440.433	11643.9
440.64	11850.74
440.847	11924.47
441.054	12325.87
441.261	12919.78
441.467	13054.95
441.674	13126.63
441.881	13437.92
442.088	13593.56
442.294	13419.49
442.501	13657.05
442.708	13894.61
442.914	14541.77
443.121	15244.23
443.328	14549.96
443.534	15913.91
443.741	15442.88
443.948	15246.27
444.154	16227.25
444.361	16090.04
444.568	16221.11
444.774	16352.18
444.981	16358.32
445.187	16784.3
445.394	17288.1
445.6	17339.3
445.807	19123.08
446.013	18056.09
446.22	18320.28
446.426	19217.29
446.633	19467.14
446.839	19913.59
447.046	19413.89
447.252	20683.63
447.459	20564.85
447.665	20155.26
447.871	21265.25
448.078	22254.42
448.284	21070.7
448.491	21517.15
448.697	22195.03
448.903	22772.56
449.11	22735.7
449.316	22672.21
449.522	22891.34
449.728	23507.78
449.935	23759.68
450.141	23262.02
450.347	24292.15
450.553	23442.24
450.76	23479.11
450.966	24605.49
451.172	24169.27
451.378	24988.46
451.584	24181.56
451.791	25090.86
451.997	25113.39
452.203	25279.27
452.409	25666.34
452.615	25248.55
452.821	24343.35
453.027	24044.35
453.233	25432.87
453.44	24484.66
453.646	24783.66
453.852	24922.93
454.058	25150.25
454.264	24369.97
454.47	25205.55
454.676	24243
454.882	25195.31
455.088	22958.92
455.294	23485.25
455.5	23794.5
455.705	23757.63
455.911	22891.34
456.117	22655.82
456.323	22256.47
456.529	21369.7
456.735	22205.27
456.941	21511.01
457.147	21107.56
457.352	20441.97
457.558	20317.04
457.764	20368.24
457.97	19934.07
458.176	19585.92
458.381	19696.51
458.587	18684.81
458.793	18783.12
458.999	17734.56
459.204	19032.97
459.41	18453.39
459.616	17048.49
459.821	17400.74
460.027	17316.77
460.233	16808.87
460.438	15954.87
460.644	16122.8
460.85	15410.11
461.055	15305.67
461.261	14996.42
461.466	14117.84
461.672	13640.67
461.878	14453.71
462.083	13544.41
462.289	13370.33
462.494	13394.91
462.7	12569.58
462.905	12399.6
463.111	13077.48
463.316	12921.83
463.522	12596.2
463.727	12485.61
463.932	12528.62
464.138	12465.13
464.343	12473.32
464.549	11990
464.754	12610.54
464.959	12254.19
465.165	12229.62
465.37	12010.48
465.575	11359.23
465.781	11832.31
465.986	12116.98
466.191	11531.26
466.397	11355.13
466.602	10685.45
466.807	11219.97
467.012	11310.08
467.218	11158.53
467.423	11092.99
467.628	10920.96
467.833	11273.21
