Data from USB4F104151__39__14-16-41-208.txt Node

Date: Thu Mar 13 14:16:41 EDT 2025
User: louis
Spectrometer: USB4F10415
Trigger mode: 4
Integration Time (sec): 2.000000E-2
Scans to average: 1
Electric dark correction enabled: true
Nonlinearity correction enabled: false
Boxcar width: 0
XAxis mode: Wavelengths
Number of Pixels in Spectrum: 3648
>>>>>Begin Spectral Data<<<<<
178.204	-118.1
178.424	-118.1
178.644	-118.1
178.864	-118.1
179.084	-85.33
179.304	-3.41
179.524	-75.09
179.744	-3.41
179.964	-7.51
180.184	58.03
180.404	47.79
180.624	31.4
180.844	-44.37
181.064	-25.94
181.283	-21.84
181.503	15.02
181.723	29.35
181.943	-60.76
182.163	127.66
182.383	78.51
182.602	-50.52
182.822	62.12
183.042	62.12
183.262	88.75
183.482	62.12
183.701	31.4
183.921	98.99
184.141	-19.8
184.361	115.37
184.58	0.68
184.8	29.35
185.02	37.55
185.239	37.55
185.459	72.36
185.679	70.31
185.898	45.74
186.118	58.03
186.338	15.02
186.557	45.74
186.777	21.16
186.997	-42.32
187.216	21.16
187.436	115.37
187.655	96.94
187.875	29.35
188.095	-17.75
188.314	-3.41
188.534	92.84
188.753	12.97
188.973	74.41
189.192	35.5
189.412	131.75
189.631	-9.56
189.851	107.18
190.07	113.32
190.29	-19.8
190.509	6.83
190.729	-34.13
190.948	17.07
191.168	150.18
191.387	82.6
191.607	51.88
191.826	43.69
192.045	-3.41
192.265	6.83
192.484	37.55
192.704	45.74
192.923	-19.8
193.142	80.55
193.362	88.75
193.581	47.79
193.8	2.73
194.02	70.31
194.239	-36.18
194.458	78.51
194.678	8.87
194.897	-30.04
195.116	29.35
195.335	29.35
195.555	53.93
195.774	-36.18
195.993	12.97
196.212	31.4
196.432	12.97
196.651	86.7
196.87	-19.8
197.089	41.64
197.308	45.74
197.528	55.98
197.747	-44.37
197.966	-3.41
198.185	53.93
198.404	4.78
198.623	68.27
198.842	45.74
199.062	107.18
199.281	96.94
199.5	41.64
199.719	53.93
199.938	53.93
200.157	86.7
200.376	58.03
200.595	8.87
200.814	29.35
201.033	17.07
201.252	92.84
201.471	4.78
201.69	53.93
201.909	-15.7
202.128	31.4
202.347	103.08
202.566	78.51
202.785	55.98
203.004	33.45
203.223	96.94
203.442	74.41
203.661	45.74
203.879	94.89
204.098	39.59
204.317	-19.8
204.536	53.93
204.755	37.55
204.974	53.93
205.193	8.87
205.411	135.85
205.63	49.83
205.849	23.21
206.068	-15.7
206.287	41.64
206.505	66.22
206.724	72.36
206.943	47.79
207.162	88.75
207.381	35.5
207.599	12.97
207.818	12.97
208.037	8.87
208.255	-21.84
208.474	86.7
208.693	66.22
208.911	-11.61
209.13	119.46
209.349	31.4
209.567	45.74
209.786	12.97
210.005	135.85
210.223	103.08
210.442	-44.37
210.661	70.31
210.879	82.6
211.098	103.08
211.316	127.66
211.535	45.74
211.753	41.64
211.972	88.75
212.191	0.68
212.409	72.36
212.628	-9.56
212.846	19.11
213.065	23.21
213.283	66.22
213.502	31.4
213.72	55.98
213.938	45.74
214.157	72.36
214.375	78.51
214.594	23.21
214.812	53.93
215.031	80.55
215.249	70.31
215.467	8.87
215.686	72.36
215.904	103.08
216.122	-30.04
216.341	88.75
216.559	74.41
216.778	19.11
216.996	12.97
217.214	-54.61
217.432	15.02
217.651	21.16
217.869	29.35
218.087	-27.99
218.306	41.64
218.524	121.51
218.742	70.31
218.96	49.83
219.179	62.12
219.397	-9.56
219.615	86.7
219.833	8.87
220.051	4.78
220.27	94.89
220.488	23.21
220.706	8.87
220.924	-40.28
221.142	84.65
221.36	43.69
221.578	15.02
221.796	-7.51
222.015	49.83
222.233	53.93
222.451	41.64
222.669	17.07
222.887	84.65
223.105	-77.14
223.323	17.07
223.541	29.35
223.759	66.22
223.977	37.55
224.195	90.79
224.413	2.73
224.631	96.94
224.849	101.03
225.067	185
225.285	41.64
225.503	15.02
225.721	74.41
225.939	74.41
226.157	15.02
226.375	82.6
226.592	-11.61
226.81	86.7
227.028	31.4
227.246	37.55
227.464	-42.32
227.682	62.12
227.9	49.83
228.117	39.59
228.335	49.83
228.553	23.21
228.771	4.78
228.989	109.23
229.206	37.55
229.424	33.45
229.642	45.74
229.86	-5.46
230.077	29.35
230.295	45.74
230.513	4.78
230.731	111.27
230.948	74.41
231.166	39.59
231.384	78.51
231.601	90.79
231.819	86.7
232.037	-11.61
232.254	-19.8
232.472	66.22
232.689	2.73
232.907	0.68
233.125	49.83
233.342	78.51
233.56	70.31
233.777	51.88
233.995	12.97
234.213	74.41
234.43	88.75
234.648	113.32
234.865	58.03
235.083	45.74
235.3	39.59
235.518	51.88
235.735	45.74
235.953	51.88
236.17	53.93
236.388	27.31
236.605	41.64
236.822	92.84
237.04	45.74
237.257	12.97
237.475	-56.66
237.692	62.12
237.909	88.75
238.127	53.93
238.344	6.83
238.562	62.12
238.779	17.07
238.996	41.64
239.214	60.07
239.431	127.66
239.648	31.4
239.865	86.7
240.083	98.99
240.3	-19.8
240.517	-44.37
240.735	64.17
240.952	146.09
241.169	47.79
241.386	23.21
241.603	-1.37
241.821	51.88
242.038	37.55
242.255	6.83
242.472	58.03
242.689	41.64
242.907	72.36
243.124	0.68
243.341	21.16
243.558	17.07
243.775	15.02
243.992	80.55
244.209	39.59
244.426	58.03
244.643	-19.8
244.86	15.02
245.078	55.98
245.295	15.02
245.512	-3.41
245.729	74.41
245.946	86.7
246.163	29.35
246.38	43.69
246.597	49.83
246.814	31.4
247.031	64.17
247.248	15.02
247.464	15.02
247.681	6.83
247.898	70.31
248.115	47.79
248.332	29.35
248.549	98.99
248.766	98.99
248.983	12.97
249.2	8.87
249.417	58.03
249.633	49.83
249.85	82.6
250.067	70.31
250.284	8.87
250.501	58.03
250.717	43.69
250.934	29.35
251.151	29.35
251.368	60.07
251.585	94.89
251.801	39.59
252.018	-3.41
252.235	-3.41
252.451	8.87
252.668	49.83
252.885	49.83
253.102	66.22
253.318	17.07
253.535	64.17
253.752	-42.32
253.968	29.35
254.185	64.17
254.401	17.07
254.618	35.5
254.835	64.17
255.051	119.46
255.268	29.35
255.484	12.97
255.701	39.59
255.917	88.75
256.134	49.83
256.351	23.21
256.567	33.45
256.784	45.74
257	0.68
257.217	53.93
257.433	86.7
257.65	31.4
257.866	62.12
258.082	-21.84
258.299	51.88
258.515	37.55
258.732	39.59
258.948	55.98
259.165	39.59
259.381	-3.41
259.597	37.55
259.814	60.07
260.03	4.78
260.246	45.74
260.463	53.93
260.679	47.79
260.895	27.31
261.112	152.23
261.328	-23.89
261.544	-19.8
261.761	127.66
261.977	-34.13
262.193	6.83
262.409	86.7
262.626	25.26
262.842	6.83
263.058	29.35
263.274	62.12
263.49	53.93
263.707	39.59
263.923	41.64
264.139	51.88
264.355	12.97
264.571	72.36
264.787	17.07
265.004	25.26
265.22	-7.51
265.436	-17.75
265.652	6.83
265.868	60.07
266.084	60.07
266.3	-13.65
266.516	-7.51
266.732	37.55
266.948	45.74
267.164	-11.61
267.38	47.79
267.596	21.16
267.812	135.85
268.028	113.32
268.244	74.41
268.46	115.37
268.676	115.37
268.892	41.64
269.108	43.69
269.324	-27.99
269.54	27.31
269.756	53.93
269.972	2.73
270.188	17.07
270.403	-9.56
270.619	17.07
270.835	21.16
271.051	4.78
271.267	-5.46
271.483	78.51
271.698	25.26
271.914	58.03
272.13	35.5
272.346	31.4
272.562	-40.28
272.777	21.16
272.993	2.73
273.209	21.16
273.425	103.08
273.64	6.83
273.856	15.02
274.072	0.68
274.287	27.31
274.503	103.08
274.719	12.97
274.934	45.74
275.15	4.78
275.366	-9.56
275.581	10.92
275.797	-11.61
276.012	37.55
276.228	-3.41
276.444	70.31
276.659	53.93
276.875	-15.7
277.09	29.35
277.306	137.9
277.521	78.51
277.737	-97.62
277.952	160.42
278.168	2.73
278.383	88.75
278.599	55.98
278.814	55.98
279.03	23.21
279.245	162.47
279.461	74.41
279.676	53.93
279.892	-54.61
280.107	-30.04
280.322	23.21
280.538	43.69
280.753	72.36
280.969	78.51
281.184	78.51
281.399	78.51
281.615	49.83
281.83	27.31
282.045	21.16
282.26	29.35
282.476	103.08
282.691	51.88
282.906	-13.65
283.122	111.27
283.337	-3.41
283.552	98.99
283.767	12.97
283.983	37.55
284.198	17.07
284.413	47.79
284.628	27.31
284.843	96.94
285.058	47.79
285.274	8.87
285.489	45.74
285.704	31.4
285.919	41.64
286.134	55.98
286.349	41.64
286.564	94.89
286.779	88.75
286.995	39.59
287.21	29.35
287.425	74.41
287.64	31.4
287.855	66.22
288.07	43.69
288.285	66.22
288.5	33.45
288.715	35.5
288.93	86.7
289.145	62.12
289.36	33.45
289.575	-7.51
289.79	70.31
290.004	-11.61
290.219	43.69
290.434	43.69
290.649	-25.94
290.864	60.07
291.079	131.75
291.294	45.74
291.509	80.55
291.724	101.03
291.938	86.7
292.153	37.55
292.368	-27.99
292.583	47.79
292.798	-7.51
293.012	12.97
293.227	66.22
293.442	-25.94
293.657	64.17
293.871	64.17
294.086	49.83
294.301	98.99
294.516	31.4
294.73	109.23
294.945	43.69
295.16	64.17
295.374	66.22
295.589	39.59
295.804	8.87
296.018	80.55
296.233	135.85
296.447	64.17
296.662	51.88
296.877	62.12
297.091	8.87
297.306	23.21
297.52	127.66
297.735	17.07
297.949	-19.8
298.164	23.21
298.378	39.59
298.593	53.93
298.807	-19.8
299.022	66.22
299.236	111.27
299.451	23.21
299.665	123.56
299.88	51.88
300.094	39.59
300.309	37.55
300.523	60.07
300.737	80.55
300.952	51.88
301.166	60.07
301.381	27.31
301.595	6.83
301.809	29.35
302.024	70.31
302.238	49.83
302.452	62.12
302.667	119.46
302.881	58.03
303.095	78.51
303.309	127.66
303.524	39.59
303.738	27.31
303.952	37.55
304.166	66.22
304.381	-23.89
304.595	39.59
304.809	29.35
305.023	82.6
305.237	66.22
305.452	66.22
305.666	-19.8
305.88	45.74
306.094	37.55
306.308	49.83
306.522	33.45
306.736	78.51
306.95	4.78
307.164	39.59
307.379	47.79
307.593	62.12
307.807	64.17
308.021	-5.46
308.235	66.22
308.449	29.35
308.663	39.59
308.877	72.36
309.091	60.07
309.305	29.35
309.519	33.45
309.733	94.89
309.947	70.31
310.161	-40.28
310.374	86.7
310.588	58.03
310.802	8.87
311.016	58.03
311.23	64.17
311.444	31.4
311.658	55.98
311.872	66.22
312.085	17.07
312.299	98.99
312.513	74.41
312.727	55.98
312.941	109.23
313.154	6.83
313.368	41.64
313.582	103.08
313.796	80.55
314.009	45.74
314.223	55.98
314.437	4.78
314.651	109.23
314.864	109.23
315.078	21.16
315.292	31.4
315.505	47.79
315.719	94.89
315.933	72.36
316.146	-27.99
316.36	-7.51
316.573	41.64
316.787	58.03
317.001	86.7
317.214	47.79
317.428	37.55
317.641	-1.37
317.855	88.75
318.068	-5.46
318.282	43.69
318.495	135.85
318.709	78.51
318.922	27.31
319.136	49.83
319.349	68.27
319.563	49.83
319.776	70.31
319.99	33.45
320.203	0.68
320.417	86.7
320.63	64.17
320.843	72.36
321.057	86.7
321.27	29.35
321.483	21.16
321.697	86.7
321.91	-1.37
322.124	47.79
322.337	49.83
322.55	23.21
322.763	10.92
322.977	64.17
323.19	8.87
323.403	-17.75
323.617	-9.56
323.83	70.31
324.043	-3.41
324.256	17.07
324.469	45.74
324.683	31.4
324.896	53.93
325.109	62.12
325.322	-34.13
325.535	90.79
325.748	62.12
325.962	78.51
326.175	53.93
326.388	41.64
326.601	58.03
326.814	152.23
327.027	23.21
327.24	72.36
327.453	12.97
327.666	78.51
327.879	39.59
328.092	45.74
328.305	29.35
328.518	-11.61
328.731	12.97
328.944	90.79
329.157	43.69
329.37	64.17
329.583	68.27
329.796	133.8
330.009	-52.56
330.222	98.99
330.435	78.51
330.648	78.51
330.861	90.79
331.073	31.4
331.286	66.22
331.499	49.83
331.712	-19.8
331.925	47.79
332.138	47.79
332.35	37.55
332.563	37.55
332.776	111.27
332.989	-3.41
333.202	37.55
333.414	10.92
333.627	4.78
333.84	101.03
334.053	107.18
334.265	70.31
334.478	17.07
334.691	51.88
334.903	41.64
335.116	53.93
335.329	58.03
335.541	70.31
335.754	12.97
335.966	-17.75
336.179	37.55
336.392	70.31
336.604	98.99
336.817	-11.61
337.029	92.84
337.242	58.03
337.454	88.75
337.667	94.89
337.88	74.41
338.092	4.78
338.305	53.93
338.517	-15.7
338.729	105.13
338.942	29.35
339.154	-15.7
339.367	58.03
339.579	47.79
339.792	66.22
340.004	113.32
340.217	41.64
340.429	37.55
340.641	29.35
340.854	0.68
341.066	15.02
341.278	137.9
341.491	80.55
341.703	12.97
341.915	-25.94
342.128	70.31
342.34	39.59
342.552	45.74
342.764	86.7
342.977	135.85
343.189	78.51
343.401	53.93
343.613	53.93
343.826	58.03
344.038	0.68
344.25	27.31
344.462	72.36
344.674	74.41
344.886	-11.61
345.099	33.45
345.311	51.88
345.523	41.64
345.735	4.78
345.947	45.74
346.159	4.78
346.371	90.79
346.583	-3.41
346.795	41.64
347.007	72.36
347.219	105.13
347.431	35.5
347.643	47.79
347.855	51.88
348.067	109.23
348.279	49.83
348.491	74.41
348.703	84.65
348.915	-3.41
349.127	60.07
349.339	103.08
349.551	64.17
349.763	98.99
349.975	74.41
350.187	41.64
350.399	49.83
350.61	64.17
350.822	37.55
351.034	96.94
351.246	58.03
351.458	-19.8
351.669	15.02
351.881	21.16
352.093	82.6
352.305	21.16
352.517	12.97
352.728	53.93
352.94	103.08
353.152	62.12
353.363	37.55
353.575	78.51
353.787	98.99
353.999	94.89
354.21	37.55
354.422	82.6
354.633	12.97
354.845	80.55
355.057	-30.04
355.268	49.83
355.48	-32.08
355.692	55.98
355.903	70.31
356.115	53.93
356.326	47.79
356.538	64.17
356.749	53.93
356.961	60.07
357.172	41.64
357.384	4.78
357.595	113.32
357.807	98.99
358.018	4.78
358.23	33.45
358.441	117.42
358.653	195.24
358.864	58.03
359.075	78.51
359.287	43.69
359.498	80.55
359.709	58.03
359.921	72.36
360.132	51.88
360.344	17.07
360.555	25.26
360.766	78.51
360.977	55.98
361.189	82.6
361.4	62.12
361.611	80.55
361.823	19.11
362.034	-3.41
362.245	2.73
362.456	74.41
362.667	17.07
362.879	90.79
363.09	125.61
363.301	62.12
363.512	70.31
363.723	-7.51
363.935	17.07
364.146	55.98
364.357	4.78
364.568	53.93
364.779	-11.61
364.99	146.09
365.201	105.13
365.412	66.22
365.623	-13.65
365.834	111.27
366.045	-1.37
366.256	60.07
366.467	58.03
366.678	33.45
366.889	70.31
367.1	94.89
367.311	113.32
367.522	27.31
367.733	53.93
367.944	37.55
368.155	37.55
368.366	107.18
368.577	121.51
368.788	107.18
368.999	12.97
369.209	96.94
369.42	148.14
369.631	98.99
369.842	113.32
370.053	25.26
370.264	113.32
370.474	96.94
370.685	68.27
370.896	86.7
371.107	90.79
371.317	131.75
371.528	-36.18
371.739	146.09
371.95	129.7
372.16	139.94
372.371	64.17
372.582	17.07
372.792	15.02
373.003	-11.61
373.214	70.31
373.424	96.94
373.635	12.97
373.846	66.22
374.056	45.74
374.267	-44.37
374.477	33.45
374.688	-25.94
374.898	82.6
375.109	115.37
375.319	2.73
375.53	37.55
375.74	66.22
375.951	51.88
376.161	70.31
376.372	164.52
376.582	37.55
376.793	-11.61
377.003	68.27
377.214	105.13
377.424	119.46
377.635	47.79
377.845	23.21
378.055	72.36
378.266	23.21
378.476	84.65
378.686	51.88
378.897	78.51
379.107	12.97
379.317	45.74
379.528	21.16
379.738	55.98
379.948	90.79
380.158	74.41
380.369	49.83
380.579	96.94
380.789	76.46
380.999	66.22
381.21	90.79
381.42	103.08
381.63	86.7
381.84	90.79
382.05	88.75
382.261	51.88
382.471	156.33
382.681	109.23
382.891	-3.41
383.101	119.46
383.311	58.03
383.521	-9.56
383.731	37.55
383.941	78.51
384.151	76.46
384.361	98.99
384.571	60.07
384.781	101.03
384.991	4.78
385.201	82.6
385.411	66.22
385.621	90.79
385.831	58.03
386.041	150.18
386.251	72.36
386.461	45.74
386.671	78.51
386.881	68.27
387.091	29.35
387.301	41.64
387.511	15.02
387.72	62.12
387.93	111.27
388.14	49.83
388.35	88.75
388.56	72.36
388.769	78.51
388.979	45.74
389.189	72.36
389.399	31.4
389.609	119.46
389.818	86.7
390.028	92.84
390.238	135.85
390.447	62.12
390.657	98.99
390.867	62.12
391.076	84.65
391.286	144.04
391.496	60.07
391.705	53.93
391.915	139.94
392.125	53.93
392.334	86.7
392.544	70.31
392.753	76.46
392.963	47.79
393.172	152.23
393.382	84.65
393.591	92.84
393.801	113.32
394.01	78.51
394.22	103.08
394.429	168.62
394.639	31.4
394.848	80.55
395.058	103.08
395.267	107.18
395.477	86.7
395.686	41.64
395.895	121.51
396.105	80.55
396.314	101.03
396.524	78.51
396.733	82.6
396.942	101.03
397.152	92.84
397.361	137.9
397.57	144.04
397.78	121.51
397.989	154.28
398.198	127.66
398.407	8.87
398.617	80.55
398.826	105.13
399.035	133.8
399.244	58.03
399.453	197.29
399.663	135.85
399.872	150.18
400.081	45.74
400.29	129.7
400.499	19.11
400.708	96.94
400.917	152.23
401.127	135.85
401.336	72.36
401.545	127.66
401.754	182.95
401.963	225.96
402.172	47.79
402.381	98.99
402.59	137.9
402.799	144.04
403.008	86.7
403.217	137.9
403.426	180.9
403.635	76.46
403.844	105.13
404.053	176.81
404.262	158.38
404.471	172.71
404.68	209.58
404.888	129.7
405.097	180.9
405.306	156.33
405.515	152.23
405.724	154.28
405.933	191.14
406.142	135.85
406.35	238.25
406.559	225.96
406.768	197.29
406.977	281.25
407.185	232.1
407.394	230.06
407.603	172.71
407.812	230.06
408.02	283.3
408.229	316.07
408.438	213.67
408.646	242.34
408.855	301.73
409.064	268.97
409.272	295.59
409.481	316.07
409.69	363.17
409.898	311.97
410.107	303.78
410.315	430.76
410.524	350.89
410.733	363.17
410.941	268.97
411.15	393.89
411.358	428.71
411.567	406.18
411.775	504.48
411.984	436.9
412.192	471.72
412.401	512.67
412.609	514.72
412.818	512.67
413.026	479.91
413.234	529.06
413.443	447.14
413.651	488.1
413.86	588.45
414.068	596.64
414.276	717.47
414.485	705.18
414.693	688.8
414.901	740
415.11	676.51
415.318	729.76
415.526	711.33
415.734	711.33
415.943	766.62
416.151	891.55
416.359	832.16
416.567	887.45
416.776	938.65
416.984	1022.62
417.192	979.61
417.4	1032.86
417.608	1045.15
417.817	1114.78
418.025	1131.16
418.233	1192.6
418.441	1227.42
418.649	1241.75
418.857	1352.34
419.065	1417.88
419.273	1307.29
419.481	1319.57
419.689	1481.36
419.897	1473.17
420.105	1346.2
420.313	1561.23
420.521	1555.09
420.729	1575.57
420.937	1688.21
421.145	1745.55
421.353	1804.94
421.561	1919.63
421.769	1903.25
421.977	2044.56
422.185	2028.17
422.393	2114.19
422.601	2220.68
422.809	2204.3
423.017	2316.94
423.224	2339.46
423.432	2443.91
423.64	2454.15
423.848	2728.58
424.056	2683.52
424.263	2828.93
424.471	2769.54
424.679	2962.05
424.887	2904.7
425.094	3140.22
425.302	3105.4
425.51	3234.43
425.718	3373.69
425.925	3414.65
426.133	3504.76
426.341	3701.36
426.548	3797.62
426.756	3682.93
426.964	3865.2
427.171	4180.59
427.379	4315.75
427.586	4381.29
427.794	4395.62
428.001	4641.38
428.209	5005.92
428.417	4723.3
428.624	4995.68
428.832	5151.32
429.039	5007.97
429.247	4948.58
429.454	5497.43
429.662	5868.11
429.869	5456.47
430.076	5962.32
430.284	5753.43
430.491	5943.89
430.699	6357.58
430.906	6394.44
431.114	6464.07
431.321	6664.77
431.528	6713.92
431.736	7144
431.943	7598.65
432.15	7383.61
432.358	7279.16
432.565	7625.27
432.772	7758.39
432.979	8106.54
433.187	8292.91
433.394	8370.73
433.601	8905.25
433.808	8935.97
434.016	8741.41
434.223	9257.5
434.43	9540.12
434.637	9525.79
434.844	10111.5
435.052	10330.64
435.259	10430.99
435.466	10656.26
435.673	10293.77
435.88	11065.86
436.087	11407.87
436.294	11653.62
436.501	11358.72
436.708	11485.69
436.915	11977.2
437.122	12286.45
437.329	12229.1
437.537	12810.73
437.743	12904.93
437.95	12896.74
438.157	13529.56
438.364	14045.65
438.571	14135.76
438.778	14000.6
438.985	15507.9
439.192	14668.23
439.399	15301.06
439.606	14897.61
439.813	16021.94
440.02	16769.45
440.227	16318.9
440.433	16269.75
440.64	16894.38
440.847	16894.38
441.054	17070.5
441.261	18207.12
441.467	17908.12
441.674	18373.01
441.881	19173.77
442.088	18772.36
442.294	19028.36
442.501	19239.3
442.708	19546.5
442.914	20535.67
443.121	21299.56
443.328	20572.53
443.534	21993.82
443.741	21651.81
443.948	21313.89
444.154	22847.82
444.361	22593.87
444.568	22712.66
444.774	22487.38
444.981	23394.63
445.187	23857.47
445.394	24381.75
445.6	24453.43
445.807	26458.39
446.013	25239.85
446.22	25889.06
446.426	27066.64
446.633	27220.24
446.839	28250.36
447.046	27080.97
447.252	28590.33
447.459	28270.84
447.665	28465.4
447.871	29919.46
448.078	30718.17
448.284	29565.16
448.491	30572.76
448.697	31275.21
448.903	32073.92
449.11	32196.8
449.316	31551.69
449.522	32067.78
449.728	33122.48
449.935	33058.99
450.141	32981.17
450.347	33798.31
450.553	33196.21
450.76	33378.48
450.966	34693.27
451.172	33859.75
451.378	34914.45
451.584	33933.48
451.791	35186.83
451.997	35006.61
452.203	35635.34
452.409	35594.38
452.615	35395.73
452.821	34021.54
453.027	33824.93
453.233	35645.58
453.44	34203.81
453.646	34416.8
453.852	34652.31
454.058	34922.65
454.264	34085.03
454.47	35422.35
454.676	33573.03
454.882	35283.09
455.088	31758.53
455.294	32469.18
455.5	33157.3
455.705	33579.18
455.911	32387.26
456.117	31627.46
456.323	30955.73
456.529	29456.62
456.735	30847.19
456.941	29872.35
457.147	29892.83
457.352	29018.35
457.558	28180.73
457.764	28344.57
457.97	28170.49
458.176	27347.21
458.381	27312.39
458.587	25760.03
458.793	26059.04
458.999	24709.43
459.204	26614.04
459.41	25764.13
459.616	24111.42
459.821	24039.74
460.027	23923.01
460.233	23417.16
460.438	22526.29
460.644	22597.97
460.85	21444.96
461.055	21283.17
461.261	21004.65
461.466	19626.37
461.672	18860.43
461.878	20234.61
462.083	19190.15
462.289	18913.67
462.494	18485.65
462.7	17865.11
462.905	17359.27
463.111	17797.53
463.316	17938.84
463.522	17396.13
463.727	17394.08
463.932	17398.18
464.138	17017.25
464.343	17318.31
464.549	16718.25
464.754	17652.13
464.959	17365.41
465.165	17084.84
465.37	16382.38
465.575	15872.44
465.781	16576.94
465.986	16705.96
466.191	15987.13
466.397	15636.92
466.602	15151.56
466.807	15583.68
467.012	15704.51
467.218	15638.97
467.423	15380.93
