Data from USB4F104151__271__14-23-14-987.txt Node

Date: Thu Mar 13 14:23:14 EDT 2025
User: louis
Spectrometer: USB4F10415
Trigger mode: 4
Integration Time (sec): 2.000000E-2
Scans to average: 1
Electric dark correction enabled: true
Nonlinearity correction enabled: false
Boxcar width: 0
XAxis mode: Wavelengths
Number of Pixels in Spectrum: 3648
>>>>>Begin Spectral Data<<<<<
178.204	-103.76
178.424	-103.76
178.644	-103.76
178.864	-126.29
179.084	-95.57
179.304	-17.75
179.524	-75.09
179.744	72.36
179.964	41.64
180.184	21.16
180.404	25.26
180.624	-103.76
180.844	8.87
181.064	-5.46
181.283	17.07
181.503	-38.23
181.723	53.93
181.943	-32.08
182.163	0.68
182.383	-36.18
182.602	68.27
182.822	-5.46
183.042	6.83
183.262	-25.94
183.482	33.45
183.701	6.83
183.921	39.59
184.141	-17.75
184.361	19.11
184.58	43.69
184.8	10.92
185.02	-75.09
185.239	12.97
185.459	23.21
185.679	96.94
185.898	23.21
186.118	39.59
186.338	-7.51
186.557	64.17
186.777	25.26
186.997	88.75
187.216	-19.8
187.436	-17.75
187.655	19.11
187.875	80.55
188.095	111.27
188.314	33.45
188.534	25.26
188.753	-32.08
188.973	96.94
189.192	74.41
189.412	84.65
189.631	53.93
189.851	-27.99
190.07	15.02
190.29	10.92
190.509	23.21
190.729	-1.37
190.948	92.84
191.168	96.94
191.387	74.41
191.607	-23.89
191.826	-1.37
192.045	8.87
192.265	-79.19
192.484	82.6
192.704	-17.75
192.923	-40.28
193.142	51.88
193.362	23.21
193.581	6.83
193.8	31.4
194.02	23.21
194.239	-25.94
194.458	-17.75
194.678	-17.75
194.897	29.35
195.116	-1.37
195.335	39.59
195.555	35.5
195.774	-17.75
195.993	25.26
196.212	35.5
196.432	-5.46
196.651	-13.65
196.87	31.4
197.089	76.46
197.308	84.65
197.528	53.93
197.747	-7.51
197.966	51.88
198.185	27.31
198.404	6.83
198.623	107.18
198.842	70.31
199.062	88.75
199.281	43.69
199.5	15.02
199.719	-34.13
199.938	4.78
200.157	152.23
200.376	55.98
200.595	72.36
200.814	-11.61
201.033	6.83
201.252	27.31
201.471	41.64
201.69	55.98
201.909	146.09
202.128	76.46
202.347	43.69
202.566	8.87
202.785	-5.46
203.004	-27.99
203.223	113.32
203.442	15.02
203.661	51.88
203.879	47.79
204.098	47.79
204.317	23.21
204.536	62.12
204.755	-9.56
204.974	105.13
205.193	19.11
205.411	80.55
205.63	-30.04
205.849	41.64
206.068	107.18
206.287	84.65
206.505	96.94
206.724	80.55
206.943	-3.41
207.162	-13.65
207.381	39.59
207.599	19.11
207.818	49.83
208.037	8.87
208.255	2.73
208.474	31.4
208.693	25.26
208.911	-1.37
209.13	-1.37
209.349	21.16
209.567	23.21
209.786	90.79
210.005	74.41
210.223	-42.32
210.442	37.55
210.661	33.45
210.879	17.07
211.098	4.78
211.316	66.22
211.535	15.02
211.753	76.46
211.972	58.03
212.191	43.69
212.409	-23.89
212.628	51.88
212.846	-7.51
213.065	41.64
213.283	55.98
213.502	39.59
213.72	74.41
213.938	113.32
214.157	35.5
214.375	23.21
214.594	47.79
214.812	21.16
215.031	19.11
215.249	15.02
215.467	-40.28
215.686	55.98
215.904	51.88
216.122	76.46
216.341	39.59
216.559	53.93
216.778	47.79
216.996	23.21
217.214	-7.51
217.432	47.79
217.651	31.4
217.869	-25.94
218.087	23.21
218.306	66.22
218.524	133.8
218.742	23.21
218.96	23.21
219.179	12.97
219.397	6.83
219.615	74.41
219.833	0.68
220.051	0.68
220.27	107.18
220.488	39.59
220.706	35.5
220.924	-34.13
221.142	64.17
221.36	84.65
221.578	80.55
221.796	31.4
222.015	51.88
222.233	43.69
222.451	41.64
222.669	8.87
222.887	2.73
223.105	19.11
223.323	6.83
223.541	66.22
223.759	19.11
223.977	25.26
224.195	6.83
224.413	43.69
224.631	82.6
224.849	86.7
225.067	64.17
225.285	-5.46
225.503	47.79
225.721	-17.75
225.939	8.87
226.157	0.68
226.375	41.64
226.592	-62.8
226.81	2.73
227.028	88.75
227.246	96.94
227.464	55.98
227.682	115.37
227.9	19.11
228.117	33.45
228.335	55.98
228.553	0.68
228.771	66.22
228.989	6.83
229.206	21.16
229.424	-50.52
229.642	-23.89
229.86	80.55
230.077	107.18
230.295	41.64
230.513	15.02
230.731	60.07
230.948	119.46
231.166	90.79
231.384	-56.66
231.601	-7.51
231.819	51.88
232.037	19.11
232.254	62.12
232.472	8.87
232.689	31.4
232.907	55.98
233.125	-1.37
233.342	39.59
233.56	0.68
233.777	27.31
233.995	68.27
234.213	90.79
234.43	55.98
234.648	-23.89
234.865	41.64
235.083	66.22
235.3	-19.8
235.518	15.02
235.735	39.59
235.953	72.36
236.17	-1.37
236.388	80.55
236.605	-17.75
236.822	90.79
237.04	17.07
237.257	96.94
237.475	-21.85
237.692	4.78
237.909	15.02
238.127	0.68
238.344	23.21
238.562	115.37
238.779	4.78
238.996	74.41
239.214	0.68
239.431	82.6
239.648	-13.65
239.865	135.85
240.083	68.27
240.3	51.88
240.517	25.26
240.735	4.78
240.952	55.98
241.169	-23.89
241.386	84.65
241.603	8.87
241.821	25.26
242.038	23.21
242.255	47.79
242.472	70.31
242.689	-7.51
242.907	76.46
243.124	6.83
243.341	90.79
243.558	17.07
243.775	64.17
243.992	27.31
244.209	15.02
244.426	111.27
244.643	166.57
244.86	-13.65
245.078	0.68
245.295	55.98
245.512	23.21
245.729	41.64
245.946	15.02
246.163	15.02
246.38	55.98
246.597	10.92
246.814	-23.89
247.031	-3.41
247.248	8.87
247.464	6.83
247.681	82.6
247.898	23.21
248.115	88.75
248.332	-34.13
248.549	80.55
248.766	121.51
248.983	78.51
249.2	-44.37
249.417	80.55
249.633	29.35
249.85	88.75
250.067	6.83
250.284	-1.37
250.501	23.21
250.717	41.64
250.934	37.55
251.151	15.02
251.368	31.4
251.585	47.79
251.801	51.88
252.018	2.73
252.235	47.79
252.451	-44.37
252.668	39.59
252.885	78.51
253.102	80.55
253.318	41.64
253.535	-9.56
253.752	70.31
253.968	39.59
254.185	15.02
254.401	-11.61
254.618	47.79
254.835	23.21
255.051	94.89
255.268	47.79
255.484	-1.37
255.701	23.21
255.917	-21.85
256.134	27.31
256.351	-9.56
256.567	-130.39
256.784	72.36
257	-5.46
257.217	55.98
257.433	-50.52
257.65	-1.37
257.866	-7.51
258.082	-25.94
258.299	8.87
258.515	88.75
258.732	74.41
258.948	45.74
259.165	62.12
259.381	-30.04
259.597	82.6
259.814	6.83
260.03	8.87
260.246	17.07
260.463	103.08
260.679	98.99
260.895	58.03
261.112	-9.56
261.328	33.45
261.544	8.87
261.761	135.85
261.977	-50.52
262.193	55.98
262.409	39.59
262.626	31.4
262.842	35.5
263.058	-5.46
263.274	-13.65
263.49	25.26
263.707	78.51
263.923	8.87
264.139	31.4
264.355	68.27
264.571	107.18
264.787	8.87
265.004	-15.7
265.22	-1.37
265.436	55.98
265.652	-9.56
265.868	-56.66
266.084	41.64
266.3	39.59
266.516	53.93
266.732	-38.23
266.948	21.16
267.164	10.92
267.38	10.92
267.596	76.46
267.812	47.79
268.028	88.75
268.244	41.64
268.46	39.59
268.676	35.5
268.892	31.4
269.108	29.35
269.324	117.42
269.54	-1.37
269.756	139.94
269.972	15.02
270.188	49.83
270.403	21.16
270.619	121.51
270.835	4.78
271.051	64.17
271.267	12.97
271.483	39.59
271.698	90.79
271.914	90.79
272.13	92.84
272.346	-1.37
272.562	29.35
272.777	58.03
272.993	-7.51
273.209	92.84
273.425	72.36
273.64	-19.8
273.856	58.03
274.072	-11.61
274.287	-9.56
274.503	4.78
274.719	31.4
274.934	15.02
275.15	10.92
275.366	27.31
275.581	43.69
275.797	-3.41
276.012	72.36
276.228	4.78
276.444	96.94
276.659	64.17
276.875	74.41
277.09	101.03
277.306	70.31
277.521	39.59
277.737	-9.56
277.952	64.17
278.168	72.36
278.383	129.7
278.599	80.55
278.814	55.98
279.03	-23.89
279.245	96.94
279.461	74.41
279.676	72.36
279.892	64.17
280.107	19.11
280.322	68.27
280.538	84.65
280.753	72.36
280.969	8.87
281.184	15.02
281.399	55.98
281.615	-36.18
281.83	39.59
282.045	-17.75
282.26	23.21
282.476	98.99
282.691	39.59
282.906	43.69
283.122	68.27
283.337	107.18
283.552	105.13
283.767	29.35
283.983	51.88
284.198	107.18
284.413	47.79
284.628	31.4
284.843	141.99
285.058	150.18
285.274	31.4
285.489	55.98
285.704	80.55
285.919	68.27
286.134	-128.34
286.349	35.5
286.564	29.35
286.779	154.28
286.995	41.64
287.21	-38.23
287.425	0.68
287.64	6.83
287.855	-21.85
288.07	-7.51
288.285	115.37
288.5	60.07
288.715	72.36
288.93	25.26
289.145	29.35
289.36	41.64
289.575	43.69
289.79	80.55
290.004	12.97
290.219	60.07
290.434	15.02
290.649	45.74
290.864	51.88
291.079	-15.7
291.294	31.4
291.509	17.07
291.724	55.98
291.938	6.83
292.153	117.42
292.368	64.17
292.583	72.36
292.798	78.51
293.012	-17.75
293.227	19.11
293.442	15.02
293.657	55.98
293.871	84.65
294.086	53.93
294.301	109.22
294.516	47.79
294.73	31.4
294.945	78.51
295.16	72.36
295.374	96.94
295.589	23.21
295.804	43.69
296.018	6.83
296.233	92.84
296.447	41.64
296.662	92.84
296.877	58.03
297.091	-23.89
297.306	-9.56
297.52	10.92
297.735	84.65
297.949	-54.61
298.164	80.55
298.378	41.64
298.593	60.07
298.807	39.59
299.022	45.74
299.236	133.8
299.451	88.75
299.665	39.59
299.88	17.07
300.094	31.4
300.309	72.36
300.523	70.31
300.737	31.4
300.952	90.79
301.166	15.02
301.381	27.31
301.595	80.55
301.809	55.98
302.024	12.97
302.238	27.31
302.452	0.68
302.667	-32.08
302.881	88.75
303.095	21.16
303.309	31.4
303.524	-30.04
303.738	68.27
303.952	15.02
304.166	41.64
304.381	64.17
304.595	98.99
304.809	-19.8
305.023	90.79
305.237	-32.08
305.452	2.73
305.666	84.65
305.88	88.75
306.094	31.4
306.308	76.46
306.522	47.79
306.736	152.23
306.95	19.11
307.164	-50.52
307.379	47.79
307.593	101.03
307.807	43.69
308.021	58.03
308.235	47.79
308.449	-25.94
308.663	27.31
308.877	33.45
309.091	-9.56
309.305	25.26
309.519	39.59
309.733	70.31
309.947	-30.04
310.161	15.02
310.374	-13.65
310.588	86.7
310.802	80.55
311.016	113.32
311.23	113.32
311.444	19.11
311.658	31.4
311.872	41.64
312.085	25.26
312.299	47.79
312.513	64.17
312.727	74.41
312.941	115.37
313.154	6.83
313.368	8.87
313.582	72.36
313.796	82.6
314.009	-75.09
314.223	23.21
314.437	15.02
314.651	72.36
314.864	31.4
315.078	53.93
315.292	21.16
315.505	80.55
315.719	74.41
315.933	23.21
316.146	111.27
316.36	107.18
316.573	76.46
316.787	0.68
317.001	105.13
317.214	23.21
317.428	33.45
317.641	6.83
317.855	43.69
318.068	29.35
318.282	47.79
318.495	62.12
318.709	33.45
318.922	60.07
319.136	64.17
319.349	47.79
319.563	55.98
319.776	68.27
319.99	6.83
320.203	-32.08
320.417	45.74
320.63	64.17
320.843	139.94
321.057	35.5
321.27	15.02
321.483	55.98
321.697	17.07
321.91	33.45
322.124	45.74
322.337	35.5
322.55	10.92
322.763	31.4
322.977	-9.56
323.19	15.02
323.403	37.55
323.617	6.83
323.83	21.16
324.043	29.35
324.256	49.83
324.469	6.83
324.683	58.03
324.896	-42.32
325.109	23.21
325.322	-25.94
325.535	76.46
325.748	-1.37
325.962	25.26
326.175	90.79
326.388	78.51
326.601	23.21
326.814	-15.7
327.027	55.98
327.24	121.51
327.453	55.98
327.666	88.75
327.879	49.83
328.092	123.56
328.305	94.89
328.518	27.31
328.731	43.69
328.944	98.99
329.157	-23.89
329.37	-48.47
329.583	45.74
329.796	111.27
330.009	35.5
330.222	82.6
330.435	64.17
330.648	72.36
330.861	58.03
331.073	84.65
331.286	55.98
331.499	62.12
331.712	-34.13
331.925	0.68
332.138	84.65
332.35	92.84
332.563	17.07
332.776	72.36
332.989	-23.89
333.202	101.03
333.414	27.31
333.627	107.18
333.84	0.68
334.053	25.26
334.265	6.83
334.478	80.55
334.691	43.69
334.903	51.88
335.116	-50.52
335.329	35.5
335.541	72.36
335.754	31.4
335.966	10.92
336.179	88.75
336.392	-15.7
336.604	58.03
336.817	72.36
337.029	58.03
337.242	15.02
337.454	49.83
337.667	-7.51
337.88	70.31
338.092	31.4
338.305	66.22
338.517	4.78
338.729	-34.13
338.942	60.07
339.154	80.55
339.367	19.11
339.579	64.17
339.792	31.4
340.004	47.79
340.217	-15.7
340.429	84.65
340.641	0.68
340.854	25.26
341.066	33.45
341.278	37.55
341.491	60.07
341.703	55.98
341.915	60.07
342.128	55.98
342.34	51.88
342.552	58.03
342.764	37.55
342.977	51.88
343.189	88.75
343.401	146.09
343.613	31.4
343.826	72.36
344.038	15.02
344.25	31.4
344.462	39.59
344.674	113.32
344.886	72.36
345.099	131.75
345.311	139.94
345.523	68.27
345.735	-5.46
345.947	49.83
346.159	92.84
346.371	107.18
346.583	33.45
346.795	39.59
347.007	23.21
347.219	21.16
347.431	29.35
347.643	72.36
347.855	35.5
348.067	39.59
348.279	70.31
348.491	64.17
348.703	43.69
348.915	-15.7
349.127	-7.51
349.339	55.98
349.551	15.02
349.763	64.17
349.975	-13.65
350.187	103.08
350.399	60.07
350.61	23.21
350.822	21.16
351.034	92.84
351.246	25.26
351.458	121.51
351.669	60.07
351.881	51.88
352.093	15.02
352.305	68.27
352.517	72.36
352.728	107.18
352.94	-25.94
353.152	17.07
353.363	58.03
353.575	17.07
353.787	131.75
353.999	39.59
354.21	117.42
354.422	21.16
354.633	33.45
354.845	25.26
355.057	-11.61
355.268	74.41
355.48	72.36
355.692	21.16
355.903	0.68
356.115	35.5
356.326	60.07
356.538	68.27
356.749	47.79
356.961	98.99
357.172	4.78
357.384	25.26
357.595	25.26
357.807	88.75
358.018	51.88
358.23	2.73
358.441	72.36
358.653	68.27
358.864	-1.37
359.075	47.79
359.287	103.08
359.498	41.64
359.709	31.4
359.921	31.4
360.132	84.65
360.344	60.07
360.555	37.55
360.766	35.5
360.977	88.75
361.189	62.12
361.4	62.12
361.611	96.94
361.823	37.55
362.034	62.12
362.245	-9.56
362.456	55.98
362.667	43.69
362.879	68.27
363.09	78.51
363.301	84.65
363.512	90.79
363.723	-48.47
363.935	27.31
364.146	72.36
364.357	2.73
364.568	96.94
364.779	70.31
364.99	109.22
365.201	47.79
365.412	115.37
365.623	-66.9
365.834	72.36
366.045	0.68
366.256	55.98
366.467	82.6
366.678	84.65
366.889	47.79
367.1	80.55
367.311	27.31
367.522	23.21
367.733	12.97
367.944	37.55
368.155	105.13
368.366	105.13
368.577	94.89
368.788	88.75
368.999	74.41
369.209	51.88
369.42	74.41
369.631	41.64
369.842	55.98
370.053	64.17
370.264	107.18
370.474	47.79
370.685	96.94
370.896	90.79
371.107	162.47
371.317	62.12
371.528	-25.94
371.739	96.94
371.95	0.68
372.16	64.17
372.371	41.64
372.582	-58.71
372.792	74.41
373.003	64.17
373.214	68.27
373.424	31.4
373.635	-27.99
373.846	123.56
374.056	96.94
374.267	58.03
374.477	10.92
374.688	10.92
374.898	47.79
375.109	82.6
375.319	43.69
375.53	90.79
375.74	41.64
375.951	33.45
376.161	19.11
376.372	72.36
376.582	-66.9
376.793	43.69
377.003	15.02
377.214	25.26
377.424	72.36
377.635	55.98
377.845	-27.99
378.055	47.79
378.266	2.73
378.476	64.17
378.686	25.26
378.897	94.89
379.107	33.45
379.317	43.69
379.528	0.68
379.738	31.4
379.948	-46.42
380.158	109.22
380.369	131.75
380.579	8.87
380.789	33.45
380.999	115.37
381.21	25.26
381.42	101.03
381.63	78.51
381.84	98.99
382.05	103.08
382.261	47.79
382.471	47.79
382.681	127.66
382.891	127.66
383.101	72.36
383.311	39.59
383.521	35.5
383.731	96.94
383.941	72.36
384.151	76.46
384.361	64.17
384.571	113.32
384.781	117.42
384.991	137.9
385.201	105.13
385.411	113.32
385.621	15.02
385.831	33.45
386.041	43.69
386.251	82.6
386.461	41.64
386.671	82.6
386.881	72.36
387.091	107.18
387.301	49.83
387.511	92.84
387.72	8.87
387.93	80.55
388.14	60.07
388.35	90.79
388.56	33.45
388.769	64.17
388.979	35.5
389.189	23.21
389.399	76.46
389.609	-1.37
389.818	129.7
390.028	47.79
390.238	105.13
390.447	60.07
390.657	88.75
390.867	72.36
391.076	82.6
391.286	90.79
391.496	107.18
391.705	41.64
391.915	107.18
392.125	121.51
392.334	41.64
392.544	113.32
392.753	76.46
392.963	66.22
393.172	103.08
393.382	-17.75
393.591	166.57
393.801	84.65
394.01	76.46
394.22	55.98
394.429	113.32
394.639	47.79
394.848	123.56
395.058	64.17
395.267	115.37
395.477	90.79
395.686	78.51
395.895	164.52
396.105	146.09
396.314	41.64
396.524	115.37
396.733	113.32
396.942	185
397.152	121.51
397.361	166.57
397.57	113.32
397.78	72.36
397.989	121.51
398.198	113.32
398.407	51.88
398.617	103.08
398.826	105.13
399.035	129.7
399.244	133.8
399.453	105.13
399.663	113.32
399.872	121.51
400.081	64.17
400.29	107.18
400.499	94.89
400.708	135.85
400.917	74.41
401.127	109.22
401.336	98.99
401.545	129.7
401.754	88.75
401.963	94.89
402.172	111.27
402.381	115.37
402.59	98.99
402.799	146.09
403.008	113.32
403.217	64.17
403.426	92.84
403.635	137.9
403.844	148.14
404.053	129.7
404.262	115.37
404.471	101.03
404.68	148.14
404.888	96.94
405.097	203.43
405.306	174.76
405.515	170.66
405.724	113.32
405.933	178.86
406.142	129.7
406.35	146.09
406.559	137.9
406.768	230.06
406.977	211.62
407.185	246.44
407.394	156.33
407.603	244.39
407.812	279.21
408.02	215.72
408.229	195.24
408.438	246.44
408.646	260.77
408.855	219.82
409.064	326.31
409.272	289.45
409.481	309.93
409.69	342.69
409.898	236.2
410.107	371.36
410.315	354.98
410.524	309.93
410.733	334.5
410.941	397.99
411.15	350.89
411.358	408.23
411.567	449.19
411.775	484
411.984	363.17
412.192	418.47
412.401	481.96
412.609	514.72
412.818	641.7
413.026	486.05
413.234	541.35
413.443	596.64
413.651	563.87
413.86	674.46
414.068	629.41
414.276	596.64
414.485	641.7
414.693	690.85
414.901	627.36
415.11	740
415.318	826.01
415.526	758.43
415.734	821.92
415.943	846.49
416.151	940.7
416.359	936.6
416.567	869.02
416.776	963.23
416.984	1057.43
417.192	1039
417.4	1034.91
417.608	1059.48
417.817	1104.54
418.025	1194.65
418.233	1295
418.441	1208.98
418.649	1288.85
418.857	1366.68
419.065	1428.12
419.273	1305.24
419.481	1399.45
419.689	1548.95
419.897	1581.71
420.105	1628.82
420.313	1768.08
420.521	1702.54
420.729	1714.83
420.937	1802.9
421.145	1915.53
421.353	2005.64
421.561	2054.8
421.769	2099.85
421.977	2097.8
422.185	2327.18
422.393	2235.02
422.601	2431.62
422.809	2409.09
423.017	2499.2
423.224	2593.41
423.432	2579.08
423.64	2636.42
423.848	3033.72
424.056	2710.15
424.263	2937.47
424.471	2996.86
424.679	3046.01
424.887	3265.14
425.094	3342.97
425.302	3367.54
425.51	3521.14
425.718	3564.15
425.925	3627.64
426.133	3842.67
426.341	3957.36
426.548	4004.46
426.756	4233.83
426.964	4233.83
427.171	4319.85
427.379	4442.73
427.586	4541.03
427.794	4643.43
428.001	4932.19
428.209	5118.56
428.417	5073.5
428.624	5462.62
428.832	5413.46
429.039	5577.3
429.247	5366.36
429.454	5880.4
429.662	6433.35
429.869	6021.71
430.076	6308.43
430.284	6083.15
430.491	6439.5
430.699	6855.23
430.906	6675.01
431.114	6779.46
431.321	6998.59
431.528	7092.8
431.736	7660.09
431.943	8063.54
432.15	7680.57
432.358	7854.64
432.565	8305.2
432.772	8407.59
432.979	8542.76
433.187	8862.24
433.394	8888.87
433.601	9507.35
433.808	9583.13
434.016	9468.44
434.223	9804.31
434.43	10525.19
434.637	10078.74
434.844	10816.01
435.052	11004.42
435.259	11069.95
435.466	11215.36
435.673	11330.05
435.88	11934.2
436.087	12253.68
436.294	12335.6
436.501	12038.64
436.708	12280.3
436.915	12917.22
437.122	13365.73
437.329	13154.79
437.537	13668.83
437.743	13971.93
437.95	13715.93
438.157	14399.95
438.364	14891.46
438.571	14903.75
438.778	14735.82
438.985	16673.2
439.192	15741.37
439.399	16009.65
439.606	15833.53
439.813	16888.23
440.02	17732
440.227	17412.51
440.433	17385.89
440.64	17828.25
440.847	17852.83
441.054	18076.05
441.261	19313.03
441.467	18985.35
441.674	19480.96
441.881	20371.83
442.088	20195.7
442.294	20150.65
442.501	20476.27
442.708	20926.83
442.914	21619.04
443.121	22692.18
443.328	22151.51
443.534	23527.75
443.741	22716.75
443.948	22415.7
444.154	24308.02
444.361	24185.15
444.568	24328.5
444.774	24334.65
444.981	24334.65
445.187	25227.56
445.394	26159.39
445.6	26140.96
445.807	28659.96
446.013	26933.52
446.22	27468.04
446.426	28621.05
446.633	29239.53
446.839	30230.75
447.046	28829.94
447.252	30165.21
447.459	30355.68
447.665	30187.74
447.871	31768.77
448.078	32784.57
448.284	31142.1
448.491	31977.67
448.697	33534.12
448.903	33962.15
449.11	34451.61
449.316	33421.48
449.522	34324.64
449.728	35209.36
449.935	35383.44
450.141	35113.11
450.347	36182.15
450.553	35098.77
450.76	35623.05
450.966	36765.82
451.172	35999.88
451.378	37265.52
451.584	36427.9
451.791	37331.06
451.997	37529.71
452.203	38047.85
452.409	37994.6
452.615	37802.09
452.821	36554.88
453.027	36167.81
453.233	37871.72
453.44	36612.22
453.646	37058.68
453.852	37195.89
454.058	37724.27
454.264	36554.88
454.47	37650.54
454.676	36339.84
454.882	37576.81
455.088	34267.3
455.294	34975.89
455.5	35477.65
455.705	35887.24
455.911	34451.61
456.117	33480.88
456.323	33456.3
456.529	31592.65
456.735	33253.55
456.941	32227.52
457.147	31822.02
457.352	30863.57
457.558	30363.87
457.764	30554.33
457.97	30091.49
458.176	29444.33
458.381	29612.26
458.587	27912.45
458.793	27939.07
458.999	26491.16
459.204	28657.91
459.41	27748.61
459.616	25893.15
459.821	25999.65
460.027	26056.99
460.233	25270.57
460.438	23984.44
460.644	24813.87
460.85	23347.53
461.055	22810.96
461.261	22886.73
461.466	21277.03
461.672	20545.91
461.878	22022.49
462.083	20617.58
462.289	20115.83
462.494	19986.81
462.7	19059.08
462.905	18530.7
463.111	19474.82
463.316	19390.85
463.522	18921.87
463.727	18839.95
463.932	19089.8
464.138	18717.07
464.343	18913.67
464.549	18147.73
464.754	18764.17
464.959	18248.08
465.165	18340.24
465.37	17709.47
465.575	17236.39
465.781	18268.56
465.986	18067.86
466.191	17795.48
466.397	17150.37
466.602	16568.75
466.807	16896.42
467.012	16775.59
467.218	16705.96
467.423	16462.26
