Data from USB4F104151__236__14-22-08-212.txt Node

Date: Thu Mar 13 14:22:08 EDT 2025
User: louis
Spectrometer: USB4F10415
Trigger mode: 4
Integration Time (sec): 2.000000E-2
Scans to average: 1
Electric dark correction enabled: true
Nonlinearity correction enabled: false
Boxcar width: 0
XAxis mode: Wavelengths
Number of Pixels in Spectrum: 3648
>>>>>Begin Spectral Data<<<<<
178.204	-77.82
178.424	-77.82
178.644	-77.82
178.864	-30.72
179.084	-86.01
179.304	-22.53
179.524	8.19
179.744	6.14
179.964	-10.24
180.184	36.86
180.404	18.43
180.624	-14.34
180.844	-34.82
181.064	2.05
181.283	-28.67
181.503	-24.58
181.723	63.49
181.943	-61.44
182.163	63.49
182.383	-43.01
182.602	57.34
182.822	10.24
183.042	61.44
183.262	49.15
183.482	65.53
183.701	-12.29
183.921	-32.77
184.141	-22.53
184.361	-2.05
184.58	32.77
184.8	18.43
185.02	-4.1
185.239	55.3
185.459	24.58
185.679	57.34
185.898	-96.25
186.118	2.05
186.338	-12.29
186.557	88.06
186.777	10.24
186.997	-20.48
187.216	30.72
187.436	57.34
187.655	-2.05
187.875	86.01
188.095	18.43
188.314	-12.29
188.534	22.53
188.753	4.1
188.973	-18.43
189.192	92.16
189.412	-6.14
189.631	45.06
189.851	61.44
190.07	8.19
190.29	43.01
190.509	-20.48
190.729	-26.62
190.948	43.01
191.168	102.4
191.387	104.45
191.607	16.38
191.826	-14.34
192.045	-30.72
192.265	16.38
192.484	-10.24
192.704	71.68
192.923	22.53
193.142	79.87
193.362	-2.05
193.581	10.24
193.8	14.34
194.02	114.69
194.239	10.24
194.458	26.62
194.678	100.35
194.897	83.97
195.116	63.49
195.335	69.63
195.555	2.05
195.774	96.25
195.993	83.97
196.212	43.01
196.432	-16.38
196.651	61.44
196.87	10.24
197.089	124.93
197.308	67.58
197.528	104.45
197.747	-22.53
197.966	-14.34
198.185	92.16
198.404	30.72
198.623	75.77
198.842	12.29
199.062	63.49
199.281	32.77
199.5	4.1
199.719	34.82
199.938	51.2
200.157	6.14
200.376	45.06
200.595	83.97
200.814	28.67
201.033	116.73
201.252	30.72
201.471	28.67
201.69	47.1
201.909	45.06
202.128	83.97
202.347	18.43
202.566	-6.14
202.785	16.38
203.004	-30.72
203.223	104.45
203.442	-6.14
203.661	26.62
203.879	79.87
204.098	-4.1
204.317	-2.05
204.536	55.3
204.755	30.72
204.974	-4.1
205.193	-22.53
205.411	36.86
205.63	28.67
205.849	26.62
206.068	20.48
206.287	63.49
206.505	20.48
206.724	75.77
206.943	8.19
207.162	2.05
207.381	81.92
207.599	83.97
207.818	-30.72
208.037	18.43
208.255	10.24
208.474	14.34
208.693	-6.14
208.911	10.24
209.13	40.96
209.349	47.1
209.567	100.35
209.786	38.91
210.005	4.1
210.223	-4.1
210.442	34.82
210.661	-4.1
210.879	53.25
211.098	-18.43
211.316	36.86
211.535	49.15
211.753	100.35
211.972	69.63
212.191	90.11
212.409	71.68
212.628	40.96
212.846	22.53
213.065	43.01
213.283	120.83
213.502	6.14
213.72	63.49
213.938	40.96
214.157	38.91
214.375	6.14
214.594	14.34
214.812	10.24
215.031	10.24
215.249	26.62
215.467	36.86
215.686	43.01
215.904	34.82
216.122	83.97
216.341	47.1
216.559	73.73
216.778	47.1
216.996	92.16
217.214	14.34
217.432	-6.14
217.651	51.2
217.869	4.1
218.087	36.86
218.306	-0
218.524	49.15
218.742	-96.25
218.96	126.97
219.179	-30.72
219.397	38.91
219.615	100.35
219.833	30.72
220.051	2.05
220.27	67.58
220.488	-28.67
220.706	-20.48
220.924	-22.53
221.142	-20.48
221.36	-10.24
221.578	81.92
221.796	38.91
222.015	10.24
222.233	88.06
222.451	22.53
222.669	34.82
222.887	10.24
223.105	-2.05
223.323	22.53
223.541	4.1
223.759	14.34
223.977	51.2
224.195	65.53
224.413	59.39
224.631	45.06
224.849	4.1
225.067	94.21
225.285	73.73
225.503	18.43
225.721	28.67
225.939	10.24
226.157	18.43
226.375	90.11
226.592	-18.43
226.81	26.62
227.028	124.93
227.246	49.15
227.464	40.96
227.682	53.25
227.9	67.58
228.117	38.91
228.335	34.82
228.553	26.62
228.771	20.48
228.989	18.43
229.206	57.34
229.424	43.01
229.642	-18.43
229.86	-71.68
230.077	67.58
230.295	-45.06
230.513	28.67
230.731	-34.82
230.948	2.05
231.166	86.01
231.384	51.2
231.601	-2.05
231.819	34.82
232.037	34.82
232.254	2.05
232.472	12.29
232.689	20.48
232.907	63.49
233.125	-55.3
233.342	30.72
233.56	40.96
233.777	59.39
233.995	69.63
234.213	-22.53
234.43	34.82
234.648	2.05
234.865	24.58
235.083	34.82
235.3	6.14
235.518	20.48
235.735	-38.91
235.953	108.54
236.17	36.86
236.388	-47.1
236.605	18.43
236.822	86.01
237.04	2.05
237.257	16.38
237.475	-10.24
237.692	90.11
237.909	139.26
238.127	16.38
238.344	40.96
238.562	38.91
238.779	-45.06
238.996	73.73
239.214	-28.67
239.431	12.29
239.648	59.39
239.865	45.06
240.083	26.62
240.3	-22.53
240.517	18.43
240.735	28.67
240.952	-2.05
241.169	126.97
241.386	36.86
241.603	43.01
241.821	55.3
242.038	20.48
242.255	102.4
242.472	2.05
242.689	28.67
242.907	108.54
243.124	-4.1
243.341	26.62
243.558	-4.1
243.775	-102.4
243.992	6.14
244.209	-38.91
244.426	61.44
244.643	51.2
244.86	-2.05
245.078	65.53
245.295	69.63
245.512	22.53
245.729	-6.14
245.946	59.39
246.163	14.34
246.38	55.3
246.597	40.96
246.814	38.91
247.031	53.25
247.248	-20.48
247.464	14.34
247.681	-6.14
247.898	-12.29
248.115	47.1
248.332	-2.05
248.549	26.62
248.766	86.01
248.983	24.58
249.2	43.01
249.417	59.39
249.633	-20.48
249.85	36.86
250.067	-12.29
250.284	14.34
250.501	-30.72
250.717	88.06
250.934	-4.1
251.151	20.48
251.368	-14.34
251.585	49.15
251.801	2.05
252.018	4.1
252.235	-20.48
252.451	43.01
252.668	43.01
252.885	69.63
253.102	-12.29
253.318	81.92
253.535	-14.34
253.752	10.24
253.968	53.25
254.185	-12.29
254.401	-38.91
254.618	77.82
254.835	26.62
255.051	116.73
255.268	38.91
255.484	88.06
255.701	47.1
255.917	67.58
256.134	12.29
256.351	30.72
256.567	-34.82
256.784	43.01
257	-43.01
257.217	38.91
257.433	69.63
257.65	6.14
257.866	2.05
258.082	-79.87
258.299	-59.39
258.515	-6.14
258.732	-10.24
258.948	2.05
259.165	22.53
259.381	8.19
259.597	55.3
259.814	69.63
260.03	53.25
260.246	10.24
260.463	26.62
260.679	43.01
260.895	69.63
261.112	36.86
261.328	10.24
261.544	63.49
261.761	36.86
261.977	-30.72
262.193	-45.06
262.409	-12.29
262.626	53.25
262.842	83.97
263.058	26.62
263.274	-12.29
263.49	77.82
263.707	45.06
263.923	71.68
264.139	-2.05
264.355	-28.67
264.571	69.63
264.787	51.2
265.004	47.1
265.22	30.72
265.436	-8.19
265.652	-6.14
265.868	14.34
266.084	59.39
266.3	34.82
266.516	20.48
266.732	-38.91
266.948	43.01
267.164	34.82
267.38	36.86
267.596	59.39
267.812	69.63
268.028	36.86
268.244	-65.54
268.46	59.39
268.676	18.43
268.892	86.01
269.108	-12.29
269.324	-30.72
269.54	-4.1
269.756	59.39
269.972	-34.82
270.188	30.72
270.403	22.53
270.619	51.2
270.835	55.3
271.051	63.49
271.267	10.24
271.483	6.14
271.698	14.34
271.914	83.97
272.13	2.05
272.346	8.19
272.562	18.43
272.777	120.83
272.993	75.77
273.209	94.21
273.425	61.44
273.64	2.05
273.856	86.01
274.072	53.25
274.287	-12.29
274.503	79.87
274.719	53.25
274.934	83.97
275.15	-8.19
275.366	47.1
275.581	-18.43
275.797	22.53
276.012	26.62
276.228	24.58
276.444	2.05
276.659	18.43
276.875	49.15
277.09	57.34
277.306	10.24
277.521	75.77
277.737	55.3
277.952	75.77
278.168	26.62
278.383	36.86
278.599	43.01
278.814	36.86
279.03	38.91
279.245	86.01
279.461	-12.29
279.676	22.53
279.892	36.86
280.107	-2.05
280.322	-4.1
280.538	88.06
280.753	18.43
280.969	75.77
281.184	-45.06
281.399	61.44
281.615	61.44
281.83	47.1
282.045	-47.1
282.26	16.38
282.476	43.01
282.691	61.44
282.906	73.73
283.122	40.96
283.337	-77.82
283.552	34.82
283.767	10.24
283.983	114.69
284.198	30.72
284.413	-53.25
284.628	-10.24
284.843	28.67
285.058	67.58
285.274	43.01
285.489	-6.14
285.704	53.25
285.919	43.01
286.134	47.1
286.349	71.68
286.564	2.05
286.779	63.49
286.995	100.35
287.21	2.05
287.425	83.97
287.64	-4.1
287.855	36.86
288.07	2.05
288.285	63.49
288.5	20.48
288.715	77.82
288.93	28.67
289.145	14.34
289.36	55.3
289.575	38.91
289.79	14.34
290.004	-10.24
290.219	139.26
290.434	2.05
290.649	28.67
290.864	-38.91
291.079	43.01
291.294	26.62
291.509	43.01
291.724	14.34
291.938	71.68
292.153	124.93
292.368	18.43
292.583	30.72
292.798	38.91
293.012	-14.34
293.227	36.86
293.442	-34.82
293.657	28.67
293.871	67.58
294.086	71.68
294.301	26.62
294.516	75.77
294.73	69.63
294.945	38.91
295.16	51.2
295.374	38.91
295.589	14.34
295.804	-22.53
296.018	36.86
296.233	71.68
296.447	-2.05
296.662	-6.14
296.877	86.01
297.091	43.01
297.306	92.16
297.52	67.58
297.735	2.05
297.949	24.58
298.164	69.63
298.378	65.53
298.593	-43.01
298.807	-24.58
299.022	30.72
299.236	102.4
299.451	51.2
299.665	-34.82
299.88	83.97
300.094	55.3
300.309	118.78
300.523	73.73
300.737	36.86
300.952	75.77
301.166	79.87
301.381	-2.05
301.595	-47.1
301.809	-6.14
302.024	4.1
302.238	55.3
302.452	-8.19
302.667	18.43
302.881	100.35
303.095	43.01
303.309	73.73
303.524	30.72
303.738	-2.05
303.952	57.34
304.166	100.35
304.381	-36.86
304.595	104.45
304.809	30.72
305.023	47.1
305.237	18.43
305.452	-16.38
305.666	28.67
305.88	26.62
306.094	118.78
306.308	45.06
306.522	-6.14
306.736	45.06
306.95	92.16
307.164	26.62
307.379	-16.38
307.593	71.68
307.807	96.25
308.021	51.2
308.235	-16.38
308.449	32.77
308.663	-22.53
308.877	38.91
309.091	-2.05
309.305	34.82
309.519	18.43
309.733	47.1
309.947	14.34
310.161	100.35
310.374	71.68
310.588	51.2
310.802	59.39
311.016	18.43
311.23	32.77
311.444	34.82
311.658	43.01
311.872	63.49
312.085	10.24
312.299	69.63
312.513	108.54
312.727	55.3
312.941	18.43
313.154	71.68
313.368	73.73
313.582	65.53
313.796	43.01
314.009	59.39
314.223	120.83
314.437	43.01
314.651	40.96
314.864	6.14
315.078	-20.48
315.292	24.58
315.505	-30.72
315.719	61.44
315.933	100.35
316.146	-6.14
316.36	16.38
316.573	57.34
316.787	83.97
317.001	69.63
317.214	40.96
317.428	53.25
317.641	4.1
317.855	86.01
318.068	124.93
318.282	-30.72
318.495	116.73
318.709	86.01
318.922	96.25
319.136	110.59
319.349	40.96
319.563	34.82
319.776	96.25
319.99	32.77
320.203	86.01
320.417	131.07
320.63	36.86
320.843	67.58
321.057	71.68
321.27	63.49
321.483	34.82
321.697	153.6
321.91	38.91
322.124	24.58
322.337	8.19
322.55	14.34
322.763	86.01
322.977	-14.34
323.19	2.05
323.403	51.2
323.617	34.82
323.83	45.06
324.043	-14.34
324.256	69.63
324.469	53.25
324.683	75.77
324.896	65.53
325.109	116.73
325.322	-4.1
325.535	92.16
325.748	102.4
325.962	-16.38
326.175	4.1
326.388	94.21
326.601	100.35
326.814	53.25
327.027	110.59
327.24	92.16
327.453	83.97
327.666	59.39
327.879	34.82
328.092	36.86
328.305	36.86
328.518	-22.53
328.731	36.86
328.944	36.86
329.157	69.63
329.37	18.43
329.583	20.48
329.796	139.26
330.009	36.86
330.222	69.63
330.435	151.55
330.648	63.49
330.861	59.39
331.073	47.1
331.286	26.62
331.499	43.01
331.712	-24.58
331.925	14.34
332.138	71.68
332.35	49.15
332.563	8.19
332.776	126.97
332.989	83.97
333.202	67.58
333.414	38.91
333.627	2.05
333.84	86.01
334.053	51.2
334.265	-4.1
334.478	-2.05
334.691	112.64
334.903	157.69
335.116	22.53
335.329	20.48
335.541	10.24
335.754	59.39
335.966	16.38
336.179	34.82
336.392	-26.62
336.604	67.58
336.817	34.82
337.029	45.06
337.242	26.62
337.454	55.3
337.667	-6.14
337.88	69.63
338.092	2.05
338.305	63.49
338.517	-4.1
338.729	4.1
338.942	2.05
339.154	47.1
339.367	-10.24
339.579	2.05
339.792	14.34
340.004	26.62
340.217	43.01
340.429	100.35
340.641	43.01
340.854	-0
341.066	2.05
341.278	36.86
341.491	141.31
341.703	28.67
341.915	24.58
342.128	43.01
342.34	67.58
342.552	57.34
342.764	67.58
342.977	43.01
343.189	51.2
343.401	4.1
343.613	24.58
343.826	59.39
344.038	108.54
344.25	34.82
344.462	-10.24
344.674	49.15
344.886	28.67
345.099	34.82
345.311	100.35
345.523	51.2
345.735	-2.05
345.947	104.45
346.159	18.43
346.371	-12.29
346.583	20.48
346.795	104.45
347.007	26.62
347.219	26.62
347.431	-10.24
347.643	100.35
347.855	-20.48
348.067	88.06
348.279	4.1
348.491	10.24
348.703	63.49
348.915	83.97
349.127	10.24
349.339	18.43
349.551	55.3
349.763	79.87
349.975	14.34
350.187	114.69
350.399	65.53
350.61	100.35
350.822	55.3
351.034	77.82
351.246	18.43
351.458	59.39
351.669	108.54
351.881	143.36
352.093	96.25
352.305	26.62
352.517	137.21
352.728	59.39
352.94	36.86
353.152	67.58
353.363	45.06
353.575	96.25
353.787	83.97
353.999	75.77
354.21	59.39
354.422	75.77
354.633	-55.3
354.845	16.38
355.057	10.24
355.268	-14.34
355.48	2.05
355.692	43.01
355.903	94.21
356.115	-20.48
356.326	-38.91
356.538	104.45
356.749	4.1
356.961	77.82
357.172	12.29
357.384	43.01
357.595	112.64
357.807	-38.91
358.018	69.63
358.23	36.86
358.441	77.82
358.653	116.73
358.864	-26.62
359.075	75.77
359.287	-0
359.498	77.82
359.709	34.82
359.921	63.49
360.132	59.39
360.344	45.06
360.555	-45.06
360.766	59.39
360.977	28.67
361.189	18.43
361.4	10.24
361.611	63.49
361.823	79.87
362.034	67.58
362.245	2.05
362.456	67.58
362.667	114.69
362.879	67.58
363.09	43.01
363.301	126.97
363.512	-6.14
363.723	59.39
363.935	100.35
364.146	61.44
364.357	-10.24
364.568	98.3
364.779	-22.53
364.99	-55.3
365.201	71.68
365.412	116.73
365.623	71.68
365.834	67.58
366.045	51.2
366.256	90.11
366.467	77.82
366.678	67.58
366.889	16.38
367.1	141.31
367.311	67.58
367.522	6.14
367.733	88.06
367.944	59.39
368.155	45.06
368.366	92.16
368.577	73.73
368.788	12.29
368.999	71.68
369.209	96.25
369.42	149.5
369.631	143.36
369.842	86.01
370.053	-22.53
370.264	81.92
370.474	36.86
370.685	77.82
370.896	26.62
371.107	59.39
371.317	34.82
371.528	86.01
371.739	75.77
371.95	55.3
372.16	100.35
372.371	36.86
372.582	43.01
372.792	61.44
373.003	161.79
373.214	63.49
373.424	92.16
373.635	53.25
373.846	40.96
374.056	53.25
374.267	124.93
374.477	-6.14
374.688	6.14
374.898	92.16
375.109	47.1
375.319	100.35
375.53	38.91
375.74	88.06
375.951	86.01
376.161	73.73
376.372	-2.05
376.582	49.15
376.793	108.54
377.003	30.72
377.214	-38.91
377.424	67.58
377.635	92.16
377.845	86.01
378.055	96.25
378.266	-2.05
378.476	47.1
378.686	43.01
378.897	61.44
379.107	36.86
379.317	28.67
379.528	59.39
379.738	131.07
379.948	34.82
380.158	112.64
380.369	34.82
380.579	77.82
380.789	6.14
380.999	43.01
381.21	63.49
381.42	145.41
381.63	36.86
381.84	92.16
382.05	65.53
382.261	77.82
382.471	86.01
382.681	2.05
382.891	77.82
383.101	-8.19
383.311	88.06
383.521	14.34
383.731	69.63
383.941	59.39
384.151	75.77
384.361	40.96
384.571	126.97
384.781	96.25
384.991	43.01
385.201	198.65
385.411	83.97
385.621	53.25
385.831	59.39
386.041	38.91
386.251	51.2
386.461	43.01
386.671	10.24
386.881	71.68
387.091	65.53
387.301	47.1
387.511	112.64
387.72	45.06
387.93	18.43
388.14	53.25
388.35	94.21
388.56	63.49
388.769	47.1
388.979	43.01
389.189	-2.05
389.399	114.69
389.609	71.68
389.818	67.58
390.028	43.01
390.238	86.01
390.447	57.34
390.657	100.35
390.867	77.82
391.076	-14.34
391.286	88.06
391.496	157.69
391.705	63.49
391.915	124.93
392.125	145.41
392.334	28.67
392.544	174.08
392.753	129.02
392.963	26.62
393.172	14.34
393.382	-86.01
393.591	180.22
393.801	65.53
394.01	67.58
394.22	167.93
394.429	45.06
394.639	45.06
394.848	98.3
395.058	141.31
395.267	131.07
395.477	49.15
395.686	96.25
395.895	243.71
396.105	108.54
396.314	92.16
396.524	116.73
396.733	102.4
396.942	161.79
397.152	108.54
397.361	108.54
397.57	112.64
397.78	53.25
397.989	77.82
398.198	112.64
398.407	-6.14
398.617	167.93
398.826	96.25
399.035	83.97
399.244	139.26
399.453	100.35
399.663	4.1
399.872	149.5
400.081	92.16
400.29	139.26
400.499	165.89
400.708	161.79
400.917	110.59
401.127	124.93
401.336	133.12
401.545	169.98
401.754	153.6
401.963	167.93
402.172	143.36
402.381	159.74
402.59	118.78
402.799	131.07
403.008	126.97
403.217	135.17
403.426	100.35
403.635	163.84
403.844	182.27
404.053	178.17
404.262	178.17
404.471	237.56
404.68	221.18
404.888	200.7
405.097	217.08
405.306	174.08
405.515	137.21
405.724	206.84
405.933	176.13
406.142	239.61
406.35	200.7
406.559	129.02
406.768	217.08
406.977	247.8
407.185	272.38
407.394	231.42
407.603	208.89
407.812	280.57
408.02	305.15
408.229	219.13
408.438	256
408.646	292.86
408.855	350.2
409.064	274.43
409.272	337.91
409.481	378.87
409.69	415.74
409.898	301.05
410.107	274.43
410.315	413.69
410.524	413.69
410.733	511.99
410.941	397.31
411.15	446.46
411.358	460.79
411.567	475.13
411.775	518.14
411.984	526.33
412.192	520.18
412.401	509.94
412.609	610.29
412.818	634.87
413.026	645.11
413.234	598.01
413.443	591.86
413.651	727.03
413.86	649.21
414.068	724.98
414.276	684.02
414.485	788.47
414.693	716.79
414.901	831.48
415.11	866.29
415.318	845.81
415.526	802.8
415.734	970.74
415.943	1075.18
416.151	1017.84
416.359	1060.85
416.567	1093.62
416.776	1116.14
416.984	1099.76
417.192	1261.55
417.4	1208.3
417.608	1218.54
417.817	1292.27
418.025	1402.86
418.233	1447.91
418.441	1398.76
418.649	1554.41
418.857	1617.9
419.065	1642.47
419.273	1642.47
419.481	1689.57
419.689	1814.5
419.897	1845.22
420.105	1951.71
420.313	1853.41
420.521	2017.25
420.729	1939.43
420.937	2023.39
421.145	2183.13
421.353	2205.66
421.561	2295.77
421.769	2381.79
421.977	2459.61
422.185	2576.34
422.393	2658.26
422.601	2770.9
422.809	2688.98
423.017	2873.3
423.224	2994.13
423.432	3008.47
423.64	3211.21
423.848	3325.9
424.056	3157.97
424.263	3538.89
424.471	3512.27
424.679	3610.57
424.887	3735.49
425.094	3807.17
425.302	3835.85
425.51	4005.83
425.718	4212.67
425.925	4288.45
426.133	4417.47
426.341	4478.91
426.548	4818.87
426.756	4712.38
426.964	4896.69
427.171	5207.98
427.379	5347.25
427.586	5294
427.794	5623.72
428.001	5771.18
428.209	5967.78
428.417	5834.66
428.624	6268.83
428.832	6328.22
429.039	6317.98
429.247	6307.74
429.454	6819.74
429.662	7280.53
429.869	6844.31
430.076	7274.38
430.284	7061.4
430.491	7550.86
430.699	7950.21
430.906	7958.41
431.114	8064.9
431.321	8421.25
431.528	8574.85
431.736	9009.01
431.943	9285.49
432.15	9002.87
432.358	9197.43
432.565	9856.87
432.772	9756.52
432.979	10143.59
433.187	10268.52
433.394	10524.51
433.601	10899.29
433.808	11020.12
434.016	11022.17
434.223	11495.25
434.43	12099.4
434.637	12330.82
434.844	12816.19
435.052	12822.33
435.259	12627.78
435.466	13018.94
435.673	12728.13
435.88	13549.36
436.087	14434.08
436.294	14401.32
436.501	13922.09
436.708	14565.15
436.915	14855.97
437.122	15576.85
437.329	15615.76
437.537	15961.87
437.743	16197.38
437.95	16228.1
438.157	16910.08
438.364	17606.39
438.571	17463.03
438.778	17762.03
438.985	19185.37
439.192	18458.34
439.399	19105.5
439.606	18435.81
439.813	19633.88
440.02	20883.14
440.227	20465.35
440.433	20231.88
440.64	20956.86
440.847	20850.37
441.054	21448.38
441.261	22607.53
441.467	22509.22
441.674	22851.24
441.881	23604.89
442.088	23402.14
442.294	23525.02
442.501	24194.7
442.708	24495.75
442.914	25302.65
443.121	26685.03
443.328	25654.9
443.534	27729.5
443.741	26865.25
443.948	26306.16
444.154	28247.63
444.361	28241.49
444.568	28481.1
444.774	28323.41
444.981	28517.96
445.187	29517.37
445.394	30543.41
445.6	30268.98
445.807	33125.89
446.013	31741.47
446.22	32370.19
446.426	33578.5
446.633	33959.42
446.839	35134.95
447.046	33850.88
447.252	35714.53
447.459	35239.4
447.665	35337.7
447.871	36969.93
448.078	38446.52
448.284	36672.98
448.491	37932.48
448.697	38907.31
448.903	39789.98
449.11	39648.67
449.316	39040.43
449.522	39876
449.728	40891.79
449.935	41270.67
450.141	40824.21
450.347	42278.27
450.553	40775.06
450.76	41262.47
450.966	42995.06
451.172	42294.65
451.378	43140.46
451.584	42734.96
451.791	43183.47
451.997	43318.63
452.203	43953.51
452.409	44272.99
452.615	44057.95
452.821	42241.4
453.027	41973.12
453.233	44199.26
453.44	42458.49
453.646	42610.04
453.852	42986.86
454.058	43943.27
454.264	42374.52
454.47	43322.73
454.676	42401.14
454.882	44160.35
455.088	39769.51
455.294	41033.1
455.5	41235.85
455.705	41680.26
455.911	40023.45
456.117	39040.43
456.323	38917.55
456.529	36834.77
456.735	38694.32
456.941	37438.92
457.147	36961.74
457.352	36081.11
457.558	35876.32
457.764	35562.98
457.97	35005.93
458.176	34418.16
458.381	34266.61
458.587	32841.23
458.793	32742.92
458.999	30887.46
459.204	33404.42
459.41	32542.22
459.616	30207.54
459.821	30408.24
460.027	30221.87
460.233	29505.09
460.438	28259.92
460.644	28804.68
460.85	27190.88
461.055	26715.75
461.261	26480.24
461.466	24452.75
461.672	24051.35
461.878	25802.36
462.083	23844.5
462.289	23819.92
462.494	23582.36
462.7	22378.15
462.905	21647.03
463.111	22455.98
463.316	22398.63
463.522	21911.22
463.727	22140.59
463.932	22212.27
464.138	21423.8
464.343	22058.67
464.549	20979.39
464.754	22126.25
464.959	21890.74
465.165	21309.11
465.37	20797.12
465.575	20037.33
465.781	20813.51
465.986	20971.2
466.191	20317.9
466.397	19803.86
466.602	19056.35
466.807	19523.29
467.012	19711.7
