Data from USB4F104151__50__14-16-59-541.txt Node

Date: Thu Mar 13 14:16:59 EDT 2025
User: louis
Spectrometer: USB4F10415
Trigger mode: 4
Integration Time (sec): 2.000000E-2
Scans to average: 1
Electric dark correction enabled: true
Nonlinearity correction enabled: false
Boxcar width: 0
XAxis mode: Wavelengths
Number of Pixels in Spectrum: 3648
>>>>>Begin Spectral Data<<<<<
178.204	-110.76
178.424	-110.76
178.644	-110.76
178.864	-159.91
179.084	-166.06
179.304	28.5
179.524	-55.47
179.744	-28.84
179.964	48.98
180.184	-69.8
180.404	22.36
180.624	44.88
180.844	-53.42
181.064	3.93
181.283	-4.27
181.503	22.36
181.723	40.79
181.943	-24.75
182.163	32.6
182.383	20.31
182.602	77.65
182.822	130.9
183.042	22.36
183.262	36.69
183.482	46.93
183.701	38.74
183.921	-57.51
184.141	26.45
184.361	38.74
184.58	12.12
184.8	12.12
185.02	69.46
185.239	94.04
185.459	28.5
185.679	63.32
185.898	-53.42
186.118	102.23
186.338	-18.6
186.557	22.36
186.777	12.12
186.997	-2.22
187.216	-12.46
187.436	122.71
187.655	98.13
187.875	22.36
188.095	14.17
188.314	51.03
188.534	73.56
188.753	53.08
188.973	44.88
189.192	63.32
189.412	8.02
189.631	28.5
189.851	42.84
190.07	130.9
190.29	-43.18
190.509	-2.22
190.729	-37.03
190.948	24.4
191.168	63.32
191.387	96.08
191.607	-12.46
191.826	3.93
192.045	32.6
192.265	77.65
192.484	-20.65
192.704	12.12
192.923	-24.75
193.142	112.47
193.362	77.65
193.581	-4.27
193.8	-45.23
194.02	-0.17
194.239	26.45
194.458	44.88
194.678	38.74
194.897	59.22
195.116	32.6
195.335	36.69
195.555	36.69
195.774	-6.31
195.993	-28.84
196.212	28.5
196.432	-26.79
196.651	3.93
196.87	48.98
197.089	44.88
197.308	65.36
197.528	69.46
197.747	-37.03
197.966	-41.13
198.185	53.08
198.404	-61.61
198.623	83.8
198.842	85.84
199.062	71.51
199.281	44.88
199.5	14.17
199.719	30.55
199.938	71.51
200.157	61.27
200.376	61.27
200.595	51.03
200.814	73.56
201.033	10.07
201.252	77.65
201.471	55.12
201.69	63.32
201.909	14.17
202.128	3.93
202.347	77.65
202.566	22.36
202.785	-18.6
203.004	-2.22
203.223	151.38
203.442	65.36
203.661	36.69
203.879	53.08
204.098	69.46
204.317	-12.46
204.536	87.89
204.755	-20.65
204.974	65.36
205.193	20.31
205.411	112.47
205.63	61.27
205.849	65.36
206.068	104.28
206.287	16.21
206.505	12.12
206.724	22.36
206.943	77.65
207.162	108.37
207.381	61.27
207.599	22.36
207.818	-86.19
208.037	-4.27
208.255	32.6
208.474	-28.84
208.693	24.4
208.911	81.75
209.13	-49.32
209.349	-37.03
209.567	12.12
209.786	94.04
210.005	77.65
210.223	-12.46
210.442	32.6
210.661	-51.37
210.879	5.97
211.098	22.36
211.316	18.26
211.535	69.46
211.753	-10.41
211.972	20.31
212.191	-2.22
212.409	-0.17
212.628	44.88
212.846	16.21
213.065	69.46
213.283	81.75
213.502	3.93
213.72	18.26
213.938	-16.55
214.157	69.46
214.375	53.08
214.594	53.08
214.812	53.08
215.031	28.5
215.249	44.88
215.467	-4.27
215.686	38.74
215.904	118.61
216.122	-24.75
216.341	32.6
216.559	143.19
216.778	73.56
216.996	28.5
217.214	36.69
217.432	5.97
217.651	14.17
217.869	-51.37
218.087	5.97
218.306	12.12
218.524	-20.65
218.742	8.02
218.96	98.13
219.179	55.12
219.397	-8.36
219.615	65.36
219.833	48.98
220.051	3.93
220.27	-4.27
220.488	5.97
220.706	20.31
220.924	-2.22
221.142	5.97
221.36	-10.41
221.578	28.5
221.796	44.88
222.015	55.12
222.233	34.64
222.451	-51.37
222.669	-6.31
222.887	-2.22
223.105	-41.13
223.323	-2.22
223.541	22.36
223.759	53.08
223.977	-30.89
224.195	108.37
224.413	79.7
224.631	71.51
224.849	59.22
225.067	28.5
225.285	94.04
225.503	126.8
225.721	71.51
225.939	81.75
226.157	71.51
226.375	55.12
226.592	67.41
226.81	61.27
227.028	36.69
227.246	63.32
227.464	55.12
227.682	48.98
227.9	57.17
228.117	12.12
228.335	71.51
228.553	-12.46
228.771	3.93
228.989	61.27
229.206	53.08
229.424	-32.94
229.642	20.31
229.86	-22.7
230.077	65.36
230.295	12.12
230.513	63.32
230.731	38.74
230.948	53.08
231.166	61.27
231.384	51.03
231.601	22.36
231.819	20.31
232.037	-34.99
232.254	38.74
232.472	85.84
232.689	5.97
232.907	-0.17
233.125	-2.22
233.342	-4.27
233.56	5.97
233.777	71.51
233.995	-14.51
234.213	89.94
234.43	20.31
234.648	98.13
234.865	22.36
235.083	79.7
235.3	-4.27
235.518	-0.17
235.735	67.41
235.953	65.36
236.17	85.84
236.388	-2.22
236.605	28.5
236.822	-26.79
237.04	118.61
237.257	-12.46
237.475	-45.23
237.692	28.5
237.909	55.12
238.127	46.93
238.344	57.17
238.562	30.55
238.779	-12.46
238.996	53.08
239.214	106.32
239.431	112.47
239.648	22.36
239.865	69.46
240.083	53.08
240.3	40.79
240.517	-26.79
240.735	32.6
240.952	53.08
241.169	34.64
241.386	-0.17
241.603	65.36
241.821	-37.03
242.038	-0.17
242.255	28.5
242.472	-10.41
242.689	-8.36
242.907	100.18
243.124	16.21
243.341	38.74
243.558	40.79
243.775	-4.27
243.992	-20.65
244.209	20.31
244.426	5.97
244.643	44.88
244.86	-34.99
245.078	30.55
245.295	20.31
245.512	53.08
245.729	53.08
245.946	71.51
246.163	5.97
246.38	-0.17
246.597	-6.31
246.814	71.51
247.031	1.88
247.248	63.32
247.464	53.08
247.681	32.6
247.898	85.84
248.115	77.65
248.332	20.31
248.549	48.98
248.766	67.41
248.983	28.5
249.2	57.17
249.417	32.6
249.633	42.84
249.85	57.17
250.067	28.5
250.284	40.79
250.501	24.4
250.717	30.55
250.934	-32.94
251.151	77.65
251.368	-14.51
251.585	67.41
251.801	-4.27
252.018	3.93
252.235	85.84
252.451	3.93
252.668	53.08
252.885	44.88
253.102	79.7
253.318	18.26
253.535	-71.85
253.752	67.41
253.968	22.36
254.185	30.55
254.401	53.08
254.618	55.12
254.835	-63.66
255.051	91.99
255.268	20.31
255.484	28.5
255.701	18.26
255.917	36.69
256.134	67.41
256.351	-0.17
256.567	-100.52
256.784	61.27
257	61.27
257.217	57.17
257.433	98.13
257.65	22.36
257.866	77.65
258.082	61.27
258.299	30.55
258.515	-28.84
258.732	79.7
258.948	61.27
259.165	-26.79
259.381	20.31
259.597	102.23
259.814	36.69
260.03	-18.6
260.246	22.36
260.463	44.88
260.679	36.69
260.895	10.07
261.112	-6.31
261.328	24.4
261.544	75.6
261.761	48.98
261.977	69.46
262.193	-69.8
262.409	73.56
262.626	108.37
262.842	108.37
263.058	44.88
263.274	46.93
263.49	8.02
263.707	57.17
263.923	32.6
264.139	3.93
264.355	85.84
264.571	32.6
264.787	22.36
265.004	51.03
265.22	-12.46
265.436	20.31
265.652	30.55
265.868	36.69
266.084	55.12
266.3	51.03
266.516	63.32
266.732	-26.79
266.948	-24.75
267.164	40.79
267.38	53.08
267.596	48.98
267.812	79.7
268.028	26.45
268.244	102.23
268.46	-8.36
268.676	36.69
268.892	55.12
269.108	32.6
269.324	48.98
269.54	59.22
269.756	42.84
269.972	18.26
270.188	69.46
270.403	1.88
270.619	44.88
270.835	40.79
271.051	53.08
271.267	14.17
271.483	28.5
271.698	28.5
271.914	57.17
272.13	28.5
272.346	22.36
272.562	65.36
272.777	63.32
272.993	42.84
273.209	-37.03
273.425	63.32
273.64	-8.36
273.856	28.5
274.072	-0.17
274.287	20.31
274.503	67.41
274.719	28.5
274.934	28.5
275.15	26.45
275.366	-4.27
275.581	-8.36
275.797	5.97
276.012	22.36
276.228	36.69
276.444	79.7
276.659	10.07
276.875	67.41
277.09	55.12
277.306	-0.17
277.521	118.61
277.737	34.64
277.952	96.08
278.168	12.12
278.383	36.69
278.599	14.17
278.814	48.98
279.03	16.21
279.245	104.28
279.461	-2.22
279.676	44.88
279.892	48.98
280.107	77.65
280.322	-75.95
280.538	-14.51
280.753	8.02
280.969	57.17
281.184	96.08
281.399	81.75
281.615	8.02
281.83	-53.42
282.045	-45.23
282.26	55.12
282.476	-2.22
282.691	61.27
282.906	102.23
283.122	102.23
283.337	-18.6
283.552	85.84
283.767	-2.22
283.983	20.31
284.198	3.93
284.413	-22.7
284.628	20.31
284.843	5.97
285.058	-26.79
285.274	112.47
285.489	87.89
285.704	59.22
285.919	104.28
286.134	1.88
286.349	-18.6
286.564	14.17
286.779	100.18
286.995	22.36
287.21	-32.94
287.425	63.32
287.64	-2.22
287.855	32.6
288.07	55.12
288.285	114.52
288.5	143.19
288.715	141.14
288.93	-10.41
289.145	22.36
289.36	53.08
289.575	96.08
289.79	1.88
290.004	1.88
290.219	118.61
290.434	71.51
290.649	38.74
290.864	36.69
291.079	-41.13
291.294	44.88
291.509	61.27
291.724	53.08
291.938	44.88
292.153	63.32
292.368	55.12
292.583	34.64
292.798	-10.41
293.012	69.46
293.227	14.17
293.442	87.89
293.657	-24.75
293.871	44.88
294.086	24.4
294.301	71.51
294.516	85.84
294.73	59.22
294.945	30.55
295.16	5.97
295.374	67.41
295.589	104.28
295.804	-20.65
296.018	22.36
296.233	110.42
296.447	81.75
296.662	53.08
296.877	-45.23
297.091	28.5
297.306	32.6
297.52	44.88
297.735	20.31
297.949	30.55
298.164	26.45
298.378	16.21
298.593	3.93
298.807	-12.46
299.022	65.36
299.236	94.04
299.451	-32.94
299.665	32.6
299.88	-0.17
300.094	77.65
300.309	83.8
300.523	20.31
300.737	57.17
300.952	-43.18
301.166	32.6
301.381	40.79
301.595	36.69
301.809	30.55
302.024	53.08
302.238	48.98
302.452	79.7
302.667	-12.46
302.881	112.47
303.095	-4.27
303.309	-2.22
303.524	77.65
303.738	30.55
303.952	-49.32
304.166	73.56
304.381	81.75
304.595	96.08
304.809	-67.75
305.023	94.04
305.237	-65.71
305.452	48.98
305.666	48.98
305.88	-10.41
306.094	61.27
306.308	36.69
306.522	96.08
306.736	34.64
306.95	-37.03
307.164	28.5
307.379	-30.89
307.593	65.36
307.807	83.8
308.021	32.6
308.235	-59.56
308.449	-6.31
308.663	-12.46
308.877	135
309.091	114.52
309.305	36.69
309.519	-12.46
309.733	48.98
309.947	-12.46
310.161	12.12
310.374	53.08
310.588	20.31
310.802	-51.37
311.016	67.41
311.23	16.21
311.444	87.89
311.658	-20.65
311.872	106.32
312.085	85.84
312.299	57.17
312.513	46.93
312.727	38.74
312.941	5.97
313.154	104.28
313.368	-20.65
313.582	57.17
313.796	8.02
314.009	28.5
314.223	40.79
314.437	-75.95
314.651	130.9
314.864	65.36
315.078	44.88
315.292	-49.32
315.505	22.36
315.719	-34.99
315.933	53.08
316.146	42.84
316.36	-41.13
316.573	67.41
316.787	42.84
317.001	24.4
317.214	55.12
317.428	55.12
317.641	14.17
317.855	73.56
318.068	48.98
318.282	14.17
318.495	75.6
318.709	77.65
318.922	28.5
319.136	94.04
319.349	18.26
319.563	12.12
319.776	1.88
319.99	44.88
320.203	48.98
320.417	5.97
320.63	-0.17
320.843	51.03
321.057	36.69
321.27	79.7
321.483	79.7
321.697	59.22
321.91	57.17
322.124	44.88
322.337	53.08
322.55	-47.27
322.763	63.32
322.977	38.74
323.19	77.65
323.403	83.8
323.617	46.93
323.83	71.51
324.043	-12.46
324.256	28.5
324.469	20.31
324.683	118.61
324.896	22.36
325.109	110.42
325.322	44.88
325.535	-45.23
325.748	28.5
325.962	8.02
326.175	94.04
326.388	44.88
326.601	87.89
326.814	63.32
327.027	85.84
327.24	77.65
327.453	-4.27
327.666	30.55
327.879	63.32
328.092	71.51
328.305	16.21
328.518	44.88
328.731	77.65
328.944	42.84
329.157	-18.6
329.37	53.08
329.583	120.66
329.796	130.9
330.009	-37.03
330.222	57.17
330.435	28.5
330.648	12.12
330.861	34.64
331.073	46.93
331.286	-22.7
331.499	-12.46
331.712	-26.79
331.925	-18.6
332.138	55.12
332.35	108.37
332.563	53.08
332.776	28.5
332.989	32.6
333.202	89.94
333.414	36.69
333.627	65.36
333.84	-4.27
334.053	73.56
334.265	48.98
334.478	126.8
334.691	16.21
334.903	61.27
335.116	-14.51
335.329	3.93
335.541	61.27
335.754	71.51
335.966	-14.51
336.179	16.21
336.392	83.8
336.604	28.5
336.817	32.6
337.029	77.65
337.242	55.12
337.454	85.84
337.667	-6.31
337.88	75.6
338.092	32.6
338.305	34.64
338.517	98.13
338.729	8.02
338.942	89.94
339.154	53.08
339.367	32.6
339.579	94.04
339.792	20.31
340.004	44.88
340.217	5.97
340.429	20.31
340.641	12.12
340.854	-16.55
341.066	85.84
341.278	77.65
341.491	44.88
341.703	40.79
341.915	3.93
342.128	53.08
342.34	87.89
342.552	14.17
342.764	14.17
342.977	20.31
343.189	71.51
343.401	3.93
343.613	16.21
343.826	53.08
344.038	71.51
344.25	32.6
344.462	-16.55
344.674	53.08
344.886	44.88
345.099	-12.46
345.311	59.22
345.523	12.12
345.735	51.03
345.947	28.5
346.159	8.02
346.371	3.93
346.583	53.08
346.795	98.13
347.007	55.12
347.219	46.93
347.431	34.64
347.643	73.56
347.855	61.27
348.067	122.71
348.279	53.08
348.491	71.51
348.703	24.4
348.915	12.12
349.127	16.21
349.339	-18.6
349.551	85.84
349.763	59.22
349.975	3.93
350.187	18.26
350.399	38.74
350.61	40.79
350.822	22.36
351.034	118.61
351.246	85.84
351.458	53.08
351.669	26.45
351.881	16.21
352.093	34.64
352.305	77.65
352.517	120.66
352.728	53.08
352.94	-12.46
353.152	46.93
353.363	-16.55
353.575	5.97
353.787	3.93
353.999	85.84
354.21	122.71
354.422	16.21
354.633	5.97
354.845	-2.22
355.057	73.56
355.268	-0.17
355.48	32.6
355.692	-26.79
355.903	42.84
356.115	-12.46
356.326	20.31
356.538	48.98
356.749	59.22
356.961	87.89
357.172	-28.84
357.384	46.93
357.595	137.04
357.807	3.93
358.018	-28.84
358.23	69.46
358.441	55.12
358.653	34.64
358.864	89.94
359.075	8.02
359.287	26.45
359.498	3.93
359.709	-12.46
359.921	44.88
360.132	75.6
360.344	53.08
360.555	-53.42
360.766	32.6
360.977	55.12
361.189	46.93
361.4	120.66
361.611	79.7
361.823	-32.94
362.034	38.74
362.245	34.64
362.456	96.08
362.667	79.7
362.879	46.93
363.09	98.13
363.301	-37.03
363.512	-26.79
363.723	61.27
363.935	104.28
364.146	46.93
364.357	-30.89
364.568	79.7
364.779	-16.55
364.99	73.56
365.201	5.97
365.412	63.32
365.623	8.02
365.834	46.93
366.045	83.8
366.256	61.27
366.467	38.74
366.678	55.12
366.889	65.36
367.1	69.46
367.311	46.93
367.522	102.23
367.733	36.69
367.944	87.89
368.155	98.13
368.366	12.12
368.577	57.17
368.788	55.12
368.999	30.55
369.209	94.04
369.42	155.47
369.631	51.03
369.842	65.36
370.053	71.51
370.264	24.4
370.474	28.5
370.685	77.65
370.896	28.5
371.107	42.84
371.317	96.08
371.528	30.55
371.739	151.38
371.95	30.55
372.16	44.88
372.371	-4.27
372.582	-26.79
372.792	120.66
373.003	53.08
373.214	14.17
373.424	91.99
373.635	36.69
373.846	116.56
374.056	36.69
374.267	24.4
374.477	40.79
374.688	-26.79
374.898	104.28
375.109	36.69
375.319	55.12
375.53	91.99
375.74	57.17
375.951	42.84
376.161	143.19
376.372	30.55
376.582	44.88
376.793	112.47
377.003	44.88
377.214	12.12
377.424	48.98
377.635	61.27
377.845	5.97
378.055	71.51
378.266	102.23
378.476	3.93
378.686	-69.8
378.897	79.7
379.107	36.69
379.317	28.5
379.528	73.56
379.738	63.32
379.948	-45.23
380.158	100.18
380.369	59.22
380.579	20.31
380.789	-37.03
380.999	55.12
381.21	73.56
381.42	128.85
381.63	75.6
381.84	30.55
382.05	28.5
382.261	65.36
382.471	87.89
382.681	36.69
382.891	57.17
383.101	73.56
383.311	69.46
383.521	46.93
383.731	40.79
383.941	36.69
384.151	61.27
384.361	75.6
384.571	-4.27
384.781	26.45
384.991	44.88
385.201	135
385.411	96.08
385.621	112.47
385.831	69.46
386.041	53.08
386.251	38.74
386.461	159.57
386.671	-20.65
386.881	48.98
387.091	61.27
387.301	102.23
387.511	5.97
387.72	73.56
387.93	65.36
388.14	53.08
388.35	22.36
388.56	73.56
388.769	22.36
388.979	-22.7
389.189	100.18
389.399	73.56
389.609	130.9
389.818	100.18
390.028	104.28
390.238	69.46
390.447	-4.27
390.657	126.8
390.867	69.46
391.076	53.08
391.286	126.8
391.496	32.6
391.705	77.65
391.915	-0.17
392.125	85.84
392.334	94.04
392.544	126.8
392.753	89.94
392.963	28.5
393.172	34.64
393.382	110.42
393.591	91.99
393.801	28.5
394.01	130.9
394.22	89.94
394.429	135
394.639	71.51
394.848	151.38
395.058	1.88
395.267	55.12
395.477	110.42
395.686	159.57
395.895	79.7
396.105	94.04
396.314	110.42
396.524	44.88
396.733	71.51
396.942	118.61
397.152	139.09
397.361	102.23
397.57	65.36
397.78	137.04
397.989	3.93
398.198	200.53
398.407	98.13
398.617	38.74
398.826	163.67
399.035	135
399.244	122.71
399.453	128.85
399.663	147.28
399.872	94.04
400.081	38.74
400.29	118.61
400.499	110.42
400.708	135
400.917	137.04
401.127	67.41
401.336	139.09
401.545	221.01
401.754	63.32
401.963	89.94
402.172	114.52
402.381	89.94
402.59	102.23
402.799	104.28
403.008	200.53
403.217	120.66
403.426	69.46
403.635	161.62
403.844	96.08
404.053	112.47
404.262	106.32
404.471	196.43
404.68	147.28
404.888	116.56
405.097	126.8
405.306	130.9
405.515	94.04
405.724	208.72
405.933	153.43
406.142	175.95
406.35	186.19
406.559	151.38
406.768	126.8
406.977	218.96
407.185	208.72
407.394	145.24
407.603	167.76
407.812	202.58
408.02	261.97
408.229	178
408.438	202.58
408.646	180.05
408.855	266.07
409.064	237.39
409.272	239.44
409.481	247.63
409.69	309.07
409.898	243.54
410.107	309.07
410.315	366.42
410.524	278.35
410.733	319.31
410.941	317.26
411.15	354.13
411.358	307.02
411.567	472.91
411.775	335.7
411.984	327.5
412.192	362.32
412.401	483.15
412.609	483.15
412.818	470.86
413.026	507.73
413.234	503.63
413.443	474.96
413.651	448.33
413.86	554.83
414.068	517.97
414.276	665.42
414.485	534.35
414.693	565.07
414.901	661.32
415.11	685.9
415.318	655.18
415.526	757.58
415.734	741.19
415.943	786.25
416.151	841.54
416.359	802.63
416.567	859.98
416.776	814.92
416.984	1013.57
417.192	937.8
417.4	900.94
417.608	831.3
417.817	1036.1
418.025	1050.44
418.233	1154.88
418.441	1034.05
418.649	1150.79
418.857	1183.56
419.065	1318.72
419.273	1228.61
419.481	1308.48
419.689	1335.1
419.897	1392.45
420.105	1447.74
420.313	1457.98
420.521	1484.61
420.729	1627.96
420.937	1535.81
421.145	1634.11
421.353	1773.37
421.561	1769.27
421.769	1910.58
421.977	1904.44
422.185	1857.34
422.393	1963.83
422.601	2178.87
422.809	2086.71
423.017	2221.88
423.224	2330.42
423.432	2223.92
423.64	2393.9
423.848	2447.15
424.056	2512.69
424.263	2778.92
424.471	2613.04
424.679	2731.82
424.887	2821.93
425.094	2957.1
425.302	2869.03
425.51	3084.07
425.718	3106.6
425.925	3170.08
426.133	3424.03
426.341	3446.56
426.548	3620.64
426.756	3575.58
426.964	3764
427.171	3858.2
427.379	3948.31
427.586	3927.83
427.794	4126.49
428.001	4263.7
428.209	4558.61
428.417	4513.55
428.624	4892.43
428.832	4806.41
429.039	4722.45
429.247	4888.33
429.454	5099.27
429.662	5582.59
429.869	5144.33
430.076	5551.87
430.284	5379.84
430.491	5748.48
430.699	5959.42
430.906	6143.74
431.114	6133.5
431.321	6500.08
431.528	6285.05
431.736	6872.81
431.943	7212.78
432.15	6868.72
432.358	6889.2
432.565	7472.87
432.772	7159.53
432.979	7802.59
433.187	7978.72
433.394	8007.39
433.601	8478.42
433.808	8527.57
434.016	8310.49
434.223	8933.07
434.43	9246.41
434.637	9041.61
434.844	9598.66
435.052	9952.96
435.259	9975.49
435.466	9877.18
435.673	9854.65
435.88	10368.7
436.087	10991.28
436.294	10919.6
436.501	10653.36
436.708	11081.39
436.915	11083.44
437.122	11974.3
437.329	11714.21
437.537	12043.93
437.743	12404.38
437.95	12209.82
438.157	13145.74
438.364	13366.92
438.571	13319.82
438.778	13338.25
438.985	14560.89
439.192	14028.42
439.399	14380.67
439.606	14003.84
439.813	14792.31
440.02	16109.15
440.227	15588.97
440.433	15466.09
440.64	15795.81
440.847	15779.43
441.054	16199.26
441.261	17276.49
441.467	16950.87
441.674	17477.19
441.881	18007.62
442.088	18245.18
442.294	17780.29
442.501	18234.94
442.708	18470.46
442.914	19412.53
443.121	20272.67
443.328	19727.91
443.534	21018.13
443.741	20534.81
443.948	19979.81
444.154	21804.55
444.361	21384.72
444.568	21763.59
444.774	21741.07
444.981	22175.23
445.187	22472.19
445.394	23487.98
445.6	22982.13
445.807	25150.93
446.013	24200.68
446.22	24747.48
446.426	25523.66
446.633	25882.06
446.839	26611.14
447.046	25882.06
447.252	27205.05
447.459	27243.96
447.665	26666.43
447.871	27991.47
448.078	29054.36
448.284	27940.27
448.491	28718.5
448.697	29785.49
448.903	30573.95
449.11	30328.2
449.316	30018.96
449.522	30772.61
449.728	30928.25
449.935	31778.16
450.141	31298.94
450.347	32376.17
450.553	31292.79
450.76	31966.57
450.966	32660.83
451.172	32472.42
451.378	33332.57
451.584	32572.77
451.791	33453.4
451.997	33060.19
452.203	33965.39
452.409	33523.03
452.615	33574.23
452.821	32425.32
453.027	32034.16
453.233	33711.44
453.44	32546.15
453.646	32793.95
453.852	33002.85
454.058	33541.46
454.264	32284.01
454.47	33310.04
454.676	32421.22
454.882	33437.02
455.088	30811.52
455.294	31149.43
455.5	31358.33
455.705	31837.55
455.911	30629.25
456.117	29787.53
456.323	29795.73
456.529	28054.95
456.735	29592.98
456.941	28280.23
457.147	28163.5
457.352	27538.87
457.558	27207.09
457.764	27037.11
457.97	26490.31
458.176	25814.48
458.381	25943.5
458.587	24716.76
458.793	24810.97
458.999	23447.02
459.204	24909.27
459.41	24026.6
459.616	22558.21
459.821	22928.89
460.027	22840.82
460.233	22324.74
460.438	21419.53
460.644	21499.41
460.85	20493.85
461.055	20293.15
461.261	20071.97
461.466	18570.81
461.672	18232.9
461.878	19297.84
462.083	18009.67
462.289	17499.72
462.494	17665.61
462.7	16866.9
462.905	16594.52
463.111	16903.76
463.316	16911.96
463.522	16563.8
463.727	16670.29
463.932	16633.43
464.138	16240.22
464.343	16461.4
464.549	15865.44
464.754	16365.15
464.959	16451.16
465.165	16219.74
465.37	15543.91
465.575	15019.63
465.781	15679.08
465.986	15789.67
466.191	15216.24
466.397	15109.74
466.602	14206.59
466.807	14728.82
467.012	14773.88
467.218	14538.36
467.423	14407.29
467.628	14734.96
