Data from USB4F104151__190__14-20-20-430.txt Node

Date: Thu Mar 13 14:20:20 EDT 2025
User: louis
Spectrometer: USB4F10415
Trigger mode: 4
Integration Time (sec): 2.000000E-2
Scans to average: 1
Electric dark correction enabled: true
Nonlinearity correction enabled: false
Boxcar width: 0
XAxis mode: Wavelengths
Number of Pixels in Spectrum: 3648
>>>>>Begin Spectral Data<<<<<
178.204	-63.66
178.424	-63.66
178.644	-63.66
178.864	-75.95
179.084	-116.9
179.304	-59.56
179.524	5.97
179.744	1.88
179.964	-6.31
180.184	-26.79
180.404	42.84
180.624	34.64
180.844	51.03
181.064	-34.99
181.283	-20.65
181.503	12.12
181.723	-0.17
181.943	18.26
182.163	42.84
182.383	-4.27
182.602	106.32
182.822	67.41
183.042	28.5
183.262	34.64
183.482	108.37
183.701	-28.84
183.921	20.31
184.141	18.26
184.361	67.41
184.58	5.97
184.8	18.26
185.02	-0.17
185.239	100.18
185.459	51.03
185.679	-20.65
185.898	-47.27
186.118	38.74
186.338	5.97
186.557	46.93
186.777	79.7
186.997	89.94
187.216	46.93
187.436	69.46
187.655	44.88
187.875	42.84
188.095	26.45
188.314	116.56
188.534	110.42
188.753	57.17
188.973	55.12
189.192	-6.31
189.412	-12.46
189.631	51.03
189.851	96.08
190.07	55.12
190.29	18.26
190.509	-41.13
190.729	8.02
190.948	-24.75
191.168	161.62
191.387	77.65
191.607	-53.42
191.826	26.45
192.045	42.84
192.265	18.26
192.484	75.6
192.704	10.07
192.923	71.51
193.142	102.23
193.362	-10.41
193.581	98.13
193.8	59.22
194.02	28.5
194.239	42.84
194.458	46.93
194.678	65.36
194.897	55.12
195.116	-4.27
195.335	85.84
195.555	40.79
195.774	61.27
195.993	22.36
196.212	34.64
196.432	89.94
196.651	94.04
196.87	36.69
197.089	61.27
197.308	61.27
197.528	91.99
197.747	83.8
197.966	14.17
198.185	53.08
198.404	18.26
198.623	71.51
198.842	3.93
199.062	91.99
199.281	91.99
199.5	26.45
199.719	83.8
199.938	44.88
200.157	79.7
200.376	59.22
200.595	85.84
200.814	24.4
201.033	18.26
201.252	55.12
201.471	-22.7
201.69	10.07
201.909	3.93
202.128	12.12
202.347	18.26
202.566	38.74
202.785	28.5
203.004	8.02
203.223	116.56
203.442	75.6
203.661	124.76
203.879	14.17
204.098	61.27
204.317	42.84
204.536	85.84
204.755	44.88
204.974	34.64
205.193	79.7
205.411	159.57
205.63	-0.17
205.849	57.17
206.068	22.36
206.287	89.94
206.505	91.99
206.724	22.36
206.943	20.31
207.162	65.36
207.381	20.31
207.599	28.5
207.818	51.03
208.037	32.6
208.255	18.26
208.474	-6.31
208.693	16.21
208.911	12.12
209.13	141.14
209.349	63.32
209.567	59.22
209.786	-45.23
210.005	106.32
210.223	34.64
210.442	-30.89
210.661	-0.17
210.879	26.45
211.098	26.45
211.316	42.84
211.535	67.41
211.753	100.18
211.972	59.22
212.191	48.98
212.409	124.76
212.628	124.76
212.846	-30.89
213.065	-6.31
213.283	46.93
213.502	1.88
213.72	-30.89
213.938	112.47
214.157	100.18
214.375	38.74
214.594	55.12
214.812	79.7
215.031	20.31
215.249	75.6
215.467	32.6
215.686	65.36
215.904	26.45
216.122	18.26
216.341	42.84
216.559	3.93
216.778	1.88
216.996	28.5
217.214	83.8
217.432	69.46
217.651	-49.32
217.869	24.4
218.087	73.56
218.306	69.46
218.524	-14.51
218.742	1.88
218.96	12.12
219.179	65.36
219.397	96.08
219.615	94.04
219.833	-2.22
220.051	26.45
220.27	106.32
220.488	71.51
220.706	44.88
220.924	98.13
221.142	30.55
221.36	55.12
221.578	79.7
221.796	73.56
222.015	65.36
222.233	42.84
222.451	85.84
222.669	59.22
222.887	-4.27
223.105	28.5
223.323	87.89
223.541	38.74
223.759	51.03
223.977	51.03
224.195	163.67
224.413	55.12
224.631	20.31
224.849	-6.31
225.067	75.6
225.285	55.12
225.503	53.08
225.721	-4.27
225.939	83.8
226.157	77.65
226.375	91.99
226.592	42.84
226.81	-14.51
227.028	30.55
227.246	20.31
227.464	46.93
227.682	77.65
227.9	-2.22
228.117	91.99
228.335	104.28
228.553	-41.13
228.771	30.55
228.989	55.12
229.206	96.08
229.424	75.6
229.642	-6.31
229.86	55.12
230.077	124.76
230.295	26.45
230.513	69.46
230.731	34.64
230.948	100.18
231.166	65.36
231.384	-26.79
231.601	42.84
231.819	30.55
232.037	12.12
232.254	42.84
232.472	55.12
232.689	36.69
232.907	104.28
233.125	26.45
233.342	14.17
233.56	1.88
233.777	44.88
233.995	12.12
234.213	141.14
234.43	75.6
234.648	63.32
234.865	42.84
235.083	10.07
235.3	75.6
235.518	26.45
235.735	77.65
235.953	83.8
236.17	141.14
236.388	-104.62
236.605	53.08
236.822	18.26
237.04	28.5
237.257	63.32
237.475	1.88
237.692	94.04
237.909	36.69
238.127	163.67
238.344	-2.22
238.562	124.76
238.779	51.03
238.996	5.97
239.214	-14.51
239.431	116.56
239.648	44.88
239.865	94.04
240.083	3.93
240.3	69.46
240.517	36.69
240.735	108.37
240.952	61.27
241.169	192.34
241.386	79.7
241.603	53.08
241.821	-10.41
242.038	42.84
242.255	36.69
242.472	-6.31
242.689	48.98
242.907	112.47
243.124	44.88
243.341	-12.46
243.558	-22.7
243.775	59.22
243.992	42.84
244.209	8.02
244.426	85.84
244.643	1.88
244.86	57.17
245.078	44.88
245.295	44.88
245.512	55.12
245.729	-14.51
245.946	38.74
246.163	-0.17
246.38	10.07
246.597	-22.7
246.814	59.22
247.031	1.88
247.248	91.99
247.464	8.02
247.681	108.37
247.898	61.27
248.115	85.84
248.332	-34.99
248.549	75.6
248.766	67.41
248.983	151.38
249.2	79.7
249.417	59.22
249.633	1.88
249.85	-14.51
250.067	12.12
250.284	34.64
250.501	-30.89
250.717	26.45
250.934	-57.51
251.151	91.99
251.368	42.84
251.585	69.46
251.801	79.7
252.018	-18.6
252.235	108.37
252.451	55.12
252.668	55.12
252.885	108.37
253.102	22.36
253.318	44.88
253.535	75.6
253.752	34.64
253.968	59.22
254.185	42.84
254.401	10.07
254.618	91.99
254.835	59.22
255.051	61.27
255.268	53.08
255.484	102.23
255.701	14.17
255.917	34.64
256.134	77.65
256.351	69.46
256.567	36.69
256.784	112.47
257	20.31
257.217	12.12
257.433	104.28
257.65	102.23
257.866	83.8
258.082	1.88
258.299	67.41
258.515	71.51
258.732	67.41
258.948	108.37
259.165	24.4
259.381	38.74
259.597	38.74
259.814	53.08
260.03	20.31
260.246	42.84
260.463	20.31
260.679	42.84
260.895	38.74
261.112	89.94
261.328	71.51
261.544	36.69
261.761	36.69
261.977	53.08
262.193	10.07
262.409	46.93
262.626	108.37
262.842	145.24
263.058	55.12
263.274	59.22
263.49	71.51
263.707	40.79
263.923	18.26
264.139	114.52
264.355	8.02
264.571	116.56
264.787	75.6
265.004	104.28
265.22	85.84
265.436	69.46
265.652	-6.31
265.868	77.65
266.084	26.45
266.3	30.55
266.516	3.93
266.732	85.84
266.948	57.17
267.164	71.51
267.38	38.74
267.596	55.12
267.812	87.89
268.028	132.95
268.244	20.31
268.46	5.97
268.676	26.45
268.892	1.88
269.108	65.36
269.324	83.8
269.54	26.45
269.756	59.22
269.972	71.51
270.188	22.36
270.403	132.95
270.619	91.99
270.835	83.8
271.051	34.64
271.267	59.22
271.483	34.64
271.698	63.32
271.914	24.4
272.13	32.6
272.346	83.8
272.562	22.36
272.777	75.6
272.993	46.93
273.209	77.65
273.425	85.84
273.64	12.12
273.856	44.88
274.072	75.6
274.287	-26.79
274.503	67.41
274.719	89.94
274.934	44.88
275.15	38.74
275.366	108.37
275.581	22.36
275.797	-0.17
276.012	34.64
276.228	18.26
276.444	61.27
276.659	59.22
276.875	14.17
277.09	77.65
277.306	34.64
277.521	85.84
277.737	71.51
277.952	36.69
278.168	34.64
278.383	22.36
278.599	124.76
278.814	-26.79
279.03	67.41
279.245	116.56
279.461	-30.89
279.676	91.99
279.892	42.84
280.107	75.6
280.322	-22.7
280.538	46.93
280.753	3.93
280.969	110.42
281.184	100.18
281.399	42.84
281.615	75.6
281.83	26.45
282.045	-28.84
282.26	12.12
282.476	108.37
282.691	46.93
282.906	59.22
283.122	67.41
283.337	38.74
283.552	141.14
283.767	-26.79
283.983	3.93
284.198	-10.41
284.413	91.99
284.628	5.97
284.843	102.23
285.058	46.93
285.274	-20.65
285.489	44.88
285.704	67.41
285.919	14.17
286.134	53.08
286.349	26.45
286.564	26.45
286.779	67.41
286.995	69.46
287.21	-39.08
287.425	91.99
287.64	55.12
287.855	-30.89
288.07	-6.31
288.285	53.08
288.5	79.7
288.715	67.41
288.93	100.18
289.145	57.17
289.36	-16.55
289.575	100.18
289.79	22.36
290.004	24.4
290.219	94.04
290.434	61.27
290.649	14.17
290.864	18.26
291.079	14.17
291.294	118.61
291.509	18.26
291.724	89.94
291.938	91.99
292.153	-18.6
292.368	-4.27
292.583	-8.36
292.798	63.32
293.012	77.65
293.227	-6.31
293.442	34.64
293.657	42.84
293.871	30.55
294.086	87.89
294.301	34.64
294.516	53.08
294.73	-22.7
294.945	30.55
295.16	18.26
295.374	57.17
295.589	42.84
295.804	51.03
296.018	34.64
296.233	57.17
296.447	42.84
296.662	-2.22
296.877	126.8
297.091	91.99
297.306	83.8
297.52	26.45
297.735	20.31
297.949	5.97
298.164	-6.31
298.378	34.64
298.593	3.93
298.807	53.08
299.022	124.76
299.236	53.08
299.451	26.45
299.665	51.03
299.88	44.88
300.094	14.17
300.309	28.5
300.523	61.27
300.737	71.51
300.952	46.93
301.166	36.69
301.381	-18.6
301.595	38.74
301.809	48.98
302.024	38.74
302.238	36.69
302.452	87.89
302.667	69.46
302.881	102.23
303.095	75.6
303.309	143.19
303.524	83.8
303.738	14.17
303.952	55.12
304.166	73.56
304.381	-86.19
304.595	55.12
304.809	81.75
305.023	59.22
305.237	12.12
305.452	36.69
305.666	10.07
305.88	26.45
306.094	18.26
306.308	38.74
306.522	67.41
306.736	124.76
306.95	40.79
307.164	91.99
307.379	91.99
307.593	89.94
307.807	20.31
308.021	61.27
308.235	55.12
308.449	79.7
308.663	89.94
308.877	91.99
309.091	63.32
309.305	110.42
309.519	-14.51
309.733	51.03
309.947	1.88
310.161	57.17
310.374	55.12
310.588	126.8
310.802	34.64
311.016	-20.65
311.23	-10.41
311.444	100.18
311.658	38.74
311.872	126.8
312.085	67.41
312.299	83.8
312.513	81.75
312.727	61.27
312.941	18.26
313.154	102.23
313.368	55.12
313.582	53.08
313.796	87.89
314.009	63.32
314.223	77.65
314.437	20.31
314.651	-12.46
314.864	-18.6
315.078	42.84
315.292	36.69
315.505	73.56
315.719	30.55
315.933	108.37
316.146	59.22
316.36	34.64
316.573	67.41
316.787	30.55
317.001	34.64
317.214	98.13
317.428	44.88
317.641	108.37
317.855	51.03
318.068	24.4
318.282	53.08
318.495	91.99
318.709	110.42
318.922	3.93
319.136	108.37
319.349	46.93
319.563	75.6
319.776	46.93
319.99	59.22
320.203	102.23
320.417	71.51
320.63	-2.22
320.843	77.65
321.057	89.94
321.27	91.99
321.483	40.79
321.697	51.03
321.91	51.03
322.124	42.84
322.337	14.17
322.55	-28.84
322.763	63.32
322.977	20.31
323.19	1.88
323.403	73.56
323.617	1.88
323.83	116.56
324.043	40.79
324.256	65.36
324.469	96.08
324.683	55.12
324.896	36.69
325.109	77.65
325.322	108.37
325.535	108.37
325.748	53.08
325.962	14.17
326.175	34.64
326.388	112.47
326.601	61.27
326.814	89.94
327.027	40.79
327.24	83.8
327.453	30.55
327.666	57.17
327.879	135
328.092	91.99
328.305	34.64
328.518	73.56
328.731	100.18
328.944	69.46
329.157	73.56
329.37	24.4
329.583	34.64
329.796	110.42
330.009	38.74
330.222	8.02
330.435	24.4
330.648	110.42
330.861	26.45
331.073	83.8
331.286	81.75
331.499	44.88
331.712	42.84
331.925	-22.7
332.138	122.71
332.35	110.42
332.563	46.93
332.776	124.76
332.989	5.97
333.202	30.55
333.414	12.12
333.627	61.27
333.84	30.55
334.053	75.6
334.265	34.64
334.478	96.08
334.691	18.26
334.903	59.22
335.116	42.84
335.329	108.37
335.541	36.69
335.754	210.77
335.966	-41.13
336.179	34.64
336.392	12.12
336.604	16.21
336.817	-0.17
337.029	124.76
337.242	75.6
337.454	24.4
337.667	5.97
337.88	104.28
338.092	71.51
338.305	132.95
338.517	-63.66
338.729	157.52
338.942	57.17
339.154	53.08
339.367	22.36
339.579	83.8
339.792	1.88
340.004	28.5
340.217	40.79
340.429	118.61
340.641	89.94
340.854	46.93
341.066	48.98
341.278	85.84
341.491	55.12
341.703	61.27
341.915	26.45
342.128	91.99
342.34	22.36
342.552	-20.65
342.764	42.84
342.977	124.76
343.189	116.56
343.401	69.46
343.613	8.02
343.826	30.55
344.038	59.22
344.25	46.93
344.462	42.84
344.674	65.36
344.886	100.18
345.099	75.6
345.311	20.31
345.523	81.75
345.735	3.93
345.947	-22.7
346.159	-37.03
346.371	91.99
346.583	112.47
346.795	91.99
347.007	75.6
347.219	83.8
347.431	26.45
347.643	65.36
347.855	20.31
348.067	63.32
348.279	-53.42
348.491	59.22
348.703	71.51
348.915	77.65
349.127	34.64
349.339	63.32
349.551	30.55
349.763	34.64
349.975	36.69
350.187	143.19
350.399	85.84
350.61	128.85
350.822	-45.23
351.034	75.6
351.246	42.84
351.458	96.08
351.669	102.23
351.881	143.19
352.093	42.84
352.305	57.17
352.517	75.6
352.728	128.85
352.94	5.97
353.152	149.33
353.363	91.99
353.575	73.56
353.787	120.66
353.999	91.99
354.21	77.65
354.422	34.64
354.633	51.03
354.845	16.21
355.057	28.5
355.268	75.6
355.48	182.1
355.692	51.03
355.903	83.8
356.115	75.6
356.326	48.98
356.538	98.13
356.749	44.88
356.961	75.6
357.172	-47.27
357.384	18.26
357.595	94.04
357.807	69.46
358.018	28.5
358.23	73.56
358.441	59.22
358.653	51.03
358.864	61.27
359.075	44.88
359.287	67.41
359.498	59.22
359.709	28.5
359.921	40.79
360.132	124.76
360.344	79.7
360.555	67.41
360.766	141.14
360.977	42.84
361.189	34.64
361.4	94.04
361.611	110.42
361.823	104.28
362.034	59.22
362.245	42.84
362.456	44.88
362.667	51.03
362.879	116.56
363.09	75.6
363.301	110.42
363.512	42.84
363.723	79.7
363.935	44.88
364.146	36.69
364.357	53.08
364.568	173.91
364.779	34.64
364.99	87.89
365.201	51.03
365.412	61.27
365.623	28.5
365.834	14.17
366.045	77.65
366.256	55.12
366.467	87.89
366.678	34.64
366.889	89.94
367.1	104.28
367.311	36.69
367.522	81.75
367.733	1.88
367.944	75.6
368.155	96.08
368.366	51.03
368.577	155.47
368.788	81.75
368.999	124.76
369.209	79.7
369.42	116.56
369.631	96.08
369.842	63.32
370.053	87.89
370.264	10.07
370.474	87.89
370.685	63.32
370.896	51.03
371.107	96.08
371.317	104.28
371.528	51.03
371.739	75.6
371.95	87.89
372.16	67.41
372.371	22.36
372.582	73.56
372.792	36.69
373.003	157.52
373.214	83.8
373.424	28.5
373.635	100.18
373.846	110.42
374.056	108.37
374.267	75.6
374.477	106.32
374.688	1.88
374.898	102.23
375.109	46.93
375.319	89.94
375.53	135
375.74	79.7
375.951	91.99
376.161	61.27
376.372	151.38
376.582	77.65
376.793	124.76
377.003	-18.6
377.214	104.28
377.424	67.41
377.635	59.22
377.845	67.41
378.055	132.95
378.266	30.55
378.476	102.23
378.686	77.65
378.897	67.41
379.107	77.65
379.317	77.65
379.528	18.26
379.738	145.24
379.948	53.08
380.158	63.32
380.369	20.31
380.579	57.17
380.789	20.31
380.999	94.04
381.21	106.32
381.42	128.85
381.63	67.41
381.84	-14.51
382.05	65.36
382.261	91.99
382.471	36.69
382.681	79.7
382.891	110.42
383.101	63.32
383.311	-12.46
383.521	63.32
383.731	71.51
383.941	71.51
384.151	61.27
384.361	116.56
384.571	85.84
384.781	143.19
384.991	122.71
385.201	122.71
385.411	118.61
385.621	67.41
385.831	57.17
386.041	71.51
386.251	143.19
386.461	130.9
386.671	89.94
386.881	128.85
387.091	51.03
387.301	-0.17
387.511	63.32
387.72	157.52
387.93	38.74
388.14	94.04
388.35	112.47
388.56	120.66
388.769	63.32
388.979	139.09
389.189	18.26
389.399	77.65
389.609	-12.46
389.818	38.74
390.028	83.8
390.238	34.64
390.447	147.28
390.657	79.7
390.867	108.37
391.076	87.89
391.286	30.55
391.496	26.45
391.705	14.17
391.915	186.19
392.125	112.47
392.334	71.51
392.544	18.26
392.753	83.8
392.963	34.64
393.172	106.32
393.382	104.28
393.591	116.56
393.801	139.09
394.01	118.61
394.22	169.81
394.429	108.37
394.639	100.18
394.848	139.09
395.058	67.41
395.267	69.46
395.477	71.51
395.686	137.04
395.895	161.62
396.105	87.89
396.314	132.95
396.524	122.71
396.733	161.62
396.942	157.52
397.152	122.71
397.361	157.52
397.57	173.91
397.78	100.18
397.989	96.08
398.198	143.19
398.407	163.67
398.617	157.52
398.826	96.08
399.035	141.14
399.244	100.18
399.453	106.32
399.663	135
399.872	157.52
400.081	112.47
400.29	143.19
400.499	87.89
400.708	91.99
400.917	110.42
401.127	100.18
401.336	91.99
401.545	108.37
401.754	116.56
401.963	188.24
402.172	143.19
402.381	120.66
402.59	108.37
402.799	157.52
403.008	124.76
403.217	159.57
403.426	143.19
403.635	147.28
403.844	161.62
404.053	173.91
404.262	165.71
404.471	182.1
404.68	122.71
404.888	108.37
405.097	139.09
405.306	190.29
405.515	194.39
405.724	196.43
405.933	169.81
406.142	296.78
406.35	192.34
406.559	223.06
406.768	132.95
406.977	282.45
407.185	221.01
407.394	270.16
407.603	221.01
407.812	169.81
408.02	235.35
408.229	198.48
408.438	315.22
408.646	290.64
408.855	255.83
409.064	317.26
409.272	261.97
409.481	307.02
409.69	210.77
409.898	300.88
410.107	429.9
410.315	382.8
410.524	282.45
410.733	468.81
410.941	374.61
411.15	423.76
411.358	417.61
411.567	413.52
411.775	438.09
411.984	485.2
412.192	477.01
412.401	472.91
412.609	544.59
412.818	530.25
413.026	601.93
413.234	546.64
413.443	528.21
413.651	571.21
413.86	563.02
414.068	683.85
414.276	612.17
414.485	651.08
414.693	712.52
414.901	782.15
415.11	765.77
415.318	749.39
415.526	743.24
415.734	800.59
415.943	886.6
416.151	902.98
416.359	821.06
416.567	993.09
416.776	882.5
416.984	1038.15
417.192	925.51
417.4	972.61
417.608	935.75
417.817	1115.97
418.025	1173.32
418.233	1269.57
418.441	1236.8
418.649	1279.81
418.857	1347.39
419.065	1353.54
419.273	1320.77
419.481	1400.64
419.689	1488.7
419.897	1650.49
420.105	1558.33
420.313	1617.72
420.521	1730.36
420.729	1756.99
420.937	1625.92
421.145	1797.95
421.353	1945.4
421.561	1949.5
421.769	2008.89
421.977	2221.88
422.185	2133.81
422.393	2238.26
422.601	2357.04
422.809	2369.33
423.017	2336.56
423.224	2430.77
423.432	2484.02
423.64	2561.84
423.848	2762.54
424.056	2731.82
424.263	2860.84
424.471	2944.81
424.679	2991.91
424.887	3213.09
425.094	3217.19
425.302	3305.25
425.51	3387.17
425.718	3567.39
425.925	3651.36
426.133	3819.29
426.341	3872.54
426.548	4015.9
426.756	3962.65
426.964	4081.43
427.171	4339.48
427.379	4515.6
427.586	4501.26
427.794	4714.25
428.001	4945.67
428.209	5052.17
428.417	4810.51
428.624	5437.19
428.832	5342.98
429.039	5377.8
429.247	5367.56
429.454	5883.64
429.662	6233.85
429.869	5926.65
430.076	6223.61
430.284	6067.96
430.491	6346.48
430.699	6643.44
430.906	6831.85
431.114	6940.4
431.321	7137
431.528	7186.15
431.736	7648.99
431.943	8087.26
432.15	7765.73
432.358	7767.77
432.565	8251.1
432.772	8242.9
432.979	8734.42
433.187	8922.83
433.394	8734.42
433.601	9424.58
433.808	9324.23
434.016	9457.35
434.223	9778.88
434.43	10262.2
434.637	10268.34
434.844	10819.25
435.052	10837.68
435.259	11046.57
435.466	11042.48
435.673	10948.27
435.88	11511.46
436.087	12236.44
436.294	12091.04
436.501	11945.63
436.708	12091.04
436.915	12557.97
437.122	12924.56
437.329	13127.31
437.537	13280.91
437.743	13661.83
437.95	13629.06
438.157	14306.94
438.364	14704.24
438.571	14401.15
438.778	14902.9
438.985	16199.26
439.192	15498.86
439.399	16289.37
439.606	15502.95
439.813	16803.41
440.02	17811.01
440.227	17380.94
440.433	17233.49
440.64	17602.12
440.847	17616.46
441.054	17978.95
441.261	19162.67
441.467	18849.33
441.674	19023.41
441.881	20041.25
442.088	19787.3
442.294	19695.14
442.501	20141.6
442.708	20786.71
442.914	21577.23
443.121	22382.08
443.328	21513.74
443.534	23705.07
443.741	22406.66
443.948	22251.01
444.154	24051.17
444.361	23954.92
444.568	23854.57
444.774	23999.98
444.981	24129
445.187	24974.81
445.394	25959.88
445.6	25746.89
445.807	28118.44
446.013	26963.39
446.22	27350.45
446.426	28112.3
446.633	28671.39
446.839	29707.66
447.046	28249.51
447.252	29848.97
447.459	30002.57
447.665	29781.39
447.871	31047.04
448.078	32562.53
448.284	30784.9
448.491	31774.06
448.697	32963.93
448.903	33627.48
449.11	33559.89
449.316	33258.84
449.522	33785.17
449.728	35138.88
449.935	34678.08
450.141	34901.31
450.347	35550.52
450.553	34239.82
450.76	35130.69
450.966	36027.7
451.172	35783.99
451.378	36422.95
451.584	35773.75
451.791	37035.3
451.997	36846.88
452.203	37297.44
452.409	37340.44
452.615	36975.91
452.821	35577.14
453.027	35532.09
453.233	37168.41
453.44	35747.12
453.646	36349.23
453.852	36611.37
454.058	36977.95
454.264	35790.13
454.47	36814.12
454.676	35648.82
454.882	37133.6
455.088	33490.26
455.294	34127.18
455.5	35067.2
455.705	34811.2
455.911	33471.83
456.117	33215.83
456.323	32660.83
456.529	30690.69
456.735	32277.86
456.941	31583.6
457.147	31264.12
457.352	30102.92
457.558	29865.36
457.764	29875.6
457.97	29044.12
458.176	28642.72
458.381	28685.73
458.587	27065.78
458.793	27504.05
458.999	25961.93
459.204	28097.96
459.41	27022.78
459.616	25189.84
459.821	25343.44
460.027	25167.32
460.233	24489.44
460.438	23508.46
460.644	23873
460.85	22595.07
461.055	22492.67
461.261	22124.04
461.466	20471.32
461.672	19863.08
461.878	21251.6
462.083	19891.75
462.289	19609.13
462.494	19355.18
462.7	18404.92
462.905	18067.01
463.111	18556.47
463.316	18630.2
463.522	18503.23
463.727	18179.65
463.932	18306.62
464.138	18175.55
464.343	18349.63
464.549	17600.07
464.754	18523.71
464.959	17919.56
465.165	17862.21
465.37	17192.53
465.575	16664.15
465.781	17593.93
465.986	17616.46
466.191	16881.24
466.397	16500.31
466.602	15685.22
466.807	16397.92
467.012	16627.29
