Data from USB4F104151__119__14-18-35-887.txt Node

Date: Thu Mar 13 14:18:35 EDT 2025
User: louis
Spectrometer: USB4F10415
Trigger mode: 4
Integration Time (sec): 2.000000E-2
Scans to average: 1
Electric dark correction enabled: true
Nonlinearity correction enabled: false
Boxcar width: 0
XAxis mode: Wavelengths
Number of Pixels in Spectrum: 3648
>>>>>Begin Spectral Data<<<<<
178.204	-123.39
178.424	-123.39
178.644	-123.39
178.864	-154.11
179.084	-90.62
179.304	-12.8
179.524	-68.09
179.744	24.06
179.964	48.64
180.184	-12.8
180.404	-90.62
180.624	-20.99
180.844	28.16
181.064	-8.7
181.283	-6.66
181.503	34.3
181.723	85.5
181.943	-123.39
182.163	42.5
182.383	-12.8
182.602	122.37
182.822	-29.18
183.042	32.26
183.262	7.68
183.482	34.3
183.701	24.06
183.921	19.97
184.141	36.35
184.361	48.64
184.58	24.06
184.8	-4.61
185.02	30.21
185.239	7.68
185.459	-33.28
185.679	81.41
185.898	17.92
186.118	52.74
186.338	5.63
186.557	36.35
186.777	26.11
186.997	-29.18
187.216	-12.8
187.436	60.93
187.655	34.3
187.875	17.92
188.095	1.54
188.314	54.78
188.534	56.83
188.753	-31.23
188.973	65.02
189.192	101.89
189.412	13.82
189.631	-12.8
189.851	24.06
190.07	42.5
190.29	79.36
190.509	-16.9
190.729	-39.42
190.948	24.06
191.168	122.37
191.387	56.83
191.607	-0.51
191.826	15.87
192.045	19.97
192.265	103.93
192.484	7.68
192.704	58.88
192.923	-12.8
193.142	155.13
193.362	56.83
193.581	17.92
193.8	-25.09
194.02	24.06
194.239	56.83
194.458	24.06
194.678	-12.8
194.897	58.88
195.116	-2.56
195.335	15.87
195.555	34.3
195.774	32.26
195.993	17.92
196.212	89.6
196.432	36.35
196.651	60.93
196.87	-41.47
197.089	89.6
197.308	60.93
197.528	7.68
197.747	-47.62
197.966	11.78
198.185	17.92
198.404	1.54
198.623	-16.9
198.842	34.3
199.062	-27.14
199.281	85.5
199.5	30.21
199.719	126.46
199.938	-25.09
200.157	69.12
200.376	34.3
200.595	114.17
200.814	40.45
201.033	24.06
201.252	48.64
201.471	24.06
201.69	108.03
201.909	-0.51
202.128	52.74
202.347	15.87
202.566	-2.56
202.785	-20.99
203.004	-10.75
203.223	40.45
203.442	26.11
203.661	58.88
203.879	1.54
204.098	91.65
204.317	-16.9
204.536	67.07
204.755	40.45
204.974	50.69
205.193	-4.61
205.411	28.16
205.63	36.35
205.849	67.07
206.068	-39.42
206.287	-33.28
206.505	48.64
206.724	105.98
206.943	15.87
207.162	22.02
207.381	-27.14
207.599	-10.75
207.818	-23.04
208.037	56.83
208.255	48.64
208.474	69.12
208.693	32.26
208.911	65.02
209.13	40.45
209.349	24.06
209.567	24.06
209.786	1.54
210.005	28.16
210.223	52.74
210.442	-29.18
210.661	89.6
210.879	24.06
211.098	42.5
211.316	15.87
211.535	-8.7
211.753	-31.23
211.972	24.06
212.191	11.78
212.409	-8.7
212.628	75.26
212.846	15.87
213.065	36.35
213.283	7.68
213.502	50.69
213.72	-33.28
213.938	89.6
214.157	24.06
214.375	46.59
214.594	9.73
214.812	36.35
215.031	48.64
215.249	-4.61
215.467	-0.51
215.686	97.79
215.904	28.16
216.122	-53.76
216.341	48.64
216.559	26.11
216.778	132.61
216.996	130.56
217.214	42.5
217.432	81.41
217.651	40.45
217.869	-2.56
218.087	65.02
218.306	24.06
218.524	-12.8
218.742	50.69
218.96	-74.24
219.179	32.26
219.397	28.16
219.615	-0.51
219.833	36.35
220.051	52.74
220.27	62.98
220.488	60.93
220.706	-6.66
220.924	56.83
221.142	-0.51
221.36	42.5
221.578	69.12
221.796	-43.52
222.015	67.07
222.233	34.3
222.451	28.16
222.669	24.06
222.887	15.87
223.105	-25.09
223.323	13.82
223.541	24.06
223.759	56.83
223.977	32.26
224.195	65.02
224.413	108.03
224.631	-0.51
224.849	36.35
225.067	163.33
225.285	24.06
225.503	32.26
225.721	24.06
225.939	-37.38
226.157	1.54
226.375	89.6
226.592	52.74
226.81	15.87
227.028	60.93
227.246	60.93
227.464	67.07
227.682	9.73
227.9	56.83
228.117	7.68
228.335	38.4
228.553	32.26
228.771	-61.95
228.989	81.41
229.206	138.75
229.424	-57.86
229.642	-4.61
229.86	30.21
230.077	19.97
230.295	65.02
230.513	48.64
230.731	-4.61
230.948	34.3
231.166	89.6
231.384	44.54
231.601	67.07
231.819	34.3
232.037	-0.51
232.254	7.68
232.472	-20.99
232.689	-74.24
232.907	56.83
233.125	11.78
233.342	-0.51
233.56	52.74
233.777	24.06
233.995	-0.51
234.213	130.56
234.43	30.21
234.648	3.58
234.865	40.45
235.083	-10.75
235.3	42.5
235.518	65.02
235.735	32.26
235.953	65.02
236.17	54.78
236.388	69.12
236.605	-4.61
236.822	122.37
237.04	28.16
237.257	-14.85
237.475	15.87
237.692	7.68
237.909	140.8
238.127	-8.7
238.344	40.45
238.562	75.26
238.779	-4.61
238.996	32.26
239.214	-37.38
239.431	65.02
239.648	52.74
239.865	9.73
240.083	15.87
240.3	-0.51
240.517	24.06
240.735	15.87
240.952	56.83
241.169	32.26
241.386	32.26
241.603	-8.7
241.821	-25.09
242.038	-8.7
242.255	114.17
242.472	-2.56
242.689	7.68
242.907	28.16
243.124	24.06
243.341	7.68
243.558	-6.66
243.775	-55.81
243.992	-49.66
244.209	50.69
244.426	36.35
244.643	65.02
244.86	50.69
245.078	-29.18
245.295	142.85
245.512	-53.76
245.729	40.45
245.946	50.69
246.163	1.54
246.38	79.36
246.597	-8.7
246.814	32.26
247.031	-33.28
247.248	-6.66
247.464	34.3
247.681	1.54
247.898	40.45
248.115	36.35
248.332	9.73
248.549	114.17
248.766	93.69
248.983	15.87
249.2	11.78
249.417	48.64
249.633	-2.56
249.85	11.78
250.067	101.89
250.284	-20.99
250.501	44.54
250.717	1.54
250.934	36.35
251.151	-16.9
251.368	69.12
251.585	85.5
251.801	5.63
252.018	-31.23
252.235	40.45
252.451	-8.7
252.668	-25.09
252.885	110.08
253.102	-8.7
253.318	5.63
253.535	36.35
253.752	-10.75
253.968	50.69
254.185	-64
254.401	-25.09
254.618	7.68
254.835	26.11
255.051	-6.66
255.268	28.16
255.484	110.08
255.701	-12.8
255.917	87.55
256.134	-20.99
256.351	97.79
256.567	22.02
256.784	15.87
257	-23.04
257.217	40.45
257.433	42.5
257.65	46.59
257.866	65.02
258.082	17.92
258.299	34.3
258.515	48.64
258.732	-18.94
258.948	-31.23
259.165	38.4
259.381	24.06
259.597	101.89
259.814	15.87
260.03	24.06
260.246	-25.09
260.463	48.64
260.679	124.41
260.895	-8.7
261.112	81.41
261.328	-6.66
261.544	81.41
261.761	34.3
261.977	-41.47
262.193	-25.09
262.409	-12.8
262.626	-4.61
262.842	26.11
263.058	-6.66
263.274	75.26
263.49	65.02
263.707	3.58
263.923	28.16
264.139	24.06
264.355	73.21
264.571	38.4
264.787	40.45
265.004	-10.75
265.22	-37.38
265.436	7.68
265.652	-18.94
265.868	65.02
266.084	62.98
266.3	19.97
266.516	-6.66
266.732	54.78
266.948	87.55
267.164	32.26
267.38	15.87
267.596	17.92
267.812	-23.04
268.028	24.06
268.244	-16.9
268.46	81.41
268.676	9.73
268.892	83.45
269.108	28.16
269.324	1.54
269.54	1.54
269.756	34.3
269.972	34.3
270.188	17.92
270.403	17.92
270.619	11.78
270.835	-49.66
271.051	36.35
271.267	93.69
271.483	9.73
271.698	32.26
271.914	60.93
272.13	-47.62
272.346	5.63
272.562	54.78
272.777	128.51
272.993	50.69
273.209	99.84
273.425	81.41
273.64	3.58
273.856	1.54
274.072	32.26
274.287	93.69
274.503	3.58
274.719	36.35
274.934	15.87
275.15	69.12
275.366	26.11
275.581	38.4
275.797	17.92
276.012	-6.66
276.228	42.5
276.444	15.87
276.659	81.41
276.875	1.54
277.09	50.69
277.306	-8.7
277.521	28.16
277.737	-0.51
277.952	85.5
278.168	9.73
278.383	93.69
278.599	-4.61
278.814	71.17
279.03	11.78
279.245	56.83
279.461	40.45
279.676	-6.66
279.892	-41.47
280.107	-31.23
280.322	-12.8
280.538	67.07
280.753	-16.9
280.969	58.88
281.184	-12.8
281.399	101.89
281.615	-20.99
281.83	32.26
282.045	-0.51
282.26	81.41
282.476	-18.94
282.691	44.54
282.906	24.06
283.122	-20.99
283.337	58.88
283.552	105.98
283.767	-25.09
283.983	24.06
284.198	3.58
284.413	-4.61
284.628	-8.7
284.843	48.64
285.058	-23.04
285.274	34.3
285.489	-0.51
285.704	5.63
285.919	24.06
286.134	56.83
286.349	28.16
286.564	-33.28
286.779	58.88
286.995	44.54
287.21	-14.85
287.425	48.64
287.64	42.5
287.855	-66.05
288.07	42.5
288.285	105.98
288.5	44.54
288.715	83.45
288.93	-8.7
289.145	30.21
289.36	75.26
289.575	34.3
289.79	48.64
290.004	28.16
290.219	40.45
290.434	-4.61
290.649	15.87
290.864	26.11
291.079	7.68
291.294	77.31
291.509	32.26
291.724	1.54
291.938	-4.61
292.153	24.06
292.368	62.98
292.583	65.02
292.798	15.87
293.012	48.64
293.227	-25.09
293.442	-29.18
293.657	11.78
293.871	65.02
294.086	-0.51
294.301	148.99
294.516	-18.94
294.73	11.78
294.945	36.35
295.16	-8.7
295.374	40.45
295.589	58.88
295.804	15.87
296.018	56.83
296.233	142.85
296.447	36.35
296.662	22.02
296.877	81.41
297.091	114.17
297.306	40.45
297.52	52.74
297.735	99.84
297.949	83.45
298.164	24.06
298.378	19.97
298.593	-0.51
298.807	50.69
299.022	75.26
299.236	40.45
299.451	91.65
299.665	32.26
299.88	11.78
300.094	-31.23
300.309	15.87
300.523	9.73
300.737	-12.8
300.952	91.65
301.166	34.3
301.381	9.73
301.595	46.59
301.809	50.69
302.024	52.74
302.238	13.82
302.452	116.22
302.667	-20.99
302.881	116.22
303.095	97.79
303.309	89.6
303.524	34.3
303.738	77.31
303.952	15.87
304.166	7.68
304.381	-45.57
304.595	40.45
304.809	9.73
305.023	30.21
305.237	-25.09
305.452	-4.61
305.666	19.97
305.88	89.6
306.094	32.26
306.308	-8.7
306.522	48.64
306.736	15.87
306.95	60.93
307.164	-53.76
307.379	-33.28
307.593	48.64
307.807	17.92
308.021	54.78
308.235	91.65
308.449	-8.7
308.663	69.12
308.877	99.84
309.091	26.11
309.305	87.55
309.519	-41.47
309.733	-25.09
309.947	105.98
310.161	48.64
310.374	28.16
310.588	73.21
310.802	-29.18
311.016	50.69
311.23	44.54
311.444	56.83
311.658	77.31
311.872	81.41
312.085	65.02
312.299	19.97
312.513	-23.04
312.727	32.26
312.941	28.16
313.154	69.12
313.368	-88.57
313.582	24.06
313.796	-31.23
314.009	81.41
314.223	71.17
314.437	89.6
314.651	34.3
314.864	34.3
315.078	79.36
315.292	48.64
315.505	65.02
315.719	48.64
315.933	32.26
316.146	-23.04
316.36	30.21
316.573	120.32
316.787	15.87
317.001	32.26
317.214	81.41
317.428	-4.61
317.641	48.64
317.855	40.45
318.068	30.21
318.282	42.5
318.495	58.88
318.709	89.6
318.922	-8.7
319.136	36.35
319.349	17.92
319.563	17.92
319.776	56.83
319.99	40.45
320.203	132.61
320.417	-33.28
320.63	7.68
320.843	79.36
321.057	19.97
321.27	26.11
321.483	11.78
321.697	56.83
321.91	40.45
322.124	-8.7
322.337	36.35
322.55	24.06
322.763	65.02
322.977	48.64
323.19	-61.95
323.403	40.45
323.617	7.68
323.83	75.26
324.043	-0.51
324.256	79.36
324.469	-39.42
324.683	28.16
324.896	-0.51
325.109	-0.51
325.322	-4.61
325.535	48.64
325.748	124.41
325.962	1.54
326.175	65.02
326.388	114.17
326.601	93.69
326.814	13.82
327.027	15.87
327.24	103.93
327.453	-39.42
327.666	17.92
327.879	67.07
328.092	32.26
328.305	56.83
328.518	9.73
328.731	42.5
328.944	60.93
329.157	7.68
329.37	15.87
329.583	-2.56
329.796	50.69
330.009	24.06
330.222	-33.28
330.435	60.93
330.648	15.87
330.861	65.02
331.073	50.69
331.286	40.45
331.499	24.06
331.712	-16.9
331.925	-6.66
332.138	38.4
332.35	-25.09
332.563	11.78
332.776	48.64
332.989	52.74
333.202	28.16
333.414	69.12
333.627	134.65
333.84	65.02
334.053	44.54
334.265	-8.7
334.478	-14.85
334.691	24.06
334.903	56.83
335.116	-31.23
335.329	19.97
335.541	9.73
335.754	73.21
335.966	77.31
336.179	-10.75
336.392	48.64
336.604	-41.47
336.817	24.06
337.029	32.26
337.242	71.17
337.454	7.68
337.667	7.68
337.88	56.83
338.092	110.08
338.305	36.35
338.517	130.56
338.729	89.6
338.942	81.41
339.154	34.3
339.367	17.92
339.579	83.45
339.792	40.45
340.004	138.75
340.217	19.97
340.429	44.54
340.641	60.93
340.854	-6.66
341.066	-47.62
341.278	75.26
341.491	124.41
341.703	3.58
341.915	-49.66
342.128	42.5
342.34	1.54
342.552	-16.9
342.764	-2.56
342.977	40.45
343.189	-2.56
343.401	44.54
343.613	26.11
343.826	81.41
344.038	91.65
344.25	67.07
344.462	56.83
344.674	89.6
344.886	24.06
345.099	7.68
345.311	89.6
345.523	85.5
345.735	9.73
345.947	67.07
346.159	28.16
346.371	65.02
346.583	24.06
346.795	54.78
347.007	34.3
347.219	69.12
347.431	-12.8
347.643	85.5
347.855	-14.85
348.067	60.93
348.279	34.3
348.491	91.65
348.703	67.07
348.915	60.93
349.127	-35.33
349.339	46.59
349.551	36.35
349.763	54.78
349.975	58.88
350.187	97.79
350.399	58.88
350.61	30.21
350.822	50.69
351.034	7.68
351.246	71.17
351.458	83.45
351.669	34.3
351.881	89.6
352.093	48.64
352.305	24.06
352.517	65.02
352.728	50.69
352.94	-0.51
353.152	17.92
353.363	40.45
353.575	42.5
353.787	40.45
353.999	146.94
354.21	118.27
354.422	85.5
354.633	65.02
354.845	128.51
355.057	11.78
355.268	79.36
355.48	38.4
355.692	17.92
355.903	19.97
356.115	93.69
356.326	60.93
356.538	9.73
356.749	91.65
356.961	85.5
357.172	56.83
357.384	81.41
357.595	103.93
357.807	40.45
358.018	-6.66
358.23	-6.66
358.441	42.5
358.653	114.17
358.864	48.64
359.075	11.78
359.287	-29.18
359.498	17.92
359.709	105.98
359.921	60.93
360.132	85.5
360.344	40.45
360.555	1.54
360.766	48.64
360.977	32.26
361.189	99.84
361.4	-35.33
361.611	-12.8
361.823	24.06
362.034	-16.9
362.245	-47.62
362.456	-12.8
362.667	-20.99
362.879	73.21
363.09	56.83
363.301	-59.9
363.512	62.98
363.723	50.69
363.935	-20.99
364.146	105.98
364.357	103.93
364.568	26.11
364.779	-8.7
364.99	42.5
365.201	15.87
365.412	50.69
365.623	-14.85
365.834	73.21
366.045	42.5
366.256	65.02
366.467	126.46
366.678	-4.61
366.889	19.97
367.1	114.17
367.311	-8.7
367.522	-66.05
367.733	-8.7
367.944	1.54
368.155	73.21
368.366	15.87
368.577	97.79
368.788	11.78
368.999	65.02
369.209	-8.7
369.42	19.97
369.631	130.56
369.842	65.02
370.053	65.02
370.264	77.31
370.474	-6.66
370.685	73.21
370.896	73.21
371.107	17.92
371.317	69.12
371.528	75.26
371.739	32.26
371.95	11.78
372.16	30.21
372.371	15.87
372.582	65.02
372.792	105.98
373.003	56.83
373.214	93.69
373.424	85.5
373.635	28.16
373.846	95.74
374.056	9.73
374.267	95.74
374.477	52.74
374.688	32.26
374.898	7.68
375.109	58.88
375.319	40.45
375.53	60.93
375.74	73.21
375.951	67.07
376.161	44.54
376.372	54.78
376.582	13.82
376.793	40.45
377.003	69.12
377.214	38.4
377.424	19.97
377.635	114.17
377.845	46.59
378.055	67.07
378.266	-23.04
378.476	89.6
378.686	19.97
378.897	48.64
379.107	26.11
379.317	116.22
379.528	15.87
379.738	65.02
379.948	-16.9
380.158	65.02
380.369	81.41
380.579	116.22
380.789	9.73
380.999	116.22
381.21	-4.61
381.42	89.6
381.63	15.87
381.84	77.31
382.05	93.69
382.261	7.68
382.471	89.6
382.681	60.93
382.891	75.26
383.101	-0.51
383.311	-25.09
383.521	15.87
383.731	110.08
383.941	81.41
384.151	40.45
384.361	60.93
384.571	-14.85
384.781	75.26
384.991	73.21
385.201	-10.75
385.411	48.64
385.621	1.54
385.831	34.3
386.041	40.45
386.251	-0.51
386.461	40.45
386.671	42.5
386.881	38.4
387.091	-4.61
387.301	36.35
387.511	50.69
387.72	-10.75
387.93	42.5
388.14	60.93
388.35	73.21
388.56	83.45
388.769	108.03
388.979	-8.7
389.189	73.21
389.399	34.3
389.609	30.21
389.818	110.08
390.028	65.02
390.238	83.45
390.447	99.84
390.657	114.17
390.867	75.26
391.076	58.88
391.286	103.93
391.496	77.31
391.705	56.83
391.915	126.46
392.125	28.16
392.334	-29.18
392.544	56.83
392.753	69.12
392.963	24.06
393.172	81.41
393.382	19.97
393.591	85.5
393.801	52.74
394.01	132.61
394.22	17.92
394.429	56.83
394.639	87.55
394.848	62.98
395.058	89.6
395.267	34.3
395.477	24.06
395.686	81.41
395.895	132.61
396.105	148.99
396.314	126.46
396.524	67.07
396.733	62.98
396.942	126.46
397.152	83.45
397.361	40.45
397.57	130.56
397.78	46.59
397.989	130.56
398.198	130.56
398.407	28.16
398.617	65.02
398.826	44.54
399.035	93.69
399.244	73.21
399.453	56.83
399.663	36.35
399.872	126.46
400.081	93.69
400.29	114.17
400.499	116.22
400.708	165.37
400.917	36.35
401.127	112.13
401.336	75.26
401.545	44.54
401.754	89.6
401.963	99.84
402.172	99.84
402.381	157.18
402.59	36.35
402.799	99.84
403.008	112.13
403.217	67.07
403.426	105.98
403.635	52.74
403.844	142.85
404.053	151.04
404.262	161.28
404.471	196.09
404.68	91.65
404.888	151.04
405.097	32.26
405.306	167.42
405.515	157.18
405.724	138.75
405.933	212.48
406.142	126.46
406.35	165.37
406.559	138.75
406.768	175.61
406.977	171.52
407.185	159.23
407.394	187.9
407.603	161.28
407.812	247.29
408.02	218.62
408.229	187.9
408.438	167.42
408.646	187.9
408.855	267.77
409.064	261.63
409.272	212.48
409.481	212.48
409.69	278.01
409.898	271.87
410.107	280.06
410.315	255.48
410.524	310.78
410.733	204.28
410.941	181.76
411.15	327.16
411.358	304.64
411.567	345.59
411.775	331.26
411.984	361.98
412.192	382.46
412.401	329.21
412.609	488.95
412.818	427.51
413.026	374.27
413.234	370.17
413.443	374.27
413.651	452.09
413.86	456.19
414.068	437.75
414.276	480.76
414.485	454.14
414.693	476.66
414.901	574.97
415.11	525.82
415.318	437.75
415.526	683.51
415.734	636.41
415.943	675.32
416.151	673.27
416.359	681.46
416.567	724.47
416.776	703.99
416.984	783.86
417.192	871.92
417.4	753.14
417.608	826.87
417.817	835.06
418.025	886.26
418.233	992.75
418.441	953.84
418.649	957.94
418.857	1056.24
419.065	1031.66
419.273	1000.94
419.481	957.94
419.689	1132.01
419.897	1187.31
420.105	1232.37
420.313	1261.04
420.521	1330.67
420.729	1377.77
420.937	1324.52
421.145	1414.63
421.353	1502.7
421.561	1527.27
421.769	1543.66
421.977	1639.91
422.185	1723.88
422.393	1707.49
422.601	1807.84
422.809	1740.26
423.017	1914.34
423.224	1871.33
423.432	2026.98
423.64	2117.09
423.848	2219.49
424.056	2158.05
424.263	2293.21
424.471	2358.75
424.679	2377.18
424.887	2637.27
425.094	2641.37
425.302	2543.07
425.51	2670.04
425.718	2794.97
425.925	2809.3
426.133	2913.75
426.341	3063.25
426.548	3251.66
426.756	3220.94
426.964	3237.33
427.171	3319.25
427.379	3558.86
427.586	3599.82
427.794	3624.39
428.001	3876.29
428.209	4013.51
428.417	4046.27
428.624	4160.96
428.832	4259.26
429.039	4165.06
429.247	4281.79
429.454	4670.9
429.662	4855.22
429.869	4681.14
430.076	4890.04
430.284	4713.91
430.491	5055.92
430.699	5160.37
430.906	5275.06
431.114	5430.7
431.321	5414.32
431.528	5660.07
431.736	5805.48
431.943	6204.83
432.15	6112.67
432.358	6161.83
432.565	6620.57
432.772	6397.34
432.979	6831.51
433.187	6872.47
433.394	6815.13
433.601	7220.63
433.808	7554.44
434.016	7318.93
434.223	7691.66
434.43	8074.63
434.637	7988.61
434.844	8246.66
435.052	8533.37
435.259	8533.37
435.466	8455.55
435.673	8660.35
435.88	9231.73
436.087	9526.64
436.294	9221.49
436.501	9280.88
436.708	9602.41
436.915	9831.79
437.122	10450.27
437.329	10222.95
437.537	10526.05
437.743	10648.93
437.95	10683.74
438.157	11373.91
438.364	11574.61
438.571	11494.74
438.778	11572.56
438.985	12965.18
439.192	12256.58
439.399	12571.97
439.606	12361.03
439.813	13356.34
440.02	14005.55
440.227	13802.8
440.433	13421.88
440.64	14015.79
440.847	13985.07
441.054	13999.4
441.261	15039.77
441.467	14890.27
441.674	15281.43
441.881	15748.37
442.088	15541.52
442.294	15580.43
442.501	16010.51
442.708	16354.57
442.914	17093.88
443.121	17784.05
443.328	17136.89
443.534	18423.01
443.741	17743.09
443.948	17257.72
444.154	18740.45
444.361	18623.72
444.568	18615.52
444.774	18713.83
444.981	18799.84
445.187	19508.44
445.394	20088.01
445.6	20192.46
445.807	22033.58
446.013	21296.32
446.22	21322.94
446.426	22095.02
446.633	22768.8
446.839	23213.21
447.046	22394.03
447.252	23250.08
447.459	23628.95
447.665	23508.12
447.871	24657.03
448.078	25461.88
448.284	24558.73
448.491	25181.31
448.697	25877.62
448.903	26549.35
449.11	26815.59
449.316	26326.13
449.522	26543.21
449.728	27329.63
449.935	27632.73
450.141	27675.74
450.347	28179.54
450.553	27284.58
450.76	27690.07
450.966	28648.52
451.172	28275.79
451.378	29068.36
451.584	28566.6
451.791	29258.82
451.997	28908.61
452.203	29492.29
452.409	29615.16
452.615	29185.09
452.821	28462.16
453.027	28003.41
453.233	29373.5
453.44	28535.88
453.646	28988.49
453.852	28802.12
454.058	29289.54
454.264	28494.93
454.47	29140.04
454.676	28247.12
454.882	29480
455.088	26936.42
455.294	27341.92
455.5	28271.7
455.705	28073.04
455.911	27004
456.117	26416.24
456.323	25869.43
456.529	24634.5
456.735	25646.2
456.941	25269.37
457.147	24996.99
457.352	24046.74
457.558	23655.58
457.764	23950.48
457.97	23338.14
458.176	23028.9
458.381	22985.89
458.587	21804.21
458.793	21873.84
458.999	20384.97
459.204	22152.37
459.41	21462.2
459.616	19940.56
459.821	20143.31
460.027	20028.62
460.233	19834.07
460.438	18865.38
460.644	19082.46
460.85	18144.49
461.055	17829.1
461.261	17698.03
461.466	16373
461.672	16106.76
461.878	17276.15
462.083	15957.26
462.289	15688.98
462.494	15463.7
462.7	14845.21
462.905	14464.29
463.111	14873.89
463.316	15041.82
463.522	14628.13
463.727	14552.35
463.932	14439.72
464.138	14427.43
464.343	14462.24
464.549	14038.31
464.754	14603.55
464.959	14529.83
465.165	14144.81
465.37	13737.26
465.575	13235.51
465.781	14056.75
465.986	13880.62
466.191	13210.93
466.397	13231.41
466.602	12418.37
466.807	13077.82
467.012	12897.6
467.218	12969.27
467.423	12754.24
467.628	13016.38
467.833	13225.27
468.038	13022.52
