Data from USB4F104151__89__14-17-52-423.txt Node

Date: Thu Mar 13 14:17:52 EDT 2025
User: louis
Spectrometer: USB4F10415
Trigger mode: 4
Integration Time (sec): 2.000000E-2
Scans to average: 1
Electric dark correction enabled: true
Nonlinearity correction enabled: false
Boxcar width: 0
XAxis mode: Wavelengths
Number of Pixels in Spectrum: 3648
>>>>>Begin Spectral Data<<<<<
178.204	-167.25
178.424	-167.25
178.644	-167.25
178.864	-128.34
179.084	-87.38
179.304	-17.75
179.524	37.55
179.744	27.31
179.964	-30.04
180.184	-27.99
180.404	-15.7
180.624	6.83
180.844	-9.56
181.064	39.59
181.283	-21.85
181.503	15.02
181.723	-3.41
181.943	21.16
182.163	4.78
182.383	-13.65
182.602	27.31
182.822	68.27
183.042	47.79
183.262	4.78
183.482	35.5
183.701	43.69
183.921	-79.19
184.141	-9.56
184.361	-5.46
184.58	72.36
184.8	0.68
185.02	-13.65
185.239	39.59
185.459	-30.04
185.679	82.6
185.898	41.64
186.118	70.31
186.338	-13.65
186.557	27.31
186.777	-5.46
186.997	-38.23
187.216	15.02
187.436	76.46
187.655	43.69
187.875	68.27
188.095	-42.32
188.314	12.97
188.534	82.6
188.753	-32.08
188.973	39.59
189.192	10.92
189.412	4.78
189.631	27.31
189.851	-5.46
190.07	117.42
190.29	60.07
190.509	37.55
190.729	45.74
190.948	64.17
191.168	76.46
191.387	10.92
191.607	58.03
191.826	35.5
192.045	19.11
192.265	72.36
192.484	23.21
192.704	45.74
192.923	-30.04
193.142	152.23
193.362	35.5
193.581	60.07
193.8	133.8
194.02	76.46
194.239	21.16
194.458	39.59
194.678	19.11
194.897	-17.75
195.116	45.74
195.335	43.69
195.555	-19.8
195.774	70.31
195.993	51.88
196.212	-38.23
196.432	-7.51
196.651	43.69
196.87	78.51
197.089	90.79
197.308	21.16
197.528	-3.41
197.747	27.31
197.966	53.93
198.185	82.6
198.404	58.03
198.623	101.03
198.842	43.69
199.062	17.07
199.281	21.16
199.5	72.36
199.719	43.69
199.938	45.74
200.157	62.12
200.376	70.31
200.595	15.02
200.814	105.13
201.033	15.02
201.252	43.69
201.471	43.69
201.69	23.21
201.909	51.88
202.128	-32.08
202.347	21.16
202.566	62.12
202.785	29.35
203.004	-25.94
203.223	92.84
203.442	84.65
203.661	23.21
203.879	70.31
204.098	51.88
204.317	-42.32
204.536	68.27
204.755	29.35
204.974	39.59
205.193	80.55
205.411	19.11
205.63	-64.85
205.849	39.59
206.068	94.89
206.287	-30.04
206.505	101.03
206.724	23.21
206.943	6.83
207.162	-21.85
207.381	-13.65
207.599	-27.99
207.818	-27.99
208.037	21.16
208.255	-11.61
208.474	-21.85
208.693	27.31
208.911	-1.37
209.13	72.36
209.349	41.64
209.567	51.88
209.786	60.07
210.005	123.56
210.223	29.35
210.442	-13.65
210.661	58.03
210.879	-42.32
211.098	19.11
211.316	0.68
211.535	70.31
211.753	55.98
211.972	94.89
212.191	-11.61
212.409	51.88
212.628	101.03
212.846	12.97
213.065	-17.75
213.283	35.5
213.502	27.31
213.72	92.84
213.938	10.92
214.157	53.93
214.375	125.61
214.594	-25.94
214.812	6.83
215.031	101.03
215.249	-38.23
215.467	45.74
215.686	76.46
215.904	146.09
216.122	39.59
216.341	21.16
216.559	19.11
216.778	60.07
216.996	10.92
217.214	33.45
217.432	23.21
217.651	2.73
217.869	31.4
218.087	66.22
218.306	-5.46
218.524	29.35
218.742	60.07
218.96	64.17
219.179	17.07
219.397	51.88
219.615	60.07
219.833	37.55
220.051	2.73
220.27	78.51
220.488	68.27
220.706	31.4
220.924	60.07
221.142	27.31
221.36	19.11
221.578	60.07
221.796	-5.46
222.015	125.61
222.233	-21.85
222.451	103.08
222.669	51.88
222.887	76.46
223.105	-32.08
223.323	-9.56
223.541	-7.51
223.759	51.88
223.977	-1.37
224.195	10.92
224.413	-38.23
224.631	74.41
224.849	12.97
225.067	21.16
225.285	-71
225.503	62.12
225.721	-7.51
225.939	-30.04
226.157	72.36
226.375	68.27
226.592	37.55
226.81	0.68
227.028	72.36
227.246	80.55
227.464	23.21
227.682	43.69
227.9	21.16
228.117	15.02
228.335	29.35
228.553	72.36
228.771	43.69
228.989	10.92
229.206	31.4
229.424	-11.61
229.642	-5.46
229.86	8.87
230.077	12.97
230.295	27.31
230.513	53.93
230.731	19.11
230.948	31.4
231.166	86.7
231.384	17.07
231.601	-17.75
231.819	17.07
232.037	-1.37
232.254	-9.56
232.472	27.31
232.689	-9.56
232.907	62.12
233.125	117.42
233.342	-44.37
233.56	15.02
233.777	-13.65
233.995	-42.32
234.213	109.22
234.43	23.21
234.648	31.4
234.865	45.74
235.083	35.5
235.3	6.83
235.518	51.88
235.735	80.55
235.953	37.55
236.17	19.11
236.388	-13.65
236.605	12.97
236.822	23.21
237.04	64.17
237.257	2.73
237.475	43.69
237.692	78.51
237.909	-7.51
238.127	51.88
238.344	80.55
238.562	51.88
238.779	-66.9
238.996	27.31
239.214	25.26
239.431	60.07
239.648	-13.65
239.865	41.64
240.083	64.17
240.3	23.21
240.517	-34.13
240.735	68.27
240.952	4.78
241.169	15.02
241.386	86.7
241.603	-5.46
241.821	4.78
242.038	92.84
242.255	39.59
242.472	31.4
242.689	78.51
242.907	82.6
243.124	-40.28
243.341	-38.23
243.558	-15.7
243.775	-52.56
243.992	-36.18
244.209	43.69
244.426	2.73
244.643	60.07
244.86	8.87
245.078	101.03
245.295	68.27
245.512	86.7
245.729	15.02
245.946	45.74
246.163	-46.42
246.38	37.55
246.597	-21.85
246.814	-11.61
247.031	53.93
247.248	35.5
247.464	68.27
247.681	55.98
247.898	78.51
248.115	43.69
248.332	4.78
248.549	119.46
248.766	70.31
248.983	-27.99
249.2	31.4
249.417	68.27
249.633	98.99
249.85	94.89
250.067	19.11
250.284	35.5
250.501	35.5
250.717	84.65
250.934	-27.99
251.151	-13.65
251.368	96.94
251.585	6.83
251.801	12.97
252.018	-13.65
252.235	53.93
252.451	-52.56
252.668	6.83
252.885	68.27
253.102	15.02
253.318	21.16
253.535	-36.18
253.752	19.11
253.968	113.32
254.185	21.16
254.401	21.16
254.618	27.31
254.835	-11.61
255.051	82.6
255.268	-32.08
255.484	60.07
255.701	-5.46
255.917	15.02
256.134	53.93
256.351	53.93
256.567	43.69
256.784	-30.04
257	10.92
257.217	125.61
257.433	2.73
257.65	15.02
257.866	6.83
258.082	-9.56
258.299	12.97
258.515	64.17
258.732	-1.37
258.948	6.83
259.165	10.92
259.381	60.07
259.597	10.92
259.814	8.87
260.03	156.33
260.246	35.5
260.463	55.98
260.679	10.92
260.895	-3.41
261.112	27.31
261.328	23.21
261.544	39.59
261.761	90.79
261.977	60.07
262.193	-38.23
262.409	6.83
262.626	-9.56
262.842	144.04
263.058	-9.56
263.274	55.98
263.49	135.85
263.707	-9.56
263.923	31.4
264.139	4.78
264.355	43.69
264.571	84.65
264.787	53.93
265.004	19.11
265.22	53.93
265.436	80.55
265.652	70.31
265.868	66.22
266.084	15.02
266.3	94.89
266.516	-42.32
266.732	68.27
266.948	-21.85
267.164	19.11
267.38	27.31
267.596	74.41
267.812	84.65
268.028	2.73
268.244	15.02
268.46	60.07
268.676	-11.61
268.892	21.16
269.108	60.07
269.324	68.27
269.54	80.55
269.756	49.83
269.972	-21.85
270.188	43.69
270.403	68.27
270.619	51.88
270.835	51.88
271.051	21.16
271.267	-9.56
271.483	70.31
271.698	66.22
271.914	53.93
272.13	-9.56
272.346	27.31
272.562	-7.51
272.777	23.21
272.993	53.93
273.209	45.74
273.425	-15.7
273.64	84.65
273.856	60.07
274.072	45.74
274.287	47.79
274.503	68.27
274.719	-5.46
274.934	47.79
275.15	4.78
275.366	96.94
275.581	39.59
275.797	-9.56
276.012	-11.61
276.228	4.78
276.444	23.21
276.659	-3.41
276.875	35.5
277.09	-23.89
277.306	37.55
277.521	-25.94
277.737	-11.61
277.952	43.69
278.168	37.55
278.383	12.97
278.599	4.78
278.814	55.98
279.03	-30.04
279.245	10.92
279.461	6.83
279.676	27.31
279.892	10.92
280.107	-25.94
280.322	-1.37
280.538	15.02
280.753	68.27
280.969	80.55
281.184	39.59
281.399	72.36
281.615	76.46
281.83	43.69
282.045	68.27
282.26	47.79
282.476	-5.46
282.691	76.46
282.906	158.38
283.122	-15.7
283.337	19.11
283.552	86.7
283.767	21.16
283.983	90.79
284.198	35.5
284.413	62.12
284.628	-36.18
284.843	62.12
285.058	27.31
285.274	-7.51
285.489	-17.75
285.704	70.31
285.919	23.21
286.134	76.46
286.349	-17.75
286.564	35.5
286.779	125.61
286.995	121.51
287.21	4.78
287.425	10.92
287.64	37.55
287.855	72.36
288.07	88.75
288.285	51.88
288.5	-5.46
288.715	-13.65
288.93	37.55
289.145	45.74
289.36	47.79
289.575	51.88
289.79	12.97
290.004	80.55
290.219	84.65
290.434	0.68
290.649	35.5
290.864	76.46
291.079	29.35
291.294	113.32
291.509	60.07
291.724	27.31
291.938	31.4
292.153	10.92
292.368	6.83
292.583	76.46
292.798	103.08
293.012	2.73
293.227	2.73
293.442	35.5
293.657	107.18
293.871	27.31
294.086	35.5
294.301	105.13
294.516	113.32
294.73	82.6
294.945	47.79
295.16	21.16
295.374	47.79
295.589	31.4
295.804	-50.52
296.018	2.73
296.233	51.88
296.447	45.74
296.662	35.5
296.877	60.07
297.091	101.03
297.306	17.07
297.52	35.5
297.735	31.4
297.949	0.68
298.164	-23.89
298.378	72.36
298.593	-5.46
298.807	-17.75
299.022	70.31
299.236	64.17
299.451	-1.37
299.665	117.42
299.88	12.97
300.094	82.6
300.309	53.93
300.523	-32.08
300.737	68.27
300.952	64.17
301.166	4.78
301.381	70.31
301.595	-17.75
301.809	23.21
302.024	133.8
302.238	-30.04
302.452	90.79
302.667	76.46
302.881	37.55
303.095	60.07
303.309	-19.8
303.524	15.02
303.738	25.26
303.952	8.87
304.166	76.46
304.381	72.36
304.595	129.7
304.809	94.89
305.023	45.74
305.237	31.4
305.452	27.31
305.666	-9.56
305.88	78.51
306.094	27.31
306.308	35.5
306.522	0.68
306.736	111.27
306.95	29.35
307.164	-17.75
307.379	23.21
307.593	127.66
307.807	60.07
308.021	19.11
308.235	101.03
308.449	17.07
308.663	43.69
308.877	170.66
309.091	84.65
309.305	39.59
309.519	92.84
309.733	64.17
309.947	-48.47
310.161	84.65
310.374	62.12
310.588	41.64
310.802	72.36
311.016	39.59
311.23	29.35
311.444	-50.52
311.658	-13.65
311.872	119.46
312.085	47.79
312.299	60.07
312.513	103.08
312.727	10.92
312.941	-11.61
313.154	43.69
313.368	27.31
313.582	92.84
313.796	27.31
314.009	-52.56
314.223	47.79
314.437	64.17
314.651	125.61
314.864	-30.04
315.078	51.88
315.292	15.02
315.505	39.59
315.719	92.84
315.933	31.4
316.146	10.92
316.36	-13.65
316.573	103.08
316.787	68.27
317.001	19.11
317.214	-9.56
317.428	27.31
317.641	-25.94
317.855	41.64
318.068	31.4
318.282	62.12
318.495	58.03
318.709	62.12
318.922	37.55
319.136	19.11
319.349	98.99
319.563	51.88
319.776	53.93
319.99	-23.89
320.203	-9.56
320.417	51.88
320.63	101.03
320.843	117.42
321.057	27.31
321.27	51.88
321.483	35.5
321.697	41.64
321.91	31.4
322.124	27.31
322.337	60.07
322.55	37.55
322.763	12.97
322.977	78.51
323.19	2.73
323.403	-7.51
323.617	27.31
323.83	6.83
324.043	29.35
324.256	37.55
324.469	-7.51
324.683	76.46
324.896	4.78
325.109	-19.8
325.322	-54.61
325.535	35.5
325.748	0.68
325.962	51.88
326.175	6.83
326.388	4.78
326.601	21.16
326.814	43.69
327.027	-11.61
327.24	70.31
327.453	12.97
327.666	31.4
327.879	92.84
328.092	47.79
328.305	47.79
328.518	-5.46
328.731	12.97
328.944	37.55
329.157	60.07
329.37	43.69
329.583	21.16
329.796	103.08
330.009	2.73
330.222	53.93
330.435	117.42
330.648	76.46
330.861	58.03
331.073	53.93
331.286	-15.7
331.499	51.88
331.712	-3.41
331.925	39.59
332.138	21.16
332.35	78.51
332.563	-50.52
332.776	31.4
332.989	35.5
333.202	92.84
333.414	43.69
333.627	-3.41
333.84	-30.04
334.053	-25.94
334.265	15.02
334.478	-9.56
334.691	-1.37
334.903	25.26
335.116	12.97
335.329	64.17
335.541	39.59
335.754	92.84
335.966	-1.37
336.179	49.83
336.392	12.97
336.604	66.22
336.817	117.42
337.029	94.89
337.242	19.11
337.454	35.5
337.667	-1.37
337.88	33.45
338.092	-13.65
338.305	58.03
338.517	43.69
338.729	60.07
338.942	10.92
339.154	19.11
339.367	19.11
339.579	0.68
339.792	-17.75
340.004	53.93
340.217	27.31
340.429	37.55
340.641	6.83
340.854	27.31
341.066	-54.61
341.278	78.51
341.491	105.13
341.703	12.97
341.915	82.6
342.128	31.4
342.34	76.46
342.552	10.92
342.764	41.64
342.977	51.88
343.189	55.98
343.401	-11.61
343.613	-46.42
343.826	96.94
344.038	51.88
344.25	96.94
344.462	-25.94
344.674	84.65
344.886	23.21
345.099	19.11
345.311	21.16
345.523	43.69
345.735	-13.65
345.947	98.99
346.159	39.59
346.371	72.36
346.583	21.16
346.795	125.61
347.007	19.11
347.219	31.4
347.431	33.45
347.643	60.07
347.855	-34.13
348.067	53.93
348.279	-25.94
348.491	137.9
348.703	21.16
348.915	55.98
349.127	6.83
349.339	12.97
349.551	23.21
349.763	45.74
349.975	19.11
350.187	33.45
350.399	109.22
350.61	70.31
350.822	-13.65
351.034	27.31
351.246	31.4
351.458	68.27
351.669	94.89
351.881	103.08
352.093	8.87
352.305	41.64
352.517	53.93
352.728	53.93
352.94	107.18
353.152	53.93
353.363	-30.04
353.575	68.27
353.787	-3.41
353.999	37.55
354.21	111.27
354.422	55.98
354.633	55.98
354.845	51.88
355.057	35.5
355.268	29.35
355.48	60.07
355.692	-32.08
355.903	-34.13
356.115	-11.61
356.326	-15.7
356.538	72.36
356.749	31.4
356.961	10.92
357.172	70.31
357.384	19.11
357.595	78.51
357.807	51.88
358.018	10.92
358.23	15.02
358.441	68.27
358.653	70.31
358.864	6.83
359.075	-19.8
359.287	39.59
359.498	-17.75
359.709	60.07
359.921	-46.42
360.132	-25.94
360.344	51.88
360.555	27.31
360.766	2.73
360.977	37.55
361.189	64.17
361.4	-40.28
361.611	-1.37
361.823	33.45
362.034	-5.46
362.245	43.69
362.456	64.17
362.667	135.85
362.879	-17.75
363.09	62.12
363.301	39.59
363.512	27.31
363.723	76.46
363.935	25.26
364.146	37.55
364.357	-23.89
364.568	-5.46
364.779	6.83
364.99	60.07
365.201	86.7
365.412	-19.8
365.623	-13.65
365.834	-25.94
366.045	-13.65
366.256	6.83
366.467	37.55
366.678	21.16
366.889	-17.75
367.1	101.03
367.311	0.68
367.522	35.5
367.733	76.46
367.944	25.26
368.155	15.02
368.366	101.03
368.577	60.07
368.788	94.89
368.999	68.27
369.209	62.12
369.42	41.64
369.631	72.36
369.842	45.74
370.053	150.18
370.264	96.94
370.474	4.78
370.685	19.11
370.896	103.08
371.107	72.36
371.317	27.31
371.528	21.16
371.739	-11.61
371.95	76.46
372.16	6.83
372.371	-1.37
372.582	12.97
372.792	62.12
373.003	35.5
373.214	78.51
373.424	51.88
373.635	43.69
373.846	74.41
374.056	47.79
374.267	101.03
374.477	-19.8
374.688	41.64
374.898	60.07
375.109	66.22
375.319	55.98
375.53	19.11
375.74	6.83
375.951	60.07
376.161	-46.42
376.372	70.31
376.582	0.68
376.793	137.9
377.003	0.68
377.214	45.74
377.424	29.35
377.635	80.55
377.845	78.51
378.055	74.41
378.266	2.73
378.476	119.46
378.686	21.16
378.897	53.93
379.107	90.79
379.317	-34.13
379.528	2.73
379.738	51.88
379.948	6.83
380.158	166.57
380.369	6.83
380.579	49.83
380.789	17.07
380.999	86.7
381.21	111.27
381.42	78.51
381.63	-25.94
381.84	4.78
382.05	82.6
382.261	2.73
382.471	19.11
382.681	133.8
382.891	-13.65
383.101	68.27
383.311	19.11
383.521	-11.61
383.731	6.83
383.941	62.12
384.151	72.36
384.361	19.11
384.571	45.74
384.781	80.55
384.991	70.31
385.201	103.08
385.411	88.75
385.621	78.51
385.831	70.31
386.041	21.16
386.251	66.22
386.461	19.11
386.671	37.55
386.881	141.99
387.091	58.03
387.301	113.32
387.511	33.45
387.72	35.5
387.93	68.27
388.14	29.35
388.35	137.9
388.56	94.89
388.769	6.83
388.979	31.4
389.189	23.21
389.399	84.65
389.609	160.42
389.818	72.36
390.028	8.87
390.238	76.46
390.447	2.73
390.657	62.12
390.867	31.4
391.076	10.92
391.286	27.31
391.496	68.27
391.705	33.45
391.915	119.46
392.125	80.55
392.334	68.27
392.544	117.42
392.753	47.79
392.963	92.84
393.172	105.13
393.382	15.02
393.591	174.76
393.801	55.98
394.01	113.32
394.22	76.46
394.429	27.31
394.639	111.27
394.848	105.13
395.058	96.94
395.267	23.21
395.477	39.59
395.686	53.93
395.895	101.03
396.105	141.99
396.314	90.79
396.524	96.94
396.733	70.31
396.942	101.03
397.152	150.18
397.361	27.31
397.57	92.84
397.78	43.69
397.989	117.42
398.198	168.62
398.407	31.4
398.617	133.8
398.826	98.99
399.035	125.61
399.244	103.08
399.453	109.22
399.663	105.13
399.872	170.66
400.081	70.31
400.29	86.7
400.499	21.16
400.708	125.61
400.917	148.14
401.127	117.42
401.336	101.03
401.545	158.38
401.754	158.38
401.963	129.7
402.172	96.94
402.381	70.31
402.59	86.7
402.799	62.12
403.008	109.22
403.217	156.33
403.426	96.94
403.635	137.9
403.844	64.17
404.053	127.66
404.262	137.9
404.471	111.27
404.68	154.28
404.888	98.99
405.097	129.7
405.306	150.18
405.515	72.36
405.724	111.27
405.933	137.9
406.142	160.42
406.35	70.31
406.559	127.66
406.768	107.18
406.977	166.57
407.185	127.66
407.394	211.62
407.603	150.18
407.812	223.91
408.02	201.38
408.229	141.99
408.438	162.47
408.646	178.86
408.855	266.92
409.064	170.66
409.272	240.29
409.481	297.64
409.69	248.49
409.898	258.73
410.107	258.73
410.315	248.49
410.524	238.25
410.733	217.77
410.941	326.31
411.15	295.59
411.358	359.08
411.567	354.98
411.775	371.36
411.984	348.84
412.192	379.56
412.401	322.21
412.609	393.89
412.818	436.9
413.026	387.75
413.234	430.76
413.443	387.75
413.651	404.13
413.86	508.58
414.068	473.76
414.276	555.68
414.485	459.43
414.693	543.39
414.901	643.74
415.11	592.55
415.318	545.44
415.526	498.34
415.734	594.59
415.943	684.7
416.151	653.98
416.359	774.81
416.567	717.47
416.776	754.34
416.984	731.81
417.192	864.93
417.4	871.07
417.608	823.97
417.817	854.69
418.025	973.47
418.233	989.85
418.441	950.94
418.649	1077.91
418.857	1133.21
419.065	1067.67
419.273	1059.48
419.481	1198.74
419.689	1079.96
419.897	1176.22
420.105	1217.18
420.313	1358.49
420.521	1323.67
420.729	1280.66
420.937	1350.29
421.145	1389.21
421.353	1548.95
421.561	1579.67
421.769	1643.15
421.977	1620.63
422.185	1587.86
422.393	1815.18
422.601	1897.1
422.809	1786.51
423.017	1817.23
423.224	2069.13
423.432	1979.02
423.64	1995.4
423.848	2337.41
424.056	2185.87
424.263	2347.65
424.471	2394.76
424.679	2411.14
424.887	2405
425.094	2624.13
425.302	2560.64
425.51	2665.09
425.718	2751.1
425.925	2798.21
426.133	2839.17
426.341	3005.05
426.548	3177.08
426.756	3279.48
426.964	3316.34
427.171	3488.37
427.379	3453.56
427.586	3535.48
427.794	3705.46
428.001	3965.55
428.209	3885.68
428.417	3861.1
428.624	4289.13
428.832	4237.93
429.039	4215.4
429.247	4182.63
429.454	4770.4
429.662	4842.08
429.869	4584.04
430.076	4831.84
430.284	4747.87
430.491	4967.01
430.699	4977.25
430.906	5302.87
431.114	5360.22
431.321	5624.4
431.528	5694.04
431.736	6093.39
431.943	6267.47
432.15	6052.43
432.358	5993.04
432.565	6464.07
432.772	6443.59
432.979	6820.42
433.187	6982.21
433.394	6947.39
433.601	7533.11
433.808	7354.94
434.016	7389.75
434.223	7643.7
434.43	8194.61
434.637	7924.27
434.844	8399.4
435.052	8596.01
435.259	8581.67
435.466	8698.41
435.673	8700.45
435.88	9171.49
436.087	9673.24
436.294	9726.49
436.501	9517.59
436.708	9579.03
436.915	9875.99
437.122	10304.01
437.329	10387.98
437.537	10465.8
437.743	10844.68
437.95	10553.87
438.157	11538.94
438.364	11708.92
438.571	11723.26
438.778	11776.5
438.985	12868.07
439.192	12364.27
439.399	12972.52
439.606	12524.01
439.813	13148.64
440.02	14072.28
440.227	13504.99
440.433	13574.62
440.64	14113.24
440.847	13879.77
441.054	14313.94
441.261	15292.87
441.467	14850.5
441.674	15372.74
441.881	15974.84
442.088	15905.21
442.294	15747.51
442.501	16259.51
442.708	16533.93
442.914	16828.84
443.121	17889.69
443.328	17164.71
443.534	18526.61
443.741	18117.01
443.948	17791.39
444.154	19009.93
444.361	18631.05
444.568	19057.03
444.774	19091.85
444.981	19243.4
445.187	19929.47
445.394	20857.2
445.6	20457.84
445.807	22497.62
446.013	21213.54
446.22	21700.96
446.426	22514
446.633	23105.87
446.839	23652.67
447.046	22346.07
447.252	23748.93
447.459	23863.61
447.665	23798.08
447.871	24893.74
448.078	25477.41
448.284	24258.87
448.491	25151.79
448.697	26278.17
448.903	27171.08
449.11	26906.9
449.316	26771.73
449.522	26954
449.728	27824.39
449.935	27883.78
450.141	27736.32
450.347	28297.47
450.553	27547.91
450.76	27885.83
450.966	29038.83
451.172	28879.09
451.378	29622.5
451.584	28551.42
451.791	29386.99
451.997	29092.08
452.203	29776.1
452.409	29481.19
452.615	30011.62
452.821	28692.72
453.027	28436.73
453.233	29679.85
453.44	28573.94
453.646	29001.97
453.852	29219.05
454.058	29944.03
454.264	28809.46
454.47	29561.06
454.676	28918
454.882	29614.31
455.088	26966.29
455.294	27541.77
455.5	27963.65
455.705	28180.73
455.911	26831.12
456.117	26781.97
456.323	26274.07
456.529	24865.07
456.735	26079.52
456.941	25370.92
457.147	24899.89
457.352	24052.03
457.558	23857.47
457.764	23910.72
457.97	23568.71
458.176	23015.76
458.381	23234.89
458.587	22188.38
458.793	21860.7
458.999	20859.24
459.204	22415.7
459.41	21727.58
459.616	20414.84
459.821	20322.68
460.027	20498.8
460.233	19880.32
460.438	19343.75
460.644	19280.26
460.85	18192.79
461.055	17715.61
461.261	17944.98
461.466	16593.33
461.672	16251.31
461.878	17412.51
462.083	15917.5
462.289	15952.31
462.494	15790.52
462.7	14954.95
462.905	14629.32
463.111	14979.53
463.316	15006.15
463.522	14555.6
463.727	14815.69
463.932	14920.14
464.138	14561.74
464.343	14713.29
464.549	14330.32
464.754	14631.37
464.959	14766.54
465.165	14449.1
465.37	13963.73
465.575	13289.95
465.781	13871.57
465.986	14123.48
466.191	13455.84
466.397	13277.66
466.602	12577.26
466.807	13066.72
467.012	13242.85
467.218	13095.39
467.423	12976.61
