Data from USB4F104151__235__14-22-07-652.txt Node

Date: Thu Mar 13 14:22:07 EDT 2025
User: louis
Spectrometer: USB4F10415
Trigger mode: 4
Integration Time (sec): 2.000000E-2
Scans to average: 1
Electric dark correction enabled: true
Nonlinearity correction enabled: false
Boxcar width: 0
XAxis mode: Wavelengths
Number of Pixels in Spectrum: 3648
>>>>>Begin Spectral Data<<<<<
178.204	-102.91
178.424	-102.91
178.644	-102.91
178.864	-70.14
179.084	-86.53
179.304	-0.51
179.524	52.74
179.744	-57.86
179.964	11.78
180.184	-51.71
180.404	19.97
180.624	-51.71
180.844	36.35
181.064	11.78
181.283	19.97
181.503	11.78
181.723	-2.56
181.943	44.54
182.163	17.92
182.383	142.85
182.602	36.35
182.822	38.4
183.042	36.35
183.262	-12.8
183.482	60.93
183.701	93.69
183.921	46.59
184.141	54.78
184.361	46.59
184.58	-8.7
184.8	22.02
185.02	-25.09
185.239	24.06
185.459	48.64
185.679	65.02
185.898	30.21
186.118	44.54
186.338	91.65
186.557	28.16
186.777	54.78
186.997	-27.14
187.216	-2.56
187.436	83.45
187.655	105.98
187.875	46.59
188.095	77.31
188.314	101.89
188.534	54.78
188.753	44.54
188.973	38.4
189.192	71.17
189.412	71.17
189.631	44.54
189.851	69.12
190.07	38.4
190.29	-6.66
190.509	103.93
190.729	-2.56
190.948	85.5
191.168	77.31
191.387	62.98
191.607	-8.7
191.826	22.02
192.045	77.31
192.265	1.54
192.484	52.74
192.704	48.64
192.923	-10.75
193.142	103.93
193.362	15.87
193.581	52.74
193.8	11.78
194.02	-29.18
194.239	19.97
194.458	15.87
194.678	34.3
194.897	140.8
195.116	52.74
195.335	30.21
195.555	112.13
195.774	60.93
195.993	-18.94
196.212	17.92
196.432	58.88
196.651	13.82
196.87	-16.9
197.089	89.6
197.308	60.93
197.528	99.84
197.747	24.06
197.966	-31.23
198.185	-18.94
198.404	-59.9
198.623	11.78
198.842	28.16
199.062	48.64
199.281	75.26
199.5	1.54
199.719	77.31
199.938	40.45
200.157	97.79
200.376	52.74
200.595	48.64
200.814	69.12
201.033	52.74
201.252	126.46
201.471	73.21
201.69	30.21
201.909	48.64
202.128	50.69
202.347	-0.51
202.566	30.21
202.785	101.89
203.004	36.35
203.223	101.89
203.442	19.97
203.661	65.02
203.879	73.21
204.098	79.36
204.317	11.78
204.536	79.36
204.755	36.35
204.974	54.78
205.193	85.5
205.411	67.07
205.63	28.16
205.849	-12.8
206.068	-4.61
206.287	73.21
206.505	15.87
206.724	97.79
206.943	77.31
207.162	71.17
207.381	101.89
207.599	52.74
207.818	5.63
208.037	3.58
208.255	44.54
208.474	11.78
208.693	85.5
208.911	28.16
209.13	-4.61
209.349	130.56
209.567	-20.99
209.786	112.13
210.005	19.97
210.223	22.02
210.442	3.58
210.661	62.98
210.879	-49.66
211.098	22.02
211.316	19.97
211.535	38.4
211.753	54.78
211.972	46.59
212.191	44.54
212.409	-20.99
212.628	81.41
212.846	28.16
213.065	52.74
213.283	81.41
213.502	28.16
213.72	62.98
213.938	32.26
214.157	-2.56
214.375	38.4
214.594	28.16
214.812	30.21
215.031	44.54
215.249	-29.18
215.467	87.55
215.686	32.26
215.904	101.89
216.122	77.31
216.341	56.83
216.559	38.4
216.778	65.02
216.996	38.4
217.214	-47.62
217.432	36.35
217.651	-10.75
217.869	26.11
218.087	93.69
218.306	48.64
218.524	60.93
218.742	13.82
218.96	1.54
219.179	11.78
219.397	7.68
219.615	65.02
219.833	52.74
220.051	3.58
220.27	30.21
220.488	73.21
220.706	71.17
220.924	60.93
221.142	58.88
221.36	79.36
221.578	79.36
221.796	11.78
222.015	52.74
222.233	13.82
222.451	85.5
222.669	28.16
222.887	85.5
223.105	36.35
223.323	32.26
223.541	-18.94
223.759	95.74
223.977	73.21
224.195	142.85
224.413	-10.75
224.631	103.93
224.849	44.54
225.067	30.21
225.285	-0.51
225.503	101.89
225.721	-57.86
225.939	-0.51
226.157	62.98
226.375	52.74
226.592	65.02
226.81	89.6
227.028	40.45
227.246	62.98
227.464	13.82
227.682	89.6
227.9	-12.8
228.117	65.02
228.335	34.3
228.553	28.16
228.771	110.08
228.989	56.83
229.206	15.87
229.424	-20.99
229.642	11.78
229.86	-16.9
230.077	5.63
230.295	48.64
230.513	75.26
230.731	93.69
230.948	99.84
231.166	32.26
231.384	40.45
231.601	32.26
231.819	87.55
232.037	-12.8
232.254	28.16
232.472	65.02
232.689	65.02
232.907	19.97
233.125	85.5
233.342	32.26
233.56	40.45
233.777	-18.94
233.995	44.54
234.213	112.13
234.43	85.5
234.648	26.11
234.865	13.82
235.083	91.65
235.3	44.54
235.518	-4.61
235.735	87.55
235.953	38.4
236.17	36.35
236.388	36.35
236.605	77.31
236.822	114.17
237.04	77.31
237.257	9.73
237.475	36.35
237.692	103.93
237.909	60.93
238.127	7.68
238.344	46.59
238.562	30.21
238.779	54.78
238.996	17.92
239.214	48.64
239.431	28.16
239.648	24.06
239.865	134.65
240.083	5.63
240.3	52.74
240.517	-12.8
240.735	79.36
240.952	24.06
241.169	30.21
241.386	40.45
241.603	44.54
241.821	73.21
242.038	81.41
242.255	5.63
242.472	79.36
242.689	-10.75
242.907	89.6
243.124	34.3
243.341	95.74
243.558	11.78
243.775	7.68
243.992	17.92
244.209	110.08
244.426	62.98
244.643	83.45
244.86	-10.75
245.078	85.5
245.295	7.68
245.512	19.97
245.729	9.73
245.946	99.84
246.163	69.12
246.38	77.31
246.597	36.35
246.814	91.65
247.031	-14.85
247.248	81.41
247.464	-0.51
247.681	-4.61
247.898	36.35
248.115	62.98
248.332	77.31
248.549	60.93
248.766	120.32
248.983	52.74
249.2	114.17
249.417	60.93
249.633	28.16
249.85	101.89
250.067	-0.51
250.284	30.21
250.501	40.45
250.717	62.98
250.934	65.02
251.151	44.54
251.368	24.06
251.585	99.84
251.801	48.64
252.018	5.63
252.235	38.4
252.451	19.97
252.668	15.87
252.885	85.5
253.102	60.93
253.318	24.06
253.535	54.78
253.752	65.02
253.968	50.69
254.185	-4.61
254.401	97.79
254.618	52.74
254.835	71.17
255.051	118.27
255.268	60.93
255.484	62.98
255.701	42.5
255.917	95.74
256.134	-86.53
256.351	56.83
256.567	52.74
256.784	56.83
257	22.02
257.217	105.98
257.433	28.16
257.65	110.08
257.866	34.3
258.082	1.54
258.299	-61.95
258.515	77.31
258.732	13.82
258.948	52.74
259.165	75.26
259.381	11.78
259.597	114.17
259.814	11.78
260.03	69.12
260.246	65.02
260.463	118.27
260.679	46.59
260.895	13.82
261.112	3.58
261.328	5.63
261.544	54.78
261.761	48.64
261.977	65.02
262.193	15.87
262.409	132.61
262.626	-16.9
262.842	30.21
263.058	52.74
263.274	56.83
263.49	73.21
263.707	85.5
263.923	103.93
264.139	46.59
264.355	-33.28
264.571	83.45
264.787	1.54
265.004	38.4
265.22	79.36
265.436	32.26
265.652	7.68
265.868	44.54
266.084	-6.66
266.3	54.78
266.516	1.54
266.732	38.4
266.948	-20.99
267.164	101.89
267.38	5.63
267.596	87.55
267.812	122.37
268.028	3.58
268.244	19.97
268.46	24.06
268.676	28.16
268.892	19.97
269.108	30.21
269.324	52.74
269.54	81.41
269.756	19.97
269.972	17.92
270.188	34.3
270.403	42.5
270.619	32.26
270.835	-25.09
271.051	-2.56
271.267	95.74
271.483	77.31
271.698	69.12
271.914	52.74
272.13	108.03
272.346	48.64
272.562	132.61
272.777	105.98
272.993	-2.56
273.209	62.98
273.425	44.54
273.64	-0.51
273.856	134.65
274.072	44.54
274.287	-10.75
274.503	155.13
274.719	19.97
274.934	91.65
275.15	103.93
275.366	54.78
275.581	126.46
275.797	30.21
276.012	22.02
276.228	44.54
276.444	36.35
276.659	77.31
276.875	56.83
277.09	48.64
277.306	36.35
277.521	34.3
277.737	22.02
277.952	19.97
278.168	87.55
278.383	24.06
278.599	52.74
278.814	112.13
279.03	-16.9
279.245	103.93
279.461	22.02
279.676	65.02
279.892	-16.9
280.107	36.35
280.322	36.35
280.538	81.41
280.753	-2.56
280.969	62.98
281.184	65.02
281.399	52.74
281.615	73.21
281.83	91.65
282.045	9.73
282.26	85.5
282.476	-10.75
282.691	38.4
282.906	103.93
283.122	89.6
283.337	15.87
283.552	-49.66
283.767	52.74
283.983	87.55
284.198	28.16
284.413	17.92
284.628	40.45
284.843	93.69
285.058	105.98
285.274	58.88
285.489	32.26
285.704	60.93
285.919	-4.61
286.134	-49.66
286.349	62.98
286.564	54.78
286.779	85.5
286.995	22.02
287.21	15.87
287.425	71.17
287.64	93.69
287.855	22.02
288.07	11.78
288.285	58.88
288.5	36.35
288.715	95.74
288.93	79.36
289.145	97.79
289.36	7.68
289.575	71.17
289.79	34.3
290.004	38.4
290.219	85.5
290.434	65.02
290.649	-43.52
290.864	11.78
291.079	62.98
291.294	38.4
291.509	101.89
291.724	85.5
291.938	44.54
292.153	95.74
292.368	77.31
292.583	62.98
292.798	95.74
293.012	87.55
293.227	120.32
293.442	71.17
293.657	71.17
293.871	112.13
294.086	38.4
294.301	85.5
294.516	77.31
294.73	30.21
294.945	-2.56
295.16	52.74
295.374	136.7
295.589	95.74
295.804	28.16
296.018	3.58
296.233	40.45
296.447	26.11
296.662	77.31
296.877	46.59
297.091	71.17
297.306	79.36
297.52	85.5
297.735	19.97
297.949	17.92
298.164	58.88
298.378	97.79
298.593	13.82
298.807	48.64
299.022	56.83
299.236	34.3
299.451	24.06
299.665	5.63
299.88	54.78
300.094	36.35
300.309	24.06
300.523	22.02
300.737	40.45
300.952	44.54
301.166	81.41
301.381	69.12
301.595	54.78
301.809	118.27
302.024	36.35
302.238	65.02
302.452	28.16
302.667	19.97
302.881	118.27
303.095	44.54
303.309	28.16
303.524	-8.7
303.738	24.06
303.952	73.21
304.166	15.87
304.381	-4.61
304.595	52.74
304.809	-29.18
305.023	103.93
305.237	32.26
305.452	75.26
305.666	93.69
305.88	38.4
306.094	50.69
306.308	124.41
306.522	40.45
306.736	75.26
306.95	71.17
307.164	54.78
307.379	32.26
307.593	112.13
307.807	110.08
308.021	44.54
308.235	13.82
308.449	62.98
308.663	32.26
308.877	136.7
309.091	77.31
309.305	140.8
309.519	30.21
309.733	46.59
309.947	11.78
310.161	58.88
310.374	83.45
310.588	19.97
310.802	65.02
311.016	101.89
311.23	89.6
311.444	-8.7
311.658	71.17
311.872	24.06
312.085	105.98
312.299	99.84
312.513	77.31
312.727	105.98
312.941	81.41
313.154	81.41
313.368	13.82
313.582	67.07
313.796	136.7
314.009	101.89
314.223	101.89
314.437	54.78
314.651	30.21
314.864	62.98
315.078	54.78
315.292	22.02
315.505	124.41
315.719	71.17
315.933	28.16
316.146	24.06
316.36	-14.85
316.573	110.08
316.787	124.41
317.001	30.21
317.214	50.69
317.428	77.31
317.641	48.64
317.855	30.21
318.068	30.21
318.282	85.5
318.495	118.27
318.709	1.54
318.922	34.3
319.136	56.83
319.349	128.51
319.563	30.21
319.776	32.26
319.99	-61.95
320.203	103.93
320.417	-25.09
320.63	17.92
320.843	105.98
321.057	44.54
321.27	38.4
321.483	28.16
321.697	58.88
321.91	7.68
322.124	62.98
322.337	50.69
322.55	-0.51
322.763	17.92
322.977	122.37
323.19	19.97
323.403	42.5
323.617	48.64
323.83	77.31
324.043	93.69
324.256	54.78
324.469	-2.56
324.683	69.12
324.896	73.21
325.109	67.07
325.322	48.64
325.535	40.45
325.748	99.84
325.962	105.98
326.175	77.31
326.388	151.04
326.601	60.93
326.814	46.59
327.027	22.02
327.24	114.17
327.453	26.11
327.666	105.98
327.879	89.6
328.092	46.59
328.305	11.78
328.518	13.82
328.731	65.02
328.944	44.54
329.157	85.5
329.37	118.27
329.583	181.76
329.796	52.74
330.009	71.17
330.222	73.21
330.435	116.22
330.648	132.61
330.861	11.78
331.073	134.65
331.286	110.08
331.499	32.26
331.712	85.5
331.925	52.74
332.138	40.45
332.35	85.5
332.563	-29.18
332.776	48.64
332.989	65.02
333.202	97.79
333.414	138.75
333.627	52.74
333.84	56.83
334.053	-16.9
334.265	34.3
334.478	36.35
334.691	85.5
334.903	105.98
335.116	110.08
335.329	69.12
335.541	79.36
335.754	52.74
335.966	40.45
336.179	-4.61
336.392	69.12
336.604	-23.04
336.817	124.41
337.029	71.17
337.242	85.5
337.454	19.97
337.667	60.93
337.88	87.55
338.092	71.17
338.305	75.26
338.517	116.22
338.729	-8.7
338.942	69.12
339.154	101.89
339.367	95.74
339.579	136.7
339.792	-35.33
340.004	97.79
340.217	26.11
340.429	155.13
340.641	46.59
340.854	44.54
341.066	67.07
341.278	118.27
341.491	97.79
341.703	71.17
341.915	67.07
342.128	42.5
342.34	71.17
342.552	42.5
342.764	65.02
342.977	128.51
343.189	77.31
343.401	73.21
343.613	-0.51
343.826	87.55
344.038	32.26
344.25	89.6
344.462	73.21
344.674	34.3
344.886	81.41
345.099	32.26
345.311	79.36
345.523	67.07
345.735	-0.51
345.947	118.27
346.159	62.98
346.371	28.16
346.583	24.06
346.795	44.54
347.007	32.26
347.219	28.16
347.431	60.93
347.643	71.17
347.855	108.03
348.067	81.41
348.279	30.21
348.491	19.97
348.703	38.4
348.915	56.83
349.127	87.55
349.339	89.6
349.551	40.45
349.763	136.7
349.975	62.98
350.187	85.5
350.399	85.5
350.61	101.89
350.822	71.17
351.034	112.13
351.246	105.98
351.458	44.54
351.669	85.5
351.881	130.56
352.093	108.03
352.305	140.8
352.517	50.69
352.728	114.17
352.94	103.93
353.152	132.61
353.363	44.54
353.575	142.85
353.787	60.93
353.999	36.35
354.21	65.02
354.422	-20.99
354.633	69.12
354.845	52.74
355.057	105.98
355.268	91.65
355.48	44.54
355.692	11.78
355.903	110.08
356.115	24.06
356.326	30.21
356.538	136.7
356.749	175.61
356.961	212.48
357.172	130.56
357.384	81.41
357.595	71.17
357.807	128.51
358.018	112.13
358.23	71.17
358.441	52.74
358.653	48.64
358.864	60.93
359.075	77.31
359.287	77.31
359.498	44.54
359.709	77.31
359.921	85.5
360.132	36.35
360.344	97.79
360.555	71.17
360.766	62.98
360.977	36.35
361.189	83.45
361.4	118.27
361.611	65.02
361.823	112.13
362.034	52.74
362.245	44.54
362.456	71.17
362.667	112.13
362.879	-12.8
363.09	32.26
363.301	5.63
363.512	97.79
363.723	52.74
363.935	13.82
364.146	93.69
364.357	46.59
364.568	93.69
364.779	24.06
364.99	62.98
365.201	52.74
365.412	95.74
365.623	19.97
365.834	126.46
366.045	30.21
366.256	65.02
366.467	46.59
366.678	52.74
366.889	32.26
367.1	54.78
367.311	65.02
367.522	73.21
367.733	108.03
367.944	118.27
368.155	101.89
368.366	71.17
368.577	44.54
368.788	60.93
368.999	69.12
369.209	87.55
369.42	134.65
369.631	124.41
369.842	32.26
370.053	83.45
370.264	95.74
370.474	77.31
370.685	56.83
370.896	85.5
371.107	93.69
371.317	36.35
371.528	87.55
371.739	69.12
371.95	126.46
372.16	128.51
372.371	60.93
372.582	17.92
372.792	62.98
373.003	134.65
373.214	-43.52
373.424	114.17
373.635	95.74
373.846	85.5
374.056	54.78
374.267	105.98
374.477	36.35
374.688	101.89
374.898	108.03
375.109	52.74
375.319	81.41
375.53	122.37
375.74	120.32
375.951	11.78
376.161	-10.75
376.372	101.89
376.582	65.02
376.793	126.46
377.003	15.87
377.214	77.31
377.424	-16.9
377.635	146.94
377.845	101.89
378.055	85.5
378.266	46.59
378.476	44.54
378.686	85.5
378.897	128.51
379.107	110.08
379.317	136.7
379.528	62.98
379.738	50.69
379.948	65.02
380.158	81.41
380.369	85.5
380.579	105.98
380.789	30.21
380.999	77.31
381.21	77.31
381.42	116.22
381.63	71.17
381.84	56.83
382.05	120.32
382.261	103.93
382.471	77.31
382.681	118.27
382.891	73.21
383.101	118.27
383.311	44.54
383.521	52.74
383.731	71.17
383.941	-4.61
384.151	93.69
384.361	132.61
384.571	71.17
384.781	101.89
384.991	159.23
385.201	50.69
385.411	118.27
385.621	99.84
385.831	87.55
386.041	120.32
386.251	44.54
386.461	110.08
386.671	22.02
386.881	85.5
387.091	85.5
387.301	93.69
387.511	60.93
387.72	89.6
387.93	202.24
388.14	30.21
388.35	126.46
388.56	105.98
388.769	136.7
388.979	52.74
389.189	54.78
389.399	85.5
389.609	105.98
389.818	171.52
390.028	40.45
390.238	95.74
390.447	79.36
390.657	44.54
390.867	38.4
391.076	87.55
391.286	138.75
391.496	54.78
391.705	62.98
391.915	146.94
392.125	114.17
392.334	142.85
392.544	93.69
392.753	56.83
392.963	151.04
393.172	93.69
393.382	83.45
393.591	167.42
393.801	128.51
394.01	155.13
394.22	118.27
394.429	69.12
394.639	52.74
394.848	48.64
395.058	103.93
395.267	44.54
395.477	105.98
395.686	126.46
395.895	175.61
396.105	175.61
396.314	128.51
396.524	54.78
396.733	124.41
396.942	142.85
397.152	187.9
397.361	157.18
397.57	136.7
397.78	95.74
397.989	112.13
398.198	126.46
398.407	87.55
398.617	124.41
398.826	69.12
399.035	192
399.244	167.42
399.453	151.04
399.663	181.76
399.872	146.94
400.081	210.43
400.29	181.76
400.499	136.7
400.708	200.19
400.917	142.85
401.127	157.18
401.336	144.89
401.545	210.43
401.754	173.57
401.963	126.46
402.172	132.61
402.381	128.51
402.59	126.46
402.799	126.46
403.008	157.18
403.217	194.05
403.426	218.62
403.635	97.79
403.844	159.23
404.053	222.72
404.262	169.47
404.471	216.57
404.68	126.46
404.888	161.28
405.097	153.09
405.306	261.63
405.515	224.76
405.724	153.09
405.933	218.62
406.142	245.24
406.35	280.06
406.559	251.39
406.768	218.62
406.977	323.07
407.185	296.44
407.394	243.2
407.603	249.34
407.812	345.59
408.02	308.73
408.229	306.68
408.438	308.73
408.646	310.78
408.855	302.59
409.064	286.2
409.272	312.83
409.481	511.48
409.69	404.99
409.898	380.41
410.107	388.6
410.315	357.88
410.524	445.95
410.733	437.75
410.941	462.33
411.15	472.57
411.358	429.56
411.567	658.93
411.775	456.19
411.984	546.3
412.192	597.49
412.401	544.25
412.609	597.49
412.818	601.59
413.026	685.56
413.234	765.43
413.443	677.37
413.651	714.23
413.86	757.24
414.068	716.28
414.276	839.16
414.485	781.81
414.693	925.17
414.901	867.83
415.11	882.16
415.318	904.69
415.526	1007.09
415.734	886.26
415.943	1052.14
416.151	970.23
416.359	1086.96
416.567	1019.38
416.776	1136.11
416.984	1144.3
417.192	1203.69
417.4	1232.37
417.608	1111.54
417.817	1367.53
418.025	1492.46
418.233	1455.59
418.441	1502.7
418.649	1496.55
418.857	1637.86
419.065	1662.44
419.273	1560.04
419.481	1795.56
419.689	1793.51
419.897	1996.26
420.105	1875.43
420.313	2006.5
420.521	1983.97
420.729	2199.01
420.937	2078.18
421.145	2207.2
421.353	2366.94
421.561	2428.38
421.769	2399.71
421.977	2684.38
422.185	2573.78
422.393	2751.96
422.601	2862.55
422.809	2893.27
423.017	2944.47
423.224	2995.67
423.432	3036.63
423.64	3112.4
423.848	3517.9
424.056	3349.96
424.263	3485.13
424.471	3657.16
424.679	3528.14
424.887	3714.5
425.094	3821
425.302	3904.96
425.51	4230.59
425.718	4185.54
425.925	4208.06
426.133	4480.44
426.341	4795.83
426.548	4820.41
426.756	4875.7
426.964	4926.9
427.171	5318.06
427.379	5324.21
427.586	5539.24
427.794	5512.62
428.001	5772.71
428.209	6155.68
428.417	6120.87
428.624	6372.77
428.832	6393.25
429.039	6460.83
429.247	6483.36
429.454	7101.84
429.662	7499.15
429.869	7046.55
430.076	7493.01
430.284	7103.89
430.491	7654.8
430.699	7855.5
430.906	7994.76
431.114	8048.01
431.321	8457.6
431.528	8523.13
431.736	9115
431.943	9555.31
432.15	9428.34
432.358	9508.21
432.565	9882.99
432.772	9839.98
432.979	10386.79
433.187	10624.35
433.394	10548.58
433.601	11183.45
433.808	11367.76
434.016	11246.93
434.223	11738.44
434.43	12211.53
434.637	12219.72
434.844	13004.09
435.052	13192.5
435.259	13040.95
435.466	13200.69
435.673	13016.38
435.88	14005.55
436.087	14781.73
436.294	14773.53
436.501	14425.38
436.708	14763.29
436.915	15224.09
437.122	15854.86
437.329	15723.79
437.537	16264.46
437.743	16362.76
437.95	16555.27
438.157	17313.02
438.364	17784.05
438.571	17822.96
438.778	17796.34
438.985	19408.09
439.192	18539.75
439.399	18955.49
439.606	18595.04
439.813	20008.14
440.02	21331.13
440.227	20706.5
440.433	20524.23
440.64	21220.54
440.847	21388.47
441.054	21513.4
441.261	23055.52
441.467	22869.16
441.674	23188.64
441.881	24138.9
442.088	23901.33
442.294	23956.63
442.501	24614.02
442.708	25093.25
442.914	25592.95
443.121	26989.67
443.328	26446.96
443.534	27989.08
443.741	27077.73
443.948	26661.99
444.154	28703.82
444.361	28660.81
444.568	28877.9
444.774	28775.5
444.981	28851.27
445.187	29985.85
445.394	31464.48
445.6	30497.84
445.807	33682.43
446.013	32072.73
446.22	32416.79
446.426	34014.2
446.633	34493.43
446.839	35384.29
447.046	34233.33
447.252	35855.32
447.459	35611.62
447.665	35705.82
447.871	37278.66
448.078	38792.11
448.284	37219.27
448.491	38443.96
448.697	39543.72
448.903	40618.9
449.11	40305.56
449.316	39422.89
449.522	40235.93
449.728	41350.03
449.935	42136.45
450.141	41644.93
450.347	43008.88
450.553	41192.33
450.76	41761.67
450.966	43567.98
451.172	42922.87
451.378	43869.03
451.584	43309.93
451.791	43664.23
451.997	43877.22
452.203	44553.05
452.409	44596.06
452.615	44540.76
452.821	42945.39
453.027	42701.68
453.233	44866.39
453.44	42935.15
453.646	43428.71
453.852	43600.74
454.058	44479.32
454.264	43164.53
454.47	44159.84
454.676	43279.21
454.882	44381.02
455.088	40446.87
455.294	41769.86
455.5	41681.8
455.705	42466.17
455.911	40639.38
456.117	39852.96
456.323	39279.53
456.529	37346.25
456.735	39185.32
456.941	38153.15
457.147	37811.14
457.352	36608.98
457.558	36133.85
457.764	36363.22
457.97	35718.11
458.176	34851.82
458.381	34892.78
458.587	33416.19
458.793	33006.6
458.999	31693.85
459.204	33565.7
459.41	32842.76
459.616	30516.27
459.821	30659.63
460.027	30704.68
460.233	29914.17
460.438	28673.1
460.644	28996.68
460.85	27669.59
461.055	27044.96
461.261	27004
461.466	25199.74
461.672	24276.11
461.878	25928.82
462.083	24579.21
462.289	23852.18
462.494	23708.82
462.7	22533.29
462.905	22127.79
463.111	22785.19
463.316	22963.36
463.522	22191.28
463.727	22340.78
463.932	22064.3
464.138	22168.75
464.343	22230.19
464.549	21365.95
464.754	22246.57
464.959	21955.76
465.165	21804.21
465.37	20956.35
465.575	20311.24
465.781	21265.6
465.986	21585.08
466.191	20337.87
466.397	20165.84
466.602	19086.56
