Data from USB4F104151__177__14-20-05-495.txt Node

Date: Thu Mar 13 14:20:05 EDT 2025
User: louis
Spectrometer: USB4F10415
Trigger mode: 4
Integration Time (sec): 2.000000E-2
Scans to average: 1
Electric dark correction enabled: true
Nonlinearity correction enabled: false
Boxcar width: 0
XAxis mode: Wavelengths
Number of Pixels in Spectrum: 3648
>>>>>Begin Spectral Data<<<<<
178.204	-113.83
178.424	-113.83
178.644	-113.83
178.864	-76.97
179.084	-97.45
179.304	-23.72
179.524	-31.91
179.744	15.19
179.964	23.38
180.184	-3.24
180.404	19.29
180.624	11.09
180.844	33.62
181.064	-64.68
181.283	-9.39
181.503	-15.53
181.723	45.91
181.943	27.48
182.163	31.57
182.383	-7.34
182.602	2.9
182.822	47.96
183.042	27.48
183.262	-15.53
183.482	37.72
183.701	29.52
183.921	56.15
184.141	-13.48
184.361	50
184.58	-44.2
184.8	43.86
185.02	27.48
185.239	52.05
185.459	74.58
185.679	107.35
185.898	62.29
186.118	39.76
186.338	27.48
186.557	-36.01
186.777	-13.48
186.997	4.95
187.216	60.24
187.436	99.16
187.655	17.24
187.875	2.9
188.095	-48.3
188.314	31.57
188.534	35.67
188.753	-21.67
188.973	-7.34
189.192	54.1
189.412	47.96
189.631	86.87
189.851	-13.48
190.07	7
190.29	-11.43
190.509	-5.29
190.729	-7.34
190.948	33.62
191.168	109.4
191.387	99.16
191.607	19.29
191.826	66.39
192.045	-21.67
192.265	-40.11
192.484	17.24
192.704	21.33
192.923	-1.19
193.142	62.29
193.362	-27.82
193.581	33.62
193.8	50
194.02	86.87
194.239	19.29
194.458	41.81
194.678	74.58
194.897	17.24
195.116	54.1
195.335	72.53
195.555	0.85
195.774	25.43
195.993	43.86
196.212	-23.72
196.432	9.05
196.651	-9.39
196.87	33.62
197.089	-11.43
197.308	41.81
197.528	41.81
197.747	43.86
197.966	35.67
198.185	50
198.404	86.87
198.623	33.62
198.842	39.76
199.062	-23.72
199.281	-1.19
199.5	27.48
199.719	39.76
199.938	45.91
200.157	35.67
200.376	33.62
200.595	54.1
200.814	29.52
201.033	11.09
201.252	50
201.471	-23.72
201.69	101.2
201.909	117.59
202.128	7
202.347	82.77
202.566	68.44
202.785	66.39
203.004	29.52
203.223	25.43
203.442	45.91
203.661	68.44
203.879	58.2
204.098	93.01
204.317	43.86
204.536	66.39
204.755	37.72
204.974	11.09
205.193	27.48
205.411	158.55
205.63	9.05
205.849	-70.83
206.068	93.01
206.287	82.77
206.505	66.39
206.724	78.68
206.943	0.85
207.162	35.67
207.381	76.63
207.599	95.06
207.818	45.91
208.037	50
208.255	-44.2
208.474	58.2
208.693	15.19
208.911	-15.53
209.13	62.29
209.349	86.87
209.567	-3.24
209.786	107.35
210.005	74.58
210.223	9.05
210.442	52.05
210.661	39.76
210.879	78.68
211.098	-33.96
211.316	27.48
211.535	52.05
211.753	60.24
211.972	45.91
212.191	23.38
212.409	25.43
212.628	0.85
212.846	17.24
213.065	11.09
213.283	90.96
213.502	15.19
213.72	90.96
213.938	2.9
214.157	0.85
214.375	111.44
214.594	58.2
214.812	0.85
215.031	74.58
215.249	-85.16
215.467	29.52
215.686	66.39
215.904	105.3
216.122	58.2
216.341	86.87
216.559	35.67
216.778	-13.48
216.996	15.19
217.214	-13.48
217.432	-7.34
217.651	-5.29
217.869	54.1
218.087	0.85
218.306	-9.39
218.524	70.48
218.742	-29.87
218.96	50
219.179	4.95
219.397	50
219.615	58.2
219.833	9.05
220.051	11.09
220.27	43.86
220.488	115.54
220.706	-5.29
220.924	-5.29
221.142	43.86
221.36	47.96
221.578	58.2
221.796	93.01
222.015	19.29
222.233	35.67
222.451	41.81
222.669	-48.3
222.887	-38.06
223.105	35.67
223.323	80.72
223.541	-19.63
223.759	-7.34
223.977	21.33
224.195	74.58
224.413	17.24
224.631	-7.34
224.849	33.62
225.067	82.77
225.285	-19.63
225.503	58.2
225.721	-58.54
225.939	68.44
226.157	43.86
226.375	191.31
226.592	2.9
226.81	19.29
227.028	41.81
227.246	107.35
227.464	68.44
227.682	27.48
227.9	70.48
228.117	21.33
228.335	-1.19
228.553	-54.44
228.771	-11.43
228.989	-29.87
229.206	-74.92
229.424	41.81
229.642	58.2
229.86	0.85
230.077	50
230.295	103.25
230.513	-1.19
230.731	52.05
230.948	19.29
231.166	37.72
231.384	21.33
231.601	-17.58
231.819	60.24
232.037	0.85
232.254	41.81
232.472	52.05
232.689	33.62
232.907	0.85
233.125	41.81
233.342	-1.19
233.56	50
233.777	-19.63
233.995	0.85
234.213	21.33
234.43	-27.82
234.648	-23.72
234.865	-23.72
235.083	41.81
235.3	0.85
235.518	84.82
235.735	39.76
235.953	35.67
236.17	17.24
236.388	-15.53
236.605	43.86
236.822	29.52
237.04	33.62
237.257	-3.24
237.475	54.1
237.692	0.85
237.909	56.15
238.127	60.24
238.344	-29.87
238.562	25.43
238.779	25.43
238.996	29.52
239.214	-31.91
239.431	4.95
239.648	-15.53
239.865	13.14
240.083	-3.24
240.3	60.24
240.517	21.33
240.735	62.29
240.952	23.38
241.169	-42.15
241.386	35.67
241.603	-38.06
241.821	-15.53
242.038	52.05
242.255	103.25
242.472	52.05
242.689	27.48
242.907	105.3
243.124	-23.72
243.341	17.24
243.558	25.43
243.775	-56.49
243.992	-64.68
244.209	58.2
244.426	45.91
244.643	0.85
244.86	41.81
245.078	93.01
245.295	13.14
245.512	21.33
245.729	-21.67
245.946	27.48
246.163	19.29
246.38	54.1
246.597	37.72
246.814	0.85
247.031	15.19
247.248	74.58
247.464	-70.83
247.681	93.01
247.898	80.72
248.115	97.11
248.332	-1.19
248.549	90.96
248.766	138.07
248.983	-5.29
249.2	29.52
249.417	50
249.633	74.58
249.85	76.63
250.067	-40.11
250.284	-21.67
250.501	-46.25
250.717	21.33
250.934	-42.15
251.151	-60.59
251.368	35.67
251.585	37.72
251.801	19.29
252.018	-25.77
252.235	43.86
252.451	27.48
252.668	11.09
252.885	58.2
253.102	37.72
253.318	-29.87
253.535	-40.11
253.752	-5.29
253.968	99.16
254.185	-38.06
254.401	13.14
254.618	45.91
254.835	58.2
255.051	37.72
255.268	68.44
255.484	41.81
255.701	17.24
255.917	4.95
256.134	25.43
256.351	17.24
256.567	74.58
256.784	66.39
257	-11.43
257.217	148.31
257.433	-1.19
257.65	45.91
257.866	39.76
258.082	-15.53
258.299	39.76
258.515	80.72
258.732	70.48
258.948	9.05
259.165	52.05
259.381	17.24
259.597	84.82
259.814	68.44
260.03	33.62
260.246	17.24
260.463	58.2
260.679	131.92
260.895	2.9
261.112	27.48
261.328	19.29
261.544	37.72
261.761	50
261.977	43.86
262.193	13.14
262.409	37.72
262.626	13.14
262.842	50
263.058	11.09
263.274	95.06
263.49	21.33
263.707	9.05
263.923	0.85
264.139	27.48
264.355	17.24
264.571	41.81
264.787	2.9
265.004	-7.34
265.22	11.09
265.436	41.81
265.652	-48.3
265.868	2.9
266.084	33.62
266.3	-1.19
266.516	19.29
266.732	76.63
266.948	33.62
267.164	68.44
267.38	103.25
267.596	-5.29
267.812	39.76
268.028	-9.39
268.244	58.2
268.46	78.68
268.676	-62.63
268.892	105.3
269.108	-19.63
269.324	33.62
269.54	9.05
269.756	74.58
269.972	0.85
270.188	13.14
270.403	-17.58
270.619	33.62
270.835	90.96
271.051	21.33
271.267	-11.43
271.483	41.81
271.698	29.52
271.914	54.1
272.13	9.05
272.346	2.9
272.562	-25.77
272.777	2.9
272.993	-60.59
273.209	7
273.425	107.35
273.64	-101.55
273.856	37.72
274.072	4.95
274.287	33.62
274.503	52.05
274.719	21.33
274.934	107.35
275.15	-21.67
275.366	0.85
275.581	-50.35
275.797	19.29
276.012	99.16
276.228	-21.67
276.444	70.48
276.659	43.86
276.875	76.63
277.09	-38.06
277.306	9.05
277.521	72.53
277.737	-9.39
277.952	35.67
278.168	0.85
278.383	-3.24
278.599	39.76
278.814	11.09
279.03	9.05
279.245	41.81
279.461	0.85
279.676	-31.91
279.892	50
280.107	0.85
280.322	7
280.538	66.39
280.753	33.62
280.969	50
281.184	19.29
281.399	23.38
281.615	50
281.83	43.86
282.045	23.38
282.26	-9.39
282.476	76.63
282.691	2.9
282.906	101.2
283.122	13.14
283.337	-48.3
283.552	76.63
283.767	4.95
283.983	17.24
284.198	-38.06
284.413	76.63
284.628	25.43
284.843	-23.72
285.058	80.72
285.274	138.07
285.489	76.63
285.704	60.24
285.919	25.43
286.134	131.92
286.349	9.05
286.564	-31.91
286.779	60.24
286.995	74.58
287.21	-15.53
287.425	115.54
287.64	11.09
287.855	19.29
288.07	41.81
288.285	101.2
288.5	-11.43
288.715	21.33
288.93	4.95
289.145	33.62
289.36	9.05
289.575	2.9
289.79	37.72
290.004	25.43
290.219	86.87
290.434	66.39
290.649	-38.06
290.864	0.85
291.079	-29.87
291.294	25.43
291.509	58.2
291.724	4.95
291.938	11.09
292.153	17.24
292.368	0.85
292.583	37.72
292.798	13.14
293.012	43.86
293.227	41.81
293.442	15.19
293.657	66.39
293.871	105.3
294.086	-11.43
294.301	93.01
294.516	131.92
294.73	4.95
294.945	90.96
295.16	-7.34
295.374	136.02
295.589	138.07
295.804	-7.34
296.018	-15.53
296.233	99.16
296.447	90.96
296.662	4.95
296.877	41.81
297.091	50
297.306	23.38
297.52	-7.34
297.735	-15.53
297.949	9.05
298.164	-29.87
298.378	74.58
298.593	50
298.807	-44.2
299.022	66.39
299.236	109.4
299.451	33.62
299.665	17.24
299.88	15.19
300.094	58.2
300.309	17.24
300.523	-11.43
300.737	121.68
300.952	31.57
301.166	37.72
301.381	13.14
301.595	33.62
301.809	52.05
302.024	9.05
302.238	-29.87
302.452	43.86
302.667	-23.72
302.881	33.62
303.095	37.72
303.309	50
303.524	43.86
303.738	33.62
303.952	-3.24
304.166	136.02
304.381	9.05
304.595	29.52
304.809	-44.2
305.023	115.54
305.237	52.05
305.452	33.62
305.666	4.95
305.88	66.39
306.094	58.2
306.308	0.85
306.522	27.48
306.736	17.24
306.95	43.86
307.164	25.43
307.379	37.72
307.593	60.24
307.807	82.77
308.021	93.01
308.235	9.05
308.449	23.38
308.663	0.85
308.877	31.57
309.091	-31.91
309.305	41.81
309.519	43.86
309.733	45.91
309.947	-17.58
310.161	-7.34
310.374	74.58
310.588	160.59
310.802	13.14
311.016	47.96
311.23	19.29
311.444	88.92
311.658	45.91
311.872	52.05
312.085	37.72
312.299	37.72
312.513	68.44
312.727	66.39
312.941	74.58
313.154	78.68
313.368	29.52
313.582	37.72
313.796	64.34
314.009	27.48
314.223	41.81
314.437	43.86
314.651	33.62
314.864	27.48
315.078	37.72
315.292	29.52
315.505	-15.53
315.719	76.63
315.933	52.05
316.146	21.33
316.36	-11.43
316.573	45.91
316.787	93.01
317.001	76.63
317.214	-11.43
317.428	115.54
317.641	41.81
317.855	33.62
318.068	-7.34
318.282	86.87
318.495	68.44
318.709	74.58
318.922	66.39
319.136	58.2
319.349	11.09
319.563	101.2
319.776	41.81
319.99	-19.63
320.203	70.48
320.417	2.9
320.63	13.14
320.843	66.39
321.057	52.05
321.27	-29.87
321.483	19.29
321.697	25.43
321.91	50
322.124	58.2
322.337	33.62
322.55	-29.87
322.763	-13.48
322.977	52.05
323.19	-13.48
323.403	60.24
323.617	-15.53
323.83	15.19
324.043	4.95
324.256	76.63
324.469	-27.82
324.683	21.33
324.896	58.2
325.109	27.48
325.322	62.29
325.535	50
325.748	-5.29
325.962	-5.29
326.175	37.72
326.388	62.29
326.601	82.77
326.814	17.24
327.027	9.05
327.24	50
327.453	0.85
327.666	41.81
327.879	33.62
328.092	56.15
328.305	-56.49
328.518	45.91
328.731	-5.29
328.944	21.33
329.157	19.29
329.37	-33.96
329.583	45.91
329.796	-19.63
330.009	35.67
330.222	109.4
330.435	17.24
330.648	4.95
330.861	9.05
331.073	-15.53
331.286	113.49
331.499	37.72
331.712	11.09
331.925	52.05
332.138	58.2
332.35	66.39
332.563	-58.54
332.776	23.38
332.989	43.86
333.202	60.24
333.414	50
333.627	54.1
333.84	80.72
334.053	90.96
334.265	-21.67
334.478	0.85
334.691	68.44
334.903	37.72
335.116	9.05
335.329	107.35
335.541	43.86
335.754	93.01
335.966	64.34
336.179	0.85
336.392	-44.2
336.604	45.91
336.817	84.82
337.029	99.16
337.242	37.72
337.454	133.97
337.667	41.81
337.88	52.05
338.092	78.68
338.305	99.16
338.517	60.24
338.729	119.64
338.942	-15.53
339.154	17.24
339.367	25.43
339.579	62.29
339.792	9.05
340.004	50
340.217	99.16
340.429	47.96
340.641	-23.72
340.854	-21.67
341.066	21.33
341.278	60.24
341.491	17.24
341.703	62.29
341.915	2.9
342.128	66.39
342.34	7
342.552	70.48
342.764	82.77
342.977	9.05
343.189	58.2
343.401	25.43
343.613	-15.53
343.826	29.52
344.038	-95.4
344.25	66.39
344.462	27.48
344.674	25.43
344.886	25.43
345.099	33.62
345.311	50
345.523	50
345.735	-13.48
345.947	41.81
346.159	58.2
346.371	45.91
346.583	31.57
346.795	123.73
347.007	62.29
347.219	41.81
347.431	27.48
347.643	107.35
347.855	7
348.067	84.82
348.279	17.24
348.491	43.86
348.703	13.14
348.915	17.24
349.127	43.86
349.339	41.81
349.551	-11.43
349.763	0.85
349.975	-60.59
350.187	58.2
350.399	115.54
350.61	45.91
350.822	54.1
351.034	58.2
351.246	0.85
351.458	-3.24
351.669	7
351.881	76.63
352.093	95.06
352.305	-13.48
352.517	64.34
352.728	152.4
352.94	60.24
353.152	9.05
353.363	-23.72
353.575	17.24
353.787	58.2
353.999	43.86
354.21	90.96
354.422	-15.53
354.633	2.9
354.845	2.9
355.057	50
355.268	99.16
355.48	86.87
355.692	52.05
355.903	76.63
356.115	54.1
356.326	41.81
356.538	58.2
356.749	35.67
356.961	33.62
357.172	9.05
357.384	0.85
357.595	109.4
357.807	52.05
358.018	68.44
358.23	54.1
358.441	80.72
358.653	70.48
358.864	-31.91
359.075	27.48
359.287	80.72
359.498	58.2
359.709	19.29
359.921	62.29
360.132	29.52
360.344	54.1
360.555	27.48
360.766	45.91
360.977	-7.34
361.189	70.48
361.4	33.62
361.611	109.4
361.823	74.58
362.034	99.16
362.245	13.14
362.456	86.87
362.667	7
362.879	11.09
363.09	4.95
363.301	50
363.512	17.24
363.723	13.14
363.935	47.96
364.146	60.24
364.357	64.34
364.568	33.62
364.779	-9.39
364.99	99.16
365.201	41.81
365.412	74.58
365.623	27.48
365.834	74.58
366.045	76.63
366.256	52.05
366.467	37.72
366.678	21.33
366.889	-29.87
367.1	25.43
367.311	58.2
367.522	-48.3
367.733	45.91
367.944	70.48
368.155	31.57
368.366	70.48
368.577	41.81
368.788	90.96
368.999	-7.34
369.209	37.72
369.42	115.54
369.631	115.54
369.842	70.48
370.053	0.85
370.264	23.38
370.474	31.57
370.685	21.33
370.896	45.91
371.107	93.01
371.317	21.33
371.528	56.15
371.739	111.44
371.95	111.44
372.16	74.58
372.371	29.52
372.582	52.05
372.792	37.72
373.003	-15.53
373.214	74.58
373.424	60.24
373.635	76.63
373.846	4.95
374.056	84.82
374.267	52.05
374.477	54.1
374.688	109.4
374.898	13.14
375.109	-3.24
375.319	43.86
375.53	41.81
375.74	117.59
375.951	101.2
376.161	86.87
376.372	82.77
376.582	37.72
376.793	86.87
377.003	54.1
377.214	43.86
377.424	39.76
377.635	60.24
377.845	33.62
378.055	117.59
378.266	17.24
378.476	90.96
378.686	37.72
378.897	74.58
379.107	74.58
379.317	123.73
379.528	4.95
379.738	90.96
379.948	33.62
380.158	82.77
380.369	29.52
380.579	101.2
380.789	35.67
380.999	60.24
381.21	76.63
381.42	99.16
381.63	-9.39
381.84	17.24
382.05	50
382.261	45.91
382.471	29.52
382.681	-25.77
382.891	78.68
383.101	-3.24
383.311	52.05
383.521	70.48
383.731	25.43
383.941	80.72
384.151	125.78
384.361	78.68
384.571	4.95
384.781	43.86
384.991	64.34
385.201	119.64
385.411	72.53
385.621	70.48
385.831	52.05
386.041	50
386.251	27.48
386.461	82.77
386.671	-38.06
386.881	107.35
387.091	29.52
387.301	62.29
387.511	9.05
387.72	50
387.93	86.87
388.14	17.24
388.35	90.96
388.56	93.01
388.769	58.2
388.979	90.96
389.189	17.24
389.399	25.43
389.609	33.62
389.818	23.38
390.028	82.77
390.238	148.31
390.447	109.4
390.657	99.16
390.867	45.91
391.076	-7.34
391.286	2.9
391.496	-15.53
391.705	-7.34
391.915	140.12
392.125	23.38
392.334	78.68
392.544	86.87
392.753	52.05
392.963	43.86
393.172	62.29
393.382	58.2
393.591	113.49
393.801	78.68
394.01	156.5
394.22	125.78
394.429	70.48
394.639	115.54
394.848	107.35
395.058	41.81
395.267	17.24
395.477	115.54
395.686	101.2
395.895	86.87
396.105	148.31
396.314	199.51
396.524	164.69
396.733	90.96
396.942	123.73
397.152	115.54
397.361	181.07
397.57	62.29
397.78	160.59
397.989	136.02
398.198	215.89
398.407	74.58
398.617	125.78
398.826	60.24
399.035	160.59
399.244	109.4
399.453	181.07
399.663	138.07
399.872	127.83
400.081	133.97
400.29	117.59
400.499	99.16
400.708	82.77
400.917	47.96
401.127	160.59
401.336	144.21
401.545	191.31
401.754	74.58
401.963	123.73
402.172	136.02
402.381	148.31
402.59	136.02
402.799	146.26
403.008	146.26
403.217	131.92
403.426	172.88
403.635	90.96
403.844	166.74
404.053	191.31
404.262	76.63
404.471	258.9
404.68	117.59
404.888	152.4
405.097	123.73
405.306	183.12
405.515	172.88
405.724	125.78
405.933	209.75
406.142	238.42
406.35	158.55
406.559	150.36
406.768	199.51
406.977	199.51
407.185	217.94
407.394	228.18
407.603	205.65
407.812	273.23
408.02	240.47
408.229	328.53
408.438	232.27
408.646	172.88
408.855	283.47
409.064	299.86
409.272	303.95
409.481	381.78
409.69	291.66
409.898	287.57
410.107	262.99
410.315	295.76
410.524	328.53
410.733	328.53
410.941	371.54
411.15	404.3
411.358	381.78
411.567	486.22
411.775	461.65
411.984	414.54
412.192	439.12
412.401	418.64
412.609	518.99
412.818	529.23
413.026	496.46
413.234	496.46
413.443	566.09
413.651	535.37
413.86	602.96
414.068	672.59
414.276	660.3
414.485	682.83
414.693	625.48
414.901	641.87
415.11	840.52
415.318	807.75
415.526	807.75
415.734	762.7
415.943	774.99
416.151	930.63
416.359	889.67
416.567	869.19
416.776	893.77
416.984	1045.32
417.192	1047.37
417.4	1030.98
417.608	1020.74
417.817	1086.28
418.025	1221.44
418.233	1235.78
418.441	1260.35
418.649	1286.98
418.857	1413.95
419.065	1469.25
419.273	1372.99
419.481	1479.49
419.689	1467.2
419.897	1540.93
420.105	1461.06
420.313	1684.28
420.521	1667.9
420.729	1669.95
420.937	1762.11
421.145	1762.11
421.353	1889.08
421.561	2161.46
421.769	2167.6
421.977	2218.8
422.185	2175.8
422.393	2384.69
422.601	2370.35
422.809	2491.18
423.017	2517.81
423.224	2509.62
423.432	2614.06
423.64	2548.53
423.848	2870.06
424.056	2976.55
424.263	3179.3
424.471	3060.52
424.679	3048.23
424.887	3349.28
425.094	3334.95
425.302	3404.58
425.51	3566.37
425.718	3539.74
425.925	3564.32
426.133	3830.55
426.341	3865.37
426.548	4150.04
426.756	4057.88
426.964	4088.6
427.171	4510.48
427.379	4563.73
427.586	4662.03
427.794	4809.48
428.001	5069.58
428.209	5151.49
428.417	5194.5
428.624	5671.68
428.832	5575.42
429.039	5452.55
429.247	5468.93
429.454	5995.26
429.662	6523.63
429.869	5958.39
430.076	6304.5
430.284	6265.59
430.491	6472.43
430.699	6929.13
430.906	6839.02
431.114	6998.76
431.321	7195.37
431.528	7391.97
431.736	7807.71
431.943	8094.43
432.15	7840.48
432.358	7981.79
432.565	8626.9
432.772	8282.84
432.979	8901.33
433.187	9016.01
433.394	8981.2
433.601	9552.58
433.808	9728.7
434.016	9644.74
434.223	10105.53
434.43	10638
434.637	10324.66
434.844	10900.14
435.052	11244.2
435.259	11119.28
435.466	11342.5
435.673	10941.1
435.88	11760.29
436.087	12544.66
436.294	12485.27
436.501	12212.89
436.708	12370.58
436.915	13011.6
437.122	13644.42
437.329	13605.51
437.537	13570.69
437.743	13922.94
437.95	13904.51
438.157	14781.04
438.364	15268.46
438.571	15065.71
438.778	15293.04
438.985	16573.02
439.192	15956.58
439.399	16372.32
439.606	15876.71
439.813	17130.06
440.02	18104.9
440.227	17490.51
440.433	17769.03
440.64	18199.1
440.847	17900.1
441.054	18522.68
441.261	19679.79
441.467	19415.6
441.674	19685.93
441.881	20572.7
442.088	20449.82
442.294	20324.9
442.501	20650.52
442.708	21162.51
442.914	21797.38
443.121	22899.19
443.328	21963.27
443.534	23874.03
443.741	23001.59
443.948	22741.5
444.154	24543.71
444.361	24318.43
444.568	24664.54
444.774	24220.13
444.981	24771.04
445.187	25170.39
445.394	26491.33
445.6	26118.6
445.807	28707.23
446.013	27439.54
446.22	27812.27
446.426	29034.91
446.633	29307.29
446.839	30423.43
447.046	29002.14
447.252	30865.79
447.459	30558.6
447.665	30574.98
447.871	32334.18
448.078	33220.95
448.284	31719.79
448.491	32424.29
448.697	33945.94
448.903	34326.86
449.11	34601.29
449.316	33605.97
449.522	34459.98
449.728	35144
449.935	35526.97
450.141	35928.37
450.347	36598.05
450.553	35074.37
450.76	35758.39
450.966	36659.49
451.172	36546.86
451.378	37376.28
451.584	36159.79
451.791	37542.17
451.997	37447.96
452.203	38113.55
452.409	38097.17
452.615	37970.19
452.821	36464.94
453.027	35936.56
453.233	38068.5
453.44	36829.48
453.646	36931.87
453.852	37282.08
454.058	37744.92
454.264	36729.12
454.47	37439.77
454.676	36501.8
454.882	37579.03
455.088	34314.57
455.294	35232.06
455.5	35504.44
455.705	35934.51
455.911	34300.23
456.117	33937.74
456.323	33352.02
456.529	31744.37
456.735	33159.52
456.941	32119.15
457.147	31873.39
457.352	30605.7
457.558	30517.64
457.764	30392.71
457.97	29960.59
458.176	29079.96
458.381	29372.82
458.587	28006.83
458.793	27888.04
458.999	26585.54
459.204	28373.41
459.41	27630
459.616	26014.15
459.821	25788.88
460.027	25520.59
460.233	25180.63
460.438	24220.13
460.644	24302.05
460.85	23216.63
461.055	22731.26
461.261	22704.63
461.466	21058.07
461.672	20400.67
461.878	21975.56
462.083	20728.35
462.289	20003.36
462.494	19929.64
462.7	18915.89
462.905	18430.52
463.111	19053.11
463.316	19292.72
463.522	18719.29
463.727	18592.31
463.932	18977.33
464.138	18543.16
464.343	18508.35
464.549	17887.81
464.754	18616.89
464.959	18645.56
465.165	18221.63
465.37	17683.02
465.575	17248.85
465.781	17945.16
465.986	17723.97
466.191	16990.8
466.397	17117.78
466.602	15999.59
466.807	16575.06
467.012	16779.86
467.218	16732.76
467.423	16323.16
467.628	16677.46
467.833	17150.54
468.038	16659.03
468.244	15919.71
468.449	16849.49
468.654	16050.78
468.859	16104.03
469.064	16101.98
