Data from USB4F104151__166__14-19-51-800.txt Node

Date: Thu Mar 13 14:19:51 EDT 2025
User: louis
Spectrometer: USB4F10415
Trigger mode: 4
Integration Time (sec): 2.000000E-2
Scans to average: 1
Electric dark correction enabled: true
Nonlinearity correction enabled: false
Boxcar width: 0
XAxis mode: Wavelengths
Number of Pixels in Spectrum: 3648
>>>>>Begin Spectral Data<<<<<
178.204	-137.21
178.424	-137.21
178.644	-137.21
178.864	-20.48
179.084	-86.01
179.304	-24.58
179.524	-34.82
179.744	-10.24
179.964	83.97
180.184	-34.82
180.404	30.72
180.624	16.38
180.844	-26.62
181.064	-49.15
181.283	18.43
181.503	8.19
181.723	22.53
181.943	-67.58
182.163	2.05
182.383	-8.19
182.602	-24.58
182.822	6.14
183.042	96.25
183.262	75.77
183.482	55.3
183.701	-38.91
183.921	79.87
184.141	-26.62
184.361	30.72
184.58	-26.62
184.8	-47.1
185.02	67.58
185.239	-8.19
185.459	-0
185.679	6.14
185.898	-28.67
186.118	-0
186.338	57.34
186.557	63.49
186.777	2.05
186.997	47.1
187.216	-59.39
187.436	49.15
187.655	47.1
187.875	151.55
188.095	32.77
188.314	32.77
188.534	43.01
188.753	34.82
188.973	14.34
189.192	47.1
189.412	-47.1
189.631	28.67
189.851	49.15
190.07	47.1
190.29	-24.58
190.509	63.49
190.729	4.1
190.948	104.45
191.168	77.82
191.387	14.34
191.607	24.58
191.826	38.91
192.045	79.87
192.265	-20.48
192.484	-10.24
192.704	-18.43
192.923	-55.3
193.142	51.2
193.362	4.1
193.581	26.62
193.8	26.62
194.02	8.19
194.239	-0
194.458	-12.29
194.678	55.3
194.897	24.58
195.116	-20.48
195.335	20.48
195.555	-75.77
195.774	-10.24
195.993	28.67
196.212	71.68
196.432	71.68
196.651	55.3
196.87	57.34
197.089	83.97
197.308	40.96
197.528	83.97
197.747	-14.34
197.966	-49.15
198.185	24.58
198.404	6.14
198.623	55.3
198.842	67.58
199.062	55.3
199.281	6.14
199.5	-16.38
199.719	30.72
199.938	-4.1
200.157	-2.05
200.376	-6.14
200.595	6.14
200.814	-24.58
201.033	12.29
201.252	-26.62
201.471	98.3
201.69	43.01
201.909	63.49
202.128	104.45
202.347	47.1
202.566	40.96
202.785	-26.62
203.004	14.34
203.223	90.11
203.442	-10.24
203.661	59.39
203.879	67.58
204.098	34.82
204.317	24.58
204.536	45.06
204.755	38.91
204.974	88.06
205.193	-28.67
205.411	71.68
205.63	65.53
205.849	22.53
206.068	-18.43
206.287	32.77
206.505	34.82
206.724	2.05
206.943	-26.62
207.162	34.82
207.381	12.29
207.599	-38.91
207.818	-14.34
208.037	32.77
208.255	16.38
208.474	-34.82
208.693	-18.43
208.911	10.24
209.13	26.62
209.349	24.58
209.567	22.53
209.786	-32.77
210.005	24.58
210.223	-55.3
210.442	8.19
210.661	-14.34
210.879	24.58
211.098	59.39
211.316	28.67
211.535	16.38
211.753	-22.53
211.972	49.15
212.191	10.24
212.409	45.06
212.628	47.1
212.846	14.34
213.065	8.19
213.283	49.15
213.502	-43.01
213.72	45.06
213.938	-34.82
214.157	55.3
214.375	10.24
214.594	-22.53
214.812	-34.82
215.031	-2.05
215.249	2.05
215.467	34.82
215.686	-22.53
215.904	6.14
216.122	10.24
216.341	47.1
216.559	20.48
216.778	83.97
216.996	38.91
217.214	18.43
217.432	4.1
217.651	-14.34
217.869	-2.05
218.087	71.68
218.306	-51.2
218.524	61.44
218.742	40.96
218.96	14.34
219.179	-36.86
219.397	30.72
219.615	28.67
219.833	-20.48
220.051	-10.24
220.27	120.83
220.488	12.29
220.706	8.19
220.924	-0
221.142	83.97
221.36	-20.48
221.578	22.53
221.796	38.91
222.015	43.01
222.233	12.29
222.451	36.86
222.669	-43.01
222.887	12.29
223.105	30.72
223.323	38.91
223.541	57.34
223.759	8.19
223.977	30.72
224.195	143.36
224.413	14.34
224.631	-16.38
224.849	47.1
225.067	30.72
225.285	-34.82
225.503	57.34
225.721	-51.2
225.939	69.63
226.157	-22.53
226.375	116.73
226.592	-34.82
226.81	34.82
227.028	67.58
227.246	79.87
227.464	88.06
227.682	49.15
227.9	40.96
228.117	63.49
228.335	14.34
228.553	88.06
228.771	-40.96
228.989	73.73
229.206	12.29
229.424	28.67
229.642	20.48
229.86	-26.62
230.077	65.53
230.295	47.1
230.513	-18.43
230.731	43.01
230.948	47.1
231.166	26.62
231.384	-4.1
231.601	-30.72
231.819	40.96
232.037	-18.43
232.254	-14.34
232.472	36.86
232.689	-47.1
232.907	-2.05
233.125	-0
233.342	32.77
233.56	16.38
233.777	120.83
233.995	16.38
234.213	-4.1
234.43	96.25
234.648	63.49
234.865	26.62
235.083	28.67
235.3	83.97
235.518	49.15
235.735	61.44
235.953	14.34
236.17	4.1
236.388	-2.05
236.605	-18.43
236.822	86.01
237.04	67.58
237.257	-26.62
237.475	47.1
237.692	49.15
237.909	-2.05
238.127	69.63
238.344	75.77
238.562	-16.38
238.779	-4.1
238.996	16.38
239.214	-12.29
239.431	28.67
239.648	40.96
239.865	32.77
240.083	104.45
240.3	2.05
240.517	-30.72
240.735	-6.14
240.952	49.15
241.169	30.72
241.386	63.49
241.603	73.73
241.821	22.53
242.038	-14.34
242.255	-6.14
242.472	-26.62
242.689	67.58
242.907	24.58
243.124	-43.01
243.341	96.25
243.558	2.05
243.775	22.53
243.992	-14.34
244.209	59.39
244.426	83.97
244.643	26.62
244.86	57.34
245.078	43.01
245.295	-20.48
245.512	43.01
245.729	-26.62
245.946	8.19
246.163	43.01
246.38	-32.77
246.597	22.53
246.814	-10.24
247.031	59.39
247.248	30.72
247.464	-20.48
247.681	22.53
247.898	32.77
248.115	108.54
248.332	-65.54
248.549	-2.05
248.766	43.01
248.983	38.91
249.2	2.05
249.417	6.14
249.633	57.34
249.85	47.1
250.067	-14.34
250.284	59.39
250.501	-2.05
250.717	129.02
250.934	-0
251.151	63.49
251.368	8.19
251.585	73.73
251.801	38.91
252.018	-34.82
252.235	-2.05
252.451	-51.2
252.668	36.86
252.885	55.3
253.102	-10.24
253.318	38.91
253.535	-6.14
253.752	16.38
253.968	-36.86
254.185	-40.96
254.401	67.58
254.618	-2.05
254.835	63.49
255.051	57.34
255.268	55.3
255.484	-32.77
255.701	67.58
255.917	40.96
256.134	-24.58
256.351	10.24
256.567	-71.68
256.784	-4.1
257	26.62
257.217	43.01
257.433	59.39
257.65	63.49
257.866	-12.29
258.082	-59.39
258.299	38.91
258.515	22.53
258.732	32.77
258.948	55.3
259.165	-8.19
259.381	-75.77
259.597	-8.19
259.814	24.58
260.03	59.39
260.246	-45.06
260.463	55.3
260.679	57.34
260.895	-57.34
261.112	2.05
261.328	-10.24
261.544	40.96
261.761	77.82
261.977	-47.1
262.193	-24.58
262.409	34.82
262.626	79.87
262.842	90.11
263.058	-12.29
263.274	-10.24
263.49	-8.19
263.707	47.1
263.923	6.14
264.139	22.53
264.355	-16.38
264.571	73.73
264.787	-32.77
265.004	47.1
265.22	22.53
265.436	51.2
265.652	51.2
265.868	-14.34
266.084	-24.58
266.3	49.15
266.516	-2.05
266.732	96.25
266.948	-16.38
267.164	6.14
267.38	40.96
267.596	-38.91
267.812	102.4
268.028	-10.24
268.244	22.53
268.46	55.3
268.676	30.72
268.892	36.86
269.108	59.39
269.324	-18.43
269.54	32.77
269.756	-16.38
269.972	-18.43
270.188	-26.62
270.403	6.14
270.619	-6.14
270.835	65.53
271.051	-12.29
271.267	-4.1
271.483	-22.53
271.698	2.05
271.914	38.91
272.13	8.19
272.346	16.38
272.562	18.43
272.777	69.63
272.993	-63.49
273.209	-34.82
273.425	96.25
273.64	-51.2
273.856	55.3
274.072	-0
274.287	51.2
274.503	-0
274.719	8.19
274.934	-10.24
275.15	12.29
275.366	22.53
275.581	-38.91
275.797	14.34
276.012	61.44
276.228	38.91
276.444	38.91
276.659	57.34
276.875	-12.29
277.09	-36.86
277.306	47.1
277.521	-38.91
277.737	6.14
277.952	-32.77
278.168	59.39
278.383	83.97
278.599	-14.34
278.814	45.06
279.03	-0
279.245	22.53
279.461	-18.43
279.676	51.2
279.892	20.48
280.107	98.3
280.322	-38.91
280.538	51.2
280.753	2.05
280.969	34.82
281.184	14.34
281.399	-43.01
281.615	30.72
281.83	12.29
282.045	-32.77
282.26	67.58
282.476	-20.48
282.691	55.3
282.906	49.15
283.122	65.53
283.337	6.14
283.552	-79.87
283.767	16.38
283.983	20.48
284.198	43.01
284.413	71.68
284.628	-75.77
284.843	6.14
285.058	10.24
285.274	-49.15
285.489	-24.58
285.704	88.06
285.919	22.53
286.134	6.14
286.349	-14.34
286.564	92.16
286.779	106.49
286.995	-2.05
287.21	-8.19
287.425	34.82
287.64	-10.24
287.855	43.01
288.07	40.96
288.285	63.49
288.5	79.87
288.715	14.34
288.93	59.39
289.145	69.63
289.36	69.63
289.575	-24.58
289.79	73.73
290.004	2.05
290.219	10.24
290.434	43.01
290.649	71.68
290.864	67.58
291.079	45.06
291.294	22.53
291.509	47.1
291.724	57.34
291.938	-20.48
292.153	20.48
292.368	-24.58
292.583	6.14
292.798	4.1
293.012	43.01
293.227	24.58
293.442	-57.34
293.657	12.29
293.871	45.06
294.086	-4.1
294.301	51.2
294.516	12.29
294.73	49.15
294.945	-40.96
295.16	-2.05
295.374	43.01
295.589	38.91
295.804	-53.25
296.018	6.14
296.233	-2.05
296.447	69.63
296.662	-34.82
296.877	10.24
297.091	47.1
297.306	30.72
297.52	18.43
297.735	38.91
297.949	-18.43
298.164	71.68
298.378	38.91
298.593	-36.86
298.807	86.01
299.022	-34.82
299.236	-0
299.451	73.73
299.665	-12.29
299.88	-6.14
300.094	10.24
300.309	88.06
300.523	57.34
300.737	-0
300.952	30.72
301.166	34.82
301.381	-59.39
301.595	-26.62
301.809	53.25
302.024	26.62
302.238	59.39
302.452	32.77
302.667	-8.19
302.881	81.92
303.095	43.01
303.309	8.19
303.524	-18.43
303.738	43.01
303.952	-28.67
304.166	30.72
304.381	-6.14
304.595	120.83
304.809	-10.24
305.023	122.88
305.237	59.39
305.452	-67.58
305.666	55.3
305.88	-6.14
306.094	47.1
306.308	71.68
306.522	77.82
306.736	133.12
306.95	88.06
307.164	24.58
307.379	34.82
307.593	86.01
307.807	49.15
308.021	4.1
308.235	43.01
308.449	-47.1
308.663	71.68
308.877	47.1
309.091	65.53
309.305	92.16
309.519	36.86
309.733	71.68
309.947	-8.19
310.161	-18.43
310.374	8.19
310.588	-10.24
310.802	6.14
311.016	79.87
311.23	16.38
311.444	67.58
311.658	16.38
311.872	141.31
312.085	63.49
312.299	57.34
312.513	43.01
312.727	-12.29
312.941	-34.82
313.154	6.14
313.368	40.96
313.582	34.82
313.796	26.62
314.009	47.1
314.223	34.82
314.437	147.45
314.651	40.96
314.864	40.96
315.078	10.24
315.292	-28.67
315.505	-4.1
315.719	18.43
315.933	-8.19
316.146	26.62
316.36	22.53
316.573	92.16
316.787	-8.19
317.001	16.38
317.214	8.19
317.428	2.05
317.641	14.34
317.855	-12.29
318.068	-14.34
318.282	43.01
318.495	30.72
318.709	32.77
318.922	2.05
319.136	38.91
319.349	38.91
319.563	30.72
319.776	-24.58
319.99	-2.05
320.203	59.39
320.417	6.14
320.63	43.01
320.843	90.11
321.057	106.49
321.27	88.06
321.483	-14.34
321.697	69.63
321.91	32.77
322.124	14.34
322.337	-16.38
322.55	6.14
322.763	75.77
322.977	24.58
323.19	-26.62
323.403	36.86
323.617	6.14
323.83	51.2
324.043	14.34
324.256	8.19
324.469	-57.34
324.683	79.87
324.896	-10.24
325.109	34.82
325.322	10.24
325.535	38.91
325.748	59.39
325.962	2.05
326.175	32.77
326.388	65.53
326.601	79.87
326.814	98.3
327.027	4.1
327.24	104.45
327.453	-10.24
327.666	83.97
327.879	129.02
328.092	73.73
328.305	53.25
328.518	30.72
328.731	38.91
328.944	-2.05
329.157	40.96
329.37	-34.82
329.583	79.87
329.796	153.6
330.009	20.48
330.222	61.44
330.435	69.63
330.648	22.53
330.861	16.38
331.073	36.86
331.286	-38.91
331.499	24.58
331.712	-59.39
331.925	38.91
332.138	71.68
332.35	38.91
332.563	67.58
332.776	32.77
332.989	-40.96
333.202	6.14
333.414	40.96
333.627	34.82
333.84	-36.86
334.053	14.34
334.265	-14.34
334.478	24.58
334.691	55.3
334.903	79.87
335.116	14.34
335.329	81.92
335.541	-38.91
335.754	79.87
335.966	28.67
336.179	22.53
336.392	71.68
336.604	38.91
336.817	40.96
337.029	79.87
337.242	8.19
337.454	36.86
337.667	14.34
337.88	71.68
338.092	20.48
338.305	20.48
338.517	18.43
338.729	133.12
338.942	24.58
339.154	26.62
339.367	-55.3
339.579	18.43
339.792	24.58
340.004	-38.91
340.217	10.24
340.429	40.96
340.641	-55.3
340.854	18.43
341.066	49.15
341.278	28.67
341.491	51.2
341.703	-0
341.915	22.53
342.128	22.53
342.34	51.2
342.552	69.63
342.764	-2.05
342.977	24.58
343.189	73.73
343.401	57.34
343.613	6.14
343.826	63.49
344.038	14.34
344.25	90.11
344.462	30.72
344.674	98.3
344.886	30.72
345.099	55.3
345.311	20.48
345.523	98.3
345.735	-65.54
345.947	40.96
346.159	22.53
346.371	40.96
346.583	67.58
346.795	51.2
347.007	-22.53
347.219	94.21
347.431	2.05
347.643	10.24
347.855	10.24
348.067	16.38
348.279	22.53
348.491	22.53
348.703	-26.62
348.915	38.91
349.127	30.72
349.339	63.49
349.551	88.06
349.763	100.35
349.975	-59.39
350.187	4.1
350.399	59.39
350.61	-18.43
350.822	71.68
351.034	32.77
351.246	47.1
351.458	-6.14
351.669	71.68
351.881	-2.05
352.093	43.01
352.305	63.49
352.517	38.91
352.728	26.62
352.94	14.34
353.152	30.72
353.363	34.82
353.575	26.62
353.787	104.45
353.999	71.68
354.21	-16.38
354.422	-55.3
354.633	-20.48
354.845	55.3
355.057	133.12
355.268	32.77
355.48	18.43
355.692	20.48
355.903	36.86
356.115	20.48
356.326	-14.34
356.538	32.77
356.749	79.87
356.961	-30.72
357.172	-10.24
357.384	55.3
357.595	86.01
357.807	38.91
358.018	90.11
358.23	8.19
358.441	-0
358.653	14.34
358.864	-34.82
359.075	26.62
359.287	47.1
359.498	30.72
359.709	79.87
359.921	14.34
360.132	47.1
360.344	-8.19
360.555	-0
360.766	14.34
360.977	71.68
361.189	36.86
361.4	28.67
361.611	59.39
361.823	45.06
362.034	81.92
362.245	-57.34
362.456	47.1
362.667	38.91
362.879	-2.05
363.09	45.06
363.301	30.72
363.512	20.48
363.723	10.24
363.935	-18.43
364.146	24.58
364.357	59.39
364.568	47.1
364.779	-2.05
364.99	59.39
365.201	-38.91
365.412	34.82
365.623	8.19
365.834	36.86
366.045	18.43
366.256	88.06
366.467	61.44
366.678	6.14
366.889	65.53
367.1	88.06
367.311	14.34
367.522	51.2
367.733	16.38
367.944	30.72
368.155	75.77
368.366	79.87
368.577	20.48
368.788	47.1
368.999	28.67
369.209	14.34
369.42	79.87
369.631	86.01
369.842	10.24
370.053	104.45
370.264	81.92
370.474	-14.34
370.685	26.62
370.896	32.77
371.107	102.4
371.317	51.2
371.528	55.3
371.739	55.3
371.95	104.45
372.16	-0
372.371	36.86
372.582	55.3
372.792	30.72
373.003	43.01
373.214	90.11
373.424	51.2
373.635	100.35
373.846	90.11
374.056	51.2
374.267	36.86
374.477	-28.67
374.688	-49.15
374.898	10.24
375.109	16.38
375.319	14.34
375.53	32.77
375.74	83.97
375.951	8.19
376.161	55.3
376.372	63.49
376.582	90.11
376.793	63.49
377.003	43.01
377.214	49.15
377.424	71.68
377.635	4.1
377.845	-14.34
378.055	100.35
378.266	28.67
378.476	47.1
378.686	16.38
378.897	114.69
379.107	45.06
379.317	32.77
379.528	22.53
379.738	86.01
379.948	73.73
380.158	63.49
380.369	38.91
380.579	-14.34
380.789	18.43
380.999	24.58
381.21	59.39
381.42	129.02
381.63	67.58
381.84	38.91
382.05	-12.29
382.261	96.25
382.471	79.87
382.681	20.48
382.891	92.16
383.101	83.97
383.311	-75.77
383.521	12.29
383.731	92.16
383.941	63.49
384.151	26.62
384.361	38.91
384.571	43.01
384.781	43.01
384.991	67.58
385.201	57.34
385.411	14.34
385.621	49.15
385.831	73.73
386.041	57.34
386.251	-53.25
386.461	79.87
386.671	-38.91
386.881	63.49
387.091	69.63
387.301	-30.72
387.511	-16.38
387.72	86.01
387.93	47.1
388.14	-4.1
388.35	86.01
388.56	26.62
388.769	73.73
388.979	-4.1
389.189	96.25
389.399	104.45
389.609	22.53
389.818	79.87
390.028	36.86
390.238	65.53
390.447	-10.24
390.657	53.25
390.867	20.48
391.076	47.1
391.286	-10.24
391.496	49.15
391.705	53.25
391.915	110.59
392.125	88.06
392.334	-47.1
392.544	67.58
392.753	47.1
392.963	40.96
393.172	157.69
393.382	22.53
393.591	96.25
393.801	38.91
394.01	98.3
394.22	30.72
394.429	59.39
394.639	6.14
394.848	100.35
395.058	100.35
395.267	22.53
395.477	122.88
395.686	94.21
395.895	114.69
396.105	135.17
396.314	75.77
396.524	104.45
396.733	133.12
396.942	77.82
397.152	129.02
397.361	81.92
397.57	53.25
397.78	112.64
397.989	124.93
398.198	71.68
398.407	135.17
398.617	40.96
398.826	114.69
399.035	153.6
399.244	63.49
399.453	67.58
399.663	18.43
399.872	176.13
400.081	28.67
400.29	153.6
400.499	47.1
400.708	88.06
400.917	116.73
401.127	40.96
401.336	55.3
401.545	184.32
401.754	38.91
401.963	98.3
402.172	8.19
402.381	102.4
402.59	104.45
402.799	100.35
403.008	106.49
403.217	73.73
403.426	36.86
403.635	65.53
403.844	221.18
404.053	129.02
404.262	88.06
404.471	106.49
404.68	100.35
404.888	129.02
405.097	75.77
405.306	151.55
405.515	126.97
405.724	186.37
405.933	122.88
406.142	202.75
406.35	194.56
406.559	163.84
406.768	145.41
406.977	223.23
407.185	204.8
407.394	221.18
407.603	124.93
407.812	149.5
408.02	174.08
408.229	204.8
408.438	204.8
408.646	169.98
408.855	231.42
409.064	243.71
409.272	278.52
409.481	245.76
409.69	188.41
409.898	221.18
410.107	184.32
410.315	327.67
410.524	229.37
410.733	309.24
410.941	296.96
411.15	323.58
411.358	366.59
411.567	407.55
411.775	325.63
411.984	407.55
412.192	352.25
412.401	413.69
412.609	423.93
412.818	387.07
413.026	497.66
413.234	555
413.443	485.37
413.651	505.85
413.86	473.08
414.068	561.14
414.276	569.34
414.485	514.04
414.693	612.34
414.901	641.01
415.11	595.96
415.318	659.45
415.526	653.3
415.734	667.64
415.943	694.26
416.151	704.5
416.359	759.8
416.567	686.07
416.776	837.62
416.984	841.72
417.192	925.68
417.4	858.1
417.608	833.52
417.817	966.64
418.025	1021.94
418.233	997.36
418.441	983.02
418.649	1048.56
418.857	1191.92
419.065	1132.53
419.273	1071.09
419.481	1171.44
419.689	1304.56
419.897	1304.56
420.105	1394.67
420.313	1474.54
420.521	1406.95
420.729	1400.81
420.937	1513.45
421.145	1484.78
421.353	1591.27
421.561	1669.09
421.769	1773.54
421.977	1771.49
422.185	1857.51
422.393	1939.43
422.601	2021.35
422.809	1906.66
423.017	2080.74
423.224	2070.5
423.432	2185.18
423.64	2148.32
423.848	2312.16
424.056	2328.54
424.263	2629.59
424.471	2465.75
424.679	2611.16
424.887	2764.76
425.094	2793.43
425.302	2844.63
425.51	2891.73
425.718	2987.99
425.925	2977.75
426.133	3235.79
426.341	3207.12
426.548	3389.39
426.756	3536.84
426.964	3667.91
427.171	3596.23
427.379	3758.02
427.586	3870.66
427.794	3897.28
428.001	4028.35
428.209	4474.81
428.417	4325.31
428.624	4595.64
428.832	4534.2
429.039	4495.29
429.247	4528.06
429.454	5023.67
429.662	5367.73
429.869	5040.05
430.076	5328.81
430.284	5173.17
430.491	5388.21
430.699	5697.45
430.906	5679.02
431.114	5859.24
431.321	5904.29
431.528	6188.96
431.736	6377.37
431.943	6666.14
432.15	6602.65
432.358	6727.58
432.565	7042.96
432.772	7096.21
432.979	7268.24
433.187	7344.02
433.394	7456.65
433.601	7966.6
433.808	7819.14
434.016	8036.23
434.223	8284.03
434.43	8861.56
434.637	8640.38
434.844	9131.89
435.052	9344.88
435.259	9197.43
435.466	9365.36
435.673	9174.9
435.88	9846.63
436.087	10467.17
436.294	10436.45
436.501	10250.08
436.708	10399.59
436.915	10712.92
437.122	11044.7
437.329	11059.03
437.537	11513.68
437.743	11722.57
437.95	11532.11
438.157	12179.27
438.364	12552
438.571	12502.85
438.778	12760.89
438.985	13735.73
439.192	13047.61
439.399	13678.38
439.606	13485.87
439.813	14120.74
440.02	15046.43
440.227	14692.13
440.433	14599.97
440.64	15183.64
440.847	14679.84
441.054	15251.22
441.261	16500.48
441.467	16283.4
441.674	16525.06
441.881	17008.38
442.088	17016.57
442.294	17039.1
442.501	17475.32
442.708	17587.96
442.914	18202.35
443.121	19287.77
443.328	18583.27
443.534	20055.76
443.741	19330.78
443.948	18937.57
444.154	20379.34
444.361	20141.77
444.568	20772.55
444.774	20326.09
444.981	20799.17
445.187	21178.04
445.394	22306.48
445.6	21792.44
445.807	24094.35
446.013	22922.91
446.22	23498.39
446.426	24084.11
446.633	24094.35
446.839	25511.55
447.046	24157.84
447.252	25294.46
447.459	25583.23
447.665	25351.81
447.871	26586.73
448.078	27522.65
448.284	26566.25
448.491	27094.63
448.697	28001.88
448.903	28446.29
449.11	28671.56
449.316	28421.71
449.522	28624.46
449.728	29783.61
449.935	29881.91
450.141	29810.23
450.347	30275.12
450.553	29451.84
450.76	29640.25
450.966	30807.59
451.172	30225.97
451.378	31274.53
451.584	30441.01
451.791	31479.33
451.997	31098.41
452.203	31526.43
452.409	31782.43
452.615	31637.02
452.821	30357.04
453.027	30084.66
453.233	31450.66
453.44	30357.04
453.646	30899.75
453.852	31235.62
454.058	31510.05
454.264	30365.23
454.47	31356.45
454.676	30479.92
454.882	31643.17
455.088	28819.02
455.294	28886.6
455.5	29566.52
455.705	29967.93
455.911	28644.94
456.117	27856.47
456.323	28005.97
456.529	26230.38
456.735	27917.91
456.941	26764.9
457.147	26451.56
457.352	25458.3
457.558	25251.45
457.764	25659
457.97	24694.41
458.176	24571.53
458.381	24327.82
458.587	23260.83
458.793	22996.64
458.999	22095.53
459.204	23658.13
459.41	23006.88
459.616	21599.93
459.821	21675.7
460.027	20969.15
460.233	21145.28
460.438	20170.44
460.644	20360.91
460.85	19128.03
461.055	19191.52
461.261	18859.74
461.466	17637.11
461.672	16959.23
461.878	18401
462.083	16957.18
462.289	17123.07
462.494	16473.86
462.7	15681.3
462.905	15279.89
463.111	16029.45
463.316	15882
463.522	15638.29
463.727	15525.65
463.932	15607.57
464.138	15744.78
464.343	15542.03
464.549	15124.25
464.754	15695.63
464.959	15410.96
465.165	15134.49
465.37	14677.79
465.575	14257.96
465.781	14870.3
465.986	14898.97
466.191	14454.56
466.397	14139.18
466.602	13369.14
466.807	13965.1
467.012	13971.24
467.218	14108.46
467.423	13784.88
467.628	13805.36
467.833	14350.12
