Data from USB4F104151__41__14-16-44-787.txt Node

Date: Thu Mar 13 14:16:44 EDT 2025
User: louis
Spectrometer: USB4F10415
Trigger mode: 4
Integration Time (sec): 2.000000E-2
Scans to average: 1
Electric dark correction enabled: true
Nonlinearity correction enabled: false
Boxcar width: 0
XAxis mode: Wavelengths
Number of Pixels in Spectrum: 3648
>>>>>Begin Spectral Data<<<<<
178.204	-151.04
178.424	-151.04
178.644	-151.04
178.864	-89.6
179.084	-151.04
179.304	-40.45
179.524	-65.02
179.744	16.9
179.964	45.57
180.184	-30.21
180.404	61.95
180.624	-13.82
180.844	18.94
181.064	-50.69
181.283	20.99
181.503	-7.68
181.723	43.52
181.943	-34.3
182.163	8.7
182.383	72.19
182.602	8.7
182.822	4.61
183.042	25.09
183.262	20.99
183.482	-15.87
183.701	57.86
183.921	70.14
184.141	25.09
184.361	-24.06
184.58	0.51
184.8	45.57
185.02	72.19
185.239	25.09
185.459	41.47
185.679	41.47
185.898	20.99
186.118	41.47
186.338	53.76
186.557	14.85
186.777	2.56
186.997	57.86
187.216	37.38
187.436	72.19
187.655	31.23
187.875	107.01
188.095	-24.06
188.314	27.14
188.534	82.43
188.753	-36.35
188.973	-13.82
189.192	139.77
189.412	74.24
189.631	57.86
189.851	0.51
190.07	117.25
190.29	-3.58
190.509	25.09
190.729	-11.78
190.948	57.86
191.168	152.06
191.387	68.09
191.607	10.75
191.826	-3.58
192.045	70.14
192.265	25.09
192.484	20.99
192.704	25.09
192.923	-65.02
193.142	16.9
193.362	0.51
193.581	70.14
193.8	37.38
194.02	4.61
194.239	37.38
194.458	8.7
194.678	20.99
194.897	25.09
195.116	59.9
195.335	16.9
195.555	-3.58
195.774	53.76
195.993	33.28
196.212	8.7
196.432	-7.68
196.651	25.09
196.87	25.09
197.089	102.91
197.308	35.33
197.528	74.24
197.747	-11.78
197.966	70.14
198.185	-65.02
198.404	0.51
198.623	70.14
198.842	6.66
199.062	49.66
199.281	68.09
199.5	-3.58
199.719	76.29
199.938	35.33
200.157	41.47
200.376	18.94
200.595	84.48
200.814	72.19
201.033	-7.68
201.252	16.9
201.471	68.09
201.69	37.38
201.909	35.33
202.128	33.28
202.347	20.99
202.566	33.28
202.785	16.9
203.004	25.09
203.223	8.7
203.442	-11.78
203.661	41.47
203.879	41.47
204.098	-24.06
204.317	-15.87
204.536	16.9
204.755	-22.02
204.974	51.71
205.193	82.43
205.411	109.05
205.63	94.72
205.849	25.09
206.068	4.61
206.287	-5.63
206.505	45.57
206.724	-3.58
206.943	47.62
207.162	43.52
207.381	16.9
207.599	31.23
207.818	29.18
208.037	20.99
208.255	4.61
208.474	10.75
208.693	68.09
208.911	23.04
209.13	57.86
209.349	66.05
209.567	61.95
209.786	16.9
210.005	-7.68
210.223	12.8
210.442	8.7
210.661	-11.78
210.879	66.05
211.098	78.33
211.316	45.57
211.535	164.35
211.753	39.42
211.972	53.76
212.191	0.51
212.409	39.42
212.628	41.47
212.846	-17.92
213.065	111.1
213.283	64
213.502	-30.21
213.72	25.09
213.938	-7.68
214.157	-9.73
214.375	-30.21
214.594	16.9
214.812	53.76
215.031	25.09
215.249	20.99
215.467	45.57
215.686	133.63
215.904	57.86
216.122	33.28
216.341	61.95
216.559	27.14
216.778	68.09
216.996	66.05
217.214	35.33
217.432	16.9
217.651	29.18
217.869	10.75
218.087	-11.78
218.306	-22.02
218.524	53.76
218.742	41.47
218.96	117.25
219.179	-40.45
219.397	82.43
219.615	68.09
219.833	147.97
220.051	-36.35
220.27	29.18
220.488	2.56
220.706	86.53
220.924	8.7
221.142	16.9
221.36	25.09
221.578	84.48
221.796	123.39
222.015	8.7
222.233	121.34
222.451	82.43
222.669	18.94
222.887	0.51
223.105	76.29
223.323	41.47
223.541	45.57
223.759	59.9
223.977	64
224.195	74.24
224.413	49.66
224.631	8.7
224.849	37.38
225.067	68.09
225.285	-3.58
225.503	61.95
225.721	-30.21
225.939	98.81
226.157	29.18
226.375	76.29
226.592	-13.82
226.81	70.14
227.028	92.67
227.246	64
227.464	33.28
227.682	59.9
227.9	94.72
228.117	49.66
228.335	35.33
228.553	-15.87
228.771	66.05
228.989	59.9
229.206	29.18
229.424	100.86
229.642	10.75
229.86	35.33
230.077	-32.26
230.295	111.1
230.513	49.66
230.731	131.58
230.948	-9.73
231.166	94.72
231.384	41.47
231.601	41.47
231.819	109.05
232.037	18.94
232.254	68.09
232.472	94.72
232.689	61.95
232.907	-81.41
233.125	41.47
233.342	20.99
233.56	33.28
233.777	0.51
233.995	8.7
234.213	90.62
234.43	70.14
234.648	18.94
234.865	31.23
235.083	66.05
235.3	45.57
235.518	92.67
235.735	59.9
235.953	109.05
236.17	47.62
236.388	55.81
236.605	35.33
236.822	49.66
237.04	-7.68
237.257	41.47
237.475	27.14
237.692	102.91
237.909	29.18
238.127	74.24
238.344	139.77
238.562	31.23
238.779	33.28
238.996	2.56
239.214	25.09
239.431	45.57
239.648	33.28
239.865	12.8
240.083	0.51
240.3	43.52
240.517	-62.98
240.735	25.09
240.952	70.14
241.169	20.99
241.386	53.76
241.603	41.47
241.821	6.66
242.038	74.24
242.255	61.95
242.472	-40.45
242.689	35.33
242.907	57.86
243.124	117.25
243.341	6.66
243.558	8.7
243.775	2.56
243.992	2.56
244.209	-3.58
244.426	55.81
244.643	45.57
244.86	20.99
245.078	74.24
245.295	16.9
245.512	45.57
245.729	49.66
245.946	-5.63
246.163	57.86
246.38	86.53
246.597	33.28
246.814	0.51
247.031	2.56
247.248	16.9
247.464	10.75
247.681	33.28
247.898	57.86
248.115	0.51
248.332	23.04
248.549	25.09
248.766	78.33
248.983	78.33
249.2	4.61
249.417	102.91
249.633	-38.4
249.85	51.71
250.067	-28.16
250.284	16.9
250.501	135.68
250.717	-22.02
250.934	-24.06
251.151	64
251.368	10.75
251.585	72.19
251.801	-46.59
252.018	80.38
252.235	70.14
252.451	8.7
252.668	14.85
252.885	41.47
253.102	-9.73
253.318	94.72
253.535	4.61
253.752	41.47
253.968	107.01
254.185	-13.82
254.401	125.44
254.618	74.24
254.835	16.9
255.051	74.24
255.268	66.05
255.484	35.33
255.701	6.66
255.917	94.72
256.134	51.71
256.351	27.14
256.567	-1.54
256.784	141.82
257	10.75
257.217	37.38
257.433	90.62
257.65	68.09
257.866	64
258.082	25.09
258.299	-48.64
258.515	12.8
258.732	18.94
258.948	-26.11
259.165	-22.02
259.381	57.86
259.597	82.43
259.814	39.42
260.03	2.56
260.246	-79.36
260.463	111.1
260.679	55.81
260.895	74.24
261.112	82.43
261.328	76.29
261.544	20.99
261.761	45.57
261.977	86.53
262.193	-36.35
262.409	104.96
262.626	-40.45
262.842	66.05
263.058	-3.58
263.274	90.62
263.49	115.2
263.707	111.1
263.923	61.95
264.139	158.21
264.355	14.85
264.571	35.33
264.787	2.56
265.004	37.38
265.22	43.52
265.436	-15.87
265.652	84.48
265.868	33.28
266.084	14.85
266.3	98.81
266.516	23.04
266.732	59.9
266.948	2.56
267.164	2.56
267.38	27.14
267.596	150.01
267.812	23.04
268.028	90.62
268.244	-9.73
268.46	25.09
268.676	-38.4
268.892	107.01
269.108	-36.35
269.324	59.9
269.54	25.09
269.756	33.28
269.972	29.18
270.188	-17.92
270.403	29.18
270.619	53.76
270.835	53.76
271.051	8.7
271.267	66.05
271.483	43.52
271.698	41.47
271.914	2.56
272.13	96.77
272.346	29.18
272.562	-58.88
272.777	74.24
272.993	68.09
273.209	12.8
273.425	80.38
273.64	-7.68
273.856	74.24
274.072	16.9
274.287	8.7
274.503	137.73
274.719	72.19
274.934	49.66
275.15	23.04
275.366	-19.97
275.581	-19.97
275.797	41.47
276.012	37.38
276.228	2.56
276.444	86.53
276.659	80.38
276.875	-54.78
277.09	10.75
277.306	35.33
277.521	137.73
277.737	49.66
277.952	74.24
278.168	8.7
278.383	96.77
278.599	16.9
278.814	-5.63
279.03	25.09
279.245	53.76
279.461	49.66
279.676	64
279.892	-15.87
280.107	76.29
280.322	41.47
280.538	25.09
280.753	0.51
280.969	-5.63
281.184	47.62
281.399	133.63
281.615	29.18
281.83	123.39
282.045	-15.87
282.26	18.94
282.476	18.94
282.691	70.14
282.906	43.52
283.122	61.95
283.337	33.28
283.552	109.05
283.767	100.86
283.983	45.57
284.198	0.51
284.413	57.86
284.628	37.38
284.843	61.95
285.058	66.05
285.274	43.52
285.489	25.09
285.704	74.24
285.919	61.95
286.134	45.57
286.349	49.66
286.564	-36.35
286.779	31.23
286.995	35.33
287.21	-73.21
287.425	57.86
287.64	-24.06
287.855	31.23
288.07	70.14
288.285	-30.21
288.5	68.09
288.715	45.57
288.93	117.25
289.145	37.38
289.36	59.9
289.575	53.76
289.79	-5.63
290.004	-15.87
290.219	10.75
290.434	10.75
290.649	53.76
290.864	2.56
291.079	57.86
291.294	90.62
291.509	98.81
291.724	10.75
291.938	31.23
292.153	10.75
292.368	-28.16
292.583	76.29
292.798	123.39
293.012	100.86
293.227	80.38
293.442	-24.06
293.657	4.61
293.871	43.52
294.086	76.29
294.301	43.52
294.516	68.09
294.73	96.77
294.945	98.81
295.16	72.19
295.374	113.15
295.589	72.19
295.804	64
296.018	-9.73
296.233	86.53
296.447	57.86
296.662	14.85
296.877	49.66
297.091	117.25
297.306	133.63
297.52	82.43
297.735	82.43
297.949	41.47
298.164	90.62
298.378	-15.87
298.593	10.75
298.807	-15.87
299.022	82.43
299.236	66.05
299.451	82.43
299.665	51.71
299.88	16.9
300.094	61.95
300.309	68.09
300.523	80.38
300.737	-5.63
300.952	53.76
301.166	-3.58
301.381	6.66
301.595	49.66
301.809	74.24
302.024	-7.68
302.238	33.28
302.452	59.9
302.667	27.14
302.881	94.72
303.095	57.86
303.309	20.99
303.524	10.75
303.738	45.57
303.952	-1.54
304.166	164.35
304.381	0.51
304.595	74.24
304.809	66.05
305.023	41.47
305.237	59.9
305.452	107.01
305.666	-44.54
305.88	16.9
306.094	-40.45
306.308	16.9
306.522	115.2
306.736	37.38
306.95	70.14
307.164	6.66
307.379	33.28
307.593	72.19
307.807	53.76
308.021	61.95
308.235	-11.78
308.449	-5.63
308.663	102.91
308.877	76.29
309.091	-1.54
309.305	102.91
309.519	-89.6
309.733	-15.87
309.947	-65.02
310.161	39.42
310.374	0.51
310.588	90.62
310.802	-7.68
311.016	-22.02
311.23	25.09
311.444	74.24
311.658	49.66
311.872	86.53
312.085	10.75
312.299	66.05
312.513	135.68
312.727	35.33
312.941	41.47
313.154	33.28
313.368	102.91
313.582	96.77
313.796	33.28
314.009	-28.16
314.223	-7.68
314.437	59.9
314.651	-7.68
314.864	-5.63
315.078	33.28
315.292	51.71
315.505	10.75
315.719	133.63
315.933	76.29
316.146	-7.68
316.36	4.61
316.573	57.86
316.787	43.52
317.001	25.09
317.214	-5.63
317.428	57.86
317.641	25.09
317.855	57.86
318.068	90.62
318.282	4.61
318.495	109.05
318.709	37.38
318.922	45.57
319.136	-7.68
319.349	66.05
319.563	55.81
319.776	41.47
319.99	27.14
320.203	0.51
320.417	41.47
320.63	80.38
320.843	78.33
321.057	8.7
321.27	8.7
321.483	107.01
321.697	74.24
321.91	84.48
322.124	66.05
322.337	121.34
322.55	-7.68
322.763	41.47
322.977	107.01
323.19	10.75
323.403	59.9
323.617	4.61
323.83	53.76
324.043	-38.4
324.256	61.95
324.469	12.8
324.683	2.56
324.896	119.29
325.109	66.05
325.322	0.51
325.535	86.53
325.748	-9.73
325.962	23.04
326.175	-1.54
326.388	64
326.601	33.28
326.814	39.42
327.027	18.94
327.24	98.81
327.453	41.47
327.666	8.7
327.879	-11.78
328.092	45.57
328.305	100.86
328.518	53.76
328.731	96.77
328.944	78.33
329.157	100.86
329.37	66.05
329.583	109.05
329.796	47.62
330.009	125.44
330.222	20.99
330.435	92.67
330.648	115.2
330.861	14.85
331.073	57.86
331.286	102.91
331.499	66.05
331.712	59.9
331.925	109.05
332.138	37.38
332.35	70.14
332.563	33.28
332.776	61.95
332.989	8.7
333.202	-11.78
333.414	51.71
333.627	68.09
333.84	4.61
334.053	74.24
334.265	107.01
334.478	-15.87
334.691	66.05
334.903	4.61
335.116	20.99
335.329	102.91
335.541	76.29
335.754	49.66
335.966	-1.54
336.179	78.33
336.392	41.47
336.604	25.09
336.817	57.86
337.029	74.24
337.242	27.14
337.454	107.01
337.667	51.71
337.88	68.09
338.092	10.75
338.305	53.76
338.517	-15.87
338.729	119.29
338.942	8.7
339.154	16.9
339.367	74.24
339.579	-11.78
339.792	76.29
340.004	74.24
340.217	-28.16
340.429	16.9
340.641	33.28
340.854	39.42
341.066	18.94
341.278	53.76
341.491	35.33
341.703	61.95
341.915	-24.06
342.128	80.38
342.34	14.85
342.552	8.7
342.764	66.05
342.977	115.2
343.189	78.33
343.401	88.57
343.613	-1.54
343.826	0.51
344.038	14.85
344.25	70.14
344.462	84.48
344.674	68.09
344.886	41.47
345.099	29.18
345.311	27.14
345.523	49.66
345.735	-7.68
345.947	82.43
346.159	53.76
346.371	115.2
346.583	45.57
346.795	195.07
347.007	47.62
347.219	59.9
347.431	39.42
347.643	84.48
347.855	51.71
348.067	94.72
348.279	74.24
348.491	57.86
348.703	35.33
348.915	43.52
349.127	92.67
349.339	12.8
349.551	6.66
349.763	10.75
349.975	61.95
350.187	61.95
350.399	107.01
350.61	49.66
350.822	23.04
351.034	45.57
351.246	76.29
351.458	16.9
351.669	-7.68
351.881	53.76
352.093	131.58
352.305	18.94
352.517	18.94
352.728	104.96
352.94	-22.02
353.152	53.76
353.363	33.28
353.575	68.09
353.787	35.33
353.999	100.86
354.21	141.82
354.422	123.39
354.633	61.95
354.845	53.76
355.057	-40.45
355.268	64
355.48	8.7
355.692	35.33
355.903	10.75
356.115	80.38
356.326	57.86
356.538	113.15
356.749	90.62
356.961	66.05
357.172	109.05
357.384	25.09
357.595	88.57
357.807	-11.78
358.018	-26.11
358.23	115.2
358.441	68.09
358.653	66.05
358.864	33.28
359.075	41.47
359.287	18.94
359.498	78.33
359.709	33.28
359.921	43.52
360.132	25.09
360.344	49.66
360.555	72.19
360.766	55.81
360.977	61.95
361.189	98.81
361.4	37.38
361.611	43.52
361.823	115.2
362.034	86.53
362.245	16.9
362.456	70.14
362.667	35.33
362.879	0.51
363.09	43.52
363.301	76.29
363.512	90.62
363.723	115.2
363.935	0.51
364.146	59.9
364.357	-15.87
364.568	98.81
364.779	35.33
364.99	61.95
365.201	25.09
365.412	74.24
365.623	-13.82
365.834	57.86
366.045	57.86
366.256	-1.54
366.467	59.9
366.678	78.33
366.889	37.38
367.1	0.51
367.311	88.57
367.522	37.38
367.733	68.09
367.944	74.24
368.155	119.29
368.366	123.39
368.577	143.87
368.788	53.76
368.999	53.76
369.209	-32.26
369.42	66.05
369.631	92.67
369.842	-15.87
370.053	74.24
370.264	96.77
370.474	74.24
370.685	64
370.896	96.77
371.107	74.24
371.317	84.48
371.528	23.04
371.739	143.87
371.95	109.05
372.16	78.33
372.371	31.23
372.582	6.66
372.792	74.24
373.003	113.15
373.214	92.67
373.424	78.33
373.635	33.28
373.846	76.29
374.056	57.86
374.267	59.9
374.477	55.81
374.688	35.33
374.898	45.57
375.109	59.9
375.319	29.18
375.53	117.25
375.74	135.68
375.951	-15.87
376.161	37.38
376.372	102.91
376.582	33.28
376.793	57.86
377.003	12.8
377.214	37.38
377.424	104.96
377.635	82.43
377.845	88.57
378.055	76.29
378.266	-54.78
378.476	115.2
378.686	51.71
378.897	74.24
379.107	141.82
379.317	18.94
379.528	66.05
379.738	25.09
379.948	86.53
380.158	117.25
380.369	82.43
380.579	16.9
380.789	16.9
380.999	82.43
381.21	18.94
381.42	127.49
381.63	66.05
381.84	86.53
382.05	74.24
382.261	49.66
382.471	53.76
382.681	45.57
382.891	33.28
383.101	45.57
383.311	29.18
383.521	16.9
383.731	27.14
383.941	41.47
384.151	66.05
384.361	74.24
384.571	55.81
384.781	61.95
384.991	88.57
385.201	109.05
385.411	115.2
385.621	119.29
385.831	18.94
386.041	49.66
386.251	74.24
386.461	76.29
386.671	61.95
386.881	43.52
387.091	92.67
387.301	137.73
387.511	72.19
387.72	33.28
387.93	98.81
388.14	-34.3
388.35	53.76
388.56	86.53
388.769	119.29
388.979	47.62
389.189	43.52
389.399	152.06
389.609	68.09
389.818	158.21
390.028	66.05
390.238	37.38
390.447	61.95
390.657	66.05
390.867	49.66
391.076	31.23
391.286	150.01
391.496	141.82
391.705	131.58
391.915	168.45
392.125	94.72
392.334	0.51
392.544	70.14
392.753	96.77
392.963	18.94
393.172	107.01
393.382	59.9
393.591	84.48
393.801	139.77
394.01	57.86
394.22	20.99
394.429	188.93
394.639	72.19
394.848	66.05
395.058	78.33
395.267	107.01
395.477	102.91
395.686	129.53
395.895	113.15
396.105	147.97
396.314	117.25
396.524	109.05
396.733	117.25
396.942	98.81
397.152	123.39
397.361	104.96
397.57	125.44
397.78	147.97
397.989	66.05
398.198	172.54
398.407	170.49
398.617	86.53
398.826	68.09
399.035	123.39
399.244	156.16
399.453	109.05
399.663	154.11
399.872	150.01
400.081	158.21
400.29	129.53
400.499	76.29
400.708	117.25
400.917	178.69
401.127	147.97
401.336	107.01
401.545	168.45
401.754	137.73
401.963	180.73
402.172	156.16
402.381	174.59
402.59	164.35
402.799	152.06
403.008	180.73
403.217	115.2
403.426	141.82
403.635	141.82
403.844	172.54
404.053	176.64
404.262	160.25
404.471	209.4
404.68	156.16
404.888	160.25
405.097	201.21
405.306	190.97
405.515	162.3
405.724	150.01
405.933	258.56
406.142	193.02
406.35	262.65
406.559	158.21
406.768	264.7
406.977	270.84
407.185	215.55
407.394	244.22
407.603	213.5
407.812	238.08
408.02	221.69
408.229	254.46
408.438	281.08
408.646	324.09
408.855	238.08
409.064	326.14
409.272	336.38
409.481	297.47
409.69	313.85
409.898	346.62
410.107	305.66
410.315	262.65
410.524	328.19
410.733	401.91
410.941	418.3
411.15	408.06
411.358	463.35
411.567	518.65
411.775	393.72
411.984	520.7
412.192	518.65
412.401	532.98
412.609	541.18
412.818	647.67
413.026	567.8
413.234	647.67
413.443	614.9
413.651	639.48
413.86	721.4
414.068	698.87
414.276	731.64
414.485	639.48
414.693	780.79
414.901	844.28
415.11	868.85
415.318	854.51
415.526	924.15
415.734	893.43
415.943	950.77
416.151	979.44
416.359	961.01
416.567	1024.5
416.776	1004.02
416.984	1053.17
417.192	1190.38
417.4	1171.95
417.608	1141.23
417.817	1176.05
418.025	1343.98
418.233	1407.47
418.441	1401.32
418.649	1415.66
418.857	1550.82
419.065	1556.97
419.273	1567.21
419.481	1663.46
419.689	1647.08
419.897	1788.39
420.105	1774.05
420.313	1913.31
420.521	1931.75
420.729	1886.69
420.937	1960.42
421.145	2114.02
421.353	2173.41
421.561	2343.39
421.769	2284
421.977	2382.3
422.185	2449.88
422.393	2705.88
422.601	2623.96
422.809	2697.69
423.017	2671.06
423.224	2824.66
423.432	2980.31
423.64	2888.15
423.848	3156.43
424.056	3219.92
424.263	3338.7
424.471	3322.32
424.679	3394
424.887	3572.17
425.094	3819.97
425.302	3707.34
425.51	3836.36
425.718	3973.57
425.925	4098.5
426.133	4221.38
426.341	4499.9
426.548	4526.52
426.756	4647.35
426.964	4704.7
427.171	5011.89
427.379	5040.56
427.586	4948.4
427.794	5239.22
428.001	5566.89
428.209	5783.98
428.417	5687.72
428.624	5966.24
428.832	6013.35
429.039	6136.23
429.247	6064.55
429.454	6709.66
429.662	6971.8
429.869	6459.81
430.076	7123.35
430.284	6971.8
430.491	7192.98
430.699	7258.51
430.906	7471.5
431.114	7514.51
431.321	7872.9
431.528	8036.74
431.736	8589.69
431.943	8954.23
432.15	8884.6
432.358	8898.94
432.565	9175.41
432.772	9476.46
432.979	9591.15
433.187	9972.07
433.394	9943.4
433.601	10826.07
433.808	10690.91
434.016	10864.99
434.223	11147.61
434.43	11675.98
434.637	11581.78
434.844	12310.85
435.052	12448.07
435.259	12294.47
435.466	12321.09
435.673	12384.58
435.88	13302.07
436.087	13895.98
436.294	13846.83
436.501	13472.05
436.708	13857.07
436.915	14248.23
437.122	14717.22
437.329	14655.78
437.537	15438.1
437.743	15509.78
437.95	15577.36
438.157	16404.74
438.364	16812.29
438.571	16668.93
438.778	16877.82
438.985	18295.02
439.192	17516.79
439.399	18452.71
439.606	17922.29
439.813	18639.08
440.02	20068.56
440.227	19577.05
440.433	19353.82
440.64	20173
440.847	19843.28
441.054	20433.1
441.261	21868.72
441.467	21668.02
441.674	21969.07
441.881	22665.38
442.088	22380.71
442.294	22458.54
442.501	22935.71
442.708	23351.45
442.914	24481.93
443.121	25458.81
443.328	24762.5
443.534	26259.57
443.741	25540.73
443.948	25047.17
444.154	27261.02
444.361	26892.39
444.568	27351.13
444.774	27687
444.981	27736.15
445.187	28104.79
445.394	29241.41
445.6	29075.52
445.807	31959.06
446.013	30304.31
446.22	30867.5
446.426	31899.67
446.633	32456.72
446.839	34183.16
447.046	32026.65
447.252	33972.22
447.459	34150.39
447.665	33773.56
447.871	35147.75
448.078	36808.65
448.284	35164.14
448.491	36065.24
448.697	37650.37
448.903	37932.99
449.11	38496.18
449.316	37765.06
449.522	38152.12
449.728	39573.41
449.935	39985.05
450.141	39565.22
450.347	40482.71
450.553	39505.83
450.76	39743.39
450.966	41213.84
451.172	40605.59
451.378	41717.64
451.584	40736.66
451.791	41879.42
451.997	41740.16
452.203	42223.48
452.409	42297.21
452.615	42010.49
452.821	40970.13
453.027	40079.26
453.233	42286.97
453.44	40419.22
453.646	41152.4
453.852	41480.07
454.058	42162.04
454.264	40785.81
454.47	41578.37
454.676	40228.76
454.882	41930.62
455.088	38422.45
455.294	39235.5
455.5	39475.11
455.705	39944.09
455.911	38283.19
456.117	37294.02
456.323	37183.43
456.529	35465.19
456.735	36722.64
456.941	35874.78
457.147	35231.72
457.352	34148.34
457.558	34007.03
457.764	33906.68
457.97	33650.69
458.176	32682
458.381	32782.35
458.587	31383.59
458.793	30838.83
458.999	29356.1
459.204	31694.88
459.41	30584.88
459.616	28565.58
459.821	28563.53
460.027	28663.88
460.233	27979.86
460.438	26640.49
460.644	27181.15
460.85	25661.56
461.055	25550.97
461.261	24965.25
461.466	23097.5
461.672	22872.23
461.878	24064.14
462.083	22608.04
462.289	22202.54
462.494	22075.57
462.7	21018.82
462.905	20836.55
463.111	20938.94
463.316	20967.62
463.522	20750.53
463.727	20723.91
463.932	21006.53
464.138	20465.86
464.343	20910.27
464.549	19960.02
464.754	20854.98
464.959	20408.52
465.165	20308.17
465.37	19491.03
465.575	18995.42
465.781	19824.85
465.986	19943.63
466.191	19290.33
466.397	18716.9
466.602	18008.3
466.807	18630.88
467.012	18710.75
467.218	18387.18
467.423	17875.18
467.628	18243.82
