Data from USB4F104151__172__14-19-57-678.txt Node

Date: Thu Mar 13 14:19:57 EDT 2025
User: louis
Spectrometer: USB4F10415
Trigger mode: 4
Integration Time (sec): 2.000000E-2
Scans to average: 1
Electric dark correction enabled: true
Nonlinearity correction enabled: false
Boxcar width: 0
XAxis mode: Wavelengths
Number of Pixels in Spectrum: 3648
>>>>>Begin Spectral Data<<<<<
178.204	-70.31
178.424	-70.31
178.644	-70.31
178.864	-94.89
179.084	-164.52
179.304	42.32
179.524	27.99
179.744	-33.45
179.964	52.56
180.184	15.7
180.404	15.7
180.624	13.65
180.844	-70.31
181.064	-0.68
181.283	-53.93
181.503	7.51
181.723	-17.07
181.943	-49.83
182.163	60.76
182.383	15.7
182.602	68.95
182.822	32.08
183.042	68.95
183.262	30.04
183.482	19.8
183.701	21.84
183.921	-70.31
184.141	-12.97
184.361	11.61
184.58	56.66
184.8	27.99
185.02	1.37
185.239	13.65
185.459	25.94
185.679	118.1
185.898	19.8
186.118	73.04
186.338	-27.31
186.557	36.18
186.777	71
186.997	52.56
187.216	73.04
187.436	134.48
187.655	60.76
187.875	89.43
188.095	-41.64
188.314	44.37
188.534	134.48
188.753	11.61
188.973	48.47
189.192	27.99
189.412	62.8
189.631	-29.35
189.851	64.85
190.07	109.91
190.29	3.41
190.509	77.14
190.729	-84.65
190.948	50.52
191.168	68.95
191.387	73.04
191.607	36.18
191.826	27.99
192.045	62.8
192.265	7.51
192.484	27.99
192.704	-58.03
192.923	-84.65
193.142	99.67
193.362	38.23
193.581	103.76
193.8	19.8
194.02	64.85
194.239	-92.84
194.458	44.37
194.678	54.61
194.897	85.33
195.116	-0.68
195.335	5.46
195.555	75.09
195.774	52.56
195.993	62.8
196.212	48.47
196.432	-62.12
196.651	-39.59
196.87	62.8
197.089	93.52
197.308	-43.69
197.528	64.85
197.747	-2.73
197.966	25.94
198.185	146.77
198.404	-43.69
198.623	105.81
198.842	-10.92
199.062	13.65
199.281	5.46
199.5	36.18
199.719	85.33
199.938	46.42
200.157	68.95
200.376	-21.16
200.595	11.61
200.814	-21.16
201.033	60.76
201.252	9.56
201.471	85.33
201.69	21.84
201.909	34.13
202.128	-6.83
202.347	73.04
202.566	44.37
202.785	54.61
203.004	71
203.223	109.91
203.442	11.61
203.661	-37.55
203.879	85.33
204.098	118.1
204.317	7.51
204.536	-10.92
204.755	15.7
204.974	79.19
205.193	13.65
205.411	54.61
205.63	109.91
205.849	56.66
206.068	44.37
206.287	85.33
206.505	97.62
206.724	42.32
206.943	77.14
207.162	-0.68
207.381	54.61
207.599	64.85
207.818	60.76
208.037	54.61
208.255	44.37
208.474	62.8
208.693	83.28
208.911	36.18
209.13	32.08
209.349	3.41
209.567	48.47
209.786	71
210.005	32.08
210.223	-15.02
210.442	7.51
210.661	36.18
210.879	-41.64
211.098	13.65
211.316	27.99
211.535	46.42
211.753	15.7
211.972	87.38
212.191	36.18
212.409	73.04
212.628	73.04
212.846	-37.55
213.065	50.52
213.283	-10.92
213.502	73.04
213.72	-53.93
213.938	36.18
214.157	118.1
214.375	23.89
214.594	44.37
214.812	-0.68
215.031	-6.83
215.249	-33.45
215.467	-8.87
215.686	56.66
215.904	-21.16
216.122	87.38
216.341	77.14
216.559	13.65
216.778	38.23
216.996	73.04
217.214	118.1
217.432	21.84
217.651	46.42
217.869	13.65
218.087	3.41
218.306	-10.92
218.524	81.24
218.742	48.47
218.96	54.61
219.179	87.38
219.397	-2.73
219.615	46.42
219.833	44.37
220.051	52.56
220.27	36.18
220.488	32.08
220.706	-17.07
220.924	36.18
221.142	64.85
221.36	34.13
221.578	52.56
221.796	3.41
222.015	30.04
222.233	11.61
222.451	44.37
222.669	-21.16
222.887	52.56
223.105	7.51
223.323	103.76
223.541	19.8
223.759	89.43
223.977	48.47
224.195	62.8
224.413	42.32
224.631	93.52
224.849	93.52
225.067	87.38
225.285	105.81
225.503	-8.87
225.721	-27.31
225.939	38.23
226.157	30.04
226.375	68.95
226.592	-21.16
226.81	118.1
227.028	93.52
227.246	68.95
227.464	-43.69
227.682	19.8
227.9	42.32
228.117	66.9
228.335	38.23
228.553	60.76
228.771	3.41
228.989	81.24
229.206	30.04
229.424	44.37
229.642	32.08
229.86	27.99
230.077	9.56
230.295	54.61
230.513	9.56
230.731	85.33
230.948	71
231.166	183.63
231.384	-10.92
231.601	85.33
231.819	15.7
232.037	54.61
232.254	36.18
232.472	15.7
232.689	-12.97
232.907	154.96
233.125	52.56
233.342	48.47
233.56	32.08
233.777	21.84
233.995	1.37
234.213	83.28
234.43	36.18
234.648	85.33
234.865	77.14
235.083	46.42
235.3	11.61
235.518	93.52
235.735	73.04
235.953	56.66
236.17	-6.83
236.388	3.41
236.605	120.15
236.822	130.39
237.04	54.61
237.257	-2.73
237.475	21.84
237.692	5.46
237.909	36.18
238.127	36.18
238.344	-12.97
238.562	7.51
238.779	7.51
238.996	-4.78
239.214	46.42
239.431	3.41
239.648	64.85
239.865	95.57
240.083	52.56
240.3	81.24
240.517	25.94
240.735	19.8
240.952	68.95
241.169	107.86
241.386	93.52
241.603	3.41
241.821	19.8
242.038	62.8
242.255	32.08
242.472	-29.35
242.689	85.33
242.907	87.38
243.124	56.66
243.341	60.76
243.558	-25.26
243.775	44.37
243.992	1.37
244.209	71
244.426	103.76
244.643	64.85
244.86	-2.73
245.078	-12.97
245.295	46.42
245.512	73.04
245.729	56.66
245.946	89.43
246.163	52.56
246.38	60.76
246.597	60.76
246.814	44.37
247.031	-27.31
247.248	7.51
247.464	169.3
247.681	-15.02
247.898	66.9
248.115	138.58
248.332	-15.02
248.549	15.7
248.766	56.66
248.983	103.76
249.2	50.52
249.417	60.76
249.633	32.08
249.85	-12.97
250.067	54.61
250.284	-19.11
250.501	27.99
250.717	32.08
250.934	52.56
251.151	93.52
251.368	-12.97
251.585	89.43
251.801	21.84
252.018	-23.21
252.235	30.04
252.451	54.61
252.668	-31.4
252.885	19.8
253.102	97.62
253.318	48.47
253.535	-51.88
253.752	109.91
253.968	95.57
254.185	-51.88
254.401	58.71
254.618	77.14
254.835	60.76
255.051	77.14
255.268	60.76
255.484	93.52
255.701	77.14
255.917	52.56
256.134	-21.16
256.351	-17.07
256.567	-29.35
256.784	21.84
257	-37.55
257.217	85.33
257.433	81.24
257.65	81.24
257.866	-2.73
258.082	21.84
258.299	5.46
258.515	-39.59
258.732	23.89
258.948	93.52
259.165	44.37
259.381	44.37
259.597	73.04
259.814	-15.02
260.03	60.76
260.246	-2.73
260.463	19.8
260.679	83.28
260.895	40.28
261.112	36.18
261.328	-2.73
261.544	-49.83
261.761	56.66
261.977	58.71
262.193	89.43
262.409	25.94
262.626	64.85
262.842	68.95
263.058	-31.4
263.274	118.1
263.49	111.96
263.707	23.89
263.923	-10.92
264.139	21.84
264.355	-12.97
264.571	85.33
264.787	62.8
265.004	32.08
265.22	77.14
265.436	56.66
265.652	85.33
265.868	71
266.084	32.08
266.3	120.15
266.516	32.08
266.732	15.7
266.948	36.18
267.164	34.13
267.38	93.52
267.596	25.94
267.812	46.42
268.028	19.8
268.244	-12.97
268.46	48.47
268.676	48.47
268.892	85.33
269.108	27.99
269.324	-60.07
269.54	-8.87
269.756	64.85
269.972	38.23
270.188	40.28
270.403	103.76
270.619	38.23
270.835	46.42
271.051	44.37
271.267	-41.64
271.483	30.04
271.698	30.04
271.914	38.23
272.13	44.37
272.346	62.8
272.562	32.08
272.777	114
272.993	3.41
273.209	-37.55
273.425	136.53
273.64	101.72
273.856	48.47
274.072	52.56
274.287	17.75
274.503	5.46
274.719	50.52
274.934	62.8
275.15	23.89
275.366	73.04
275.581	68.95
275.797	-33.45
276.012	-12.97
276.228	-29.35
276.444	-4.78
276.659	118.1
276.875	5.46
277.09	79.19
277.306	-2.73
277.521	40.28
277.737	83.28
277.952	38.23
278.168	-45.74
278.383	44.37
278.599	62.8
278.814	36.18
279.03	-27.31
279.245	138.58
279.461	30.04
279.676	89.43
279.892	52.56
280.107	52.56
280.322	38.23
280.538	40.28
280.753	44.37
280.969	71
281.184	91.48
281.399	107.86
281.615	-15.02
281.83	19.8
282.045	-2.73
282.26	77.14
282.476	85.33
282.691	36.18
282.906	23.89
283.122	40.28
283.337	48.47
283.552	60.76
283.767	3.41
283.983	-23.21
284.198	9.56
284.413	101.72
284.628	11.61
284.843	7.51
285.058	81.24
285.274	19.8
285.489	44.37
285.704	134.48
285.919	13.65
286.134	81.24
286.349	60.76
286.564	44.37
286.779	50.52
286.995	62.8
287.21	15.7
287.425	19.8
287.64	-25.26
287.855	-12.97
288.07	56.66
288.285	56.66
288.5	32.08
288.715	107.86
288.93	38.23
289.145	-4.78
289.36	32.08
289.575	-0.68
289.79	77.14
290.004	-45.74
290.219	68.95
290.434	13.65
290.649	36.18
290.864	62.8
291.079	27.99
291.294	93.52
291.509	30.04
291.724	64.85
291.938	23.89
292.153	89.43
292.368	58.71
292.583	85.33
292.798	56.66
293.012	-4.78
293.227	85.33
293.442	21.84
293.657	-12.97
293.871	54.61
294.086	38.23
294.301	30.04
294.516	109.91
294.73	103.76
294.945	52.56
295.16	81.24
295.374	56.66
295.589	109.91
295.804	48.47
296.018	19.8
296.233	56.66
296.447	-37.55
296.662	27.99
296.877	68.95
297.091	11.61
297.306	105.81
297.52	-27.31
297.735	46.42
297.949	89.43
298.164	19.8
298.378	1.37
298.593	-27.31
298.807	40.28
299.022	7.51
299.236	-2.73
299.451	66.9
299.665	128.34
299.88	95.57
300.094	71
300.309	60.76
300.523	81.24
300.737	5.46
300.952	42.32
301.166	64.85
301.381	42.32
301.595	-21.16
301.809	60.76
302.024	111.96
302.238	5.46
302.452	77.14
302.667	27.99
302.881	77.14
303.095	46.42
303.309	116.05
303.524	19.8
303.738	56.66
303.952	-23.21
304.166	68.95
304.381	21.84
304.595	77.14
304.809	-2.73
305.023	17.75
305.237	30.04
305.452	-29.35
305.666	85.33
305.88	5.46
306.094	32.08
306.308	87.38
306.522	19.8
306.736	54.61
306.95	7.51
307.164	93.52
307.379	60.76
307.593	68.95
307.807	81.24
308.021	71
308.235	56.66
308.449	7.51
308.663	48.47
308.877	126.29
309.091	13.65
309.305	9.56
309.519	-33.45
309.733	-8.87
309.947	7.51
310.161	56.66
310.374	-8.87
310.588	103.76
310.802	11.61
311.016	5.46
311.23	93.52
311.444	79.19
311.658	36.18
311.872	81.24
312.085	68.95
312.299	138.58
312.513	71
312.727	73.04
312.941	-0.68
313.154	36.18
313.368	30.04
313.582	5.46
313.796	23.89
314.009	30.04
314.223	81.24
314.437	32.08
314.651	50.52
314.864	42.32
315.078	-12.97
315.292	81.24
315.505	-37.55
315.719	56.66
315.933	17.75
316.146	-0.68
316.36	-2.73
316.573	71
316.787	60.76
317.001	52.56
317.214	-2.73
317.428	50.52
317.641	-27.31
317.855	48.47
318.068	13.65
318.282	21.84
318.495	81.24
318.709	60.76
318.922	25.94
319.136	103.76
319.349	68.95
319.563	71
319.776	60.76
319.99	3.41
320.203	21.84
320.417	73.04
320.63	52.56
320.843	150.87
321.057	9.56
321.27	87.38
321.483	19.8
321.697	60.76
321.91	32.08
322.124	46.42
322.337	73.04
322.55	97.62
322.763	40.28
322.977	36.18
323.19	7.51
323.403	62.8
323.617	89.43
323.83	109.91
324.043	38.23
324.256	54.61
324.469	101.72
324.683	44.37
324.896	19.8
325.109	36.18
325.322	30.04
325.535	81.24
325.748	150.87
325.962	71
326.175	73.04
326.388	34.13
326.601	30.04
326.814	9.56
327.027	5.46
327.24	81.24
327.453	-17.07
327.666	-19.11
327.879	68.95
328.092	38.23
328.305	52.56
328.518	54.61
328.731	-29.35
328.944	-27.31
329.157	68.95
329.37	73.04
329.583	95.57
329.796	208.21
330.009	9.56
330.222	13.65
330.435	68.95
330.648	85.33
330.861	-21.16
331.073	122.2
331.286	103.76
331.499	48.47
331.712	52.56
331.925	1.37
332.138	77.14
332.35	60.76
332.563	3.41
332.776	79.19
332.989	11.61
333.202	7.51
333.414	105.81
333.627	118.1
333.84	19.8
334.053	77.14
334.265	23.89
334.478	19.8
334.691	32.08
334.903	111.96
335.116	62.8
335.329	15.7
335.541	68.95
335.754	68.95
335.966	-53.93
336.179	68.95
336.392	54.61
336.604	97.62
336.817	73.04
337.029	64.85
337.242	52.56
337.454	52.56
337.667	85.33
337.88	62.8
338.092	-37.55
338.305	95.57
338.517	154.96
338.729	77.14
338.942	66.9
339.154	85.33
339.367	3.41
339.579	32.08
339.792	13.65
340.004	97.62
340.217	60.76
340.429	52.56
340.641	11.61
340.854	19.8
341.066	21.84
341.278	89.43
341.491	101.72
341.703	17.75
341.915	36.18
342.128	71
342.34	79.19
342.552	85.33
342.764	60.76
342.977	101.72
343.189	81.24
343.401	44.37
343.613	-41.64
343.826	77.14
344.038	23.89
344.25	79.19
344.462	19.8
344.674	105.81
344.886	60.76
345.099	83.28
345.311	36.18
345.523	9.56
345.735	9.56
345.947	128.34
346.159	48.47
346.371	114
346.583	21.84
346.795	87.38
347.007	15.7
347.219	21.84
347.431	66.9
347.643	5.46
347.855	11.61
348.067	144.72
348.279	5.46
348.491	48.47
348.703	34.13
348.915	19.8
349.127	46.42
349.339	50.52
349.551	38.23
349.763	30.04
349.975	30.04
350.187	126.29
350.399	48.47
350.61	27.99
350.822	68.95
351.034	40.28
351.246	40.28
351.458	50.52
351.669	101.72
351.881	46.42
352.093	66.9
352.305	50.52
352.517	19.8
352.728	109.91
352.94	103.76
353.152	66.9
353.363	-12.97
353.575	138.58
353.787	25.94
353.999	105.81
354.21	120.15
354.422	30.04
354.633	23.89
354.845	79.19
355.057	109.91
355.268	64.85
355.48	60.76
355.692	81.24
355.903	44.37
356.115	60.76
356.326	19.8
356.538	111.96
356.749	93.52
356.961	56.66
357.172	50.52
357.384	-4.78
357.595	77.14
357.807	77.14
358.018	62.8
358.23	19.8
358.441	77.14
358.653	81.24
358.864	85.33
359.075	3.41
359.287	87.38
359.498	77.14
359.709	36.18
359.921	89.43
360.132	83.28
360.344	-15.02
360.555	3.41
360.766	54.61
360.977	138.58
361.189	71
361.4	-10.92
361.611	71
361.823	87.38
362.034	38.23
362.245	3.41
362.456	27.99
362.667	46.42
362.879	134.48
363.09	93.52
363.301	73.04
363.512	60.76
363.723	30.04
363.935	-37.55
364.146	114
364.357	-2.73
364.568	32.08
364.779	44.37
364.99	62.8
365.201	40.28
365.412	71
365.623	44.37
365.834	114
366.045	62.8
366.256	71
366.467	83.28
366.678	40.28
366.889	111.96
367.1	-17.07
367.311	111.96
367.522	97.62
367.733	36.18
367.944	77.14
368.155	-12.97
368.366	79.19
368.577	11.61
368.788	60.76
368.999	71
369.209	7.51
369.42	120.15
369.631	146.77
369.842	91.48
370.053	101.72
370.264	42.32
370.474	93.52
370.685	60.76
370.896	44.37
371.107	52.56
371.317	124.24
371.528	48.47
371.739	44.37
371.95	97.62
372.16	109.91
372.371	-15.02
372.582	118.1
372.792	66.9
373.003	120.15
373.214	25.94
373.424	52.56
373.635	46.42
373.846	93.52
374.056	21.84
374.267	30.04
374.477	58.71
374.688	71
374.898	68.95
375.109	27.99
375.319	27.99
375.53	93.52
375.74	128.34
375.951	13.65
376.161	101.72
376.372	85.33
376.582	32.08
376.793	62.8
377.003	56.66
377.214	73.04
377.424	32.08
377.635	40.28
377.845	79.19
378.055	71
378.266	77.14
378.476	68.95
378.686	64.85
378.897	75.09
379.107	32.08
379.317	68.95
379.528	5.46
379.738	87.38
379.948	-12.97
380.158	54.61
380.369	-10.92
380.579	5.46
380.789	62.8
380.999	95.57
381.21	68.95
381.42	81.24
381.63	23.89
381.84	124.24
382.05	68.95
382.261	87.38
382.471	118.1
382.681	44.37
382.891	120.15
383.101	109.91
383.311	62.8
383.521	91.48
383.731	77.14
383.941	17.75
384.151	64.85
384.361	44.37
384.571	97.62
384.781	81.24
384.991	130.39
385.201	134.48
385.411	66.9
385.621	81.24
385.831	87.38
386.041	68.95
386.251	95.57
386.461	46.42
386.671	93.52
386.881	52.56
387.091	95.57
387.301	21.84
387.511	42.32
387.72	103.76
387.93	54.61
388.14	42.32
388.35	157.01
388.56	85.33
388.769	159.06
388.979	95.57
389.189	73.04
389.399	58.71
389.609	83.28
389.818	118.1
390.028	48.47
390.238	81.24
390.447	25.94
390.657	36.18
390.867	-4.78
391.076	60.76
391.286	54.61
391.496	126.29
391.705	64.85
391.915	95.57
392.125	46.42
392.334	87.38
392.544	77.14
392.753	103.76
392.963	66.9
393.172	46.42
393.382	101.72
393.591	171.35
393.801	-37.55
394.01	140.63
394.22	109.91
394.429	120.15
394.639	58.71
394.848	120.15
395.058	111.96
395.267	40.28
395.477	73.04
395.686	95.57
395.895	83.28
396.105	126.29
396.314	46.42
396.524	62.8
396.733	62.8
396.942	87.38
397.152	128.34
397.361	165.2
397.57	146.77
397.78	122.2
397.989	144.72
398.198	132.44
398.407	71
398.617	99.67
398.826	97.62
399.035	150.87
399.244	114
399.453	122.2
399.663	83.28
399.872	157.01
400.081	150.87
400.29	163.15
400.499	75.09
400.708	169.3
400.917	159.06
401.127	169.3
401.336	44.37
401.545	175.44
401.754	177.49
401.963	105.81
402.172	107.86
402.381	83.28
402.59	148.82
402.799	64.85
403.008	146.77
403.217	195.92
403.426	118.1
403.635	118.1
403.844	120.15
404.053	185.68
404.262	136.53
404.471	159.06
404.68	169.3
404.888	245.07
405.097	222.55
405.306	83.28
405.515	159.06
405.724	122.2
405.933	230.74
406.142	163.15
406.35	120.15
406.559	224.59
406.768	183.63
406.977	232.79
407.185	185.68
407.394	175.44
407.603	120.15
407.812	249.17
408.02	234.83
408.229	175.44
408.438	259.41
408.646	236.88
408.855	226.64
409.064	308.56
409.272	204.11
409.481	277.84
409.69	324.94
409.898	283.98
410.107	333.14
410.315	306.51
410.524	333.14
410.733	404.82
410.941	333.14
411.15	372.05
411.358	427.34
411.567	413.01
411.775	372.05
411.984	429.39
412.192	408.91
412.401	437.58
412.609	531.79
412.818	537.93
413.026	501.07
413.234	523.6
413.443	462.16
413.651	566.6
413.86	609.61
414.068	603.47
414.276	736.59
414.485	675.15
414.693	656.72
414.901	742.73
415.11	746.83
415.318	683.34
415.526	787.79
415.734	718.15
415.943	855.37
416.151	838.98
416.359	818.5
416.567	873.8
416.776	908.62
416.984	963.91
417.192	968.01
417.4	1023.3
417.608	974.15
417.817	1011.01
418.025	1101.12
418.233	1289.54
418.441	1158.47
418.649	1191.24
418.857	1353.02
419.065	1367.36
419.273	1330.5
419.481	1432.9
419.689	1461.57
419.897	1543.49
420.105	1604.92
420.313	1580.35
420.521	1645.88
420.729	1672.51
420.937	1709.37
421.145	1850.68
421.353	1899.83
421.561	1963.32
421.769	2032.95
421.977	2020.66
422.185	2069.81
422.393	2219.32
422.601	2295.09
422.809	2348.34
423.017	2315.57
423.224	2444.59
423.432	2546.99
423.64	2577.71
423.848	2755.88
424.056	2764.08
424.263	2925.86
424.471	2968.87
424.679	3106.09
424.887	3163.43
425.094	3310.88
425.302	3224.87
425.51	3384.61
425.718	3546.4
425.925	3618.08
426.133	3726.62
426.341	3738.91
426.548	3999
426.756	4058.39
426.964	3945.75
427.171	4349.2
427.379	4336.92
427.586	4451.6
427.794	4660.49
428.001	4824.33
428.209	5025.03
428.417	4887.82
428.624	5283.08
428.832	5330.18
429.039	5068.04
429.247	5188.87
429.454	5909.76
429.662	6069.5
429.869	5858.56
430.076	6092.02
430.284	5852.41
430.491	6231.29
430.699	6581.49
430.906	6669.55
431.114	6638.83
431.321	7085.29
431.528	7009.51
431.736	7384.29
431.943	7777.5
432.15	7537.89
432.358	7652.58
432.565	8221.91
432.772	8068.31
432.979	8400.09
433.187	8670.42
433.394	8643.79
433.601	9153.74
433.808	9358.53
434.016	9131.21
434.223	9665.73
434.43	10144.95
434.637	9989.31
434.844	10693.81
435.052	10792.11
435.259	10579.12
435.466	10796.21
435.673	10771.63
435.88	11488.42
436.087	12229.79
436.294	11984.03
436.501	11981.98
436.708	11740.32
436.915	12436.63
437.122	12965.01
437.329	12709.01
437.537	13266.06
437.743	13364.36
437.95	13464.71
438.157	13968.51
438.364	14578.81
438.571	14369.91
438.778	14597.24
438.985	15799.4
439.192	15455.34
439.399	16022.62
439.606	15346.8
439.813	16360.54
440.02	17337.42
440.227	17128.53
440.433	16565.34
440.64	17321.04
440.847	17224.78
441.054	17656.9
441.261	18664.5
441.467	18682.94
441.674	18732.09
441.881	19602.47
442.088	19385.39
442.294	19530.8
442.501	20020.26
442.708	20438.05
442.914	20884.5
443.121	21842.95
443.328	21175.31
443.534	22840.31
443.741	22037.51
443.948	21720.07
444.154	23489.52
444.361	23245.81
444.568	23354.35
444.774	23571.44
444.981	23436.27
445.187	24331.23
445.394	25437.14
445.6	25234.39
445.807	27536.31
446.013	26135.49
446.22	26852.28
446.426	28005.29
446.633	28058.54
446.839	28857.24
447.046	27515.83
447.252	29383.57
447.459	29244.31
447.665	29430.68
447.871	30442.37
448.078	31587.19
448.284	30163.85
448.491	31357.81
448.697	32484.2
448.903	32809.82
449.11	32973.66
449.316	32396.13
449.522	32908.13
449.728	34130.76
449.935	34413.38
450.141	33999.69
450.347	35164.99
450.553	33792.85
450.76	34419.53
450.966	35455.8
451.172	34874.18
451.378	35404.6
451.584	35150.65
451.791	35889.97
451.997	35523.38
452.203	36500.26
452.409	36401.96
452.615	36465.45
452.821	34696
453.027	34773.83
453.233	36678.44
453.44	34904.9
453.646	35519.29
453.852	35783.48
454.058	36266.8
454.264	35191.61
454.47	36156.21
454.676	34915.14
454.882	36205.36
455.088	32949.09
455.294	33579.86
455.5	34241.35
455.705	34251.59
455.911	33031.01
456.117	32465.77
456.323	31908.72
456.529	30188.42
456.735	31892.33
456.941	30632.83
457.147	30505.86
457.352	29580.18
457.558	28953.5
457.764	29051.8
457.97	28709.79
458.176	27968.43
458.381	28023.72
458.587	26758.08
458.793	26739.65
458.999	25156.57
459.204	27405.24
459.41	26371.01
459.616	24824.79
459.821	24880.09
460.027	24728.54
460.233	23948.26
460.438	23100.4
460.644	23139.32
460.85	22385.66
461.055	21709.83
461.261	21615.63
461.466	20167.71
461.672	19500.08
461.878	21138.45
462.083	19565.61
462.289	19338.29
462.494	19016.76
462.7	18179.14
462.905	17886.28
463.111	18261.05
463.316	18195.52
463.522	18238.53
463.727	18048.07
463.932	17898.56
464.138	17820.74
464.343	17927.24
464.549	17230.93
464.754	17855.56
464.959	17509.45
465.165	17376.33
465.37	16847.96
465.575	16442.46
465.781	16954.45
465.986	17196.11
466.191	16551
466.397	16168.03
466.602	15445.1
466.807	16125.02
467.012	16073.82
467.218	16280.67
467.423	15381.61
467.628	15963.23
467.833	16368.73
468.038	15723.62
468.244	15244.4
