Data from USB4F104151__247__14-22-30-983.txt Node

Date: Thu Mar 13 14:22:30 EDT 2025
User: louis
Spectrometer: USB4F10415
Trigger mode: 4
Integration Time (sec): 2.000000E-2
Scans to average: 1
Electric dark correction enabled: true
Nonlinearity correction enabled: false
Boxcar width: 0
XAxis mode: Wavelengths
Number of Pixels in Spectrum: 3648
>>>>>Begin Spectral Data<<<<<
178.204	-100.69
178.424	-100.69
178.644	-100.69
178.864	-172.37
179.084	-121.17
179.304	7.85
179.524	22.19
179.744	11.95
179.964	69.29
180.184	-104.79
180.404	77.48
180.624	26.28
180.844	20.14
181.064	-16.73
181.283	-22.87
181.503	-67.92
181.723	-22.87
181.943	-31.06
182.163	44.71
182.383	-41.3
182.602	40.62
182.822	-20.82
183.042	30.38
183.262	-69.97
183.482	50.86
183.701	-16.73
183.921	-24.92
184.141	-10.58
184.361	59.05
184.58	-39.25
184.8	-2.39
185.02	-47.44
185.239	79.53
185.459	5.8
185.679	-43.35
185.898	-51.54
186.118	16.04
186.338	46.76
186.557	48.81
186.777	5.8
186.997	-29.01
187.216	26.28
187.436	69.29
187.655	-24.92
187.875	57
188.095	5.8
188.314	-4.44
188.534	57
188.753	30.38
188.973	-16.73
189.192	54.95
189.412	-8.53
189.631	-31.06
189.851	20.14
190.07	50.86
190.29	-35.16
190.509	16.04
190.729	-16.73
190.948	30.38
191.168	85.67
191.387	-8.53
191.607	26.28
191.826	16.04
192.045	34.47
192.265	22.19
192.484	24.23
192.704	32.43
192.923	-43.35
193.142	81.58
193.362	-2.39
193.581	85.67
193.8	20.14
194.02	22.19
194.239	54.95
194.458	-14.68
194.678	-24.92
194.897	1.71
195.116	5.8
195.335	-26.96
195.555	-18.77
195.774	-18.77
195.993	30.38
196.212	11.95
196.432	32.43
196.651	16.04
196.87	1.71
197.089	106.15
197.308	75.43
197.528	18.09
197.747	-59.73
197.966	48.81
198.185	57
198.404	42.67
198.623	20.14
198.842	30.38
199.062	26.28
199.281	46.76
199.5	-45.4
199.719	24.23
199.938	-16.73
200.157	1.71
200.376	9.9
200.595	32.43
200.814	9.9
201.033	57
201.252	97.96
201.471	-10.58
201.69	-18.77
201.909	54.95
202.128	-51.54
202.347	-57.68
202.566	-18.77
202.785	5.8
203.004	-29.01
203.223	26.28
203.442	-12.63
203.661	-6.49
203.879	77.48
204.098	69.29
204.317	7.85
204.536	59.05
204.755	42.67
204.974	1.71
205.193	87.72
205.411	71.34
205.63	32.43
205.849	93.87
206.068	63.15
206.287	16.04
206.505	-2.39
206.724	-14.68
206.943	-4.44
207.162	-20.82
207.381	32.43
207.599	-16.73
207.818	77.48
208.037	-33.11
208.255	5.8
208.474	104.11
208.693	5.8
208.911	13.99
209.13	128.68
209.349	9.9
209.567	48.81
209.786	69.29
210.005	9.9
210.223	-39.25
210.442	50.86
210.661	73.39
210.879	61.1
211.098	48.81
211.316	-2.39
211.535	50.86
211.753	59.05
211.972	63.15
212.191	18.09
212.409	26.28
212.628	11.95
212.846	18.09
213.065	71.34
213.283	20.14
213.502	-2.39
213.72	-24.92
213.938	116.39
214.157	36.52
214.375	112.3
214.594	54.95
214.812	48.81
215.031	13.99
215.249	1.71
215.467	7.85
215.686	-18.77
215.904	50.86
216.122	-18.77
216.341	59.05
216.559	91.82
216.778	65.19
216.996	71.34
217.214	-10.58
217.432	-6.49
217.651	-2.39
217.869	3.75
218.087	5.8
218.306	-35.16
218.524	65.19
218.742	-2.39
218.96	97.96
219.179	89.77
219.397	-59.73
219.615	79.53
219.833	38.57
220.051	-67.92
220.27	75.43
220.488	-2.39
220.706	95.91
220.924	22.19
221.142	18.09
221.36	-22.87
221.578	13.99
221.796	-8.53
222.015	-8.53
222.233	48.81
222.451	22.19
222.669	-49.49
222.887	-16.73
223.105	-76.12
223.323	30.38
223.541	-14.68
223.759	13.99
223.977	-49.49
224.195	67.24
224.413	26.28
224.631	32.43
224.849	-49.49
225.067	13.99
225.285	-16.73
225.503	-98.64
225.721	-0.34
225.939	9.9
226.157	-24.92
226.375	128.68
226.592	-18.77
226.81	-24.92
227.028	54.95
227.246	-18.77
227.464	11.95
227.682	30.38
227.9	40.62
228.117	26.28
228.335	18.09
228.553	9.9
228.771	32.43
228.989	-2.39
229.206	48.81
229.424	-14.68
229.642	-6.49
229.86	16.04
230.077	52.91
230.295	-24.92
230.513	36.52
230.731	36.52
230.948	-6.49
231.166	83.63
231.384	-35.16
231.601	-18.77
231.819	54.95
232.037	46.76
232.254	-43.35
232.472	9.9
232.689	-16.73
232.907	-35.16
233.125	54.95
233.342	-59.73
233.56	-49.49
233.777	79.53
233.995	-2.39
234.213	22.19
234.43	3.75
234.648	-35.16
234.865	-29.01
235.083	5.8
235.3	13.99
235.518	71.34
235.735	34.47
235.953	-8.53
236.17	26.28
236.388	-29.01
236.605	-4.44
236.822	65.19
237.04	-12.63
237.257	-33.11
237.475	7.85
237.692	52.91
237.909	34.47
238.127	-14.68
238.344	7.85
238.562	-2.39
238.779	-6.49
238.996	-41.3
239.214	34.47
239.431	87.72
239.648	-35.16
239.865	24.23
240.083	18.09
240.3	7.85
240.517	-24.92
240.735	38.57
240.952	32.43
241.169	59.05
241.386	9.9
241.603	-57.68
241.821	22.19
242.038	9.9
242.255	18.09
242.472	-18.77
242.689	22.19
242.907	13.99
243.124	-6.49
243.341	26.28
243.558	-10.58
243.775	13.99
243.992	71.34
244.209	-33.11
244.426	48.81
244.643	-0.34
244.86	18.09
245.078	-33.11
245.295	-43.35
245.512	-0.34
245.729	-10.58
245.946	-12.63
246.163	71.34
246.38	57
246.597	-10.58
246.814	-2.39
247.031	5.8
247.248	-49.49
247.464	32.43
247.681	18.09
247.898	5.8
248.115	32.43
248.332	-14.68
248.549	26.28
248.766	89.77
248.983	-16.73
249.2	59.05
249.417	40.62
249.633	13.99
249.85	-0.34
250.067	13.99
250.284	-10.58
250.501	5.8
250.717	16.04
250.934	5.8
251.151	-0.34
251.368	54.95
251.585	38.57
251.801	30.38
252.018	-10.58
252.235	75.43
252.451	-39.25
252.668	32.43
252.885	-18.77
253.102	65.19
253.318	13.99
253.535	-0.34
253.752	32.43
253.968	30.38
254.185	-41.3
254.401	-10.58
254.618	13.99
254.835	-55.64
255.051	69.29
255.268	38.57
255.484	9.9
255.701	44.71
255.917	16.04
256.134	38.57
256.351	67.24
256.567	32.43
256.784	-24.92
257	13.99
257.217	9.9
257.433	-33.11
257.65	34.47
257.866	-8.53
258.082	-26.96
258.299	36.52
258.515	16.04
258.732	73.39
258.948	87.72
259.165	32.43
259.381	-39.25
259.597	40.62
259.814	54.95
260.03	-12.63
260.246	54.95
260.463	24.23
260.679	13.99
260.895	-4.44
261.112	-2.39
261.328	13.99
261.544	57
261.761	-24.92
261.977	-18.77
262.193	9.9
262.409	30.38
262.626	65.19
262.842	44.71
263.058	-6.49
263.274	100.01
263.49	-18.77
263.707	-8.53
263.923	65.19
264.139	-35.16
264.355	48.81
264.571	122.54
264.787	52.91
265.004	-20.82
265.22	-10.58
265.436	-8.53
265.652	-35.16
265.868	77.48
266.084	-22.87
266.3	-2.39
266.516	-39.25
266.732	5.8
266.948	54.95
267.164	40.62
267.38	22.19
267.596	-74.07
267.812	93.87
268.028	-2.39
268.244	-16.73
268.46	81.58
268.676	16.04
268.892	30.38
269.108	-22.87
269.324	38.57
269.54	-63.83
269.756	67.24
269.972	-47.44
270.188	42.67
270.403	-26.96
270.619	-2.39
270.835	-67.92
271.051	5.8
271.267	34.47
271.483	-41.3
271.698	-59.73
271.914	54.95
272.13	-0.34
272.346	-8.53
272.562	-8.53
272.777	138.92
272.993	36.52
273.209	-49.49
273.425	7.85
273.64	7.85
273.856	42.67
274.072	-26.96
274.287	7.85
274.503	26.28
274.719	26.28
274.934	57
275.15	-22.87
275.366	18.09
275.581	54.95
275.797	1.71
276.012	52.91
276.228	59.05
276.444	44.71
276.659	30.38
276.875	-80.21
277.09	-0.34
277.306	65.19
277.521	48.81
277.737	-8.53
277.952	79.53
278.168	-24.92
278.383	18.09
278.599	42.67
278.814	36.52
279.03	-45.4
279.245	67.24
279.461	42.67
279.676	65.19
279.892	-12.63
280.107	30.38
280.322	-16.73
280.538	-2.39
280.753	65.19
280.969	54.95
281.184	18.09
281.399	34.47
281.615	50.86
281.83	1.71
282.045	9.9
282.26	5.8
282.476	30.38
282.691	54.95
282.906	32.43
283.122	-6.49
283.337	-35.16
283.552	-2.39
283.767	3.75
283.983	120.49
284.198	24.23
284.413	61.1
284.628	-61.78
284.843	38.57
285.058	1.71
285.274	38.57
285.489	-20.82
285.704	97.96
285.919	-45.4
286.134	-47.44
286.349	46.76
286.564	-26.96
286.779	18.09
286.995	50.86
287.21	32.43
287.425	67.24
287.64	38.57
287.855	40.62
288.07	-2.39
288.285	46.76
288.5	-0.34
288.715	46.76
288.93	-2.39
289.145	-10.58
289.36	38.57
289.575	-14.68
289.79	104.11
290.004	-6.49
290.219	40.62
290.434	-18.77
290.649	-16.73
290.864	54.95
291.079	77.48
291.294	83.63
291.509	-2.39
291.724	22.19
291.938	-2.39
292.153	75.43
292.368	-6.49
292.583	65.19
292.798	81.58
293.012	46.76
293.227	-18.77
293.442	34.47
293.657	-43.35
293.871	71.34
294.086	38.57
294.301	120.49
294.516	30.38
294.73	22.19
294.945	-35.16
295.16	11.95
295.374	87.72
295.589	-4.44
295.804	-43.35
296.018	11.95
296.233	-6.49
296.447	-24.92
296.662	-53.59
296.877	44.71
297.091	42.67
297.306	-18.77
297.52	-6.49
297.735	54.95
297.949	57
298.164	52.91
298.378	-8.53
298.593	46.76
298.807	7.85
299.022	59.05
299.236	57
299.451	-18.77
299.665	-20.82
299.88	5.8
300.094	-16.73
300.309	42.67
300.523	36.52
300.737	-20.82
300.952	112.3
301.166	48.81
301.381	-2.39
301.595	-41.3
301.809	9.9
302.024	22.19
302.238	18.09
302.452	-35.16
302.667	50.86
302.881	-41.3
303.095	83.63
303.309	-12.63
303.524	22.19
303.738	5.8
303.952	16.04
304.166	57
304.381	-22.87
304.595	1.71
304.809	-41.3
305.023	40.62
305.237	-69.97
305.452	-43.35
305.666	-2.39
305.88	-6.49
306.094	11.95
306.308	5.8
306.522	-0.34
306.736	42.67
306.95	108.2
307.164	104.11
307.379	-8.53
307.593	46.76
307.807	-20.82
308.021	46.76
308.235	40.62
308.449	-43.35
308.663	28.33
308.877	73.39
309.091	32.43
309.305	22.19
309.519	-8.53
309.733	75.43
309.947	-2.39
310.161	63.15
310.374	-14.68
310.588	38.57
310.802	18.09
311.016	-10.58
311.23	83.63
311.444	-24.92
311.658	11.95
311.872	42.67
312.085	-10.58
312.299	26.28
312.513	24.23
312.727	1.71
312.941	9.9
313.154	-33.11
313.368	-2.39
313.582	38.57
313.796	-33.11
314.009	22.19
314.223	18.09
314.437	65.19
314.651	44.71
314.864	1.71
315.078	100.01
315.292	13.99
315.505	50.86
315.719	22.19
315.933	5.8
316.146	22.19
316.36	32.43
316.573	57
316.787	44.71
317.001	46.76
317.214	-6.49
317.428	38.57
317.641	-14.68
317.855	-8.53
318.068	-10.58
318.282	42.67
318.495	75.43
318.709	63.15
318.922	52.91
319.136	-2.39
319.349	46.76
319.563	-59.73
319.776	13.99
319.99	42.67
320.203	57
320.417	48.81
320.63	67.24
320.843	73.39
321.057	26.28
321.27	24.23
321.483	-22.87
321.697	24.23
321.91	52.91
322.124	106.15
322.337	-16.73
322.55	48.81
322.763	61.1
322.977	-18.77
323.19	9.9
323.403	3.75
323.617	-26.96
323.83	48.81
324.043	18.09
324.256	38.57
324.469	26.28
324.683	100.01
324.896	28.33
325.109	-6.49
325.322	-24.92
325.535	102.06
325.748	24.23
325.962	13.99
326.175	-0.34
326.388	30.38
326.601	-10.58
326.814	24.23
327.027	-22.87
327.24	46.76
327.453	-41.3
327.666	59.05
327.879	61.1
328.092	13.99
328.305	-8.53
328.518	63.15
328.731	-0.34
328.944	36.52
329.157	38.57
329.37	20.14
329.583	106.15
329.796	73.39
330.009	-6.49
330.222	104.11
330.435	24.23
330.648	-10.58
330.861	54.95
331.073	-35.16
331.286	65.19
331.499	26.28
331.712	57
331.925	7.85
332.138	81.58
332.35	79.53
332.563	5.8
332.776	-39.25
332.989	34.47
333.202	46.76
333.414	40.62
333.627	-24.92
333.84	-26.96
334.053	20.14
334.265	-26.96
334.478	71.34
334.691	-16.73
334.903	24.23
335.116	-18.77
335.329	54.95
335.541	13.99
335.754	87.72
335.966	22.19
336.179	-22.87
336.392	20.14
336.604	5.8
336.817	75.43
337.029	50.86
337.242	52.91
337.454	54.95
337.667	-67.92
337.88	75.43
338.092	5.8
338.305	13.99
338.517	20.14
338.729	52.91
338.942	42.67
339.154	16.04
339.367	7.85
339.579	-16.73
339.792	13.99
340.004	-0.34
340.217	-16.73
340.429	30.38
340.641	7.85
340.854	9.9
341.066	-8.53
341.278	54.95
341.491	63.15
341.703	61.1
341.915	-55.64
342.128	-26.96
342.34	42.67
342.552	7.85
342.764	11.95
342.977	54.95
343.189	-10.58
343.401	87.72
343.613	3.75
343.826	-43.35
344.038	-51.54
344.25	1.71
344.462	59.05
344.674	32.43
344.886	16.04
345.099	52.91
345.311	30.38
345.523	-22.87
345.735	-35.16
345.947	18.09
346.159	67.24
346.371	46.76
346.583	-41.3
346.795	38.57
347.007	11.95
347.219	57
347.431	-0.34
347.643	151.21
347.855	-6.49
348.067	89.77
348.279	-24.92
348.491	5.8
348.703	48.81
348.915	-59.73
349.127	34.47
349.339	-49.49
349.551	-0.34
349.763	13.99
349.975	30.38
350.187	7.85
350.399	-26.96
350.61	-10.58
350.822	59.05
351.034	13.99
351.246	54.95
351.458	38.57
351.669	36.52
351.881	22.19
352.093	5.8
352.305	-4.44
352.517	5.8
352.728	46.76
352.94	-10.58
353.152	-6.49
353.363	-33.11
353.575	40.62
353.787	48.81
353.999	26.28
354.21	28.33
354.422	34.47
354.633	-6.49
354.845	46.76
355.057	54.95
355.268	42.67
355.48	-6.49
355.692	-18.77
355.903	48.81
356.115	-2.39
356.326	-65.88
356.538	1.71
356.749	11.95
356.961	24.23
357.172	75.43
357.384	-6.49
357.595	89.77
357.807	-8.53
358.018	-18.77
358.23	48.81
358.441	73.39
358.653	54.95
358.864	71.34
359.075	-2.39
359.287	48.81
359.498	67.24
359.709	89.77
359.921	71.34
360.132	18.09
360.344	71.34
360.555	36.52
360.766	20.14
360.977	5.8
361.189	61.1
361.4	32.43
361.611	122.54
361.823	-10.58
362.034	73.39
362.245	38.57
362.456	38.57
362.667	-0.34
362.879	-0.34
363.09	18.09
363.301	-35.16
363.512	16.04
363.723	24.23
363.935	26.28
364.146	7.85
364.357	13.99
364.568	38.57
364.779	-10.58
364.99	7.85
365.201	48.81
365.412	65.19
365.623	-6.49
365.834	57
366.045	13.99
366.256	26.28
366.467	40.62
366.678	69.29
366.889	16.04
367.1	38.57
367.311	73.39
367.522	75.43
367.733	30.38
367.944	7.85
368.155	24.23
368.366	7.85
368.577	7.85
368.788	13.99
368.999	9.9
369.209	16.04
369.42	116.39
369.631	30.38
369.842	1.71
370.053	-10.58
370.264	22.19
370.474	87.72
370.685	-0.34
370.896	24.23
371.107	38.57
371.317	13.99
371.528	11.95
371.739	59.05
371.95	89.77
372.16	54.95
372.371	-8.53
372.582	-57.68
372.792	-57.68
373.003	44.71
373.214	7.85
373.424	100.01
373.635	-76.12
373.846	46.76
374.056	20.14
374.267	18.09
374.477	61.1
374.688	38.57
374.898	18.09
375.109	20.14
375.319	38.57
375.53	73.39
375.74	48.81
375.951	57
376.161	16.04
376.372	130.73
376.582	-8.53
376.793	108.2
377.003	5.8
377.214	28.33
377.424	28.33
377.635	22.19
377.845	13.99
378.055	48.81
378.266	11.95
378.476	5.8
378.686	5.8
378.897	30.38
379.107	75.43
379.317	28.33
379.528	59.05
379.738	-8.53
379.948	26.28
380.158	30.38
380.369	95.91
380.579	42.67
380.789	-6.49
380.999	30.38
381.21	-24.92
381.42	65.19
381.63	38.57
381.84	63.15
382.05	112.3
382.261	32.43
382.471	57
382.681	34.47
382.891	104.11
383.101	36.52
383.311	28.33
383.521	-0.34
383.731	16.04
383.941	-4.44
384.151	57
384.361	-8.53
384.571	18.09
384.781	26.28
384.991	-2.39
385.201	122.54
385.411	61.1
385.621	-10.58
385.831	-10.58
386.041	30.38
386.251	16.04
386.461	40.62
386.671	-14.68
386.881	-6.49
387.091	18.09
387.301	1.71
387.511	52.91
387.72	24.23
387.93	97.96
388.14	52.91
388.35	63.15
388.56	57
388.769	24.23
388.979	-0.34
389.189	42.67
389.399	81.58
389.609	104.11
389.818	5.8
390.028	38.57
390.238	97.96
390.447	5.8
390.657	13.99
390.867	7.85
391.076	79.53
391.286	120.49
391.496	5.8
391.705	-0.34
391.915	-33.11
392.125	54.95
392.334	54.95
392.544	65.19
392.753	97.96
392.963	-63.83
393.172	61.1
393.382	28.33
393.591	46.76
393.801	-33.11
394.01	20.14
394.22	-0.34
394.429	18.09
394.639	44.71
394.848	83.63
395.058	18.09
395.267	69.29
395.477	-35.16
395.686	50.86
395.895	32.43
396.105	89.77
396.314	52.91
396.524	65.19
396.733	97.96
396.942	13.99
397.152	40.62
397.361	22.19
397.57	114.34
397.78	9.9
397.989	71.34
398.198	181.93
398.407	-18.77
398.617	5.8
398.826	46.76
399.035	7.85
399.244	106.15
399.453	132.78
399.663	85.67
399.872	126.63
400.081	30.38
400.29	67.24
400.499	42.67
400.708	81.58
400.917	-18.77
401.127	108.2
401.336	38.57
401.545	87.72
401.754	116.39
401.963	59.05
402.172	40.62
402.381	67.24
402.59	34.47
402.799	104.11
403.008	22.19
403.217	89.77
403.426	89.77
403.635	63.15
403.844	46.76
404.053	87.72
404.262	46.76
404.471	61.1
404.68	169.64
404.888	71.34
405.097	81.58
405.306	71.34
405.515	120.49
405.724	128.68
405.933	177.83
406.142	163.5
406.35	114.34
406.559	71.34
406.768	69.29
406.977	194.22
407.185	120.49
407.394	159.4
407.603	97.96
407.812	63.15
408.02	163.5
408.229	167.59
408.438	136.87
408.646	136.87
408.855	108.2
409.064	163.5
409.272	136.87
409.481	145.06
409.69	145.06
409.898	186.02
410.107	243.37
410.315	231.08
410.524	206.5
410.733	218.79
410.941	210.6
411.15	204.46
411.358	257.7
411.567	327.33
411.775	229.03
411.984	272.04
412.192	284.33
412.401	261.8
412.609	329.38
412.818	288.42
413.026	343.72
413.234	261.8
413.443	386.72
413.651	300.71
413.86	349.86
414.068	390.82
414.276	439.97
414.485	358.05
414.693	421.54
414.901	458.4
415.11	482.98
415.318	435.88
415.526	433.83
415.734	521.89
415.943	517.79
416.151	509.6
416.359	464.55
416.567	562.85
416.776	612
416.984	538.27
417.192	646.82
417.4	648.86
417.608	603.81
417.817	622.24
418.025	741.02
418.233	751.26
418.441	741.02
418.649	736.93
418.857	777.89
419.065	804.51
419.273	769.69
419.481	841.37
419.689	925.34
419.897	947.87
420.105	917.15
420.313	1035.93
420.521	1076.89
420.729	1064.6
420.937	1103.51
421.145	1128.09
421.353	1146.52
421.561	1181.34
421.769	1130.14
421.977	1308.31
422.185	1289.88
422.393	1431.19
422.601	1490.58
422.809	1418.9
423.017	1455.76
423.224	1480.34
423.432	1539.73
423.64	1574.55
423.848	1769.1
424.056	1566.35
424.263	1722
424.471	1685.14
424.679	1867.41
424.887	1834.64
425.094	1990.28
425.302	2098.83
425.51	2107.02
425.718	2168.46
425.925	2066.06
426.133	2250.38
426.341	2231.94
426.548	2457.22
426.756	2365.06
426.964	2414.21
427.171	2698.88
427.379	2733.7
427.586	2764.42
427.794	2739.84
428.001	2895.49
428.209	3047.04
428.417	3174.01
428.624	3286.65
428.832	3286.65
429.039	3208.83
429.247	3176.06
429.454	3423.86
429.662	3843.7
429.869	3477.11
430.076	3765.87
430.284	3659.38
430.491	3898.99
430.699	4034.16
430.906	4030.06
431.114	4083.31
431.321	4247.15
431.528	4253.29
431.736	4566.63
431.943	4855.39
432.15	4595.3
432.358	4675.17
432.565	5004.89
432.772	4849.25
432.979	5338.71
433.187	5314.14
433.394	5324.38
433.601	5699.16
433.808	5676.63
434.016	5756.5
434.223	5791.31
434.43	6231.63
434.637	6125.13
434.844	6592.07
435.052	6493.77
435.259	6499.91
435.466	6673.99
435.673	6432.33
435.88	6895.17
436.087	7394.87
436.294	7386.68
436.501	7251.52
436.708	7439.93
436.915	7743.03
437.122	7816.76
437.329	7984.69
437.537	8109.61
437.743	8328.75
437.95	8418.86
438.157	8697.38
438.364	8619.56
438.571	8773.16
438.778	8830.5
438.985	9670.17
439.192	9348.64
439.399	9788.95
439.606	9524.76
439.813	9791
440.02	10581.51
440.227	10362.38
440.433	10227.21
440.64	10632.71
440.847	10585.61
441.054	10569.23
441.261	11632.12
441.467	11484.67
441.674	11451.9
441.881	11910.64
442.088	11959.8
442.294	11918.84
442.501	12223.98
442.708	12277.23
442.914	12895.72
443.121	13368.8
443.328	13086.18
443.534	14061.01
443.741	13463.01
443.948	13577.69
444.154	14427.6
444.361	14130.64
444.568	14278.1
444.774	14634.44
444.981	14695.88
445.187	14912.97
445.394	15467.97
445.6	15445.44
445.807	16932.26
446.013	16244.15
446.22	16537.01
446.426	17057.19
446.633	17243.56
446.839	17786.27
447.046	16995.75
447.252	17806.75
447.459	17911.19
447.665	17755.55
447.871	18625.93
448.078	19705.21
448.284	18673.04
448.491	19092.87
448.697	19844.48
448.903	19965.31
449.11	20123
449.316	20098.42
449.522	20135.29
449.728	20850.03
449.935	21233
450.141	20897.13
450.347	21579.11
450.553	20854.12
450.76	21134.7
450.966	22074.71
451.172	21515.62
451.378	22082.91
451.584	21357.92
451.791	22306.13
451.997	22113.63
452.203	22689.1
452.409	22664.53
452.615	22541.65
452.821	21765.47
453.027	21249.38
453.233	22386.01
453.44	21708.13
453.646	21904.73
453.852	21874.01
454.058	22173.02
454.264	21646.69
454.47	22046.04
454.676	21564.77
454.882	22254.94
455.088	20338.04
455.294	20825.45
455.5	21214.57
455.705	21310.82
455.911	20442.48
456.117	19961.21
456.323	19570.05
456.529	18675.09
456.735	19404.16
456.941	19043.72
457.147	18783.63
457.352	18312.6
457.558	18109.85
457.764	18091.41
457.97	17472.93
458.176	17288.61
458.381	17440.16
458.587	16430.51
458.793	16539.05
458.999	15429.06
459.204	16561.58
459.41	16254.39
459.616	15396.29
459.821	15195.59
460.027	15179.2
460.233	14761.42
460.438	14220.75
460.644	14153.17
460.85	13635.03
461.055	13391.33
461.261	13772.25
461.466	12506.6
461.672	12027.38
461.878	12944.87
462.083	12107.25
462.289	11884.02
462.494	11619.83
462.7	11210.24
462.905	10806.79
463.111	11216.38
463.316	11335.17
463.522	11236.86
463.727	11208.19
463.932	11107.84
464.138	10847.75
464.343	11089.41
464.549	10587.66
464.754	11042.31
464.959	10737.16
465.165	10843.65
465.37	10585.61
465.575	9983.51
465.781	10417.68
465.986	10464.78
466.191	10368.52
466.397	9965.07
466.602	9487.9
466.807	9831.96
467.012	9741.85
467.218	9717.27
467.423	9887.25
467.628	9846.29
467.833	10219.02
468.038	9909.78
468.244	9332.25
468.449	9963.03
