Data from USB4F104151__280__14-23-26-943.txt Node

Date: Thu Mar 13 14:23:26 EDT 2025
User: louis
Spectrometer: USB4F10415
Trigger mode: 4
Integration Time (sec): 2.000000E-2
Scans to average: 1
Electric dark correction enabled: true
Nonlinearity correction enabled: false
Boxcar width: 0
XAxis mode: Wavelengths
Number of Pixels in Spectrum: 3648
>>>>>Begin Spectral Data<<<<<
178.204	-52.56
178.424	-52.56
178.644	-52.56
178.864	-161.11
179.084	-107.86
179.304	25.26
179.524	-9.56
179.744	-1.37
179.964	154.28
180.184	-11.61
180.404	-46.42
180.624	-5.46
180.844	17.07
181.064	-48.47
181.283	-5.46
181.503	-60.76
181.723	-7.51
181.943	-1.37
182.163	74.41
182.383	31.4
182.602	60.07
182.822	33.45
183.042	10.92
183.262	19.11
183.482	41.64
183.701	23.21
183.921	39.59
184.141	31.4
184.361	23.21
184.58	45.74
184.8	137.9
185.02	2.73
185.239	74.41
185.459	96.94
185.679	39.59
185.898	-40.28
186.118	19.11
186.338	-13.65
186.557	-1.37
186.777	6.83
186.997	-1.37
187.216	33.45
187.436	139.94
187.655	41.64
187.875	156.33
188.095	45.74
188.314	90.79
188.534	131.75
188.753	-66.9
188.973	-17.75
189.192	90.79
189.412	-9.56
189.631	51.88
189.851	10.92
190.07	31.4
190.29	31.4
190.509	68.27
190.729	88.75
190.948	72.36
191.168	121.51
191.387	15.02
191.607	-15.7
191.826	72.36
192.045	-68.95
192.265	23.21
192.484	-13.65
192.704	19.11
192.923	0.68
193.142	105.13
193.362	96.94
193.581	66.22
193.8	25.26
194.02	47.79
194.239	-32.08
194.458	25.26
194.678	17.07
194.897	47.79
195.116	47.79
195.335	-25.94
195.555	55.98
195.774	23.21
195.993	86.7
196.212	35.5
196.432	27.31
196.651	49.83
196.87	47.79
197.089	-5.46
197.308	23.21
197.528	27.31
197.747	-42.32
197.966	55.98
198.185	29.35
198.404	0.68
198.623	47.79
198.842	21.16
199.062	76.46
199.281	19.11
199.5	37.55
199.719	49.83
199.938	76.46
200.157	55.98
200.376	47.79
200.595	101.03
200.814	76.46
201.033	76.46
201.252	51.88
201.471	31.4
201.69	12.97
201.909	19.11
202.128	88.75
202.347	-38.23
202.566	53.93
202.785	35.5
203.004	-40.28
203.223	154.28
203.442	33.45
203.661	80.55
203.879	-34.13
204.098	78.51
204.317	41.64
204.536	0.68
204.755	117.42
204.974	70.31
205.193	37.55
205.411	31.4
205.63	4.78
205.849	72.36
206.068	82.6
206.287	2.73
206.505	47.79
206.724	2.73
206.943	-25.94
207.162	10.92
207.381	39.59
207.599	19.11
207.818	-1.37
208.037	-34.13
208.255	17.07
208.474	35.5
208.693	8.87
208.911	51.88
209.13	31.4
209.349	98.99
209.567	15.02
209.786	154.28
210.005	55.98
210.223	25.26
210.442	43.69
210.661	84.65
210.879	-9.56
211.098	-13.65
211.316	-42.32
211.535	98.99
211.753	80.55
211.972	45.74
212.191	-23.89
212.409	55.98
212.628	-7.51
212.846	17.07
213.065	78.51
213.283	96.94
213.502	39.59
213.72	80.55
213.938	6.83
214.157	60.07
214.375	76.46
214.594	-15.7
214.812	19.11
215.031	84.65
215.249	25.26
215.467	64.17
215.686	105.13
215.904	15.02
216.122	-15.7
216.341	78.51
216.559	35.5
216.778	88.75
216.996	60.07
217.214	58.03
217.432	64.17
217.651	-50.52
217.869	-15.7
218.087	15.02
218.306	111.27
218.524	49.83
218.742	74.41
218.96	66.22
219.179	58.03
219.397	111.27
219.615	113.32
219.833	-17.75
220.051	55.98
220.27	154.28
220.488	96.94
220.706	115.37
220.924	51.88
221.142	39.59
221.36	-9.56
221.578	29.35
221.796	0.68
222.015	8.87
222.233	8.87
222.451	55.98
222.669	-46.42
222.887	6.83
223.105	33.45
223.323	23.21
223.541	-15.7
223.759	68.27
223.977	-23.89
224.195	133.8
224.413	2.73
224.631	41.64
224.849	-15.7
225.067	101.03
225.285	37.55
225.503	15.02
225.721	0.68
225.939	17.07
226.157	0.68
226.375	80.55
226.592	74.41
226.81	25.26
227.028	47.79
227.246	127.66
227.464	15.02
227.682	23.21
227.9	15.02
228.117	35.5
228.335	80.55
228.553	25.26
228.771	-25.94
228.989	-1.37
229.206	-7.51
229.424	43.69
229.642	70.31
229.86	-1.37
230.077	55.98
230.295	105.13
230.513	33.45
230.731	103.08
230.948	35.5
231.166	60.07
231.384	49.83
231.601	21.16
231.819	96.94
232.037	47.79
232.254	55.98
232.472	41.64
232.689	64.17
232.907	8.87
233.125	-46.42
233.342	-9.56
233.56	88.75
233.777	68.27
233.995	-7.51
234.213	98.99
234.43	41.64
234.648	101.03
234.865	55.98
235.083	92.84
235.3	15.02
235.518	31.4
235.735	148.14
235.953	68.27
236.17	39.59
236.388	60.07
236.605	55.98
236.822	35.5
237.04	27.31
237.257	41.64
237.475	-19.8
237.692	82.6
237.909	109.22
238.127	-23.89
238.344	8.87
238.562	88.75
238.779	37.55
238.996	0.68
239.214	29.35
239.431	64.17
239.648	84.65
239.865	39.59
240.083	74.41
240.3	43.69
240.517	15.02
240.735	15.02
240.952	45.74
241.169	72.36
241.386	66.22
241.603	39.59
241.821	-9.56
242.038	55.98
242.255	60.07
242.472	55.98
242.689	25.26
242.907	64.17
243.124	101.03
243.341	10.92
243.558	58.03
243.775	-1.37
243.992	15.02
244.209	68.27
244.426	152.23
244.643	109.22
244.86	8.87
245.078	84.65
245.295	0.68
245.512	47.79
245.729	60.07
245.946	37.55
246.163	58.03
246.38	-17.75
246.597	27.31
246.814	17.07
247.031	27.31
247.248	35.5
247.464	27.31
247.681	64.17
247.898	-1.37
248.115	15.02
248.332	8.87
248.549	35.5
248.766	107.18
248.983	19.11
249.2	39.59
249.417	21.16
249.633	12.97
249.85	43.69
250.067	107.18
250.284	23.21
250.501	15.02
250.717	23.21
250.934	-56.66
251.151	47.79
251.368	-17.75
251.585	33.45
251.801	8.87
252.018	-50.52
252.235	-7.51
252.451	0.68
252.668	80.55
252.885	90.79
253.102	121.51
253.318	55.98
253.535	39.59
253.752	19.11
253.968	33.45
254.185	53.93
254.401	23.21
254.618	86.7
254.835	76.46
255.051	88.75
255.268	23.21
255.484	29.35
255.701	47.79
255.917	31.4
256.134	-32.08
256.351	90.79
256.567	-36.18
256.784	-1.37
257	-30.04
257.217	25.26
257.433	51.88
257.65	37.55
257.866	25.26
258.082	-44.37
258.299	-13.65
258.515	101.03
258.732	-36.18
258.948	-25.94
259.165	-7.51
259.381	-1.37
259.597	78.51
259.814	15.02
260.03	19.11
260.246	-7.51
260.463	8.87
260.679	23.21
260.895	-1.37
261.112	76.46
261.328	2.73
261.544	74.41
261.761	39.59
261.977	58.03
262.193	43.69
262.409	15.02
262.626	43.69
262.842	15.02
263.058	-27.99
263.274	-5.46
263.49	43.69
263.707	72.36
263.923	72.36
264.139	-42.32
264.355	111.27
264.571	101.03
264.787	41.64
265.004	82.6
265.22	35.5
265.436	-25.94
265.652	41.64
265.868	39.59
266.084	17.07
266.3	8.87
266.516	0.68
266.732	31.4
266.948	17.07
267.164	15.02
267.38	80.55
267.596	17.07
267.812	49.83
268.028	4.78
268.244	-21.85
268.46	23.21
268.676	98.99
268.892	47.79
269.108	-1.37
269.324	-7.51
269.54	62.12
269.756	84.65
269.972	15.02
270.188	15.02
270.403	0.68
270.619	33.45
270.835	41.64
271.051	-42.32
271.267	21.16
271.483	146.09
271.698	96.94
271.914	113.32
272.13	-3.41
272.346	6.83
272.562	62.12
272.777	47.79
272.993	49.83
273.209	-38.23
273.425	0.68
273.64	88.75
273.856	84.65
274.072	6.83
274.287	154.28
274.503	80.55
274.719	58.03
274.934	80.55
275.15	-42.32
275.366	27.31
275.581	-15.7
275.797	27.31
276.012	0.68
276.228	68.27
276.444	76.46
276.659	19.11
276.875	0.68
277.09	19.11
277.306	15.02
277.521	19.11
277.737	-40.28
277.952	15.02
278.168	90.79
278.383	33.45
278.599	47.79
278.814	94.89
279.03	6.83
279.245	68.27
279.461	43.69
279.676	25.26
279.892	23.21
280.107	-46.42
280.322	25.26
280.538	68.27
280.753	31.4
280.969	74.41
281.184	101.03
281.399	58.03
281.615	66.22
281.83	51.88
282.045	23.21
282.26	58.03
282.476	105.13
282.691	107.18
282.906	6.83
283.122	72.36
283.337	74.41
283.552	2.73
283.767	6.83
283.983	58.03
284.198	21.16
284.413	64.17
284.628	43.69
284.843	-36.18
285.058	33.45
285.274	64.17
285.489	-1.37
285.704	74.41
285.919	35.5
286.134	-9.56
286.349	27.31
286.564	43.69
286.779	133.8
286.995	29.35
287.21	72.36
287.425	113.32
287.64	23.21
287.855	72.36
288.07	19.11
288.285	105.13
288.5	15.02
288.715	86.7
288.93	-7.51
289.145	35.5
289.36	76.46
289.575	66.22
289.79	41.64
290.004	8.87
290.219	64.17
290.434	0.68
290.649	-1.37
290.864	-1.37
291.079	51.88
291.294	6.83
291.509	-13.65
291.724	35.5
291.938	-5.46
292.153	47.79
292.368	-13.65
292.583	51.88
292.798	64.17
293.012	98.99
293.227	148.14
293.442	39.59
293.657	47.79
293.871	150.18
294.086	15.02
294.301	66.22
294.516	19.11
294.73	41.64
294.945	-30.04
295.16	-15.7
295.374	23.21
295.589	49.83
295.804	-15.7
296.018	-15.7
296.233	33.45
296.447	33.45
296.662	10.92
296.877	6.83
297.091	49.83
297.306	19.11
297.52	68.27
297.735	41.64
297.949	23.21
298.164	80.55
298.378	35.5
298.593	96.94
298.807	-17.75
299.022	25.26
299.236	49.83
299.451	17.07
299.665	90.79
299.88	23.21
300.094	17.07
300.309	68.27
300.523	45.74
300.737	88.75
300.952	-1.37
301.166	-34.13
301.381	55.98
301.595	35.5
301.809	47.79
302.024	64.17
302.238	39.59
302.452	121.51
302.667	80.55
302.881	84.65
303.095	43.69
303.309	60.07
303.524	-34.13
303.738	72.36
303.952	10.92
304.166	33.45
304.381	-66.9
304.595	107.18
304.809	19.11
305.023	25.26
305.237	4.78
305.452	35.5
305.666	19.11
305.88	88.75
306.094	4.78
306.308	17.07
306.522	25.26
306.736	2.73
306.95	96.94
307.164	82.6
307.379	41.64
307.593	60.07
307.807	82.6
308.021	-1.37
308.235	82.6
308.449	12.97
308.663	27.31
308.877	76.46
309.091	27.31
309.305	88.75
309.519	47.79
309.733	105.13
309.947	115.37
310.161	49.83
310.374	90.79
310.588	82.6
310.802	-25.94
311.016	72.36
311.23	105.13
311.444	15.02
311.658	25.26
311.872	96.94
312.085	82.6
312.299	-3.41
312.513	105.13
312.727	19.11
312.941	-9.56
313.154	43.69
313.368	-79.19
313.582	25.26
313.796	113.32
314.009	6.83
314.223	76.46
314.437	96.94
314.651	62.12
314.864	-34.13
315.078	78.51
315.292	64.17
315.505	119.46
315.719	55.98
315.933	76.46
316.146	76.46
316.36	0.68
316.573	53.93
316.787	12.97
317.001	90.79
317.214	-1.37
317.428	47.79
317.641	-13.65
317.855	74.41
318.068	-1.37
318.282	68.27
318.495	96.94
318.709	72.36
318.922	12.97
319.136	96.94
319.349	119.46
319.563	19.11
319.776	27.31
319.99	43.69
320.203	41.64
320.417	72.36
320.63	-17.75
320.843	111.27
321.057	12.97
321.27	49.83
321.483	8.87
321.697	66.22
321.91	19.11
322.124	76.46
322.337	19.11
322.55	64.17
322.763	-19.8
322.977	53.93
323.19	58.03
323.403	31.4
323.617	35.5
323.83	-11.61
324.043	125.61
324.256	70.31
324.469	17.07
324.683	23.21
324.896	74.41
325.109	-40.28
325.322	41.64
325.535	29.35
325.748	96.94
325.962	-25.94
326.175	49.83
326.388	49.83
326.601	68.27
326.814	-5.46
327.027	31.4
327.24	101.03
327.453	-11.61
327.666	105.13
327.879	23.21
328.092	6.83
328.305	10.92
328.518	15.02
328.731	33.45
328.944	74.41
329.157	41.64
329.37	80.55
329.583	92.84
329.796	103.08
330.009	12.97
330.222	8.87
330.435	101.03
330.648	47.79
330.861	23.21
331.073	8.87
331.286	29.35
331.499	-9.56
331.712	-40.28
331.925	-32.08
332.138	68.27
332.35	41.64
332.563	64.17
332.776	146.09
332.989	-9.56
333.202	60.07
333.414	-9.56
333.627	-13.65
333.84	66.22
334.053	0.68
334.265	35.5
334.478	10.92
334.691	39.59
334.903	94.89
335.116	4.78
335.329	-68.95
335.541	-13.65
335.754	74.41
335.966	2.73
336.179	88.75
336.392	43.69
336.604	-1.37
336.817	68.27
337.029	58.03
337.242	39.59
337.454	55.98
337.667	98.99
337.88	90.79
338.092	49.83
338.305	58.03
338.517	23.21
338.729	49.83
338.942	64.17
339.154	-9.56
339.367	6.83
339.579	82.6
339.792	37.55
340.004	12.97
340.217	8.87
340.429	60.07
340.641	31.4
340.854	23.21
341.066	-23.89
341.278	80.55
341.491	115.37
341.703	37.55
341.915	-52.56
342.128	53.93
342.34	49.83
342.552	49.83
342.764	6.83
342.977	31.4
343.189	74.41
343.401	47.79
343.613	19.11
343.826	58.03
344.038	-15.7
344.25	47.79
344.462	115.37
344.674	113.32
344.886	105.13
345.099	74.41
345.311	35.5
345.523	72.36
345.735	-34.13
345.947	31.4
346.159	70.31
346.371	0.68
346.583	-13.65
346.795	131.75
347.007	-9.56
347.219	133.8
347.431	90.79
347.643	23.21
347.855	60.07
348.067	31.4
348.279	27.31
348.491	55.98
348.703	-32.08
348.915	64.17
349.127	49.83
349.339	121.51
349.551	78.51
349.763	107.18
349.975	39.59
350.187	107.18
350.399	90.79
350.61	41.64
350.822	109.22
351.034	-23.89
351.246	-1.37
351.458	33.45
351.669	64.17
351.881	31.4
352.093	62.12
352.305	70.31
352.517	27.31
352.728	123.56
352.94	88.75
353.152	45.74
353.363	-17.75
353.575	39.59
353.787	31.4
353.999	47.79
354.21	113.32
354.422	-25.94
354.633	-7.51
354.845	-21.85
355.057	78.51
355.268	72.36
355.48	74.41
355.692	27.31
355.903	23.21
356.115	23.21
356.326	15.02
356.538	96.94
356.749	-1.37
356.961	115.37
357.172	74.41
357.384	39.59
357.595	68.27
357.807	62.12
358.018	29.35
358.23	43.69
358.441	105.13
358.653	96.94
358.864	-9.56
359.075	70.31
359.287	47.79
359.498	80.55
359.709	0.68
359.921	15.02
360.132	101.03
360.344	37.55
360.555	55.98
360.766	33.45
360.977	92.84
361.189	-17.75
361.4	37.55
361.611	80.55
361.823	-1.37
362.034	58.03
362.245	60.07
362.456	-1.37
362.667	21.16
362.879	35.5
363.09	33.45
363.301	94.89
363.512	117.42
363.723	45.74
363.935	31.4
364.146	72.36
364.357	62.12
364.568	70.31
364.779	80.55
364.99	70.31
365.201	-19.8
365.412	43.69
365.623	10.92
365.834	139.94
366.045	58.03
366.256	35.5
366.467	58.03
366.678	35.5
366.889	43.69
367.1	39.59
367.311	31.4
367.522	-1.37
367.733	105.13
367.944	72.36
368.155	23.21
368.366	60.07
368.577	101.03
368.788	64.17
368.999	82.6
369.209	45.74
369.42	156.33
369.631	166.57
369.842	-25.94
370.053	55.98
370.264	113.32
370.474	88.75
370.685	41.64
370.896	60.07
371.107	96.94
371.317	101.03
371.528	129.7
371.739	53.93
371.95	94.89
372.16	10.92
372.371	80.55
372.582	19.11
372.792	27.31
373.003	72.36
373.214	31.4
373.424	51.88
373.635	41.64
373.846	113.32
374.056	35.5
374.267	117.42
374.477	92.84
374.688	39.59
374.898	60.07
375.109	109.22
375.319	82.6
375.53	84.65
375.74	86.7
375.951	94.89
376.161	15.02
376.372	68.27
376.582	58.03
376.793	92.84
377.003	23.21
377.214	64.17
377.424	68.27
377.635	-25.94
377.845	74.41
378.055	55.98
378.266	98.99
378.476	55.98
378.686	105.13
378.897	105.13
379.107	41.64
379.317	64.17
379.528	39.59
379.738	96.94
379.948	-15.7
380.158	115.37
380.369	98.99
380.579	2.73
380.789	43.69
380.999	70.31
381.21	88.75
381.42	187.05
381.63	27.31
381.84	45.74
382.05	90.79
382.261	119.46
382.471	68.27
382.681	25.26
382.891	146.09
383.101	-1.37
383.311	60.07
383.521	60.07
383.731	72.36
383.941	27.31
384.151	19.11
384.361	74.41
384.571	90.79
384.781	123.56
384.991	98.99
385.201	90.79
385.411	53.93
385.621	109.22
385.831	80.55
386.041	139.94
386.251	123.56
386.461	49.83
386.671	121.51
386.881	101.03
387.091	51.88
387.301	90.79
387.511	51.88
387.72	96.94
387.93	117.42
388.14	31.4
388.35	47.79
388.56	33.45
388.769	125.61
388.979	55.98
389.189	15.02
389.399	121.51
389.609	94.89
389.818	51.88
390.028	68.27
390.238	35.5
390.447	49.83
390.657	47.79
390.867	64.17
391.076	113.32
391.286	80.55
391.496	-7.51
391.705	43.69
391.915	96.94
392.125	80.55
392.334	47.79
392.544	123.56
392.753	15.02
392.963	121.51
393.172	58.03
393.382	-13.65
393.591	185
393.801	158.38
394.01	125.61
394.22	78.51
394.429	121.51
394.639	39.59
394.848	107.18
395.058	135.85
395.267	66.22
395.477	105.13
395.686	92.84
395.895	137.9
396.105	146.09
396.314	72.36
396.524	84.65
396.733	96.94
396.942	146.09
397.152	-7.51
397.361	70.31
397.57	17.07
397.78	72.36
397.989	154.28
398.198	150.18
398.407	60.07
398.617	127.66
398.826	125.61
399.035	109.22
399.244	203.43
399.453	150.18
399.663	72.36
399.872	113.32
400.081	107.18
400.29	84.65
400.499	141.99
400.708	123.56
400.917	129.7
401.127	123.56
401.336	41.64
401.545	135.85
401.754	127.66
401.963	195.24
402.172	152.23
402.381	137.9
402.59	62.12
402.799	90.79
403.008	101.03
403.217	98.99
403.426	187.05
403.635	115.37
403.844	146.09
404.053	129.7
404.262	127.66
404.471	146.09
404.68	180.9
404.888	162.47
405.097	232.1
405.306	228.01
405.515	248.49
405.724	252.58
405.933	254.63
406.142	94.89
406.35	195.24
406.559	193.19
406.768	260.77
406.977	187.05
407.185	293.54
407.394	264.87
407.603	148.14
407.812	228.01
408.02	305.83
408.229	295.59
408.438	277.16
408.646	230.06
408.855	299.69
409.064	277.16
409.272	271.01
409.481	254.63
409.69	336.55
409.898	311.97
410.107	311.97
410.315	457.38
410.524	373.41
410.733	395.94
410.941	373.41
411.15	465.57
411.358	531.11
411.567	484
411.775	453.28
411.984	498.34
412.192	473.76
412.401	598.69
412.609	580.26
412.818	588.45
413.026	600.74
413.234	559.78
413.443	590.5
413.651	596.64
413.86	625.31
414.068	694.94
414.276	674.46
414.485	699.04
414.693	785.05
414.901	879.26
415.11	826.01
415.318	842.4
415.526	889.5
415.734	959.13
415.943	830.11
416.151	1018.52
416.359	899.74
416.567	1014.43
416.776	989.85
416.984	1106.59
417.192	1221.27
417.4	1133.21
417.608	1061.53
417.817	1194.65
418.025	1208.98
418.233	1442.45
418.441	1276.57
418.649	1452.69
418.857	1501.84
419.065	1505.94
419.273	1440.4
419.481	1534.61
419.689	1675.92
419.897	1723.02
420.105	1706.64
420.313	1784.46
420.521	1954.44
420.729	1923.73
420.937	1923.73
421.145	1976.97
421.353	2105.99
421.561	2089.61
421.769	2341.51
421.977	2454.15
422.185	2265.74
422.393	2476.68
422.601	2646.66
422.809	2620.03
423.017	2521.73
423.224	2779.78
423.432	2810.5
423.64	2841.22
423.848	3170.94
424.056	3021.44
424.263	3121.79
424.471	3228.28
424.679	3320.44
424.887	3476.09
425.094	3471.99
425.302	3566.2
425.51	3537.52
425.718	3791.47
425.925	3764.85
426.133	4082.28
426.341	4291.18
426.548	4366.95
426.756	4536.93
426.964	4594.28
427.171	4684.39
427.379	4842.08
427.586	5010.01
427.794	5077.6
428.001	5325.4
428.209	5522.01
428.417	5339.74
428.624	6052.43
428.832	5831.25
429.039	5683.8
429.247	5917.26
429.454	6298.19
429.662	6806.08
429.869	6302.28
430.076	6791.75
430.284	6462.02
430.491	6810.18
430.699	7184.96
430.906	7332.41
431.114	7498.3
431.321	7584.31
431.528	7780.92
431.736	8401.45
431.943	8757.8
432.15	8198.7
432.358	8624.68
432.565	8987.17
432.772	8950.31
432.979	9474.59
433.187	9693.72
433.394	9380.38
433.601	10320.4
433.808	10256.91
434.016	10140.18
434.223	10406.41
434.43	11452.92
434.637	11045.38
434.844	11756.02
435.052	11917.81
435.259	11864.57
435.466	11987.44
435.673	11919.86
435.88	12863.97
436.087	13079.01
436.294	13246.94
436.501	12954.08
436.708	13212.13
436.915	13588.96
437.122	14301.65
437.329	14092.76
437.537	14590.41
437.743	14725.58
437.95	14772.68
438.157	15598.01
438.364	15901.11
438.571	16120.24
438.778	16277.94
438.985	17748.38
439.192	17025.45
439.399	17451.42
439.606	17072.55
439.813	18114.97
440.02	19022.22
440.227	18872.71
440.433	18606.48
440.64	19143.05
440.847	19126.66
441.054	19526.02
441.261	20941.16
441.467	20433.27
441.674	20926.83
441.881	21780.83
442.088	21623.14
442.294	21606.75
442.501	22122.84
442.708	22694.22
442.914	23408.97
443.121	24469.81
443.328	23781.7
443.534	25164.07
443.741	24453.43
443.948	24193.34
444.154	25848.1
444.361	25944.35
444.568	25831.71
444.774	26095.9
444.981	26235.16
445.187	26816.79
445.394	28422.39
445.6	27666.69
445.807	30392.54
446.013	29067.5
446.22	29440.23
446.426	30413.02
446.633	30988.5
446.839	32329.92
447.046	30746.84
447.252	32608.44
447.459	32696.5
447.665	32407.74
447.871	33755.3
448.078	35195.03
448.284	33484.97
448.491	34345.12
448.697	36143.24
448.903	36253.83
449.11	36380.8
449.316	36026.5
449.522	36434.05
449.728	37757.03
449.935	38176.87
450.141	37849.19
450.347	38836.31
450.553	37306.48
450.76	38094.95
450.966	39299.15
451.172	38922.33
451.378	40177.73
451.584	38926.42
451.791	40003.66
451.997	39712.84
452.203	40523.84
452.409	40173.64
452.615	40116.29
452.821	38707.29
453.027	38260.83
453.233	40325.19
453.44	38834.27
453.646	39764.04
453.852	39952.46
454.058	40294.47
454.264	38920.28
454.47	40230.98
454.676	38639.71
454.882	40001.61
455.088	36241.54
455.294	37199.99
455.5	37836.91
455.705	38209.64
455.911	36710.52
456.117	36063.36
456.323	35596.43
456.529	33747.11
456.735	35553.42
456.941	34445.47
457.147	34050.21
457.352	32970.93
457.558	32438.46
457.764	32387.26
457.97	32057.54
458.176	31056.08
458.381	31338.7
458.587	29786.34
458.793	29741.28
458.999	28145.92
459.204	30511.32
459.41	29640.93
459.616	27443.46
459.821	27625.73
460.027	27898.11
460.233	27136.27
460.438	25600.29
460.644	25850.14
460.85	24707.38
461.055	24580.4
461.261	24217.91
461.466	22487.38
461.672	22055.26
461.878	23658.82
462.083	21844.32
462.289	21367.14
462.494	21252.45
462.7	20242.81
462.905	19808.64
463.111	20742.51
463.316	20511.09
463.522	19966.33
463.727	20146.55
463.932	20355.44
464.138	19677.57
464.343	20076.92
464.549	19159.43
464.754	20013.43
464.959	20087.16
465.165	19282.31
465.37	18878.86
465.575	18278.8
465.781	19030.41
465.986	19356.04
466.191	18438.55
466.397	17996.18
466.602	17265.06
466.807	17818.01
467.012	17883.55
