Data from USB4F104151__141__14-19-17-872.txt Node

Date: Thu Mar 13 14:19:17 EDT 2025
User: louis
Spectrometer: USB4F10415
Trigger mode: 4
Integration Time (sec): 2.000000E-2
Scans to average: 1
Electric dark correction enabled: true
Nonlinearity correction enabled: false
Boxcar width: 0
XAxis mode: Wavelengths
Number of Pixels in Spectrum: 3648
>>>>>Begin Spectral Data<<<<<
178.204	-50.69
178.424	-50.69
178.644	-50.69
178.864	-52.74
179.084	-87.55
179.304	12.8
179.524	-42.5
179.744	-28.16
179.964	18.94
180.184	-38.4
180.404	18.94
180.624	-22.02
180.844	84.48
181.064	-3.58
181.283	41.47
181.503	4.61
181.723	-46.59
181.943	45.57
182.163	45.57
182.383	10.75
182.602	96.77
182.822	68.09
183.042	29.18
183.262	68.09
183.482	29.18
183.701	92.67
183.921	166.4
184.141	-32.26
184.361	104.96
184.58	53.76
184.8	27.14
185.02	27.14
185.239	43.52
185.459	98.81
185.679	55.81
185.898	70.14
186.118	68.09
186.338	90.62
186.557	94.72
186.777	47.62
186.997	14.85
187.216	29.18
187.436	127.49
187.655	92.67
187.875	-1.54
188.095	2.56
188.314	76.29
188.534	37.38
188.753	53.76
188.973	100.86
189.192	18.94
189.412	80.38
189.631	74.24
189.851	43.52
190.07	141.82
190.29	-13.82
190.509	43.52
190.729	2.56
190.948	88.57
191.168	133.63
191.387	104.96
191.607	29.18
191.826	80.38
192.045	12.8
192.265	76.29
192.484	12.8
192.704	27.14
192.923	23.04
193.142	10.75
193.362	55.81
193.581	35.33
193.8	68.09
194.02	23.04
194.239	41.47
194.458	78.33
194.678	47.62
194.897	49.66
195.116	51.71
195.335	18.94
195.555	74.24
195.774	6.66
195.993	27.14
196.212	72.19
196.432	51.71
196.651	39.42
196.87	27.14
197.089	152.06
197.308	0.51
197.528	133.63
197.747	37.38
197.966	35.33
198.185	59.9
198.404	27.14
198.623	76.29
198.842	68.09
199.062	145.92
199.281	64
199.5	100.86
199.719	29.18
199.938	86.53
200.157	27.14
200.376	109.05
200.595	2.56
200.814	2.56
201.033	20.99
201.252	113.15
201.471	84.48
201.69	55.81
201.909	102.91
202.128	72.19
202.347	18.94
202.566	100.86
202.785	51.71
203.004	18.94
203.223	59.9
203.442	59.9
203.661	-22.02
203.879	137.73
204.098	117.25
204.317	27.14
204.536	111.1
204.755	43.52
204.974	-5.63
205.193	-15.87
205.411	127.49
205.63	27.14
205.849	98.81
206.068	55.81
206.287	39.42
206.505	61.95
206.724	76.29
206.943	37.38
207.162	27.14
207.381	59.9
207.599	39.42
207.818	41.47
208.037	88.57
208.255	43.52
208.474	68.09
208.693	64
208.911	78.33
209.13	51.71
209.349	29.18
209.567	88.57
209.786	61.95
210.005	61.95
210.223	2.56
210.442	143.87
210.661	66.05
210.879	51.71
211.098	47.62
211.316	92.67
211.535	84.48
211.753	59.9
211.972	23.04
212.191	29.18
212.409	59.9
212.628	51.71
212.846	68.09
213.065	102.91
213.283	59.9
213.502	92.67
213.72	64
213.938	0.51
214.157	35.33
214.375	143.87
214.594	-5.63
214.812	80.38
215.031	94.72
215.249	88.57
215.467	94.72
215.686	10.75
215.904	141.82
216.122	37.38
216.341	135.68
216.559	25.09
216.778	51.71
216.996	84.48
217.214	94.72
217.432	121.34
217.651	10.75
217.869	12.8
218.087	23.04
218.306	121.34
218.524	59.9
218.742	96.77
218.96	35.33
219.179	31.23
219.397	-54.78
219.615	119.29
219.833	125.44
220.051	59.9
220.27	57.86
220.488	100.86
220.706	6.66
220.924	45.57
221.142	27.14
221.36	121.34
221.578	68.09
221.796	80.38
222.015	100.86
222.233	29.18
222.451	23.04
222.669	27.14
222.887	64
223.105	39.42
223.323	10.75
223.541	-7.68
223.759	18.94
223.977	76.29
224.195	66.05
224.413	96.77
224.631	31.23
224.849	82.43
225.067	133.63
225.285	80.38
225.503	53.76
225.721	31.23
225.939	53.76
226.157	55.81
226.375	184.83
226.592	2.56
226.81	88.57
227.028	111.1
227.246	80.38
227.464	98.81
227.682	27.14
227.9	16.9
228.117	12.8
228.335	-13.82
228.553	86.53
228.771	61.95
228.989	82.43
229.206	33.28
229.424	31.23
229.642	51.71
229.86	33.28
230.077	150.01
230.295	51.71
230.513	84.48
230.731	133.63
230.948	68.09
231.166	64
231.384	18.94
231.601	2.56
231.819	74.24
232.037	70.14
232.254	-13.82
232.472	98.81
232.689	123.39
232.907	78.33
233.125	33.28
233.342	76.29
233.56	31.23
233.777	74.24
233.995	98.81
234.213	174.59
234.43	37.38
234.648	20.99
234.865	23.04
235.083	104.96
235.3	27.14
235.518	133.63
235.735	70.14
235.953	102.91
236.17	53.76
236.388	37.38
236.605	72.19
236.822	178.69
237.04	64
237.257	47.62
237.475	23.04
237.692	88.57
237.909	39.42
238.127	27.14
238.344	25.09
238.562	45.57
238.779	51.71
238.996	12.8
239.214	45.57
239.431	102.91
239.648	94.72
239.865	51.71
240.083	55.81
240.3	53.76
240.517	70.14
240.735	-3.58
240.952	68.09
241.169	20.99
241.386	92.67
241.603	45.57
241.821	41.47
242.038	82.43
242.255	59.9
242.472	10.75
242.689	35.33
242.907	61.95
243.124	-17.92
243.341	84.48
243.558	33.28
243.775	31.23
243.992	18.94
244.209	135.68
244.426	119.29
244.643	29.18
244.86	47.62
245.078	70.14
245.295	-5.63
245.512	-28.16
245.729	25.09
245.946	78.33
246.163	33.28
246.38	66.05
246.597	-5.63
246.814	-1.54
247.031	37.38
247.248	23.04
247.464	27.14
247.681	51.71
247.898	43.52
248.115	29.18
248.332	20.99
248.549	55.81
248.766	100.86
248.983	102.91
249.2	31.23
249.417	84.48
249.633	107.01
249.85	84.48
250.067	25.09
250.284	27.14
250.501	135.68
250.717	113.15
250.934	8.7
251.151	27.14
251.368	29.18
251.585	109.05
251.801	43.52
252.018	43.52
252.235	18.94
252.451	39.42
252.668	70.14
252.885	18.94
253.102	86.53
253.318	92.67
253.535	70.14
253.752	35.33
253.968	78.33
254.185	41.47
254.401	27.14
254.618	23.04
254.835	84.48
255.051	96.77
255.268	59.9
255.484	78.33
255.701	78.33
255.917	35.33
256.134	10.75
256.351	45.57
256.567	-9.73
256.784	37.38
257	-38.4
257.217	45.57
257.433	10.75
257.65	109.05
257.866	33.28
258.082	41.47
258.299	-30.21
258.515	59.9
258.732	53.76
258.948	51.71
259.165	-13.82
259.381	27.14
259.597	59.9
259.814	25.09
260.03	45.57
260.246	109.05
260.463	12.8
260.679	59.9
260.895	55.81
261.112	10.75
261.328	125.44
261.544	53.76
261.761	113.15
261.977	109.05
262.193	16.9
262.409	127.49
262.626	25.09
262.842	100.86
263.058	4.61
263.274	86.53
263.49	47.62
263.707	27.14
263.923	35.33
264.139	18.94
264.355	86.53
264.571	70.14
264.787	43.52
265.004	68.09
265.22	4.61
265.436	61.95
265.652	37.38
265.868	59.9
266.084	66.05
266.3	96.77
266.516	80.38
266.732	-26.11
266.948	100.86
267.164	8.7
267.38	100.86
267.596	70.14
267.812	61.95
268.028	78.33
268.244	51.71
268.46	86.53
268.676	43.52
268.892	78.33
269.108	0.51
269.324	76.29
269.54	57.86
269.756	104.96
269.972	-30.21
270.188	35.33
270.403	104.96
270.619	66.05
270.835	39.42
271.051	0.51
271.267	16.9
271.483	70.14
271.698	4.61
271.914	-38.4
272.13	92.67
272.346	80.38
272.562	125.44
272.777	117.25
272.993	96.77
273.209	59.9
273.425	102.91
273.64	35.33
273.856	43.52
274.072	10.75
274.287	84.48
274.503	84.48
274.719	37.38
274.934	37.38
275.15	57.86
275.366	29.18
275.581	4.61
275.797	8.7
276.012	39.42
276.228	115.2
276.444	96.77
276.659	68.09
276.875	125.44
277.09	45.57
277.306	10.75
277.521	37.38
277.737	66.05
277.952	78.33
278.168	18.94
278.383	51.71
278.599	64
278.814	33.28
279.03	29.18
279.245	133.63
279.461	137.73
279.676	88.57
279.892	-28.16
280.107	111.1
280.322	33.28
280.538	80.38
280.753	82.43
280.969	84.48
281.184	18.94
281.399	72.19
281.615	23.04
281.83	127.49
282.045	20.99
282.26	64
282.476	92.67
282.691	125.44
282.906	35.33
283.122	37.38
283.337	-15.87
283.552	80.38
283.767	4.61
283.983	12.8
284.198	29.18
284.413	14.85
284.628	76.29
284.843	35.33
285.058	31.23
285.274	53.76
285.489	72.19
285.704	76.29
285.919	55.81
286.134	125.44
286.349	78.33
286.564	-7.68
286.779	68.09
286.995	10.75
287.21	-38.4
287.425	119.29
287.64	31.23
287.855	51.71
288.07	-3.58
288.285	55.81
288.5	2.56
288.715	-28.16
288.93	45.57
289.145	23.04
289.36	86.53
289.575	100.86
289.79	-13.82
290.004	94.72
290.219	76.29
290.434	47.62
290.649	-30.21
290.864	70.14
291.079	61.95
291.294	-3.58
291.509	31.23
291.724	100.86
291.938	53.76
292.153	37.38
292.368	41.47
292.583	90.62
292.798	102.91
293.012	137.73
293.227	96.77
293.442	78.33
293.657	70.14
293.871	109.05
294.086	86.53
294.301	102.91
294.516	53.76
294.73	98.81
294.945	-9.73
295.16	23.04
295.374	39.42
295.589	12.8
295.804	39.42
296.018	18.94
296.233	125.44
296.447	59.9
296.662	92.67
296.877	18.94
297.091	86.53
297.306	53.76
297.52	43.52
297.735	49.66
297.949	94.72
298.164	117.25
298.378	51.71
298.593	-3.58
298.807	57.86
299.022	18.94
299.236	133.63
299.451	18.94
299.665	14.85
299.88	102.91
300.094	41.47
300.309	45.57
300.523	80.38
300.737	37.38
300.952	107.01
301.166	35.33
301.381	-13.82
301.595	72.19
301.809	59.9
302.024	45.57
302.238	-9.73
302.452	12.8
302.667	2.56
302.881	131.58
303.095	64
303.309	33.28
303.524	45.57
303.738	78.33
303.952	70.14
304.166	156.16
304.381	49.66
304.595	35.33
304.809	-17.92
305.023	57.86
305.237	-13.82
305.452	43.52
305.666	90.62
305.88	102.91
306.094	78.33
306.308	59.9
306.522	117.25
306.736	137.73
306.95	29.18
307.164	37.38
307.379	92.67
307.593	68.09
307.807	121.34
308.021	47.62
308.235	113.15
308.449	-5.63
308.663	96.77
308.877	76.29
309.091	88.57
309.305	102.91
309.519	-65.02
309.733	33.28
309.947	117.25
310.161	27.14
310.374	59.9
310.588	47.62
310.802	-22.02
311.016	49.66
311.23	104.96
311.444	47.62
311.658	61.95
311.872	84.48
312.085	45.57
312.299	59.9
312.513	23.04
312.727	55.81
312.941	4.61
313.154	68.09
313.368	27.14
313.582	94.72
313.796	74.24
314.009	102.91
314.223	125.44
314.437	94.72
314.651	76.29
314.864	14.85
315.078	84.48
315.292	80.38
315.505	59.9
315.719	78.33
315.933	104.96
316.146	80.38
316.36	0.51
316.573	84.48
316.787	76.29
317.001	170.49
317.214	23.04
317.428	35.33
317.641	-17.92
317.855	18.94
318.068	98.81
318.282	88.57
318.495	59.9
318.709	121.34
318.922	-22.02
319.136	86.53
319.349	84.48
319.563	55.81
319.776	141.82
319.99	35.33
320.203	82.43
320.417	100.86
320.63	78.33
320.843	117.25
321.057	70.14
321.27	51.71
321.483	-13.82
321.697	72.19
321.91	76.29
322.124	94.72
322.337	41.47
322.55	59.9
322.763	51.71
322.977	43.52
323.19	59.9
323.403	57.86
323.617	43.52
323.83	84.48
324.043	31.23
324.256	45.57
324.469	98.81
324.683	113.15
324.896	80.38
325.109	84.48
325.322	88.57
325.535	115.2
325.748	152.06
325.962	84.48
326.175	18.94
326.388	84.48
326.601	143.87
326.814	76.29
327.027	33.28
327.24	59.9
327.453	35.33
327.666	18.94
327.879	102.91
328.092	61.95
328.305	2.56
328.518	84.48
328.731	88.57
328.944	39.42
329.157	86.53
329.37	109.05
329.583	35.33
329.796	20.99
330.009	-44.54
330.222	70.14
330.435	53.76
330.648	84.48
330.861	20.99
331.073	84.48
331.286	29.18
331.499	59.9
331.712	-11.78
331.925	6.66
332.138	23.04
332.35	90.62
332.563	-13.82
332.776	150.01
332.989	59.9
333.202	6.66
333.414	45.57
333.627	100.86
333.84	12.8
334.053	113.15
334.265	76.29
334.478	66.05
334.691	-42.5
334.903	117.25
335.116	92.67
335.329	37.38
335.541	45.57
335.754	127.49
335.966	-9.73
336.179	64
336.392	45.57
336.604	29.18
336.817	80.38
337.029	12.8
337.242	18.94
337.454	-13.82
337.667	27.14
337.88	18.94
338.092	150.01
338.305	94.72
338.517	115.2
338.729	35.33
338.942	127.49
339.154	55.81
339.367	45.57
339.579	20.99
339.792	100.86
340.004	12.8
340.217	88.57
340.429	78.33
340.641	23.04
340.854	6.66
341.066	-1.54
341.278	41.47
341.491	145.92
341.703	43.52
341.915	23.04
342.128	80.38
342.34	94.72
342.552	23.04
342.764	23.04
342.977	104.96
343.189	145.92
343.401	59.9
343.613	16.9
343.826	84.48
344.038	0.51
344.25	29.18
344.462	-30.21
344.674	35.33
344.886	41.47
345.099	137.73
345.311	12.8
345.523	76.29
345.735	115.2
345.947	141.82
346.159	18.94
346.371	90.62
346.583	80.38
346.795	64
347.007	45.57
347.219	-5.63
347.431	20.99
347.643	80.38
347.855	43.52
348.067	109.05
348.279	78.33
348.491	133.63
348.703	16.9
348.915	-13.82
349.127	-5.63
349.339	72.19
349.551	96.77
349.763	51.71
349.975	51.71
350.187	76.29
350.399	109.05
350.61	104.96
350.822	27.14
351.034	18.94
351.246	92.67
351.458	76.29
351.669	59.9
351.881	90.62
352.093	53.76
352.305	94.72
352.517	45.57
352.728	111.1
352.94	14.85
353.152	37.38
353.363	45.57
353.575	104.96
353.787	109.05
353.999	41.47
354.21	135.68
354.422	100.86
354.633	86.53
354.845	25.09
355.057	84.48
355.268	131.58
355.48	64
355.692	29.18
355.903	113.15
356.115	12.8
356.326	29.18
356.538	143.87
356.749	35.33
356.961	133.63
357.172	45.57
357.384	20.99
357.595	94.72
357.807	113.15
358.018	61.95
358.23	47.62
358.441	145.92
358.653	111.1
358.864	96.77
359.075	61.95
359.287	4.61
359.498	92.67
359.709	20.99
359.921	59.9
360.132	23.04
360.344	76.29
360.555	59.9
360.766	59.9
360.977	35.33
361.189	86.53
361.4	70.14
361.611	143.87
361.823	84.48
362.034	70.14
362.245	-22.02
362.456	72.19
362.667	14.85
362.879	166.4
363.09	98.81
363.301	49.66
363.512	70.14
363.723	6.66
363.935	-1.54
364.146	150.01
364.357	104.96
364.568	80.38
364.779	82.43
364.99	35.33
365.201	57.86
365.412	184.83
365.623	27.14
365.834	98.81
366.045	37.38
366.256	70.14
366.467	0.51
366.678	43.52
366.889	18.94
367.1	10.75
367.311	55.81
367.522	88.57
367.733	100.86
367.944	92.67
368.155	59.9
368.366	35.33
368.577	51.71
368.788	100.86
368.999	12.8
369.209	68.09
369.42	127.49
369.631	125.44
369.842	59.9
370.053	125.44
370.264	100.86
370.474	78.33
370.685	59.9
370.896	68.09
371.107	68.09
371.317	88.57
371.528	-3.58
371.739	43.52
371.95	109.05
372.16	33.28
372.371	76.29
372.582	70.14
372.792	102.91
373.003	27.14
373.214	51.71
373.424	123.39
373.635	113.15
373.846	156.16
374.056	70.14
374.267	68.09
374.477	82.43
374.688	102.91
374.898	35.33
375.109	84.48
375.319	68.09
375.53	16.9
375.74	129.53
375.951	6.66
376.161	143.87
376.372	68.09
376.582	43.52
376.793	129.53
377.003	84.48
377.214	18.94
377.424	100.86
377.635	84.48
377.845	20.99
378.055	92.67
378.266	59.9
378.476	78.33
378.686	12.8
378.897	72.19
379.107	82.43
379.317	41.47
379.528	109.05
379.738	86.53
379.948	37.38
380.158	94.72
380.369	92.67
380.579	37.38
380.789	64
380.999	100.86
381.21	182.78
381.42	94.72
381.63	70.14
381.84	117.25
382.05	0.51
382.261	47.62
382.471	12.8
382.681	94.72
382.891	88.57
383.101	18.94
383.311	23.04
383.521	88.57
383.731	-5.63
383.941	64
384.151	133.63
384.361	78.33
384.571	35.33
384.781	102.91
384.991	72.19
385.201	182.78
385.411	109.05
385.621	37.38
385.831	107.01
386.041	115.2
386.251	78.33
386.461	182.78
386.671	27.14
386.881	20.99
387.091	84.48
387.301	82.43
387.511	39.42
387.72	129.53
387.93	61.95
388.14	68.09
388.35	-9.73
388.56	111.1
388.769	109.05
388.979	100.86
389.189	86.53
389.399	139.77
389.609	150.01
389.818	109.05
390.028	133.63
390.238	59.9
390.447	123.39
390.657	133.63
390.867	-5.63
391.076	12.8
391.286	86.53
391.496	70.14
391.705	100.86
391.915	100.86
392.125	39.42
392.334	84.48
392.544	119.29
392.753	70.14
392.963	70.14
393.172	96.77
393.382	59.9
393.591	137.73
393.801	59.9
394.01	158.21
394.22	141.82
394.429	117.25
394.639	127.49
394.848	59.9
395.058	47.62
395.267	100.86
395.477	35.33
395.686	135.68
395.895	139.77
396.105	111.1
396.314	76.29
396.524	133.63
396.733	18.94
396.942	125.44
397.152	150.01
397.361	86.53
397.57	158.21
397.78	18.94
397.989	121.34
398.198	121.34
398.407	111.1
398.617	111.1
398.826	160.25
399.035	70.14
399.244	127.49
399.453	78.33
399.663	154.11
399.872	125.44
400.081	35.33
400.29	174.59
400.499	98.81
400.708	158.21
400.917	125.44
401.127	127.49
401.336	51.71
401.545	66.05
401.754	100.86
401.963	92.67
402.172	68.09
402.381	96.77
402.59	98.81
402.799	184.83
403.008	117.25
403.217	102.91
403.426	160.25
403.635	172.54
403.844	133.63
404.053	174.59
404.262	141.82
404.471	184.83
404.68	184.83
404.888	190.97
405.097	119.29
405.306	80.38
405.515	158.21
405.724	117.25
405.933	207.36
406.142	143.87
406.35	96.77
406.559	178.69
406.768	141.82
406.977	236.03
407.185	215.55
407.394	223.74
407.603	135.68
407.812	203.26
408.02	242.17
408.229	154.11
408.438	301.56
408.646	213.5
408.855	203.26
409.064	246.27
409.272	207.36
409.481	215.55
409.69	199.16
409.898	281.08
410.107	229.88
410.315	260.6
410.524	264.7
410.733	328.19
410.941	303.61
411.15	336.38
411.358	354.81
411.567	342.52
411.775	258.56
411.984	350.71
412.192	332.28
412.401	289.28
412.609	334.33
412.818	453.11
413.026	434.68
413.234	373.24
413.443	369.15
413.651	412.15
413.86	465.4
414.068	594.42
414.276	592.37
414.485	532.98
414.693	575.99
414.901	492.02
415.11	551.42
415.318	502.26
415.526	526.84
415.734	659.96
415.943	633.33
416.151	674.29
416.359	631.29
416.567	715.25
416.776	662.01
416.984	743.92
417.192	756.21
417.4	831.99
417.608	752.12
417.817	827.89
418.025	821.75
418.233	915.95
418.441	848.37
418.649	895.47
418.857	940.53
419.065	971.25
419.273	1018.35
419.481	1010.16
419.689	1051.12
419.897	1151.47
420.105	1137.13
420.313	1182.19
420.521	1274.35
420.729	1245.68
420.937	1257.96
421.145	1305.07
421.353	1362.41
421.561	1427.95
421.769	1503.72
421.977	1524.2
422.185	1542.63
422.393	1599.98
422.601	1741.29
422.809	1669.61
423.017	1751.53
423.224	1796.58
423.432	1837.54
423.64	1788.39
423.848	1950.18
424.056	2011.62
424.263	2120.16
424.471	2083.3
424.679	2107.87
424.887	2353.63
425.094	2333.15
425.302	2341.34
425.51	2513.37
425.718	2402.78
425.925	2558.42
426.133	2806.23
426.341	2791.89
426.548	2863.57
426.756	2896.34
426.964	2976.21
427.171	2968.02
427.379	3193.3
427.586	3299.79
427.794	3271.12
428.001	3371.47
428.209	3713.48
428.417	3631.56
428.624	3856.84
428.832	3830.21
429.039	3695.05
429.247	3609.03
429.454	4125.12
429.662	4442.56
429.869	4190.66
430.076	4458.94
430.284	4270.53
430.491	4643.26
430.699	4823.48
430.906	4805.05
431.114	4712.89
431.321	4970.93
431.528	5095.86
431.736	5380.53
431.943	5501.36
432.15	5384.62
432.358	5663.15
432.565	5829.03
432.772	5900.71
432.979	6093.22
433.187	6281.63
433.394	6300.06
433.601	6664.6
433.808	6814.1
434.016	6533.53
434.223	6850.97
434.43	7371.15
434.637	7240.08
434.844	7532.94
435.052	7696.78
435.259	7594.38
435.466	7666.06
435.673	7811.46
435.88	8079.75
436.087	8655.23
436.294	8575.36
436.501	8452.48
436.708	8778.11
436.915	8999.29
437.122	9195.89
437.329	9101.69
437.537	9552.24
437.743	9754.99
437.95	9513.33
438.157	10103.14
438.364	10434.91
438.571	10529.12
438.778	10479.97
438.985	11563.34
439.192	10944.86
439.399	11571.54
439.606	11186.52
439.813	11700.56
440.02	12321.09
440.227	12386.63
440.433	12167.49
440.64	12581.18
440.847	12462.4
441.054	12900.67
441.261	13625.65
441.467	13392.18
441.674	13785.39
441.881	14199.08
442.088	13920.56
442.294	13750.57
442.501	14235.94
442.708	14631.2
442.914	15216.92
443.121	15976.72
443.328	15315.22
443.534	16470.28
443.741	16115.98
443.948	15827.21
444.154	16863.49
444.361	16800
444.568	16935.17
444.774	17119.48
444.981	17174.78
445.187	17676.53
445.394	18378.98
445.6	18147.56
445.807	19949.78
446.013	18983.13
446.22	19407.06
446.426	19906.77
446.633	20508.87
446.839	21045.44
447.046	20203.72
447.252	21043.39
447.459	21686.45
447.665	21151.93
447.871	22251.69
448.078	23081.12
448.284	22014.13
448.491	22456.49
448.697	23548.06
448.903	23947.41
449.11	23926.93
449.316	23324.83
449.522	23902.36
449.728	24860.8
449.935	24606.86
450.141	24406.16
450.347	25524.35
450.553	24651.91
450.76	25092.23
450.966	25835.64
451.172	25200.77
451.378	26097.78
451.584	25471.1
451.791	26089.59
451.997	26331.25
452.203	26675.3
452.409	26505.32
452.615	26437.74
452.821	25284.73
453.027	25346.17
453.233	26515.56
453.44	25716.86
453.646	25987.19
453.852	25831.54
454.058	26339.44
454.264	25563.26
454.47	26394.73
454.676	25729.14
454.882	26488.94
455.088	24189.07
455.294	24678.54
455.5	24971.39
455.705	25335.93
455.911	24164.5
456.117	23914.64
456.323	23292.06
456.529	22171.82
456.735	23144.61
456.941	22489.26
457.147	22552.74
457.352	21541.05
457.558	21708.98
457.764	21539
457.97	20979.9
458.176	20873.41
458.381	20558.02
458.587	19861.71
458.793	19734.74
458.999	18643.17
459.204	20058.32
459.41	19626.2
459.616	18462.95
459.821	18135.28
460.027	18165.99
460.233	17787.12
460.438	16806.14
460.644	17074.43
460.85	16281.86
461.055	16085.26
461.261	15823.12
461.466	15028.51
461.672	14536.99
461.878	15608.08
462.083	14446.88
462.289	14324.01
462.494	13967.66
462.7	13224.25
462.905	13060.41
463.111	13478.19
463.316	13551.92
463.522	13347.12
463.727	13052.22
463.932	13193.53
464.138	13115.7
464.343	12896.57
464.549	12595.52
464.754	13144.38
464.959	13084.98
465.165	12951.87
465.37	12235.08
465.575	11897.16
465.781	12523.84
465.986	12570.94
466.191	12087.62
466.397	11848.01
466.602	11235.67
466.807	11723.09
467.012	11747.66
467.218	11673.93
