Data from USB4F104151__188__14-20-19-590.txt Node

Date: Thu Mar 13 14:20:19 EDT 2025
User: louis
Spectrometer: USB4F10415
Trigger mode: 4
Integration Time (sec): 2.000000E-2
Scans to average: 1
Electric dark correction enabled: true
Nonlinearity correction enabled: false
Boxcar width: 0
XAxis mode: Wavelengths
Number of Pixels in Spectrum: 3648
>>>>>Begin Spectral Data<<<<<
178.204	-146.43
178.424	-146.43
178.644	-146.43
178.864	-162.81
179.084	-56.32
179.304	-39.94
179.524	-25.6
179.744	-23.55
179.964	35.84
180.184	-15.36
180.404	-54.27
180.624	19.46
180.844	39.94
181.064	11.26
181.283	50.18
181.503	31.74
181.723	-29.7
181.943	-109.57
182.163	41.98
182.383	1.02
182.602	9.22
182.822	-39.94
183.042	9.22
183.262	-3.07
183.482	29.7
183.701	3.07
183.921	19.46
184.141	11.26
184.361	33.79
184.58	50.18
184.8	9.22
185.02	3.07
185.239	11.26
185.459	-11.26
185.679	9.22
185.898	27.65
186.118	23.55
186.338	-19.46
186.557	74.75
186.777	-39.94
186.997	44.03
187.216	-60.42
187.436	54.27
187.655	-7.17
187.875	-35.84
188.095	15.36
188.314	25.6
188.534	64.51
188.753	21.5
188.973	-23.55
189.192	13.31
189.412	35.84
189.631	-46.08
189.851	60.42
190.07	46.08
190.29	-3.07
190.509	29.7
190.729	46.08
190.948	-21.5
191.168	91.13
191.387	62.46
191.607	48.13
191.826	-11.26
192.045	33.79
192.265	-7.17
192.484	64.51
192.704	19.46
192.923	31.74
193.142	95.23
193.362	87.04
193.581	91.13
193.8	-21.5
194.02	58.37
194.239	60.42
194.458	41.98
194.678	5.12
194.897	19.46
195.116	-7.17
195.335	80.89
195.555	58.37
195.774	17.41
195.993	17.41
196.212	-48.13
196.432	13.31
196.651	3.07
196.87	-68.61
197.089	115.71
197.308	-35.84
197.528	50.18
197.747	-11.26
197.966	-21.5
198.185	39.94
198.404	-11.26
198.623	11.26
198.842	58.37
199.062	70.65
199.281	66.56
199.5	50.18
199.719	-15.36
199.938	17.41
200.157	134.14
200.376	33.79
200.595	107.52
200.814	29.7
201.033	13.31
201.252	68.61
201.471	72.7
201.69	103.42
201.909	25.6
202.128	41.98
202.347	44.03
202.566	46.08
202.785	-13.31
203.004	1.02
203.223	52.22
203.442	37.89
203.661	33.79
203.879	-5.12
204.098	119.81
204.317	-13.31
204.536	35.84
204.755	3.07
204.974	9.22
205.193	39.94
205.411	27.65
205.63	-5.12
205.849	-3.07
206.068	29.7
206.287	-68.61
206.505	132.09
206.724	-44.03
206.943	-31.74
207.162	9.22
207.381	29.7
207.599	70.65
207.818	1.02
208.037	-48.13
208.255	15.36
208.474	74.75
208.693	-39.94
208.911	-21.5
209.13	-39.94
209.349	72.7
209.567	-3.07
209.786	31.74
210.005	-23.55
210.223	52.22
210.442	-13.31
210.661	44.03
210.879	-31.74
211.098	56.32
211.316	41.98
211.535	91.13
211.753	21.5
211.972	52.22
212.191	29.7
212.409	13.31
212.628	70.65
212.846	41.98
213.065	84.99
213.283	66.56
213.502	-7.17
213.72	46.08
213.938	-39.94
214.157	-7.17
214.375	41.98
214.594	-3.07
214.812	23.55
215.031	48.13
215.249	-23.55
215.467	-29.7
215.686	25.6
215.904	-15.36
216.122	-39.94
216.341	123.9
216.559	9.22
216.778	5.12
216.996	19.46
217.214	21.5
217.432	5.12
217.651	9.22
217.869	37.89
218.087	-11.26
218.306	33.79
218.524	74.75
218.742	41.98
218.96	-7.17
219.179	-29.7
219.397	9.22
219.615	93.18
219.833	1.02
220.051	5.12
220.27	58.37
220.488	95.23
220.706	44.03
220.924	-3.07
221.142	-21.5
221.36	33.79
221.578	68.61
221.796	109.57
222.015	-44.03
222.233	-39.94
222.451	60.42
222.669	52.22
222.887	93.18
223.105	-13.31
223.323	-56.32
223.541	-5.12
223.759	44.03
223.977	-23.55
224.195	17.41
224.413	95.23
224.631	58.37
224.849	-39.94
225.067	107.52
225.285	33.79
225.503	41.98
225.721	-5.12
225.939	52.22
226.157	-35.84
226.375	33.79
226.592	-31.74
226.81	-15.36
227.028	11.26
227.246	82.94
227.464	-7.17
227.682	17.41
227.9	17.41
228.117	27.65
228.335	-46.08
228.553	-5.12
228.771	33.79
228.989	-76.8
229.206	-13.31
229.424	-7.17
229.642	-64.51
229.86	-31.74
230.077	64.51
230.295	-15.36
230.513	76.8
230.731	37.89
230.948	105.47
231.166	58.37
231.384	27.65
231.601	44.03
231.819	35.84
232.037	11.26
232.254	66.56
232.472	58.37
232.689	-72.7
232.907	9.22
233.125	-31.74
233.342	19.46
233.56	-56.32
233.777	50.18
233.995	48.13
234.213	15.36
234.43	-39.94
234.648	41.98
234.865	-15.36
235.083	58.37
235.3	1.02
235.518	13.31
235.735	17.41
235.953	33.79
236.17	13.31
236.388	35.84
236.605	-15.36
236.822	3.07
237.04	76.8
237.257	-19.46
237.475	33.79
237.692	48.13
237.909	5.12
238.127	-7.17
238.344	25.6
238.562	11.26
238.779	25.6
238.996	1.02
239.214	11.26
239.431	-19.46
239.648	41.98
239.865	31.74
240.083	-15.36
240.3	5.12
240.517	11.26
240.735	1.02
240.952	15.36
241.169	9.22
241.386	19.46
241.603	21.5
241.821	25.6
242.038	25.6
242.255	87.04
242.472	-23.55
242.689	35.84
242.907	44.03
243.124	-7.17
243.341	41.98
243.558	-27.65
243.775	-29.7
243.992	-27.65
244.209	25.6
244.426	99.33
244.643	87.04
244.86	9.22
245.078	1.02
245.295	15.36
245.512	11.26
245.729	15.36
245.946	-31.74
246.163	25.6
246.38	13.31
246.597	-19.46
246.814	37.89
247.031	17.41
247.248	-5.12
247.464	-31.74
247.681	-27.65
247.898	84.99
248.115	41.98
248.332	46.08
248.549	5.12
248.766	58.37
248.983	33.79
249.2	101.37
249.417	84.99
249.633	35.84
249.85	33.79
250.067	9.22
250.284	9.22
250.501	66.56
250.717	-1.02
250.934	-62.46
251.151	54.27
251.368	-5.12
251.585	41.98
251.801	35.84
252.018	35.84
252.235	52.22
252.451	15.36
252.668	-11.26
252.885	25.6
253.102	-5.12
253.318	-31.74
253.535	-23.55
253.752	52.22
253.968	-35.84
254.185	-7.17
254.401	-15.36
254.618	-41.98
254.835	31.74
255.051	107.52
255.268	99.33
255.484	111.61
255.701	37.89
255.917	19.46
256.134	56.32
256.351	11.26
256.567	-29.7
256.784	50.18
257	-39.94
257.217	33.79
257.433	1.02
257.65	84.99
257.866	15.36
258.082	25.6
258.299	15.36
258.515	76.8
258.732	-62.46
258.948	117.76
259.165	9.22
259.381	-31.74
259.597	25.6
259.814	91.13
260.03	48.13
260.246	19.46
260.463	37.89
260.679	9.22
260.895	60.42
261.112	35.84
261.328	-27.65
261.544	41.98
261.761	99.33
261.977	-15.36
262.193	13.31
262.409	29.7
262.626	35.84
262.842	-1.02
263.058	-78.85
263.274	25.6
263.49	41.98
263.707	70.65
263.923	66.56
264.139	-23.55
264.355	-13.31
264.571	78.85
264.787	1.02
265.004	44.03
265.22	15.36
265.436	-35.84
265.652	25.6
265.868	-7.17
266.084	50.18
266.3	9.22
266.516	-31.74
266.732	1.02
266.948	46.08
267.164	1.02
267.38	35.84
267.596	74.75
267.812	15.36
268.028	9.22
268.244	-13.31
268.46	44.03
268.676	60.42
268.892	9.22
269.108	9.22
269.324	29.7
269.54	-3.07
269.756	25.6
269.972	-19.46
270.188	-35.84
270.403	11.26
270.619	-48.13
270.835	9.22
271.051	-25.6
271.267	-23.55
271.483	25.6
271.698	-15.36
271.914	31.74
272.13	-15.36
272.346	25.6
272.562	5.12
272.777	-29.7
272.993	-19.46
273.209	41.98
273.425	-11.26
273.64	-54.27
273.856	54.27
274.072	-5.12
274.287	7.17
274.503	44.03
274.719	103.42
274.934	9.22
275.15	23.55
275.366	-52.22
275.581	-21.5
275.797	44.03
276.012	15.36
276.228	-48.13
276.444	39.94
276.659	50.18
276.875	-25.6
277.09	15.36
277.306	66.56
277.521	56.32
277.737	5.12
277.952	37.89
278.168	-19.46
278.383	7.17
278.599	-13.31
278.814	23.55
279.03	70.65
279.245	9.22
279.461	52.22
279.676	66.56
279.892	11.26
280.107	17.41
280.322	-21.5
280.538	29.7
280.753	23.55
280.969	58.37
281.184	68.61
281.399	27.65
281.615	84.99
281.83	44.03
282.045	60.42
282.26	21.5
282.476	-23.55
282.691	76.8
282.906	-35.84
283.122	87.04
283.337	-5.12
283.552	84.99
283.767	27.65
283.983	58.37
284.198	54.27
284.413	64.51
284.628	60.42
284.843	13.31
285.058	62.46
285.274	1.02
285.489	62.46
285.704	9.22
285.919	84.99
286.134	58.37
286.349	23.55
286.564	-9.22
286.779	33.79
286.995	74.75
287.21	7.17
287.425	3.07
287.64	-13.31
287.855	33.79
288.07	-46.08
288.285	29.7
288.5	50.18
288.715	41.98
288.93	-15.36
289.145	-25.6
289.36	23.55
289.575	-48.13
289.79	44.03
290.004	-13.31
290.219	33.79
290.434	82.94
290.649	-5.12
290.864	19.46
291.079	87.04
291.294	46.08
291.509	17.41
291.724	-39.94
291.938	-29.7
292.153	93.18
292.368	62.46
292.583	-5.12
292.798	7.17
293.012	84.99
293.227	-5.12
293.442	52.22
293.657	58.37
293.871	33.79
294.086	-7.17
294.301	99.33
294.516	52.22
294.73	44.03
294.945	31.74
295.16	-3.07
295.374	41.98
295.589	33.79
295.804	70.65
296.018	13.31
296.233	52.22
296.447	52.22
296.662	-39.94
296.877	91.13
297.091	13.31
297.306	56.32
297.52	-27.65
297.735	-17.41
297.949	39.94
298.164	62.46
298.378	13.31
298.593	-31.74
298.807	84.99
299.022	9.22
299.236	-41.98
299.451	33.79
299.665	-15.36
299.88	50.18
300.094	33.79
300.309	-19.46
300.523	48.13
300.737	3.07
300.952	62.46
301.166	35.84
301.381	-11.26
301.595	76.8
301.809	50.18
302.024	11.26
302.238	29.7
302.452	68.61
302.667	5.12
302.881	111.61
303.095	21.5
303.309	99.33
303.524	-35.84
303.738	62.46
303.952	39.94
304.166	74.75
304.381	17.41
304.595	23.55
304.809	25.6
305.023	11.26
305.237	-29.7
305.452	29.7
305.666	-39.94
305.88	33.79
306.094	-3.07
306.308	46.08
306.522	1.02
306.736	27.65
306.95	-56.32
307.164	29.7
307.379	23.55
307.593	39.94
307.807	29.7
308.021	93.18
308.235	23.55
308.449	-15.36
308.663	33.79
308.877	19.46
309.091	58.37
309.305	41.98
309.519	13.31
309.733	17.41
309.947	-7.17
310.161	60.42
310.374	54.27
310.588	64.51
310.802	9.22
311.016	58.37
311.23	41.98
311.444	13.31
311.658	82.94
311.872	11.26
312.085	7.17
312.299	-23.55
312.513	68.61
312.727	115.71
312.941	-7.17
313.154	-13.31
313.368	70.65
313.582	9.22
313.796	46.08
314.009	-21.5
314.223	-7.17
314.437	5.12
314.651	46.08
314.864	3.07
315.078	35.84
315.292	3.07
315.505	-33.79
315.719	-3.07
315.933	-19.46
316.146	-33.79
316.36	9.22
316.573	107.52
316.787	17.41
317.001	58.37
317.214	9.22
317.428	48.13
317.641	15.36
317.855	-39.94
318.068	68.61
318.282	50.18
318.495	105.47
318.709	80.89
318.922	27.65
319.136	82.94
319.349	11.26
319.563	19.46
319.776	29.7
319.99	35.84
320.203	33.79
320.417	50.18
320.63	136.19
320.843	84.99
321.057	35.84
321.27	39.94
321.483	1.02
321.697	33.79
321.91	9.22
322.124	68.61
322.337	3.07
322.55	27.65
322.763	-11.26
322.977	-13.31
323.19	84.99
323.403	52.22
323.617	-13.31
323.83	17.41
324.043	68.61
324.256	15.36
324.469	82.94
324.683	50.18
324.896	5.12
325.109	60.42
325.322	-64.51
325.535	93.18
325.748	9.22
325.962	54.27
326.175	44.03
326.388	50.18
326.601	99.33
326.814	-7.17
327.027	31.74
327.24	58.37
327.453	-21.5
327.666	46.08
327.879	33.79
328.092	5.12
328.305	115.71
328.518	123.9
328.731	-13.31
328.944	23.55
329.157	33.79
329.37	35.84
329.583	-37.89
329.796	9.22
330.009	7.17
330.222	74.75
330.435	68.61
330.648	56.32
330.861	25.6
331.073	29.7
331.286	-13.31
331.499	52.22
331.712	-56.32
331.925	-27.65
332.138	68.61
332.35	87.04
332.563	35.84
332.776	48.13
332.989	46.08
333.202	33.79
333.414	60.42
333.627	41.98
333.84	80.89
334.053	123.9
334.265	-13.31
334.478	-13.31
334.691	60.42
334.903	25.6
335.116	41.98
335.329	-15.36
335.541	5.12
335.754	111.61
335.966	35.84
336.179	-31.74
336.392	-44.03
336.604	44.03
336.817	103.42
337.029	-35.84
337.242	31.74
337.454	3.07
337.667	52.22
337.88	17.41
338.092	19.46
338.305	3.07
338.517	54.27
338.729	82.94
338.942	17.41
339.154	48.13
339.367	37.89
339.579	52.22
339.792	39.94
340.004	58.37
340.217	76.8
340.429	58.37
340.641	-27.65
340.854	78.85
341.066	9.22
341.278	60.42
341.491	89.09
341.703	66.56
341.915	-5.12
342.128	123.9
342.34	58.37
342.552	-17.41
342.764	17.41
342.977	-33.79
343.189	13.31
343.401	35.84
343.613	-23.55
343.826	-9.22
344.038	29.7
344.25	68.61
344.462	-27.65
344.674	19.46
344.886	33.79
345.099	58.37
345.311	31.74
345.523	44.03
345.735	50.18
345.947	44.03
346.159	9.22
346.371	25.6
346.583	44.03
346.795	68.61
347.007	-31.74
347.219	87.04
347.431	25.6
347.643	52.22
347.855	54.27
348.067	91.13
348.279	58.37
348.491	-15.36
348.703	-17.41
348.915	74.75
349.127	58.37
349.339	33.79
349.551	-21.5
349.763	91.13
349.975	-23.55
350.187	117.76
350.399	56.32
350.61	50.18
350.822	-31.74
351.034	41.98
351.246	25.6
351.458	7.17
351.669	87.04
351.881	58.37
352.093	25.6
352.305	95.23
352.517	-68.61
352.728	41.98
352.94	66.56
353.152	115.71
353.363	-25.6
353.575	9.22
353.787	99.33
353.999	46.08
354.21	58.37
354.422	91.13
354.633	23.55
354.845	44.03
355.057	87.04
355.268	17.41
355.48	1.02
355.692	25.6
355.903	101.37
356.115	33.79
356.326	62.46
356.538	58.37
356.749	1.02
356.961	52.22
357.172	74.75
357.384	84.99
357.595	82.94
357.807	171.01
358.018	13.31
358.23	17.41
358.441	50.18
358.653	58.37
358.864	17.41
359.075	66.56
359.287	70.65
359.498	52.22
359.709	33.79
359.921	41.98
360.132	93.18
360.344	41.98
360.555	35.84
360.766	15.36
360.977	-13.31
361.189	107.52
361.4	33.79
361.611	64.51
361.823	115.71
362.034	74.75
362.245	35.84
362.456	50.18
362.667	58.37
362.879	19.46
363.09	17.41
363.301	-68.61
363.512	5.12
363.723	44.03
363.935	99.33
364.146	7.17
364.357	33.79
364.568	21.5
364.779	82.94
364.99	140.29
365.201	-5.12
365.412	21.5
365.623	5.12
365.834	35.84
366.045	101.37
366.256	101.37
366.467	-5.12
366.678	-48.13
366.889	15.36
367.1	37.89
367.311	128
367.522	33.79
367.733	84.99
367.944	80.89
368.155	-15.36
368.366	17.41
368.577	19.46
368.788	9.22
368.999	-33.79
369.209	33.79
369.42	132.09
369.631	93.18
369.842	-37.89
370.053	-3.07
370.264	31.74
370.474	15.36
370.685	-7.17
370.896	9.22
371.107	68.61
371.317	66.56
371.528	41.98
371.739	144.38
371.95	29.7
372.16	76.8
372.371	39.94
372.582	19.46
372.792	50.18
373.003	35.84
373.214	72.7
373.424	9.22
373.635	-11.26
373.846	31.74
374.056	101.37
374.267	25.6
374.477	33.79
374.688	41.98
374.898	9.22
375.109	44.03
375.319	72.7
375.53	41.98
375.74	70.65
375.951	68.61
376.161	80.89
376.372	54.27
376.582	-31.74
376.793	105.47
377.003	-15.36
377.214	-62.46
377.424	15.36
377.635	84.99
377.845	-31.74
378.055	19.46
378.266	7.17
378.476	107.52
378.686	41.98
378.897	13.31
379.107	113.66
379.317	97.28
379.528	23.55
379.738	58.37
379.948	19.46
380.158	95.23
380.369	13.31
380.579	62.46
380.789	17.41
380.999	29.7
381.21	37.89
381.42	27.65
381.63	-5.12
381.84	150.53
382.05	74.75
382.261	70.65
382.471	50.18
382.681	39.94
382.891	82.94
383.101	64.51
383.311	17.41
383.521	93.18
383.731	68.61
383.941	66.56
384.151	56.32
384.361	93.18
384.571	44.03
384.781	117.76
384.991	89.09
385.201	136.19
385.411	54.27
385.621	162.81
385.831	-15.36
386.041	41.98
386.251	13.31
386.461	52.22
386.671	89.09
386.881	82.94
387.091	84.99
387.301	66.56
387.511	74.75
387.72	82.94
387.93	115.71
388.14	66.56
388.35	-5.12
388.56	58.37
388.769	1.02
388.979	25.6
389.189	-44.03
389.399	50.18
389.609	-27.65
389.818	175.1
390.028	35.84
390.238	33.79
390.447	21.5
390.657	41.98
390.867	78.85
391.076	-25.6
391.286	66.56
391.496	87.04
391.705	80.89
391.915	117.76
392.125	46.08
392.334	19.46
392.544	21.5
392.753	72.7
392.963	58.37
393.172	29.7
393.382	60.42
393.591	82.94
393.801	17.41
394.01	93.18
394.22	87.04
394.429	58.37
394.639	7.17
394.848	76.8
395.058	19.46
395.267	144.38
395.477	21.5
395.686	103.42
395.895	78.85
396.105	166.91
396.314	78.85
396.524	121.85
396.733	87.04
396.942	175.1
397.152	33.79
397.361	160.77
397.57	74.75
397.78	101.37
397.989	99.33
398.198	218.11
398.407	37.89
398.617	128
398.826	103.42
399.035	82.94
399.244	142.33
399.453	80.89
399.663	103.42
399.872	134.14
400.081	19.46
400.29	136.19
400.499	150.53
400.708	146.43
400.917	144.38
401.127	115.71
401.336	168.96
401.545	119.81
401.754	66.56
401.963	46.08
402.172	175.1
402.381	89.09
402.59	99.33
402.799	138.24
403.008	181.25
403.217	144.38
403.426	148.48
403.635	123.9
403.844	140.29
404.053	68.61
404.262	152.57
404.471	152.57
404.68	218.11
404.888	138.24
405.097	107.52
405.306	173.05
405.515	144.38
405.724	99.33
405.933	209.92
406.142	148.48
406.35	211.96
406.559	191.49
406.768	103.42
406.977	156.67
407.185	173.05
407.394	132.09
407.603	226.3
407.812	197.63
408.02	254.97
408.229	185.34
408.438	254.97
408.646	281.6
408.855	226.3
409.064	304.12
409.272	297.98
409.481	314.36
409.69	326.65
409.898	353.27
410.107	246.78
410.315	293.88
410.524	304.12
410.733	332.79
410.941	330.75
411.15	453.63
411.358	414.71
411.567	435.19
411.775	451.58
411.984	431.1
412.192	470.01
412.401	439.29
412.609	459.77
412.818	531.45
413.026	527.35
413.234	574.46
413.443	492.54
413.651	599.03
413.86	644.09
414.068	689.14
414.276	717.81
414.485	623.61
414.693	648.18
414.901	717.81
415.11	658.42
415.318	762.87
415.526	664.57
415.734	820.21
415.943	758.77
416.151	877.55
416.359	891.89
416.567	852.98
416.776	885.75
416.984	977.91
417.192	988.14
417.4	1033.2
417.608	1084.4
417.817	1061.87
418.025	1106.93
418.233	1311.72
418.441	1119.21
418.649	1199.09
418.857	1418.22
419.065	1336.3
419.273	1272.81
419.481	1393.64
419.689	1385.45
419.897	1534.95
420.105	1663.97
420.313	1663.97
420.521	1706.98
420.729	1715.17
420.937	1741.8
421.145	1786.85
421.353	1836
421.561	1962.98
421.769	2014.18
421.977	2165.73
422.185	2112.48
422.393	2286.56
422.601	2401.24
422.809	2270.17
423.017	2499.55
423.224	2397.15
423.432	2585.56
423.64	2657.24
423.848	2837.46
424.056	2647
424.263	2974.67
424.471	3007.44
424.679	3001.3
424.887	3167.18
425.094	3306.45
425.302	3283.92
425.51	3433.42
425.718	3488.71
425.925	3462.09
426.133	3535.82
426.341	3855.3
426.548	4150.21
426.756	3978.18
426.964	4113.35
427.171	4328.38
427.379	4531.13
427.586	4438.97
427.794	4801.46
428.001	4864.95
428.209	5100.47
428.417	5043.12
428.624	5129.14
428.832	5403.57
429.039	5292.98
429.247	5276.59
429.454	5948.33
429.662	6058.92
429.869	5858.21
430.076	6194.08
430.284	6128.55
430.491	6390.69
430.699	6669.21
430.906	6513.56
431.114	6837.14
431.321	6939.54
431.528	7091.09
431.736	7637.9
431.943	8029.06
432.15	7670.67
432.358	7859.08
432.565	8291.2
432.772	8330.11
432.979	8448.9
433.187	8676.22
433.394	8549.25
433.601	9425.78
433.808	9474.93
434.016	9278.32
434.223	9784.17
434.43	10486.62
434.637	10005.35
434.844	10892.12
435.052	10933.08
435.259	10904.41
435.466	10978.14
435.673	10716
435.88	11666.25
436.087	12274.5
436.294	12362.56
436.501	12026.7
436.708	12153.67
436.915	12460.87
437.122	13118.26
437.329	13185.85
437.537	13620.02
437.743	13755.18
437.95	13417.27
438.157	14476.07
438.364	14863.13
438.571	14594.85
438.778	14940.96
438.985	16272.14
439.192	15735.57
439.399	16055.05
439.606	15889.17
439.813	16528.13
440.02	17842.93
440.227	17287.93
440.433	17332.98
440.64	17595.12
440.847	17550.07
441.054	18146.03
441.261	19075.8
441.467	18598.63
441.674	19159.77
441.881	20044.49
442.088	20095.69
442.294	19765.97
442.501	20368.07
442.708	20720.32
442.914	21582.52
443.121	22504.1
443.328	21727.92
443.534	23595.67
443.741	22629.03
443.948	22459.05
444.154	23851.67
444.361	24015.51
444.568	24140.43
444.774	24003.22
444.981	24285.84
445.187	25098.88
445.394	25864.82
445.6	25442.94
445.807	28187.22
446.013	26962.53
446.22	27363.93
446.426	28314.19
446.633	28619.34
446.839	29792.83
447.046	28510.8
447.252	29780.54
447.459	29813.31
447.665	29682.24
447.871	31091.24
448.078	32545.3
448.284	30888.49
448.491	31824.41
448.697	33057.29
448.903	33569.28
449.11	33788.41
449.316	33366.53
449.522	33675.77
449.728	34767.34
449.935	34666.99
450.141	34871.79
450.347	35633.63
450.553	34595.31
450.76	34916.84
450.966	36493.78
451.172	35635.68
451.378	36710.86
451.584	35889.63
451.791	36936.14
451.997	37093.83
452.203	37394.89
452.409	37110.22
452.615	37276.1
452.821	35611.1
453.027	35660.26
453.233	37337.54
453.44	35678.69
453.646	36086.23
453.852	36524.5
454.058	36981.2
454.264	35815.9
454.47	36966.86
454.676	35697.12
454.882	37028.3
455.088	33847.8
455.294	33911.29
455.5	34765.29
455.705	35043.82
455.911	33700.35
456.117	33055.24
456.323	32596.49
456.529	31136.29
456.735	32629.26
456.941	31537.69
457.147	30964.26
457.352	30114.36
457.558	29852.22
457.764	29798.97
457.97	29348.42
458.176	28678.73
458.381	28668.49
458.587	27468.38
458.793	27540.06
458.999	25936.5
459.204	27837.02
459.41	27193.95
459.616	25422.46
459.821	25232
460.027	25090.69
460.233	24707.72
460.438	23327.39
460.644	24056.46
460.85	22835.88
461.055	22549.16
461.261	22248.11
461.466	20601.54
461.672	20214.48
461.878	21488.31
462.083	19974.86
462.289	19616.47
462.494	19399.38
462.7	18502.37
462.905	18184.94
463.111	18901.73
463.316	18807.52
463.522	18318.06
463.727	18440.93
463.932	18406.12
464.138	18070.25
464.343	18146.03
464.549	17523.44
464.754	18242.28
464.959	17978.09
465.165	17855.22
465.37	17107.71
465.575	16851.71
465.781	17730.29
465.986	17591.03
466.191	16904.96
466.397	16589.57
466.602	15723.28
466.807	16378.63
467.012	16089.87
467.218	16626.43
467.423	15889.17
