Data from USB4F104151__214__14-21-12-831.txt Node

Date: Thu Mar 13 14:21:12 EDT 2025
User: louis
Spectrometer: USB4F10415
Trigger mode: 4
Integration Time (sec): 2.000000E-2
Scans to average: 1
Electric dark correction enabled: true
Nonlinearity correction enabled: false
Boxcar width: 0
XAxis mode: Wavelengths
Number of Pixels in Spectrum: 3648
>>>>>Begin Spectral Data<<<<<
178.204	-97.11
178.424	-97.11
178.644	-97.11
178.864	-90.96
179.084	-107.35
179.304	-52.05
179.524	-45.91
179.744	9.39
179.964	21.67
180.184	42.15
180.404	52.39
180.624	25.77
180.844	17.58
181.064	-33.62
181.283	1.19
181.503	-47.96
181.723	9.39
181.943	-76.63
182.163	138.41
182.383	93.35
182.602	50.35
182.822	50.35
183.042	13.48
183.262	13.48
183.482	-15.19
183.701	33.96
183.921	25.77
184.141	-19.29
184.361	5.29
184.58	-13.14
184.8	-19.29
185.02	-25.43
185.239	79.02
185.459	50.35
185.679	95.4
185.898	-64.34
186.118	9.39
186.338	74.92
186.557	46.25
186.777	58.54
186.997	17.58
187.216	25.77
187.436	83.11
187.655	46.25
187.875	72.87
188.095	89.26
188.314	81.07
188.534	-52.05
188.753	66.73
188.973	58.54
189.192	9.39
189.412	-33.62
189.631	-33.62
189.851	29.87
190.07	11.43
190.29	-47.96
190.509	3.24
190.729	60.59
190.948	83.11
191.168	148.65
191.387	56.49
191.607	3.24
191.826	-31.57
192.045	-4.95
192.265	19.63
192.484	-13.14
192.704	38.06
192.923	31.91
193.142	91.31
193.362	-4.95
193.581	50.35
193.8	-17.24
194.02	9.39
194.239	-21.33
194.458	33.96
194.678	15.53
194.897	33.96
195.116	48.3
195.335	9.39
195.555	66.73
195.774	33.96
195.993	29.87
196.212	-7
196.432	111.78
196.651	25.77
196.87	56.49
197.089	23.72
197.308	50.35
197.528	76.97
197.747	3.24
197.966	50.35
198.185	44.2
198.404	-72.53
198.623	1.19
198.842	-11.09
199.062	95.4
199.281	83.11
199.5	-13.14
199.719	81.07
199.938	74.92
200.157	58.54
200.376	5.29
200.595	64.68
200.814	60.59
201.033	119.98
201.252	62.63
201.471	46.25
201.69	103.59
201.909	-7
202.128	42.15
202.347	15.53
202.566	33.96
202.785	-37.72
203.004	-21.33
203.223	54.44
203.442	109.74
203.661	25.77
203.879	-27.48
204.098	89.26
204.317	9.39
204.536	126.12
204.755	-23.38
204.974	1.19
205.193	56.49
205.411	79.02
205.63	-56.15
205.849	-11.09
206.068	13.48
206.287	42.15
206.505	54.44
206.724	38.06
206.943	38.06
207.162	-11.09
207.381	17.58
207.599	66.73
207.818	-2.9
208.037	33.96
208.255	1.19
208.474	-21.33
208.693	1.19
208.911	33.96
209.13	87.21
209.349	-4.95
209.567	13.48
209.786	64.68
210.005	25.77
210.223	38.06
210.442	-21.33
210.661	74.92
210.879	25.77
211.098	-11.09
211.316	-7
211.535	76.97
211.753	70.83
211.972	-47.96
212.191	-0.85
212.409	33.96
212.628	50.35
212.846	17.58
213.065	17.58
213.283	13.48
213.502	36.01
213.72	-13.14
213.938	31.91
214.157	89.26
214.375	115.88
214.594	9.39
214.812	40.11
215.031	-25.43
215.249	38.06
215.467	3.24
215.686	33.96
215.904	83.11
216.122	50.35
216.341	85.16
216.559	66.73
216.778	70.83
216.996	50.35
217.214	3.24
217.432	81.07
217.651	76.97
217.869	50.35
218.087	74.92
218.306	21.67
218.524	38.06
218.742	-2.9
218.96	66.73
219.179	79.02
219.397	38.06
219.615	44.2
219.833	-31.57
220.051	-25.43
220.27	1.19
220.488	89.26
220.706	29.87
220.924	36.01
221.142	66.73
221.36	38.06
221.578	74.92
221.796	42.15
222.015	17.58
222.233	9.39
222.451	46.25
222.669	97.45
222.887	56.49
223.105	-21.33
223.323	83.11
223.541	9.39
223.759	62.63
223.977	11.43
224.195	83.11
224.413	50.35
224.631	50.35
224.849	7.34
225.067	99.5
225.285	-2.9
225.503	91.31
225.721	40.11
225.939	-13.14
226.157	36.01
226.375	109.74
226.592	-25.43
226.81	-15.19
227.028	115.88
227.246	128.17
227.464	66.73
227.682	83.11
227.9	44.2
228.117	95.4
228.335	9.39
228.553	36.01
228.771	128.17
228.989	11.43
229.206	21.67
229.424	-25.43
229.642	66.73
229.86	21.67
230.077	-13.14
230.295	1.19
230.513	79.02
230.731	93.35
230.948	95.4
231.166	134.31
231.384	44.2
231.601	-7
231.819	66.73
232.037	36.01
232.254	5.29
232.472	-11.09
232.689	17.58
232.907	103.59
233.125	74.92
233.342	83.11
233.56	-23.38
233.777	87.21
233.995	62.63
234.213	25.77
234.43	-9.05
234.648	17.58
234.865	72.87
235.083	74.92
235.3	40.11
235.518	31.91
235.735	-21.33
235.953	83.11
236.17	50.35
236.388	70.83
236.605	52.39
236.822	42.15
237.04	56.49
237.257	25.77
237.475	66.73
237.692	1.19
237.909	17.58
238.127	46.25
238.344	15.53
238.562	56.49
238.779	-11.09
238.996	-50
239.214	52.39
239.431	107.69
239.648	74.92
239.865	68.78
240.083	54.44
240.3	25.77
240.517	11.43
240.735	58.54
240.952	105.64
241.169	81.07
241.386	81.07
241.603	38.06
241.821	-31.57
242.038	25.77
242.255	58.54
242.472	25.77
242.689	107.69
242.907	68.78
243.124	50.35
243.341	3.24
243.558	44.2
243.775	-54.1
243.992	-37.72
244.209	27.82
244.426	76.97
244.643	33.96
244.86	48.3
245.078	11.43
245.295	33.96
245.512	11.43
245.729	-76.63
245.946	25.77
246.163	-17.24
246.38	52.39
246.597	11.43
246.814	21.67
247.031	-37.72
247.248	56.49
247.464	38.06
247.681	58.54
247.898	58.54
248.115	-2.9
248.332	15.53
248.549	91.31
248.766	29.87
248.983	99.5
249.2	-35.67
249.417	38.06
249.633	21.67
249.85	33.96
250.067	83.11
250.284	79.02
250.501	56.49
250.717	33.96
250.934	-23.38
251.151	27.82
251.368	-70.48
251.585	13.48
251.801	31.91
252.018	46.25
252.235	101.55
252.451	29.87
252.668	-4.95
252.885	36.01
253.102	-39.76
253.318	-19.29
253.535	25.77
253.752	36.01
253.968	-2.9
254.185	-27.48
254.401	9.39
254.618	-29.52
254.835	132.26
255.051	119.98
255.268	46.25
255.484	29.87
255.701	62.63
255.917	-29.52
256.134	9.39
256.351	52.39
256.567	52.39
256.784	25.77
257	62.63
257.217	66.73
257.433	85.16
257.65	64.68
257.866	33.96
258.082	21.67
258.299	5.29
258.515	52.39
258.732	85.16
258.948	29.87
259.165	27.82
259.381	15.53
259.597	76.97
259.814	44.2
260.03	97.45
260.246	33.96
260.463	-21.33
260.679	38.06
260.895	23.72
261.112	38.06
261.328	9.39
261.544	36.01
261.761	83.11
261.977	21.67
262.193	25.77
262.409	33.96
262.626	68.78
262.842	9.39
263.058	13.48
263.274	38.06
263.49	87.21
263.707	60.59
263.923	56.49
264.139	-21.33
264.355	13.48
264.571	74.92
264.787	87.21
265.004	23.72
265.22	64.68
265.436	-7
265.652	46.25
265.868	36.01
266.084	33.96
266.3	11.43
266.516	-47.96
266.732	-39.76
266.948	42.15
267.164	1.19
267.38	11.43
267.596	-4.95
267.812	93.35
268.028	50.35
268.244	-15.19
268.46	42.15
268.676	33.96
268.892	54.44
269.108	3.24
269.324	25.77
269.54	-11.09
269.756	46.25
269.972	40.11
270.188	13.48
270.403	-4.95
270.619	-29.52
270.835	66.73
271.051	64.68
271.267	-31.57
271.483	70.83
271.698	-35.67
271.914	33.96
272.13	-2.9
272.346	50.35
272.562	-2.9
272.777	76.97
272.993	142.5
273.209	-4.95
273.425	128.17
273.64	36.01
273.856	52.39
274.072	-64.34
274.287	-19.29
274.503	74.92
274.719	74.92
274.934	68.78
275.15	-21.33
275.366	-15.19
275.581	-17.24
275.797	58.54
276.012	31.91
276.228	38.06
276.444	9.39
276.659	46.25
276.875	-9.05
277.09	74.92
277.306	9.39
277.521	115.88
277.737	-2.9
277.952	38.06
278.168	38.06
278.383	68.78
278.599	79.02
278.814	52.39
279.03	-31.57
279.245	87.21
279.461	46.25
279.676	50.35
279.892	-15.19
280.107	-31.57
280.322	25.77
280.538	101.55
280.753	-21.33
280.969	9.39
281.184	-2.9
281.399	132.26
281.615	25.77
281.83	-15.19
282.045	46.25
282.26	36.01
282.476	52.39
282.691	50.35
282.906	-29.52
283.122	-2.9
283.337	-4.95
283.552	11.43
283.767	-2.9
283.983	60.59
284.198	1.19
284.413	46.25
284.628	7.34
284.843	15.53
285.058	11.43
285.274	11.43
285.489	-23.38
285.704	44.2
285.919	38.06
286.134	42.15
286.349	83.11
286.564	124.07
286.779	105.64
286.995	44.2
287.21	91.31
287.425	83.11
287.64	46.25
287.855	29.87
288.07	42.15
288.285	15.53
288.5	31.91
288.715	111.78
288.93	23.72
289.145	83.11
289.36	81.07
289.575	72.87
289.79	23.72
290.004	117.93
290.219	42.15
290.434	17.58
290.649	-11.09
290.864	11.43
291.079	66.73
291.294	107.69
291.509	50.35
291.724	-7
291.938	50.35
292.153	152.74
292.368	-19.29
292.583	62.63
292.798	36.01
293.012	17.58
293.227	58.54
293.442	11.43
293.657	50.35
293.871	36.01
294.086	48.3
294.301	83.11
294.516	68.78
294.73	99.5
294.945	50.35
295.16	62.63
295.374	68.78
295.589	70.83
295.804	58.54
296.018	-4.95
296.233	44.2
296.447	-43.86
296.662	50.35
296.877	140.46
297.091	21.67
297.306	97.45
297.52	79.02
297.735	-21.33
297.949	66.73
298.164	50.35
298.378	36.01
298.593	9.39
298.807	76.97
299.022	74.92
299.236	27.82
299.451	-39.76
299.665	-7
299.88	-0.85
300.094	-37.72
300.309	46.25
300.523	54.44
300.737	17.58
300.952	-31.57
301.166	40.11
301.381	-4.95
301.595	9.39
301.809	115.88
302.024	3.24
302.238	60.59
302.452	66.73
302.667	17.58
302.881	70.83
303.095	9.39
303.309	38.06
303.524	9.39
303.738	56.49
303.952	-11.09
304.166	76.97
304.381	-13.14
304.595	83.11
304.809	-27.48
305.023	-23.38
305.237	52.39
305.452	-21.33
305.666	54.44
305.88	128.17
306.094	66.73
306.308	58.54
306.522	70.83
306.736	46.25
306.95	42.15
307.164	103.59
307.379	33.96
307.593	33.96
307.807	-15.19
308.021	85.16
308.235	99.5
308.449	-9.05
308.663	54.44
308.877	150.7
309.091	-7
309.305	95.4
309.519	-39.76
309.733	89.26
309.947	-27.48
310.161	66.73
310.374	-11.09
310.588	54.44
310.802	56.49
311.016	74.92
311.23	-15.19
311.444	-23.38
311.658	-19.29
311.872	138.41
312.085	93.35
312.299	101.55
312.513	111.78
312.727	33.96
312.941	1.19
313.154	33.96
313.368	93.35
313.582	-13.14
313.796	5.29
314.009	13.48
314.223	-4.95
314.437	58.54
314.651	3.24
314.864	-7
315.078	-15.19
315.292	50.35
315.505	-25.43
315.719	52.39
315.933	33.96
316.146	81.07
316.36	31.91
316.573	68.78
316.787	5.29
317.001	119.98
317.214	42.15
317.428	93.35
317.641	-19.29
317.855	42.15
318.068	19.63
318.282	31.91
318.495	85.16
318.709	19.63
318.922	95.4
319.136	99.5
319.349	11.43
319.563	58.54
319.776	50.35
319.99	23.72
320.203	15.53
320.417	33.96
320.63	-78.68
320.843	3.24
321.057	-2.9
321.27	11.43
321.483	-13.14
321.697	101.55
321.91	1.19
322.124	5.29
322.337	33.96
322.55	-27.48
322.763	25.77
322.977	62.63
323.19	25.77
323.403	66.73
323.617	68.78
323.83	1.19
324.043	-4.95
324.256	158.89
324.469	105.64
324.683	89.26
324.896	42.15
325.109	17.58
325.322	-25.43
325.535	50.35
325.748	11.43
325.962	-4.95
326.175	17.58
326.388	60.59
326.601	99.5
326.814	33.96
327.027	42.15
327.24	25.77
327.453	72.87
327.666	-7
327.879	-13.14
328.092	62.63
328.305	-4.95
328.518	54.44
328.731	-21.33
328.944	42.15
329.157	64.68
329.37	-0.85
329.583	76.97
329.796	36.01
330.009	25.77
330.222	68.78
330.435	58.54
330.648	3.24
330.861	29.87
331.073	97.45
331.286	72.87
331.499	23.72
331.712	54.44
331.925	21.67
332.138	48.3
332.35	13.48
332.563	-19.29
332.776	-31.57
332.989	1.19
333.202	27.82
333.414	95.4
333.627	70.83
333.84	21.67
334.053	58.54
334.265	50.35
334.478	66.73
334.691	17.58
334.903	74.92
335.116	36.01
335.329	15.53
335.541	5.29
335.754	68.78
335.966	-15.19
336.179	50.35
336.392	-2.9
336.604	3.24
336.817	93.35
337.029	-2.9
337.242	74.92
337.454	42.15
337.667	68.78
337.88	1.19
338.092	3.24
338.305	85.16
338.517	-4.95
338.729	-11.09
338.942	38.06
339.154	-0.85
339.367	-0.85
339.579	60.59
339.792	-0.85
340.004	89.26
340.217	54.44
340.429	68.78
340.641	19.63
340.854	25.77
341.066	27.82
341.278	83.11
341.491	64.68
341.703	83.11
341.915	-7
342.128	148.65
342.34	40.11
342.552	21.67
342.764	48.3
342.977	19.63
343.189	50.35
343.401	1.19
343.613	25.77
343.826	83.11
344.038	21.67
344.25	50.35
344.462	9.39
344.674	42.15
344.886	46.25
345.099	36.01
345.311	144.55
345.523	-2.9
345.735	36.01
345.947	11.43
346.159	52.39
346.371	66.73
346.583	72.87
346.795	70.83
347.007	33.96
347.219	25.77
347.431	38.06
347.643	42.15
347.855	1.19
348.067	107.69
348.279	-15.19
348.491	-0.85
348.703	66.73
348.915	74.92
349.127	42.15
349.339	27.82
349.551	3.24
349.763	81.07
349.975	13.48
350.187	66.73
350.399	93.35
350.61	27.82
350.822	7.34
351.034	-60.24
351.246	-11.09
351.458	66.73
351.669	11.43
351.881	60.59
352.093	60.59
352.305	87.21
352.517	-13.14
352.728	111.78
352.94	33.96
353.152	76.97
353.363	36.01
353.575	74.92
353.787	128.17
353.999	38.06
354.21	27.82
354.422	46.25
354.633	29.87
354.845	54.44
355.057	44.2
355.268	99.5
355.48	33.96
355.692	60.59
355.903	1.19
356.115	66.73
356.326	-7
356.538	68.78
356.749	60.59
356.961	91.31
357.172	72.87
357.384	-9.05
357.595	109.74
357.807	56.49
358.018	79.02
358.23	1.19
358.441	103.59
358.653	17.58
358.864	38.06
359.075	3.24
359.287	42.15
359.498	83.11
359.709	36.01
359.921	74.92
360.132	50.35
360.344	89.26
360.555	74.92
360.766	60.59
360.977	107.69
361.189	50.35
361.4	52.39
361.611	81.07
361.823	124.07
362.034	27.82
362.245	5.29
362.456	87.21
362.667	9.39
362.879	68.78
363.09	33.96
363.301	107.69
363.512	107.69
363.723	68.78
363.935	54.44
364.146	95.4
364.357	17.58
364.568	54.44
364.779	50.35
364.99	21.67
365.201	74.92
365.412	70.83
365.623	29.87
365.834	36.01
366.045	38.06
366.256	58.54
366.467	95.4
366.678	111.78
366.889	29.87
367.1	101.55
367.311	97.45
367.522	48.3
367.733	70.83
367.944	79.02
368.155	97.45
368.366	140.46
368.577	113.83
368.788	132.26
368.999	33.96
369.209	70.83
369.42	115.88
369.631	91.31
369.842	33.96
370.053	66.73
370.264	27.82
370.474	66.73
370.685	23.72
370.896	36.01
371.107	42.15
371.317	107.69
371.528	13.48
371.739	42.15
371.95	5.29
372.16	58.54
372.371	-23.38
372.582	72.87
372.792	103.59
373.003	132.26
373.214	85.16
373.424	91.31
373.635	1.19
373.846	70.83
374.056	50.35
374.267	27.82
374.477	33.96
374.688	50.35
374.898	46.25
375.109	13.48
375.319	36.01
375.53	68.78
375.74	38.06
375.951	-7
376.161	79.02
376.372	132.26
376.582	70.83
376.793	66.73
377.003	33.96
377.214	79.02
377.424	58.54
377.635	48.3
377.845	83.11
378.055	115.88
378.266	134.31
378.476	52.39
378.686	50.35
378.897	66.73
379.107	70.83
379.317	1.19
379.528	58.54
379.738	33.96
379.948	33.96
380.158	119.98
380.369	50.35
380.579	76.97
380.789	19.63
380.999	87.21
381.21	107.69
381.42	142.5
381.63	62.63
381.84	70.83
382.05	29.87
382.261	58.54
382.471	62.63
382.681	58.54
382.891	111.78
383.101	56.49
383.311	66.73
383.521	-17.24
383.731	33.96
383.941	83.11
384.151	38.06
384.361	52.39
384.571	-11.09
384.781	60.59
384.991	81.07
385.201	115.88
385.411	136.36
385.621	136.36
385.831	27.82
386.041	109.74
386.251	91.31
386.461	93.35
386.671	66.73
386.881	74.92
387.091	-29.52
387.301	99.5
387.511	62.63
387.72	72.87
387.93	66.73
388.14	74.92
388.35	58.54
388.56	66.73
388.769	107.69
388.979	113.83
389.189	15.53
389.399	85.16
389.609	95.4
389.818	42.15
390.028	46.25
390.238	107.69
390.447	107.69
390.657	83.11
390.867	29.87
391.076	105.64
391.286	-11.09
391.496	74.92
391.705	23.72
391.915	109.74
392.125	107.69
392.334	76.97
392.544	9.39
392.753	91.31
392.963	11.43
393.172	25.77
393.382	66.73
393.591	162.98
393.801	99.5
394.01	124.07
394.22	140.46
394.429	148.65
394.639	85.16
394.848	132.26
395.058	44.2
395.267	76.97
395.477	-2.9
395.686	156.84
395.895	99.5
396.105	158.89
396.314	144.55
396.524	87.21
396.733	76.97
396.942	158.89
397.152	25.77
397.361	181.42
397.57	144.55
397.78	160.94
397.989	142.5
398.198	173.22
398.407	91.31
398.617	97.45
398.826	111.78
399.035	156.84
399.244	103.59
399.453	33.96
399.663	113.83
399.872	148.65
400.081	93.35
400.29	193.7
400.499	124.07
400.708	119.98
400.917	89.26
401.127	68.78
401.336	167.08
401.545	144.55
401.754	126.12
401.963	111.78
402.172	109.74
402.381	60.59
402.59	181.42
402.799	140.46
403.008	124.07
403.217	191.66
403.426	179.37
403.635	117.93
403.844	130.22
404.053	119.98
404.262	152.74
404.471	230.57
404.68	158.89
404.888	117.93
405.097	218.28
405.306	144.55
405.515	171.18
405.724	132.26
405.933	257.19
406.142	201.9
406.35	205.99
406.559	265.38
406.768	214.18
406.977	224.42
407.185	197.8
407.394	246.95
407.603	214.18
407.812	249
408.02	271.53
408.229	304.29
408.438	189.61
408.646	320.68
408.855	214.18
409.064	304.29
409.272	308.39
409.481	363.69
409.69	304.29
409.898	386.21
410.107	341.16
410.315	361.64
410.524	369.83
410.733	392.36
410.941	332.97
411.15	425.12
411.358	378.02
411.567	447.65
411.775	402.6
411.984	418.98
412.192	513.19
412.401	504.99
412.609	593.06
412.818	584.87
413.026	566.43
413.234	664.74
413.443	607.39
413.651	623.78
413.86	646.3
414.068	668.83
414.276	756.9
414.485	738.46
414.693	763.04
414.901	738.46
415.11	855.2
415.318	838.81
415.526	855.2
415.734	937.12
415.943	918.68
416.151	926.88
416.359	949.4
416.567	1051.8
416.776	1033.37
416.984	1090.71
417.192	1205.4
417.4	1096.86
417.608	1076.38
417.817	1107.1
418.025	1272.98
418.233	1467.54
418.441	1303.7
418.649	1488.02
418.857	1524.88
419.065	1496.21
419.273	1533.08
419.481	1549.46
419.689	1553.55
419.897	1725.58
420.105	1662.1
420.313	1778.83
420.521	1922.19
420.729	1756.3
420.937	1918.09
421.145	2122.89
421.353	2137.23
421.561	2188.43
421.769	2227.34
421.977	2446.47
422.185	2391.17
422.393	2442.37
422.601	2677.89
422.809	2708.61
423.017	2778.24
423.224	2745.47
423.432	2780.29
423.64	2962.56
423.848	3081.34
424.056	3146.87
424.263	3294.33
424.471	3267.7
424.679	3357.82
424.887	3617.91
425.094	3556.47
425.302	3642.48
425.51	3859.57
425.718	3728.5
425.925	4021.36
426.133	4025.45
426.341	4277.35
426.548	4498.53
426.756	4437.09
426.964	4418.66
427.171	4854.88
427.379	4998.24
427.586	4977.76
427.794	5149.79
428.001	5395.54
428.209	5694.55
428.417	5514.33
428.624	5958.74
428.832	5983.31
429.039	5913.68
429.247	5966.93
429.454	6284.36
429.662	6886.47
429.869	6622.28
430.076	6802.5
430.284	6751.3
430.491	7126.08
430.699	7468.09
430.906	7345.21
431.114	7447.61
431.321	7881.78
431.528	7760.95
431.736	8369.19
431.943	8766.5
432.15	8655.91
432.358	8586.28
432.565	9075.74
432.772	9081.89
432.979	9466.91
433.187	9694.23
433.394	9833.49
433.601	10654.73
433.808	10566.67
434.016	10484.75
434.223	10824.71
434.43	11402.24
434.637	11195.39
434.844	11848.69
435.052	12067.83
435.259	11942.9
435.466	12372.97
435.673	12153.84
435.88	13081.57
436.087	13446.11
436.294	13493.21
436.501	13233.12
436.708	13675.48
436.915	14072.79
437.122	14564.3
437.329	14539.72
437.537	14795.72
437.743	15305.67
437.95	15076.29
438.157	15713.21
438.364	16180.15
438.571	16280.5
438.778	16638.89
438.985	17937.3
439.192	17279.91
439.399	17738.65
439.606	17189.8
439.813	18295.7
440.02	19428.23
440.227	19075.98
440.433	18881.42
440.64	19794.81
440.847	19518.34
441.054	20042.62
441.261	21308.26
441.467	21064.55
441.674	21539.68
441.881	22305.62
442.088	21992.28
442.294	21918.56
442.501	22475.6
442.708	22879.05
442.914	23644.99
443.121	24873.78
443.328	23878.46
443.534	26088.22
443.741	25201.45
443.948	24724.27
444.154	26671.89
444.361	26456.85
444.568	26809.11
444.774	26506.01
444.981	27067.15
445.187	27648.77
445.394	28744.44
445.6	28332.79
445.807	31058.64
446.013	29846.24
446.22	30323.42
446.426	31423.18
446.633	31376.08
446.839	32938.68
447.046	31259.34
447.252	33411.76
447.459	33391.28
447.665	33192.62
447.871	34601.63
448.078	35846.79
448.284	34478.75
448.491	35369.61
448.697	36797.05
448.903	37296.75
449.11	37438.06
449.316	36801.15
449.522	37388.91
449.728	38226.53
449.935	38607.45
450.141	38595.17
450.347	39373.39
450.553	38287.97
450.76	39058.01
450.966	40090.18
451.172	39379.54
451.378	40661.57
451.584	39705.16
451.791	40358.47
451.997	40747.58
452.203	41458.23
452.409	41132.6
452.615	40876.6
452.821	39256.66
453.027	39146.07
453.233	41265.72
453.44	39352.91
453.646	39924.3
453.852	40165.96
454.058	40565.31
454.264	39563.85
454.47	40344.13
454.676	39463.5
454.882	40620.61
455.088	37345.9
455.294	37730.92
455.5	38236.77
455.705	38640.22
455.911	37012.09
456.117	36194.95
456.323	35844.74
456.529	34194.08
456.735	35990.15
456.941	34962.07
457.147	34409.12
457.352	33311.41
457.558	32682.68
457.764	32864.95
457.97	32213.7
458.176	31773.38
458.381	31668.94
458.587	30051.04
458.793	30061.28
458.999	28115.71
459.204	30552.79
459.41	29965.03
459.616	27912.96
459.821	27831.04
460.027	27964.16
460.233	26860.3
460.438	25758.5
460.644	26598.16
460.85	25117.48
461.055	24550.2
461.261	24556.34
461.466	22868.81
461.672	22180.7
461.878	23948.09
462.083	21930.84
462.289	21857.12
462.494	21740.38
462.7	20493.17
462.905	20071.29
463.111	20753.26
463.316	20648.82
463.522	20343.67
463.727	20421.49
463.932	20269.94
464.138	20161.4
464.343	20315
464.549	19590.02
464.754	20370.29
464.959	20263.8
465.165	19714.94
465.37	19043.21
465.575	18596.75
465.781	19311.49
465.986	19553.15
466.191	18617.23
466.397	18389.91
466.602	17349.54
466.807	18060.18
467.012	18105.24
467.218	18228.12
467.423	18099.09
