Data from USB4F104151__158__14-19-35-606.txt Node

Date: Thu Mar 13 14:19:35 EDT 2025
User: louis
Spectrometer: USB4F10415
Trigger mode: 4
Integration Time (sec): 2.000000E-2
Scans to average: 1
Electric dark correction enabled: true
Nonlinearity correction enabled: false
Boxcar width: 0
XAxis mode: Wavelengths
Number of Pixels in Spectrum: 3648
>>>>>Begin Spectral Data<<<<<
178.204	-102.23
178.424	-102.23
178.644	-102.23
178.864	-67.41
179.084	-91.99
179.304	37.03
179.524	-48.98
179.744	24.75
179.964	-20.31
180.184	-12.12
180.404	-59.22
180.624	22.7
180.844	22.7
181.064	24.75
181.283	0.17
181.503	-18.26
181.723	26.79
181.943	-1.88
182.163	28.84
182.383	10.41
182.602	65.71
182.822	80.04
183.042	71.85
183.262	-14.17
183.482	63.66
183.701	28.84
183.921	28.84
184.141	86.19
184.361	61.61
184.58	-3.93
184.8	32.94
185.02	55.47
185.239	80.04
185.459	90.28
185.679	80.04
185.898	45.23
186.118	-3.93
186.338	98.47
186.557	116.9
186.777	14.51
186.997	102.57
187.216	39.08
187.436	172.2
187.655	-16.21
187.875	90.28
188.095	12.46
188.314	98.47
188.534	90.28
188.753	102.57
188.973	96.43
189.192	135.34
189.412	12.46
189.631	69.8
189.851	77.99
190.07	41.13
190.29	12.46
190.509	69.8
190.729	57.51
190.948	55.47
191.168	153.77
191.387	88.23
191.607	4.27
191.826	80.04
192.045	45.23
192.265	45.23
192.484	49.32
192.704	47.27
192.923	28.84
193.142	121
193.362	24.75
193.581	-16.21
193.8	69.8
194.02	69.8
194.239	-18.26
194.458	77.99
194.678	86.19
194.897	63.66
195.116	-8.02
195.335	-28.5
195.555	82.09
195.774	39.08
195.993	16.55
196.212	45.23
196.432	-20.31
196.651	77.99
196.87	45.23
197.089	53.42
197.308	47.27
197.528	57.51
197.747	-34.64
197.966	135.34
198.185	94.38
198.404	73.9
198.623	24.75
198.842	4.27
199.062	77.99
199.281	110.76
199.5	37.03
199.719	53.42
199.938	65.71
200.157	34.99
200.376	34.99
200.595	-34.64
200.814	80.04
201.033	61.61
201.252	159.91
201.471	65.71
201.69	69.8
201.909	90.28
202.128	123.05
202.347	90.28
202.566	88.23
202.785	28.84
203.004	-8.02
203.223	94.38
203.442	22.7
203.661	-44.88
203.879	28.84
204.098	53.42
204.317	22.7
204.536	14.51
204.755	45.23
204.974	51.37
205.193	69.8
205.411	30.89
205.63	-12.12
205.849	22.7
206.068	18.6
206.287	86.19
206.505	86.19
206.724	69.8
206.943	28.84
207.162	59.56
207.381	30.89
207.599	67.75
207.818	-12.12
208.037	6.31
208.255	12.46
208.474	71.85
208.693	96.43
208.911	32.94
209.13	61.61
209.349	63.66
209.567	147.62
209.786	28.84
210.005	59.56
210.223	28.84
210.442	-63.32
210.661	131.24
210.879	80.04
211.098	55.47
211.316	104.62
211.535	112.81
211.753	57.51
211.972	73.9
212.191	47.27
212.409	65.71
212.628	37.03
212.846	-26.45
213.065	63.66
213.283	88.23
213.502	-26.45
213.72	108.71
213.938	-14.17
214.157	-20.31
214.375	102.57
214.594	41.13
214.812	77.99
215.031	-44.88
215.249	80.04
215.467	-3.93
215.686	77.99
215.904	108.71
216.122	-20.31
216.341	88.23
216.559	69.8
216.778	102.57
216.996	16.55
217.214	12.46
217.432	34.99
217.651	69.8
217.869	16.55
218.087	37.03
218.306	63.66
218.524	75.95
218.742	30.89
218.96	65.71
219.179	73.9
219.397	129.19
219.615	39.08
219.833	69.8
220.051	12.46
220.27	143.53
220.488	-28.5
220.706	12.46
220.924	28.84
221.142	84.14
221.36	-53.08
221.578	37.03
221.796	39.08
222.015	77.99
222.233	45.23
222.451	53.42
222.669	-18.26
222.887	131.24
223.105	12.46
223.323	77.99
223.541	20.65
223.759	106.67
223.977	-20.31
224.195	116.9
224.413	71.85
224.631	118.95
224.849	16.55
225.067	80.04
225.285	-3.93
225.503	88.23
225.721	34.99
225.939	63.66
226.157	30.89
226.375	86.19
226.592	-3.93
226.81	82.09
227.028	37.03
227.246	155.82
227.464	114.86
227.682	69.8
227.9	94.38
228.117	88.23
228.335	65.71
228.553	39.08
228.771	90.28
228.989	24.75
229.206	69.8
229.424	59.56
229.642	57.51
229.86	26.79
230.077	30.89
230.295	37.03
230.513	55.47
230.731	61.61
230.948	69.8
231.166	102.57
231.384	41.13
231.601	67.75
231.819	69.8
232.037	20.65
232.254	77.99
232.472	10.41
232.689	51.37
232.907	45.23
233.125	53.42
233.342	-5.97
233.56	6.31
233.777	61.61
233.995	49.32
234.213	86.19
234.43	73.9
234.648	80.04
234.865	-16.21
235.083	73.9
235.3	69.8
235.518	61.61
235.735	92.33
235.953	135.34
236.17	-1.88
236.388	37.03
236.605	112.81
236.822	80.04
237.04	4.27
237.257	67.75
237.475	-32.6
237.692	61.61
237.909	-20.31
238.127	53.42
238.344	125.1
238.562	0.17
238.779	-38.74
238.996	14.51
239.214	53.42
239.431	61.61
239.648	57.51
239.865	90.28
240.083	28.84
240.3	82.09
240.517	-26.45
240.735	121
240.952	61.61
241.169	86.19
241.386	39.08
241.603	110.76
241.821	28.84
242.038	18.6
242.255	75.95
242.472	-5.97
242.689	28.84
242.907	16.55
243.124	47.27
243.341	22.7
243.558	30.89
243.775	4.27
243.992	18.6
244.209	45.23
244.426	18.6
244.643	-5.97
244.86	61.61
245.078	34.99
245.295	75.95
245.512	63.66
245.729	88.23
245.946	80.04
246.163	77.99
246.38	-34.64
246.597	118.95
246.814	6.31
247.031	77.99
247.248	37.03
247.464	71.85
247.681	-34.64
247.898	75.95
248.115	127.14
248.332	-48.98
248.549	57.51
248.766	110.76
248.983	37.03
249.2	84.14
249.417	39.08
249.633	69.8
249.85	49.32
250.067	141.48
250.284	47.27
250.501	53.42
250.717	174.25
250.934	12.46
251.151	53.42
251.368	20.65
251.585	131.24
251.801	53.42
252.018	12.46
252.235	77.99
252.451	47.27
252.668	88.23
252.885	127.14
253.102	49.32
253.318	10.41
253.535	77.99
253.752	69.8
253.968	47.27
254.185	30.89
254.401	22.7
254.618	37.03
254.835	39.08
255.051	61.61
255.268	73.9
255.484	8.36
255.701	98.47
255.917	69.8
256.134	4.27
256.351	77.99
256.567	-42.84
256.784	86.19
257	18.6
257.217	10.41
257.433	102.57
257.65	82.09
257.866	104.62
258.082	63.66
258.299	16.55
258.515	37.03
258.732	-53.08
258.948	59.56
259.165	30.89
259.381	22.7
259.597	37.03
259.814	127.14
260.03	24.75
260.246	112.81
260.463	77.99
260.679	94.38
260.895	8.36
261.112	90.28
261.328	32.94
261.544	45.23
261.761	69.8
261.977	53.42
262.193	-1.88
262.409	63.66
262.626	69.8
262.842	69.8
263.058	41.13
263.274	96.43
263.49	55.47
263.707	69.8
263.923	69.8
264.139	4.27
264.355	20.65
264.571	69.8
264.787	92.33
265.004	139.43
265.22	39.08
265.436	51.37
265.652	20.65
265.868	28.84
266.084	63.66
266.3	102.57
266.516	-44.88
266.732	51.37
266.948	86.19
267.164	30.89
267.38	110.76
267.596	88.23
267.812	110.76
268.028	65.71
268.244	69.8
268.46	90.28
268.676	98.47
268.892	28.84
269.108	22.7
269.324	-34.64
269.54	22.7
269.756	47.27
269.972	14.51
270.188	73.9
270.403	69.8
270.619	86.19
270.835	37.03
271.051	110.76
271.267	53.42
271.483	-28.5
271.698	30.89
271.914	88.23
272.13	80.04
272.346	4.27
272.562	37.03
272.777	106.67
272.993	-67.41
273.209	102.57
273.425	77.99
273.64	41.13
273.856	30.89
274.072	47.27
274.287	24.75
274.503	145.58
274.719	168.1
274.934	16.55
275.15	71.85
275.366	45.23
275.581	88.23
275.797	77.99
276.012	-26.45
276.228	94.38
276.444	43.18
276.659	67.75
276.875	-20.31
277.09	14.51
277.306	45.23
277.521	88.23
277.737	57.51
277.952	45.23
278.168	69.8
278.383	37.03
278.599	20.65
278.814	61.61
279.03	-1.88
279.245	73.9
279.461	30.89
279.676	129.19
279.892	20.65
280.107	53.42
280.322	16.55
280.538	96.43
280.753	-5.97
280.969	106.67
281.184	-18.26
281.399	30.89
281.615	45.23
281.83	22.7
282.045	41.13
282.26	94.38
282.476	77.99
282.691	114.86
282.906	4.27
283.122	4.27
283.337	-3.93
283.552	86.19
283.767	8.36
283.983	94.38
284.198	-57.17
284.413	71.85
284.628	28.84
284.843	118.95
285.058	43.18
285.274	63.66
285.489	94.38
285.704	63.66
285.919	59.56
286.134	37.03
286.349	6.31
286.564	86.19
286.779	94.38
286.995	127.14
287.21	16.55
287.425	49.32
287.64	34.99
287.855	30.89
288.07	-137.04
288.285	61.61
288.5	57.51
288.715	69.8
288.93	118.95
289.145	94.38
289.36	28.84
289.575	73.9
289.79	92.33
290.004	110.76
290.219	121
290.434	34.99
290.649	53.42
290.864	63.66
291.079	47.27
291.294	39.08
291.509	-22.36
291.724	30.89
291.938	63.66
292.153	73.9
292.368	45.23
292.583	98.47
292.798	71.85
293.012	69.8
293.227	59.56
293.442	94.38
293.657	53.42
293.871	166.06
294.086	24.75
294.301	123.05
294.516	98.47
294.73	57.51
294.945	-1.88
295.16	123.05
295.374	143.53
295.589	86.19
295.804	10.41
296.018	30.89
296.233	32.94
296.447	139.43
296.662	63.66
296.877	69.8
297.091	32.94
297.306	-51.03
297.52	57.51
297.735	57.51
297.949	80.04
298.164	39.08
298.378	73.9
298.593	20.65
298.807	28.84
299.022	16.55
299.236	86.19
299.451	-40.79
299.665	45.23
299.88	67.75
300.094	49.32
300.309	41.13
300.523	53.42
300.737	75.95
300.952	102.57
301.166	96.43
301.381	6.31
301.595	77.99
301.809	24.75
302.024	96.43
302.238	63.66
302.452	121
302.667	37.03
302.881	92.33
303.095	28.84
303.309	28.84
303.524	49.32
303.738	47.27
303.952	-14.17
304.166	39.08
304.381	59.56
304.595	55.47
304.809	39.08
305.023	41.13
305.237	0.17
305.452	71.85
305.666	47.27
305.88	90.28
306.094	61.61
306.308	94.38
306.522	98.47
306.736	131.24
306.95	106.67
307.164	51.37
307.379	28.84
307.593	121
307.807	20.65
308.021	51.37
308.235	73.9
308.449	43.18
308.663	61.61
308.877	110.76
309.091	30.89
309.305	86.19
309.519	30.89
309.733	114.86
309.947	-14.17
310.161	88.23
310.374	86.19
310.588	45.23
310.802	73.9
311.016	30.89
311.23	59.56
311.444	45.23
311.658	71.85
311.872	30.89
312.085	96.43
312.299	61.61
312.513	71.85
312.727	86.19
312.941	20.65
313.154	118.95
313.368	0.17
313.582	90.28
313.796	-20.31
314.009	108.71
314.223	61.61
314.437	22.7
314.651	37.03
314.864	86.19
315.078	69.8
315.292	45.23
315.505	24.75
315.719	6.31
315.933	110.76
316.146	55.47
316.36	69.8
316.573	102.57
316.787	4.27
317.001	69.8
317.214	-12.12
317.428	82.09
317.641	28.84
317.855	63.66
318.068	53.42
318.282	53.42
318.495	135.34
318.709	77.99
318.922	41.13
319.136	51.37
319.349	18.6
319.563	53.42
319.776	47.27
319.99	-16.21
320.203	137.38
320.417	94.38
320.63	63.66
320.843	34.99
321.057	94.38
321.27	10.41
321.483	84.14
321.697	151.72
321.91	61.61
322.124	61.61
322.337	61.61
322.55	57.51
322.763	69.8
322.977	86.19
323.19	4.27
323.403	53.42
323.617	86.19
323.83	69.8
324.043	92.33
324.256	92.33
324.469	51.37
324.683	121
324.896	20.65
325.109	59.56
325.322	-14.17
325.535	86.19
325.748	69.8
325.962	65.71
326.175	6.31
326.388	147.62
326.601	102.57
326.814	-16.21
327.027	86.19
327.24	118.95
327.453	12.46
327.666	104.62
327.879	63.66
328.092	94.38
328.305	121
328.518	32.94
328.731	-28.5
328.944	0.17
329.157	84.14
329.37	102.57
329.583	77.99
329.796	159.91
330.009	-8.02
330.222	71.85
330.435	67.75
330.648	53.42
330.861	75.95
331.073	123.05
331.286	77.99
331.499	94.38
331.712	43.18
331.925	12.46
332.138	49.32
332.35	41.13
332.563	12.46
332.776	86.19
332.989	69.8
333.202	110.76
333.414	41.13
333.627	73.9
333.84	73.9
334.053	20.65
334.265	24.75
334.478	82.09
334.691	104.62
334.903	98.47
335.116	22.7
335.329	112.81
335.541	49.32
335.754	153.77
335.966	32.94
336.179	55.47
336.392	65.71
336.604	37.03
336.817	104.62
337.029	41.13
337.242	49.32
337.454	112.81
337.667	30.89
337.88	94.38
338.092	69.8
338.305	86.19
338.517	61.61
338.729	22.7
338.942	137.38
339.154	32.94
339.367	69.8
339.579	80.04
339.792	104.62
340.004	28.84
340.217	26.79
340.429	18.6
340.641	45.23
340.854	108.71
341.066	30.89
341.278	84.14
341.491	39.08
341.703	8.36
341.915	49.32
342.128	55.47
342.34	121
342.552	30.89
342.764	22.7
342.977	53.42
343.189	53.42
343.401	47.27
343.613	-18.26
343.826	123.05
344.038	41.13
344.25	53.42
344.462	22.7
344.674	47.27
344.886	94.38
345.099	86.19
345.311	155.82
345.523	6.31
345.735	49.32
345.947	149.67
346.159	88.23
346.371	118.95
346.583	102.57
346.795	63.66
347.007	61.61
347.219	69.8
347.431	-26.45
347.643	147.62
347.855	-42.84
348.067	98.47
348.279	14.51
348.491	80.04
348.703	53.42
348.915	45.23
349.127	34.99
349.339	73.9
349.551	67.75
349.763	106.67
349.975	63.66
350.187	41.13
350.399	108.71
350.61	145.58
350.822	100.52
351.034	104.62
351.246	26.79
351.458	67.75
351.669	112.81
351.881	82.09
352.093	75.95
352.305	65.71
352.517	67.75
352.728	96.43
352.94	32.94
353.152	102.57
353.363	63.66
353.575	108.71
353.787	137.38
353.999	80.04
354.21	133.29
354.422	61.61
354.633	37.03
354.845	63.66
355.057	110.76
355.268	141.48
355.48	80.04
355.692	45.23
355.903	20.65
356.115	96.43
356.326	67.75
356.538	127.14
356.749	49.32
356.961	69.8
357.172	47.27
357.384	49.32
357.595	174.25
357.807	102.57
358.018	86.19
358.23	32.94
358.441	65.71
358.653	57.51
358.864	127.14
359.075	-3.93
359.287	82.09
359.498	67.75
359.709	73.9
359.921	63.66
360.132	102.57
360.344	49.32
360.555	73.9
360.766	73.9
360.977	104.62
361.189	137.38
361.4	94.38
361.611	20.65
361.823	90.28
362.034	67.75
362.245	77.99
362.456	6.31
362.667	104.62
362.879	57.51
363.09	71.85
363.301	59.56
363.512	151.72
363.723	18.6
363.935	86.19
364.146	135.34
364.357	10.41
364.568	63.66
364.779	57.51
364.99	178.34
365.201	55.47
365.412	112.81
365.623	-8.02
365.834	106.67
366.045	135.34
366.256	14.51
366.467	159.91
366.678	-40.79
366.889	57.51
367.1	131.24
367.311	69.8
367.522	168.1
367.733	94.38
367.944	125.1
368.155	159.91
368.366	71.85
368.577	112.81
368.788	45.23
368.999	39.08
369.209	26.79
369.42	77.99
369.631	123.05
369.842	4.27
370.053	20.65
370.264	106.67
370.474	73.9
370.685	47.27
370.896	104.62
371.107	67.75
371.317	129.19
371.528	92.33
371.739	116.9
371.95	112.81
372.16	63.66
372.371	69.8
372.582	47.27
372.792	77.99
373.003	94.38
373.214	30.89
373.424	121
373.635	77.99
373.846	102.57
374.056	110.76
374.267	137.38
374.477	118.95
374.688	22.7
374.898	73.9
375.109	94.38
375.319	88.23
375.53	82.09
375.74	110.76
375.951	69.8
376.161	159.91
376.372	100.52
376.582	94.38
376.793	22.7
377.003	90.28
377.214	153.77
377.424	92.33
377.635	123.05
377.845	26.79
378.055	43.18
378.266	69.8
378.476	118.95
378.686	123.05
378.897	94.38
379.107	118.95
379.317	88.23
379.528	57.51
379.738	104.62
379.948	28.84
380.158	61.61
380.369	57.51
380.579	53.42
380.789	37.03
380.999	159.91
381.21	69.8
381.42	151.72
381.63	69.8
381.84	80.04
382.05	106.67
382.261	37.03
382.471	84.14
382.681	12.46
382.891	139.43
383.101	75.95
383.311	86.19
383.521	0.17
383.731	170.15
383.941	94.38
384.151	94.38
384.361	159.91
384.571	37.03
384.781	102.57
384.991	184.49
385.201	112.81
385.411	147.62
385.621	86.19
385.831	86.19
386.041	59.56
386.251	71.85
386.461	192.68
386.671	45.23
386.881	123.05
387.091	92.33
387.301	217.26
387.511	121
387.72	104.62
387.93	141.48
388.14	30.89
388.35	194.73
388.56	145.58
388.769	102.57
388.979	139.43
389.189	22.7
389.399	114.86
389.609	123.05
389.818	129.19
390.028	26.79
390.238	135.34
390.447	129.19
390.657	20.65
390.867	8.36
391.076	32.94
391.286	121
391.496	53.42
391.705	168.1
391.915	98.47
392.125	188.58
392.334	94.38
392.544	161.96
392.753	110.76
392.963	94.38
393.172	145.58
393.382	86.19
393.591	104.62
393.801	127.14
394.01	100.52
394.22	102.57
394.429	127.14
394.639	80.04
394.848	157.86
395.058	211.11
395.267	155.82
395.477	155.82
395.686	161.96
395.895	125.1
396.105	168.1
396.314	178.34
396.524	108.71
396.733	127.14
396.942	168.1
397.152	153.77
397.361	127.14
397.57	168.1
397.78	123.05
397.989	149.67
398.198	159.91
398.407	114.86
398.617	188.58
398.826	139.43
399.035	110.76
399.244	231.59
399.453	164.01
399.663	190.63
399.872	247.97
400.081	213.16
400.29	127.14
400.499	129.19
400.708	227.5
400.917	92.33
401.127	147.62
401.336	94.38
401.545	200.87
401.754	182.44
401.963	227.5
402.172	159.91
402.381	170.15
402.59	194.73
402.799	188.58
403.008	200.87
403.217	202.92
403.426	186.54
403.635	215.21
403.844	145.58
404.053	159.91
404.262	207.02
404.471	276.65
404.68	270.5
404.888	233.64
405.097	200.87
405.306	217.26
405.515	258.21
405.724	217.26
405.933	270.5
406.142	227.5
406.35	233.64
406.559	225.45
406.768	219.3
406.977	315.56
407.185	299.17
407.394	297.13
407.603	186.54
407.812	309.41
408.02	317.61
408.229	274.6
408.438	333.99
408.646	241.83
408.855	272.55
409.064	397.48
409.272	381.09
409.481	467.11
409.69	370.85
409.898	389.28
410.107	467.11
410.315	454.82
410.524	405.67
410.733	512.16
410.941	489.64
411.15	530.59
411.358	585.89
411.567	622.75
411.775	659.62
411.984	626.85
412.192	680.1
412.401	649.38
412.609	653.47
412.818	755.87
413.026	706.72
413.234	786.59
413.443	811.17
413.651	741.54
413.86	811.17
414.068	907.42
414.276	858.27
414.485	880.8
414.693	880.8
414.901	909.47
415.11	1011.87
415.318	950.43
415.526	1026.2
415.734	1167.51
415.943	1179.8
416.151	1171.61
416.359	1161.37
416.567	1153.18
416.776	1392.79
416.984	1335.45
417.192	1261.72
417.4	1413.27
417.608	1511.57
417.817	1470.61
418.025	1599.63
418.233	1644.69
418.441	1577.11
418.649	1759.38
418.857	1788.05
419.065	1867.92
419.273	1833.1
419.481	1855.63
419.689	2134.15
419.897	2308.23
420.105	2101.39
420.313	2287.75
420.521	2379.91
420.729	2269.32
420.937	2359.43
421.145	2576.52
421.353	2609.28
421.561	2717.83
421.769	2879.61
421.977	2828.42
422.185	2904.19
422.393	3051.64
422.601	3242.11
422.809	3143.8
423.017	3215.48
423.224	3326.07
423.432	3600.5
423.64	3416.18
423.848	3709.04
424.056	3807.34
424.263	4006
424.471	4026.48
424.679	4053.1
424.887	4147.31
425.094	4391.02
425.302	4491.37
425.51	4642.92
425.718	4782.18
425.925	4831.33
426.133	5011.55
426.341	5328.99
426.548	5552.21
426.756	5455.96
426.964	5554.26
427.171	5959.76
427.379	5918.8
427.586	6199.37
427.794	6322.25
428.001	6574.15
428.209	6891.59
428.417	6871.11
428.624	7206.97
428.832	7381.05
429.039	7274.56
429.247	7241.79
429.454	8075.31
429.662	8583.21
429.869	7897.14
430.076	8550.44
430.284	8335.4
430.491	8435.75
430.699	9105.44
430.906	9062.43
431.114	9359.39
431.321	9666.58
431.528	9875.48
431.736	10299.41
431.943	10731.53
432.15	10358.8
432.358	10514.44
432.565	11309.05
432.772	11030.53
432.979	11612.15
433.187	11915.25
433.394	12042.23
433.601	12636.14
433.808	12881.89
434.016	12650.47
434.223	13357.02
434.43	14018.52
434.637	13492.19
434.844	14759.88
435.052	14911.43
435.259	14741.45
435.466	14733.26
435.673	14661.58
435.88	15751.1
436.087	16459.7
436.294	16322.48
436.501	16175.03
436.708	16508.85
436.915	17332.13
437.122	17690.52
437.329	17526.69
437.537	18071.45
437.743	18395.03
437.95	18315.16
438.157	19603.33
438.364	19924.86
438.571	19847.04
438.778	19902.33
438.985	22028.12
439.192	20903.79
439.399	21731.17
439.606	21213.03
439.813	22464.34
440.02	23461.7
440.227	23469.89
440.433	23007.05
440.64	23754.56
440.847	23439.17
441.054	24147.77
441.261	25714.47
441.467	25337.64
441.674	25978.65
441.881	26951.44
442.088	26879.76
442.294	26955.54
442.501	27019.02
442.708	27504.39
442.914	29085.42
443.121	30029.54
443.328	29193.97
443.534	31317.71
443.741	30414.55
443.948	29646.57
444.154	32300.73
444.361	31872.71
444.568	32036.55
444.774	32454.33
444.981	32489.15
445.187	33435.31
445.394	34750.1
445.6	34428.57
445.807	38014.57
446.013	35944.07
446.22	36781.69
446.426	37858.92
446.633	38475.36
446.839	39534.16
447.046	38098.53
447.252	40257.09
447.459	40164.93
447.665	40085.06
447.871	41944.62
448.078	43451.92
448.284	41236.02
448.491	42303.01
448.697	44240.39
448.903	44953.08
449.11	45227.51
449.316	44416.52
449.522	44944.89
449.728	46114.28
449.935	46149.1
450.141	46355.94
450.347	47656.4
450.553	46128.62
450.76	46341.61
450.966	47523.29
451.172	47617.49
451.378	49034.69
451.584	47488.47
451.791	48696.77
451.997	48434.63
452.203	49601.97
452.409	49401.27
452.615	49489.34
452.821	47392.22
453.027	46974.43
453.233	49694.13
453.44	47674.84
453.646	48203.21
453.852	48149.96
454.058	49079.74
454.264	47439.32
454.47	48530.89
454.676	47465.94
454.882	48952.77
455.088	45194.75
455.294	45454.84
455.5	46183.91
455.705	46757.35
455.911	44805.63
456.117	44322.31
456.323	43349.53
456.529	41418.29
456.735	42817.05
456.941	42122.79
457.147	41575.98
457.352	40087.11
457.558	39990.86
457.764	39654.99
457.97	38921.82
458.176	38196.84
458.381	38268.51
458.587	36183.68
458.793	36529.79
458.999	34633.37
459.204	37070.45
459.41	35821.19
459.616	33625.77
459.821	33762.98
460.027	33480.36
460.233	32900.79
460.438	31239.89
460.644	31592.14
460.85	29701.86
461.055	29619.94
461.261	29777.64
461.466	27696.9
461.672	26629.91
461.878	28630.77
462.083	26529.56
462.289	25755.43
462.494	25655.08
462.7	24702.77
462.905	24293.18
463.111	24921.9
463.316	25253.67
463.522	24430.39
463.727	24479.54
463.932	24432.44
464.138	24147.77
464.343	24258.36
464.549	23351.11
464.754	24319.8
464.959	24319.8
465.165	23887.68
465.37	22908.75
465.575	22456.15
465.781	23213.9
465.986	23330.63
466.191	22654.8
466.397	21968.73
