Data from USB4F104151__113__14-18-19-433.txt Node

Date: Thu Mar 13 14:18:19 EDT 2025
User: louis
Spectrometer: USB4F10415
Trigger mode: 4
Integration Time (sec): 2.000000E-2
Scans to average: 1
Electric dark correction enabled: true
Nonlinearity correction enabled: false
Boxcar width: 0
XAxis mode: Wavelengths
Number of Pixels in Spectrum: 3648
>>>>>Begin Spectral Data<<<<<
178.204	-108.54
178.424	-108.54
178.644	-108.54
178.864	-159.74
179.084	-174.08
179.304	81.92
179.524	-36.86
179.744	-55.3
179.964	-4.1
180.184	28.67
180.404	-20.48
180.624	22.53
180.844	36.86
181.064	-83.97
181.283	-4.1
181.503	6.14
181.723	28.67
181.943	-45.06
182.163	4.1
182.383	-4.1
182.602	-36.86
182.822	12.29
183.042	28.67
183.262	-36.86
183.482	-4.1
183.701	32.77
183.921	20.48
184.141	-77.82
184.361	81.92
184.58	18.43
184.8	55.3
185.02	47.1
185.239	55.3
185.459	-45.06
185.679	38.91
185.898	30.72
186.118	98.3
186.338	16.38
186.557	102.4
186.777	-10.24
186.997	22.53
187.216	-26.62
187.436	96.25
187.655	55.3
187.875	28.67
188.095	-14.34
188.314	12.29
188.534	-40.96
188.753	2.05
188.973	45.06
189.192	110.59
189.412	28.67
189.631	4.1
189.851	14.34
190.07	77.82
190.29	-36.86
190.509	86.01
190.729	-4.1
190.948	22.53
191.168	86.01
191.387	-4.1
191.607	-10.24
191.826	32.77
192.045	40.96
192.265	-22.53
192.484	2.05
192.704	30.72
192.923	-20.48
193.142	110.59
193.362	-59.39
193.581	-14.34
193.8	-18.43
194.02	53.25
194.239	63.49
194.458	67.58
194.678	71.68
194.897	36.86
195.116	12.29
195.335	22.53
195.555	-20.48
195.774	32.77
195.993	-2.05
196.212	53.25
196.432	-2.05
196.651	-24.58
196.87	-36.86
197.089	81.92
197.308	90.11
197.528	53.25
197.747	65.53
197.966	-18.43
198.185	55.3
198.404	61.44
198.623	-4.1
198.842	-4.1
199.062	-53.25
199.281	2.05
199.5	49.15
199.719	26.62
199.938	110.59
200.157	18.43
200.376	4.1
200.595	53.25
200.814	16.38
201.033	110.59
201.252	90.11
201.471	38.91
201.69	20.48
201.909	40.96
202.128	22.53
202.347	6.14
202.566	47.1
202.785	-40.96
203.004	32.77
203.223	77.82
203.442	-12.29
203.661	57.34
203.879	14.34
204.098	51.2
204.317	28.67
204.536	104.45
204.755	71.68
204.974	28.67
205.193	45.06
205.411	104.45
205.63	18.43
205.849	-8.19
206.068	-12.29
206.287	-18.43
206.505	16.38
206.724	26.62
206.943	24.58
207.162	61.44
207.381	114.69
207.599	-55.3
207.818	73.73
208.037	36.86
208.255	38.91
208.474	-61.44
208.693	53.25
208.911	10.24
209.13	83.97
209.349	-40.96
209.567	2.05
209.786	75.77
210.005	49.15
210.223	86.01
210.442	6.14
210.661	94.21
210.879	-20.48
211.098	12.29
211.316	24.58
211.535	59.39
211.753	45.06
211.972	90.11
212.191	4.1
212.409	12.29
212.628	-2.05
212.846	38.91
213.065	61.44
213.283	10.24
213.502	30.72
213.72	38.91
213.938	32.77
214.157	-14.34
214.375	16.38
214.594	12.29
214.812	18.43
215.031	45.06
215.249	-2.05
215.467	28.67
215.686	43.01
215.904	36.86
216.122	18.43
216.341	18.43
216.559	67.58
216.778	36.86
216.996	45.06
217.214	36.86
217.432	67.58
217.651	94.21
217.869	4.1
218.087	53.25
218.306	12.29
218.524	40.96
218.742	4.1
218.96	43.01
219.179	47.1
219.397	4.1
219.615	129.02
219.833	-26.62
220.051	24.58
220.27	8.19
220.488	22.53
220.706	-18.43
220.924	63.49
221.142	-16.38
221.36	12.29
221.578	61.44
221.796	-16.38
222.015	10.24
222.233	16.38
222.451	71.68
222.669	73.73
222.887	2.05
223.105	-28.67
223.323	-28.67
223.541	63.49
223.759	63.49
223.977	28.67
224.195	55.3
224.413	-32.77
224.631	20.48
224.849	24.58
225.067	102.4
225.285	-32.77
225.503	-32.77
225.721	4.1
225.939	-47.1
226.157	24.58
226.375	106.49
226.592	24.58
226.81	-16.38
227.028	65.53
227.246	114.69
227.464	88.06
227.682	-6.14
227.9	45.06
228.117	55.3
228.335	92.16
228.553	90.11
228.771	40.96
228.989	6.14
229.206	4.1
229.424	-12.29
229.642	38.91
229.86	-83.97
230.077	16.38
230.295	-0
230.513	73.73
230.731	86.01
230.948	102.4
231.166	90.11
231.384	16.38
231.601	20.48
231.819	16.38
232.037	14.34
232.254	-0
232.472	-86.01
232.689	-49.15
232.907	67.58
233.125	-28.67
233.342	14.34
233.56	65.53
233.777	-45.06
233.995	-18.43
234.213	30.72
234.43	36.86
234.648	22.53
234.865	61.44
235.083	81.92
235.3	22.53
235.518	-4.1
235.735	92.16
235.953	61.44
236.17	-6.14
236.388	-40.96
236.605	47.1
236.822	40.96
237.04	32.77
237.257	4.1
237.475	-45.06
237.692	96.25
237.909	57.34
238.127	-28.67
238.344	8.19
238.562	100.35
238.779	-47.1
238.996	-6.14
239.214	-26.62
239.431	45.06
239.648	-2.05
239.865	47.1
240.083	20.48
240.3	28.67
240.517	57.34
240.735	67.58
240.952	47.1
241.169	-45.06
241.386	8.19
241.603	36.86
241.821	-38.91
242.038	61.44
242.255	16.38
242.472	36.86
242.689	69.63
242.907	69.63
243.124	34.82
243.341	8.19
243.558	59.39
243.775	24.58
243.992	28.67
244.209	65.53
244.426	2.05
244.643	59.39
244.86	98.3
245.078	12.29
245.295	12.29
245.512	55.3
245.729	28.67
245.946	45.06
246.163	-67.58
246.38	47.1
246.597	-18.43
246.814	16.38
247.031	30.72
247.248	69.63
247.464	12.29
247.681	-2.05
247.898	10.24
248.115	20.48
248.332	-12.29
248.549	110.59
248.766	81.92
248.983	63.49
249.2	102.4
249.417	88.06
249.633	-20.48
249.85	45.06
250.067	32.77
250.284	-51.2
250.501	10.24
250.717	-4.1
250.934	-47.1
251.151	24.58
251.368	30.72
251.585	96.25
251.801	-4.1
252.018	-83.97
252.235	47.1
252.451	-2.05
252.668	6.14
252.885	38.91
253.102	28.67
253.318	-45.06
253.535	20.48
253.752	4.1
253.968	18.43
254.185	20.48
254.401	-34.82
254.618	-16.38
254.835	-16.38
255.051	65.53
255.268	14.34
255.484	20.48
255.701	53.25
255.917	94.21
256.134	8.19
256.351	49.15
256.567	63.49
256.784	43.01
257	-38.91
257.217	36.86
257.433	43.01
257.65	75.77
257.866	14.34
258.082	-20.48
258.299	20.48
258.515	81.92
258.732	16.38
258.948	8.19
259.165	69.63
259.381	-10.24
259.597	51.2
259.814	22.53
260.03	4.1
260.246	61.44
260.463	114.69
260.679	40.96
260.895	43.01
261.112	49.15
261.328	45.06
261.544	63.49
261.761	32.77
261.977	12.29
262.193	-4.1
262.409	98.3
262.626	61.44
262.842	-16.38
263.058	-0
263.274	16.38
263.49	-49.15
263.707	77.82
263.923	116.73
264.139	-59.39
264.355	-20.48
264.571	63.49
264.787	98.3
265.004	24.58
265.22	34.82
265.436	28.67
265.652	-20.48
265.868	94.21
266.084	30.72
266.3	43.01
266.516	-24.58
266.732	-26.62
266.948	20.48
267.164	49.15
267.38	38.91
267.596	65.53
267.812	45.06
268.028	-4.1
268.244	14.34
268.46	43.01
268.676	73.73
268.892	40.96
269.108	-10.24
269.324	24.58
269.54	-83.97
269.756	53.25
269.972	-30.72
270.188	-61.44
270.403	-16.38
270.619	20.48
270.835	36.86
271.051	-2.05
271.267	-20.48
271.483	36.86
271.698	28.67
271.914	57.34
272.13	16.38
272.346	6.14
272.562	18.43
272.777	-4.1
272.993	22.53
273.209	2.05
273.425	63.49
273.64	22.53
273.856	22.53
274.072	61.44
274.287	-24.58
274.503	49.15
274.719	12.29
274.934	57.34
275.15	53.25
275.366	30.72
275.581	-12.29
275.797	40.96
276.012	-38.91
276.228	12.29
276.444	-4.1
276.659	40.96
276.875	-4.1
277.09	14.34
277.306	12.29
277.521	-12.29
277.737	2.05
277.952	4.1
278.168	79.87
278.383	-12.29
278.599	51.2
278.814	26.62
279.03	22.53
279.245	45.06
279.461	-6.14
279.676	-16.38
279.892	24.58
280.107	18.43
280.322	-34.82
280.538	34.82
280.753	12.29
280.969	-2.05
281.184	-16.38
281.399	94.21
281.615	110.59
281.83	47.1
282.045	55.3
282.26	22.53
282.476	34.82
282.691	47.1
282.906	-24.58
283.122	32.77
283.337	90.11
283.552	32.77
283.767	-0
283.983	53.25
284.198	-10.24
284.413	28.67
284.628	49.15
284.843	45.06
285.058	75.77
285.274	65.53
285.489	-2.05
285.704	141.31
285.919	-6.14
286.134	69.63
286.349	-10.24
286.564	-51.2
286.779	-36.86
286.995	-2.05
287.21	-12.29
287.425	28.67
287.64	-0
287.855	110.59
288.07	-8.19
288.285	45.06
288.5	90.11
288.715	53.25
288.93	-10.24
289.145	32.77
289.36	20.48
289.575	34.82
289.79	-36.86
290.004	12.29
290.219	45.06
290.434	12.29
290.649	-75.77
290.864	12.29
291.079	24.58
291.294	69.63
291.509	20.48
291.724	43.01
291.938	30.72
292.153	69.63
292.368	16.38
292.583	77.82
292.798	45.06
293.012	12.29
293.227	81.92
293.442	43.01
293.657	71.68
293.871	98.3
294.086	20.48
294.301	45.06
294.516	94.21
294.73	63.49
294.945	-14.34
295.16	36.86
295.374	22.53
295.589	-2.05
295.804	16.38
296.018	53.25
296.233	102.4
296.447	32.77
296.662	-4.1
296.877	12.29
297.091	51.2
297.306	47.1
297.52	47.1
297.735	-36.86
297.949	61.44
298.164	86.01
298.378	-14.34
298.593	57.34
298.807	-0
299.022	28.67
299.236	86.01
299.451	45.06
299.665	10.24
299.88	45.06
300.094	20.48
300.309	63.49
300.523	20.48
300.737	94.21
300.952	36.86
301.166	4.1
301.381	53.25
301.595	45.06
301.809	-14.34
302.024	36.86
302.238	30.72
302.452	22.53
302.667	90.11
302.881	122.88
303.095	28.67
303.309	63.49
303.524	38.91
303.738	55.3
303.952	71.68
304.166	-36.86
304.381	16.38
304.595	88.06
304.809	-24.58
305.023	61.44
305.237	-67.58
305.452	-2.05
305.666	88.06
305.88	61.44
306.094	61.44
306.308	-8.19
306.522	18.43
306.736	61.44
306.95	49.15
307.164	12.29
307.379	6.14
307.593	94.21
307.807	73.73
308.021	92.16
308.235	24.58
308.449	69.63
308.663	73.73
308.877	47.1
309.091	40.96
309.305	102.4
309.519	-36.86
309.733	53.25
309.947	6.14
310.161	77.82
310.374	14.34
310.588	36.86
310.802	49.15
311.016	55.3
311.23	38.91
311.444	14.34
311.658	45.06
311.872	47.1
312.085	73.73
312.299	61.44
312.513	57.34
312.727	92.16
312.941	94.21
313.154	71.68
313.368	22.53
313.582	36.86
313.796	4.1
314.009	45.06
314.223	51.2
314.437	102.4
314.651	51.2
314.864	90.11
315.078	53.25
315.292	71.68
315.505	12.29
315.719	45.06
315.933	18.43
316.146	4.1
316.36	6.14
316.573	22.53
316.787	20.48
317.001	53.25
317.214	-26.62
317.428	-4.1
317.641	81.92
317.855	12.29
318.068	-51.2
318.282	4.1
318.495	63.49
318.709	118.78
318.922	4.1
319.136	126.97
319.349	88.06
319.563	14.34
319.776	34.82
319.99	63.49
320.203	110.59
320.417	75.77
320.63	71.68
320.843	51.2
321.057	12.29
321.27	22.53
321.483	14.34
321.697	53.25
321.91	83.97
322.124	69.63
322.337	65.53
322.55	-59.39
322.763	67.58
322.977	69.63
323.19	86.01
323.403	-12.29
323.617	8.19
323.83	102.4
324.043	-18.43
324.256	34.82
324.469	47.1
324.683	18.43
324.896	-10.24
325.109	65.53
325.322	-8.19
325.535	118.78
325.748	-10.24
325.962	-10.24
326.175	83.97
326.388	75.77
326.601	-16.38
326.814	-26.62
327.027	-2.05
327.24	79.87
327.453	49.15
327.666	2.05
327.879	38.91
328.092	43.01
328.305	-57.34
328.518	36.86
328.731	-22.53
328.944	55.3
329.157	-4.1
329.37	49.15
329.583	69.63
329.796	96.25
330.009	6.14
330.222	55.3
330.435	55.3
330.648	65.53
330.861	69.63
331.073	24.58
331.286	43.01
331.499	61.44
331.712	63.49
331.925	-40.96
332.138	65.53
332.35	88.06
332.563	22.53
332.776	118.78
332.989	36.86
333.202	47.1
333.414	53.25
333.627	-8.19
333.84	10.24
334.053	53.25
334.265	110.59
334.478	16.38
334.691	73.73
334.903	86.01
335.116	28.67
335.329	26.62
335.541	55.3
335.754	114.69
335.966	4.1
336.179	61.44
336.392	75.77
336.604	16.38
336.817	45.06
337.029	81.92
337.242	-16.38
337.454	55.3
337.667	36.86
337.88	71.68
338.092	49.15
338.305	38.91
338.517	77.82
338.729	32.77
338.942	32.77
339.154	12.29
339.367	12.29
339.579	34.82
339.792	-4.1
340.004	40.96
340.217	14.34
340.429	20.48
340.641	-22.53
340.854	40.96
341.066	2.05
341.278	110.59
341.491	75.77
341.703	61.44
341.915	24.58
342.128	8.19
342.34	77.82
342.552	22.53
342.764	81.92
342.977	38.91
343.189	26.62
343.401	65.53
343.613	118.78
343.826	24.58
344.038	55.3
344.25	92.16
344.462	77.82
344.674	73.73
344.886	-6.14
345.099	-8.19
345.311	28.67
345.523	49.15
345.735	-47.1
345.947	75.77
346.159	-4.1
346.371	81.92
346.583	126.97
346.795	116.73
347.007	22.53
347.219	61.44
347.431	16.38
347.643	65.53
347.855	-20.48
348.067	129.02
348.279	-12.29
348.491	-20.48
348.703	-8.19
348.915	94.21
349.127	43.01
349.339	45.06
349.551	81.92
349.763	34.82
349.975	69.63
350.187	106.49
350.399	92.16
350.61	8.19
350.822	77.82
351.034	-4.1
351.246	-18.43
351.458	61.44
351.669	32.77
351.881	102.4
352.093	112.64
352.305	88.06
352.517	83.97
352.728	102.4
352.94	100.35
353.152	45.06
353.363	-4.1
353.575	16.38
353.787	143.36
353.999	69.63
354.21	43.01
354.422	20.48
354.633	94.21
354.845	69.63
355.057	77.82
355.268	71.68
355.48	47.1
355.692	6.14
355.903	36.86
356.115	12.29
356.326	75.77
356.538	129.02
356.749	94.21
356.961	135.17
357.172	51.2
357.384	26.62
357.595	94.21
357.807	83.97
358.018	-10.24
358.23	75.77
358.441	65.53
358.653	53.25
358.864	30.72
359.075	22.53
359.287	30.72
359.498	86.01
359.709	24.58
359.921	86.01
360.132	73.73
360.344	28.67
360.555	77.82
360.766	40.96
360.977	106.49
361.189	110.59
361.4	4.1
361.611	86.01
361.823	30.72
362.034	28.67
362.245	-26.62
362.456	4.1
362.667	55.3
362.879	77.82
363.09	118.78
363.301	18.43
363.512	10.24
363.723	108.54
363.935	20.48
364.146	12.29
364.357	135.17
364.568	36.86
364.779	-28.67
364.99	96.25
365.201	77.82
365.412	120.83
365.623	53.25
365.834	36.86
366.045	-4.1
366.256	96.25
366.467	69.63
366.678	77.82
366.889	69.63
367.1	26.62
367.311	30.72
367.522	-59.39
367.733	120.83
367.944	118.78
368.155	65.53
368.366	16.38
368.577	63.49
368.788	90.11
368.999	-20.48
369.209	65.53
369.42	-26.62
369.631	75.77
369.842	30.72
370.053	20.48
370.264	61.44
370.474	16.38
370.685	49.15
370.896	30.72
371.107	8.19
371.317	38.91
371.528	53.25
371.739	47.1
371.95	38.91
372.16	102.4
372.371	-49.15
372.582	16.38
372.792	81.92
373.003	77.82
373.214	65.53
373.424	77.82
373.635	-16.38
373.846	106.49
374.056	36.86
374.267	32.77
374.477	102.4
374.688	90.11
374.898	30.72
375.109	77.82
375.319	79.87
375.53	104.45
375.74	53.25
375.951	55.3
376.161	32.77
376.372	71.68
376.582	61.44
376.793	53.25
377.003	43.01
377.214	14.34
377.424	96.25
377.635	57.34
377.845	4.1
378.055	61.44
378.266	30.72
378.476	28.67
378.686	116.73
378.897	51.2
379.107	61.44
379.317	73.73
379.528	14.34
379.738	63.49
379.948	38.91
380.158	14.34
380.369	6.14
380.579	22.53
380.789	45.06
380.999	32.77
381.21	133.12
381.42	55.3
381.63	104.45
381.84	59.39
382.05	104.45
382.261	73.73
382.471	110.59
382.681	38.91
382.891	88.06
383.101	65.53
383.311	63.49
383.521	-8.19
383.731	102.4
383.941	126.97
384.151	51.2
384.361	-28.67
384.571	94.21
384.781	14.34
384.991	53.25
385.201	147.45
385.411	73.73
385.621	14.34
385.831	63.49
386.041	4.1
386.251	114.69
386.461	30.72
386.671	69.63
386.881	40.96
387.091	104.45
387.301	-28.67
387.511	36.86
387.72	38.91
387.93	36.86
388.14	-20.48
388.35	83.97
388.56	153.6
388.769	77.82
388.979	-2.05
389.189	32.77
389.399	118.78
389.609	69.63
389.818	71.68
390.028	86.01
390.238	151.55
390.447	49.15
390.657	49.15
390.867	45.06
391.076	14.34
391.286	118.78
391.496	77.82
391.705	112.64
391.915	71.68
392.125	86.01
392.334	65.53
392.544	104.45
392.753	92.16
392.963	90.11
393.172	133.12
393.382	69.63
393.591	135.17
393.801	40.96
394.01	143.36
394.22	81.92
394.429	71.68
394.639	49.15
394.848	102.4
395.058	135.17
395.267	116.73
395.477	126.97
395.686	98.3
395.895	147.45
396.105	184.32
396.314	118.78
396.524	139.26
396.733	159.74
396.942	102.4
397.152	55.3
397.361	206.84
397.57	110.59
397.78	137.21
397.989	47.1
398.198	202.75
398.407	73.73
398.617	131.07
398.826	139.26
399.035	135.17
399.244	174.08
399.453	96.25
399.663	122.88
399.872	151.55
400.081	102.4
400.29	124.93
400.499	96.25
400.708	143.36
400.917	145.41
401.127	90.11
401.336	184.32
401.545	102.4
401.754	251.9
401.963	192.51
402.172	106.49
402.381	112.64
402.59	116.73
402.799	186.37
403.008	163.84
403.217	137.21
403.426	116.73
403.635	212.99
403.844	225.28
404.053	124.93
404.262	167.93
404.471	225.28
404.68	192.51
404.888	208.89
405.097	215.04
405.306	182.27
405.515	161.79
405.724	180.22
405.933	208.89
406.142	258.04
406.35	251.9
406.559	227.32
406.768	319.48
406.977	235.52
407.185	280.57
407.394	315.39
407.603	284.67
407.812	339.96
408.02	327.67
408.229	311.29
408.438	233.47
408.646	315.39
408.855	315.39
409.064	348.15
409.272	380.92
409.481	460.79
409.69	339.96
409.898	385.02
410.107	442.36
410.315	339.96
410.524	464.89
410.733	423.93
410.941	417.79
411.15	536.57
411.358	532.47
411.567	509.94
411.775	495.61
411.984	477.18
412.192	544.76
412.401	634.87
412.609	557.05
412.818	702.45
413.026	587.77
413.234	698.36
413.443	724.98
413.651	735.22
413.86	714.74
414.068	901.11
414.276	890.87
414.485	856.05
414.693	933.87
414.901	905.2
415.11	972.79
415.318	890.87
415.526	993.26
415.734	1069.04
415.943	1064.94
416.151	1128.43
416.359	1124.33
416.567	1183.73
416.776	1224.69
416.984	1320.94
417.192	1294.32
417.4	1331.18
417.608	1314.8
417.817	1372.14
418.025	1445.87
418.233	1675.24
418.441	1572.84
418.649	1642.47
418.857	1849.32
419.065	1691.62
419.273	1738.73
419.481	1830.88
419.689	1964
419.897	2111.46
420.105	2021.35
420.313	2035.68
420.521	2179.04
420.729	2228.19
420.937	2365.4
421.145	2408.41
421.353	2478.04
421.561	2551.77
421.769	2686.93
421.977	2815.96
422.185	2723.8
422.393	3010.51
422.601	3215.31
422.809	3076.05
423.017	3086.29
423.224	3321.81
423.432	3520.46
423.64	3487.69
423.848	3559.37
424.056	3772.36
424.263	3975.11
424.471	3848.13
424.679	4022.21
424.887	4155.33
425.094	4298.69
425.302	4566.97
425.51	4526.01
425.718	4591.55
425.925	4777.91
426.133	4923.32
426.341	5107.63
426.548	5312.43
426.756	5275.57
426.964	5484.46
427.171	5853.09
427.379	6006.69
427.586	5916.58
427.794	6234.02
428.001	6354.85
428.209	6774.68
428.417	6576.03
428.624	7032.72
428.832	7100.31
429.039	7204.75
429.247	7165.84
429.454	7671.69
429.662	8216.45
429.869	7591.82
430.076	8236.93
430.284	7939.97
430.491	8310.66
430.699	8824.7
430.906	8937.34
431.114	9000.82
431.321	9305.97
431.528	9516.91
431.736	9998.18
431.943	10538.85
432.15	10131.3
432.358	10182.5
432.565	10731.36
432.772	10829.66
432.979	11468.62
433.187	11628.37
433.394	11530.06
433.601	12592.96
433.808	12455.75
434.016	12314.44
434.223	12988.22
434.43	13594.42
434.637	13242.17
434.844	14063.4
435.052	14561.06
435.259	14595.87
435.466	14593.83
435.673	14249.77
435.88	15292.18
436.087	16006.92
436.294	15990.54
436.501	15843.09
436.708	16062.22
436.915	16563.97
437.122	17346.3
437.329	17397.49
437.537	17839.86
437.743	17968.88
437.95	17981.17
438.157	19027.68
438.364	19431.13
438.571	19433.18
438.778	19531.48
438.985	21370.55
439.192	20602.57
439.399	21216.96
439.606	20502.22
439.813	21937.84
440.02	23342.75
440.227	23203.49
440.433	22480.55
440.64	23420.57
440.847	23205.53
441.054	23512.73
441.261	25257.6
441.467	24925.83
441.674	25615.99
441.881	26388.08
442.088	26076.79
442.294	26046.07
442.501	26601.07
442.708	27485.79
442.914	28366.42
443.121	29599.29
443.328	28597.84
443.534	30660.14
443.741	30299.7
443.948	29435.45
444.154	31602.21
444.361	31364.64
444.568	31256.1
444.774	31766.04
444.981	31880.73
445.187	32869.9
445.394	33838.59
445.6	33793.53
445.807	36783.57
446.013	35294.69
446.22	35700.19
446.426	37340.61
446.633	38086.07
446.839	39134.63
447.046	37221.83
447.252	39308.71
447.459	39353.77
447.665	39327.14
447.871	40449.43
448.078	42333.56
448.284	40773.01
448.491	41612.68
448.697	43283.82
448.903	43863.39
449.11	44090.72
449.316	43418.99
449.522	44318.04
449.728	45270.35
449.935	45577.54
450.141	45618.5
450.347	46247.23
450.553	44961.11
450.76	45729.09
450.966	47406.38
451.172	46794.04
451.378	47834.41
451.584	46955.83
451.791	48493.85
451.997	48008.48
452.203	49063.19
452.409	48891.16
452.615	48524.57
452.821	46980.4
453.027	45669.7
453.233	48633.11
453.44	46517.56
453.646	47095.09
453.852	47645.99
454.058	48483.61
454.264	46662.97
454.47	47824.17
454.676	46277.95
454.882	47586.6
455.088	44008.8
455.294	44819.8
455.5	45524.3
455.705	45954.37
455.911	44615
456.117	43214.19
456.323	42628.47
456.529	40474.01
456.735	42429.82
456.941	41344.39
457.147	40531.35
457.352	39370.15
457.558	39456.17
457.764	39175.59
457.97	38092.22
458.176	37729.73
458.381	37766.59
458.587	35646.94
458.793	35415.52
458.999	34412.02
459.204	36734.42
459.41	35182.06
459.616	32855.56
459.821	33021.45
460.027	33410.56
460.233	32312.85
460.438	30770.73
460.644	30897.7
460.85	29699.64
461.055	29079.11
461.261	29183.55
461.466	27104.87
461.672	26392.17
461.878	28221.01
462.083	25972.34
462.289	25771.64
462.494	25652.86
462.7	24612.49
462.905	23789.2
463.111	24387.21
463.316	24655.5
463.522	24045.2
463.727	24280.72
463.932	24313.48
464.138	23869.08
464.343	23907.99
464.549	23262.88
464.754	23758.49
464.959	23758.49
465.165	23275.16
465.37	22660.77
465.575	21943.99
465.781	22845.09
465.986	23008.93
466.191	22167.21
466.397	21925.55
466.602	20557.51
466.807	21315.26
467.012	21651.13
467.218	21354.17
