Data from USB4F104151__305__14-24-09-029.txt Node

Date: Thu Mar 13 14:24:09 EDT 2025
User: louis
Spectrometer: USB4F10415
Trigger mode: 4
Integration Time (sec): 2.000000E-2
Scans to average: 1
Electric dark correction enabled: true
Nonlinearity correction enabled: false
Boxcar width: 0
XAxis mode: Wavelengths
Number of Pixels in Spectrum: 3648
>>>>>Begin Spectral Data<<<<<
178.204	-124.76
178.424	-124.76
178.644	-124.76
178.864	-83.8
179.084	-141.14
179.304	22.7
179.524	8.36
179.744	-83.8
179.964	2.22
180.184	6.31
180.404	49.32
180.624	26.79
180.844	26.79
181.064	-48.98
181.283	59.56
181.503	-77.65
181.723	8.36
181.943	-73.56
182.163	-28.5
182.383	-10.07
182.602	61.61
182.822	14.51
183.042	24.75
183.262	-16.21
183.482	22.7
183.701	-61.27
183.921	22.7
184.141	34.99
184.361	-10.07
184.58	-55.12
184.8	65.71
185.02	-63.32
185.239	-46.93
185.459	14.51
185.679	30.89
185.898	-32.6
186.118	0.17
186.338	41.13
186.557	14.51
186.777	-51.03
186.997	41.13
187.216	90.28
187.436	32.94
187.655	80.04
187.875	30.89
188.095	34.99
188.314	-5.97
188.534	39.08
188.753	34.99
188.973	49.32
189.192	69.8
189.412	-18.26
189.631	34.99
189.851	4.27
190.07	-10.07
190.29	34.99
190.509	6.31
190.729	-5.97
190.948	14.51
191.168	114.86
191.387	75.95
191.607	18.6
191.826	59.56
192.045	63.66
192.265	55.47
192.484	47.27
192.704	32.94
192.923	-48.98
193.142	88.23
193.362	37.03
193.581	0.17
193.8	8.36
194.02	43.18
194.239	67.75
194.458	47.27
194.678	4.27
194.897	22.7
195.116	-1.88
195.335	-18.26
195.555	28.84
195.774	32.94
195.993	73.9
196.212	112.81
196.432	-26.45
196.651	6.31
196.87	37.03
197.089	90.28
197.308	24.75
197.528	-8.02
197.747	-91.99
197.966	39.08
198.185	18.6
198.404	-16.21
198.623	-55.12
198.842	96.43
199.062	-12.12
199.281	18.6
199.5	24.75
199.719	39.08
199.938	10.41
200.157	26.79
200.376	51.37
200.595	57.51
200.814	18.6
201.033	30.89
201.252	47.27
201.471	73.9
201.69	57.51
201.909	6.31
202.128	104.62
202.347	-1.88
202.566	-10.07
202.785	-10.07
203.004	-36.69
203.223	63.66
203.442	53.42
203.661	8.36
203.879	90.28
204.098	88.23
204.317	-75.6
204.536	20.65
204.755	39.08
204.974	6.31
205.193	-10.07
205.411	108.71
205.63	45.23
205.849	-32.6
206.068	84.14
206.287	-1.88
206.505	-3.93
206.724	26.79
206.943	-36.69
207.162	30.89
207.381	37.03
207.599	22.7
207.818	-12.12
208.037	2.22
208.255	-26.45
208.474	-10.07
208.693	10.41
208.911	22.7
209.13	-53.08
209.349	37.03
209.567	28.84
209.786	51.37
210.005	18.6
210.223	-14.17
210.442	-30.55
210.661	94.38
210.879	14.51
211.098	61.61
211.316	47.27
211.535	6.31
211.753	-1.88
211.972	55.47
212.191	16.55
212.409	-24.4
212.628	16.55
212.846	65.71
213.065	-5.97
213.283	112.81
213.502	16.55
213.72	34.99
213.938	-32.6
214.157	-8.02
214.375	69.8
214.594	-14.17
214.812	98.47
215.031	12.46
215.249	-16.21
215.467	-24.4
215.686	-79.7
215.904	0.17
216.122	-42.84
216.341	2.22
216.559	-42.84
216.778	96.43
216.996	18.6
217.214	22.7
217.432	18.6
217.651	-3.93
217.869	39.08
218.087	39.08
218.306	22.7
218.524	24.75
218.742	57.51
218.96	6.31
219.179	30.89
219.397	22.7
219.615	-18.26
219.833	10.41
220.051	34.99
220.27	73.9
220.488	47.27
220.706	100.52
220.924	24.75
221.142	-51.03
221.36	57.51
221.578	-10.07
221.796	55.47
222.015	8.36
222.233	-12.12
222.451	30.89
222.669	4.27
222.887	65.71
223.105	-18.26
223.323	-28.5
223.541	-10.07
223.759	73.9
223.977	49.32
224.195	-14.17
224.413	59.56
224.631	24.75
224.849	-12.12
225.067	43.18
225.285	-8.02
225.503	39.08
225.721	-46.93
225.939	-67.41
226.157	14.51
226.375	108.71
226.592	-10.07
226.81	2.22
227.028	30.89
227.246	55.47
227.464	32.94
227.682	37.03
227.9	32.94
228.117	39.08
228.335	98.47
228.553	18.6
228.771	116.9
228.989	-1.88
229.206	-42.84
229.424	-26.45
229.642	37.03
229.86	12.46
230.077	65.71
230.295	34.99
230.513	37.03
230.731	63.66
230.948	61.61
231.166	43.18
231.384	39.08
231.601	-18.26
231.819	77.99
232.037	-44.88
232.254	-46.93
232.472	32.94
232.689	-77.65
232.907	-5.97
233.125	67.75
233.342	6.31
233.56	41.13
233.777	2.22
233.995	30.89
234.213	63.66
234.43	-14.17
234.648	6.31
234.865	-16.21
235.083	84.14
235.3	104.62
235.518	24.75
235.735	32.94
235.953	84.14
236.17	32.94
236.388	34.99
236.605	4.27
236.822	24.75
237.04	0.17
237.257	-77.65
237.475	-16.21
237.692	98.47
237.909	55.47
238.127	-32.6
238.344	18.6
238.562	41.13
238.779	16.55
238.996	73.9
239.214	22.7
239.431	22.7
239.648	73.9
239.865	-22.36
240.083	0.17
240.3	2.22
240.517	16.55
240.735	-26.45
240.952	-14.17
241.169	94.38
241.386	16.55
241.603	-61.27
241.821	67.75
242.038	-8.02
242.255	53.42
242.472	22.7
242.689	71.85
242.907	28.84
243.124	-30.55
243.341	26.79
243.558	88.23
243.775	2.22
243.992	-132.95
244.209	12.46
244.426	137.38
244.643	10.41
244.86	-14.17
245.078	51.37
245.295	6.31
245.512	-48.98
245.729	43.18
245.946	22.7
246.163	37.03
246.38	14.51
246.597	59.56
246.814	82.09
247.031	-22.36
247.248	22.7
247.464	69.8
247.681	-48.98
247.898	8.36
248.115	16.55
248.332	65.71
248.549	92.33
248.766	82.09
248.983	75.95
249.2	16.55
249.417	80.04
249.633	18.6
249.85	49.32
250.067	-5.97
250.284	-57.17
250.501	26.79
250.717	6.31
250.934	-32.6
251.151	-34.64
251.368	63.66
251.585	10.41
251.801	-26.45
252.018	6.31
252.235	41.13
252.451	14.51
252.668	14.51
252.885	121
253.102	24.75
253.318	43.18
253.535	80.04
253.752	-26.45
253.968	16.55
254.185	6.31
254.401	61.61
254.618	0.17
254.835	-18.26
255.051	63.66
255.268	32.94
255.484	96.43
255.701	-8.02
255.917	41.13
256.134	18.6
256.351	30.89
256.567	-20.31
256.784	-48.98
257	-63.32
257.217	47.27
257.433	22.7
257.65	-26.45
257.866	45.23
258.082	-18.26
258.299	43.18
258.515	39.08
258.732	-48.98
258.948	6.31
259.165	-22.36
259.381	20.65
259.597	-8.02
259.814	47.27
260.03	80.04
260.246	43.18
260.463	16.55
260.679	104.62
260.895	24.75
261.112	92.33
261.328	24.75
261.544	39.08
261.761	41.13
261.977	55.47
262.193	37.03
262.409	73.9
262.626	37.03
262.842	73.9
263.058	-75.6
263.274	65.71
263.49	67.75
263.707	22.7
263.923	18.6
264.139	2.22
264.355	26.79
264.571	98.47
264.787	-32.6
265.004	6.31
265.22	51.37
265.436	-75.6
265.652	-3.93
265.868	26.79
266.084	-40.79
266.3	67.75
266.516	30.89
266.732	8.36
266.948	71.85
267.164	30.89
267.38	118.95
267.596	-48.98
267.812	75.95
268.028	114.86
268.244	-5.97
268.46	59.56
268.676	43.18
268.892	14.51
269.108	-59.22
269.324	-5.97
269.54	-8.02
269.756	104.62
269.972	61.61
270.188	-63.32
270.403	6.31
270.619	-34.64
270.835	65.71
271.051	-34.64
271.267	-18.26
271.483	47.27
271.698	32.94
271.914	63.66
272.13	-40.79
272.346	-67.41
272.562	20.65
272.777	32.94
272.993	57.51
273.209	8.36
273.425	39.08
273.64	-42.84
273.856	10.41
274.072	41.13
274.287	-38.74
274.503	-18.26
274.719	20.65
274.934	0.17
275.15	12.46
275.366	92.33
275.581	2.22
275.797	-67.41
276.012	30.89
276.228	90.28
276.444	16.55
276.659	77.99
276.875	-34.64
277.09	-5.97
277.306	-22.36
277.521	34.99
277.737	-3.93
277.952	67.75
278.168	49.32
278.383	57.51
278.599	24.75
278.814	47.27
279.03	14.51
279.245	55.47
279.461	30.89
279.676	24.75
279.892	26.79
280.107	34.99
280.322	-96.08
280.538	65.71
280.753	10.41
280.969	2.22
281.184	41.13
281.399	88.23
281.615	16.55
281.83	4.27
282.045	30.89
282.26	-36.69
282.476	-38.74
282.691	59.56
282.906	71.85
283.122	-48.98
283.337	-1.88
283.552	53.42
283.767	49.32
283.983	55.47
284.198	80.04
284.413	63.66
284.628	-59.22
284.843	106.67
285.058	24.75
285.274	65.71
285.489	-46.93
285.704	71.85
285.919	30.89
286.134	67.75
286.349	63.66
286.564	-20.31
286.779	53.42
286.995	-14.17
287.21	47.27
287.425	16.55
287.64	0.17
287.855	28.84
288.07	22.7
288.285	53.42
288.5	-5.97
288.715	80.04
288.93	34.99
289.145	16.55
289.36	112.81
289.575	-8.02
289.79	121
290.004	73.9
290.219	82.09
290.434	22.7
290.649	-51.03
290.864	39.08
291.079	-10.07
291.294	39.08
291.509	30.89
291.724	61.61
291.938	96.43
292.153	61.61
292.368	-42.84
292.583	-24.4
292.798	2.22
293.012	6.31
293.227	0.17
293.442	90.28
293.657	34.99
293.871	104.62
294.086	6.31
294.301	88.23
294.516	53.42
294.73	43.18
294.945	-12.12
295.16	22.7
295.374	65.71
295.589	32.94
295.804	-8.02
296.018	26.79
296.233	88.23
296.447	-18.26
296.662	-10.07
296.877	125.1
297.091	90.28
297.306	-36.69
297.52	57.51
297.735	39.08
297.949	-30.55
298.164	-22.36
298.378	-18.26
298.593	-42.84
298.807	24.75
299.022	-5.97
299.236	22.7
299.451	22.7
299.665	39.08
299.88	41.13
300.094	55.47
300.309	-32.6
300.523	-16.21
300.737	75.95
300.952	55.47
301.166	57.51
301.381	30.89
301.595	-5.97
301.809	-18.26
302.024	51.37
302.238	-79.7
302.452	98.47
302.667	67.75
302.881	51.37
303.095	88.23
303.309	24.75
303.524	77.99
303.738	47.27
303.952	-10.07
304.166	67.75
304.381	28.84
304.595	96.43
304.809	6.31
305.023	12.46
305.237	6.31
305.452	18.6
305.666	51.37
305.88	26.79
306.094	88.23
306.308	6.31
306.522	-42.84
306.736	-5.97
306.95	-16.21
307.164	-10.07
307.379	65.71
307.593	67.75
307.807	41.13
308.021	14.51
308.235	0.17
308.449	-20.31
308.663	-59.22
308.877	121
309.091	28.84
309.305	47.27
309.519	6.31
309.733	32.94
309.947	-10.07
310.161	-10.07
310.374	14.51
310.588	108.71
310.802	-1.88
311.016	-14.17
311.23	55.47
311.444	96.43
311.658	-16.21
311.872	26.79
312.085	73.9
312.299	26.79
312.513	73.9
312.727	34.99
312.941	30.89
313.154	-42.84
313.368	-8.02
313.582	-8.02
313.796	6.31
314.009	6.31
314.223	32.94
314.437	0.17
314.651	-42.84
314.864	8.36
315.078	-1.88
315.292	-5.97
315.505	-16.21
315.719	39.08
315.933	57.51
316.146	55.47
316.36	0.17
316.573	55.47
316.787	32.94
317.001	67.75
317.214	26.79
317.428	-3.93
317.641	32.94
317.855	39.08
318.068	0.17
318.282	61.61
318.495	43.18
318.709	61.61
318.922	-22.36
319.136	67.75
319.349	6.31
319.563	10.41
319.776	-12.12
319.99	26.79
320.203	8.36
320.417	98.47
320.63	71.85
320.843	-16.21
321.057	39.08
321.27	-38.74
321.483	90.28
321.697	63.66
321.91	-10.07
322.124	63.66
322.337	26.79
322.55	39.08
322.763	88.23
322.977	104.62
323.19	6.31
323.403	8.36
323.617	2.22
323.83	-38.74
324.043	-48.98
324.256	30.89
324.469	6.31
324.683	-10.07
324.896	8.36
325.109	0.17
325.322	80.04
325.535	80.04
325.748	-1.88
325.962	-40.79
326.175	-12.12
326.388	75.95
326.601	41.13
326.814	65.71
327.027	2.22
327.24	51.37
327.453	-75.6
327.666	41.13
327.879	32.94
328.092	59.56
328.305	30.89
328.518	14.51
328.731	26.79
328.944	6.31
329.157	-14.17
329.37	43.18
329.583	71.85
329.796	106.67
330.009	4.27
330.222	39.08
330.435	34.99
330.648	22.7
330.861	73.9
331.073	88.23
331.286	-26.45
331.499	-22.36
331.712	-46.93
331.925	63.66
332.138	67.75
332.35	34.99
332.563	28.84
332.776	73.9
332.989	-30.55
333.202	-38.74
333.414	8.36
333.627	16.55
333.84	2.22
334.053	10.41
334.265	22.7
334.478	14.51
334.691	75.95
334.903	-34.64
335.116	-22.36
335.329	28.84
335.541	14.51
335.754	121
335.966	39.08
336.179	51.37
336.392	-42.84
336.604	16.55
336.817	104.62
337.029	-3.93
337.242	49.32
337.454	6.31
337.667	47.27
337.88	24.75
338.092	32.94
338.305	80.04
338.517	-44.88
338.729	51.37
338.942	34.99
339.154	-5.97
339.367	8.36
339.579	73.9
339.792	-1.88
340.004	77.99
340.217	41.13
340.429	22.7
340.641	16.55
340.854	-42.84
341.066	-8.02
341.278	43.18
341.491	18.6
341.703	8.36
341.915	-67.41
342.128	30.89
342.34	43.18
342.552	28.84
342.764	24.75
342.977	8.36
343.189	-1.88
343.401	80.04
343.613	10.41
343.826	-10.07
344.038	-59.22
344.25	47.27
344.462	-32.6
344.674	34.99
344.886	-24.4
345.099	14.51
345.311	47.27
345.523	-42.84
345.735	-1.88
345.947	88.23
346.159	24.75
346.371	-16.21
346.583	45.23
346.795	59.56
347.007	-18.26
347.219	118.95
347.431	55.47
347.643	69.8
347.855	-42.84
348.067	94.38
348.279	39.08
348.491	-5.97
348.703	61.61
348.915	0.17
349.127	24.75
349.339	65.71
349.551	88.23
349.763	51.37
349.975	6.31
350.187	6.31
350.399	57.51
350.61	24.75
350.822	-24.4
351.034	34.99
351.246	53.42
351.458	16.55
351.669	10.41
351.881	39.08
352.093	73.9
352.305	80.04
352.517	-16.21
352.728	6.31
352.94	-5.97
353.152	59.56
353.363	32.94
353.575	57.51
353.787	-30.55
353.999	37.03
354.21	84.14
354.422	57.51
354.633	-3.93
354.845	30.89
355.057	-10.07
355.268	39.08
355.48	24.75
355.692	12.46
355.903	-1.88
356.115	22.7
356.326	-22.36
356.538	80.04
356.749	24.75
356.961	98.47
357.172	-5.97
357.384	-5.97
357.595	75.95
357.807	-18.26
358.018	-18.26
358.23	57.51
358.441	41.13
358.653	41.13
358.864	39.08
359.075	-10.07
359.287	86.19
359.498	86.19
359.709	63.66
359.921	-12.12
360.132	-28.5
360.344	45.23
360.555	22.7
360.766	47.27
360.977	88.23
361.189	47.27
361.4	-36.69
361.611	63.66
361.823	51.37
362.034	49.32
362.245	-22.36
362.456	22.7
362.667	24.75
362.879	-18.26
363.09	24.75
363.301	-40.79
363.512	65.71
363.723	-10.07
363.935	55.47
364.146	82.09
364.357	-32.6
364.568	153.77
364.779	59.56
364.99	10.41
365.201	6.31
365.412	90.28
365.623	-61.27
365.834	63.66
366.045	59.56
366.256	88.23
366.467	82.09
366.678	39.08
366.889	14.51
367.1	47.27
367.311	57.51
367.522	41.13
367.733	43.18
367.944	106.67
368.155	61.61
368.366	16.55
368.577	47.27
368.788	125.1
368.999	55.47
369.209	18.6
369.42	112.81
369.631	6.31
369.842	75.95
370.053	49.32
370.264	51.37
370.474	37.03
370.685	49.32
370.896	53.42
371.107	14.51
371.317	170.15
371.528	4.27
371.739	90.28
371.95	39.08
372.16	82.09
372.371	-75.6
372.582	47.27
372.792	8.36
373.003	4.27
373.214	-20.31
373.424	6.31
373.635	12.46
373.846	34.99
374.056	-14.17
374.267	45.23
374.477	-8.02
374.688	39.08
374.898	59.56
375.109	14.51
375.319	2.22
375.53	8.36
375.74	80.04
375.951	80.04
376.161	24.75
376.372	118.95
376.582	30.89
376.793	55.47
377.003	6.31
377.214	47.27
377.424	102.57
377.635	4.27
377.845	-59.22
378.055	88.23
378.266	-89.94
378.476	47.27
378.686	22.7
378.897	164.01
379.107	55.47
379.317	67.75
379.528	-10.07
379.738	82.09
379.948	32.94
380.158	-12.12
380.369	45.23
380.579	55.47
380.789	18.6
380.999	16.55
381.21	96.43
381.42	67.75
381.63	30.89
381.84	47.27
382.05	45.23
382.261	55.47
382.471	100.52
382.681	63.66
382.891	110.76
383.101	55.47
383.311	-8.02
383.521	-5.97
383.731	51.37
383.941	55.47
384.151	30.89
384.361	41.13
384.571	43.18
384.781	63.66
384.991	71.85
385.201	67.75
385.411	26.79
385.621	176.3
385.831	30.89
386.041	37.03
386.251	-30.55
386.461	71.85
386.671	8.36
386.881	22.7
387.091	0.17
387.301	92.33
387.511	-16.21
387.72	135.34
387.93	45.23
388.14	30.89
388.35	30.89
388.56	49.32
388.769	57.51
388.979	0.17
389.189	0.17
389.399	63.66
389.609	90.28
389.818	22.7
390.028	24.75
390.238	102.57
390.447	49.32
390.657	63.66
390.867	-8.02
391.076	30.89
391.286	47.27
391.496	41.13
391.705	51.37
391.915	121
392.125	90.28
392.334	96.43
392.544	82.09
392.753	88.23
392.963	22.7
393.172	80.04
393.382	24.75
393.591	108.71
393.801	22.7
394.01	84.14
394.22	0.17
394.429	49.32
394.639	65.71
394.848	153.77
395.058	-1.88
395.267	10.41
395.477	6.31
395.686	67.75
395.895	75.95
396.105	96.43
396.314	67.75
396.524	112.81
396.733	121
396.942	71.85
397.152	98.47
397.361	51.37
397.57	73.9
397.78	82.09
397.989	57.51
398.198	71.85
398.407	67.75
398.617	47.27
398.826	-18.26
399.035	47.27
399.244	135.34
399.453	129.19
399.663	22.7
399.872	63.66
400.081	26.79
400.29	88.23
400.499	133.29
400.708	82.09
400.917	63.66
401.127	71.85
401.336	18.6
401.545	161.96
401.754	16.55
401.963	92.33
402.172	59.56
402.381	65.71
402.59	92.33
402.799	106.67
403.008	90.28
403.217	131.24
403.426	55.47
403.635	41.13
403.844	63.66
404.053	133.29
404.262	135.34
404.471	145.58
404.68	151.72
404.888	51.37
405.097	164.01
405.306	94.38
405.515	188.58
405.724	143.53
405.933	153.77
406.142	104.62
406.35	104.62
406.559	123.05
406.768	112.81
406.977	192.68
407.185	82.09
407.394	235.69
407.603	108.71
407.812	178.34
408.02	170.15
408.229	125.1
408.438	121
408.646	157.86
408.855	153.77
409.064	221.35
409.272	174.25
409.481	268.45
409.69	207.02
409.898	202.92
410.107	231.59
410.315	176.3
410.524	161.96
410.733	256.17
410.941	309.41
411.15	264.36
411.358	247.97
411.567	389.28
411.775	274.6
411.984	256.17
412.192	272.55
412.401	366.76
412.609	370.85
412.818	354.47
413.026	325.8
413.234	432.29
413.443	407.72
413.651	399.52
413.86	401.57
414.068	417.96
414.276	512.16
414.485	450.72
414.693	481.44
414.901	622.75
415.11	481.44
415.318	477.35
415.526	501.92
415.734	553.12
415.943	643.23
416.151	682.14
416.359	702.62
416.567	665.76
416.776	676
416.984	706.72
417.192	731.3
417.4	710.82
417.608	680.1
417.817	725.15
418.025	837.79
418.233	821.41
418.441	854.17
418.649	833.69
418.857	981.15
419.065	977.05
419.273	958.62
419.481	1054.87
419.689	997.53
419.897	1083.55
420.105	1089.69
420.313	1112.22
420.521	1247.38
420.729	1120.41
420.937	1208.47
421.145	1216.66
421.353	1278.1
421.561	1487
421.769	1353.88
421.977	1476.76
422.185	1489.04
422.393	1530
422.601	1632.4
422.809	1640.59
423.017	1620.11
423.224	1804.43
423.432	1841.29
423.64	1783.95
423.848	1882.25
424.056	1783.95
424.263	2146.44
424.471	2070.67
424.679	2107.53
424.887	2203.79
425.094	2228.36
425.302	2201.74
425.51	2261.13
425.718	2392.2
425.925	2447.49
426.133	2537.6
426.341	2769.02
426.548	2877.57
426.756	2842.75
426.964	2740.35
427.171	3051.64
427.379	3063.93
427.586	3219.58
427.794	3129.47
428.001	3397.75
428.209	3422.33
428.417	3407.99
428.624	3635.32
428.832	3702.9
429.039	3668.08
429.247	3688.56
429.454	3917.93
429.662	4227.18
429.869	3981.42
430.076	4329.58
430.284	4200.55
430.491	4423.78
430.699	4532.33
430.906	4610.15
431.114	4726.88
431.321	4819.04
431.528	4913.25
431.736	5380.18
431.943	5363.8
432.15	5288.03
432.358	5249.11
432.565	5675.09
432.772	5541.97
432.979	6006.86
433.187	6035.53
433.394	6150.22
433.601	6504.52
433.808	6551.62
434.016	6504.52
434.223	6682.69
434.43	7024.7
434.637	7061.57
434.844	7358.52
435.052	7663.67
435.259	7397.43
435.466	7444.54
435.673	7497.78
435.88	8026.16
436.087	8155.18
436.294	8499.24
436.501	8067.12
436.708	8505.38
436.915	8661.03
437.122	9044
437.329	8996.9
437.537	9496.6
437.743	9590.81
437.95	9304.09
438.157	9879.57
438.364	10197.01
438.571	9967.63
438.778	10291.21
438.985	11145.22
439.192	10657.8
439.399	10928.13
439.606	10696.71
439.813	11339.77
440.02	12031.99
440.227	11872.25
440.433	11624.44
440.64	11970.55
440.847	11974.64
441.054	12173.3
441.261	13246.43
441.467	13076.45
441.674	13232.1
441.881	13506.52
442.088	13821.91
442.294	13498.33
442.501	13957.08
442.708	14276.56
442.914	14804.94
443.121	15513.53
443.328	15267.78
443.534	15728.57
443.741	15650.75
443.948	15171.52
444.154	16105.4
444.361	16275.38
444.568	16416.69
444.774	16426.93
444.981	16410.54
445.187	17164.2
445.394	17586.08
445.6	17467.3
445.807	19357.57
446.013	18495.38
446.22	18644.88
446.426	19427.2
446.633	19914.62
446.839	20074.36
447.046	19449.73
447.252	20569.97
447.459	20524.91
447.665	20455.28
447.871	21278.57
448.078	22361.94
448.284	21217.13
448.491	21870.43
448.697	22589.27
448.903	23164.75
449.11	23334.73
449.316	22814.54
449.522	23205.7
449.728	23547.72
449.935	23590.72
450.141	23998.27
450.347	24543.03
450.553	23537.48
450.76	24127.29
450.966	25009.97
451.172	24526.64
451.378	25425.7
451.584	24467.25
451.791	25130.8
451.997	24803.12
452.203	25892.64
452.409	25902.88
452.615	25507.62
452.821	24649.52
453.027	24495.92
453.233	25765.67
453.44	24522.55
453.646	24921.9
453.852	24721.2
454.058	25558.82
454.264	24776.5
454.47	25204.52
454.676	24491.83
454.882	25239.34
455.088	23301.96
455.294	23695.17
455.5	24090.43
455.705	24590.13
455.911	23308.1
456.117	22861.65
456.323	22615.89
456.529	21469.03
456.735	22499.16
456.941	21686.11
457.147	21428.07
457.352	20961.13
457.558	20563.82
457.764	20631.41
457.97	20273.01
458.176	19824.51
458.381	19808.12
458.587	18732.94
458.793	18911.11
458.999	17788.83
459.204	19267.46
459.41	18622.35
459.616	17432.48
459.821	17446.82
460.027	17205.16
460.233	16842.67
460.438	16269.23
460.644	16426.93
460.85	15566.78
461.055	15587.26
461.261	15474.62
461.466	14321.62
461.672	14014.42
461.878	14872.52
462.083	14006.23
462.289	13486.04
462.494	13553.63
462.7	12875.75
462.905	12374
463.111	12593.13
463.316	12769.26
463.522	12705.77
463.727	12640.23
463.932	12646.38
464.138	12468.2
464.343	12341.23
464.549	12343.28
464.754	12556.27
464.959	12554.22
465.165	12206.06
465.37	11896.82
465.575	11575.29
465.781	12130.29
465.986	11978.74
466.191	11724.79
466.397	11407.36
466.602	10856.45
466.807	11165.7
467.012	11266.05
467.218	11395.07
467.423	11220.99
467.628	11028.48
467.833	11393.02
468.038	11386.88
468.244	10874.88
