Data from USB4F104151__198__14-20-30-974.txt Node

Date: Thu Mar 13 14:20:30 EDT 2025
User: louis
Spectrometer: USB4F10415
Trigger mode: 4
Integration Time (sec): 2.000000E-2
Scans to average: 1
Electric dark correction enabled: true
Nonlinearity correction enabled: false
Boxcar width: 0
XAxis mode: Wavelengths
Number of Pixels in Spectrum: 3648
>>>>>Begin Spectral Data<<<<<
178.204	-192.68
178.424	-192.68
178.644	-192.68
178.864	-123.05
179.084	-200.87
179.304	1.88
179.524	44.88
179.744	-16.55
179.964	26.45
180.184	-45.23
180.404	16.21
180.624	12.12
180.844	-12.46
181.064	-114.86
181.283	67.41
181.503	-45.23
181.723	65.36
181.943	-32.94
182.163	77.65
182.383	81.75
182.602	81.75
182.822	63.32
183.042	59.22
183.262	-37.03
183.482	12.12
183.701	10.07
183.921	-0.17
184.141	-57.51
184.361	-16.55
184.58	-26.79
184.8	18.26
185.02	-22.7
185.239	26.45
185.459	26.45
185.679	77.65
185.898	-8.36
186.118	24.4
186.338	-16.55
186.557	106.32
186.777	-55.47
186.997	24.4
187.216	-26.79
187.436	22.36
187.655	57.17
187.875	32.6
188.095	59.22
188.314	16.21
188.534	-18.6
188.753	10.07
188.973	24.4
189.192	36.69
189.412	26.45
189.631	38.74
189.851	3.93
190.07	32.6
190.29	-59.56
190.509	-2.22
190.729	24.4
190.948	79.7
191.168	104.28
191.387	40.79
191.607	-2.22
191.826	20.31
192.045	77.65
192.265	34.64
192.484	-12.46
192.704	-0.17
192.923	-16.55
193.142	51.03
193.362	48.98
193.581	12.12
193.8	40.79
194.02	98.13
194.239	-8.36
194.458	18.26
194.678	-32.94
194.897	20.31
195.116	75.6
195.335	32.6
195.555	28.5
195.774	-47.27
195.993	-0.17
196.212	28.5
196.432	24.4
196.651	3.93
196.87	5.97
197.089	114.52
197.308	57.17
197.528	24.4
197.747	-22.7
197.966	-16.55
198.185	57.17
198.404	96.08
198.623	-24.75
198.842	1.88
199.062	-6.31
199.281	73.56
199.5	-2.22
199.719	100.18
199.938	38.74
200.157	67.41
200.376	42.84
200.595	79.7
200.814	34.64
201.033	20.31
201.252	12.12
201.471	22.36
201.69	36.69
201.909	18.26
202.128	-0.17
202.347	-0.17
202.566	22.36
202.785	57.17
203.004	10.07
203.223	130.9
203.442	14.17
203.661	-6.31
203.879	51.03
204.098	3.93
204.317	-0.17
204.536	85.84
204.755	40.79
204.974	38.74
205.193	53.08
205.411	98.13
205.63	57.17
205.849	-6.31
206.068	65.36
206.287	24.4
206.505	63.32
206.724	24.4
206.943	-28.84
207.162	51.03
207.381	28.5
207.599	18.26
207.818	16.21
208.037	65.36
208.255	20.31
208.474	22.36
208.693	46.93
208.911	16.21
209.13	30.55
209.349	32.6
209.567	10.07
209.786	28.5
210.005	59.22
210.223	53.08
210.442	-6.31
210.661	28.5
210.879	-65.71
211.098	8.02
211.316	73.56
211.535	-71.85
211.753	34.64
211.972	-8.36
212.191	-57.51
212.409	32.6
212.628	36.69
212.846	-32.94
213.065	-26.79
213.283	28.5
213.502	8.02
213.72	44.88
213.938	46.93
214.157	-24.75
214.375	8.02
214.594	24.4
214.812	28.5
215.031	65.36
215.249	3.93
215.467	10.07
215.686	-22.7
215.904	44.88
216.122	-22.7
216.341	16.21
216.559	63.32
216.778	32.6
216.996	77.65
217.214	-4.27
217.432	10.07
217.651	42.84
217.869	53.08
218.087	48.98
218.306	22.36
218.524	-28.84
218.742	-32.94
218.96	8.02
219.179	20.31
219.397	24.4
219.615	-41.13
219.833	5.97
220.051	26.45
220.27	102.23
220.488	106.32
220.706	67.41
220.924	26.45
221.142	-6.31
221.36	-6.31
221.578	106.32
221.796	10.07
222.015	20.31
222.233	40.79
222.451	20.31
222.669	67.41
222.887	106.32
223.105	-26.79
223.323	30.55
223.541	-4.27
223.759	5.97
223.977	20.31
224.195	18.26
224.413	-4.27
224.631	16.21
224.849	51.03
225.067	89.94
225.285	32.6
225.503	42.84
225.721	-43.18
225.939	51.03
226.157	20.31
226.375	-0.17
226.592	-41.13
226.81	8.02
227.028	-22.7
227.246	98.13
227.464	-16.55
227.682	-6.31
227.9	1.88
228.117	3.93
228.335	16.21
228.553	20.31
228.771	-14.51
228.989	32.6
229.206	26.45
229.424	63.32
229.642	-71.85
229.86	24.4
230.077	59.22
230.295	-24.75
230.513	173.91
230.731	-4.27
230.948	-8.36
231.166	102.23
231.384	-8.36
231.601	48.98
231.819	24.4
232.037	-55.47
232.254	48.98
232.472	87.89
232.689	57.17
232.907	24.4
233.125	-53.42
233.342	-20.65
233.56	-53.42
233.777	32.6
233.995	-53.42
234.213	3.93
234.43	48.98
234.648	63.32
234.865	-4.27
235.083	108.37
235.3	40.79
235.518	8.02
235.735	40.79
235.953	12.12
236.17	18.26
236.388	-12.46
236.605	40.79
236.822	55.12
237.04	40.79
237.257	34.64
237.475	63.32
237.692	89.94
237.909	-34.99
238.127	-24.75
238.344	69.46
238.562	24.4
238.779	61.27
238.996	32.6
239.214	3.93
239.431	-0.17
239.648	44.88
239.865	48.98
240.083	100.18
240.3	55.12
240.517	-37.03
240.735	28.5
240.952	75.6
241.169	89.94
241.386	28.5
241.603	48.98
241.821	36.69
242.038	48.98
242.255	-16.55
242.472	-0.17
242.689	34.64
242.907	91.99
243.124	3.93
243.341	-24.75
243.558	14.17
243.775	-47.27
243.992	16.21
244.209	116.56
244.426	14.17
244.643	83.8
244.86	-24.75
245.078	20.31
245.295	94.04
245.512	-14.51
245.729	-16.55
245.946	38.74
246.163	59.22
246.38	-16.55
246.597	16.21
246.814	10.07
247.031	12.12
247.248	51.03
247.464	18.26
247.681	89.94
247.898	18.26
248.115	16.21
248.332	73.56
248.549	38.74
248.766	139.09
248.983	108.37
249.2	-20.65
249.417	48.98
249.633	-4.27
249.85	77.65
250.067	3.93
250.284	32.6
250.501	-12.46
250.717	48.98
250.934	12.12
251.151	65.36
251.368	-16.55
251.585	32.6
251.801	89.94
252.018	-4.27
252.235	44.88
252.451	-30.89
252.668	81.75
252.885	32.6
253.102	-12.46
253.318	51.03
253.535	-32.94
253.752	10.07
253.968	14.17
254.185	10.07
254.401	67.41
254.618	16.21
254.835	10.07
255.051	32.6
255.268	-0.17
255.484	24.4
255.701	-26.79
255.917	26.45
256.134	65.36
256.351	-10.41
256.567	48.98
256.784	98.13
257	79.7
257.217	59.22
257.433	-8.36
257.65	26.45
257.866	44.88
258.082	-2.22
258.299	16.21
258.515	89.94
258.732	18.26
258.948	22.36
259.165	26.45
259.381	36.69
259.597	8.02
259.814	-12.46
260.03	-8.36
260.246	-16.55
260.463	-0.17
260.679	67.41
260.895	77.65
261.112	65.36
261.328	18.26
261.544	-20.65
261.761	67.41
261.977	-10.41
262.193	-37.03
262.409	32.6
262.626	-39.08
262.842	151.38
263.058	-18.6
263.274	42.84
263.49	46.93
263.707	57.17
263.923	36.69
264.139	-8.36
264.355	-6.31
264.571	20.31
264.787	51.03
265.004	57.17
265.22	63.32
265.436	18.26
265.652	-8.36
265.868	-8.36
266.084	-20.65
266.3	-57.51
266.516	26.45
266.732	57.17
266.948	-12.46
267.164	53.08
267.38	-8.36
267.596	-20.65
267.812	81.75
268.028	94.04
268.244	44.88
268.46	26.45
268.676	-12.46
268.892	81.75
269.108	8.02
269.324	42.84
269.54	18.26
269.756	116.56
269.972	1.88
270.188	12.12
270.403	24.4
270.619	-16.55
270.835	-6.31
271.051	63.32
271.267	24.4
271.483	-14.51
271.698	20.31
271.914	32.6
272.13	-2.22
272.346	89.94
272.562	18.26
272.777	81.75
272.993	10.07
273.209	-4.27
273.425	77.65
273.64	-28.84
273.856	24.4
274.072	98.13
274.287	1.88
274.503	32.6
274.719	48.98
274.934	38.74
275.15	-39.08
275.366	16.21
275.581	28.5
275.797	-0.17
276.012	-8.36
276.228	44.88
276.444	-84.14
276.659	44.88
276.875	8.02
277.09	-4.27
277.306	16.21
277.521	16.21
277.737	-24.75
277.952	24.4
278.168	53.08
278.383	12.12
278.599	57.17
278.814	51.03
279.03	44.88
279.245	112.47
279.461	51.03
279.676	16.21
279.892	-6.31
280.107	-24.75
280.322	-26.79
280.538	44.88
280.753	24.4
280.969	14.17
281.184	8.02
281.399	57.17
281.615	-41.13
281.83	63.32
282.045	-0.17
282.26	69.46
282.476	28.5
282.691	-24.75
282.906	75.6
283.122	59.22
283.337	16.21
283.552	32.6
283.767	79.7
283.983	40.79
284.198	24.4
284.413	46.93
284.628	1.88
284.843	57.17
285.058	3.93
285.274	-43.18
285.489	-73.9
285.704	-0.17
285.919	-39.08
286.134	-0.17
286.349	24.4
286.564	24.4
286.779	73.56
286.995	12.12
287.21	-28.84
287.425	96.08
287.64	12.12
287.855	1.88
288.07	10.07
288.285	57.17
288.5	67.41
288.715	135
288.93	77.65
289.145	5.97
289.36	-22.7
289.575	-12.46
289.79	48.98
290.004	24.4
290.219	71.51
290.434	10.07
290.649	-26.79
290.864	-8.36
291.079	40.79
291.294	-4.27
291.509	24.4
291.724	36.69
291.938	12.12
292.153	81.75
292.368	-30.89
292.583	34.64
292.798	18.26
293.012	65.36
293.227	8.02
293.442	8.02
293.657	32.6
293.871	-20.65
294.086	81.75
294.301	65.36
294.516	48.98
294.73	36.69
294.945	18.26
295.16	-0.17
295.374	16.21
295.589	53.08
295.804	-0.17
296.018	57.17
296.233	63.32
296.447	12.12
296.662	1.88
296.877	-12.46
297.091	61.27
297.306	63.32
297.52	32.6
297.735	30.55
297.949	-2.22
298.164	24.4
298.378	18.26
298.593	-16.55
298.807	14.17
299.022	48.98
299.236	44.88
299.451	57.17
299.665	57.17
299.88	67.41
300.094	75.6
300.309	42.84
300.523	59.22
300.737	55.12
300.952	-20.65
301.166	98.13
301.381	46.93
301.595	-8.36
301.809	5.97
302.024	77.65
302.238	24.4
302.452	75.6
302.667	32.6
302.881	73.56
303.095	73.56
303.309	44.88
303.524	57.17
303.738	16.21
303.952	-12.46
304.166	34.64
304.381	-28.84
304.595	42.84
304.809	59.22
305.023	34.64
305.237	-20.65
305.452	-20.65
305.666	42.84
305.88	36.69
306.094	94.04
306.308	100.18
306.522	36.69
306.736	65.36
306.95	16.21
307.164	16.21
307.379	-24.75
307.593	102.23
307.807	10.07
308.021	85.84
308.235	8.02
308.449	-73.9
308.663	30.55
308.877	89.94
309.091	-20.65
309.305	20.31
309.519	-39.08
309.733	91.99
309.947	3.93
310.161	10.07
310.374	59.22
310.588	98.13
310.802	-32.94
311.016	8.02
311.23	26.45
311.444	-12.46
311.658	73.56
311.872	75.6
312.085	83.8
312.299	77.65
312.513	102.23
312.727	48.98
312.941	18.26
313.154	122.71
313.368	28.5
313.582	18.26
313.796	-20.65
314.009	48.98
314.223	40.79
314.437	77.65
314.651	106.32
314.864	67.41
315.078	34.64
315.292	14.17
315.505	26.45
315.719	1.88
315.933	73.56
316.146	-71.85
316.36	22.36
316.573	-16.55
316.787	77.65
317.001	42.84
317.214	28.5
317.428	-0.17
317.641	16.21
317.855	26.45
318.068	10.07
318.282	51.03
318.495	61.27
318.709	1.88
318.922	44.88
319.136	57.17
319.349	77.65
319.563	48.98
319.776	18.26
319.99	-14.51
320.203	-20.65
320.417	42.84
320.63	36.69
320.843	124.76
321.057	36.69
321.27	-0.17
321.483	-26.79
321.697	-6.31
321.91	-8.36
322.124	10.07
322.337	36.69
322.55	20.31
322.763	-16.55
322.977	34.64
323.19	-14.51
323.403	91.99
323.617	57.17
323.83	67.41
324.043	71.51
324.256	139.09
324.469	44.88
324.683	89.94
324.896	-0.17
325.109	55.12
325.322	8.02
325.535	65.36
325.748	48.98
325.962	-4.27
326.175	18.26
326.388	-32.94
326.601	16.21
326.814	42.84
327.027	34.64
327.24	73.56
327.453	8.02
327.666	-2.22
327.879	12.12
328.092	94.04
328.305	30.55
328.518	-12.46
328.731	59.22
328.944	106.32
329.157	10.07
329.37	1.88
329.583	42.84
329.796	73.56
330.009	24.4
330.222	98.13
330.435	77.65
330.648	73.56
330.861	42.84
331.073	32.6
331.286	94.04
331.499	36.69
331.712	-4.27
331.925	69.46
332.138	20.31
332.35	91.99
332.563	12.12
332.776	73.56
332.989	14.17
333.202	10.07
333.414	8.02
333.627	51.03
333.84	36.69
334.053	73.56
334.265	18.26
334.478	32.6
334.691	32.6
334.903	73.56
335.116	-18.6
335.329	-16.55
335.541	-16.55
335.754	20.31
335.966	40.79
336.179	46.93
336.392	65.36
336.604	106.32
336.817	53.08
337.029	87.89
337.242	24.4
337.454	94.04
337.667	28.5
337.88	44.88
338.092	18.26
338.305	65.36
338.517	-4.27
338.729	55.12
338.942	98.13
339.154	55.12
339.367	1.88
339.579	163.67
339.792	48.98
340.004	-24.75
340.217	89.94
340.429	51.03
340.641	-2.22
340.854	67.41
341.066	118.61
341.278	77.65
341.491	100.18
341.703	22.36
341.915	26.45
342.128	24.4
342.34	79.7
342.552	-0.17
342.764	55.12
342.977	1.88
343.189	8.02
343.401	81.75
343.613	-2.22
343.826	16.21
344.038	34.64
344.25	67.41
344.462	32.6
344.674	57.17
344.886	3.93
345.099	91.99
345.311	44.88
345.523	69.46
345.735	16.21
345.947	20.31
346.159	96.08
346.371	85.84
346.583	32.6
346.795	108.37
347.007	28.5
347.219	48.98
347.431	24.4
347.643	57.17
347.855	-34.99
348.067	79.7
348.279	-32.94
348.491	32.6
348.703	-0.17
348.915	77.65
349.127	34.64
349.339	77.65
349.551	-12.46
349.763	116.56
349.975	65.36
350.187	63.32
350.399	32.6
350.61	48.98
350.822	22.36
351.034	28.5
351.246	118.61
351.458	36.69
351.669	44.88
351.881	48.98
352.093	67.41
352.305	59.22
352.517	69.46
352.728	67.41
352.94	67.41
353.152	102.23
353.363	26.45
353.575	42.84
353.787	65.36
353.999	85.84
354.21	100.18
354.422	-8.36
354.633	100.18
354.845	8.02
355.057	-4.27
355.268	61.27
355.48	69.46
355.692	83.8
355.903	-106.67
356.115	48.98
356.326	16.21
356.538	94.04
356.749	89.94
356.961	83.8
357.172	36.69
357.384	-12.46
357.595	96.08
357.807	34.64
358.018	5.97
358.23	51.03
358.441	91.99
358.653	77.65
358.864	89.94
359.075	122.71
359.287	89.94
359.498	48.98
359.709	-4.27
359.921	73.56
360.132	28.5
360.344	40.79
360.555	-16.55
360.766	65.36
360.977	20.31
361.189	79.7
361.4	18.26
361.611	8.02
361.823	83.8
362.034	89.94
362.245	34.64
362.456	34.64
362.667	98.13
362.879	40.79
363.09	57.17
363.301	65.36
363.512	51.03
363.723	-8.36
363.935	81.75
364.146	87.89
364.357	24.4
364.568	171.86
364.779	-0.17
364.99	65.36
365.201	16.21
365.412	67.41
365.623	40.79
365.834	28.5
366.045	42.84
366.256	81.75
366.467	67.41
366.678	65.36
366.889	91.99
367.1	34.64
367.311	-26.79
367.522	18.26
367.733	3.93
367.944	89.94
368.155	8.02
368.366	32.6
368.577	40.79
368.788	-6.31
368.999	16.21
369.209	91.99
369.42	81.75
369.631	130.9
369.842	44.88
370.053	67.41
370.264	44.88
370.474	10.07
370.685	94.04
370.896	63.32
371.107	36.69
371.317	118.61
371.528	-14.51
371.739	102.23
371.95	85.84
372.16	110.42
372.371	-6.31
372.582	40.79
372.792	73.56
373.003	34.64
373.214	26.45
373.424	51.03
373.635	77.65
373.846	32.6
374.056	102.23
374.267	51.03
374.477	57.17
374.688	16.21
374.898	42.84
375.109	102.23
375.319	40.79
375.53	77.65
375.74	-32.94
375.951	44.88
376.161	32.6
376.372	106.32
376.582	-45.23
376.793	34.64
377.003	51.03
377.214	63.32
377.424	73.56
377.635	44.88
377.845	-24.75
378.055	67.41
378.266	65.36
378.476	16.21
378.686	42.84
378.897	69.46
379.107	89.94
379.317	44.88
379.528	67.41
379.738	42.84
379.948	34.64
380.158	73.56
380.369	63.32
380.579	48.98
380.789	167.76
380.999	98.13
381.21	126.8
381.42	73.56
381.63	57.17
381.84	87.89
382.05	22.36
382.261	89.94
382.471	40.79
382.681	42.84
382.891	98.13
383.101	34.64
383.311	40.79
383.521	71.51
383.731	57.17
383.941	124.76
384.151	5.97
384.361	36.69
384.571	106.32
384.781	71.51
384.991	135
385.201	98.13
385.411	51.03
385.621	83.8
385.831	12.12
386.041	77.65
386.251	-2.22
386.461	124.76
386.671	22.36
386.881	75.6
387.091	48.98
387.301	112.47
387.511	77.65
387.72	124.76
387.93	24.4
388.14	1.88
388.35	98.13
388.56	51.03
388.769	51.03
388.979	32.6
389.189	51.03
389.399	71.51
389.609	81.75
389.818	106.32
390.028	77.65
390.238	73.56
390.447	42.84
390.657	59.22
390.867	10.07
391.076	26.45
391.286	112.47
391.496	30.55
391.705	32.6
391.915	147.28
392.125	36.69
392.334	36.69
392.544	98.13
392.753	53.08
392.963	145.24
393.172	26.45
393.382	122.71
393.591	53.08
393.801	114.52
394.01	102.23
394.22	108.37
394.429	61.27
394.639	20.31
394.848	135
395.058	67.41
395.267	163.67
395.477	155.47
395.686	139.09
395.895	124.76
396.105	128.85
396.314	81.75
396.524	110.42
396.733	83.8
396.942	155.47
397.152	91.99
397.361	180.05
397.57	91.99
397.78	147.28
397.989	89.94
398.198	212.82
398.407	180.05
398.617	89.94
398.826	114.52
399.035	171.86
399.244	132.95
399.453	143.19
399.663	77.65
399.872	98.13
400.081	135
400.29	159.57
400.499	118.61
400.708	149.33
400.917	108.37
401.127	128.85
401.336	155.47
401.545	155.47
401.754	184.15
401.963	188.24
402.172	143.19
402.381	98.13
402.59	94.04
402.799	163.67
403.008	130.9
403.217	132.95
403.426	155.47
403.635	124.76
403.844	159.57
404.053	141.14
404.262	214.87
404.471	196.43
404.68	214.87
404.888	143.19
405.097	130.9
405.306	255.83
405.515	167.76
405.724	208.72
405.933	233.3
406.142	233.3
406.35	229.2
406.559	286.54
406.768	194.39
406.977	288.59
407.185	290.64
407.394	319.31
407.603	135
407.812	247.63
408.02	311.12
408.229	247.63
408.438	288.59
408.646	247.63
408.855	362.32
409.064	370.51
409.272	327.5
409.481	360.27
409.69	302.93
409.898	352.08
410.107	440.14
410.315	368.46
410.524	354.13
410.733	368.46
410.941	477.01
411.15	581.45
411.358	401.23
411.567	569.16
411.775	520.01
411.984	597.84
412.192	612.17
412.401	558.92
412.609	638.8
412.818	599.88
413.026	634.7
413.234	638.8
413.443	745.29
413.651	778.06
413.86	649.04
414.068	761.67
414.276	862.02
414.485	796.49
414.693	773.96
414.901	962.37
415.11	884.55
415.318	993.09
415.526	964.42
415.734	999.24
415.943	1079.11
416.151	1126.21
416.359	1165.12
416.567	1148.74
416.776	1191.75
416.984	1263.43
417.192	1253.19
417.4	1179.46
417.608	1212.23
417.817	1320.77
418.025	1496.89
418.233	1482.56
418.441	1386.3
418.649	1558.33
418.857	1648.44
419.065	1740.6
419.273	1613.63
419.481	1754.94
419.689	1888.06
419.897	1967.93
420.105	1900.34
420.313	1914.68
420.521	2144.05
420.729	2099
420.937	2205.49
421.145	2268.98
421.353	2506.54
421.561	2426.67
421.769	2656.04
421.977	2711.34
422.185	2645.8
422.393	2791.21
422.601	2891.56
422.809	2963.24
423.017	2928.42
423.224	3104.55
423.432	3323.68
423.64	3381.03
423.848	3680.03
424.056	3456.8
424.263	3766.04
424.471	3688.22
424.679	3778.33
424.887	3991.32
425.094	4108.05
425.302	4206.36
425.51	4280.08
425.718	4425.49
425.925	4542.22
426.133	4613.9
426.341	4925.19
426.548	5054.22
426.756	5082.89
426.964	5111.56
427.171	5381.89
427.379	5480.19
427.586	5783.29
427.794	5897.98
428.001	5998.33
428.209	6563.57
428.417	6389.49
428.624	6631.15
428.832	6833.9
429.039	6610.67
429.247	6819.57
429.454	7241.45
429.662	7911.13
429.869	7452.39
430.076	7864.03
430.284	7503.59
430.491	7757.53
430.699	8478.42
430.906	8345.3
431.114	8490.71
431.321	8898.25
431.528	9051.85
431.736	9592.51
431.943	10211
432.15	9748.16
432.358	9838.27
432.565	10460.85
432.772	10454.71
432.979	10835.63
433.187	10954.41
433.394	11251.37
433.601	11843.23
433.808	11935.39
434.016	11880.1
434.223	12369.56
434.43	13233.8
434.637	12750.48
434.844	13704.84
435.052	13952.64
435.259	13915.78
435.466	13631.11
435.673	13682.31
435.88	14577.27
436.087	15548.01
436.294	15425.13
436.501	14952.05
436.708	15281.77
436.915	16082.53
437.122	16563.8
437.329	16586.33
437.537	17094.22
437.743	17536.59
437.95	17210.96
438.157	18071.11
438.364	18904.63
438.571	18636.34
438.778	18734.65
438.985	20735.51
439.192	19877.41
439.399	20389.41
439.606	19736.1
439.813	20608.54
440.02	22240.77
440.227	21956.1
440.433	21495.31
440.64	22427.14
440.847	22091.27
441.054	22877.69
441.261	24167.91
441.467	24192.48
441.674	24499.68
441.881	25239
442.088	25208.28
442.294	25075.16
442.501	25697.74
442.708	26129.86
442.914	27022.78
443.121	28308.9
443.328	27805.1
443.534	29275.54
443.741	28509.6
443.948	28192.17
444.154	30324.1
444.361	29865.36
444.568	30213.51
444.774	30233.99
444.981	30496.13
445.187	31280.5
445.394	32875.87
445.6	32335.21
445.807	35083.58
446.013	34262.35
446.22	34301.26
446.426	35892.53
446.633	36052.27
446.839	37231.9
447.046	35904.82
447.252	37827.86
447.459	37956.88
447.665	37565.72
447.871	39202.05
448.078	40707.3
448.284	38802.69
448.491	39773.43
448.697	41721.05
448.903	42355.92
449.11	42263.76
449.316	41592.03
449.522	42095.83
449.728	43400.38
449.935	43650.24
450.141	43738.3
450.347	44668.08
450.553	43785.4
450.76	43830.46
450.966	45407.39
451.172	44782.76
451.378	46040.21
451.584	45223.08
451.791	46208.15
451.997	46173.33
452.203	46623.89
452.409	46812.3
452.615	46744.72
452.821	44907.69
453.027	44215.47
453.233	46664.85
453.44	45128.87
453.646	45450.4
453.852	45499.55
454.058	46275.73
454.264	44836.01
454.47	45810.84
454.676	44690.6
454.882	46232.72
455.088	42067.16
455.294	42935.49
455.5	43121.86
455.705	44072.12
455.911	42235.09
456.117	41391.33
456.323	40774.89
456.529	38489.35
456.735	40287.47
456.941	39611.64
457.147	38982.91
457.352	38016.27
457.558	37149.98
457.764	37453.08
457.97	36558.12
458.176	35820.85
458.381	35947.82
458.587	34280.78
458.793	34276.68
458.999	32605.54
459.204	34856.26
459.41	33764.69
459.616	31903.09
459.821	31677.81
460.027	31849.84
460.233	30901.63
460.438	29961.61
460.644	29775.25
460.85	28261.8
461.055	27954.6
461.261	27733.42
461.466	26164.68
461.672	24905.18
461.878	26856.89
462.083	25120.21
462.289	24444.38
462.494	24362.47
462.7	23223.79
462.905	22738.43
463.111	23510.51
463.316	23520.75
463.522	23027.19
463.727	23084.53
463.932	23121.4
464.138	22476.29
464.343	22676.99
464.549	22060.55
464.754	22955.51
464.959	23094.77
465.165	22449.66
465.37	21747.21
465.575	21073.43
465.781	22070.79
465.986	22119.94
466.191	21163.54
466.397	20672.03
466.602	19846.69
466.807	20856.34
467.012	20524.57
467.218	20340.25
467.423	20035.11
