Data from USB4F104151__296__14-23-54-673.txt Node

Date: Thu Mar 13 14:23:54 EDT 2025
User: louis
Spectrometer: USB4F10415
Trigger mode: 4
Integration Time (sec): 2.000000E-2
Scans to average: 1
Electric dark correction enabled: true
Nonlinearity correction enabled: false
Boxcar width: 0
XAxis mode: Wavelengths
Number of Pixels in Spectrum: 3648
>>>>>Begin Spectral Data<<<<<
178.204	-159.74
178.424	-159.74
178.644	-159.74
178.864	-137.21
179.084	-110.59
179.304	8.19
179.524	2.05
179.744	-94.21
179.964	45.06
180.184	20.48
180.404	6.14
180.624	38.91
180.844	10.24
181.064	-20.48
181.283	-59.39
181.503	30.72
181.723	12.29
181.943	-77.82
182.163	63.49
182.383	-36.86
182.602	38.91
182.822	8.19
183.042	20.48
183.262	4.1
183.482	-12.29
183.701	10.24
183.921	28.67
184.141	-4.1
184.361	90.11
184.58	14.34
184.8	36.86
185.02	-10.24
185.239	45.06
185.459	75.77
185.679	28.67
185.898	-6.14
186.118	34.82
186.338	6.14
186.557	4.1
186.777	61.44
186.997	14.34
187.216	20.48
187.436	129.02
187.655	20.48
187.875	69.63
188.095	49.15
188.314	79.87
188.534	53.25
188.753	45.06
188.973	0
189.192	-10.24
189.412	12.29
189.631	4.1
189.851	-24.58
190.07	77.82
190.29	28.67
190.509	79.87
190.729	14.34
190.948	88.06
191.168	65.54
191.387	71.68
191.607	6.14
191.826	4.1
192.045	-18.43
192.265	-20.48
192.484	-4.1
192.704	-20.48
192.923	-22.53
193.142	86.01
193.362	40.96
193.581	106.49
193.8	69.63
194.02	61.44
194.239	40.96
194.458	30.72
194.678	-2.05
194.897	40.96
195.116	45.06
195.335	34.82
195.555	-4.1
195.774	69.63
195.993	110.59
196.212	77.82
196.432	36.86
196.651	-45.06
196.87	-4.1
197.089	178.17
197.308	83.97
197.528	-4.1
197.747	4.1
197.966	14.34
198.185	36.86
198.404	45.06
198.623	0
198.842	86.01
199.062	32.77
199.281	-8.19
199.5	57.34
199.719	20.48
199.938	86.01
200.157	71.68
200.376	-12.29
200.595	98.3
200.814	4.1
201.033	20.48
201.252	0
201.471	-4.1
201.69	10.24
201.909	53.25
202.128	49.15
202.347	38.91
202.566	-36.86
202.785	40.96
203.004	-38.91
203.223	126.97
203.442	-6.14
203.661	69.63
203.879	26.62
204.098	47.1
204.317	-43.01
204.536	86.01
204.755	45.06
204.974	38.91
205.193	61.44
205.411	124.93
205.63	65.54
205.849	94.21
206.068	49.15
206.287	4.1
206.505	49.15
206.724	81.92
206.943	16.38
207.162	86.01
207.381	8.19
207.599	45.06
207.818	104.45
208.037	94.21
208.255	43.01
208.474	69.63
208.693	81.92
208.911	55.3
209.13	57.34
209.349	36.86
209.567	126.97
209.786	18.43
210.005	86.01
210.223	2.05
210.442	-16.38
210.661	12.29
210.879	-14.34
211.098	18.43
211.316	51.2
211.535	8.19
211.753	6.14
211.972	6.14
212.191	8.19
212.409	24.58
212.628	-4.1
212.846	34.82
213.065	4.1
213.283	122.88
213.502	-28.67
213.72	-20.48
213.938	65.54
214.157	28.67
214.375	61.44
214.594	20.48
214.812	-49.15
215.031	55.3
215.249	-6.14
215.467	71.68
215.686	30.72
215.904	34.82
216.122	12.29
216.341	4.1
216.559	28.67
216.778	94.21
216.996	4.1
217.214	57.34
217.432	-36.86
217.651	-2.05
217.869	24.58
218.087	53.25
218.306	-8.19
218.524	18.43
218.742	-30.72
218.96	47.1
219.179	24.58
219.397	6.14
219.615	88.06
219.833	88.06
220.051	26.62
220.27	79.87
220.488	96.25
220.706	71.68
220.924	94.21
221.142	30.72
221.36	57.34
221.578	96.25
221.796	28.67
222.015	-18.43
222.233	18.43
222.451	96.25
222.669	10.24
222.887	96.25
223.105	-6.14
223.323	38.91
223.541	75.77
223.759	-4.1
223.977	65.54
224.195	16.38
224.413	24.58
224.631	22.53
224.849	36.86
225.067	110.59
225.285	12.29
225.503	22.53
225.721	-26.62
225.939	22.53
226.157	73.73
226.375	55.3
226.592	-34.82
226.81	32.77
227.028	63.49
227.246	45.06
227.464	96.25
227.682	4.1
227.9	28.67
228.117	34.82
228.335	45.06
228.553	16.38
228.771	77.82
228.989	53.25
229.206	49.15
229.424	36.86
229.642	59.39
229.86	-8.19
230.077	53.25
230.295	-49.15
230.513	55.3
230.731	12.29
230.948	14.34
231.166	63.49
231.384	88.06
231.601	102.4
231.819	86.01
232.037	22.53
232.254	10.24
232.472	34.82
232.689	63.49
232.907	92.16
233.125	55.3
233.342	32.77
233.56	-4.1
233.777	-20.48
233.995	49.15
234.213	26.62
234.43	6.14
234.648	22.53
234.865	-61.44
235.083	59.39
235.3	-28.67
235.518	16.38
235.735	71.68
235.953	12.29
236.17	20.48
236.388	-4.1
236.605	45.06
236.822	126.97
237.04	40.96
237.257	30.72
237.475	2.05
237.692	38.91
237.909	57.34
238.127	-4.1
238.344	-8.19
238.562	47.1
238.779	-65.53
238.996	40.96
239.214	55.3
239.431	2.05
239.648	45.06
239.865	77.82
240.083	-6.14
240.3	12.29
240.517	-36.86
240.735	-20.48
240.952	47.1
241.169	-16.38
241.386	20.48
241.603	4.1
241.821	12.29
242.038	40.96
242.255	-10.24
242.472	0
242.689	14.34
242.907	63.49
243.124	65.54
243.341	28.67
243.558	28.67
243.775	-20.48
243.992	-49.15
244.209	57.34
244.426	28.67
244.643	-4.1
244.86	-38.91
245.078	77.82
245.295	16.38
245.512	6.14
245.729	36.86
245.946	53.25
246.163	77.82
246.38	38.91
246.597	45.06
246.814	36.86
247.031	-10.24
247.248	-81.92
247.464	-4.1
247.681	8.19
247.898	-12.29
248.115	96.25
248.332	47.1
248.549	0
248.766	36.86
248.983	14.34
249.2	143.36
249.417	67.58
249.633	6.14
249.85	20.48
250.067	6.14
250.284	61.44
250.501	55.3
250.717	40.96
250.934	28.67
251.151	24.58
251.368	79.87
251.585	61.44
251.801	12.29
252.018	61.44
252.235	73.73
252.451	-24.58
252.668	-6.14
252.885	53.25
253.102	53.25
253.318	20.48
253.535	94.21
253.752	75.77
253.968	-2.05
254.185	12.29
254.401	53.25
254.618	16.38
254.835	45.06
255.051	36.86
255.268	55.3
255.484	12.29
255.701	57.34
255.917	53.25
256.134	-40.96
256.351	22.53
256.567	-26.62
256.784	45.06
257	-2.05
257.217	47.1
257.433	40.96
257.65	32.77
257.866	71.68
258.082	28.67
258.299	10.24
258.515	77.82
258.732	-36.86
258.948	2.05
259.165	43.01
259.381	69.63
259.597	71.68
259.814	118.78
260.03	40.96
260.246	77.82
260.463	47.1
260.679	28.67
260.895	77.82
261.112	65.54
261.328	12.29
261.544	2.05
261.761	90.11
261.977	83.97
262.193	-26.62
262.409	71.68
262.626	45.06
262.842	-20.48
263.058	12.29
263.274	67.58
263.49	45.06
263.707	55.3
263.923	8.19
264.139	65.54
264.355	14.34
264.571	16.38
264.787	-16.38
265.004	-28.67
265.22	20.48
265.436	94.21
265.652	-14.34
265.868	-6.14
266.084	-40.96
266.3	55.3
266.516	-53.25
266.732	65.54
266.948	18.43
267.164	73.73
267.38	65.54
267.596	55.3
267.812	40.96
268.028	55.3
268.244	8.19
268.46	88.06
268.676	32.77
268.892	55.3
269.108	-22.53
269.324	4.1
269.54	22.53
269.756	22.53
269.972	4.1
270.188	8.19
270.403	79.87
270.619	53.25
270.835	16.38
271.051	53.25
271.267	-30.72
271.483	-40.96
271.698	45.06
271.914	-12.29
272.13	53.25
272.346	-34.82
272.562	45.06
272.777	81.92
272.993	-10.24
273.209	4.1
273.425	-8.19
273.64	-12.29
273.856	32.77
274.072	24.58
274.287	-16.38
274.503	63.49
274.719	14.34
274.934	-10.24
275.15	-43.01
275.366	53.25
275.581	38.91
275.797	20.48
276.012	24.58
276.228	55.3
276.444	-8.19
276.659	94.21
276.875	22.53
277.09	8.19
277.306	79.87
277.521	47.1
277.737	12.29
277.952	61.44
278.168	63.49
278.383	-4.1
278.599	-32.77
278.814	-6.14
279.03	32.77
279.245	22.53
279.461	-79.87
279.676	88.06
279.892	22.53
280.107	45.06
280.322	-20.48
280.538	22.53
280.753	18.43
280.969	20.48
281.184	-30.72
281.399	122.88
281.615	6.14
281.83	94.21
282.045	6.14
282.26	-77.82
282.476	49.15
282.691	153.6
282.906	32.77
283.122	6.14
283.337	-20.48
283.552	20.48
283.767	-28.67
283.983	92.16
284.198	12.29
284.413	38.91
284.628	-43.01
284.843	6.14
285.058	22.53
285.274	69.63
285.489	-40.96
285.704	12.29
285.919	28.67
286.134	-10.24
286.349	-12.29
286.564	-67.58
286.779	-6.14
286.995	24.58
287.21	-24.58
287.425	-4.1
287.64	94.21
287.855	22.53
288.07	2.05
288.285	47.1
288.5	92.16
288.715	32.77
288.93	51.2
289.145	8.19
289.36	88.06
289.575	40.96
289.79	86.01
290.004	8.19
290.219	49.15
290.434	61.44
290.649	59.39
290.864	-30.72
291.079	12.29
291.294	-45.06
291.509	12.29
291.724	-2.05
291.938	-26.62
292.153	47.1
292.368	-36.86
292.583	26.62
292.798	77.82
293.012	79.87
293.227	24.58
293.442	55.3
293.657	69.63
293.871	131.07
294.086	-26.62
294.301	63.49
294.516	-10.24
294.73	20.48
294.945	18.43
295.16	61.44
295.374	81.92
295.589	-6.14
295.804	-8.19
296.018	-28.67
296.233	8.19
296.447	45.06
296.662	32.77
296.877	139.26
297.091	86.01
297.306	47.1
297.52	10.24
297.735	-2.05
297.949	53.25
298.164	12.29
298.378	38.91
298.593	32.77
298.807	28.67
299.022	36.86
299.236	53.25
299.451	88.06
299.665	14.34
299.88	16.38
300.094	28.67
300.309	-20.48
300.523	40.96
300.737	45.06
300.952	36.86
301.166	20.48
301.381	-14.34
301.595	77.82
301.809	55.3
302.024	114.69
302.238	32.77
302.452	102.4
302.667	26.62
302.881	77.82
303.095	71.68
303.309	51.2
303.524	36.86
303.738	-34.82
303.952	40.96
304.166	47.1
304.381	4.1
304.595	71.68
304.809	45.06
305.023	28.67
305.237	53.25
305.452	24.58
305.666	71.68
305.88	100.35
306.094	65.54
306.308	61.44
306.522	24.58
306.736	36.86
306.95	77.82
307.164	-69.63
307.379	12.29
307.593	73.73
307.807	61.44
308.021	57.34
308.235	73.73
308.449	63.49
308.663	-8.19
308.877	172.03
309.091	73.73
309.305	30.72
309.519	-16.38
309.733	94.21
309.947	-2.05
310.161	22.53
310.374	38.91
310.588	69.63
310.802	-10.24
311.016	6.14
311.23	-20.48
311.444	28.67
311.658	-12.29
311.872	45.06
312.085	57.34
312.299	36.86
312.513	116.73
312.727	100.35
312.941	43.01
313.154	-8.19
313.368	-2.05
313.582	38.91
313.796	38.91
314.009	40.96
314.223	53.25
314.437	61.44
314.651	73.73
314.864	16.38
315.078	26.62
315.292	26.62
315.505	26.62
315.719	61.44
315.933	28.67
316.146	55.3
316.36	-2.05
316.573	-2.05
316.787	28.67
317.001	28.67
317.214	-12.29
317.428	45.06
317.641	79.87
317.855	75.77
318.068	47.1
318.282	108.54
318.495	36.86
318.709	98.3
318.922	24.58
319.136	94.21
319.349	73.73
319.563	45.06
319.776	-16.38
319.99	51.2
320.203	-83.97
320.417	32.77
320.63	30.72
320.843	110.59
321.057	14.34
321.27	53.25
321.483	47.1
321.697	139.26
321.91	12.29
322.124	90.11
322.337	94.21
322.55	45.06
322.763	61.44
322.977	-43.01
323.19	-12.29
323.403	43.01
323.617	63.49
323.83	92.16
324.043	47.1
324.256	104.45
324.469	-2.05
324.683	126.97
324.896	-20.48
325.109	32.77
325.322	-22.53
325.535	36.86
325.748	40.96
325.962	36.86
326.175	108.54
326.388	79.87
326.601	67.58
326.814	53.25
327.027	-28.67
327.24	14.34
327.453	-20.48
327.666	53.25
327.879	24.58
328.092	71.68
328.305	77.82
328.518	36.86
328.731	77.82
328.944	40.96
329.157	81.92
329.37	47.1
329.583	75.77
329.796	79.87
330.009	28.67
330.222	36.86
330.435	20.48
330.648	71.68
330.861	81.92
331.073	79.87
331.286	20.48
331.499	-28.67
331.712	32.77
331.925	16.38
332.138	-2.05
332.35	12.29
332.563	12.29
332.776	24.58
332.989	-20.48
333.202	38.91
333.414	116.73
333.627	69.63
333.84	30.72
334.053	-14.34
334.265	-2.05
334.478	67.58
334.691	32.77
334.903	69.63
335.116	26.62
335.329	38.91
335.541	61.44
335.754	98.3
335.966	69.63
336.179	47.1
336.392	12.29
336.604	28.67
336.817	-4.1
337.029	102.4
337.242	77.82
337.454	49.15
337.667	65.54
337.88	92.16
338.092	-12.29
338.305	53.25
338.517	-20.48
338.729	69.63
338.942	88.06
339.154	10.24
339.367	77.82
339.579	104.45
339.792	24.58
340.004	151.55
340.217	77.82
340.429	40.96
340.641	57.34
340.854	10.24
341.066	16.38
341.278	61.44
341.491	102.4
341.703	28.67
341.915	28.67
342.128	86.01
342.34	-51.2
342.552	86.01
342.764	88.06
342.977	0
343.189	36.86
343.401	73.73
343.613	-2.05
343.826	71.68
344.038	-55.3
344.25	49.15
344.462	-2.05
344.674	90.11
344.886	38.91
345.099	102.4
345.311	43.01
345.523	-22.53
345.735	28.67
345.947	6.14
346.159	-45.06
346.371	49.15
346.583	69.63
346.795	145.41
347.007	-24.58
347.219	71.68
347.431	22.53
347.643	61.44
347.855	71.68
348.067	69.63
348.279	57.34
348.491	61.44
348.703	83.97
348.915	63.49
349.127	77.82
349.339	32.77
349.551	-32.77
349.763	65.54
349.975	22.53
350.187	49.15
350.399	32.77
350.61	86.01
350.822	63.49
351.034	30.72
351.246	34.82
351.458	63.49
351.669	73.73
351.881	98.3
352.093	69.63
352.305	22.53
352.517	32.77
352.728	18.43
352.94	30.72
353.152	98.3
353.363	28.67
353.575	-2.05
353.787	71.68
353.999	40.96
354.21	135.17
354.422	-16.38
354.633	102.4
354.845	45.06
355.057	28.67
355.268	28.67
355.48	45.06
355.692	81.92
355.903	30.72
356.115	90.11
356.326	-22.53
356.538	-24.58
356.749	96.25
356.961	12.29
357.172	81.92
357.384	34.82
357.595	114.69
357.807	88.06
358.018	-45.06
358.23	77.82
358.441	145.41
358.653	6.14
358.864	0
359.075	-43.01
359.287	38.91
359.498	79.87
359.709	61.44
359.921	67.58
360.132	-34.82
360.344	53.25
360.555	6.14
360.766	45.06
360.977	14.34
361.189	57.34
361.4	-36.86
361.611	59.39
361.823	159.74
362.034	-28.67
362.245	-40.96
362.456	102.4
362.667	57.34
362.879	36.86
363.09	36.86
363.301	96.25
363.512	6.14
363.723	26.62
363.935	38.91
364.146	81.92
364.357	92.16
364.568	28.67
364.779	18.43
364.99	55.3
365.201	43.01
365.412	83.97
365.623	-6.14
365.834	-4.1
366.045	-6.14
366.256	30.72
366.467	71.68
366.678	4.1
366.889	38.91
367.1	-10.24
367.311	112.64
367.522	20.48
367.733	53.25
367.944	69.63
368.155	-2.05
368.366	104.45
368.577	104.45
368.788	137.21
368.999	61.44
369.209	53.25
369.42	45.06
369.631	92.16
369.842	40.96
370.053	40.96
370.264	57.34
370.474	-8.19
370.685	32.77
370.896	53.25
371.107	32.77
371.317	55.3
371.528	96.25
371.739	135.17
371.95	36.86
372.16	104.45
372.371	55.3
372.582	-10.24
372.792	61.44
373.003	83.97
373.214	98.3
373.424	45.06
373.635	8.19
373.846	94.21
374.056	55.3
374.267	57.34
374.477	73.73
374.688	4.1
374.898	-14.34
375.109	49.15
375.319	61.44
375.53	55.3
375.74	18.43
375.951	43.01
376.161	53.25
376.372	67.58
376.582	75.77
376.793	94.21
377.003	126.97
377.214	96.25
377.424	20.48
377.635	69.63
377.845	26.62
378.055	73.73
378.266	36.86
378.476	26.62
378.686	32.77
378.897	22.53
379.107	73.73
379.317	110.59
379.528	65.54
379.738	55.3
379.948	88.06
380.158	147.45
380.369	143.36
380.579	65.54
380.789	49.15
380.999	81.92
381.21	63.49
381.42	83.97
381.63	45.06
381.84	86.01
382.05	86.01
382.261	30.72
382.471	53.25
382.681	38.91
382.891	126.97
383.101	75.77
383.311	36.86
383.521	40.96
383.731	-16.38
383.941	71.68
384.151	14.34
384.361	51.2
384.571	4.1
384.781	12.29
384.991	96.25
385.201	104.45
385.411	94.21
385.621	61.44
385.831	151.55
386.041	-16.38
386.251	40.96
386.461	61.44
386.671	53.25
386.881	-36.86
387.091	94.21
387.301	110.59
387.511	0
387.72	157.69
387.93	53.25
388.14	65.54
388.35	118.78
388.56	129.02
388.769	55.3
388.979	36.86
389.189	102.4
389.399	67.58
389.609	57.34
389.818	98.3
390.028	12.29
390.238	83.97
390.447	77.82
390.657	118.78
390.867	98.3
391.076	20.48
391.286	67.58
391.496	12.29
391.705	47.1
391.915	51.2
392.125	151.55
392.334	4.1
392.544	100.35
392.753	110.59
392.963	65.54
393.172	94.21
393.382	53.25
393.591	126.97
393.801	106.49
394.01	61.44
394.22	79.87
394.429	36.86
394.639	98.3
394.848	79.87
395.058	45.06
395.267	92.16
395.477	108.54
395.686	73.73
395.895	116.73
396.105	102.4
396.314	10.24
396.524	77.82
396.733	61.44
396.942	118.78
397.152	88.06
397.361	178.17
397.57	79.87
397.78	98.3
397.989	153.6
398.198	98.3
398.407	83.97
398.617	86.01
398.826	61.44
399.035	86.01
399.244	143.36
399.453	96.25
399.663	110.59
399.872	120.83
400.081	65.54
400.29	145.41
400.499	102.4
400.708	143.36
400.917	102.4
401.127	122.88
401.336	137.21
401.545	155.65
401.754	182.27
401.963	141.31
402.172	81.92
402.381	69.63
402.59	94.21
402.799	63.49
403.008	88.06
403.217	126.97
403.426	110.59
403.635	96.25
403.844	180.22
404.053	167.93
404.262	147.45
404.471	143.36
404.68	143.36
404.888	157.69
405.097	202.75
405.306	210.94
405.515	184.32
405.724	141.31
405.933	212.99
406.142	217.08
406.35	235.52
406.559	176.13
406.768	219.13
406.977	231.42
407.185	176.13
407.394	268.28
407.603	124.93
407.812	249.85
408.02	249.85
408.229	235.52
408.438	323.58
408.646	305.15
408.855	215.04
409.064	270.33
409.272	272.38
409.481	282.62
409.69	280.57
409.898	258.04
410.107	342.01
410.315	380.92
410.524	292.86
410.733	360.44
410.941	446.46
411.15	411.64
411.358	434.17
411.567	421.88
411.775	450.55
411.984	380.92
412.192	454.65
412.401	477.18
412.609	475.13
412.818	569.34
413.026	610.29
413.234	544.76
413.443	591.86
413.651	509.94
413.86	577.53
414.068	585.72
414.276	602.1
414.485	663.54
414.693	692.21
414.901	745.46
415.11	665.59
415.318	739.32
415.526	759.8
415.734	759.8
415.943	800.76
416.151	772.08
416.359	913.39
416.567	954.35
416.776	907.25
416.984	942.07
417.192	989.17
417.4	1042.42
417.608	1040.37
417.817	989.17
418.025	1146.86
418.233	1153.01
418.441	1159.15
418.649	1163.25
418.857	1361.9
419.065	1347.56
419.273	1249.26
419.481	1361.9
419.689	1507.31
419.897	1531.88
420.105	1593.32
420.313	1667.05
420.521	1597.42
420.729	1572.84
420.937	1761.25
421.145	1865.7
421.353	1994.72
421.561	1890.28
421.769	2041.82
421.977	2078.69
422.185	2068.45
422.393	2183.13
422.601	2365.4
422.809	2297.82
423.017	2306.01
423.224	2490.33
423.432	2547.67
423.64	2486.23
423.848	2703.32
424.056	2775
424.263	2981.84
424.471	2994.13
424.679	2850.77
424.887	3065.81
425.094	3221.45
425.302	3252.17
425.51	3381.2
425.718	3430.35
425.925	3594.19
426.133	3727.3
426.341	3882.95
426.548	3887.04
426.756	3997.64
426.964	4124.61
427.171	4261.82
427.379	4394.94
427.586	4483
427.794	4577.21
428.001	4739
428.209	4976.56
428.417	4890.55
428.624	5279.66
428.832	5306.29
429.039	5195.7
429.247	5298.1
429.454	5873.57
429.662	6186.91
429.869	5797.8
430.076	6262.69
430.284	5717.93
430.491	6201.25
430.699	6623.13
430.906	6590.36
431.114	6756.25
431.321	6954.9
431.528	7022.48
431.736	7458.7
431.943	7833.48
432.15	7460.75
432.358	7667.59
432.565	8030.09
432.772	7966.6
432.979	8535.93
433.187	8824.7
433.394	8738.68
433.601	9408.37
433.808	9285.49
434.016	9351.03
434.223	9604.97
434.43	10092.39
434.637	9965.42
434.844	10479.46
435.052	10800.99
435.259	10803.04
435.466	10821.47
435.673	10651.49
435.88	11521.87
436.087	12113.74
436.294	12011.34
436.501	11646.8
436.708	12068.68
436.915	12414.79
437.122	13135.67
437.329	12599.1
437.537	13180.73
437.743	13487.92
437.95	13377.33
438.157	14126.89
438.364	14460.71
438.571	14548.77
438.778	14487.33
438.985	16074.51
439.192	15355.67
439.399	15648.53
439.606	15406.87
439.813	16432.9
440.02	17456.89
440.227	17094.4
440.433	16903.93
440.64	17444.6
440.847	17207.03
441.054	17612.53
441.261	18444.01
441.467	18525.93
441.674	18867.94
441.881	19658.45
442.088	19549.91
442.294	19377.88
442.501	19953.36
442.708	20066
442.914	20958.91
443.121	22148.78
443.328	21370.55
443.534	22767.27
443.741	22286
443.948	21984.94
444.154	23334.56
444.361	23262.88
444.568	23316.12
444.774	23582.36
444.981	23715.48
445.187	24360.59
445.394	25687.67
445.6	24809.09
445.807	27577.95
446.013	26005.11
446.22	26603.11
446.426	27811.42
446.633	28261.97
446.839	29263.43
447.046	27788.89
447.252	29273.67
447.459	29609.53
447.665	29537.85
447.871	30473.77
448.078	31972.89
448.284	30543.41
448.491	31096.36
448.697	32337.43
448.903	33150.47
449.11	33136.13
449.316	32488.98
449.522	33287.68
449.728	34059.77
449.935	34049.53
450.141	34131.45
450.347	34653.68
450.553	34049.53
450.76	34160.12
450.966	35517.92
451.172	35040.75
451.378	35999.19
451.584	35182.06
451.791	36150.74
451.997	36208.09
452.203	36607.44
452.409	36953.55
452.615	36490.71
452.821	34975.21
453.027	34985.45
453.233	36791.76
453.44	35636.7
453.646	35599.84
453.852	35599.84
454.058	36505.04
454.264	35325.41
454.47	36208.09
454.676	35403.24
454.882	36525.52
455.088	33498.62
455.294	33666.56
455.5	34514.42
455.705	34944.49
455.911	33183.24
456.117	32630.29
456.323	32398.87
456.529	30318.13
456.735	32161.3
456.941	31272.48
457.147	30836.27
457.352	29978.17
457.558	29271.62
457.764	29691.45
457.97	29210.18
458.176	28618.32
458.381	28589.64
458.587	27076.19
458.793	26900.07
458.999	25542.27
459.204	27367.01
459.41	26895.97
459.616	25126.53
459.821	25343.61
460.027	25194.11
460.233	24505.99
460.438	23449.24
460.644	23352.99
460.85	22437.55
461.055	22367.91
461.261	22075.06
461.466	20365
461.672	20074.19
461.878	21524.15
462.083	20033.23
462.289	19388.12
462.494	19238.62
462.7	18439.91
462.905	18185.96
463.111	18624.23
463.316	18697.95
463.522	18302.7
463.727	18274.03
463.932	18099.95
464.138	18192.11
464.343	18235.11
464.549	17557.24
464.754	18274.03
464.959	17839.86
465.165	17807.09
465.37	17364.73
465.575	16615.17
465.781	17557.24
465.986	17303.29
466.191	16744.19
466.397	16555.78
466.602	15634.19
466.807	16258.82
467.012	16228.1
467.218	16174.86
467.423	16154.38
467.628	15961.87
467.833	16666.37
468.038	16135.95
