Data from USB4F104151__75__14-17-30-351.txt Node

Date: Thu Mar 13 14:17:30 EDT 2025
User: louis
Spectrometer: USB4F10415
Trigger mode: 4
Integration Time (sec): 2.000000E-2
Scans to average: 1
Electric dark correction enabled: true
Nonlinearity correction enabled: false
Boxcar width: 0
XAxis mode: Wavelengths
Number of Pixels in Spectrum: 3648
>>>>>Begin Spectral Data<<<<<
178.204	-79.36
178.424	-79.36
178.644	-79.36
178.864	-69.12
179.084	-34.3
179.304	-60.93
179.524	4.61
179.744	0.51
179.964	76.29
180.184	-32.26
180.404	-7.68
180.624	-32.26
180.844	45.57
181.064	-40.45
181.283	-56.83
181.503	33.28
181.723	70.14
181.943	16.9
182.163	117.25
182.383	33.28
182.602	92.67
182.822	80.38
183.042	-7.68
183.262	-5.63
183.482	10.75
183.701	100.86
183.921	-7.68
184.141	-3.58
184.361	16.9
184.58	-48.64
184.8	74.24
185.02	70.14
185.239	41.47
185.459	82.43
185.679	107.01
185.898	31.23
186.118	158.21
186.338	8.7
186.557	76.29
186.777	10.75
186.997	100.86
187.216	41.47
187.436	74.24
187.655	74.24
187.875	102.91
188.095	82.43
188.314	74.24
188.534	94.72
188.753	25.09
188.973	31.23
189.192	39.42
189.412	47.62
189.631	41.47
189.851	16.9
190.07	115.2
190.29	6.66
190.509	35.33
190.729	100.86
190.948	145.92
191.168	143.87
191.387	104.96
191.607	12.8
191.826	33.28
192.045	59.9
192.265	78.33
192.484	61.95
192.704	35.33
192.923	72.19
193.142	94.72
193.362	104.96
193.581	61.95
193.8	0.51
194.02	111.1
194.239	39.42
194.458	59.9
194.678	37.38
194.897	45.57
195.116	43.52
195.335	2.56
195.555	51.71
195.774	86.53
195.993	49.66
196.212	66.05
196.432	74.24
196.651	100.86
196.87	37.38
197.089	131.58
197.308	59.9
197.528	94.72
197.747	55.81
197.966	16.9
198.185	82.43
198.404	59.9
198.623	145.92
198.842	49.66
199.062	70.14
199.281	98.81
199.5	-9.73
199.719	64
199.938	4.61
200.157	82.43
200.376	96.77
200.595	82.43
200.814	-7.68
201.033	20.99
201.252	57.86
201.471	35.33
201.69	70.14
201.909	-17.92
202.128	49.66
202.347	98.81
202.566	-3.58
202.785	68.09
203.004	70.14
203.223	107.01
203.442	31.23
203.661	82.43
203.879	135.68
204.098	107.01
204.317	41.47
204.536	141.82
204.755	88.57
204.974	119.29
205.193	43.52
205.411	123.39
205.63	35.33
205.849	119.29
206.068	29.18
206.287	115.2
206.505	90.62
206.724	76.29
206.943	25.09
207.162	39.42
207.381	98.81
207.599	64
207.818	100.86
208.037	47.62
208.255	-60.93
208.474	41.47
208.693	35.33
208.911	102.91
209.13	61.95
209.349	131.58
209.567	66.05
209.786	-13.82
210.005	92.67
210.223	0.51
210.442	88.57
210.661	45.57
210.879	90.62
211.098	-5.63
211.316	27.14
211.535	115.2
211.753	47.62
211.972	66.05
212.191	14.85
212.409	104.96
212.628	35.33
212.846	90.62
213.065	53.76
213.283	78.33
213.502	33.28
213.72	115.2
213.938	68.09
214.157	68.09
214.375	49.66
214.594	27.14
214.812	49.66
215.031	96.77
215.249	-32.26
215.467	33.28
215.686	53.76
215.904	107.01
216.122	117.25
216.341	102.91
216.559	53.76
216.778	82.43
216.996	76.29
217.214	70.14
217.432	25.09
217.651	-11.78
217.869	0.51
218.087	70.14
218.306	20.99
218.524	29.18
218.742	29.18
218.96	133.63
219.179	53.76
219.397	90.62
219.615	109.05
219.833	59.9
220.051	64
220.27	115.2
220.488	102.91
220.706	18.94
220.924	57.86
221.142	107.01
221.36	100.86
221.578	16.9
221.796	123.39
222.015	66.05
222.233	29.18
222.451	131.58
222.669	16.9
222.887	137.73
223.105	39.42
223.323	107.01
223.541	33.28
223.759	55.81
223.977	53.76
224.195	131.58
224.413	57.86
224.631	92.67
224.849	-19.97
225.067	51.71
225.285	61.95
225.503	70.14
225.721	41.47
225.939	100.86
226.157	37.38
226.375	139.77
226.592	49.66
226.81	72.19
227.028	29.18
227.246	115.2
227.464	61.95
227.682	64
227.9	53.76
228.117	127.49
228.335	35.33
228.553	8.7
228.771	94.72
228.989	68.09
229.206	20.99
229.424	-5.63
229.642	53.76
229.86	41.47
230.077	70.14
230.295	37.38
230.513	119.29
230.731	111.1
230.948	78.33
231.166	57.86
231.384	33.28
231.601	70.14
231.819	12.8
232.037	102.91
232.254	33.28
232.472	4.61
232.689	39.42
232.907	76.29
233.125	102.91
233.342	76.29
233.56	33.28
233.777	0.51
233.995	86.53
234.213	74.24
234.43	4.61
234.648	10.75
234.865	66.05
235.083	57.86
235.3	4.61
235.518	6.66
235.735	117.25
235.953	84.48
236.17	59.9
236.388	25.09
236.605	20.99
236.822	72.19
237.04	117.25
237.257	49.66
237.475	37.38
237.692	41.47
237.909	80.38
238.127	41.47
238.344	84.48
238.562	109.05
238.779	-26.11
238.996	55.81
239.214	-22.02
239.431	90.62
239.648	41.47
239.865	27.14
240.083	107.01
240.3	61.95
240.517	-62.98
240.735	61.95
240.952	109.05
241.169	43.52
241.386	94.72
241.603	25.09
241.821	2.56
242.038	119.29
242.255	86.53
242.472	14.85
242.689	78.33
242.907	125.44
243.124	49.66
243.341	45.57
243.558	31.23
243.775	64
243.992	68.09
244.209	33.28
244.426	78.33
244.643	90.62
244.86	39.42
245.078	-3.58
245.295	66.05
245.512	49.66
245.729	59.9
245.946	66.05
246.163	51.71
246.38	80.38
246.597	37.38
246.814	53.76
247.031	35.33
247.248	43.52
247.464	27.14
247.681	16.9
247.898	37.38
248.115	78.33
248.332	98.81
248.549	51.71
248.766	74.24
248.983	125.44
249.2	33.28
249.417	47.62
249.633	41.47
249.85	84.48
250.067	88.57
250.284	111.1
250.501	41.47
250.717	68.09
250.934	8.7
251.151	41.47
251.368	-65.02
251.585	61.95
251.801	16.9
252.018	-19.97
252.235	0.51
252.451	35.33
252.668	49.66
252.885	76.29
253.102	115.2
253.318	57.86
253.535	10.75
253.752	98.81
253.968	78.33
254.185	12.8
254.401	31.23
254.618	-13.82
254.835	57.86
255.051	90.62
255.268	33.28
255.484	78.33
255.701	14.85
255.917	74.24
256.134	20.99
256.351	27.14
256.567	18.94
256.784	80.38
257	-28.16
257.217	61.95
257.433	88.57
257.65	102.91
257.866	8.7
258.082	20.99
258.299	94.72
258.515	51.71
258.732	-13.82
258.948	92.67
259.165	68.09
259.381	27.14
259.597	121.34
259.814	-36.35
260.03	111.1
260.246	-32.26
260.463	41.47
260.679	70.14
260.895	31.23
261.112	88.57
261.328	78.33
261.544	18.94
261.761	92.67
261.977	16.9
262.193	57.86
262.409	92.67
262.626	66.05
262.842	135.68
263.058	14.85
263.274	82.43
263.49	64
263.707	82.43
263.923	98.81
264.139	86.53
264.355	47.62
264.571	107.01
264.787	123.39
265.004	104.96
265.22	-30.21
265.436	8.7
265.652	37.38
265.868	27.14
266.084	27.14
266.3	117.25
266.516	47.62
266.732	57.86
266.948	84.48
267.164	33.28
267.38	33.28
267.596	27.14
267.812	162.3
268.028	117.25
268.244	57.86
268.46	115.2
268.676	96.77
268.892	82.43
269.108	84.48
269.324	141.82
269.54	78.33
269.756	68.09
269.972	78.33
270.188	-9.73
270.403	25.09
270.619	57.86
270.835	33.28
271.051	84.48
271.267	41.47
271.483	111.1
271.698	74.24
271.914	-24.06
272.13	39.42
272.346	27.14
272.562	76.29
272.777	55.81
272.993	102.91
273.209	51.71
273.425	33.28
273.64	-3.58
273.856	49.66
274.072	10.75
274.287	16.9
274.503	74.24
274.719	123.39
274.934	35.33
275.15	-5.63
275.366	55.81
275.581	92.67
275.797	0.51
276.012	27.14
276.228	80.38
276.444	78.33
276.659	76.29
276.875	49.66
277.09	25.09
277.306	-30.21
277.521	59.9
277.737	78.33
277.952	104.96
278.168	88.57
278.383	0.51
278.599	8.7
278.814	64
279.03	23.04
279.245	109.05
279.461	61.95
279.676	84.48
279.892	53.76
280.107	74.24
280.322	33.28
280.538	33.28
280.753	37.38
280.969	76.29
281.184	72.19
281.399	90.62
281.615	57.86
281.83	51.71
282.045	-48.64
282.26	-36.35
282.476	45.57
282.691	82.43
282.906	98.81
283.122	66.05
283.337	6.66
283.552	84.48
283.767	90.62
283.983	33.28
284.198	107.01
284.413	98.81
284.628	-28.16
284.843	109.05
285.058	137.73
285.274	37.38
285.489	29.18
285.704	51.71
285.919	57.86
286.134	107.01
286.349	78.33
286.564	39.42
286.779	147.97
286.995	139.77
287.21	49.66
287.425	90.62
287.64	-56.83
287.855	47.62
288.07	53.76
288.285	127.49
288.5	59.9
288.715	66.05
288.93	76.29
289.145	109.05
289.36	33.28
289.575	123.39
289.79	51.71
290.004	78.33
290.219	12.8
290.434	57.86
290.649	86.53
290.864	117.25
291.079	82.43
291.294	107.01
291.509	49.66
291.724	49.66
291.938	59.9
292.153	64
292.368	47.62
292.583	137.73
292.798	4.61
293.012	84.48
293.227	94.72
293.442	123.39
293.657	82.43
293.871	78.33
294.086	49.66
294.301	61.95
294.516	-17.92
294.73	25.09
294.945	16.9
295.16	-28.16
295.374	78.33
295.589	66.05
295.804	27.14
296.018	64
296.233	154.11
296.447	113.15
296.662	64
296.877	92.67
297.091	57.86
297.306	74.24
297.52	16.9
297.735	43.52
297.949	107.01
298.164	127.49
298.378	6.66
298.593	-7.68
298.807	8.7
299.022	33.28
299.236	94.72
299.451	-7.68
299.665	37.38
299.88	49.66
300.094	115.2
300.309	64
300.523	78.33
300.737	-7.68
300.952	31.23
301.166	92.67
301.381	92.67
301.595	35.33
301.809	82.43
302.024	66.05
302.238	51.71
302.452	43.52
302.667	29.18
302.881	82.43
303.095	143.87
303.309	115.2
303.524	51.71
303.738	113.15
303.952	82.43
304.166	82.43
304.381	-19.97
304.595	90.62
304.809	90.62
305.023	98.81
305.237	49.66
305.452	27.14
305.666	166.4
305.88	49.66
306.094	78.33
306.308	123.39
306.522	86.53
306.736	74.24
306.95	29.18
307.164	35.33
307.379	25.09
307.593	78.33
307.807	100.86
308.021	20.99
308.235	70.14
308.449	57.86
308.663	66.05
308.877	100.86
309.091	92.67
309.305	109.05
309.519	35.33
309.733	98.81
309.947	72.19
310.161	131.58
310.374	104.96
310.588	107.01
310.802	68.09
311.016	53.76
311.23	27.14
311.444	100.86
311.658	117.25
311.872	90.62
312.085	57.86
312.299	111.1
312.513	82.43
312.727	72.19
312.941	76.29
313.154	55.81
313.368	41.47
313.582	41.47
313.796	43.52
314.009	16.9
314.223	90.62
314.437	10.75
314.651	98.81
314.864	49.66
315.078	35.33
315.292	35.33
315.505	90.62
315.719	78.33
315.933	31.23
316.146	96.77
316.36	41.47
316.573	119.29
316.787	74.24
317.001	100.86
317.214	41.47
317.428	115.2
317.641	-3.58
317.855	64
318.068	66.05
318.282	49.66
318.495	74.24
318.709	37.38
318.922	29.18
319.136	57.86
319.349	20.99
319.563	59.9
319.776	41.47
319.99	-7.68
320.203	158.21
320.417	74.24
320.63	94.72
320.843	119.29
321.057	92.67
321.27	133.63
321.483	29.18
321.697	51.71
321.91	0.51
322.124	170.49
322.337	35.33
322.55	27.14
322.763	86.53
322.977	84.48
323.19	43.52
323.403	68.09
323.617	141.82
323.83	74.24
324.043	31.23
324.256	141.82
324.469	59.9
324.683	147.97
324.896	31.23
325.109	84.48
325.322	80.38
325.535	121.34
325.748	113.15
325.962	57.86
326.175	-19.97
326.388	59.9
326.601	49.66
326.814	57.86
327.027	127.49
327.24	131.58
327.453	25.09
327.666	25.09
327.879	88.57
328.092	113.15
328.305	129.53
328.518	90.62
328.731	51.71
328.944	76.29
329.157	123.39
329.37	84.48
329.583	145.92
329.796	76.29
330.009	70.14
330.222	123.39
330.435	25.09
330.648	82.43
330.861	45.57
331.073	49.66
331.286	49.66
331.499	113.15
331.712	90.62
331.925	129.53
332.138	35.33
332.35	107.01
332.563	-15.87
332.776	66.05
332.989	51.71
333.202	12.8
333.414	66.05
333.627	172.54
333.84	113.15
334.053	82.43
334.265	16.9
334.478	51.71
334.691	70.14
334.903	66.05
335.116	20.99
335.329	31.23
335.541	115.2
335.754	57.86
335.966	135.68
336.179	29.18
336.392	20.99
336.604	61.95
336.817	119.29
337.029	55.81
337.242	94.72
337.454	111.1
337.667	37.38
337.88	141.82
338.092	92.67
338.305	135.68
338.517	49.66
338.729	117.25
338.942	166.4
339.154	82.43
339.367	109.05
339.579	70.14
339.792	94.72
340.004	70.14
340.217	49.66
340.429	51.71
340.641	10.75
340.854	66.05
341.066	39.42
341.278	127.49
341.491	92.67
341.703	82.43
341.915	-7.68
342.128	68.09
342.34	123.39
342.552	4.61
342.764	57.86
342.977	57.86
343.189	51.71
343.401	86.53
343.613	55.81
343.826	98.81
344.038	107.01
344.25	86.53
344.462	43.52
344.674	135.68
344.886	61.95
345.099	82.43
345.311	64
345.523	76.29
345.735	90.62
345.947	66.05
346.159	27.14
346.371	37.38
346.583	76.29
346.795	66.05
347.007	29.18
347.219	115.2
347.431	107.01
347.643	141.82
347.855	98.81
348.067	59.9
348.279	0.51
348.491	82.43
348.703	76.29
348.915	59.9
349.127	61.95
349.339	84.48
349.551	25.09
349.763	107.01
349.975	115.2
350.187	90.62
350.399	107.01
350.61	76.29
350.822	49.66
351.034	29.18
351.246	104.96
351.458	41.47
351.669	90.62
351.881	86.53
352.093	123.39
352.305	156.16
352.517	51.71
352.728	53.76
352.94	41.47
353.152	86.53
353.363	-24.06
353.575	90.62
353.787	82.43
353.999	82.43
354.21	84.48
354.422	76.29
354.633	68.09
354.845	78.33
355.057	102.91
355.268	59.9
355.48	78.33
355.692	31.23
355.903	61.95
356.115	82.43
356.326	27.14
356.538	98.81
356.749	139.77
356.961	64
357.172	27.14
357.384	98.81
357.595	119.29
357.807	74.24
358.018	104.96
358.23	102.91
358.441	61.95
358.653	86.53
358.864	86.53
359.075	41.47
359.287	98.81
359.498	180.73
359.709	66.05
359.921	115.2
360.132	139.77
360.344	49.66
360.555	35.33
360.766	51.71
360.977	61.95
361.189	107.01
361.4	41.47
361.611	98.81
361.823	107.01
362.034	115.2
362.245	49.66
362.456	29.18
362.667	84.48
362.879	111.1
363.09	78.33
363.301	115.2
363.512	107.01
363.723	70.14
363.935	74.24
364.146	45.57
364.357	55.81
364.568	92.67
364.779	72.19
364.99	64
365.201	72.19
365.412	143.87
365.623	-30.21
365.834	68.09
366.045	68.09
366.256	74.24
366.467	53.76
366.678	90.62
366.889	76.29
367.1	109.05
367.311	123.39
367.522	33.28
367.733	70.14
367.944	66.05
368.155	78.33
368.366	94.72
368.577	201.21
368.788	49.66
368.999	104.96
369.209	4.61
369.42	109.05
369.631	170.49
369.842	72.19
370.053	90.62
370.264	82.43
370.474	76.29
370.685	35.33
370.896	20.99
371.107	107.01
371.317	100.86
371.528	100.86
371.739	90.62
371.95	115.2
372.16	172.54
372.371	-19.97
372.582	115.2
372.792	141.82
373.003	49.66
373.214	158.21
373.424	76.29
373.635	23.04
373.846	127.49
374.056	25.09
374.267	61.95
374.477	133.63
374.688	88.57
374.898	53.76
375.109	147.97
375.319	8.7
375.53	145.92
375.74	156.16
375.951	70.14
376.161	20.99
376.372	-38.4
376.582	74.24
376.793	76.29
377.003	35.33
377.214	74.24
377.424	68.09
377.635	117.25
377.845	-1.54
378.055	92.67
378.266	94.72
378.476	59.9
378.686	117.25
378.897	76.29
379.107	115.2
379.317	74.24
379.528	49.66
379.738	82.43
379.948	66.05
380.158	207.36
380.369	49.66
380.579	102.91
380.789	90.62
380.999	61.95
381.21	43.52
381.42	100.86
381.63	27.14
381.84	131.58
382.05	100.86
382.261	188.93
382.471	74.24
382.681	49.66
382.891	88.57
383.101	68.09
383.311	12.8
383.521	25.09
383.731	107.01
383.941	137.73
384.151	115.2
384.361	90.62
384.571	123.39
384.781	25.09
384.991	68.09
385.201	162.3
385.411	86.53
385.621	115.2
385.831	96.77
386.041	96.77
386.251	35.33
386.461	115.2
386.671	168.45
386.881	115.2
387.091	68.09
387.301	98.81
387.511	43.52
387.72	74.24
387.93	109.05
388.14	74.24
388.35	113.15
388.56	115.2
388.769	139.77
388.979	92.67
389.189	80.38
389.399	141.82
389.609	123.39
389.818	125.44
390.028	41.47
390.238	174.59
390.447	57.86
390.657	141.82
390.867	100.86
391.076	160.25
391.286	135.68
391.496	68.09
391.705	27.14
391.915	147.97
392.125	152.06
392.334	115.2
392.544	107.01
392.753	53.76
392.963	115.2
393.172	29.18
393.382	20.99
393.591	180.73
393.801	119.29
394.01	160.25
394.22	219.64
394.429	135.68
394.639	119.29
394.848	115.2
395.058	96.77
395.267	90.62
395.477	174.59
395.686	119.29
395.895	115.2
396.105	160.25
396.314	180.73
396.524	113.15
396.733	70.14
396.942	184.83
397.152	131.58
397.361	141.82
397.57	180.73
397.78	154.11
397.989	117.25
398.198	205.31
398.407	94.72
398.617	139.77
398.826	84.48
399.035	96.77
399.244	180.73
399.453	150.01
399.663	145.92
399.872	199.16
400.081	125.44
400.29	184.83
400.499	141.82
400.708	150.01
400.917	162.3
401.127	92.67
401.336	131.58
401.545	223.74
401.754	207.36
401.963	160.25
402.172	135.68
402.381	152.06
402.59	184.83
402.799	180.73
403.008	156.16
403.217	231.93
403.426	199.16
403.635	188.93
403.844	172.54
404.053	193.02
404.262	180.73
404.471	281.08
404.68	283.13
404.888	229.88
405.097	229.88
405.306	262.65
405.515	240.12
405.724	229.88
405.933	193.02
406.142	307.71
406.35	320
406.559	274.94
406.768	172.54
406.977	195.07
407.185	248.32
407.394	287.23
407.603	217.6
407.812	256.51
408.02	328.19
408.229	270.84
408.438	338.43
408.646	406.01
408.855	352.76
409.064	311.8
409.272	320
409.481	262.65
409.69	297.47
409.898	379.39
410.107	373.24
410.315	401.91
410.524	475.64
410.733	459.26
410.941	397.82
411.15	446.97
411.358	446.97
411.567	481.78
411.775	467.45
411.984	582.14
412.192	573.94
412.401	508.41
412.609	616.95
412.818	645.62
413.026	614.9
413.234	590.33
413.443	735.73
413.651	651.77
413.86	608.76
414.068	788.98
414.276	737.78
414.485	807.41
414.693	776.69
414.901	887.28
415.11	823.8
415.318	797.17
415.526	877.04
415.734	977.39
415.943	860.66
416.151	1077.74
416.359	1014.26
416.567	1053.17
416.776	1090.03
416.984	1065.46
417.192	1180.14
417.4	1315.31
417.608	1165.81
417.817	1298.92
418.025	1329.64
418.233	1516.01
418.441	1356.27
418.649	1395.18
418.857	1565.16
419.065	1688.04
419.273	1434.09
419.481	1647.08
419.689	1618.41
419.897	1929.7
420.105	1808.87
420.313	1823.2
420.521	1962.47
420.729	2009.57
420.937	2009.57
421.145	2189.79
421.353	2134.5
421.561	2400.73
421.769	2284
421.977	2474.46
422.185	2433.5
422.393	2533.85
422.601	2712.02
422.809	2730.45
423.017	2787.8
423.224	2806.23
423.432	3002.83
423.64	2980.31
423.848	3293.65
424.056	3355.08
424.263	3420.62
424.471	3416.52
424.679	3514.83
424.887	3678.66
425.094	3828.17
425.302	3850.69
425.51	4028.87
425.718	4133.31
425.925	3918.28
426.133	4196.8
426.341	4516.28
426.548	4645.31
426.756	4694.46
426.964	4770.23
427.171	4952.5
427.379	5169.59
427.586	5329.33
427.794	5415.34
428.001	5687.72
428.209	5847.46
428.417	5679.53
428.624	6275.49
428.832	6324.64
429.039	6177.19
429.247	6218.15
429.454	6635.93
429.662	6994.33
429.869	6506.91
430.076	7117.2
430.284	6918.55
430.491	7268.75
430.699	7915.91
430.906	7565.71
431.114	7631.24
431.321	8044.93
431.528	8141.19
431.736	8798.59
431.943	9228.66
432.15	8913.27
432.358	8929.66
432.565	9453.94
432.772	9570.67
432.979	9935.21
433.187	10088.81
433.394	10146.15
433.601	10793.31
433.808	10705.24
434.016	10826.07
434.223	11235.67
434.43	11907.4
434.637	11585.87
434.844	12644.67
435.052	12609.86
435.259	12591.42
435.466	12648.77
435.673	12511.55
435.88	13287.73
436.087	13816.11
436.294	14008.62
436.501	13525.3
436.708	14016.81
436.915	14639.39
437.122	15048.99
437.329	14985.5
437.537	15597.84
437.743	15589.65
437.95	15481.11
438.157	16220.42
438.364	16959.74
438.571	17047.8
438.778	16957.69
438.985	18796.77
439.192	17805.55
439.399	18510.05
439.606	17930.48
439.813	19243.23
440.02	20467.91
440.227	19669.2
440.433	19763.41
440.64	20291.79
440.847	19816.66
441.054	20744.39
441.261	22122.67
441.467	21627.06
441.674	21930.16
441.881	22630.57
442.088	22841.51
442.294	22618.28
442.501	23189.66
442.708	23670.93
442.914	24500.36
443.121	25559.16
443.328	24893.57
443.534	26626.15
443.741	25874.55
443.948	25632.89
444.154	27465.82
444.361	27369.57
444.568	27486.3
444.774	27256.93
444.981	27641.95
445.187	28272.72
445.394	29583.42
445.6	29517.89
445.807	32135.19
446.013	30949.42
446.22	31447.07
446.426	32585.74
446.633	32739.34
446.839	34025.46
447.046	32509.97
447.252	34150.39
447.459	34289.65
447.665	34062.33
447.871	35540.96
448.078	37109.71
448.284	35821.53
448.491	36237.27
448.697	37939.13
448.903	38539.19
449.11	38764.46
449.316	38000.57
449.522	38692.79
449.728	39428.01
449.935	39978.91
450.141	39774.11
450.347	40779.67
450.553	39489.45
450.76	39950.24
450.966	41060.24
451.172	40849.3
451.378	41523.08
451.584	41185.16
451.791	41865.09
451.997	41549.7
452.203	42432.38
452.409	42588.02
452.615	42227.58
452.821	40677.27
453.027	40034.21
453.233	42086.27
453.44	40705.94
453.646	41254.79
453.852	41154.44
454.058	41795.46
454.264	40576.92
454.47	41465.74
454.676	40613.78
454.882	42223.48
455.088	38492.08
455.294	38967.21
455.5	39471.01
455.705	40091.55
455.911	38254.52
456.117	37423.04
456.323	37107.66
456.529	35186.66
456.735	36984.78
456.941	35794.91
457.147	35170.28
457.352	34119.67
457.558	33916.92
457.764	34138.1
457.97	33558.53
458.176	32393.23
458.381	32442.38
458.587	30898.22
458.793	30808.11
458.999	29481.02
459.204	31414.3
459.41	30779.43
459.616	28549.2
459.821	28928.07
460.027	28645.45
460.233	28029.01
460.438	26570.86
460.644	26970.21
460.85	25847.93
461.055	25139.33
461.261	25315.45
461.466	23445.66
461.672	22855.84
461.878	24150.16
462.083	22773.92
462.289	22114.48
462.494	22137.01
462.7	21043.39
462.905	20375.75
463.111	21242.04
463.316	21301.43
463.522	20850.88
463.727	20734.15
463.932	20619.46
464.138	20564.17
464.343	20932.8
464.549	20162.76
464.754	20869.31
464.959	20463.82
465.165	20259.02
465.37	19620.05
465.575	19228.89
465.781	19747.03
465.986	19865.81
466.191	19329.24
