Data from USB4F104151__25__14-16-26-034.txt Node

Date: Thu Mar 13 14:16:26 EDT 2025
User: louis
Spectrometer: USB4F10415
Trigger mode: 4
Integration Time (sec): 2.000000E-2
Scans to average: 1
Electric dark correction enabled: true
Nonlinearity correction enabled: false
Boxcar width: 0
XAxis mode: Wavelengths
Number of Pixels in Spectrum: 3648
>>>>>Begin Spectral Data<<<<<
178.204	-59.73
178.424	-59.73
178.644	-59.73
178.864	-135.51
179.084	-63.83
179.304	3.75
179.524	-65.88
179.744	69.29
179.964	16.04
180.184	-16.73
180.404	67.24
180.624	-47.44
180.844	-26.96
181.064	-35.16
181.283	18.09
181.503	11.95
181.723	5.8
181.943	48.81
182.163	59.05
182.383	11.95
182.602	11.95
182.822	81.58
183.042	18.09
183.262	30.38
183.482	71.34
183.701	18.09
183.921	71.34
184.141	-4.44
184.361	-61.78
184.58	-6.49
184.8	61.1
185.02	26.28
185.239	44.71
185.459	54.95
185.679	24.23
185.898	7.85
186.118	91.82
186.338	-33.11
186.557	93.87
186.777	34.47
186.997	34.47
187.216	-41.3
187.436	79.53
187.655	50.86
187.875	-37.2
188.095	-0.34
188.314	63.15
188.534	44.71
188.753	9.9
188.973	34.47
189.192	46.76
189.412	61.1
189.631	22.19
189.851	59.05
190.07	104.11
190.29	-24.92
190.509	-24.92
190.729	-29.01
190.948	26.28
191.168	83.63
191.387	77.48
191.607	26.28
191.826	36.52
192.045	73.39
192.265	79.53
192.484	13.99
192.704	-14.68
192.923	54.95
193.142	110.25
193.362	50.86
193.581	69.29
193.8	61.1
194.02	-2.39
194.239	9.9
194.458	52.91
194.678	-8.53
194.897	20.14
195.116	61.1
195.335	75.43
195.555	-4.44
195.774	63.15
195.993	63.15
196.212	18.09
196.432	67.24
196.651	34.47
196.87	28.33
197.089	132.78
197.308	1.71
197.528	42.67
197.747	5.8
197.966	28.33
198.185	100.01
198.404	-57.68
198.623	75.43
198.842	42.67
199.062	30.38
199.281	26.28
199.5	18.09
199.719	63.15
199.938	22.19
200.157	32.43
200.376	50.86
200.595	83.63
200.814	63.15
201.033	34.47
201.252	34.47
201.471	50.86
201.69	-20.82
201.909	28.33
202.128	30.38
202.347	13.99
202.566	13.99
202.785	71.34
203.004	18.09
203.223	54.95
203.442	85.67
203.661	-57.68
203.879	-31.06
204.098	20.14
204.317	83.63
204.536	-29.01
204.755	54.95
204.974	75.43
205.193	93.87
205.411	67.24
205.63	42.67
205.849	100.01
206.068	36.52
206.287	-14.68
206.505	61.1
206.724	34.47
206.943	36.52
207.162	87.72
207.381	13.99
207.599	26.28
207.818	63.15
208.037	24.23
208.255	-10.58
208.474	9.9
208.693	-2.39
208.911	93.87
209.13	26.28
209.349	-31.06
209.567	-26.96
209.786	50.86
210.005	-2.39
210.223	-6.49
210.442	44.71
210.661	9.9
210.879	36.52
211.098	-47.44
211.316	77.48
211.535	100.01
211.753	38.57
211.972	52.91
212.191	40.62
212.409	-33.11
212.628	42.67
212.846	18.09
213.065	22.19
213.283	100.01
213.502	7.85
213.72	-10.58
213.938	26.28
214.157	-67.92
214.375	-14.68
214.594	81.58
214.812	-20.82
215.031	63.15
215.249	34.47
215.467	36.52
215.686	9.9
215.904	38.57
216.122	91.82
216.341	151.21
216.559	11.95
216.778	30.38
216.996	59.05
217.214	20.14
217.432	-90.45
217.651	-55.64
217.869	69.29
218.087	46.76
218.306	-4.44
218.524	3.75
218.742	83.63
218.96	11.95
219.179	102.06
219.397	-4.44
219.615	59.05
219.833	91.82
220.051	20.14
220.27	16.04
220.488	-10.58
220.706	34.47
220.924	7.85
221.142	83.63
221.36	30.38
221.578	-20.82
221.796	20.14
222.015	-29.01
222.233	-26.96
222.451	132.78
222.669	42.67
222.887	32.43
223.105	-26.96
223.323	18.09
223.541	-22.87
223.759	-26.96
223.977	52.91
224.195	102.06
224.413	40.62
224.631	44.71
224.849	24.23
225.067	100.01
225.285	-31.06
225.503	5.8
225.721	-45.4
225.939	20.14
226.157	54.95
226.375	100.01
226.592	-31.06
226.81	1.71
227.028	52.91
227.246	59.05
227.464	26.28
227.682	-51.54
227.9	26.28
228.117	67.24
228.335	71.34
228.553	65.19
228.771	-18.77
228.989	9.9
229.206	106.15
229.424	54.95
229.642	32.43
229.86	13.99
230.077	22.19
230.295	54.95
230.513	13.99
230.731	97.96
230.948	61.1
231.166	79.53
231.384	-29.01
231.601	-6.49
231.819	1.71
232.037	77.48
232.254	11.95
232.472	-26.96
232.689	-14.68
232.907	50.86
233.125	-14.68
233.342	-14.68
233.56	-12.63
233.777	-6.49
233.995	18.09
234.213	5.8
234.43	57
234.648	48.81
234.865	73.39
235.083	20.14
235.3	79.53
235.518	52.91
235.735	85.67
235.953	110.25
236.17	30.38
236.388	34.47
236.605	-35.16
236.822	75.43
237.04	20.14
237.257	-2.39
237.475	-35.16
237.692	42.67
237.909	28.33
238.127	-37.2
238.344	67.24
238.562	28.33
238.779	-35.16
238.996	3.75
239.214	59.05
239.431	81.58
239.648	22.19
239.865	104.11
240.083	32.43
240.3	38.57
240.517	-12.63
240.735	67.24
240.952	54.95
241.169	26.28
241.386	77.48
241.603	54.95
241.821	22.19
242.038	100.01
242.255	77.48
242.472	-37.2
242.689	13.99
242.907	52.91
243.124	63.15
243.341	75.43
243.558	9.9
243.775	75.43
243.992	-10.58
244.209	128.68
244.426	126.63
244.643	61.1
244.86	34.47
245.078	54.95
245.295	-47.44
245.512	3.75
245.729	-12.63
245.946	9.9
246.163	89.77
246.38	-12.63
246.597	30.38
246.814	-0.34
247.031	7.85
247.248	46.76
247.464	52.91
247.681	69.29
247.898	93.87
248.115	-29.01
248.332	-26.96
248.549	9.9
248.766	52.91
248.983	59.05
249.2	34.47
249.417	-18.77
249.633	7.85
249.85	108.2
250.067	-16.73
250.284	-8.53
250.501	-2.39
250.717	3.75
250.934	22.19
251.151	59.05
251.368	9.9
251.585	67.24
251.801	11.95
252.018	22.19
252.235	83.63
252.451	-41.3
252.668	18.09
252.885	34.47
253.102	-35.16
253.318	75.43
253.535	42.67
253.752	67.24
253.968	59.05
254.185	-26.96
254.401	7.85
254.618	11.95
254.835	-31.06
255.051	93.87
255.268	26.28
255.484	34.47
255.701	24.23
255.917	149.16
256.134	-0.34
256.351	71.34
256.567	34.47
256.784	65.19
257	110.25
257.217	132.78
257.433	124.58
257.65	65.19
257.866	122.54
258.082	7.85
258.299	126.63
258.515	26.28
258.732	1.71
258.948	34.47
259.165	100.01
259.381	5.8
259.597	91.82
259.814	-4.44
260.03	32.43
260.246	42.67
260.463	36.52
260.679	38.57
260.895	52.91
261.112	50.86
261.328	104.11
261.544	57
261.761	91.82
261.977	75.43
262.193	-39.25
262.409	122.54
262.626	-2.39
262.842	42.67
263.058	-20.82
263.274	-6.49
263.49	-6.49
263.707	46.76
263.923	26.28
264.139	-39.25
264.355	36.52
264.571	28.33
264.787	-18.77
265.004	52.91
265.22	5.8
265.436	26.28
265.652	28.33
265.868	61.1
266.084	-29.01
266.3	102.06
266.516	63.15
266.732	83.63
266.948	85.67
267.164	134.82
267.38	26.28
267.596	44.71
267.812	20.14
268.028	46.76
268.244	18.09
268.46	-39.25
268.676	46.76
268.892	69.29
269.108	1.71
269.324	5.8
269.54	-12.63
269.756	75.43
269.972	9.9
270.188	34.47
270.403	13.99
270.619	50.86
270.835	36.52
271.051	57
271.267	-6.49
271.483	-14.68
271.698	77.48
271.914	36.52
272.13	-26.96
272.346	22.19
272.562	-39.25
272.777	36.52
272.993	42.67
273.209	34.47
273.425	9.9
273.64	77.48
273.856	71.34
274.072	-14.68
274.287	-2.39
274.503	50.86
274.719	63.15
274.934	73.39
275.15	20.14
275.366	11.95
275.581	18.09
275.797	9.9
276.012	-41.3
276.228	28.33
276.444	26.28
276.659	73.39
276.875	83.63
277.09	61.1
277.306	-37.2
277.521	59.05
277.737	-4.44
277.952	59.05
278.168	13.99
278.383	65.19
278.599	122.54
278.814	95.91
279.03	87.72
279.245	38.57
279.461	3.75
279.676	59.05
279.892	-51.54
280.107	67.24
280.322	-26.96
280.538	69.29
280.753	-22.87
280.969	95.91
281.184	87.72
281.399	44.71
281.615	75.43
281.83	-8.53
282.045	40.62
282.26	52.91
282.476	-8.53
282.691	93.87
282.906	26.28
283.122	50.86
283.337	-47.44
283.552	-14.68
283.767	22.19
283.983	77.48
284.198	9.9
284.413	26.28
284.628	26.28
284.843	67.24
285.058	114.34
285.274	59.05
285.489	73.39
285.704	110.25
285.919	-31.06
286.134	-18.77
286.349	42.67
286.564	16.04
286.779	20.14
286.995	-12.63
287.21	71.34
287.425	81.58
287.64	20.14
287.855	110.25
288.07	22.19
288.285	83.63
288.5	67.24
288.715	63.15
288.93	-14.68
289.145	28.33
289.36	-0.34
289.575	20.14
289.79	57
290.004	67.24
290.219	89.77
290.434	-12.63
290.649	-20.82
290.864	28.33
291.079	18.09
291.294	42.67
291.509	81.58
291.724	-14.68
291.938	20.14
292.153	83.63
292.368	34.47
292.583	34.47
292.798	79.53
293.012	44.71
293.227	11.95
293.442	-29.01
293.657	-31.06
293.871	108.2
294.086	67.24
294.301	20.14
294.516	124.58
294.73	81.58
294.945	-22.87
295.16	-2.39
295.374	77.48
295.589	75.43
295.804	63.15
296.018	3.75
296.233	34.47
296.447	32.43
296.662	1.71
296.877	67.24
297.091	91.82
297.306	34.47
297.52	110.25
297.735	34.47
297.949	40.62
298.164	-18.77
298.378	67.24
298.593	3.75
298.807	36.52
299.022	63.15
299.236	140.97
299.451	46.76
299.665	73.39
299.88	100.01
300.094	20.14
300.309	11.95
300.523	59.05
300.737	32.43
300.952	-18.77
301.166	3.75
301.381	-29.01
301.595	108.2
301.809	-53.59
302.024	95.91
302.238	42.67
302.452	63.15
302.667	-2.39
302.881	83.63
303.095	71.34
303.309	34.47
303.524	20.14
303.738	-35.16
303.952	67.24
304.166	52.91
304.381	9.9
304.595	100.01
304.809	50.86
305.023	52.91
305.237	32.43
305.452	67.24
305.666	75.43
305.88	75.43
306.094	48.81
306.308	3.75
306.522	71.34
306.736	-10.58
306.95	77.48
307.164	54.95
307.379	-6.49
307.593	93.87
307.807	112.3
308.021	67.24
308.235	-20.82
308.449	-18.77
308.663	52.91
308.877	71.34
309.091	9.9
309.305	-22.87
309.519	-59.73
309.733	116.39
309.947	13.99
310.161	69.29
310.374	42.67
310.588	100.01
310.802	42.67
311.016	38.57
311.23	-14.68
311.444	-8.53
311.658	61.1
311.872	11.95
312.085	118.44
312.299	44.71
312.513	91.82
312.727	38.57
312.941	34.47
313.154	52.91
313.368	75.43
313.582	91.82
313.796	59.05
314.009	75.43
314.223	69.29
314.437	-10.58
314.651	40.62
314.864	-10.58
315.078	18.09
315.292	22.19
315.505	7.85
315.719	-8.53
315.933	85.67
316.146	59.05
316.36	-4.44
316.573	40.62
316.787	-43.35
317.001	9.9
317.214	30.38
317.428	5.8
317.641	63.15
317.855	20.14
318.068	22.19
318.282	-14.68
318.495	112.3
318.709	30.38
318.922	79.53
319.136	77.48
319.349	46.76
319.563	13.99
319.776	85.67
319.99	26.28
320.203	167.59
320.417	75.43
320.63	69.29
320.843	-24.92
321.057	18.09
321.27	-69.97
321.483	85.67
321.697	87.72
321.91	67.24
322.124	26.28
322.337	3.75
322.55	13.99
322.763	42.67
322.977	83.63
323.19	-12.63
323.403	36.52
323.617	71.34
323.83	77.48
324.043	67.24
324.256	46.76
324.469	1.71
324.683	108.2
324.896	42.67
325.109	77.48
325.322	-10.58
325.535	34.47
325.748	67.24
325.962	28.33
326.175	44.71
326.388	11.95
326.601	77.48
326.814	-10.58
327.027	5.8
327.24	61.1
327.453	-39.25
327.666	61.1
327.879	22.19
328.092	122.54
328.305	38.57
328.518	44.71
328.731	108.2
328.944	13.99
329.157	97.96
329.37	110.25
329.583	24.23
329.796	104.11
330.009	-2.39
330.222	93.87
330.435	120.49
330.648	75.43
330.861	5.8
331.073	67.24
331.286	42.67
331.499	61.1
331.712	-4.44
331.925	149.16
332.138	34.47
332.35	91.82
332.563	67.24
332.776	34.47
332.989	61.1
333.202	34.47
333.414	71.34
333.627	97.96
333.84	95.91
334.053	42.67
334.265	34.47
334.478	48.81
334.691	-8.53
334.903	1.71
335.116	83.63
335.329	13.99
335.541	77.48
335.754	50.86
335.966	50.86
336.179	89.77
336.392	36.52
336.604	9.9
336.817	93.87
337.029	75.43
337.242	-0.34
337.454	22.19
337.667	85.67
337.88	52.91
338.092	79.53
338.305	38.57
338.517	106.15
338.729	118.44
338.942	102.06
339.154	59.05
339.367	-6.49
339.579	34.47
339.792	44.71
340.004	75.43
340.217	87.72
340.429	61.1
340.641	-47.44
340.854	-6.49
341.066	75.43
341.278	83.63
341.491	83.63
341.703	75.43
341.915	83.63
342.128	79.53
342.34	71.34
342.552	-2.39
342.764	61.1
342.977	20.14
343.189	110.25
343.401	18.09
343.613	30.38
343.826	67.24
344.038	11.95
344.25	38.57
344.462	13.99
344.674	-22.87
344.886	-2.39
345.099	50.86
345.311	73.39
345.523	71.34
345.735	-18.77
345.947	81.58
346.159	28.33
346.371	36.52
346.583	59.05
346.795	32.43
347.007	30.38
347.219	73.39
347.431	46.76
347.643	59.05
347.855	42.67
348.067	95.91
348.279	124.58
348.491	26.28
348.703	52.91
348.915	5.8
349.127	30.38
349.339	61.1
349.551	34.47
349.763	83.63
349.975	54.95
350.187	67.24
350.399	34.47
350.61	50.86
350.822	-14.68
351.034	85.67
351.246	128.68
351.458	54.95
351.669	-43.35
351.881	118.44
352.093	116.39
352.305	40.62
352.517	42.67
352.728	124.58
352.94	-14.68
353.152	50.86
353.363	20.14
353.575	26.28
353.787	81.58
353.999	5.8
354.21	54.95
354.422	44.71
354.633	36.52
354.845	50.86
355.057	26.28
355.268	44.71
355.48	52.91
355.692	34.47
355.903	75.43
356.115	20.14
356.326	61.1
356.538	40.62
356.749	20.14
356.961	69.29
357.172	69.29
357.384	69.29
357.595	118.44
357.807	175.78
358.018	18.09
358.23	46.76
358.441	85.67
358.653	9.9
358.864	54.95
359.075	46.76
359.287	52.91
359.498	124.58
359.709	50.86
359.921	77.48
360.132	46.76
360.344	5.8
360.555	-18.77
360.766	67.24
360.977	38.57
361.189	54.95
361.4	-31.06
361.611	63.15
361.823	42.67
362.034	-10.58
362.245	7.85
362.456	77.48
362.667	-6.49
362.879	63.15
363.09	77.48
363.301	-14.68
363.512	34.47
363.723	102.06
363.935	11.95
364.146	28.33
364.357	-18.77
364.568	40.62
364.779	44.71
364.99	102.06
365.201	46.76
365.412	52.91
365.623	-0.34
365.834	67.24
366.045	38.57
366.256	83.63
366.467	40.62
366.678	100.01
366.889	83.63
367.1	59.05
367.311	75.43
367.522	44.71
367.733	89.77
367.944	63.15
368.155	44.71
368.366	50.86
368.577	77.48
368.788	130.73
368.999	34.47
369.209	61.1
369.42	75.43
369.631	93.87
369.842	46.76
370.053	26.28
370.264	40.62
370.474	67.24
370.685	114.34
370.896	26.28
371.107	59.05
371.317	50.86
371.528	38.57
371.739	54.95
371.95	13.99
372.16	59.05
372.371	-37.2
372.582	-45.4
372.792	42.67
373.003	63.15
373.214	22.19
373.424	50.86
373.635	46.76
373.846	100.01
374.056	65.19
374.267	112.3
374.477	77.48
374.688	18.09
374.898	-51.54
375.109	67.24
375.319	1.71
375.53	124.58
375.74	134.82
375.951	-43.35
376.161	48.81
376.372	48.81
376.582	11.95
376.793	59.05
377.003	-20.82
377.214	-20.82
377.424	52.91
377.635	-4.44
377.845	9.9
378.055	59.05
378.266	48.81
378.476	153.26
378.686	59.05
378.897	48.81
379.107	20.14
379.317	59.05
379.528	42.67
379.738	61.1
379.948	22.19
380.158	67.24
380.369	46.76
380.579	85.67
380.789	34.47
380.999	85.67
381.21	104.11
381.42	188.07
381.63	79.53
381.84	126.63
382.05	22.19
382.261	181.93
382.471	75.43
382.681	40.62
382.891	87.72
383.101	28.33
383.311	28.33
383.521	44.71
383.731	67.24
383.941	89.77
384.151	36.52
384.361	75.43
384.571	100.01
384.781	59.05
384.991	93.87
385.201	108.2
385.411	-4.44
385.621	110.25
385.831	91.82
386.041	69.29
386.251	18.09
386.461	28.33
386.671	44.71
386.881	89.77
387.091	5.8
387.301	93.87
387.511	28.33
387.72	44.71
387.93	83.63
388.14	71.34
388.35	61.1
388.56	42.67
388.769	59.05
388.979	59.05
389.189	71.34
389.399	-0.34
389.609	36.52
389.818	63.15
390.028	30.38
390.238	77.48
390.447	95.91
390.657	34.47
390.867	124.58
391.076	16.04
391.286	157.35
391.496	42.67
391.705	26.28
391.915	183.98
392.125	93.87
392.334	38.57
392.544	108.2
392.753	112.3
392.963	48.81
393.172	102.06
393.382	87.72
393.591	140.97
393.801	30.38
394.01	110.25
394.22	61.1
394.429	124.58
394.639	114.34
394.848	102.06
395.058	61.1
395.267	93.87
395.477	155.3
395.686	30.38
395.895	173.74
396.105	118.44
396.314	91.82
396.524	77.48
396.733	67.24
396.942	143.02
397.152	97.96
397.361	124.58
397.57	100.01
397.78	132.78
397.989	61.1
398.198	116.39
398.407	83.63
398.617	177.83
398.826	145.06
399.035	34.47
399.244	106.15
399.453	116.39
399.663	87.72
399.872	200.36
400.081	89.77
400.29	130.73
400.499	71.34
400.708	97.96
400.917	34.47
401.127	71.34
401.336	83.63
401.545	173.74
401.754	110.25
401.963	143.02
402.172	67.24
402.381	124.58
402.59	120.49
402.799	97.96
403.008	54.95
403.217	59.05
403.426	128.68
403.635	126.63
403.844	102.06
404.053	149.16
404.262	136.87
404.471	190.12
404.68	140.97
404.888	91.82
405.097	153.26
405.306	95.91
405.515	167.59
405.724	138.92
405.933	175.78
406.142	212.65
406.35	165.54
406.559	218.79
406.768	202.41
406.977	224.94
407.185	192.17
407.394	214.7
407.603	204.46
407.812	188.07
408.02	263.85
408.229	194.22
408.438	216.74
408.646	267.94
408.855	212.65
409.064	257.7
409.272	214.7
409.481	304.81
409.69	280.23
409.898	222.89
410.107	302.76
410.315	280.23
410.524	267.94
410.733	321.19
410.941	382.63
411.15	255.65
411.358	353.96
411.567	411.3
411.775	386.72
411.984	419.49
412.192	460.45
412.401	431.78
412.609	530.08
412.818	454.31
413.026	456.36
413.234	501.41
413.443	485.03
413.651	538.27
413.86	558.75
414.068	607.91
414.276	560.8
414.485	577.19
414.693	730.78
414.901	648.86
415.11	607.91
415.318	689.82
415.526	732.83
415.734	700.06
415.943	800.41
416.151	741.02
416.359	730.78
416.567	788.13
416.776	880.29
416.984	824.99
417.192	902.81
417.4	880.29
417.608	919.2
417.817	992.92
418.025	1107.61
418.233	1095.32
418.441	1050.27
418.649	1193.62
418.857	1177.24
419.065	1201.82
419.273	1253.02
419.481	1255.06
419.689	1392.28
419.897	1382.04
420.105	1459.86
420.313	1435.28
420.521	1533.59
420.729	1623.7
420.937	1588.88
421.145	1803.92
421.353	1611.41
421.561	1826.45
421.769	1789.58
421.977	2037.39
422.185	1926.8
422.393	2080.39
422.601	2166.41
422.809	2061.96
423.017	2274.95
423.224	2291.34
423.432	2385.54
423.64	2442.89
423.848	2610.82
424.056	2619.01
424.263	2600.58
424.471	2797.18
424.679	2872.96
424.887	2905.73
425.094	3020.41
425.302	3100.28
425.51	3212.92
425.718	3214.97
425.925	3196.54
426.133	3360.38
426.341	3573.36
426.548	3745.39
426.756	3626.61
426.964	3671.67
427.171	4032.11
427.379	4040.3
427.586	4091.5
427.794	4195.95
428.001	4544.1
428.209	4601.44
428.417	4740.71
428.624	4916.83
428.832	4882.02
429.039	4834.91
429.247	4728.42
429.454	5322.33
429.662	5729.88
429.869	5391.96
430.076	5766.74
430.284	5389.91
430.491	5811.79
430.699	6020.69
430.906	6215.24
431.114	6145.61
431.321	6571.59
431.528	6485.58
431.736	7016
431.943	7388.73
432.15	6995.52
432.358	7102.01
432.565	7556.66
432.772	7419.45
432.979	7960.11
433.187	7929.39
433.394	8087.09
433.601	8558.12
433.808	8631.85
434.016	8908.32
434.223	8996.39
434.43	9469.47
434.637	9279.01
434.844	9965.07
435.052	10032.66
435.259	10049.04
435.466	10055.19
435.673	9946.64
435.88	10638.86
436.087	11136.51
436.294	11163.14
436.501	11093.51
436.708	11290.11
436.915	11539.96
437.122	12111.35
437.329	12226.03
437.537	12428.78
437.743	12576.23
437.95	12375.53
438.157	13002.21
438.364	13573.6
438.571	13446.62
438.778	13555.16
438.985	14833.1
439.192	14280.14
439.399	14769.61
439.606	14509.52
439.813	15066.56
440.02	16147.89
440.227	15635.9
440.433	15955.38
440.64	16217.52
440.847	15963.58
441.054	16692.65
441.261	17743.26
441.467	17427.87
441.674	17698.2
441.881	18591.12
442.088	18206.1
442.294	18025.88
442.501	18879.88
442.708	19088.78
442.914	19664.25
443.121	20663.66
443.328	20032.89
443.534	21611.87
443.741	20893.04
443.948	20585.84
444.154	22109.53
444.361	22173.02
444.568	21859.68
444.774	21876.06
444.981	22297.94
445.187	22969.68
445.394	23692.61
445.6	23684.42
445.807	25734.43
446.013	24882.48
446.22	25300.26
446.426	26209.56
446.633	26184.99
446.839	27141.39
447.046	26301.72
447.252	27561.22
447.459	27663.62
447.665	27827.46
447.871	28691.7
448.078	29902.05
448.284	28310.78
448.491	29471.98
448.697	30434.52
448.903	31085.78
449.11	31005.91
449.316	30581.98
449.522	31132.88
449.728	32122.05
449.935	32199.87
450.141	32085.19
450.347	32847.03
450.553	31538.38
450.76	32500.92
450.966	33051.83
451.172	33064.11
451.378	34145.44
451.584	33117.36
451.791	34321.57
451.997	33825.96
452.203	34213.02
452.409	34233.5
452.615	34170.02
452.821	32904.37
453.027	32259.26
453.233	33993.89
453.44	33109.17
453.646	33189.04
453.852	33375.41
454.058	33887.4
454.264	32849.08
454.47	33854.63
454.676	32687.29
454.882	33707.18
455.088	31147.22
455.294	31048.91
455.5	31675.59
455.705	32201.92
455.911	31065.3
456.117	30577.88
456.323	30239.97
456.529	28407.03
456.735	29695.21
456.941	28988.66
457.147	28394.75
457.352	27419.91
457.558	27503.88
457.764	27501.83
457.97	26711.32
458.176	26156.32
458.381	26236.19
458.587	25171.24
458.793	25025.84
458.999	23700.8
459.204	25296.17
459.41	24692.02
459.616	23194.95
459.821	23090.51
460.027	23188.81
460.233	22730.06
460.438	21730.66
460.644	21921.12
460.85	20342.13
461.055	20288.89
461.261	20411.76
461.466	18855.31
461.672	18238.87
461.878	19379.59
462.083	17964.44
462.289	18122.13
462.494	17720.73
462.7	17122.73
462.905	16516.53
463.111	17153.44
463.316	17180.07
463.522	16774.57
463.727	16575.92
463.932	16766.38
464.138	16655.79
464.343	16457.14
464.549	16139.7
464.754	16754.09
464.959	16807.34
465.165	16448.94
465.37	15805.88
465.575	15443.39
465.781	16219.57
465.986	16082.36
466.191	15394.24
466.397	15297.99
466.602	14476.75
466.807	15295.94
467.012	15160.77
