Data from USB4F104151__76__14-17-30-870.txt Node

Date: Thu Mar 13 14:17:30 EDT 2025
User: louis
Spectrometer: USB4F10415
Trigger mode: 4
Integration Time (sec): 2.000000E-2
Scans to average: 1
Electric dark correction enabled: true
Nonlinearity correction enabled: false
Boxcar width: 0
XAxis mode: Wavelengths
Number of Pixels in Spectrum: 3648
>>>>>Begin Spectral Data<<<<<
178.204	-169.3
178.424	-169.3
178.644	-169.3
178.864	-95.57
179.084	-75.09
179.304	-9.56
179.524	-30.04
179.744	31.4
179.964	27.31
180.184	6.83
180.404	2.73
180.624	-48.47
180.844	53.93
181.064	17.07
181.283	-21.85
181.503	-9.56
181.723	-19.8
181.943	-66.9
182.163	55.98
182.383	21.16
182.602	41.64
182.822	31.4
183.042	-1.37
183.262	6.83
183.482	-5.46
183.701	-15.7
183.921	47.79
184.141	-89.43
184.361	64.17
184.58	-15.7
184.8	23.21
185.02	27.31
185.239	-17.75
185.459	51.88
185.679	-32.08
185.898	-34.13
186.118	-17.75
186.338	31.4
186.557	92.84
186.777	-11.61
186.997	35.5
187.216	6.83
187.436	23.21
187.655	-17.75
187.875	21.16
188.095	-85.33
188.314	-23.89
188.534	72.36
188.753	-71
188.973	47.79
189.192	64.17
189.412	-17.75
189.631	6.83
189.851	33.45
190.07	33.45
190.29	-38.23
190.509	47.79
190.729	76.46
190.948	-13.65
191.168	146.09
191.387	-32.08
191.607	15.02
191.826	-34.13
192.045	27.31
192.265	-38.23
192.484	-42.32
192.704	-42.32
192.923	-48.47
193.142	60.07
193.362	-5.46
193.581	72.36
193.8	62.12
194.02	-9.56
194.239	37.55
194.458	17.07
194.678	-73.04
194.897	-52.56
195.116	2.73
195.335	55.98
195.555	-13.65
195.774	41.64
195.993	55.98
196.212	-9.56
196.432	-36.18
196.651	45.74
196.87	-48.47
197.089	39.59
197.308	23.21
197.528	125.61
197.747	-71
197.966	-48.47
198.185	8.87
198.404	-15.7
198.623	17.07
198.842	64.17
199.062	25.26
199.281	41.64
199.5	0.68
199.719	6.83
199.938	-30.04
200.157	8.87
200.376	-11.61
200.595	12.97
200.814	60.07
201.033	-9.56
201.252	72.36
201.471	27.31
201.69	12.97
201.909	27.31
202.128	-9.56
202.347	31.4
202.566	-58.71
202.785	-68.95
203.004	-25.94
203.223	78.51
203.442	33.45
203.661	-46.42
203.879	60.07
204.098	129.7
204.317	-11.61
204.536	103.08
204.755	41.64
204.974	51.88
205.193	8.87
205.411	49.83
205.63	49.83
205.849	-7.51
206.068	-9.56
206.287	35.5
206.505	-9.56
206.724	-34.13
206.943	17.07
207.162	8.87
207.381	43.69
207.599	-32.08
207.818	0.68
208.037	-50.52
208.255	-44.37
208.474	-25.94
208.693	-1.37
208.911	-21.85
209.13	15.02
209.349	49.83
209.567	-38.23
209.786	47.79
210.005	58.03
210.223	10.92
210.442	-17.75
210.661	-9.56
210.879	-50.52
211.098	2.73
211.316	0.68
211.535	23.21
211.753	-25.94
211.972	35.5
212.191	-13.65
212.409	25.26
212.628	17.07
212.846	-34.13
213.065	-32.08
213.283	-25.94
213.502	-34.13
213.72	-38.23
213.938	-9.56
214.157	-7.51
214.375	-17.75
214.594	-36.18
214.812	10.92
215.031	64.17
215.249	64.17
215.467	15.02
215.686	25.26
215.904	-21.85
216.122	-1.37
216.341	49.83
216.559	43.69
216.778	6.83
216.996	72.36
217.214	15.02
217.432	-58.71
217.651	66.22
217.869	-32.08
218.087	-21.85
218.306	37.55
218.524	0.68
218.742	-54.61
218.96	6.83
219.179	12.97
219.397	21.16
219.615	60.07
219.833	-7.51
220.051	15.02
220.27	27.31
220.488	105.13
220.706	68.27
220.924	-7.51
221.142	15.02
221.36	-21.85
221.578	19.11
221.796	0.68
222.015	-34.13
222.233	-25.94
222.451	-30.04
222.669	15.02
222.887	25.26
223.105	-15.7
223.323	23.21
223.541	-21.85
223.759	31.4
223.977	-48.47
224.195	35.5
224.413	-34.13
224.631	55.98
224.849	-1.37
225.067	39.59
225.285	41.64
225.503	-52.56
225.721	49.83
225.939	-9.56
226.157	17.07
226.375	19.11
226.592	39.59
226.81	23.21
227.028	6.83
227.246	27.31
227.464	2.73
227.682	25.26
227.9	2.73
228.117	45.74
228.335	98.99
228.553	-62.8
228.771	6.83
228.989	96.94
229.206	15.02
229.424	92.84
229.642	-46.42
229.86	31.4
230.077	-32.08
230.295	-13.65
230.513	31.4
230.731	-30.04
230.948	-36.18
231.166	31.4
231.384	-17.75
231.601	27.31
231.819	55.98
232.037	-120.15
232.254	-30.04
232.472	21.16
232.689	47.79
232.907	37.55
233.125	-1.37
233.342	21.16
233.56	17.07
233.777	17.07
233.995	-38.23
234.213	31.4
234.43	84.65
234.648	17.07
234.865	6.83
235.083	-58.71
235.3	-1.37
235.518	19.11
235.735	74.41
235.953	31.4
236.17	-9.56
236.388	-23.89
236.605	31.4
236.822	17.07
237.04	19.11
237.257	-7.51
237.475	17.07
237.692	47.79
237.909	-40.28
238.127	10.92
238.344	35.5
238.562	45.74
238.779	-34.13
238.996	25.26
239.214	39.59
239.431	55.98
239.648	-5.46
239.865	41.64
240.083	31.4
240.3	-9.56
240.517	25.26
240.735	8.87
240.952	47.79
241.169	25.26
241.386	0.68
241.603	-3.41
241.821	-58.71
242.038	64.17
242.255	35.5
242.472	-83.28
242.689	33.45
242.907	12.97
243.124	35.5
243.341	-17.75
243.558	-19.8
243.775	-3.41
243.992	37.55
244.209	6.83
244.426	66.22
244.643	-7.51
244.86	-7.51
245.078	66.22
245.295	31.4
245.512	25.26
245.729	55.98
245.946	64.17
246.163	-3.41
246.38	2.73
246.597	-7.51
246.814	23.21
247.031	-71
247.248	19.11
247.464	109.22
247.681	15.02
247.898	-21.85
248.115	41.64
248.332	-17.75
248.549	82.6
248.766	72.36
248.983	12.97
249.2	10.92
249.417	6.83
249.633	31.4
249.85	-32.08
250.067	-44.37
250.284	31.4
250.501	-34.13
250.717	15.02
250.934	-75.09
251.151	49.83
251.368	23.21
251.585	55.98
251.801	19.11
252.018	-50.52
252.235	-21.85
252.451	-23.89
252.668	15.02
252.885	-25.94
253.102	88.75
253.318	-50.52
253.535	-46.42
253.752	31.4
253.968	47.79
254.185	39.59
254.401	-27.99
254.618	15.02
254.835	47.79
255.051	27.31
255.268	0.68
255.484	6.83
255.701	10.92
255.917	66.22
256.134	6.83
256.351	47.79
256.567	-36.18
256.784	35.5
257	-7.51
257.217	55.98
257.433	31.4
257.65	31.4
257.866	2.73
258.082	-66.9
258.299	-9.56
258.515	10.92
258.732	-56.66
258.948	76.46
259.165	-40.28
259.381	15.02
259.597	6.83
259.814	47.79
260.03	-30.04
260.246	-9.56
260.463	35.5
260.679	23.21
260.895	-5.46
261.112	19.11
261.328	31.4
261.544	-42.32
261.761	27.31
261.977	4.78
262.193	31.4
262.409	35.5
262.626	-17.75
262.842	2.73
263.058	-48.47
263.274	80.55
263.49	-73.04
263.707	72.36
263.923	35.5
264.139	-62.8
264.355	49.83
264.571	66.22
264.787	-7.51
265.004	23.21
265.22	-11.61
265.436	-48.47
265.652	4.78
265.868	62.12
266.084	-25.94
266.3	25.26
266.516	-15.7
266.732	27.31
266.948	23.21
267.164	64.17
267.38	111.27
267.596	21.16
267.812	33.45
268.028	27.31
268.244	-105.81
268.46	23.21
268.676	-21.85
268.892	-17.75
269.108	21.16
269.324	27.31
269.54	6.83
269.756	49.83
269.972	17.07
270.188	6.83
270.403	2.73
270.619	47.79
270.835	21.16
271.051	55.98
271.267	-27.99
271.483	-21.85
271.698	72.36
271.914	39.59
272.13	4.78
272.346	94.89
272.562	-79.19
272.777	-3.41
272.993	-21.85
273.209	-15.7
273.425	84.65
273.64	2.73
273.856	107.18
274.072	-34.13
274.287	-13.65
274.503	21.16
274.719	17.07
274.934	33.45
275.15	-73.04
275.366	-30.04
275.581	8.87
275.797	55.98
276.012	-21.85
276.228	33.45
276.444	17.07
276.659	84.65
276.875	17.07
277.09	-7.51
277.306	55.98
277.521	39.59
277.737	23.21
277.952	35.5
278.168	43.69
278.383	6.83
278.599	-25.94
278.814	96.94
279.03	-27.99
279.245	78.51
279.461	-13.65
279.676	27.31
279.892	-17.75
280.107	72.36
280.322	2.73
280.538	72.36
280.753	6.83
280.969	72.36
281.184	23.21
281.399	-75.09
281.615	27.31
281.83	6.83
282.045	23.21
282.26	29.35
282.476	23.21
282.691	31.4
282.906	-66.9
283.122	66.22
283.337	58.03
283.552	55.98
283.767	-54.61
283.983	-15.7
284.198	8.87
284.413	29.35
284.628	-38.23
284.843	-42.32
285.058	33.45
285.274	27.31
285.489	-36.18
285.704	49.83
285.919	17.07
286.134	6.83
286.349	4.78
286.564	-15.7
286.779	74.41
286.995	-85.33
287.21	-40.28
287.425	80.55
287.64	-21.85
287.855	2.73
288.07	19.11
288.285	55.98
288.5	31.4
288.715	25.26
288.93	15.02
289.145	-40.28
289.36	37.55
289.575	25.26
289.79	33.45
290.004	-15.7
290.219	23.21
290.434	35.5
290.649	17.07
290.864	0.68
291.079	12.97
291.294	0.68
291.509	17.07
291.724	17.07
291.938	-40.28
292.153	-1.37
292.368	-1.37
292.583	-17.75
292.798	-7.51
293.012	0.68
293.227	43.69
293.442	-1.37
293.657	-7.51
293.871	96.94
294.086	6.83
294.301	141.99
294.516	-30.04
294.73	27.31
294.945	-36.18
295.16	-5.46
295.374	15.02
295.589	-7.51
295.804	53.93
296.018	-1.37
296.233	51.88
296.447	31.4
296.662	37.55
296.877	15.02
297.091	6.83
297.306	-17.75
297.52	15.02
297.735	68.27
297.949	68.27
298.164	55.98
298.378	29.35
298.593	17.07
298.807	-30.04
299.022	8.87
299.236	49.83
299.451	80.55
299.665	6.83
299.88	27.31
300.094	53.93
300.309	43.69
300.523	76.46
300.737	15.02
300.952	55.98
301.166	6.83
301.381	-1.37
301.595	15.02
301.809	-17.75
302.024	10.92
302.238	-19.8
302.452	6.83
302.667	-21.85
302.881	90.79
303.095	-25.94
303.309	2.73
303.524	2.73
303.738	25.26
303.952	10.92
304.166	70.31
304.381	-71
304.595	39.59
304.809	-17.75
305.023	58.03
305.237	-21.85
305.452	49.83
305.666	6.83
305.88	86.7
306.094	-7.51
306.308	60.07
306.522	25.26
306.736	47.79
306.95	6.83
307.164	15.02
307.379	12.97
307.593	-1.37
307.807	64.17
308.021	41.64
308.235	64.17
308.449	-25.94
308.663	19.11
308.877	98.99
309.091	70.31
309.305	74.41
309.519	-36.18
309.733	53.93
309.947	12.97
310.161	62.12
310.374	25.26
310.588	86.7
310.802	31.4
311.016	-7.51
311.23	-15.7
311.444	8.87
311.658	-25.94
311.872	19.11
312.085	-11.61
312.299	19.11
312.513	31.4
312.727	58.03
312.941	17.07
313.154	55.98
313.368	-7.51
313.582	23.21
313.796	43.69
314.009	33.45
314.223	72.36
314.437	-58.71
314.651	6.83
314.864	6.83
315.078	-40.28
315.292	27.31
315.505	72.36
315.719	58.03
315.933	19.11
316.146	17.07
316.36	31.4
316.573	45.74
316.787	-36.18
317.001	15.02
317.214	-9.56
317.428	-27.99
317.641	8.87
317.855	39.59
318.068	10.92
318.282	-3.41
318.495	51.88
318.709	74.41
318.922	17.07
319.136	96.94
319.349	55.98
319.563	-5.46
319.776	6.83
319.99	-50.52
320.203	88.75
320.417	4.78
320.63	55.98
320.843	41.64
321.057	39.59
321.27	31.4
321.483	64.17
321.697	76.46
321.91	-54.61
322.124	39.59
322.337	-7.51
322.55	0.68
322.763	17.07
322.977	6.83
323.19	39.59
323.403	49.83
323.617	72.36
323.83	21.16
324.043	-30.04
324.256	35.5
324.469	-7.51
324.683	19.11
324.896	27.31
325.109	21.16
325.322	21.16
325.535	64.17
325.748	47.79
325.962	64.17
326.175	-13.65
326.388	121.51
326.601	49.83
326.814	-25.94
327.027	74.41
327.24	23.21
327.453	15.02
327.666	41.64
327.879	6.83
328.092	19.11
328.305	55.98
328.518	-21.85
328.731	-7.51
328.944	31.4
329.157	35.5
329.37	31.4
329.583	119.46
329.796	96.94
330.009	-36.18
330.222	6.83
330.435	49.83
330.648	31.4
330.861	-30.04
331.073	49.83
331.286	35.5
331.499	37.55
331.712	-21.85
331.925	60.07
332.138	68.27
332.35	74.41
332.563	-42.32
332.776	98.99
332.989	-52.56
333.202	29.35
333.414	33.45
333.627	0.68
333.84	19.11
334.053	27.31
334.265	-7.51
334.478	66.22
334.691	55.98
334.903	72.36
335.116	17.07
335.329	35.5
335.541	2.73
335.754	80.55
335.966	25.26
336.179	72.36
336.392	60.07
336.604	25.26
336.817	55.98
337.029	25.26
337.242	43.69
337.454	43.69
337.667	19.11
337.88	47.79
338.092	31.4
338.305	92.84
338.517	-17.75
338.729	43.69
338.942	31.4
339.154	39.59
339.367	47.79
339.579	-71
339.792	-42.32
340.004	58.03
340.217	66.22
340.429	60.07
340.641	-17.75
340.854	-1.37
341.066	35.5
341.278	66.22
341.491	60.07
341.703	33.45
341.915	12.97
342.128	55.98
342.34	39.59
342.552	-62.8
342.764	17.07
342.977	17.07
343.189	6.83
343.401	31.4
343.613	15.02
343.826	88.75
344.038	-40.28
344.25	33.45
344.462	33.45
344.674	76.46
344.886	64.17
345.099	-1.37
345.311	-34.13
345.523	10.92
345.735	-9.56
345.947	80.55
346.159	-50.52
346.371	19.11
346.583	39.59
346.795	43.69
347.007	49.83
347.219	101.03
347.431	-5.46
347.643	55.98
347.855	-11.61
348.067	41.64
348.279	-32.08
348.491	49.83
348.703	66.22
348.915	47.79
349.127	35.5
349.339	49.83
349.551	43.69
349.763	55.98
349.975	-9.56
350.187	146.09
350.399	-5.46
350.61	62.12
350.822	35.5
351.034	10.92
351.246	-9.56
351.458	43.69
351.669	15.02
351.881	15.02
352.093	113.32
352.305	-15.7
352.517	8.87
352.728	113.32
352.94	23.21
353.152	94.89
353.363	-25.94
353.575	-11.61
353.787	88.75
353.999	15.02
354.21	105.13
354.422	15.02
354.633	74.41
354.845	64.17
355.057	82.6
355.268	6.83
355.48	64.17
355.692	-62.8
355.903	-15.7
356.115	19.11
356.326	-21.85
356.538	125.61
356.749	15.02
356.961	15.02
357.172	25.26
357.384	-9.56
357.595	55.98
357.807	51.88
358.018	23.21
358.23	53.93
358.441	58.03
358.653	25.26
358.864	-1.37
359.075	-13.65
359.287	4.78
359.498	-25.94
359.709	-1.37
359.921	6.83
360.132	29.35
360.344	33.45
360.555	-81.24
360.766	72.36
360.977	8.87
361.189	76.46
361.4	53.93
361.611	31.4
361.823	88.75
362.034	58.03
362.245	2.73
362.456	84.65
362.667	82.6
362.879	15.02
363.09	-3.41
363.301	47.79
363.512	19.11
363.723	6.83
363.935	-54.61
364.146	23.21
364.357	-23.89
364.568	72.36
364.779	21.16
364.99	55.98
365.201	4.78
365.412	23.21
365.623	2.73
365.834	72.36
366.045	45.74
366.256	-17.75
366.467	33.45
366.678	66.22
366.889	90.79
367.1	-34.13
367.311	-13.65
367.522	51.88
367.733	33.45
367.944	43.69
368.155	68.27
368.366	6.83
368.577	84.65
368.788	-25.94
368.999	19.11
369.209	101.03
369.42	15.02
369.631	139.94
369.842	39.59
370.053	33.45
370.264	49.83
370.474	-11.61
370.685	60.07
370.896	-9.56
371.107	23.21
371.317	49.83
371.528	-32.08
371.739	47.79
371.95	27.31
372.16	60.07
372.371	25.26
372.582	-50.52
372.792	23.21
373.003	23.21
373.214	33.45
373.424	82.6
373.635	21.16
373.846	25.26
374.056	17.07
374.267	-19.8
374.477	43.69
374.688	51.88
374.898	92.84
375.109	82.6
375.319	-13.65
375.53	55.98
375.74	15.02
375.951	-9.56
376.161	25.26
376.372	33.45
376.582	-25.94
376.793	-19.8
377.003	-50.52
377.214	27.31
377.424	2.73
377.635	72.36
377.845	64.17
378.055	62.12
378.266	51.88
378.476	15.02
378.686	15.02
378.897	129.7
379.107	-1.37
379.317	94.89
379.528	-30.04
379.738	96.94
379.948	27.31
380.158	19.11
380.369	23.21
380.579	43.69
380.789	10.92
380.999	74.41
381.21	55.98
381.42	121.51
381.63	37.55
381.84	86.7
382.05	-3.41
382.261	84.65
382.471	2.73
382.681	-15.7
382.891	82.6
383.101	-1.37
383.311	37.55
383.521	103.08
383.731	17.07
383.941	41.64
384.151	0.68
384.361	64.17
384.571	6.83
384.781	80.55
384.991	49.83
385.201	180.9
385.411	96.94
385.621	-7.51
385.831	72.36
386.041	35.5
386.251	33.45
386.461	111.27
386.671	2.73
386.881	117.42
387.091	64.17
387.301	74.41
387.511	23.21
387.72	47.79
387.93	51.88
388.14	23.21
388.35	31.4
388.56	35.5
388.769	92.84
388.979	125.61
389.189	4.78
389.399	45.74
389.609	58.03
389.818	-1.37
390.028	-58.71
390.238	51.88
390.447	33.45
390.657	111.27
390.867	49.83
391.076	72.36
391.286	117.42
391.496	47.79
391.705	31.4
391.915	49.83
392.125	101.03
392.334	113.32
392.544	72.36
392.753	60.07
392.963	64.17
393.172	101.03
393.382	41.64
393.591	72.36
393.801	47.79
394.01	131.75
394.22	88.75
394.429	35.5
394.639	109.22
394.848	74.41
395.058	72.36
395.267	17.07
395.477	113.32
395.686	80.55
395.895	158.38
396.105	82.6
396.314	66.22
396.524	41.64
396.733	49.83
396.942	127.66
397.152	156.33
397.361	115.37
397.57	105.13
397.78	119.46
397.989	49.83
398.198	168.62
398.407	49.83
398.617	119.46
398.826	43.69
399.035	72.36
399.244	121.51
399.453	84.65
399.663	111.27
399.872	137.9
400.081	111.27
400.29	113.32
400.499	41.64
400.708	133.8
400.917	76.46
401.127	47.79
401.336	72.36
401.545	88.75
401.754	113.32
401.963	178.86
402.172	135.85
402.381	129.7
402.59	154.28
402.799	103.08
403.008	113.32
403.217	117.42
403.426	98.99
403.635	123.56
403.844	129.7
404.053	135.85
404.262	117.42
404.471	221.86
404.68	156.33
404.888	146.09
405.097	137.9
405.306	232.1
405.515	205.48
405.724	96.94
405.933	180.9
406.142	197.29
406.35	246.44
406.559	195.24
406.768	178.86
406.977	240.29
407.185	207.53
407.394	221.86
407.603	162.47
407.812	195.24
408.02	230.06
408.229	228.01
408.438	289.45
408.646	174.76
408.855	273.06
409.064	314.02
409.272	234.15
409.481	383.65
409.69	324.26
409.898	291.49
410.107	344.74
410.315	328.36
410.524	369.32
410.733	416.42
410.941	377.51
411.15	410.28
411.358	379.56
411.567	459.43
411.775	557.73
411.984	467.62
412.192	498.34
412.401	506.53
412.609	543.39
412.818	580.26
413.026	580.26
413.234	656.03
413.443	629.41
413.651	563.87
413.86	596.64
414.068	721.57
414.276	705.18
414.485	703.14
414.693	768.67
414.901	817.82
415.11	809.63
415.318	813.73
415.526	924.32
415.734	856.73
415.943	936.6
416.151	903.84
416.359	918.17
416.567	965.28
416.776	1032.86
416.984	1131.16
417.192	1184.41
417.4	1100.44
417.608	1213.08
417.817	1202.84
418.025	1231.51
418.233	1383.06
418.441	1391.25
418.649	1442.45
418.857	1467.03
419.065	1467.03
419.273	1589.91
419.481	1653.39
419.689	1768.08
419.897	1792.66
420.105	1827.47
420.313	1942.16
420.521	1923.73
420.729	2007.69
420.937	2036.36
421.145	2101.9
421.353	2079.37
421.561	2185.87
421.769	2368.13
421.977	2462.34
422.185	2329.22
422.393	2611.84
422.601	2744.96
422.809	2654.85
423.017	2683.52
423.224	2894.46
423.432	2882.17
423.64	2990.72
423.848	3314.3
424.056	3095.16
424.263	3443.32
424.471	3283.58
424.679	3424.89
424.887	3580.53
425.094	3748.47
425.302	3654.26
425.51	3863.15
425.718	3920.49
425.925	3971.69
426.133	4336.23
426.341	4438.63
426.548	4760.16
426.756	4731.49
426.964	4678.24
427.171	5030.49
427.379	4969.05
427.586	5257.82
427.794	5323.35
428.001	5536.34
428.209	5853.78
428.417	5784.15
428.624	6183.5
428.832	5956.18
429.039	5890.64
429.247	6124.11
429.454	6765.12
429.662	7232.06
429.869	6664.77
430.076	7084.61
430.284	6961.73
430.491	7305.79
430.699	7531.06
430.906	7754.29
431.114	7604.79
431.321	8094.26
431.528	8311.34
431.736	8626.73
431.943	9058.85
432.15	8854.05
432.358	8858.15
432.565	9509.4
432.772	9337.37
432.979	9767.45
433.187	10000.91
433.394	10050.07
433.601	10607.11
433.808	10717.7
434.016	10641.93
434.223	11266.56
434.43	11837.94
434.637	11678.2
434.844	12337.65
435.052	12505.58
435.259	12616.17
435.466	12530.16
435.673	12573.16
435.88	13435.36
436.087	13963.73
436.294	14201.3
436.501	13793.75
436.708	13990.36
436.915	14455.25
437.122	15063.49
437.329	14993.86
437.537	15456.7
437.743	15507.9
437.95	15552.96
438.157	16458.16
438.364	16892.33
438.571	16853.42
438.778	16761.26
438.985	18778.51
439.192	17709.47
439.399	18258.32
439.606	17987.99
439.813	19048.84
440.02	19929.47
440.227	19788.16
440.433	19669.37
440.64	20310.39
440.847	19915.13
441.054	20781.42
441.261	22016.35
441.467	21559.65
441.674	22255.96
441.881	23193.93
442.088	22874.45
442.294	22708.56
442.501	23195.98
442.708	23779.65
442.914	24570.16
443.121	25678.11
443.328	24998.19
443.534	26620.18
443.741	25792.8
443.948	25436.45
444.154	27334.92
444.361	27316.49
444.568	27787.52
444.774	27400.46
444.981	27822.34
445.187	28686.58
445.394	29677.8
445.6	29204.72
445.807	32192.7
446.013	30591.19
446.22	31322.32
446.426	32671.93
446.633	33054.9
446.839	33771.69
447.046	32454.84
447.252	34447.52
447.459	34283.68
447.665	34085.03
447.871	35358.86
448.078	37156.98
448.284	35109.01
448.491	36247.68
448.697	37505.13
448.903	38326.37
449.11	38482.02
449.316	37929.06
449.522	38287.46
449.728	39608.4
449.935	39428.18
450.141	39559.25
450.347	40917.05
450.553	39315.54
450.76	39491.66
450.966	41523.25
451.172	40820.8
451.378	41834.54
451.584	41279.54
451.791	42111.02
451.997	41316.4
452.203	42491.94
452.409	42201.13
452.615	42309.67
452.821	40788.03
453.027	40179.78
453.233	42293.29
453.44	40927.29
453.646	41015.35
453.852	41304.12
454.058	42344.48
454.264	40685.63
454.47	41441.33
454.676	40699.97
454.882	42237.99
455.088	38529.12
455.294	38951
455.5	39385.17
455.705	39872.59
455.911	38223.97
456.117	37560.43
456.323	37382.26
456.529	35143.83
456.735	36882.55
456.941	35639.43
457.147	35508.36
457.352	34271.39
457.558	33992.87
457.764	34146.47
457.97	33593.51
458.176	32602.3
458.381	32829.62
458.587	30931.15
458.793	30757.08
458.999	29497.58
459.204	31482.06
459.41	30902.48
459.616	28500.22
459.821	28930.29
460.027	28612.85
460.233	27955.46
460.438	26523.93
460.644	27205.9
460.85	25405.73
461.055	25311.53
461.261	25344.3
461.466	23394.63
461.672	22837.58
461.878	24152.38
462.083	23058.76
462.289	21897.56
462.494	22321.49
462.7	21317.99
462.905	20707.69
463.111	21193.06
463.316	21100.9
463.522	20744.56
463.727	20740.46
463.932	20961.64
464.138	20506.99
464.343	20844.91
464.549	20085.11
464.754	20683.12
464.959	20449.65
465.165	20437.36
465.37	19704.19
465.575	19161.48
465.781	19739.01
465.986	19829.12
466.191	19024.26
466.397	18626.96
466.602	17676.7
466.807	18493.84
467.012	18651.53
