Data from USB4F104151__83__14-17-44-486.txt Node

Date: Thu Mar 13 14:17:44 EDT 2025
User: louis
Spectrometer: USB4F10415
Trigger mode: 4
Integration Time (sec): 2.000000E-2
Scans to average: 1
Electric dark correction enabled: true
Nonlinearity correction enabled: false
Boxcar width: 0
XAxis mode: Wavelengths
Number of Pixels in Spectrum: 3648
>>>>>Begin Spectral Data<<<<<
178.204	-133.46
178.424	-133.46
178.644	-133.46
178.864	-137.56
179.084	-133.46
179.304	1.71
179.524	-72.02
179.744	28.33
179.964	-18.77
180.184	9.9
180.404	-35.16
180.624	20.14
180.844	1.71
181.064	11.95
181.283	32.43
181.503	34.47
181.723	-14.68
181.943	18.09
182.163	-14.68
182.383	1.71
182.602	59.05
182.822	59.05
183.042	32.43
183.262	-10.58
183.482	-6.49
183.701	122.54
183.921	-10.58
184.141	1.71
184.361	34.47
184.58	-4.44
184.8	-2.39
185.02	34.47
185.239	42.67
185.459	69.29
185.679	28.33
185.898	57
186.118	26.28
186.338	-35.16
186.557	-4.44
186.777	75.43
186.997	-12.63
187.216	13.99
187.436	-6.49
187.655	50.86
187.875	91.82
188.095	67.24
188.314	-18.77
188.534	30.38
188.753	-10.58
188.973	36.52
189.192	24.23
189.412	34.47
189.631	-22.87
189.851	13.99
190.07	38.57
190.29	-2.39
190.509	-55.64
190.729	46.76
190.948	16.04
191.168	34.47
191.387	69.29
191.607	28.33
191.826	-14.68
192.045	-14.68
192.265	34.47
192.484	85.67
192.704	26.28
192.923	22.19
193.142	124.58
193.362	67.24
193.581	50.86
193.8	9.9
194.02	61.1
194.239	52.91
194.458	79.53
194.678	40.62
194.897	-31.06
195.116	-61.78
195.335	34.47
195.555	38.57
195.774	-6.49
195.993	-4.44
196.212	18.09
196.432	3.75
196.651	26.28
196.87	-20.82
197.089	42.67
197.308	24.23
197.528	18.09
197.747	-20.82
197.966	73.39
198.185	59.05
198.404	-63.83
198.623	132.78
198.842	59.05
199.062	-6.49
199.281	93.87
199.5	-39.25
199.719	59.05
199.938	54.95
200.157	65.19
200.376	-18.77
200.595	59.05
200.814	50.86
201.033	20.14
201.252	65.19
201.471	-8.53
201.69	59.05
201.909	40.62
202.128	-37.2
202.347	28.33
202.566	-26.96
202.785	11.95
203.004	59.05
203.223	95.91
203.442	24.23
203.661	42.67
203.879	-18.77
204.098	42.67
204.317	-41.3
204.536	36.52
204.755	-2.39
204.974	100.01
205.193	22.19
205.411	44.71
205.63	28.33
205.849	-22.87
206.068	5.8
206.287	42.67
206.505	85.67
206.724	40.62
206.943	54.95
207.162	116.39
207.381	36.52
207.599	-35.16
207.818	52.91
208.037	34.47
208.255	44.71
208.474	77.48
208.693	36.52
208.911	9.9
209.13	61.1
209.349	-76.12
209.567	-24.92
209.786	77.48
210.005	52.91
210.223	59.05
210.442	26.28
210.661	44.71
210.879	11.95
211.098	1.71
211.316	77.48
211.535	44.71
211.753	67.24
211.972	42.67
212.191	38.57
212.409	22.19
212.628	44.71
212.846	11.95
213.065	34.47
213.283	38.57
213.502	65.19
213.72	63.15
213.938	61.1
214.157	18.09
214.375	65.19
214.594	13.99
214.812	-63.83
215.031	42.67
215.249	34.47
215.467	11.95
215.686	-10.58
215.904	75.43
216.122	13.99
216.341	57
216.559	30.38
216.778	147.11
216.996	69.29
217.214	9.9
217.432	-26.96
217.651	16.04
217.869	9.9
218.087	22.19
218.306	52.91
218.524	-10.58
218.742	75.43
218.96	26.28
219.179	69.29
219.397	38.57
219.615	63.15
219.833	34.47
220.051	7.85
220.27	87.72
220.488	75.43
220.706	59.05
220.924	-55.64
221.142	38.57
221.36	40.62
221.578	-0.34
221.796	9.9
222.015	42.67
222.233	54.95
222.451	87.72
222.669	-2.39
222.887	7.85
223.105	18.09
223.323	-37.2
223.541	44.71
223.759	61.1
223.977	42.67
224.195	71.34
224.413	11.95
224.631	100.01
224.849	59.05
225.067	11.95
225.285	-76.12
225.503	71.34
225.721	-6.49
225.939	42.67
226.157	22.19
226.375	83.63
226.592	11.95
226.81	44.71
227.028	59.05
227.246	77.48
227.464	34.47
227.682	91.82
227.9	-14.68
228.117	48.81
228.335	50.86
228.553	11.95
228.771	34.47
228.989	36.52
229.206	30.38
229.424	-14.68
229.642	11.95
229.86	13.99
230.077	18.09
230.295	46.76
230.513	26.28
230.731	48.81
230.948	102.06
231.166	9.9
231.384	1.71
231.601	42.67
231.819	30.38
232.037	5.8
232.254	-37.2
232.472	36.52
232.689	-12.63
232.907	85.67
233.125	-6.49
233.342	44.71
233.56	-80.21
233.777	42.67
233.995	-31.06
234.213	9.9
234.43	18.09
234.648	-12.63
234.865	9.9
235.083	22.19
235.3	26.28
235.518	63.15
235.735	50.86
235.953	71.34
236.17	-35.16
236.388	-51.54
236.605	24.23
236.822	34.47
237.04	-20.82
237.257	48.81
237.475	-72.02
237.692	-29.01
237.909	83.63
238.127	-4.44
238.344	81.58
238.562	85.67
238.779	-14.68
238.996	38.57
239.214	26.28
239.431	-12.63
239.648	28.33
239.865	46.76
240.083	77.48
240.3	44.71
240.517	-96.6
240.735	32.43
240.952	3.75
241.169	36.52
241.386	-22.87
241.603	87.72
241.821	13.99
242.038	-31.06
242.255	1.71
242.472	18.09
242.689	104.11
242.907	112.3
243.124	-6.49
243.341	-12.63
243.558	-35.16
243.775	11.95
243.992	30.38
244.209	63.15
244.426	87.72
244.643	-4.44
244.86	-2.39
245.078	83.63
245.295	28.33
245.512	83.63
245.729	36.52
245.946	40.62
246.163	85.67
246.38	140.97
246.597	71.34
246.814	36.52
247.031	-29.01
247.248	65.19
247.464	22.19
247.681	54.95
247.898	7.85
248.115	-31.06
248.332	-8.53
248.549	36.52
248.766	9.9
248.983	91.82
249.2	-24.92
249.417	67.24
249.633	-20.82
249.85	110.25
250.067	-10.58
250.284	9.9
250.501	3.75
250.717	18.09
250.934	52.91
251.151	59.05
251.368	104.11
251.585	61.1
251.801	50.86
252.018	-4.44
252.235	-4.44
252.451	104.11
252.668	-41.3
252.885	75.43
253.102	100.01
253.318	-14.68
253.535	9.9
253.752	22.19
253.968	-2.39
254.185	34.47
254.401	5.8
254.618	50.86
254.835	-12.63
255.051	32.43
255.268	106.15
255.484	77.48
255.701	1.71
255.917	1.71
256.134	20.14
256.351	38.57
256.567	-39.25
256.784	52.91
257	-22.87
257.217	91.82
257.433	9.9
257.65	75.43
257.866	52.91
258.082	36.52
258.299	-0.34
258.515	13.99
258.732	91.82
258.948	81.58
259.165	83.63
259.381	-31.06
259.597	71.34
259.814	26.28
260.03	38.57
260.246	34.47
260.463	46.76
260.679	18.09
260.895	-31.06
261.112	95.91
261.328	32.43
261.544	-4.44
261.761	140.97
261.977	-0.34
262.193	-31.06
262.409	11.95
262.626	186.02
262.842	-12.63
263.058	26.28
263.274	54.95
263.49	95.91
263.707	89.77
263.923	9.9
264.139	-35.16
264.355	79.53
264.571	18.09
264.787	42.67
265.004	26.28
265.22	22.19
265.436	-14.68
265.652	-29.01
265.868	11.95
266.084	-0.34
266.3	-41.3
266.516	-29.01
266.732	1.71
266.948	69.29
267.164	100.01
267.38	18.09
267.596	71.34
267.812	67.24
268.028	93.87
268.244	1.71
268.46	11.95
268.676	157.35
268.892	22.19
269.108	36.52
269.324	18.09
269.54	-31.06
269.756	59.05
269.972	-26.96
270.188	30.38
270.403	-47.44
270.619	9.9
270.835	9.9
271.051	18.09
271.267	-39.25
271.483	34.47
271.698	3.75
271.914	7.85
272.13	13.99
272.346	34.47
272.562	-18.77
272.777	87.72
272.993	42.67
273.209	26.28
273.425	34.47
273.64	9.9
273.856	102.06
274.072	1.71
274.287	50.86
274.503	46.76
274.719	77.48
274.934	-18.77
275.15	-63.83
275.366	26.28
275.581	30.38
275.797	-0.34
276.012	50.86
276.228	-31.06
276.444	50.86
276.659	124.58
276.875	-31.06
277.09	26.28
277.306	30.38
277.521	59.05
277.737	13.99
277.952	34.47
278.168	-18.77
278.383	77.48
278.599	-4.44
278.814	46.76
279.03	38.57
279.245	95.91
279.461	67.24
279.676	-0.34
279.892	-14.68
280.107	-43.35
280.322	-82.26
280.538	26.28
280.753	20.14
280.969	26.28
281.184	54.95
281.399	34.47
281.615	59.05
281.83	81.58
282.045	13.99
282.26	-20.82
282.476	-14.68
282.691	9.9
282.906	46.76
283.122	20.14
283.337	36.52
283.552	83.63
283.767	79.53
283.983	-14.68
284.198	-39.25
284.413	-4.44
284.628	1.71
284.843	83.63
285.058	50.86
285.274	18.09
285.489	67.24
285.704	26.28
285.919	16.04
286.134	5.8
286.349	1.71
286.564	13.99
286.779	22.19
286.995	67.24
287.21	9.9
287.425	44.71
287.64	85.67
287.855	100.01
288.07	20.14
288.285	87.72
288.5	22.19
288.715	20.14
288.93	26.28
289.145	-69.97
289.36	1.71
289.575	20.14
289.79	63.15
290.004	38.57
290.219	75.43
290.434	-2.39
290.649	-0.34
290.864	20.14
291.079	28.33
291.294	59.05
291.509	11.95
291.724	-4.44
291.938	20.14
292.153	95.91
292.368	-6.49
292.583	38.57
292.798	-2.39
293.012	3.75
293.227	67.24
293.442	38.57
293.657	59.05
293.871	83.63
294.086	28.33
294.301	77.48
294.516	69.29
294.73	22.19
294.945	-4.44
295.16	42.67
295.374	-8.53
295.589	140.97
295.804	-6.49
296.018	26.28
296.233	28.33
296.447	67.24
296.662	3.75
296.877	61.1
297.091	30.38
297.306	1.71
297.52	26.28
297.735	-18.77
297.949	32.43
298.164	61.1
298.378	13.99
298.593	46.76
298.807	85.67
299.022	44.71
299.236	87.72
299.451	30.38
299.665	-16.73
299.88	59.05
300.094	-2.39
300.309	38.57
300.523	-82.26
300.737	75.43
300.952	104.11
301.166	91.82
301.381	-51.54
301.595	34.47
301.809	-4.44
302.024	38.57
302.238	-22.87
302.452	77.48
302.667	28.33
302.881	42.67
303.095	75.43
303.309	140.97
303.524	46.76
303.738	85.67
303.952	42.67
304.166	9.9
304.381	3.75
304.595	59.05
304.809	11.95
305.023	26.28
305.237	-37.2
305.452	13.99
305.666	61.1
305.88	20.14
306.094	11.95
306.308	65.19
306.522	-10.58
306.736	30.38
306.95	69.29
307.164	124.58
307.379	91.82
307.593	46.76
307.807	108.2
308.021	11.95
308.235	73.39
308.449	36.52
308.663	-31.06
308.877	18.09
309.091	-26.96
309.305	40.62
309.519	36.52
309.733	34.47
309.947	1.71
310.161	116.39
310.374	34.47
310.588	95.91
310.802	-35.16
311.016	-14.68
311.23	46.76
311.444	69.29
311.658	-12.63
311.872	-4.44
312.085	112.3
312.299	28.33
312.513	57
312.727	32.43
312.941	-47.44
313.154	20.14
313.368	42.67
313.582	18.09
313.796	100.01
314.009	-6.49
314.223	63.15
314.437	59.05
314.651	28.33
314.864	-26.96
315.078	28.33
315.292	11.95
315.505	79.53
315.719	77.48
315.933	63.15
316.146	26.28
316.36	42.67
316.573	77.48
316.787	69.29
317.001	67.24
317.214	-4.44
317.428	13.99
317.641	-39.25
317.855	28.33
318.068	95.91
318.282	50.86
318.495	69.29
318.709	28.33
318.922	-24.92
319.136	116.39
319.349	87.72
319.563	-20.82
319.776	75.43
319.99	42.67
320.203	38.57
320.417	1.71
320.63	87.72
320.843	20.14
321.057	46.76
321.27	34.47
321.483	83.63
321.697	59.05
321.91	50.86
322.124	-24.92
322.337	-16.73
322.55	44.71
322.763	1.71
322.977	52.91
323.19	3.75
323.403	85.67
323.617	63.15
323.83	65.19
324.043	42.67
324.256	20.14
324.469	-26.96
324.683	28.33
324.896	104.11
325.109	-18.77
325.322	3.75
325.535	11.95
325.748	9.9
325.962	-14.68
326.175	108.2
326.388	24.23
326.601	79.53
326.814	42.67
327.027	-35.16
327.24	42.67
327.453	85.67
327.666	20.14
327.879	85.67
328.092	77.48
328.305	36.52
328.518	-16.73
328.731	28.33
328.944	3.75
329.157	65.19
329.37	26.28
329.583	65.19
329.796	91.82
330.009	1.71
330.222	79.53
330.435	46.76
330.648	71.34
330.861	38.57
331.073	22.19
331.286	77.48
331.499	83.63
331.712	48.81
331.925	-39.25
332.138	22.19
332.35	34.47
332.563	-18.77
332.776	9.9
332.989	18.09
333.202	63.15
333.414	38.57
333.627	28.33
333.84	36.52
334.053	9.9
334.265	-4.44
334.478	28.33
334.691	38.57
334.903	18.09
335.116	75.43
335.329	69.29
335.541	3.75
335.754	38.57
335.966	36.52
336.179	28.33
336.392	-0.34
336.604	36.52
336.817	100.01
337.029	-51.54
337.242	38.57
337.454	9.9
337.667	69.29
337.88	100.01
338.092	28.33
338.305	3.75
338.517	24.23
338.729	42.67
338.942	1.71
339.154	20.14
339.367	-12.63
339.579	57
339.792	-10.58
340.004	52.91
340.217	13.99
340.429	67.24
340.641	11.95
340.854	38.57
341.066	16.04
341.278	110.25
341.491	108.2
341.703	-2.39
341.915	-8.53
342.128	44.71
342.34	5.8
342.552	85.67
342.764	18.09
342.977	100.01
343.189	18.09
343.401	26.28
343.613	-0.34
343.826	28.33
344.038	22.19
344.25	36.52
344.462	-16.73
344.674	69.29
344.886	38.57
345.099	69.29
345.311	34.47
345.523	1.71
345.735	-76.12
345.947	-4.44
346.159	34.47
346.371	81.58
346.583	42.67
346.795	57
347.007	-0.34
347.219	42.67
347.431	83.63
347.643	5.8
347.855	-43.35
348.067	102.06
348.279	28.33
348.491	30.38
348.703	67.24
348.915	36.52
349.127	-29.01
349.339	13.99
349.551	-6.49
349.763	20.14
349.975	28.33
350.187	13.99
350.399	67.24
350.61	83.63
350.822	26.28
351.034	-61.78
351.246	24.23
351.458	57
351.669	59.05
351.881	18.09
352.093	108.2
352.305	1.71
352.517	18.09
352.728	100.01
352.94	83.63
353.152	75.43
353.363	-22.87
353.575	67.24
353.787	112.3
353.999	34.47
354.21	54.95
354.422	40.62
354.633	67.24
354.845	26.28
355.057	67.24
355.268	71.34
355.48	79.53
355.692	20.14
355.903	-14.68
356.115	32.43
356.326	-12.63
356.538	54.95
356.749	61.1
356.961	-6.49
357.172	67.24
357.384	40.62
357.595	57
357.807	81.58
358.018	-22.87
358.23	46.76
358.441	81.58
358.653	87.72
358.864	22.19
359.075	34.47
359.287	79.53
359.498	-6.49
359.709	59.05
359.921	40.62
360.132	69.29
360.344	100.01
360.555	-6.49
360.766	75.43
360.977	83.63
361.189	108.2
361.4	52.91
361.611	83.63
361.823	11.95
362.034	67.24
362.245	7.85
362.456	42.67
362.667	87.72
362.879	1.71
363.09	-10.58
363.301	50.86
363.512	5.8
363.723	1.71
363.935	77.48
364.146	54.95
364.357	18.09
364.568	95.91
364.779	20.14
364.99	106.15
365.201	38.57
365.412	95.91
365.623	9.9
365.834	91.82
366.045	28.33
366.256	34.47
366.467	34.47
366.678	52.91
366.889	50.86
367.1	100.01
367.311	63.15
367.522	22.19
367.733	108.2
367.944	26.28
368.155	32.43
368.366	83.63
368.577	54.95
368.788	71.34
368.999	63.15
369.209	89.77
369.42	132.78
369.631	87.72
369.842	63.15
370.053	13.99
370.264	-53.59
370.474	52.91
370.685	52.91
370.896	61.1
371.107	67.24
371.317	52.91
371.528	18.09
371.739	75.43
371.95	71.34
372.16	52.91
372.371	5.8
372.582	102.06
372.792	67.24
373.003	40.62
373.214	-12.63
373.424	104.11
373.635	100.01
373.846	83.63
374.056	18.09
374.267	32.43
374.477	48.81
374.688	34.47
374.898	63.15
375.109	50.86
375.319	9.9
375.53	120.49
375.74	24.23
375.951	11.95
376.161	59.05
376.372	34.47
376.582	63.15
376.793	36.52
377.003	1.71
377.214	11.95
377.424	7.85
377.635	67.24
377.845	28.33
378.055	54.95
378.266	-14.68
378.476	44.71
378.686	-29.01
378.897	16.04
379.107	116.39
379.317	-29.01
379.528	87.72
379.738	44.71
379.948	50.86
380.158	100.01
380.369	-4.44
380.579	20.14
380.789	34.47
380.999	100.01
381.21	128.68
381.42	151.21
381.63	61.1
381.84	93.87
382.05	71.34
382.261	59.05
382.471	38.57
382.681	-4.44
382.891	116.39
383.101	93.87
383.311	46.76
383.521	85.67
383.731	134.82
383.941	81.58
384.151	87.72
384.361	5.8
384.571	151.21
384.781	75.43
384.991	75.43
385.201	40.62
385.411	-12.63
385.621	40.62
385.831	48.81
386.041	52.91
386.251	9.9
386.461	75.43
386.671	75.43
386.881	69.29
387.091	38.57
387.301	132.78
387.511	42.67
387.72	77.48
387.93	22.19
388.14	-20.82
388.35	112.3
388.56	13.99
388.769	91.82
388.979	122.54
389.189	-69.97
389.399	42.67
389.609	100.01
389.818	57
390.028	42.67
390.238	61.1
390.447	30.38
390.657	85.67
390.867	59.05
391.076	50.86
391.286	50.86
391.496	20.14
391.705	-4.44
391.915	83.63
392.125	42.67
392.334	26.28
392.544	69.29
392.753	116.39
392.963	65.19
393.172	124.58
393.382	59.05
393.591	89.77
393.801	26.28
394.01	128.68
394.22	63.15
394.429	9.9
394.639	91.82
394.848	75.43
395.058	38.57
395.267	100.01
395.477	38.57
395.686	83.63
395.895	67.24
396.105	100.01
396.314	38.57
396.524	108.2
396.733	104.11
396.942	159.4
397.152	63.15
397.361	102.06
397.57	136.87
397.78	75.43
397.989	54.95
398.198	151.21
398.407	83.63
398.617	83.63
398.826	116.39
399.035	77.48
399.244	-14.68
399.453	75.43
399.663	59.05
399.872	97.96
400.081	116.39
400.29	116.39
400.499	155.3
400.708	100.01
400.917	67.24
401.127	151.21
401.336	77.48
401.545	177.83
401.754	79.53
401.963	100.01
402.172	38.57
402.381	38.57
402.59	75.43
402.799	9.9
403.008	104.11
403.217	110.25
403.426	108.2
403.635	-0.34
403.844	30.38
404.053	91.82
404.262	104.11
404.471	194.22
404.68	104.11
404.888	130.73
405.097	61.1
405.306	114.34
405.515	181.93
405.724	120.49
405.933	159.4
406.142	157.35
406.35	249.51
406.559	243.37
406.768	204.46
406.977	216.74
407.185	91.82
407.394	165.54
407.603	132.78
407.812	243.37
408.02	220.84
408.229	177.83
408.438	165.54
408.646	128.68
408.855	151.21
409.064	245.41
409.272	288.42
409.481	212.65
409.69	280.23
409.898	353.96
410.107	259.75
410.315	345.77
410.524	276.13
410.733	296.61
410.941	282.28
411.15	278.18
411.358	339.62
411.567	390.82
411.775	415.4
411.984	380.58
412.192	345.77
412.401	411.3
412.609	444.07
412.818	419.49
413.026	458.4
413.234	466.6
413.443	478.88
413.651	478.88
413.86	505.51
414.068	571.04
414.276	577.19
414.485	511.65
414.693	566.95
414.901	624.29
415.11	650.91
415.318	624.29
415.526	644.77
415.734	622.24
415.943	702.11
416.151	673.44
416.359	773.79
416.567	773.79
416.776	734.88
416.984	849.57
417.192	841.37
417.4	759.46
417.608	839.33
417.817	888.48
418.025	927.39
418.233	984.73
418.441	896.67
418.649	1027.74
418.857	1156.76
419.065	1179.29
419.273	1173.14
419.481	1189.53
419.689	1216.15
419.897	1246.87
420.105	1255.06
420.313	1361.56
420.521	1431.19
420.729	1384.09
420.937	1517.2
421.145	1576.59
421.353	1631.89
421.561	1687.18
421.769	1670.8
421.977	1740.43
422.185	1697.42
422.393	1762.96
422.601	1955.47
422.809	2000.52
423.017	1910.41
423.224	1996.43
423.432	2129.55
423.64	2172.55
423.848	2363.01
424.056	2375.3
424.263	2438.79
424.471	2551.43
424.679	2500.23
424.887	2641.54
425.094	2825.86
425.302	2770.56
425.51	2664.07
425.718	2963.07
425.925	2825.86
426.133	2999.93
426.341	3270.26
426.548	3296.89
426.756	3346.04
426.964	3479.16
427.171	3737.2
427.379	3876.46
427.586	3749.49
427.794	3950.19
428.001	4048.49
428.209	4163.18
428.417	4109.93
428.624	4482.66
428.832	4410.98
429.039	4474.47
429.247	4370.02
429.454	4789.86
429.662	5076.57
429.869	4605.54
430.076	5049.95
430.284	4861.54
430.491	5250.65
430.699	5475.93
430.906	5555.8
431.114	5523.03
431.321	5742.16
431.528	5908.05
431.736	6256.2
431.943	6690.37
432.15	6532.68
432.358	6573.64
432.565	6927.94
432.772	6868.55
432.979	7204.41
433.187	7358.01
433.394	7388.73
433.601	7716.4
433.808	7759.41
434.016	7790.13
434.223	7798.32
434.43	8541.74
434.637	8386.09
434.844	8971.81
435.052	9160.22
435.259	9113.12
435.466	8984.1
435.673	8982.05
435.88	9459.23
436.087	10360.33
436.294	10036.75
436.501	10051.09
436.708	9874.96
436.915	10472.97
437.122	10946.05
437.329	10751.49
437.537	11431.42
437.743	11314.69
437.95	11271.68
438.157	11836.92
438.364	12142.07
438.571	12191.22
438.778	12484.08
438.985	13540.83
439.192	12948.97
439.399	13520.35
439.606	13159.91
439.813	13792.73
440.02	14464.46
440.227	14249.43
440.433	14151.12
440.64	14638.54
440.847	14616.01
441.054	14869.96
441.261	15562.17
441.467	15680.96
441.674	15865.27
441.881	16690.6
442.088	16715.18
442.294	16328.11
442.501	16641.45
442.708	17001.9
442.914	17730.97
443.121	18636.17
443.328	18091.41
443.534	19174.79
443.741	18531.73
443.948	18419.09
444.154	19854.72
444.361	19733.89
444.568	19727.74
444.774	19807.61
444.981	20118.9
445.187	20759.92
445.394	21458.28
445.6	21431.65
445.807	23373.13
446.013	22424.92
446.22	22453.59
446.426	23442.76
446.633	23960.89
446.839	24612.15
447.046	23565.64
447.252	24962.35
447.459	24671.54
447.665	24759.6
447.871	26012.96
448.078	27120.91
448.284	25660.71
448.491	26422.55
448.697	27698.44
448.903	28022.02
449.11	28058.88
449.316	27792.64
449.522	27884.8
449.728	28835.06
449.935	29017.33
450.141	28996.85
450.347	29371.63
450.553	28685.56
450.76	28992.75
450.966	30112.99
451.172	29940.96
451.378	30637.27
451.584	29887.71
451.791	30309.6
451.997	30579.93
452.203	30825.68
452.409	31505.61
452.615	30889.17
452.821	29852.9
453.027	29529.32
453.233	31212.75
453.44	29713.64
453.646	30360.8
453.852	30350.56
454.058	30786.77
454.264	29754.6
454.47	30530.78
454.676	29900
454.882	30575.83
455.088	27964.67
455.294	28613.88
455.5	29162.73
455.705	29082.86
455.911	28022.02
456.117	27331.85
456.323	27360.52
456.529	25881.89
456.735	27233.55
456.941	26168.6
457.147	26068.25
457.352	25064.75
457.558	24595.76
457.764	24888.62
457.97	24401.21
458.176	24057.15
458.381	23981.37
458.587	22990.16
458.793	22713.68
458.999	21542.24
459.204	23172.43
459.41	22117.72
459.616	21122.41
459.821	21101.93
460.027	21020.01
460.233	20667.76
460.438	19713.41
460.644	19561.86
460.85	18912.65
461.055	18308.5
461.261	18527.63
461.466	17092.01
461.672	16764.33
461.878	17843.61
462.083	16723.37
462.289	16229.81
462.494	16326.07
462.7	15353.28
462.905	15324.61
463.111	15566.27
463.316	15683
463.522	15435.2
463.727	15189.44
463.932	15416.77
464.138	14994.89
464.343	15117.76
464.549	14867.91
464.754	14923.21
464.959	15025.61
465.165	14880.2
465.37	14405.07
465.575	13819.35
465.781	14423.5
465.986	14443.98
466.191	14024.15
466.397	13639.13
466.602	13102.56
466.807	13796.82
467.012	13643.23
467.218	13749.72
467.423	13280.74
467.628	13479.39
