Data from USB4F104151__253__14-22-40-780.txt Node

Date: Thu Mar 13 14:22:40 EDT 2025
User: louis
Spectrometer: USB4F10415
Trigger mode: 4
Integration Time (sec): 2.000000E-2
Scans to average: 1
Electric dark correction enabled: true
Nonlinearity correction enabled: false
Boxcar width: 0
XAxis mode: Wavelengths
Number of Pixels in Spectrum: 3648
>>>>>Begin Spectral Data<<<<<
178.204	-97.28
178.424	-97.28
178.644	-97.28
178.864	-107.52
179.084	-95.23
179.304	-23.55
179.524	50.18
179.744	46.08
179.964	11.26
180.184	-46.08
180.404	-33.79
180.624	27.65
180.844	54.27
181.064	-72.7
181.283	-21.5
181.503	-60.42
181.723	68.61
181.943	-19.46
182.163	33.79
182.383	-1.02
182.602	64.51
182.822	60.42
183.042	21.5
183.262	-82.94
183.482	-31.74
183.701	1.02
183.921	11.26
184.141	1.02
184.361	1.02
184.58	25.6
184.8	97.28
185.02	17.41
185.239	60.42
185.459	41.98
185.679	52.22
185.898	17.41
186.118	19.46
186.338	107.52
186.557	78.85
186.777	-5.12
186.997	-3.07
187.216	91.13
187.436	19.46
187.655	-31.74
187.875	41.98
188.095	-11.26
188.314	44.03
188.534	80.89
188.753	19.46
188.973	52.22
189.192	-3.07
189.412	-17.41
189.631	-21.5
189.851	13.31
190.07	19.46
190.29	78.85
190.509	21.5
190.729	50.18
190.948	123.9
191.168	107.52
191.387	52.22
191.607	-31.74
191.826	-11.26
192.045	-23.55
192.265	13.31
192.484	-11.26
192.704	-23.55
192.923	-15.36
193.142	80.89
193.362	-52.22
193.581	54.27
193.8	60.42
194.02	82.94
194.239	25.6
194.458	35.84
194.678	-54.27
194.897	52.22
195.116	17.41
195.335	-1.02
195.555	23.55
195.774	-70.65
195.993	91.13
196.212	35.84
196.432	52.22
196.651	17.41
196.87	-60.42
197.089	37.89
197.308	29.7
197.528	35.84
197.747	33.79
197.966	52.22
198.185	58.37
198.404	5.12
198.623	19.46
198.842	52.22
199.062	33.79
199.281	-46.08
199.5	68.61
199.719	1.02
199.938	17.41
200.157	111.61
200.376	60.42
200.595	3.07
200.814	101.37
201.033	-29.7
201.252	-29.7
201.471	-5.12
201.69	44.03
201.909	27.65
202.128	115.71
202.347	9.22
202.566	37.89
202.785	-39.94
203.004	13.31
203.223	58.37
203.442	-7.17
203.661	-17.41
203.879	93.18
204.098	1.02
204.317	13.31
204.536	70.65
204.755	60.42
204.974	9.22
205.193	7.17
205.411	68.61
205.63	11.26
205.849	82.94
206.068	-56.32
206.287	1.02
206.505	19.46
206.724	54.27
206.943	-5.12
207.162	48.13
207.381	9.22
207.599	-41.98
207.818	70.65
208.037	-31.74
208.255	70.65
208.474	56.32
208.693	3.07
208.911	95.23
209.13	-23.55
209.349	33.79
209.567	11.26
209.786	39.94
210.005	-23.55
210.223	27.65
210.442	-48.13
210.661	11.26
210.879	64.51
211.098	-56.32
211.316	-29.7
211.535	-15.36
211.753	-23.55
211.972	50.18
212.191	76.8
212.409	29.7
212.628	25.6
212.846	-1.02
213.065	84.99
213.283	-15.36
213.502	-13.31
213.72	25.6
213.938	46.08
214.157	7.17
214.375	74.75
214.594	-52.22
214.812	21.5
215.031	46.08
215.249	41.98
215.467	50.18
215.686	-15.36
215.904	80.89
216.122	21.5
216.341	54.27
216.559	-7.17
216.778	-7.17
216.996	-15.36
217.214	13.31
217.432	70.65
217.651	-56.32
217.869	-23.55
218.087	11.26
218.306	33.79
218.524	33.79
218.742	29.7
218.96	52.22
219.179	84.99
219.397	101.37
219.615	76.8
219.833	9.22
220.051	15.36
220.27	130.05
220.488	19.46
220.706	60.42
220.924	-27.65
221.142	-33.79
221.36	-13.31
221.578	-50.18
221.796	-56.32
222.015	41.98
222.233	41.98
222.451	78.85
222.669	-11.26
222.887	11.26
223.105	3.07
223.323	78.85
223.541	1.02
223.759	44.03
223.977	7.17
224.195	48.13
224.413	84.99
224.631	-13.31
224.849	-3.07
225.067	60.42
225.285	101.37
225.503	60.42
225.721	17.41
225.939	35.84
226.157	5.12
226.375	33.79
226.592	3.07
226.81	76.8
227.028	21.5
227.246	13.31
227.464	-5.12
227.682	50.18
227.9	-39.94
228.117	19.46
228.335	3.07
228.553	19.46
228.771	-7.17
228.989	70.65
229.206	3.07
229.424	68.61
229.642	1.02
229.86	-3.07
230.077	41.98
230.295	15.36
230.513	54.27
230.731	44.03
230.948	48.13
231.166	105.47
231.384	19.46
231.601	9.22
231.819	95.23
232.037	-21.5
232.254	-33.79
232.472	-37.89
232.689	-25.6
232.907	-15.36
233.125	-52.22
233.342	-13.31
233.56	17.41
233.777	41.98
233.995	66.56
234.213	44.03
234.43	-39.94
234.648	41.98
234.865	-23.55
235.083	52.22
235.3	19.46
235.518	19.46
235.735	35.84
235.953	33.79
236.17	-39.94
236.388	11.26
236.605	-11.26
236.822	84.99
237.04	13.31
237.257	9.22
237.475	-52.22
237.692	-33.79
237.909	23.55
238.127	-31.74
238.344	27.65
238.562	5.12
238.779	-44.03
238.996	41.98
239.214	-3.07
239.431	103.42
239.648	3.07
239.865	-23.55
240.083	-27.65
240.3	50.18
240.517	46.08
240.735	41.98
240.952	70.65
241.169	125.95
241.386	-17.41
241.603	11.26
241.821	-11.26
242.038	74.75
242.255	-25.6
242.472	-31.74
242.689	58.37
242.907	-37.89
243.124	54.27
243.341	-5.12
243.558	-23.55
243.775	46.08
243.992	-23.55
244.209	1.02
244.426	101.37
244.643	76.8
244.86	-29.7
245.078	-1.02
245.295	50.18
245.512	41.98
245.729	-27.65
245.946	-15.36
246.163	13.31
246.38	35.84
246.597	-23.55
246.814	19.46
247.031	1.02
247.248	33.79
247.464	54.27
247.681	-3.07
247.898	-68.61
248.115	33.79
248.332	25.6
248.549	1.02
248.766	58.37
248.983	-13.31
249.2	-9.22
249.417	5.12
249.633	-31.74
249.85	41.98
250.067	25.6
250.284	-7.17
250.501	62.46
250.717	17.41
250.934	-7.17
251.151	-3.07
251.368	64.51
251.585	13.31
251.801	9.22
252.018	48.13
252.235	9.22
252.451	-35.84
252.668	-50.18
252.885	41.98
253.102	-39.94
253.318	19.46
253.535	70.65
253.752	21.5
253.968	-54.27
254.185	82.94
254.401	64.51
254.618	62.46
254.835	-37.89
255.051	23.55
255.268	89.09
255.484	41.98
255.701	50.18
255.917	25.6
256.134	-25.6
256.351	41.98
256.567	-80.89
256.784	-15.36
257	9.22
257.217	-46.08
257.433	13.31
257.65	-56.32
257.866	91.13
258.082	17.41
258.299	1.02
258.515	29.7
258.732	-27.65
258.948	29.7
259.165	33.79
259.381	11.26
259.597	-27.65
259.814	17.41
260.03	-19.46
260.246	3.07
260.463	78.85
260.679	66.56
260.895	54.27
261.112	29.7
261.328	1.02
261.544	-13.31
261.761	50.18
261.977	44.03
262.193	-7.17
262.409	33.79
262.626	-7.17
262.842	52.22
263.058	-3.07
263.274	93.18
263.49	80.89
263.707	58.37
263.923	87.04
264.139	39.94
264.355	-11.26
264.571	25.6
264.787	17.41
265.004	50.18
265.22	-1.02
265.436	76.8
265.652	56.32
265.868	33.79
266.084	-23.55
266.3	-21.5
266.516	-9.22
266.732	29.7
266.948	99.33
267.164	48.13
267.38	-7.17
267.596	80.89
267.812	54.27
268.028	17.41
268.244	-19.46
268.46	25.6
268.676	-7.17
268.892	68.61
269.108	-56.32
269.324	-35.84
269.54	-3.07
269.756	58.37
269.972	-97.28
270.188	-15.36
270.403	11.26
270.619	11.26
270.835	48.13
271.051	-33.79
271.267	9.22
271.483	11.26
271.698	29.7
271.914	58.37
272.13	-44.03
272.346	68.61
272.562	17.41
272.777	15.36
272.993	-11.26
273.209	58.37
273.425	-3.07
273.64	3.07
273.856	1.02
274.072	-3.07
274.287	37.89
274.503	21.5
274.719	56.32
274.934	-27.65
275.15	9.22
275.366	-13.31
275.581	-76.8
275.797	60.42
276.012	23.55
276.228	-52.22
276.444	37.89
276.659	62.46
276.875	72.7
277.09	25.6
277.306	46.08
277.521	58.37
277.737	-60.42
277.952	84.99
278.168	11.26
278.383	-31.74
278.599	54.27
278.814	-33.79
279.03	-7.17
279.245	82.94
279.461	50.18
279.676	109.57
279.892	9.22
280.107	-23.55
280.322	27.65
280.538	50.18
280.753	-23.55
280.969	35.84
281.184	58.37
281.399	-27.65
281.615	21.5
281.83	1.02
282.045	23.55
282.26	31.74
282.476	-7.17
282.691	97.28
282.906	39.94
283.122	-7.17
283.337	54.27
283.552	-3.07
283.767	50.18
283.983	101.37
284.198	-56.32
284.413	99.33
284.628	58.37
284.843	68.61
285.058	1.02
285.274	-15.36
285.489	87.04
285.704	25.6
285.919	29.7
286.134	-46.08
286.349	25.6
286.564	-13.31
286.779	58.37
286.995	13.31
287.21	-31.74
287.425	9.22
287.64	19.46
287.855	91.13
288.07	99.33
288.285	1.02
288.5	58.37
288.715	25.6
288.93	-54.27
289.145	52.22
289.36	-9.22
289.575	-19.46
289.79	41.98
290.004	3.07
290.219	-5.12
290.434	74.75
290.649	-35.84
290.864	58.37
291.079	52.22
291.294	1.02
291.509	-31.74
291.724	1.02
291.938	46.08
292.153	41.98
292.368	15.36
292.583	25.6
292.798	74.75
293.012	-46.08
293.227	19.46
293.442	1.02
293.657	35.84
293.871	13.31
294.086	-7.17
294.301	76.8
294.516	58.37
294.73	1.02
294.945	-13.31
295.16	11.26
295.374	87.04
295.589	64.51
295.804	-46.08
296.018	41.98
296.233	11.26
296.447	-35.84
296.662	50.18
296.877	41.98
297.091	-5.12
297.306	62.46
297.52	1.02
297.735	91.13
297.949	-48.13
298.164	33.79
298.378	62.46
298.593	-35.84
298.807	5.12
299.022	17.41
299.236	101.37
299.451	-31.74
299.665	58.37
299.88	39.94
300.094	23.55
300.309	74.75
300.523	-3.07
300.737	25.6
300.952	15.36
301.166	9.22
301.381	60.42
301.595	7.17
301.809	7.17
302.024	3.07
302.238	17.41
302.452	19.46
302.667	27.65
302.881	52.22
303.095	37.89
303.309	41.98
303.524	-15.36
303.738	35.84
303.952	-23.55
304.166	-62.46
304.381	-60.42
304.595	64.51
304.809	-80.89
305.023	50.18
305.237	25.6
305.452	1.02
305.666	115.71
305.88	41.98
306.094	58.37
306.308	35.84
306.522	95.23
306.736	39.94
306.95	-44.03
307.164	50.18
307.379	-44.03
307.593	50.18
307.807	13.31
308.021	70.65
308.235	-11.26
308.449	17.41
308.663	54.27
308.877	70.65
309.091	5.12
309.305	41.98
309.519	-5.12
309.733	44.03
309.947	-37.89
310.161	21.5
310.374	-1.02
310.588	166.91
310.802	25.6
311.016	58.37
311.23	-15.36
311.444	-29.7
311.658	25.6
311.872	105.47
312.085	50.18
312.299	66.56
312.513	84.99
312.727	-1.02
312.941	13.31
313.154	19.46
313.368	9.22
313.582	-5.12
313.796	33.79
314.009	-27.65
314.223	54.27
314.437	17.41
314.651	-19.46
314.864	-5.12
315.078	25.6
315.292	-17.41
315.505	-37.89
315.719	33.79
315.933	44.03
316.146	27.65
316.36	5.12
316.573	-17.41
316.787	35.84
317.001	29.7
317.214	-11.26
317.428	37.89
317.641	29.7
317.855	27.65
318.068	-15.36
318.282	29.7
318.495	60.42
318.709	17.41
318.922	50.18
319.136	78.85
319.349	117.76
319.563	-31.74
319.776	1.02
319.99	78.85
320.203	-3.07
320.417	52.22
320.63	33.79
320.843	60.42
321.057	46.08
321.27	99.33
321.483	91.13
321.697	-23.55
321.91	97.28
322.124	68.61
322.337	37.89
322.55	60.42
322.763	25.6
322.977	-7.17
323.19	48.13
323.403	66.56
323.617	111.61
323.83	41.98
324.043	15.36
324.256	50.18
324.469	-21.5
324.683	41.98
324.896	11.26
325.109	113.66
325.322	-29.7
325.535	76.8
325.748	41.98
325.962	91.13
326.175	-33.79
326.388	78.85
326.601	13.31
326.814	-7.17
327.027	52.22
327.24	-29.7
327.453	-56.32
327.666	41.98
327.879	25.6
328.092	1.02
328.305	21.5
328.518	29.7
328.731	3.07
328.944	-62.46
329.157	44.03
329.37	41.98
329.583	25.6
329.796	74.75
330.009	44.03
330.222	89.09
330.435	60.42
330.648	-48.13
330.861	-7.17
331.073	-27.65
331.286	19.46
331.499	27.65
331.712	-39.94
331.925	3.07
332.138	93.18
332.35	82.94
332.563	-46.08
332.776	107.52
332.989	-52.22
333.202	84.99
333.414	41.98
333.627	19.46
333.84	-15.36
334.053	33.79
334.265	17.41
334.478	37.89
334.691	50.18
334.903	46.08
335.116	9.22
335.329	31.74
335.541	56.32
335.754	128
335.966	3.07
336.179	-7.17
336.392	-19.46
336.604	-11.26
336.817	54.27
337.029	91.13
337.242	-31.74
337.454	15.36
337.667	68.61
337.88	87.04
338.092	29.7
338.305	33.79
338.517	11.26
338.729	17.41
338.942	72.7
339.154	37.89
339.367	9.22
339.579	-37.89
339.792	19.46
340.004	27.65
340.217	-46.08
340.429	25.6
340.641	25.6
340.854	19.46
341.066	48.13
341.278	50.18
341.491	74.75
341.703	21.5
341.915	1.02
342.128	50.18
342.34	70.65
342.552	84.99
342.764	44.03
342.977	-13.31
343.189	21.5
343.401	76.8
343.613	-35.84
343.826	76.8
344.038	-46.08
344.25	54.27
344.462	50.18
344.674	9.22
344.886	3.07
345.099	70.65
345.311	44.03
345.523	25.6
345.735	-37.89
345.947	46.08
346.159	76.8
346.371	50.18
346.583	80.89
346.795	46.08
347.007	25.6
347.219	35.84
347.431	-5.12
347.643	17.41
347.855	25.6
348.067	44.03
348.279	23.55
348.491	111.61
348.703	19.46
348.915	27.65
349.127	-3.07
349.339	52.22
349.551	13.31
349.763	82.94
349.975	95.23
350.187	68.61
350.399	76.8
350.61	54.27
350.822	66.56
351.034	99.33
351.246	17.41
351.458	41.98
351.669	68.61
351.881	91.13
352.093	3.07
352.305	25.6
352.517	50.18
352.728	134.14
352.94	-3.07
353.152	74.75
353.363	-31.74
353.575	-29.7
353.787	84.99
353.999	39.94
354.21	33.79
354.422	-15.36
354.633	41.98
354.845	33.79
355.057	-15.36
355.268	70.65
355.48	-31.74
355.692	66.56
355.903	29.7
356.115	-5.12
356.326	-29.7
356.538	107.52
356.749	37.89
356.961	44.03
357.172	35.84
357.384	58.37
357.595	70.65
357.807	66.56
358.018	33.79
358.23	-46.08
358.441	72.7
358.653	-23.55
358.864	29.7
359.075	17.41
359.287	58.37
359.498	27.65
359.709	58.37
359.921	-5.12
360.132	9.22
360.344	74.75
360.555	29.7
360.766	1.02
360.977	27.65
361.189	70.65
361.4	31.74
361.611	5.12
361.823	-23.55
362.034	54.27
362.245	-15.36
362.456	-19.46
362.667	19.46
362.879	-15.36
363.09	21.5
363.301	7.17
363.512	25.6
363.723	52.22
363.935	-23.55
364.146	3.07
364.357	21.5
364.568	48.13
364.779	66.56
364.99	17.41
365.201	-7.17
365.412	107.52
365.623	-13.31
365.834	29.7
366.045	3.07
366.256	41.98
366.467	56.32
366.678	11.26
366.889	-39.94
367.1	82.94
367.311	-9.22
367.522	7.17
367.733	52.22
367.944	35.84
368.155	93.18
368.366	13.31
368.577	31.74
368.788	58.37
368.999	-7.17
369.209	27.65
369.42	50.18
369.631	50.18
369.842	52.22
370.053	84.99
370.264	76.8
370.474	-15.36
370.685	19.46
370.896	21.5
371.107	-1.02
371.317	37.89
371.528	33.79
371.739	80.89
371.95	87.04
372.16	70.65
372.371	29.7
372.582	33.79
372.792	74.75
373.003	115.71
373.214	21.5
373.424	50.18
373.635	-17.41
373.846	93.18
374.056	35.84
374.267	68.61
374.477	48.13
374.688	11.26
374.898	15.36
375.109	84.99
375.319	60.42
375.53	82.94
375.74	66.56
375.951	58.37
376.161	-7.17
376.372	113.66
376.582	58.37
376.793	46.08
377.003	-1.02
377.214	37.89
377.424	58.37
377.635	74.75
377.845	3.07
378.055	27.65
378.266	-13.31
378.476	-5.12
378.686	-31.74
378.897	99.33
379.107	50.18
379.317	25.6
379.528	82.94
379.738	37.89
379.948	9.22
380.158	66.56
380.369	19.46
380.579	35.84
380.789	78.85
380.999	39.94
381.21	41.98
381.42	52.22
381.63	70.65
381.84	1.02
382.05	66.56
382.261	33.79
382.471	1.02
382.681	44.03
382.891	101.37
383.101	46.08
383.311	62.46
383.521	25.6
383.731	62.46
383.941	-23.55
384.151	41.98
384.361	-5.12
384.571	70.65
384.781	60.42
384.991	60.42
385.201	21.5
385.411	-13.31
385.621	60.42
385.831	9.22
386.041	82.94
386.251	-3.07
386.461	107.52
386.671	9.22
386.881	80.89
387.091	7.17
387.301	-23.55
387.511	62.46
387.72	25.6
387.93	41.98
388.14	-7.17
388.35	78.85
388.56	66.56
388.769	27.65
388.979	105.47
389.189	3.07
389.399	37.89
389.609	29.7
389.818	76.8
390.028	48.13
390.238	50.18
390.447	-15.36
390.657	68.61
390.867	13.31
391.076	46.08
391.286	39.94
391.496	68.61
391.705	21.5
391.915	66.56
392.125	58.37
392.334	74.75
392.544	72.7
392.753	33.79
392.963	-9.22
393.172	-15.36
393.382	-23.55
393.591	58.37
393.801	-15.36
394.01	130.05
394.22	105.47
394.429	117.76
394.639	115.71
394.848	76.8
395.058	41.98
395.267	60.42
395.477	33.79
395.686	89.09
395.895	78.85
396.105	97.28
396.314	37.89
396.524	64.51
396.733	44.03
396.942	41.98
397.152	62.46
397.361	66.56
397.57	119.81
397.78	117.76
397.989	62.46
398.198	156.67
398.407	29.7
398.617	-1.02
398.826	95.23
399.035	97.28
399.244	62.46
399.453	9.22
399.663	62.46
399.872	76.8
400.081	15.36
400.29	62.46
400.499	-46.08
400.708	41.98
400.917	-11.26
401.127	31.74
401.336	66.56
401.545	105.47
401.754	62.46
401.963	101.37
402.172	56.32
402.381	39.94
402.59	5.12
402.799	107.52
403.008	52.22
403.217	60.42
403.426	164.86
403.635	82.94
403.844	44.03
404.053	107.52
404.262	101.37
404.471	175.1
404.68	91.13
404.888	66.56
405.097	70.65
405.306	87.04
405.515	177.15
405.724	150.53
405.933	117.76
406.142	142.33
406.35	119.81
406.559	99.33
406.768	232.44
406.977	201.72
407.185	181.25
407.394	105.47
407.603	72.7
407.812	121.85
408.02	107.52
408.229	166.91
408.438	185.34
408.646	179.2
408.855	228.35
409.064	250.88
409.272	199.68
409.481	252.92
409.69	230.4
409.898	189.44
410.107	244.73
410.315	222.2
410.524	185.34
410.733	246.78
410.941	205.82
411.15	340.99
411.358	338.94
411.567	234.49
411.775	226.3
411.984	416.76
412.192	365.56
412.401	306.17
412.609	279.55
412.818	371.71
413.026	472.06
413.234	302.08
413.443	357.37
413.651	369.66
413.86	336.89
414.068	459.77
414.276	476.15
414.485	408.57
414.693	478.2
414.901	519.16
415.11	529.4
415.318	570.36
415.526	472.06
415.734	513.02
415.943	537.59
416.151	623.61
416.359	599.03
416.567	621.56
416.776	639.99
416.984	738.29
417.192	723.96
417.4	705.53
417.608	658.42
417.817	697.33
418.025	807.92
418.233	820.21
418.441	791.54
418.649	863.22
418.857	871.41
419.065	924.66
419.273	828.4
419.481	959.47
419.689	1074.16
419.897	1115.12
420.105	1098.74
420.313	1154.03
420.521	1225.71
420.729	1201.13
420.937	1139.69
421.145	1428.46
421.353	1317.87
421.561	1344.49
421.769	1395.69
421.977	1508.33
422.185	1395.69
422.393	1496.04
422.601	1631.21
422.809	1674.21
423.017	1686.5
423.224	1690.6
423.432	1729.51
423.64	1836
423.848	1922.02
424.056	1868.77
424.263	1928.16
424.471	1936.35
424.679	2032.61
424.887	2319.32
425.094	2245.6
425.302	2331.61
425.51	2513.88
425.718	2472.92
425.925	2434.01
426.133	2544.6
426.341	2634.71
426.548	2804.69
426.756	2716.63
426.964	2829.27
427.171	3001.3
427.379	3089.36
427.586	3091.41
427.794	3195.86
428.001	3369.93
428.209	3570.63
428.417	3492.81
428.624	3738.57
428.832	3664.84
429.039	3623.88
429.247	3713.99
429.454	4039.62
429.662	4172.74
429.869	3890.12
430.076	4355.01
430.284	4035.52
430.491	4285.37
430.699	4559.8
430.906	4623.29
431.114	4596.67
431.321	4772.79
431.528	4821.94
431.736	5290.93
431.943	5505.96
432.15	5325.74
432.358	5321.65
432.565	5634.99
432.772	5366.7
432.979	5917.61
433.187	5829.54
433.394	5950.37
433.601	6239.14
433.808	6364.06
434.016	6382.49
434.223	6624.15
434.43	7109.52
434.637	6994.84
434.844	7418.77
435.052	7312.27
435.259	7349.14
435.466	7361.42
435.673	7517.07
435.88	7943.05
436.087	8160.13
436.294	8315.78
436.501	8096.64
436.708	8278.91
436.915	8526.72
437.122	8817.53
437.329	9063.29
437.537	9198.45
437.743	9405.3
437.95	9333.62
438.157	9548.65
438.364	9896.81
438.571	10021.74
438.778	9980.78
438.985	11105.11
439.192	10515.3
439.399	10924.89
439.606	10728.28
439.813	11027.29
440.02	11909.96
440.227	11682.64
440.433	11707.21
440.64	12116.81
440.847	11815.76
441.054	12084.04
441.261	12919.61
441.467	12766.01
441.674	13044.54
441.881	13630.26
442.088	13749.04
442.294	13462.32
442.501	13955.88
442.708	14039.85
442.914	14496.55
443.121	15262.49
443.328	14746.4
443.534	15704.85
443.741	15328.02
443.948	15067.93
444.154	16354.05
444.361	16331.53
444.568	16343.81
444.774	16349.96
444.981	16636.67
445.187	16990.97
445.394	17593.08
445.6	17357.56
445.807	19112.67
446.013	17957.61
446.22	18490.09
446.426	19059.42
446.633	19344.09
446.839	20300.49
447.046	19188.44
447.252	20290.25
447.459	20247.24
447.665	20366.03
447.871	21297.85
448.078	22076.08
448.284	21011.14
448.491	21598.9
448.697	22401.71
448.903	22753.96
449.11	22669.99
449.316	22413.99
449.522	22825.64
449.728	23773.85
449.935	23415.45
450.141	23560.86
450.347	24212.11
450.553	23435.93
450.76	23720.6
450.966	24734.34
451.172	24294.03
451.378	24924.8
451.584	24355.47
451.791	25016.96
451.997	24840.84
452.203	25100.93
452.409	25451.13
452.615	25129.6
452.821	24564.36
453.027	24275.6
453.233	25205.38
453.44	24382.09
453.646	24734.34
453.852	24758.92
454.058	25461.37
454.264	24234.64
454.47	25092.74
454.676	24136.34
454.882	25188.99
455.088	23229.09
455.294	23331.48
455.5	23460.51
455.705	24027.79
455.911	22698.66
456.117	22534.82
456.323	22399.66
456.529	21187.26
456.735	22094.51
456.941	21365.43
457.147	21088.96
457.352	20466.38
457.558	20542.15
457.764	20622.02
457.97	20036.3
458.176	19602.13
458.381	19489.49
458.587	18526.95
458.793	18719.46
458.999	17468.15
459.204	19055.33
459.41	18334.44
459.616	17115.9
459.821	17173.24
460.027	17242.87
460.233	16790.27
460.438	15997.71
460.644	16251.66
460.85	15244.06
461.055	15319.83
461.261	15348.5
461.466	14115.62
461.672	13638.45
461.878	14426.92
462.083	13640.5
462.289	13339.44
462.494	13144.89
462.7	12661.57
462.905	12350.28
463.111	12884.8
463.316	12790.59
463.522	12522.3
463.727	12608.32
463.932	12475.2
464.138	12497.73
464.343	12663.61
464.549	12061.51
464.754	12565.31
464.959	12321.6
465.165	12118.86
465.37	11813.71
465.575	11518.8
465.781	11952.97
465.986	12077.9
466.191	11641.68
466.397	11273.04
466.602	10748.76
466.807	11139.93
467.012	11146.07
467.218	11029.34
467.423	10873.69
467.628	10992.47
467.833	11461.46
468.038	11144.02
