Data from USB4F104151__298__14-24-00-531.txt Node

Date: Thu Mar 13 14:24:00 EDT 2025
User: louis
Spectrometer: USB4F10415
Trigger mode: 4
Integration Time (sec): 2.000000E-2
Scans to average: 1
Electric dark correction enabled: true
Nonlinearity correction enabled: false
Boxcar width: 0
XAxis mode: Wavelengths
Number of Pixels in Spectrum: 3648
>>>>>Begin Spectral Data<<<<<
178.204	-127.66
178.424	-127.66
178.644	-127.66
178.864	-141.99
179.084	-107.18
179.304	-25.26
179.524	-17.07
179.744	1.37
179.964	-8.87
180.184	-19.11
180.404	-43.69
180.624	48.47
180.844	38.23
181.064	-17.07
181.283	21.85
181.503	-17.07
181.723	38.23
181.943	-15.02
182.163	58.71
182.383	-2.73
182.602	62.8
182.822	58.71
183.042	34.13
183.262	-8.87
183.482	48.47
183.701	5.46
183.921	5.46
184.141	-62.12
184.361	7.51
184.58	3.41
184.8	23.89
185.02	58.71
185.239	1.37
185.459	34.13
185.679	56.66
185.898	-19.11
186.118	87.38
186.338	30.04
186.557	40.28
186.777	-39.59
186.997	17.75
187.216	34.13
187.436	42.32
187.655	-49.83
187.875	-8.87
188.095	42.32
188.314	99.67
188.534	64.85
188.753	23.89
188.973	-2.73
189.192	107.86
189.412	-0.68
189.631	42.32
189.851	-27.31
190.07	62.8
190.29	-10.92
190.509	23.89
190.729	-39.59
190.948	50.52
191.168	157.01
191.387	87.38
191.607	-29.35
191.826	34.13
192.045	-0.68
192.265	15.7
192.484	15.7
192.704	77.14
192.923	-27.31
193.142	46.42
193.362	9.56
193.581	34.13
193.8	93.52
194.02	56.66
194.239	79.19
194.458	40.28
194.678	77.14
194.897	-0.68
195.116	142.68
195.335	23.89
195.555	95.57
195.774	54.61
195.993	-8.87
196.212	5.46
196.432	15.7
196.651	34.13
196.87	-10.92
197.089	111.96
197.308	30.04
197.528	79.19
197.747	-41.64
197.966	-31.4
198.185	130.39
198.404	81.24
198.623	107.86
198.842	-0.68
199.062	17.75
199.281	-27.31
199.5	-41.64
199.719	79.19
199.938	46.42
200.157	83.28
200.376	50.52
200.595	7.51
200.814	-2.73
201.033	38.23
201.252	44.37
201.471	-8.87
201.69	140.63
201.909	-2.73
202.128	38.23
202.347	38.23
202.566	-58.03
202.785	32.08
203.004	-12.97
203.223	25.94
203.442	46.42
203.661	79.19
203.879	56.66
204.098	25.94
204.317	-17.07
204.536	54.61
204.755	116.05
204.974	36.18
205.193	11.61
205.411	122.2
205.63	23.89
205.849	27.99
206.068	54.61
206.287	34.13
206.505	46.42
206.724	54.61
206.943	73.04
207.162	42.32
207.381	-17.07
207.599	38.23
207.818	71
208.037	46.42
208.255	-60.07
208.474	1.37
208.693	40.28
208.911	-23.21
209.13	52.56
209.349	21.85
209.567	-19.11
209.786	1.37
210.005	38.23
210.223	-41.64
210.442	-31.4
210.661	13.65
210.879	46.42
211.098	79.19
211.316	95.57
211.535	30.04
211.753	-6.83
211.972	9.56
212.191	13.65
212.409	25.94
212.628	73.04
212.846	73.04
213.065	42.32
213.283	66.9
213.502	-17.07
213.72	1.37
213.938	5.46
214.157	-19.11
214.375	48.47
214.594	40.28
214.812	71
215.031	7.51
215.249	-8.87
215.467	30.04
215.686	38.23
215.904	44.37
216.122	40.28
216.341	58.71
216.559	62.8
216.778	54.61
216.996	5.46
217.214	56.66
217.432	-10.92
217.651	38.23
217.869	46.42
218.087	42.32
218.306	-17.07
218.524	60.76
218.742	5.46
218.96	-10.92
219.179	1.37
219.397	62.8
219.615	79.19
219.833	40.28
220.051	-51.88
220.27	56.66
220.488	95.57
220.706	97.62
220.924	56.66
221.142	46.42
221.36	30.04
221.578	46.42
221.796	97.62
222.015	13.65
222.233	79.19
222.451	34.13
222.669	-31.4
222.887	62.8
223.105	3.41
223.323	15.7
223.541	-23.21
223.759	13.65
223.977	-10.92
224.195	38.23
224.413	-51.88
224.631	34.13
224.849	23.89
225.067	21.85
225.285	-0.68
225.503	-10.92
225.721	9.56
225.939	-80.55
226.157	-0.68
226.375	81.24
226.592	-41.64
226.81	68.95
227.028	21.85
227.246	11.61
227.464	-8.87
227.682	-2.73
227.9	36.18
228.117	13.65
228.335	-31.4
228.553	32.08
228.771	-8.87
228.989	-4.78
229.206	50.52
229.424	34.13
229.642	83.28
229.86	21.85
230.077	120.15
230.295	54.61
230.513	120.15
230.731	1.37
230.948	-0.68
231.166	5.46
231.384	-19.11
231.601	66.9
231.819	97.62
232.037	50.52
232.254	7.51
232.472	48.47
232.689	-17.07
232.907	50.52
233.125	5.46
233.342	38.23
233.56	27.99
233.777	58.71
233.995	38.23
234.213	105.81
234.43	40.28
234.648	54.61
234.865	13.65
235.083	52.56
235.3	62.8
235.518	-8.87
235.735	42.32
235.953	97.62
236.17	5.46
236.388	15.7
236.605	-19.11
236.822	81.24
237.04	21.85
237.257	36.18
237.475	21.85
237.692	130.39
237.909	9.56
238.127	97.62
238.344	13.65
238.562	50.52
238.779	-10.92
238.996	-51.88
239.214	34.13
239.431	66.9
239.648	-23.21
239.865	83.28
240.083	15.7
240.3	21.85
240.517	91.48
240.735	44.37
240.952	-27.31
241.169	85.33
241.386	85.33
241.603	60.76
241.821	38.23
242.038	66.9
242.255	79.19
242.472	-35.5
242.689	83.28
242.907	62.8
243.124	62.8
243.341	23.89
243.558	-25.26
243.775	-39.59
243.992	-0.68
244.209	38.23
244.426	38.23
244.643	30.04
244.86	13.65
245.078	13.65
245.295	23.89
245.512	30.04
245.729	32.08
245.946	42.32
246.163	48.47
246.38	95.57
246.597	79.19
246.814	13.65
247.031	21.85
247.248	52.56
247.464	-0.68
247.681	71
247.898	56.66
248.115	50.52
248.332	17.75
248.549	25.94
248.766	54.61
248.983	71
249.2	34.13
249.417	50.52
249.633	-27.31
249.85	48.47
250.067	-6.83
250.284	58.71
250.501	83.28
250.717	93.52
250.934	62.8
251.151	-23.21
251.368	-6.83
251.585	13.65
251.801	17.75
252.018	34.13
252.235	48.47
252.451	-6.83
252.668	-2.73
252.885	62.8
253.102	17.75
253.318	25.94
253.535	50.52
253.752	-10.92
253.968	50.52
254.185	-23.21
254.401	62.8
254.618	-8.87
254.835	-17.07
255.051	46.42
255.268	21.85
255.484	97.62
255.701	138.58
255.917	111.96
256.134	48.47
256.351	21.85
256.567	-43.69
256.784	52.56
257	-113.32
257.217	130.39
257.433	30.04
257.65	13.65
257.866	62.8
258.082	-39.59
258.299	-8.87
258.515	7.51
258.732	23.89
258.948	36.18
259.165	-29.35
259.381	97.62
259.597	50.52
259.814	48.47
260.03	38.23
260.246	91.48
260.463	-17.07
260.679	15.7
260.895	5.46
261.112	21.85
261.328	5.46
261.544	68.95
261.761	111.96
261.977	-43.69
262.193	-43.69
262.409	77.14
262.626	-39.59
262.842	9.56
263.058	-60.07
263.274	46.42
263.49	87.38
263.707	15.7
263.923	73.04
264.139	-25.26
264.355	50.52
264.571	95.57
264.787	19.8
265.004	38.23
265.22	25.94
265.436	58.71
265.652	30.04
265.868	-27.31
266.084	-47.79
266.3	-2.73
266.516	32.08
266.732	17.75
266.948	-15.02
267.164	34.13
267.38	25.94
267.596	30.04
267.812	93.52
268.028	83.28
268.244	38.23
268.46	27.99
268.676	50.52
268.892	-17.07
269.108	71
269.324	-80.55
269.54	-4.78
269.756	83.28
269.972	56.66
270.188	13.65
270.403	83.28
270.619	89.43
270.835	46.42
271.051	42.32
271.267	38.23
271.483	-8.87
271.698	54.61
271.914	79.19
272.13	-25.26
272.346	75.09
272.562	21.85
272.777	7.51
272.993	-23.21
273.209	25.94
273.425	15.7
273.64	30.04
273.856	79.19
274.072	7.51
274.287	21.85
274.503	11.61
274.719	77.14
274.934	83.28
275.15	30.04
275.366	-27.31
275.581	-23.21
275.797	38.23
276.012	15.7
276.228	15.7
276.444	54.61
276.659	38.23
276.875	21.85
277.09	62.8
277.306	-19.11
277.521	25.94
277.737	30.04
277.952	114
278.168	-8.87
278.383	30.04
278.599	62.8
278.814	56.66
279.03	7.51
279.245	75.09
279.461	58.71
279.676	30.04
279.892	-0.68
280.107	89.43
280.322	58.71
280.538	13.65
280.753	25.94
280.969	13.65
281.184	34.13
281.399	-2.73
281.615	15.7
281.83	62.8
282.045	34.13
282.26	7.51
282.476	-15.02
282.691	-27.31
282.906	27.99
283.122	42.32
283.337	46.42
283.552	107.86
283.767	71
283.983	21.85
284.198	19.8
284.413	13.65
284.628	9.56
284.843	42.32
285.058	73.04
285.274	34.13
285.489	-8.87
285.704	54.61
285.919	17.75
286.134	7.51
286.349	32.08
286.564	46.42
286.779	75.09
286.995	46.42
287.21	-74.41
287.425	81.24
287.64	40.28
287.855	79.19
288.07	40.28
288.285	85.33
288.5	23.89
288.715	38.23
288.93	7.51
289.145	56.66
289.36	9.56
289.575	30.04
289.79	25.94
290.004	40.28
290.219	95.57
290.434	46.42
290.649	79.19
290.864	7.51
291.079	-25.26
291.294	9.56
291.509	56.66
291.724	-0.68
291.938	-27.31
292.153	15.7
292.368	71
292.583	-35.5
292.798	50.52
293.012	56.66
293.227	27.99
293.442	87.38
293.657	3.41
293.871	116.05
294.086	79.19
294.301	122.2
294.516	-2.73
294.73	-19.11
294.945	54.61
295.16	58.71
295.374	38.23
295.589	83.28
295.804	15.7
296.018	-33.45
296.233	71
296.447	64.85
296.662	27.99
296.877	75.09
297.091	34.13
297.306	42.32
297.52	-43.69
297.735	75.09
297.949	17.75
298.164	46.42
298.378	58.71
298.593	-17.07
298.807	30.04
299.022	-2.73
299.236	23.89
299.451	46.42
299.665	46.42
299.88	50.52
300.094	38.23
300.309	79.19
300.523	136.53
300.737	-51.88
300.952	105.81
301.166	-12.97
301.381	79.19
301.595	38.23
301.809	34.13
302.024	81.24
302.238	-2.73
302.452	66.9
302.667	38.23
302.881	66.9
303.095	56.66
303.309	66.9
303.524	38.23
303.738	-2.73
303.952	-27.31
304.166	44.37
304.381	60.76
304.595	30.04
304.809	83.28
305.023	21.85
305.237	13.65
305.452	46.42
305.666	48.47
305.88	32.08
306.094	44.37
306.308	56.66
306.522	13.65
306.736	48.47
306.95	38.23
307.164	71
307.379	62.8
307.593	50.52
307.807	79.19
308.021	56.66
308.235	-10.92
308.449	50.52
308.663	17.75
308.877	124.24
309.091	73.04
309.305	23.89
309.519	30.04
309.733	19.8
309.947	-58.03
310.161	64.85
310.374	32.08
310.588	-15.02
310.802	50.52
311.016	-39.59
311.23	30.04
311.444	62.8
311.658	5.46
311.872	46.42
312.085	56.66
312.299	62.8
312.513	77.14
312.727	-47.79
312.941	40.28
313.154	-33.45
313.368	-27.31
313.582	56.66
313.796	30.04
314.009	-12.97
314.223	21.85
314.437	23.89
314.651	87.38
314.864	-35.5
315.078	71
315.292	30.04
315.505	30.04
315.719	46.42
315.933	48.47
316.146	-8.87
316.36	38.23
316.573	46.42
316.787	21.85
317.001	46.42
317.214	11.61
317.428	-4.78
317.641	-2.73
317.855	13.65
318.068	30.04
318.282	9.56
318.495	87.38
318.709	25.94
318.922	15.7
319.136	103.76
319.349	-35.5
319.563	-0.68
319.776	21.85
319.99	7.51
320.203	23.89
320.417	99.67
320.63	79.19
320.843	114
321.057	114
321.27	7.51
321.483	46.42
321.697	62.8
321.91	91.48
322.124	144.72
322.337	30.04
322.55	-4.78
322.763	91.48
322.977	34.13
323.19	-41.64
323.403	56.66
323.617	40.28
323.83	5.46
324.043	-33.45
324.256	-2.73
324.469	30.04
324.683	73.04
324.896	42.32
325.109	-2.73
325.322	-10.92
325.535	138.58
325.748	32.08
325.962	52.56
326.175	64.85
326.388	38.23
326.601	95.57
326.814	-2.73
327.027	44.37
327.24	89.43
327.453	38.23
327.666	17.75
327.879	130.39
328.092	75.09
328.305	40.28
328.518	54.61
328.731	38.23
328.944	56.66
329.157	58.71
329.37	5.46
329.583	38.23
329.796	30.04
330.009	34.13
330.222	79.19
330.435	7.51
330.648	52.56
330.861	46.42
331.073	99.67
331.286	64.85
331.499	52.56
331.712	-33.45
331.925	36.18
332.138	101.72
332.35	75.09
332.563	40.28
332.776	-39.59
332.989	-23.21
333.202	-45.74
333.414	40.28
333.627	15.7
333.84	79.19
334.053	56.66
334.265	71
334.478	30.04
334.691	-8.87
334.903	-15.02
335.116	7.51
335.329	30.04
335.541	91.48
335.754	30.04
335.966	11.61
336.179	-47.79
336.392	62.8
336.604	34.13
336.817	75.09
337.029	56.66
337.242	40.28
337.454	-35.5
337.667	46.42
337.88	97.62
338.092	-29.35
338.305	-27.31
338.517	71
338.729	62.8
338.942	21.85
339.154	7.51
339.367	-6.83
339.579	99.67
339.792	21.85
340.004	-25.26
340.217	1.37
340.429	62.8
340.641	68.95
340.854	71
341.066	62.8
341.278	50.52
341.491	64.85
341.703	23.89
341.915	30.04
342.128	68.95
342.34	-15.02
342.552	71
342.764	79.19
342.977	5.46
343.189	79.19
343.401	19.8
343.613	-19.11
343.826	40.28
344.038	-25.26
344.25	-17.07
344.462	-10.92
344.674	79.19
344.886	66.9
345.099	5.46
345.311	9.56
345.523	46.42
345.735	23.89
345.947	23.89
346.159	103.76
346.371	99.67
346.583	-68.27
346.795	116.05
347.007	54.61
347.219	128.34
347.431	103.76
347.643	124.24
347.855	-66.22
348.067	46.42
348.279	15.7
348.491	25.94
348.703	46.42
348.915	-39.59
349.127	7.51
349.339	32.08
349.551	23.89
349.763	19.8
349.975	48.47
350.187	56.66
350.399	173.39
350.61	116.05
350.822	7.51
351.034	99.67
351.246	-15.02
351.458	97.62
351.669	-6.83
351.881	23.89
352.093	79.19
352.305	71
352.517	71
352.728	15.7
352.94	9.56
353.152	105.81
353.363	9.56
353.575	64.85
353.787	83.28
353.999	111.96
354.21	79.19
354.422	46.42
354.633	7.51
354.845	34.13
355.057	-23.21
355.268	1.37
355.48	13.65
355.692	-23.21
355.903	-6.83
356.115	17.75
356.326	-51.88
356.538	27.99
356.749	97.62
356.961	-6.83
357.172	50.52
357.384	-43.69
357.595	15.7
357.807	30.04
358.018	46.42
358.23	21.85
358.441	62.8
358.653	46.42
358.864	71
359.075	54.61
359.287	62.8
359.498	-19.11
359.709	40.28
359.921	21.85
360.132	89.43
360.344	93.52
360.555	46.42
360.766	50.52
360.977	34.13
361.189	60.76
361.4	5.46
361.611	56.66
361.823	75.09
362.034	32.08
362.245	71
362.456	38.23
362.667	52.56
362.879	-19.11
363.09	32.08
363.301	23.89
363.512	17.75
363.723	21.85
363.935	1.37
364.146	99.67
364.357	-15.02
364.568	109.91
364.779	71
364.99	3.41
365.201	85.33
365.412	114
365.623	7.51
365.834	62.8
366.045	-19.11
366.256	103.76
366.467	62.8
366.678	23.89
366.889	-4.78
367.1	44.37
367.311	68.95
367.522	48.47
367.733	73.04
367.944	79.19
368.155	30.04
368.366	87.38
368.577	38.23
368.788	124.24
368.999	118.1
369.209	58.71
369.42	54.61
369.631	62.8
369.842	81.24
370.053	7.51
370.264	71
370.474	40.28
370.685	23.89
370.896	25.94
371.107	75.09
371.317	25.94
371.528	34.13
371.739	107.86
371.95	56.66
372.16	-0.68
372.371	15.7
372.582	46.42
372.792	13.65
373.003	132.44
373.214	30.04
373.424	95.57
373.635	40.28
373.846	58.71
374.056	62.8
374.267	42.32
374.477	13.65
374.688	71
374.898	64.85
375.109	40.28
375.319	17.75
375.53	109.91
375.74	13.65
375.951	103.76
376.161	62.8
376.372	89.43
376.582	120.15
376.793	48.47
377.003	11.61
377.214	38.23
377.424	30.04
377.635	-35.5
377.845	40.28
378.055	25.94
378.266	-6.83
378.476	73.04
378.686	77.14
378.897	-25.26
379.107	9.56
379.317	5.46
379.528	30.04
379.738	87.38
379.948	5.46
380.158	71
380.369	17.75
380.579	60.76
380.789	23.89
380.999	62.8
381.21	95.57
381.42	40.28
381.63	42.32
381.84	118.1
382.05	83.28
382.261	21.85
382.471	103.76
382.681	50.52
382.891	62.8
383.101	75.09
383.311	-25.26
383.521	-19.11
383.731	124.24
383.941	34.13
384.151	87.38
384.361	120.15
384.571	103.76
384.781	21.85
384.991	56.66
385.201	79.19
385.411	62.8
385.621	27.99
385.831	38.23
386.041	46.42
386.251	42.32
386.461	75.09
386.671	58.71
386.881	56.66
387.091	75.09
387.301	42.32
387.511	64.85
387.72	122.2
387.93	95.57
388.14	-47.79
388.35	17.75
388.56	32.08
388.769	-8.87
388.979	-2.73
389.189	48.47
389.399	83.28
389.609	54.61
389.818	89.43
390.028	21.85
390.238	58.71
390.447	34.13
390.657	13.65
390.867	32.08
391.076	44.37
391.286	34.13
391.496	19.8
391.705	89.43
391.915	73.04
392.125	50.52
392.334	46.42
392.544	-29.35
392.753	52.56
392.963	46.42
393.172	44.37
393.382	15.7
393.591	107.86
393.801	32.08
394.01	99.67
394.22	120.15
394.429	38.23
394.639	-10.92
394.848	202.07
395.058	17.75
395.267	79.19
395.477	54.61
395.686	46.42
395.895	124.24
396.105	165.2
396.314	64.85
396.524	73.04
396.733	46.42
396.942	79.19
397.152	79.19
397.361	99.67
397.57	25.94
397.78	111.96
397.989	56.66
398.198	124.24
398.407	91.48
398.617	40.28
398.826	79.19
399.035	40.28
399.244	122.2
399.453	32.08
399.663	73.04
399.872	30.04
400.081	64.85
400.29	46.42
400.499	75.09
400.708	103.76
400.917	42.32
401.127	71
401.336	44.37
401.545	95.57
401.754	58.71
401.963	83.28
402.172	89.43
402.381	71
402.59	114
402.799	87.38
403.008	114
403.217	169.3
403.426	120.15
403.635	91.48
403.844	95.57
404.053	89.43
404.262	56.66
404.471	38.23
404.68	146.77
404.888	120.15
405.097	138.58
405.306	120.15
405.515	161.11
405.724	116.05
405.933	138.58
406.142	154.96
406.35	146.77
406.559	111.96
406.768	171.35
406.977	204.11
407.185	228.69
407.394	177.49
407.603	159.06
407.812	124.24
408.02	120.15
408.229	179.54
408.438	163.15
408.646	202.07
408.855	128.34
409.064	202.07
409.272	154.96
409.481	243.03
409.69	238.93
409.898	236.88
410.107	146.77
410.315	238.93
410.524	212.31
410.733	253.27
410.941	294.22
411.15	259.41
411.358	259.41
411.567	408.91
411.775	308.56
411.984	236.88
412.192	367.95
412.401	378.19
412.609	370
412.818	400.72
413.026	365.9
413.234	458.06
413.443	398.67
413.651	359.76
413.86	374.1
414.068	443.73
414.276	441.68
414.485	456.01
414.693	458.06
414.901	554.32
415.11	492.88
415.318	513.36
415.526	574.8
415.734	630.09
415.943	662.86
416.151	619.85
416.359	619.85
416.567	677.2
416.776	673.1
416.984	736.59
417.192	769.35
417.4	775.5
417.608	738.63
417.817	701.77
418.025	896.33
418.233	937.29
418.441	779.59
418.649	890.18
418.857	920.9
419.065	1029.45
419.273	963.91
419.481	988.49
419.689	976.2
419.897	1201.48
420.105	1215.81
420.313	1129.8
420.521	1250.63
420.729	1137.99
420.937	1248.58
421.145	1267.01
421.353	1422.66
421.561	1453.38
421.769	1594.69
421.977	1580.35
422.185	1559.87
422.393	1537.34
422.601	1760.57
422.809	1574.21
423.017	1768.76
423.224	1738.04
423.432	1842.49
423.64	1815.87
423.848	2024.76
424.056	1893.69
424.263	2090.29
424.471	2094.39
424.679	2125.11
424.887	2164.02
425.094	2381.11
425.302	2307.38
425.51	2368.82
425.718	2514.22
425.925	2456.88
426.133	2647.34
426.341	2716.97
426.548	2854.19
426.756	2880.81
426.964	2954.54
427.171	3036.45
427.379	3185.96
427.586	3239.2
427.794	3274.02
428.001	3499.3
428.209	3585.31
428.417	3552.54
428.624	3702.04
428.832	3835.16
429.039	3798.3
429.247	3773.72
429.454	4144.41
429.662	4302.1
429.869	4154.65
430.076	4463.89
430.284	4267.28
430.491	4570.38
430.699	4830.48
430.906	4769.04
431.114	4947.21
431.321	4932.87
431.528	5233.93
431.736	5293.32
431.943	5618.94
432.15	5405.95
432.358	5477.63
432.565	5903.61
432.772	5862.65
432.979	6044.92
433.187	6276.34
433.394	6116.6
433.601	6569.2
433.808	6687.98
434.016	6540.53
434.223	6726.89
434.43	7202.02
434.637	7189.74
434.844	7595.23
435.052	7781.6
435.259	7488.74
435.466	7783.65
435.673	7732.45
435.88	8152.28
436.087	8557.78
436.294	8711.38
436.501	8422.61
436.708	8631.51
436.915	8987.85
437.122	9288.9
437.329	9073.87
437.537	9458.89
437.743	9600.19
437.95	9573.57
438.157	10089.66
438.364	10337.46
438.571	10374.33
438.778	10484.92
438.985	11449.51
439.192	10970.29
439.399	11336.87
439.606	10984.62
439.813	11744.42
440.02	12379.29
440.227	12033.18
440.433	11910.3
440.64	12399.77
440.847	12336.28
441.054	12790.93
441.261	13417.61
441.467	13284.49
441.674	13733
441.881	13993.09
442.088	13929.6
442.294	13997.18
442.501	14185.6
442.708	14500.98
442.914	14992.5
443.121	15752.29
443.328	15268.97
443.534	16356.44
443.741	15889.51
443.948	15426.67
444.154	16852.05
444.361	16653.4
444.568	16860.24
444.774	16612.44
444.981	17192.01
445.187	17407.05
445.394	18400.32
445.6	18009.15
445.807	19745.83
446.013	18961.46
446.22	19196.98
446.426	19778.6
446.633	19993.64
446.839	20900.89
447.046	19731.5
447.252	20943.89
447.459	20818.97
447.665	20841.5
447.871	21736.46
448.078	22785.02
448.284	21718.03
448.491	22223.87
448.697	23071.73
448.903	23442.42
449.11	23499.76
449.316	23305.2
449.522	23907.3
449.728	24490.98
449.935	24329.19
450.141	24419.3
450.347	25138.13
450.553	23962.6
450.76	24265.7
450.966	25385.94
451.172	25138.13
451.378	25512.91
451.584	25162.71
451.791	25893.83
451.997	25768.91
452.203	26108.87
452.409	26295.24
452.615	26131.4
452.821	25058.26
453.027	25027.54
453.233	26260.42
453.44	25009.11
453.646	25691.09
453.852	25635.79
454.058	26020.81
454.264	25250.77
454.47	25738.19
454.676	24843.23
454.882	26069.96
455.088	23839.72
455.294	23991.27
455.5	24255.46
455.705	24722.4
455.911	23569.39
456.117	23370.74
456.323	22766.59
456.529	21763.08
456.735	22918.14
456.941	22197.25
457.147	21535.76
457.352	21310.48
457.558	21257.23
457.764	20810.78
457.97	20663.32
458.176	20042.79
458.381	20292.64
458.587	19190.83
458.793	19477.55
458.999	18291.77
459.204	19686.44
459.41	18994.23
459.616	17646.66
459.821	17894.47
460.027	17749.06
460.233	17316.94
460.438	16639.06
460.644	16847.96
460.85	15979.62
461.055	15608.94
461.261	15668.33
461.466	14580.85
461.672	13933.7
461.878	14939.25
462.083	13931.65
462.289	13747.33
462.494	13640.84
462.7	13161.61
462.905	12827.79
463.111	13241.48
463.316	13180.04
463.522	13022.35
463.727	12973.2
463.932	13034.64
464.138	12817.55
464.343	12817.55
464.549	12489.88
464.754	12811.41
464.959	12655.76
465.165	12526.74
465.37	12227.74
465.575	11955.36
465.781	12252.31
465.986	12307.61
466.191	11771.04
466.397	11705.51
466.602	11295.91
466.807	11455.65
467.012	11564.2
467.218	11429.03
467.423	11205.8
467.628	11246.76
467.833	12031.13
468.038	11547.81
468.244	11164.84
468.449	11502.76
468.654	11267.24
468.859	11187.37
