Data from USB4F104151__128__14-19-01-238.txt Node

Date: Thu Mar 13 14:19:01 EDT 2025
User: louis
Spectrometer: USB4F10415
Trigger mode: 4
Integration Time (sec): 2.000000E-2
Scans to average: 1
Electric dark correction enabled: true
Nonlinearity correction enabled: false
Boxcar width: 0
XAxis mode: Wavelengths
Number of Pixels in Spectrum: 3648
>>>>>Begin Spectral Data<<<<<
178.204	-161.28
178.424	-161.28
178.644	-161.28
178.864	-202.24
179.084	-118.27
179.304	37.38
179.524	20.99
179.744	31.23
179.964	31.23
180.184	33.28
180.404	25.09
180.624	-7.68
180.844	-3.58
181.064	-38.4
181.283	-103.93
181.503	-65.02
181.723	39.42
181.943	-81.41
182.163	23.04
182.383	8.7
182.602	16.9
182.822	76.29
183.042	94.72
183.262	49.66
183.482	2.56
183.701	70.14
183.921	33.28
184.141	-62.98
184.361	29.18
184.58	-28.16
184.8	33.28
185.02	6.66
185.239	68.09
185.459	49.66
185.679	33.28
185.898	-15.87
186.118	82.43
186.338	-30.21
186.557	35.33
186.777	-13.82
186.997	10.75
187.216	4.61
187.436	80.38
187.655	39.42
187.875	43.52
188.095	-13.82
188.314	16.9
188.534	70.14
188.753	33.28
188.973	-7.68
189.192	16.9
189.412	10.75
189.631	57.86
189.851	8.7
190.07	90.62
190.29	-40.45
190.509	12.8
190.729	0.51
190.948	57.86
191.168	123.39
191.387	57.86
191.607	16.9
191.826	8.7
192.045	41.47
192.265	51.71
192.484	61.95
192.704	88.57
192.923	2.56
193.142	115.2
193.362	-3.58
193.581	33.28
193.8	43.52
194.02	33.28
194.239	-3.58
194.458	2.56
194.678	-26.11
194.897	115.2
195.116	-15.87
195.335	-15.87
195.555	27.14
195.774	27.14
195.993	16.9
196.212	-3.58
196.432	-24.06
196.651	23.04
196.87	-50.69
197.089	70.14
197.308	-40.45
197.528	49.66
197.747	-38.4
197.966	-3.58
198.185	25.09
198.404	10.75
198.623	35.33
198.842	90.62
199.062	57.86
199.281	25.09
199.5	-7.68
199.719	90.62
199.938	53.76
200.157	86.53
200.376	39.42
200.595	2.56
200.814	82.43
201.033	39.42
201.252	2.56
201.471	25.09
201.69	70.14
201.909	72.19
202.128	72.19
202.347	-40.45
202.566	-44.54
202.785	57.86
203.004	-11.78
203.223	129.53
203.442	27.14
203.661	35.33
203.879	37.38
204.098	123.39
204.317	4.61
204.536	16.9
204.755	45.57
204.974	10.75
205.193	35.33
205.411	82.43
205.63	-19.97
205.849	-7.68
206.068	-7.68
206.287	-13.82
206.505	2.56
206.724	8.7
206.943	16.9
207.162	70.14
207.381	41.47
207.599	-9.73
207.818	29.18
208.037	-15.87
208.255	-7.68
208.474	10.75
208.693	-13.82
208.911	49.66
209.13	-36.35
209.349	57.86
209.567	57.86
209.786	76.29
210.005	59.9
210.223	35.33
210.442	-3.58
210.661	43.52
210.879	43.52
211.098	8.7
211.316	8.7
211.535	-24.06
211.753	57.86
211.972	51.71
212.191	-44.54
212.409	33.28
212.628	53.76
212.846	-38.4
213.065	82.43
213.283	25.09
213.502	31.23
213.72	27.14
213.938	115.2
214.157	-7.68
214.375	-24.06
214.594	-13.82
214.812	72.19
215.031	-46.59
215.249	86.53
215.467	43.52
215.686	12.8
215.904	-9.73
216.122	68.09
216.341	27.14
216.559	-44.54
216.778	35.33
216.996	25.09
217.214	10.75
217.432	10.75
217.651	2.56
217.869	31.23
218.087	10.75
218.306	78.33
218.524	74.24
218.742	-40.45
218.96	-5.63
219.179	0.51
219.397	49.66
219.615	25.09
219.833	74.24
220.051	16.9
220.27	154.11
220.488	-77.31
220.706	-11.78
220.924	-73.21
221.142	76.29
221.36	59.9
221.578	29.18
221.796	8.7
222.015	6.66
222.233	16.9
222.451	107.01
222.669	27.14
222.887	33.28
223.105	37.38
223.323	12.8
223.541	-32.26
223.759	25.09
223.977	37.38
224.195	100.86
224.413	74.24
224.631	-56.83
224.849	16.9
225.067	68.09
225.285	33.28
225.503	27.14
225.721	-22.02
225.939	8.7
226.157	10.75
226.375	107.01
226.592	33.28
226.81	-11.78
227.028	-28.16
227.246	-22.02
227.464	16.9
227.682	18.94
227.9	107.01
228.117	68.09
228.335	18.94
228.553	61.95
228.771	41.47
228.989	18.94
229.206	47.62
229.424	-1.54
229.642	53.76
229.86	-7.68
230.077	33.28
230.295	0.51
230.513	16.9
230.731	84.48
230.948	-7.68
231.166	6.66
231.384	10.75
231.601	-1.54
231.819	70.14
232.037	74.24
232.254	-22.02
232.472	59.9
232.689	18.94
232.907	2.56
233.125	27.14
233.342	-11.78
233.56	29.18
233.777	51.71
233.995	33.28
234.213	37.38
234.43	-19.97
234.648	-3.58
234.865	16.9
235.083	74.24
235.3	59.9
235.518	-15.87
235.735	107.01
235.953	43.52
236.17	12.8
236.388	66.05
236.605	18.94
236.822	41.47
237.04	0.51
237.257	10.75
237.475	-38.4
237.692	92.67
237.909	57.86
238.127	66.05
238.344	-3.58
238.562	-19.97
238.779	-38.4
238.996	-48.64
239.214	12.8
239.431	25.09
239.648	0.51
239.865	18.94
240.083	41.47
240.3	27.14
240.517	78.33
240.735	16.9
240.952	41.47
241.169	27.14
241.386	49.66
241.603	-32.26
241.821	-22.02
242.038	25.09
242.255	10.75
242.472	-7.68
242.689	-22.02
242.907	117.25
243.124	0.51
243.341	33.28
243.558	-3.58
243.775	-52.74
243.992	-52.74
244.209	-11.78
244.426	98.81
244.643	88.57
244.86	-1.54
245.078	53.76
245.295	0.51
245.512	-30.21
245.729	-40.45
245.946	-7.68
246.163	-75.26
246.38	23.04
246.597	10.75
246.814	4.61
247.031	-13.82
247.248	18.94
247.464	35.33
247.681	0.51
247.898	127.49
248.115	61.95
248.332	-5.63
248.549	37.38
248.766	-15.87
248.983	49.66
249.2	35.33
249.417	45.57
249.633	35.33
249.85	43.52
250.067	-32.26
250.284	-36.35
250.501	90.62
250.717	78.33
250.934	20.99
251.151	-24.06
251.368	-22.02
251.585	33.28
251.801	33.28
252.018	-3.58
252.235	-116.22
252.451	-24.06
252.668	76.29
252.885	131.58
253.102	33.28
253.318	23.04
253.535	107.01
253.752	-54.78
253.968	20.99
254.185	-67.07
254.401	76.29
254.618	37.38
254.835	0.51
255.051	107.01
255.268	43.52
255.484	35.33
255.701	-34.3
255.917	12.8
256.134	-26.11
256.351	43.52
256.567	4.61
256.784	-19.97
257	4.61
257.217	90.62
257.433	68.09
257.65	92.67
257.866	8.7
258.082	-56.83
258.299	-24.06
258.515	-19.97
258.732	-19.97
258.948	-65.02
259.165	-5.63
259.381	10.75
259.597	57.86
259.814	-22.02
260.03	35.33
260.246	66.05
260.463	64
260.679	-46.59
260.895	-38.4
261.112	111.1
261.328	53.76
261.544	-24.06
261.761	53.76
261.977	-15.87
262.193	12.8
262.409	41.47
262.626	41.47
262.842	10.75
263.058	16.9
263.274	-28.16
263.49	10.75
263.707	-9.73
263.923	59.9
264.139	27.14
264.355	-24.06
264.571	98.81
264.787	-15.87
265.004	-13.82
265.22	-15.87
265.436	-44.54
265.652	4.61
265.868	57.86
266.084	-40.45
266.3	66.05
266.516	35.33
266.732	-46.59
266.948	72.19
267.164	57.86
267.38	10.75
267.596	-15.87
267.812	51.71
268.028	51.71
268.244	23.04
268.46	51.71
268.676	-9.73
268.892	41.47
269.108	-89.6
269.324	12.8
269.54	-11.78
269.756	35.33
269.972	-9.73
270.188	35.33
270.403	49.66
270.619	29.18
270.835	76.29
271.051	131.58
271.267	47.62
271.483	8.7
271.698	8.7
271.914	-28.16
272.13	16.9
272.346	16.9
272.562	-50.69
272.777	53.76
272.993	10.75
273.209	-5.63
273.425	-1.54
273.64	66.05
273.856	-52.74
274.072	8.7
274.287	0.51
274.503	29.18
274.719	76.29
274.934	6.66
275.15	-24.06
275.366	84.48
275.581	-11.78
275.797	29.18
276.012	-62.98
276.228	16.9
276.444	35.33
276.659	66.05
276.875	-7.68
277.09	20.99
277.306	33.28
277.521	82.43
277.737	16.9
277.952	27.14
278.168	102.91
278.383	53.76
278.599	16.9
278.814	25.09
279.03	16.9
279.245	-38.4
279.461	29.18
279.676	76.29
279.892	90.62
280.107	57.86
280.322	16.9
280.538	14.85
280.753	80.38
280.969	76.29
281.184	8.7
281.399	74.24
281.615	59.9
281.83	10.75
282.045	-7.68
282.26	-26.11
282.476	39.42
282.691	10.75
282.906	2.56
283.122	25.09
283.337	27.14
283.552	8.7
283.767	-77.31
283.983	59.9
284.198	-11.78
284.413	100.86
284.628	-3.58
284.843	-3.58
285.058	100.86
285.274	57.86
285.489	-24.06
285.704	82.43
285.919	27.14
286.134	86.53
286.349	-9.73
286.564	-46.59
286.779	-24.06
286.995	57.86
287.21	4.61
287.425	-38.4
287.64	82.43
287.855	16.9
288.07	-9.73
288.285	-28.16
288.5	78.33
288.715	49.66
288.93	-24.06
289.145	-13.82
289.36	72.19
289.575	74.24
289.79	29.18
290.004	39.42
290.219	-7.68
290.434	119.29
290.649	6.66
290.864	-32.26
291.079	-15.87
291.294	-3.58
291.509	16.9
291.724	43.52
291.938	16.9
292.153	107.01
292.368	-17.92
292.583	25.09
292.798	45.57
293.012	4.61
293.227	-26.11
293.442	68.09
293.657	92.67
293.871	117.25
294.086	90.62
294.301	84.48
294.516	41.47
294.73	-73.21
294.945	-26.11
295.16	8.7
295.374	127.49
295.589	53.76
295.804	41.47
296.018	-22.02
296.233	123.39
296.447	72.19
296.662	-36.35
296.877	-65.02
297.091	12.8
297.306	111.1
297.52	-9.73
297.735	84.48
297.949	16.9
298.164	53.76
298.378	41.47
298.593	14.85
298.807	-19.97
299.022	37.38
299.236	2.56
299.451	8.7
299.665	25.09
299.88	8.7
300.094	16.9
300.309	-19.97
300.523	-46.59
300.737	27.14
300.952	66.05
301.166	49.66
301.381	-30.21
301.595	-5.63
301.809	45.57
302.024	12.8
302.238	68.09
302.452	98.81
302.667	10.75
302.881	90.62
303.095	51.71
303.309	-46.59
303.524	29.18
303.738	6.66
303.952	-17.92
304.166	94.72
304.381	0.51
304.595	43.52
304.809	59.9
305.023	76.29
305.237	-60.93
305.452	27.14
305.666	29.18
305.88	10.75
306.094	39.42
306.308	41.47
306.522	20.99
306.736	74.24
306.95	33.28
307.164	33.28
307.379	16.9
307.593	29.18
307.807	25.09
308.021	-38.4
308.235	18.94
308.449	16.9
308.663	23.04
308.877	82.43
309.091	16.9
309.305	33.28
309.519	-60.93
309.733	98.81
309.947	4.61
310.161	43.52
310.374	41.47
310.588	31.23
310.802	35.33
311.016	29.18
311.23	33.28
311.444	57.86
311.658	16.9
311.872	29.18
312.085	31.23
312.299	109.05
312.513	68.09
312.727	27.14
312.941	-32.26
313.154	49.66
313.368	-38.4
313.582	107.01
313.796	92.67
314.009	66.05
314.223	94.72
314.437	43.52
314.651	45.57
314.864	-1.54
315.078	0.51
315.292	-71.17
315.505	31.23
315.719	45.57
315.933	-1.54
316.146	31.23
316.36	-19.97
316.573	98.81
316.787	8.7
317.001	82.43
317.214	33.28
317.428	35.33
317.641	41.47
317.855	41.47
318.068	70.14
318.282	0.51
318.495	76.29
318.709	51.71
318.922	18.94
319.136	59.9
319.349	33.28
319.563	37.38
319.776	47.62
319.99	-30.21
320.203	49.66
320.417	-15.87
320.63	109.05
320.843	76.29
321.057	94.72
321.27	27.14
321.483	10.75
321.697	107.01
321.91	123.39
322.124	29.18
322.337	27.14
322.55	6.66
322.763	18.94
322.977	113.15
323.19	-1.54
323.403	27.14
323.617	18.94
323.83	66.05
324.043	45.57
324.256	-7.68
324.469	25.09
324.683	33.28
324.896	57.86
325.109	33.28
325.322	-30.21
325.535	82.43
325.748	39.42
325.962	-65.02
326.175	-24.06
326.388	39.42
326.601	-7.68
326.814	55.81
327.027	0.51
327.24	27.14
327.453	-54.78
327.666	-13.82
327.879	-44.54
328.092	64
328.305	49.66
328.518	70.14
328.731	43.52
328.944	-15.87
329.157	92.67
329.37	92.67
329.583	70.14
329.796	20.99
330.009	-9.73
330.222	20.99
330.435	6.66
330.648	82.43
330.861	-34.3
331.073	29.18
331.286	57.86
331.499	-17.92
331.712	10.75
331.925	-22.02
332.138	23.04
332.35	70.14
332.563	57.86
332.776	68.09
332.989	23.04
333.202	0.51
333.414	33.28
333.627	-13.82
333.84	16.9
334.053	37.38
334.265	-9.73
334.478	51.71
334.691	66.05
334.903	4.61
335.116	-11.78
335.329	43.52
335.541	18.94
335.754	53.76
335.966	31.23
336.179	14.85
336.392	49.66
336.604	94.72
336.817	12.8
337.029	59.9
337.242	33.28
337.454	49.66
337.667	27.14
337.88	68.09
338.092	31.23
338.305	29.18
338.517	33.28
338.729	53.76
338.942	84.48
339.154	39.42
339.367	2.56
339.579	-19.97
339.792	-69.12
340.004	49.66
340.217	37.38
340.429	-79.36
340.641	-22.02
340.854	70.14
341.066	33.28
341.278	-7.68
341.491	-13.82
341.703	2.56
341.915	-44.54
342.128	47.62
342.34	18.94
342.552	37.38
342.764	33.28
342.977	51.71
343.189	76.29
343.401	33.28
343.613	25.09
343.826	-11.78
344.038	33.28
344.25	78.33
344.462	41.47
344.674	10.75
344.886	33.28
345.099	107.01
345.311	33.28
345.523	94.72
345.735	20.99
345.947	-5.63
346.159	-48.64
346.371	-11.78
346.583	64
346.795	66.05
347.007	-32.26
347.219	59.9
347.431	25.09
347.643	41.47
347.855	53.76
348.067	98.81
348.279	16.9
348.491	66.05
348.703	59.9
348.915	70.14
349.127	49.66
349.339	80.38
349.551	20.99
349.763	20.99
349.975	-32.26
350.187	16.9
350.399	18.94
350.61	82.43
350.822	6.66
351.034	6.66
351.246	33.28
351.458	49.66
351.669	123.39
351.881	111.1
352.093	90.62
352.305	66.05
352.517	29.18
352.728	16.9
352.94	16.9
353.152	-46.59
353.363	37.38
353.575	74.24
353.787	131.58
353.999	90.62
354.21	88.57
354.422	-24.06
354.633	20.99
354.845	-13.82
355.057	10.75
355.268	113.15
355.48	49.66
355.692	59.9
355.903	0.51
356.115	45.57
356.326	-60.93
356.538	78.33
356.749	66.05
356.961	90.62
357.172	45.57
357.384	-46.59
357.595	53.76
357.807	-24.06
358.018	18.94
358.23	8.7
358.441	55.81
358.653	37.38
358.864	-5.63
359.075	41.47
359.287	-40.45
359.498	80.38
359.709	94.72
359.921	66.05
360.132	86.53
360.344	59.9
360.555	6.66
360.766	12.8
360.977	-54.78
361.189	-32.26
361.4	37.38
361.611	59.9
361.823	74.24
362.034	16.9
362.245	12.8
362.456	-5.63
362.667	33.28
362.879	20.99
363.09	27.14
363.301	70.14
363.512	12.8
363.723	-54.78
363.935	-65.02
364.146	45.57
364.357	43.52
364.568	-26.11
364.779	2.56
364.99	76.29
365.201	-5.63
365.412	6.66
365.623	-17.92
365.834	10.75
366.045	57.86
366.256	86.53
366.467	18.94
366.678	6.66
366.889	10.75
367.1	25.09
367.311	35.33
367.522	33.28
367.733	61.95
367.944	14.85
368.155	100.86
368.366	41.47
368.577	57.86
368.788	2.56
368.999	-19.97
369.209	35.33
369.42	131.58
369.631	57.86
369.842	41.47
370.053	8.7
370.264	-24.06
370.474	25.09
370.685	43.52
370.896	-5.63
371.107	31.23
371.317	86.53
371.528	23.04
371.739	74.24
371.95	16.9
372.16	57.86
372.371	-30.21
372.582	25.09
372.792	51.71
373.003	102.91
373.214	80.38
373.424	86.53
373.635	27.14
373.846	96.77
374.056	82.43
374.267	14.85
374.477	66.05
374.688	-54.78
374.898	109.05
375.109	66.05
375.319	-15.87
375.53	100.86
375.74	64
375.951	8.7
376.161	100.86
376.372	53.76
376.582	51.71
376.793	102.91
377.003	74.24
377.214	-58.88
377.424	10.75
377.635	-22.02
377.845	-30.21
378.055	45.57
378.266	27.14
378.476	12.8
378.686	61.95
378.897	76.29
379.107	98.81
379.317	72.19
379.528	-38.4
379.738	33.28
379.948	35.33
380.158	94.72
380.369	74.24
380.579	33.28
380.789	80.38
380.999	82.43
381.21	59.9
381.42	121.34
381.63	47.62
381.84	8.7
382.05	35.33
382.261	51.71
382.471	72.19
382.681	16.9
382.891	92.67
383.101	-40.45
383.311	49.66
383.521	0.51
383.731	16.9
383.941	8.7
384.151	84.48
384.361	61.95
384.571	35.33
384.781	66.05
384.991	74.24
385.201	57.86
385.411	82.43
385.621	-42.5
385.831	-19.97
386.041	59.9
386.251	2.56
386.461	139.77
386.671	53.76
386.881	59.9
387.091	8.7
387.301	41.47
387.511	-50.69
387.72	90.62
387.93	18.94
388.14	4.61
388.35	10.75
388.56	100.86
388.769	68.09
388.979	70.14
389.189	20.99
389.399	-22.02
389.609	70.14
389.818	59.9
390.028	43.52
390.238	16.9
390.447	27.14
390.657	127.49
390.867	43.52
391.076	18.94
391.286	133.63
391.496	51.71
391.705	61.95
391.915	119.29
392.125	111.1
392.334	37.38
392.544	82.43
392.753	31.23
392.963	78.33
393.172	-7.68
393.382	-15.87
393.591	147.97
393.801	90.62
394.01	160.25
394.22	96.77
394.429	86.53
394.639	8.7
394.848	74.24
395.058	47.62
395.267	49.66
395.477	98.81
395.686	84.48
395.895	221.69
396.105	154.11
396.314	61.95
396.524	133.63
396.733	16.9
396.942	90.62
397.152	23.04
397.361	92.67
397.57	84.48
397.78	80.38
397.989	102.91
398.198	90.62
398.407	33.28
398.617	66.05
398.826	-5.63
399.035	72.19
399.244	100.86
399.453	8.7
399.663	123.39
399.872	80.38
400.081	27.14
400.29	78.33
400.499	86.53
400.708	133.63
400.917	78.33
401.127	70.14
401.336	180.73
401.545	135.68
401.754	164.35
401.963	147.97
402.172	137.73
402.381	72.19
402.59	70.14
402.799	84.48
403.008	131.58
403.217	123.39
403.426	80.38
403.635	25.09
403.844	190.97
404.053	166.4
404.262	98.81
404.471	217.6
404.68	70.14
404.888	150.01
405.097	115.2
405.306	121.34
405.515	172.54
405.724	123.39
405.933	156.16
406.142	164.35
406.35	170.49
406.559	143.87
406.768	225.79
406.977	197.12
407.185	221.69
407.394	162.3
407.603	178.69
407.812	156.16
408.02	254.46
408.229	190.97
408.438	272.89
408.646	143.87
408.855	184.83
409.064	313.85
409.272	279.04
409.481	256.51
409.69	283.13
409.898	219.64
410.107	295.42
410.315	328.19
410.524	250.36
410.733	295.42
410.941	225.79
411.15	305.66
411.358	412.15
411.567	379.39
411.775	320
411.984	410.11
412.192	334.33
412.401	469.5
412.609	444.92
412.818	496.12
413.026	471.54
413.234	467.45
413.443	442.87
413.651	573.94
413.86	473.59
414.068	573.94
414.276	625.14
414.485	526.84
414.693	641.53
414.901	696.82
415.11	657.91
415.318	647.67
415.526	756.21
415.734	698.87
415.943	725.49
416.151	807.41
416.359	762.36
416.567	786.93
416.776	827.89
416.984	811.51
417.192	944.63
417.4	887.28
417.608	946.67
417.817	909.81
418.025	1042.93
418.233	1059.31
418.441	999.92
418.649	1110.51
418.857	1180.14
419.065	1180.14
419.273	1143.28
419.481	1217.01
419.689	1313.26
419.897	1221.1
420.105	1235.44
420.313	1425.9
420.521	1616.36
420.729	1505.77
420.937	1530.34
421.145	1606.12
421.353	1749.48
421.561	1769.96
421.769	1763.81
421.977	1839.59
422.185	1892.84
422.393	1995.23
422.601	1987.04
422.809	2109.92
423.017	2202.08
423.224	2097.63
423.432	2195.93
423.64	2255.33
423.848	2392.54
424.056	2451.93
424.263	2640.34
424.471	2630.1
424.679	2687.45
424.887	2785.75
425.094	2777.56
425.302	2978.26
425.51	2949.59
425.718	3105.23
425.925	3006.93
426.133	3301.84
426.341	3244.49
426.548	3514.83
426.756	3408.33
426.964	3596.75
427.171	3774.92
427.379	3998.15
427.586	4092.35
427.794	4149.7
428.001	4291.01
428.209	4604.35
428.417	4340.16
428.624	4796.85
428.832	4604.35
429.039	4704.7
429.247	4667.83
429.454	5177.78
429.662	5370.29
429.869	5126.58
430.076	5505.45
430.284	5341.61
430.491	5562.8
430.699	5865.89
430.906	6042.02
431.114	5919.14
431.321	6259.1
431.528	6347.17
431.736	6594.97
431.943	7020.95
432.15	6750.62
432.358	6887.83
432.565	7209.36
432.772	7246.23
432.979	7655.82
433.187	7700.87
433.394	7864.71
433.601	8219.01
433.808	8288.64
434.016	8259.97
434.223	8636.8
434.43	9017.72
434.637	8964.47
434.844	9523.57
435.052	9568.62
435.259	9548.14
435.466	9722.22
435.673	9660.78
435.88	10338.66
436.087	10742.11
436.294	10756.44
436.501	10361.19
436.708	10664.29
436.915	11059.54
437.122	11702.61
437.329	11454.8
437.537	11956.55
437.743	12257.6
437.95	12110.15
438.157	12693.82
438.364	13113.66
438.571	12904.76
438.778	13246.77
438.985	14367.01
439.192	13850.92
439.399	14328.1
439.606	13936.94
439.813	14627.1
440.02	15577.36
440.227	15272.21
440.433	15102.23
440.64	15655.19
440.847	15581.46
441.054	15778.06
441.261	17015.04
441.467	16677.12
441.674	17254.65
441.881	17441.01
442.088	17541.36
442.294	17473.78
442.501	18059.5
442.708	18180.33
442.914	19044.57
443.121	19910.86
443.328	19323.1
443.534	20482.25
443.741	20302.03
443.948	19859.66
444.154	21278.91
444.361	21102.78
444.568	21221.56
444.774	21389.5
444.981	21577.91
445.187	22089.9
445.394	23103.65
445.6	22667.43
445.807	24940.68
446.013	23732.37
446.22	24291.47
446.426	24948.87
446.633	25512.06
446.839	26318.96
447.046	25084.03
447.252	26589.29
447.459	26620.01
447.665	26429.55
447.871	27578.46
448.078	28999.75
448.284	27635.8
448.491	28024.92
448.697	29141.06
448.903	29694.01
449.11	29919.29
449.316	29057.09
449.522	29655.1
449.728	30736.43
449.935	31178.79
450.141	30738.47
450.347	31359.01
450.553	30711.85
450.76	30992.42
450.966	32120.85
451.172	31653.92
451.378	32299.03
451.584	31959.06
451.791	32600.08
451.997	32649.23
452.203	33482.75
452.409	32944.14
452.615	33564.67
452.821	31809.56
453.027	31598.62
453.233	33226.76
453.44	31723.55
453.646	32139.29
453.852	32649.23
454.058	33028.1
454.264	32000.02
454.47	32673.81
454.676	32034.84
454.882	33253.38
455.088	29827.13
455.294	30734.38
455.5	30965.8
455.705	31639.58
455.911	30324.79
456.117	29558.84
456.323	29378.62
456.529	27619.42
456.735	28817.48
456.941	28186.71
457.147	27916.37
457.352	27256.93
457.558	26652.78
457.764	26617.96
457.97	26460.27
458.176	25903.22
458.381	25942.13
458.587	24352.91
458.793	24584.33
458.999	23322.78
459.204	24645.77
459.41	24277.13
459.616	22823.08
459.821	22925.47
460.027	22833.32
460.233	22087.85
460.438	21078.21
460.644	21317.82
460.85	20388.04
461.055	19718.36
461.261	19837.14
461.466	18372.84
461.672	18034.92
461.878	19308.76
462.083	18032.88
462.289	17477.88
462.494	17428.73
462.7	16783.62
462.905	16279.82
463.111	16791.81
463.316	17000.7
463.522	16541.96
463.727	16212.23
463.932	16494.85
464.138	16185.61
464.343	16357.64
464.549	15714.58
464.754	16335.11
464.959	16214.28
465.165	15962.38
465.37	15323.41
465.575	15126.81
465.781	15694.1
465.986	15671.57
466.191	15042.84
466.397	14795.04
466.602	14315.81
466.807	14651.68
467.012	14698.78
467.218	14391.59
467.423	14346.53
467.628	14385.44
