Data from USB4F104151__77__14-17-31-330.txt Node

Date: Thu Mar 13 14:17:31 EDT 2025
User: louis
Spectrometer: USB4F10415
Trigger mode: 4
Integration Time (sec): 2.000000E-2
Scans to average: 1
Electric dark correction enabled: true
Nonlinearity correction enabled: false
Boxcar width: 0
XAxis mode: Wavelengths
Number of Pixels in Spectrum: 3648
>>>>>Begin Spectral Data<<<<<
178.204	-90.11
178.424	-90.11
178.644	-90.11
178.864	-126.97
179.084	-126.97
179.304	49.15
179.524	-20.48
179.744	-4.1
179.964	6.14
180.184	-73.73
180.404	104.45
180.624	4.1
180.844	49.15
181.064	-26.62
181.283	0
181.503	-79.87
181.723	-8.19
181.943	-45.06
182.163	65.53
182.383	16.38
182.602	34.82
182.822	-12.29
183.042	14.34
183.262	-38.91
183.482	-4.1
183.701	-32.77
183.921	20.48
184.141	-8.19
184.361	6.14
184.58	18.43
184.8	32.77
185.02	16.38
185.239	92.16
185.459	34.82
185.679	-14.34
185.898	-61.44
186.118	57.34
186.338	45.06
186.557	77.82
186.777	24.58
186.997	32.77
187.216	32.77
187.436	98.3
187.655	-20.48
187.875	0
188.095	-53.25
188.314	36.86
188.534	61.44
188.753	49.15
188.973	36.86
189.192	51.2
189.412	20.48
189.631	26.62
189.851	71.68
190.07	83.97
190.29	45.06
190.509	88.06
190.729	-8.19
190.948	81.92
191.168	176.13
191.387	28.67
191.607	18.43
191.826	57.34
192.045	49.15
192.265	-4.1
192.484	43.01
192.704	16.38
192.923	-24.58
193.142	83.97
193.362	14.34
193.581	51.2
193.8	24.58
194.02	26.62
194.239	63.49
194.458	57.34
194.678	59.39
194.897	16.38
195.116	20.48
195.335	51.2
195.555	14.34
195.774	18.43
195.993	94.21
196.212	90.11
196.432	4.1
196.651	22.53
196.87	-8.19
197.089	4.1
197.308	57.34
197.528	98.3
197.747	-2.05
197.966	49.15
198.185	51.2
198.404	28.67
198.623	59.39
198.842	77.82
199.062	49.15
199.281	30.72
199.5	12.29
199.719	49.15
199.938	-26.62
200.157	18.43
200.376	-12.29
200.595	67.58
200.814	20.48
201.033	26.62
201.252	110.59
201.471	-6.14
201.69	36.86
201.909	59.39
202.128	65.53
202.347	20.48
202.566	10.24
202.785	75.77
203.004	14.34
203.223	110.59
203.442	38.91
203.661	108.54
203.879	-30.72
204.098	49.15
204.317	-30.72
204.536	53.25
204.755	-2.05
204.974	73.73
205.193	32.77
205.411	126.97
205.63	20.48
205.849	45.06
206.068	-4.1
206.287	14.34
206.505	116.73
206.724	34.82
206.943	49.15
207.162	34.82
207.381	4.1
207.599	22.53
207.818	-40.96
208.037	38.91
208.255	22.53
208.474	-16.38
208.693	26.62
208.911	67.58
209.13	57.34
209.349	94.21
209.567	18.43
209.786	77.82
210.005	20.48
210.223	10.24
210.442	49.15
210.661	90.11
210.879	51.2
211.098	81.92
211.316	4.1
211.535	65.53
211.753	36.86
211.972	49.15
212.191	75.77
212.409	-8.19
212.628	38.91
212.846	-8.19
213.065	16.38
213.283	73.73
213.502	10.24
213.72	59.39
213.938	90.11
214.157	28.67
214.375	65.53
214.594	10.24
214.812	45.06
215.031	26.62
215.249	8.19
215.467	-12.29
215.686	-8.19
215.904	122.88
216.122	30.72
216.341	73.73
216.559	73.73
216.778	106.49
216.996	86.01
217.214	108.54
217.432	6.14
217.651	73.73
217.869	16.38
218.087	8.19
218.306	8.19
218.524	114.69
218.742	-26.62
218.96	110.59
219.179	61.44
219.397	18.43
219.615	131.07
219.833	122.88
220.051	40.96
220.27	69.63
220.488	49.15
220.706	0
220.924	2.05
221.142	12.29
221.36	94.21
221.578	0
221.796	-16.38
222.015	81.92
222.233	40.96
222.451	90.11
222.669	-28.67
222.887	92.16
223.105	26.62
223.323	24.58
223.541	-32.77
223.759	131.07
223.977	69.63
224.195	43.01
224.413	43.01
224.631	10.24
224.849	26.62
225.067	63.49
225.285	43.01
225.503	-6.14
225.721	-75.77
225.939	38.91
226.157	20.48
226.375	34.82
226.592	59.39
226.81	53.25
227.028	137.21
227.246	4.1
227.464	-22.53
227.682	75.77
227.9	86.01
228.117	18.43
228.335	77.82
228.553	96.25
228.771	40.96
228.989	94.21
229.206	61.44
229.424	26.62
229.642	75.77
229.86	10.24
230.077	92.16
230.295	55.3
230.513	65.53
230.731	-12.29
230.948	65.53
231.166	24.58
231.384	26.62
231.601	49.15
231.819	24.58
232.037	6.14
232.254	-49.15
232.472	34.82
232.689	-24.58
232.907	75.77
233.125	69.63
233.342	-69.63
233.56	49.15
233.777	61.44
233.995	81.92
234.213	32.77
234.43	65.53
234.648	69.63
234.865	88.06
235.083	83.97
235.3	-16.38
235.518	59.39
235.735	153.6
235.953	55.3
236.17	47.1
236.388	26.62
236.605	10.24
236.822	49.15
237.04	88.06
237.257	36.86
237.475	16.38
237.692	137.21
237.909	16.38
238.127	43.01
238.344	65.53
238.562	75.77
238.779	26.62
238.996	16.38
239.214	16.38
239.431	122.88
239.648	34.82
239.865	90.11
240.083	30.72
240.3	-8.19
240.517	-24.58
240.735	8.19
240.952	67.58
241.169	-12.29
241.386	65.53
241.603	-28.67
241.821	-12.29
242.038	-24.58
242.255	38.91
242.472	24.58
242.689	100.35
242.907	-40.96
243.124	30.72
243.341	73.73
243.558	45.06
243.775	47.1
243.992	40.96
244.209	86.01
244.426	94.21
244.643	90.11
244.86	0
245.078	32.77
245.295	14.34
245.512	2.05
245.729	10.24
245.946	22.53
246.163	-8.19
246.38	75.77
246.597	43.01
246.814	94.21
247.031	61.44
247.248	61.44
247.464	24.58
247.681	-47.1
247.898	40.96
248.115	45.06
248.332	28.67
248.549	100.35
248.766	116.73
248.983	114.69
249.2	0
249.417	90.11
249.633	59.39
249.85	73.73
250.067	40.96
250.284	-40.96
250.501	-47.1
250.717	98.3
250.934	-8.19
251.151	-22.53
251.368	51.2
251.585	16.38
251.801	118.78
252.018	-30.72
252.235	32.77
252.451	8.19
252.668	20.48
252.885	86.01
253.102	59.39
253.318	16.38
253.535	65.53
253.752	-22.53
253.968	26.62
254.185	10.24
254.401	69.63
254.618	-28.67
254.835	0
255.051	40.96
255.268	57.34
255.484	71.68
255.701	18.43
255.917	0
256.134	73.73
256.351	12.29
256.567	6.14
256.784	26.62
257	-14.34
257.217	55.3
257.433	-43.01
257.65	90.11
257.866	43.01
258.082	18.43
258.299	20.48
258.515	102.4
258.732	38.91
258.948	36.86
259.165	40.96
259.381	-22.53
259.597	12.29
259.814	53.25
260.03	22.53
260.246	43.01
260.463	0
260.679	57.34
260.895	-32.77
261.112	43.01
261.328	83.97
261.544	-12.29
261.761	73.73
261.977	57.34
262.193	-32.77
262.409	124.93
262.626	32.77
262.842	73.73
263.058	43.01
263.274	57.34
263.49	63.49
263.707	92.16
263.923	32.77
264.139	45.06
264.355	75.77
264.571	124.93
264.787	32.77
265.004	88.06
265.22	20.48
265.436	-32.77
265.652	10.24
265.868	18.43
266.084	0
266.3	106.49
266.516	43.01
266.732	-12.29
266.948	65.53
267.164	-16.38
267.38	92.16
267.596	73.73
267.812	67.58
268.028	135.17
268.244	8.19
268.46	4.1
268.676	8.19
268.892	-18.43
269.108	32.77
269.324	-20.48
269.54	26.62
269.756	26.62
269.972	-8.19
270.188	2.05
270.403	-57.34
270.619	47.1
270.835	120.83
271.051	57.34
271.267	69.63
271.483	24.58
271.698	28.67
271.914	57.34
272.13	47.1
272.346	-59.39
272.562	43.01
272.777	24.58
272.993	75.77
273.209	83.97
273.425	55.3
273.64	10.24
273.856	57.34
274.072	43.01
274.287	75.77
274.503	98.3
274.719	49.15
274.934	59.39
275.15	28.67
275.366	96.25
275.581	69.63
275.797	18.43
276.012	6.14
276.228	20.48
276.444	26.62
276.659	102.4
276.875	100.35
277.09	49.15
277.306	57.34
277.521	57.34
277.737	36.86
277.952	53.25
278.168	61.44
278.383	65.53
278.599	45.06
278.814	10.24
279.03	81.92
279.245	45.06
279.461	51.2
279.676	86.01
279.892	28.67
280.107	-8.19
280.322	49.15
280.538	45.06
280.753	45.06
280.969	-6.14
281.184	38.91
281.399	124.93
281.615	53.25
281.83	34.82
282.045	-24.58
282.26	86.01
282.476	12.29
282.691	104.45
282.906	8.19
283.122	67.58
283.337	10.24
283.552	57.34
283.767	57.34
283.983	65.53
284.198	0
284.413	22.53
284.628	-47.1
284.843	69.63
285.058	38.91
285.274	24.58
285.489	53.25
285.704	118.78
285.919	61.44
286.134	2.05
286.349	-18.43
286.564	-8.19
286.779	81.92
286.995	40.96
287.21	-8.19
287.425	100.35
287.64	32.77
287.855	32.77
288.07	34.82
288.285	92.16
288.5	10.24
288.715	6.14
288.93	18.43
289.145	34.82
289.36	73.73
289.575	51.2
289.79	20.48
290.004	73.73
290.219	26.62
290.434	8.19
290.649	45.06
290.864	4.1
291.079	-36.86
291.294	-8.19
291.509	-36.86
291.724	59.39
291.938	0
292.153	53.25
292.368	49.15
292.583	67.58
292.798	75.77
293.012	53.25
293.227	32.77
293.442	40.96
293.657	40.96
293.871	32.77
294.086	4.1
294.301	65.53
294.516	49.15
294.73	102.4
294.945	24.58
295.16	16.38
295.374	81.92
295.589	73.73
295.804	-28.67
296.018	61.44
296.233	86.01
296.447	-6.14
296.662	34.82
296.877	43.01
297.091	81.92
297.306	96.25
297.52	38.91
297.735	51.2
297.949	73.73
298.164	4.1
298.378	57.34
298.593	67.58
298.807	26.62
299.022	51.2
299.236	122.88
299.451	49.15
299.665	90.11
299.88	73.73
300.094	45.06
300.309	73.73
300.523	81.92
300.737	40.96
300.952	61.44
301.166	65.53
301.381	-16.38
301.595	40.96
301.809	38.91
302.024	47.1
302.238	98.3
302.452	34.82
302.667	53.25
302.881	57.34
303.095	75.77
303.309	51.2
303.524	12.29
303.738	-14.34
303.952	51.2
304.166	98.3
304.381	20.48
304.595	143.36
304.809	8.19
305.023	49.15
305.237	32.77
305.452	67.58
305.666	4.1
305.88	108.54
306.094	106.49
306.308	67.58
306.522	110.59
306.736	65.53
306.95	-40.96
307.164	51.2
307.379	16.38
307.593	32.77
307.807	-28.67
308.021	34.82
308.235	43.01
308.449	-30.72
308.663	-16.38
308.877	40.96
309.091	-28.67
309.305	12.29
309.519	30.72
309.733	75.77
309.947	-12.29
310.161	34.82
310.374	79.87
310.588	133.12
310.802	30.72
311.016	-10.24
311.23	0
311.444	0
311.658	18.43
311.872	57.34
312.085	110.59
312.299	92.16
312.513	83.97
312.727	88.06
312.941	47.1
313.154	26.62
313.368	-36.86
313.582	45.06
313.796	90.11
314.009	83.97
314.223	92.16
314.437	49.15
314.651	36.86
314.864	77.82
315.078	34.82
315.292	10.24
315.505	34.82
315.719	114.69
315.933	4.1
316.146	83.97
316.36	69.63
316.573	32.77
316.787	75.77
317.001	90.11
317.214	71.68
317.428	79.87
317.641	18.43
317.855	32.77
318.068	-24.58
318.282	40.96
318.495	92.16
318.709	129.02
318.922	57.34
319.136	77.82
319.349	45.06
319.563	49.15
319.776	20.48
319.99	65.53
320.203	-2.05
320.417	63.49
320.63	126.97
320.843	90.11
321.057	65.53
321.27	34.82
321.483	-24.58
321.697	0
321.91	36.86
322.124	106.49
322.337	-38.91
322.55	59.39
322.763	124.93
322.977	28.67
323.19	10.24
323.403	110.59
323.617	100.35
323.83	141.31
324.043	18.43
324.256	92.16
324.469	40.96
324.683	32.77
324.896	49.15
325.109	55.3
325.322	69.63
325.535	61.44
325.748	26.62
325.962	36.86
326.175	18.43
326.388	81.92
326.601	67.58
326.814	18.43
327.027	43.01
327.24	86.01
327.453	-24.58
327.666	-40.96
327.879	69.63
328.092	108.54
328.305	43.01
328.518	-12.29
328.731	49.15
328.944	63.49
329.157	61.44
329.37	49.15
329.583	106.49
329.796	153.6
330.009	-45.06
330.222	124.93
330.435	12.29
330.648	131.07
330.861	51.2
331.073	-6.14
331.286	139.26
331.499	-2.05
331.712	4.1
331.925	55.3
332.138	86.01
332.35	61.44
332.563	-6.14
332.776	86.01
332.989	-16.38
333.202	75.77
333.414	49.15
333.627	73.73
333.84	45.06
334.053	8.19
334.265	-22.53
334.478	-71.68
334.691	86.01
334.903	61.44
335.116	131.07
335.329	-16.38
335.541	100.35
335.754	90.11
335.966	65.53
336.179	24.58
336.392	112.64
336.604	81.92
336.817	73.73
337.029	73.73
337.242	14.34
337.454	114.69
337.667	43.01
337.88	0
338.092	47.1
338.305	92.16
338.517	67.58
338.729	69.63
338.942	71.68
339.154	86.01
339.367	28.67
339.579	71.68
339.792	16.38
340.004	106.49
340.217	49.15
340.429	73.73
340.641	63.49
340.854	57.34
341.066	43.01
341.278	116.73
341.491	81.92
341.703	57.34
341.915	57.34
342.128	106.49
342.34	65.53
342.552	34.82
342.764	18.43
342.977	75.77
343.189	49.15
343.401	43.01
343.613	12.29
343.826	8.19
344.038	36.86
344.25	100.35
344.462	49.15
344.674	118.78
344.886	20.48
345.099	83.97
345.311	73.73
345.523	110.59
345.735	-30.72
345.947	0
346.159	-20.48
346.371	40.96
346.583	98.3
346.795	47.1
347.007	47.1
347.219	59.39
347.431	139.26
347.643	69.63
347.855	57.34
348.067	92.16
348.279	45.06
348.491	-6.14
348.703	-2.05
348.915	67.58
349.127	53.25
349.339	75.77
349.551	0
349.763	116.73
349.975	43.01
350.187	59.39
350.399	96.25
350.61	2.05
350.822	26.62
351.034	16.38
351.246	53.25
351.458	43.01
351.669	32.77
351.881	86.01
352.093	75.77
352.305	40.96
352.517	-16.38
352.728	14.34
352.94	61.44
353.152	83.97
353.363	8.19
353.575	106.49
353.787	32.77
353.999	114.69
354.21	90.11
354.422	10.24
354.633	-30.72
354.845	32.77
355.057	73.73
355.268	51.2
355.48	40.96
355.692	32.77
355.903	69.63
356.115	63.49
356.326	65.53
356.538	67.58
356.749	104.45
356.961	59.39
357.172	59.39
357.384	55.3
357.595	55.3
357.807	116.73
358.018	43.01
358.23	51.2
358.441	120.83
358.653	155.65
358.864	-12.29
359.075	83.97
359.287	61.44
359.498	92.16
359.709	86.01
359.921	51.2
360.132	110.59
360.344	57.34
360.555	86.01
360.766	57.34
360.977	55.3
361.189	69.63
361.4	22.53
361.611	131.07
361.823	45.06
362.034	-22.53
362.245	12.29
362.456	26.62
362.667	63.49
362.879	53.25
363.09	-8.19
363.301	53.25
363.512	104.45
363.723	14.34
363.935	0
364.146	24.58
364.357	79.87
364.568	126.97
364.779	65.53
364.99	100.35
365.201	-8.19
365.412	65.53
365.623	28.67
365.834	59.39
366.045	20.48
366.256	143.36
366.467	36.86
366.678	102.4
366.889	38.91
367.1	28.67
367.311	40.96
367.522	92.16
367.733	67.58
367.944	90.11
368.155	67.58
368.366	157.69
368.577	57.34
368.788	120.83
368.999	40.96
369.209	65.53
369.42	106.49
369.631	106.49
369.842	126.97
370.053	26.62
370.264	147.45
370.474	20.48
370.685	118.78
370.896	51.2
371.107	61.44
371.317	45.06
371.528	69.63
371.739	77.82
371.95	69.63
372.16	61.44
372.371	94.21
372.582	45.06
372.792	98.3
373.003	32.77
373.214	57.34
373.424	55.3
373.635	16.38
373.846	40.96
374.056	16.38
374.267	77.82
374.477	63.49
374.688	65.53
374.898	71.68
375.109	98.3
375.319	108.54
375.53	65.53
375.74	40.96
375.951	65.53
376.161	0
376.372	24.58
376.582	28.67
376.793	98.3
377.003	45.06
377.214	57.34
377.424	81.92
377.635	77.82
377.845	59.39
378.055	77.82
378.266	61.44
378.476	-8.19
378.686	83.97
378.897	49.15
379.107	94.21
379.317	149.5
379.528	90.11
379.738	86.01
379.948	8.19
380.158	77.82
380.369	40.96
380.579	49.15
380.789	92.16
380.999	24.58
381.21	43.01
381.42	106.49
381.63	-36.86
381.84	36.86
382.05	67.58
382.261	163.84
382.471	73.73
382.681	-16.38
382.891	102.4
383.101	90.11
383.311	-2.05
383.521	81.92
383.731	118.78
383.941	118.78
384.151	26.62
384.361	51.2
384.571	86.01
384.781	36.86
384.991	88.06
385.201	36.86
385.411	57.34
385.621	124.93
385.831	34.82
386.041	75.77
386.251	45.06
386.461	94.21
386.671	12.29
386.881	67.58
387.091	49.15
387.301	40.96
387.511	59.39
387.72	116.73
387.93	180.22
388.14	63.49
388.35	112.64
388.56	73.73
388.769	110.59
388.979	55.3
389.189	38.91
389.399	92.16
389.609	24.58
389.818	184.32
390.028	36.86
390.238	129.02
390.447	36.86
390.657	131.07
390.867	102.4
391.076	51.2
391.286	-2.05
391.496	112.64
391.705	83.97
391.915	57.34
392.125	71.68
392.334	69.63
392.544	40.96
392.753	73.73
392.963	43.01
393.172	86.01
393.382	133.12
393.591	98.3
393.801	86.01
394.01	118.78
394.22	59.39
394.429	57.34
394.639	122.88
394.848	129.02
395.058	151.55
395.267	108.54
395.477	149.5
395.686	122.88
395.895	182.27
396.105	69.63
396.314	83.97
396.524	147.45
396.733	133.12
396.942	126.97
397.152	98.3
397.361	139.26
397.57	122.88
397.78	75.77
397.989	71.68
398.198	151.55
398.407	112.64
398.617	92.16
398.826	92.16
399.035	45.06
399.244	151.55
399.453	147.45
399.663	172.03
399.872	155.65
400.081	51.2
400.29	184.32
400.499	67.58
400.708	141.31
400.917	212.99
401.127	94.21
401.336	114.69
401.545	114.69
401.754	135.17
401.963	202.75
402.172	108.54
402.381	133.12
402.59	161.79
402.799	221.18
403.008	178.17
403.217	106.49
403.426	188.41
403.635	129.02
403.844	151.55
404.053	116.73
404.262	108.54
404.471	253.95
404.68	149.5
404.888	221.18
405.097	221.18
405.306	180.22
405.515	237.56
405.724	237.56
405.933	88.06
406.142	256
406.35	229.37
406.559	206.84
406.768	217.08
406.977	196.61
407.185	200.7
407.394	163.84
407.603	239.61
407.812	268.28
408.02	262.14
408.229	249.85
408.438	278.52
408.646	172.03
408.855	321.53
409.064	299
409.272	313.34
409.481	323.58
409.69	348.15
409.898	352.25
410.107	331.77
410.315	395.26
410.524	327.67
410.733	401.4
410.941	450.55
411.15	428.03
411.358	417.79
411.567	454.65
411.775	550.9
411.984	475.13
412.192	567.29
412.401	493.56
412.609	626.68
412.818	620.53
413.026	704.5
413.234	638.97
413.443	686.07
413.651	704.5
413.86	720.88
414.068	724.98
414.276	780.28
414.485	661.49
414.693	745.46
414.901	837.62
415.11	831.48
415.318	782.32
415.526	901.11
415.734	925.68
415.943	987.12
416.151	1023.98
416.359	991.22
416.567	1023.98
416.776	993.26
416.984	1161.2
417.192	1216.49
417.4	1163.25
417.608	1230.83
417.817	1193.97
418.025	1296.36
418.233	1273.84
418.441	1400.81
418.649	1429.48
418.857	1540.07
419.065	1556.46
419.273	1513.45
419.481	1703.91
419.689	1757.16
419.897	1853.41
420.105	1863.65
420.313	1888.23
420.521	1916.9
420.729	2019.3
420.937	2123.74
421.145	2093.02
421.353	2170.85
421.561	2369.5
421.769	2437.08
421.977	2519
422.185	2553.82
422.393	2613.21
422.601	2863.06
422.809	2760.66
423.017	2760.66
423.224	2779.09
423.432	2981.84
423.64	3026.9
423.848	3456.97
424.056	3164.11
424.263	3377.1
424.471	3538.89
424.679	3477.45
424.887	3755.97
425.094	3741.64
425.302	3710.92
425.51	3950.53
425.718	4091.84
425.925	4106.18
426.133	4186.05
426.341	4440
426.548	4775.86
426.756	4595.64
426.964	4745.14
427.171	5009.33
427.379	5152.69
427.586	5275.57
427.794	5279.66
428.001	5771.18
428.209	5777.32
428.417	5818.28
428.624	6264.74
428.832	6348.7
429.039	6154.15
429.247	6256.54
429.454	6791.06
429.662	7176.08
429.869	6721.43
430.076	7176.08
430.284	7161.75
430.491	7296.91
430.699	7724.94
430.906	7628.68
431.114	7753.61
431.321	8058.76
431.528	8378.24
431.736	8851.32
431.943	9097.08
432.15	8929.14
432.358	8875.9
432.565	9543.53
432.772	9398.13
432.979	10065.77
433.187	10078.05
433.394	10209.12
433.601	10878.81
433.808	10897.24
434.016	11003.74
434.223	11310.93
434.43	11951.95
434.637	11716.43
434.844	12388.16
435.052	12666.69
435.259	12488.51
435.466	12726.08
435.673	12529.47
435.88	13483.83
436.087	14262.05
436.294	14284.58
436.501	13752.11
436.708	14112.55
436.915	14630.69
437.122	15181.59
437.329	15308.57
437.537	15761.17
437.743	15650.58
437.95	15847.18
438.157	16469.76
438.364	17096.44
438.571	16987.9
438.778	17387.25
438.985	18595.56
439.192	17731.31
439.399	18530.02
439.606	18083.56
439.813	19064.54
440.02	20494.02
440.227	19941.07
440.433	19701.46
440.64	20643.53
440.847	20453.06
441.054	20823.75
441.261	22267.56
441.467	21849.78
441.674	22544.04
441.881	23103.14
442.088	23312.03
442.294	23015.07
442.501	23539.35
442.708	23873.17
442.914	24649.35
443.121	25923.19
443.328	25153.15
443.534	27260.51
443.741	26328.69
443.948	25939.57
444.154	27688.54
444.361	27629.15
444.568	27723.35
444.774	27602.52
444.981	27958.87
445.187	28759.63
445.394	29984.31
445.6	29869.62
445.807	32298.52
446.013	31075.88
446.22	31751.71
446.426	32939.53
446.633	33162.76
446.839	34004.47
447.046	32704.01
447.252	33949.18
447.459	34555.38
447.665	34295.28
447.871	35888.6
448.078	37502.4
448.284	35622.37
448.491	36955.6
448.697	37983.68
448.903	38780.34
449.11	39097.77
449.316	38211
449.522	38884.78
449.728	39947.68
449.935	40154.52
450.141	39871.9
450.347	40940.94
450.553	39751.07
450.76	40324.5
450.966	41260.43
451.172	41178.51
451.378	42349.95
451.584	41252.23
451.791	42390.91
451.997	42155.39
452.203	42829.17
452.409	42743.16
452.615	42597.75
452.821	40668.56
453.027	40856.98
453.233	42825.07
453.44	40813.97
453.646	41598.34
453.852	41573.77
454.058	42456.44
454.264	40637.84
454.47	42114.43
454.676	40854.93
454.882	42151.29
455.088	38569.4
455.294	39226.79
455.5	39724.45
455.705	40246.68
455.911	38368.69
456.117	37862.85
456.323	37344.71
456.529	35118.57
456.735	37236.17
456.941	36271.57
457.147	35245.54
457.352	34698.73
457.558	34473.46
457.764	34233.85
457.97	33564.16
458.176	32687.63
458.381	32701.97
458.587	31376.93
458.793	31157.8
458.999	29681.21
459.204	31616.54
459.41	30934.57
459.616	28755.53
459.821	28671.56
460.027	28823.11
460.233	28065.36
460.438	27039.33
460.644	27268.7
460.85	25847.41
461.055	25816.69
461.261	25304.7
461.466	23531.16
461.672	22701.73
461.878	24368.78
462.083	22961.83
462.289	22326.96
462.494	22001.33
462.7	21139.13
462.905	20690.63
463.111	21495.48
463.316	21325.5
463.522	21186.24
463.727	20858.56
463.932	20827.84
464.138	20778.69
464.343	20719.3
464.549	20369.1
464.754	20874.95
464.959	20956.86
465.165	20756.16
465.37	19603.16
465.575	19255
465.781	19900.11
465.986	20045.52
466.191	19357.4
466.397	19031.77
466.602	18032.36
466.807	18767.59
467.012	18704.1
467.218	18616.04
467.423	18212.59
467.628	18566.88
