Data from USB4F104151__250__14-22-36-301.txt Node

Date: Thu Mar 13 14:22:36 EDT 2025
User: louis
Spectrometer: USB4F10415
Trigger mode: 4
Integration Time (sec): 2.000000E-2
Scans to average: 1
Electric dark correction enabled: true
Nonlinearity correction enabled: false
Boxcar width: 0
XAxis mode: Wavelengths
Number of Pixels in Spectrum: 3648
>>>>>Begin Spectral Data<<<<<
178.204	-147.62
178.424	-147.62
178.644	-147.62
178.864	-123.05
179.084	-47.27
179.304	24.4
179.524	34.64
179.744	-6.31
179.964	5.97
180.184	-80.04
180.404	-22.7
180.624	44.88
180.844	-30.89
181.064	-45.23
181.283	38.74
181.503	18.26
181.723	18.26
181.943	-80.04
182.163	18.26
182.383	10.07
182.602	12.12
182.822	36.69
183.042	8.02
183.262	1.88
183.482	51.03
183.701	14.17
183.921	46.93
184.141	-73.9
184.361	75.6
184.58	-14.51
184.8	77.65
185.02	10.07
185.239	30.55
185.459	36.69
185.679	44.88
185.898	-43.18
186.118	40.79
186.338	-71.85
186.557	59.22
186.777	-10.41
186.997	-30.89
187.216	-24.75
187.436	1.88
187.655	67.41
187.875	34.64
188.095	51.03
188.314	91.99
188.534	100.18
188.753	5.97
188.973	10.07
189.192	87.89
189.412	-49.32
189.631	79.7
189.851	36.69
190.07	36.69
190.29	-77.99
190.509	36.69
190.729	3.93
190.948	59.22
191.168	87.89
191.387	10.07
191.607	24.4
191.826	46.93
192.045	16.21
192.265	10.07
192.484	18.26
192.704	30.55
192.923	28.5
193.142	44.88
193.362	122.71
193.581	20.31
193.8	-12.46
194.02	36.69
194.239	8.02
194.458	26.45
194.678	-41.13
194.897	-14.51
195.116	34.64
195.335	75.6
195.555	51.03
195.774	16.21
195.993	14.17
196.212	-53.42
196.432	-10.41
196.651	-8.36
196.87	1.88
197.089	102.23
197.308	5.97
197.528	22.36
197.747	40.79
197.966	34.64
198.185	91.99
198.404	30.55
198.623	3.93
198.842	3.93
199.062	1.88
199.281	28.5
199.5	32.6
199.719	116.56
199.938	26.45
200.157	42.84
200.376	38.74
200.595	-71.85
200.814	5.97
201.033	-10.41
201.252	-4.27
201.471	44.88
201.69	55.12
201.909	40.79
202.128	51.03
202.347	-53.42
202.566	59.22
202.785	12.12
203.004	-34.99
203.223	120.66
203.442	53.08
203.661	55.12
203.879	38.74
204.098	44.88
204.317	-4.27
204.536	59.22
204.755	-22.7
204.974	-22.7
205.193	55.12
205.411	94.04
205.63	36.69
205.849	10.07
206.068	46.93
206.287	26.45
206.505	22.36
206.724	67.41
206.943	-57.51
207.162	12.12
207.381	5.97
207.599	42.84
207.818	30.55
208.037	10.07
208.255	42.84
208.474	28.5
208.693	1.88
208.911	-20.65
209.13	55.12
209.349	51.03
209.567	-75.95
209.786	53.08
210.005	22.36
210.223	-71.85
210.442	53.08
210.661	137.04
210.879	34.64
211.098	-4.27
211.316	20.31
211.535	85.84
211.753	-43.18
211.972	22.36
212.191	-77.99
212.409	18.26
212.628	-12.46
212.846	-24.75
213.065	18.26
213.283	-2.22
213.502	-22.7
213.72	-6.31
213.938	16.21
214.157	24.4
214.375	71.51
214.594	18.26
214.812	10.07
215.031	-28.84
215.249	14.17
215.467	59.22
215.686	24.4
215.904	1.88
216.122	10.07
216.341	108.37
216.559	69.46
216.778	5.97
216.996	-18.6
217.214	51.03
217.432	34.64
217.651	10.07
217.869	26.45
218.087	40.79
218.306	5.97
218.524	14.17
218.742	-47.27
218.96	59.22
219.179	3.93
219.397	20.31
219.615	69.46
219.833	53.08
220.051	1.88
220.27	38.74
220.488	-30.89
220.706	8.02
220.924	22.36
221.142	85.84
221.36	10.07
221.578	16.21
221.796	18.26
222.015	3.93
222.233	-4.27
222.451	61.27
222.669	48.98
222.887	28.5
223.105	26.45
223.323	18.26
223.541	3.93
223.759	18.26
223.977	14.17
224.195	34.64
224.413	151.38
224.631	42.84
224.849	18.26
225.067	40.79
225.285	18.26
225.503	42.84
225.721	20.31
225.939	26.45
226.157	71.51
226.375	73.56
226.592	-22.7
226.81	20.31
227.028	34.64
227.246	18.26
227.464	71.51
227.682	18.26
227.9	36.69
228.117	-10.41
228.335	-18.6
228.553	-37.03
228.771	-28.84
228.989	26.45
229.206	-47.27
229.424	46.93
229.642	77.65
229.86	-12.46
230.077	34.64
230.295	14.17
230.513	3.93
230.731	59.22
230.948	42.84
231.166	14.17
231.384	10.07
231.601	83.8
231.819	14.17
232.037	22.36
232.254	-26.79
232.472	-26.79
232.689	-0.17
232.907	75.6
233.125	16.21
233.342	26.45
233.56	53.08
233.777	75.6
233.995	53.08
234.213	85.84
234.43	53.08
234.648	5.97
234.865	-32.94
235.083	16.21
235.3	5.97
235.518	26.45
235.735	8.02
235.953	28.5
236.17	20.31
236.388	1.88
236.605	-4.27
236.822	34.64
237.04	38.74
237.257	-51.37
237.475	3.93
237.692	24.4
237.909	63.32
238.127	18.26
238.344	55.12
238.562	-6.31
238.779	57.17
238.996	-30.89
239.214	-75.95
239.431	42.84
239.648	42.84
239.865	79.7
240.083	-20.65
240.3	24.4
240.517	-94.38
240.735	28.5
240.952	44.88
241.169	51.03
241.386	36.69
241.603	30.55
241.821	20.31
242.038	36.69
242.255	-10.41
242.472	-22.7
242.689	69.46
242.907	-37.03
243.124	-10.41
243.341	-28.84
243.558	38.74
243.775	75.6
243.992	-6.31
244.209	75.6
244.426	71.51
244.643	63.32
244.86	-2.22
245.078	98.13
245.295	30.55
245.512	-39.08
245.729	18.26
245.946	20.31
246.163	59.22
246.38	10.07
246.597	-22.7
246.814	-63.66
247.031	69.46
247.248	20.31
247.464	55.12
247.681	-30.89
247.898	-6.31
248.115	-6.31
248.332	5.97
248.549	59.22
248.766	26.45
248.983	-4.27
249.2	67.41
249.417	26.45
249.633	14.17
249.85	-18.6
250.067	12.12
250.284	-34.99
250.501	16.21
250.717	79.7
250.934	-30.89
251.151	36.69
251.368	51.03
251.585	1.88
251.801	-32.94
252.018	-86.19
252.235	67.41
252.451	-47.27
252.668	1.88
252.885	3.93
253.102	-65.71
253.318	141.14
253.535	-14.51
253.752	26.45
253.968	-30.89
254.185	55.12
254.401	28.5
254.618	53.08
254.835	46.93
255.051	18.26
255.268	73.56
255.484	26.45
255.701	-4.27
255.917	10.07
256.134	96.08
256.351	-12.46
256.567	-10.41
256.784	12.12
257	-47.27
257.217	48.98
257.433	26.45
257.65	46.93
257.866	145.24
258.082	44.88
258.299	-37.03
258.515	36.69
258.732	28.5
258.948	-30.89
259.165	26.45
259.381	-24.75
259.597	30.55
259.814	-8.36
260.03	-34.99
260.246	108.37
260.463	-4.27
260.679	42.84
260.895	59.22
261.112	65.36
261.328	34.64
261.544	-6.31
261.761	100.18
261.977	38.74
262.193	67.41
262.409	1.88
262.626	-18.6
262.842	59.22
263.058	-2.22
263.274	26.45
263.49	32.6
263.707	38.74
263.923	1.88
264.139	12.12
264.355	46.93
264.571	3.93
264.787	51.03
265.004	55.12
265.22	40.79
265.436	63.32
265.652	75.6
265.868	32.6
266.084	-18.6
266.3	40.79
266.516	26.45
266.732	-26.79
266.948	67.41
267.164	12.12
267.38	32.6
267.596	-2.22
267.812	44.88
268.028	1.88
268.244	67.41
268.46	-37.03
268.676	83.8
268.892	34.64
269.108	1.88
269.324	18.26
269.54	46.93
269.756	63.32
269.972	100.18
270.188	-0.17
270.403	20.31
270.619	-20.65
270.835	67.41
271.051	-12.46
271.267	-37.03
271.483	-59.56
271.698	12.12
271.914	22.36
272.13	18.26
272.346	28.5
272.562	28.5
272.777	61.27
272.993	-8.36
273.209	1.88
273.425	26.45
273.64	-12.46
273.856	1.88
274.072	83.8
274.287	-20.65
274.503	-4.27
274.719	-12.46
274.934	57.17
275.15	26.45
275.366	22.36
275.581	10.07
275.797	46.93
276.012	5.97
276.228	-47.27
276.444	1.88
276.659	63.32
276.875	44.88
277.09	53.08
277.306	-20.65
277.521	36.69
277.737	34.64
277.952	100.18
278.168	-4.27
278.383	12.12
278.599	-51.37
278.814	22.36
279.03	1.88
279.245	44.88
279.461	34.64
279.676	30.55
279.892	53.08
280.107	73.56
280.322	8.02
280.538	83.8
280.753	-2.22
280.969	61.27
281.184	108.37
281.399	149.33
281.615	-34.99
281.83	112.47
282.045	-59.56
282.26	3.93
282.476	57.17
282.691	79.7
282.906	36.69
283.122	61.27
283.337	34.64
283.552	38.74
283.767	-6.31
283.983	46.93
284.198	26.45
284.413	-20.65
284.628	14.17
284.843	-30.89
285.058	38.74
285.274	44.88
285.489	-0.17
285.704	46.93
285.919	36.69
286.134	59.22
286.349	51.03
286.564	26.45
286.779	34.64
286.995	85.84
287.21	1.88
287.425	18.26
287.64	10.07
287.855	-47.27
288.07	-37.03
288.285	53.08
288.5	55.12
288.715	51.03
288.93	-45.23
289.145	42.84
289.36	-4.27
289.575	12.12
289.79	83.8
290.004	38.74
290.219	14.17
290.434	44.88
290.649	3.93
290.864	-12.46
291.079	22.36
291.294	108.37
291.509	20.31
291.724	42.84
291.938	-8.36
292.153	-28.84
292.368	26.45
292.583	-4.27
292.798	65.36
293.012	36.69
293.227	20.31
293.442	8.02
293.657	30.55
293.871	34.64
294.086	42.84
294.301	77.65
294.516	100.18
294.73	38.74
294.945	3.93
295.16	1.88
295.374	28.5
295.589	36.69
295.804	-34.99
296.018	83.8
296.233	-30.89
296.447	100.18
296.662	-6.31
296.877	-18.6
297.091	38.74
297.306	-2.22
297.52	-39.08
297.735	44.88
297.949	-26.79
298.164	85.84
298.378	42.84
298.593	30.55
298.807	1.88
299.022	42.84
299.236	73.56
299.451	38.74
299.665	1.88
299.88	18.26
300.094	51.03
300.309	55.12
300.523	-30.89
300.737	-4.27
300.952	34.64
301.166	38.74
301.381	-51.37
301.595	8.02
301.809	48.98
302.024	46.93
302.238	79.7
302.452	83.8
302.667	51.03
302.881	59.22
303.095	73.56
303.309	59.22
303.524	28.5
303.738	-28.84
303.952	-69.8
304.166	18.26
304.381	-12.46
304.595	79.7
304.809	96.08
305.023	-47.27
305.237	30.55
305.452	57.17
305.666	30.55
305.88	14.17
306.094	5.97
306.308	-16.55
306.522	91.99
306.736	30.55
306.95	63.32
307.164	89.94
307.379	83.8
307.593	30.55
307.807	42.84
308.021	20.31
308.235	28.5
308.449	34.64
308.663	18.26
308.877	104.28
309.091	38.74
309.305	75.6
309.519	-14.51
309.733	46.93
309.947	85.84
310.161	51.03
310.374	-22.7
310.588	-28.84
310.802	-14.51
311.016	40.79
311.23	-4.27
311.444	-22.7
311.658	-26.79
311.872	34.64
312.085	44.88
312.299	106.32
312.513	36.69
312.727	18.26
312.941	26.45
313.154	24.4
313.368	22.36
313.582	3.93
313.796	-12.46
314.009	34.64
314.223	-28.84
314.437	26.45
314.651	46.93
314.864	38.74
315.078	40.79
315.292	-4.27
315.505	30.55
315.719	-0.17
315.933	-4.27
316.146	-45.23
316.36	-77.99
316.573	55.12
316.787	122.71
317.001	30.55
317.214	-47.27
317.428	34.64
317.641	-30.89
317.855	-6.31
318.068	83.8
318.282	-12.46
318.495	106.32
318.709	26.45
318.922	5.97
319.136	22.36
319.349	42.84
319.563	-8.36
319.776	-20.65
319.99	22.36
320.203	42.84
320.417	18.26
320.63	-16.55
320.843	100.18
321.057	91.99
321.27	91.99
321.483	20.31
321.697	18.26
321.91	-12.46
322.124	42.84
322.337	-2.22
322.55	-8.36
322.763	38.74
322.977	3.93
323.19	10.07
323.403	-22.7
323.617	26.45
323.83	26.45
324.043	71.51
324.256	18.26
324.469	18.26
324.683	26.45
324.896	5.97
325.109	94.04
325.322	-26.79
325.535	22.36
325.748	5.97
325.962	-4.27
326.175	-8.36
326.388	-12.46
326.601	65.36
326.814	53.08
327.027	10.07
327.24	98.13
327.453	-4.27
327.666	24.4
327.879	112.47
328.092	79.7
328.305	-2.22
328.518	112.47
328.731	40.79
328.944	67.41
329.157	34.64
329.37	44.88
329.583	91.99
329.796	42.84
330.009	-47.27
330.222	42.84
330.435	26.45
330.648	102.23
330.861	24.4
331.073	59.22
331.286	46.93
331.499	-22.7
331.712	-14.51
331.925	1.88
332.138	63.32
332.35	71.51
332.563	8.02
332.776	83.8
332.989	51.03
333.202	-22.7
333.414	55.12
333.627	-2.22
333.84	-30.89
334.053	-2.22
334.265	-4.27
334.478	30.55
334.691	16.21
334.903	22.36
335.116	-39.08
335.329	18.26
335.541	-39.08
335.754	102.23
335.966	44.88
336.179	63.32
336.392	-53.42
336.604	-39.08
336.817	36.69
337.029	26.45
337.242	53.08
337.454	61.27
337.667	96.08
337.88	128.85
338.092	26.45
338.305	-20.65
338.517	-14.51
338.729	75.6
338.942	34.64
339.154	-0.17
339.367	8.02
339.579	18.26
339.792	1.88
340.004	44.88
340.217	-30.89
340.429	106.32
340.641	10.07
340.854	-37.03
341.066	-34.99
341.278	10.07
341.491	-6.31
341.703	22.36
341.915	14.17
342.128	57.17
342.34	51.03
342.552	-39.08
342.764	10.07
342.977	16.21
343.189	12.12
343.401	12.12
343.613	18.26
343.826	38.74
344.038	-30.89
344.25	-16.55
344.462	38.74
344.674	94.04
344.886	-0.17
345.099	75.6
345.311	67.41
345.523	53.08
345.735	-24.75
345.947	20.31
346.159	18.26
346.371	65.36
346.583	10.07
346.795	120.66
347.007	30.55
347.219	51.03
347.431	-0.17
347.643	77.65
347.855	-12.46
348.067	-39.08
348.279	69.46
348.491	28.5
348.703	104.28
348.915	79.7
349.127	-67.75
349.339	59.22
349.551	-14.51
349.763	83.8
349.975	-61.61
350.187	67.41
350.399	51.03
350.61	87.89
350.822	36.69
351.034	10.07
351.246	36.69
351.458	94.04
351.669	83.8
351.881	34.64
352.093	69.46
352.305	102.23
352.517	73.56
352.728	79.7
352.94	30.55
353.152	5.97
353.363	-0.17
353.575	-32.94
353.787	51.03
353.999	42.84
354.21	71.51
354.422	67.41
354.633	-6.31
354.845	59.22
355.057	59.22
355.268	-37.03
355.48	14.17
355.692	10.07
355.903	-6.31
356.115	-14.51
356.326	-6.31
356.538	79.7
356.749	38.74
356.961	10.07
357.172	18.26
357.384	-39.08
357.595	48.98
357.807	-55.47
358.018	-121
358.23	42.84
358.441	116.56
358.653	-30.89
358.864	14.17
359.075	-14.51
359.287	57.17
359.498	42.84
359.709	-20.65
359.921	36.69
360.132	-51.37
360.344	51.03
360.555	20.31
360.766	55.12
360.977	81.75
361.189	22.36
361.4	-10.41
361.611	75.6
361.823	53.08
362.034	26.45
362.245	3.93
362.456	83.8
362.667	3.93
362.879	-22.7
363.09	28.5
363.301	63.32
363.512	85.84
363.723	34.64
363.935	96.08
364.146	38.74
364.357	5.97
364.568	36.69
364.779	10.07
364.99	16.21
365.201	3.93
365.412	59.22
365.623	-26.79
365.834	46.93
366.045	79.7
366.256	48.98
366.467	34.64
366.678	51.03
366.889	38.74
367.1	42.84
367.311	8.02
367.522	-14.51
367.733	28.5
367.944	87.89
368.155	51.03
368.366	10.07
368.577	120.66
368.788	12.12
368.999	-61.61
369.209	-16.55
369.42	112.47
369.631	46.93
369.842	36.69
370.053	75.6
370.264	1.88
370.474	-73.9
370.685	5.97
370.896	51.03
371.107	34.64
371.317	61.27
371.528	14.17
371.739	59.22
371.95	-4.27
372.16	-10.41
372.371	-10.41
372.582	34.64
372.792	32.6
373.003	67.41
373.214	55.12
373.424	36.69
373.635	-10.41
373.846	85.84
374.056	14.17
374.267	53.08
374.477	87.89
374.688	75.6
374.898	75.6
375.109	-12.46
375.319	-51.37
375.53	69.46
375.74	-22.7
375.951	48.98
376.161	1.88
376.372	20.31
376.582	-43.18
376.793	42.84
377.003	12.12
377.214	-51.37
377.424	30.55
377.635	108.37
377.845	12.12
378.055	20.31
378.266	-4.27
378.476	14.17
378.686	18.26
378.897	100.18
379.107	42.84
379.317	71.51
379.528	-51.37
379.738	46.93
379.948	16.21
380.158	38.74
380.369	-0.17
380.579	67.41
380.789	42.84
380.999	73.56
381.21	-14.51
381.42	100.18
381.63	38.74
381.84	79.7
382.05	145.24
382.261	55.12
382.471	-4.27
382.681	-4.27
382.891	87.89
383.101	89.94
383.311	1.88
383.521	42.84
383.731	42.84
383.941	18.26
384.151	3.93
384.361	100.18
384.571	91.99
384.781	-30.89
384.991	44.88
385.201	118.61
385.411	98.13
385.621	-61.61
385.831	18.26
386.041	65.36
386.251	42.84
386.461	18.26
386.671	30.55
386.881	83.8
387.091	79.7
387.301	46.93
387.511	38.74
387.72	16.21
387.93	53.08
388.14	34.64
388.35	30.55
388.56	14.17
388.769	87.89
388.979	-20.65
389.189	16.21
389.399	20.31
389.609	14.17
389.818	75.6
390.028	91.99
390.238	46.93
390.447	85.84
390.657	38.74
390.867	-30.89
391.076	22.36
391.286	114.52
391.496	85.84
391.705	1.88
391.915	42.84
392.125	5.97
392.334	42.84
392.544	59.22
392.753	-6.31
392.963	-18.6
393.172	130.9
393.382	63.32
393.591	118.61
393.801	51.03
394.01	118.61
394.22	18.26
394.429	85.84
394.639	34.64
394.848	51.03
395.058	42.84
395.267	34.64
395.477	26.45
395.686	67.41
395.895	141.14
396.105	100.18
396.314	32.6
396.524	30.55
396.733	24.4
396.942	30.55
397.152	130.9
397.361	100.18
397.57	28.5
397.78	132.95
397.989	51.03
398.198	114.52
398.407	65.36
398.617	12.12
398.826	102.23
399.035	91.99
399.244	85.84
399.453	69.46
399.663	36.69
399.872	108.37
400.081	40.79
400.29	38.74
400.499	63.32
400.708	89.94
400.917	143.19
401.127	69.46
401.336	73.56
401.545	149.33
401.754	124.76
401.963	108.37
402.172	116.56
402.381	51.03
402.59	75.6
402.799	98.13
403.008	110.42
403.217	104.28
403.426	79.7
403.635	89.94
403.844	91.99
404.053	108.37
404.262	-6.31
404.471	137.04
404.68	71.51
404.888	128.85
405.097	98.13
405.306	141.14
405.515	124.76
405.724	79.7
405.933	59.22
406.142	98.13
406.35	198.48
406.559	137.04
406.768	91.99
406.977	153.43
407.185	51.03
407.394	194.39
407.603	108.37
407.812	206.67
408.02	147.28
408.229	132.95
408.438	124.76
408.646	108.37
408.855	100.18
409.064	147.28
409.272	141.14
409.481	157.52
409.69	126.8
409.898	126.8
410.107	208.72
410.315	231.25
410.524	157.52
410.733	200.53
410.941	149.33
411.15	280.4
411.358	216.91
411.567	304.98
411.775	296.78
411.984	331.6
412.192	288.59
412.401	284.5
412.609	280.4
412.818	413.52
413.026	272.21
413.234	331.6
413.443	370.51
413.651	407.38
413.86	417.61
414.068	419.66
414.276	421.71
414.485	413.52
414.693	436.05
414.901	479.05
415.11	425.81
415.318	493.39
415.526	489.29
415.734	569.16
415.943	526.16
416.151	563.02
416.359	632.65
416.567	649.04
416.776	628.56
416.984	610.12
417.192	665.42
417.4	735.05
417.608	677.71
417.817	628.56
418.025	714.57
418.233	739.15
418.441	776.01
418.649	792.39
418.857	837.45
419.065	915.27
419.273	821.06
419.481	925.51
419.689	968.52
419.897	968.52
420.105	1034.05
420.313	1019.72
420.521	1089.35
420.729	1238.85
420.937	1079.11
421.145	1150.79
421.353	1238.85
421.561	1267.52
421.769	1355.58
421.977	1343.3
422.185	1320.77
422.393	1398.59
422.601	1453.89
422.809	1476.41
423.017	1484.61
423.224	1550.14
423.432	1634.11
423.64	1525.57
423.848	1775.42
424.056	1732.41
424.263	1937.21
424.471	1863.48
424.679	1865.53
424.887	1992.5
425.094	1994.55
425.302	2099
425.51	2070.33
425.718	2168.63
425.925	2250.55
426.133	2340.66
426.341	2502.45
426.548	2557.74
426.756	2545.45
426.964	2578.22
427.171	2631.47
427.379	2819.88
427.586	2719.53
427.794	2905.9
428.001	2981.67
428.209	3141.41
428.417	3145.51
428.624	3364.64
428.832	3520.29
429.039	3258.15
429.247	3381.03
429.454	3608.35
429.662	3852.06
429.869	3540.77
430.076	3903.26
430.284	3821.34
430.491	3952.41
430.699	4167.45
430.906	4050.71
431.114	4312.85
431.321	4368.15
431.528	4634.38
431.736	4738.83
431.943	5031.69
432.15	4845.32
432.358	4761.36
432.565	5230.34
432.772	5121.8
432.979	5330.69
433.187	5404.42
433.394	5527.3
433.601	5736.19
433.808	5852.92
434.016	5859.07
434.223	6055.67
434.43	6489.84
434.637	6225.65
434.844	6661.87
435.052	6813.42
435.259	6924.01
435.466	6854.38
435.673	6678.26
435.88	7190.25
436.087	7671.52
436.294	7620.32
436.501	7214.82
436.708	7542.5
436.915	7876.32
437.122	8345.3
437.329	8122.07
437.537	8337.11
437.743	8584.91
437.95	8474.32
438.157	8738.51
438.364	9096.91
438.571	9070.28
438.778	9113.29
438.985	10002.11
439.192	9690.82
439.399	9909.95
439.606	9696.96
439.813	10462.9
440.02	10915.5
440.227	10938.03
440.433	10634.93
440.64	11001.52
440.847	10976.94
441.054	11202.22
441.261	11693.73
441.467	11765.41
441.674	11873.95
441.881	12299.93
442.088	12504.73
442.294	12426.9
442.501	12437.14
442.708	12809.87
442.914	13225.61
443.121	13921.92
443.328	13442.7
443.534	14440.06
443.741	14073.47
443.948	13905.54
444.154	14909.04
444.361	14519.93
444.568	15023.73
444.774	14849.65
444.981	14706.29
445.187	15384.17
445.394	16076.38
445.6	15738.47
445.807	17305.17
446.013	16676.44
446.22	16916.05
446.426	17552.97
446.633	17661.51
446.839	18124.35
447.046	17712.71
447.252	18679.35
447.459	18638.39
447.665	18658.87
447.871	19248.69
448.078	20139.55
448.284	19056.18
448.491	19766.82
448.697	20665.88
448.903	20850.2
449.11	20913.69
449.316	20524.57
449.522	21044.76
449.728	21501.45
449.935	21683.72
450.141	21708.3
450.347	22144.52
450.553	21644.81
450.76	21779.98
450.966	22695.42
451.172	22048.26
451.378	22617.6
451.584	22220.29
451.791	22842.87
451.997	22826.49
452.203	23301.62
452.409	23322.1
452.615	23137.78
452.821	22291.97
453.027	22228.48
453.233	23447.02
453.44	22269.44
453.646	22554.11
453.852	22814.2
454.058	23053.81
454.264	22459.9
454.47	23115.25
454.676	22099.46
454.882	23066.1
455.088	21218.83
455.294	21700.11
455.5	21794.31
455.705	21925.38
455.911	21050.9
456.117	20874.77
456.323	20629.02
456.529	19562.03
456.735	20223.52
456.941	19826.21
457.147	19578.41
457.352	19021.36
457.558	18665.02
457.764	19127.86
457.97	18437.69
458.176	17722.95
458.381	18230.85
458.587	17176.14
458.793	17309.26
458.999	16076.38
459.204	17557.07
459.41	16922.2
459.616	16031.33
459.821	15988.32
460.027	16016.99
460.233	15490.66
460.438	14675.57
460.644	15001.2
460.85	14585.46
461.055	14020.22
461.261	14024.32
461.466	12766.87
461.672	12582.55
461.878	13530.76
462.083	12514.97
462.289	12383.9
462.494	11984.54
462.7	11781.79
462.905	11394.73
463.111	11826.85
463.316	11865.76
463.522	11357.86
463.727	11480.74
463.932	11456.17
464.138	11329.19
464.343	11316.9
464.549	11222.7
464.754	11245.23
464.959	11312.81
465.165	11173.55
465.37	10874.54
465.575	10612.4
465.781	10876.59
465.986	10899.12
466.191	10630.84
466.397	10491.57
466.602	9981.63
466.807	10391.22
467.012	10276.54
467.218	10155.71
467.423	10110.65
467.628	10274.49
467.833	10538.68
