Data from USB4F104151__208__14-20-45-381.txt Node

Date: Thu Mar 13 14:20:45 EDT 2025
User: louis
Spectrometer: USB4F10415
Trigger mode: 4
Integration Time (sec): 2.000000E-2
Scans to average: 1
Electric dark correction enabled: true
Nonlinearity correction enabled: false
Boxcar width: 0
XAxis mode: Wavelengths
Number of Pixels in Spectrum: 3648
>>>>>Begin Spectral Data<<<<<
178.204	-143.7
178.424	-143.7
178.644	-143.7
178.864	-98.64
179.084	-106.84
179.304	-22.87
179.524	-24.92
179.744	9.9
179.964	-31.06
180.184	-12.63
180.404	-2.39
180.624	52.91
180.844	36.52
181.064	-16.73
181.283	-24.92
181.503	24.23
181.723	11.95
181.943	44.71
182.163	85.67
182.383	44.71
182.602	42.67
182.822	-8.53
183.042	87.72
183.262	-10.58
183.482	52.91
183.701	-12.63
183.921	89.77
184.141	-6.49
184.361	89.77
184.58	13.99
184.8	65.19
185.02	-24.92
185.239	38.57
185.459	26.28
185.679	18.09
185.898	-20.82
186.118	65.19
186.338	38.57
186.557	65.19
186.777	32.43
186.997	18.09
187.216	-41.3
187.436	57
187.655	50.86
187.875	18.09
188.095	-69.97
188.314	-37.2
188.534	-14.68
188.753	26.28
188.973	40.62
189.192	85.67
189.412	-26.96
189.631	34.47
189.851	-12.63
190.07	18.09
190.29	-0.34
190.509	108.2
190.729	42.67
190.948	20.14
191.168	138.92
191.387	71.34
191.607	61.1
191.826	57
192.045	-33.11
192.265	-8.53
192.484	-4.44
192.704	1.71
192.923	-88.4
193.142	116.39
193.362	77.48
193.581	85.67
193.8	32.43
194.02	122.54
194.239	1.71
194.458	79.53
194.678	-14.68
194.897	1.71
195.116	-24.92
195.335	57
195.555	79.53
195.774	16.04
195.993	100.01
196.212	-2.39
196.432	97.96
196.651	-24.92
196.87	63.15
197.089	89.77
197.308	118.44
197.528	32.43
197.747	-72.02
197.966	81.58
198.185	28.33
198.404	18.09
198.623	73.39
198.842	20.14
199.062	-20.82
199.281	24.23
199.5	79.53
199.719	11.95
199.938	32.43
200.157	114.34
200.376	71.34
200.595	44.71
200.814	77.48
201.033	65.19
201.252	50.86
201.471	32.43
201.69	59.05
201.909	36.52
202.128	36.52
202.347	106.15
202.566	34.47
202.785	57
203.004	81.58
203.223	85.67
203.442	79.53
203.661	77.48
203.879	-6.49
204.098	91.82
204.317	20.14
204.536	50.86
204.755	59.05
204.974	130.73
205.193	32.43
205.411	91.82
205.63	163.5
205.849	11.95
206.068	-39.25
206.287	20.14
206.505	-6.49
206.724	28.33
206.943	-4.44
207.162	40.62
207.381	26.28
207.599	97.96
207.818	44.71
208.037	5.8
208.255	-35.16
208.474	-31.06
208.693	28.33
208.911	-12.63
209.13	7.85
209.349	79.53
209.567	65.19
209.786	75.43
210.005	-8.53
210.223	73.39
210.442	61.1
210.661	50.86
210.879	59.05
211.098	61.1
211.316	-0.34
211.535	28.33
211.753	24.23
211.972	-18.77
212.191	50.86
212.409	-33.11
212.628	26.28
212.846	18.09
213.065	44.71
213.283	67.24
213.502	9.9
213.72	32.43
213.938	48.81
214.157	44.71
214.375	75.43
214.594	54.95
214.812	11.95
215.031	48.81
215.249	-33.11
215.467	81.58
215.686	73.39
215.904	42.67
216.122	26.28
216.341	32.43
216.559	89.77
216.778	-29.01
216.996	97.96
217.214	-0.34
217.432	-78.16
217.651	114.34
217.869	26.28
218.087	22.19
218.306	91.82
218.524	69.29
218.742	-33.11
218.96	91.82
219.179	16.04
219.397	57
219.615	102.06
219.833	-10.58
220.051	7.85
220.27	87.72
220.488	34.47
220.706	18.09
220.924	42.67
221.142	24.23
221.36	22.19
221.578	9.9
221.796	57
222.015	5.8
222.233	130.73
222.451	-14.68
222.669	26.28
222.887	151.21
223.105	26.28
223.323	32.43
223.541	57
223.759	7.85
223.977	-16.73
224.195	69.29
224.413	48.81
224.631	42.67
224.849	7.85
225.067	57
225.285	28.33
225.503	52.91
225.721	-88.4
225.939	91.82
226.157	-41.3
226.375	124.58
226.592	-12.63
226.81	42.67
227.028	124.58
227.246	102.06
227.464	57
227.682	48.81
227.9	57
228.117	-0.34
228.335	50.86
228.553	52.91
228.771	59.05
228.989	65.19
229.206	1.71
229.424	16.04
229.642	106.15
229.86	16.04
230.077	130.73
230.295	28.33
230.513	-10.58
230.731	65.19
230.948	112.3
231.166	48.81
231.384	44.71
231.601	83.63
231.819	87.72
232.037	61.1
232.254	38.57
232.472	7.85
232.689	-33.11
232.907	65.19
233.125	48.81
233.342	91.82
233.56	24.23
233.777	18.09
233.995	26.28
234.213	73.39
234.43	61.1
234.648	24.23
234.865	3.75
235.083	40.62
235.3	32.43
235.518	9.9
235.735	106.15
235.953	134.82
236.17	44.71
236.388	52.91
236.605	-2.39
236.822	-22.87
237.04	87.72
237.257	-18.77
237.475	32.43
237.692	24.23
237.909	73.39
238.127	-14.68
238.344	85.67
238.562	42.67
238.779	32.43
238.996	-4.44
239.214	32.43
239.431	73.39
239.648	57
239.865	34.47
240.083	79.53
240.3	32.43
240.517	48.81
240.735	65.19
240.952	120.49
241.169	32.43
241.386	11.95
241.603	110.25
241.821	-14.68
242.038	11.95
242.255	-14.68
242.472	34.47
242.689	-4.44
242.907	57
243.124	106.15
243.341	91.82
243.558	-37.2
243.775	40.62
243.992	7.85
244.209	-24.92
244.426	7.85
244.643	16.04
244.86	5.8
245.078	83.63
245.295	71.34
245.512	40.62
245.729	32.43
245.946	48.81
246.163	11.95
246.38	-26.96
246.597	79.53
246.814	69.29
247.031	69.29
247.248	110.25
247.464	85.67
247.681	44.71
247.898	73.39
248.115	83.63
248.332	11.95
248.549	54.95
248.766	57
248.983	106.15
249.2	9.9
249.417	48.81
249.633	89.77
249.85	7.85
250.067	61.1
250.284	69.29
250.501	-16.73
250.717	-2.39
250.934	16.04
251.151	67.24
251.368	-26.96
251.585	73.39
251.801	91.82
252.018	-16.73
252.235	34.47
252.451	65.19
252.668	-16.73
252.885	81.58
253.102	-4.44
253.318	1.71
253.535	40.62
253.752	77.48
253.968	57
254.185	-6.49
254.401	75.43
254.618	61.1
254.835	65.19
255.051	83.63
255.268	63.15
255.484	30.38
255.701	65.19
255.917	57
256.134	87.72
256.351	-8.53
256.567	28.33
256.784	30.38
257	3.75
257.217	48.81
257.433	42.67
257.65	1.71
257.866	110.25
258.082	-29.01
258.299	50.86
258.515	40.62
258.732	9.9
258.948	32.43
259.165	24.23
259.381	73.39
259.597	67.24
259.814	75.43
260.03	28.33
260.246	-16.73
260.463	75.43
260.679	89.77
260.895	30.38
261.112	83.63
261.328	69.29
261.544	16.04
261.761	163.5
261.977	91.82
262.193	40.62
262.409	44.71
262.626	63.15
262.842	18.09
263.058	-8.53
263.274	26.28
263.49	89.77
263.707	48.81
263.923	16.04
264.139	13.99
264.355	130.73
264.571	57
264.787	65.19
265.004	69.29
265.22	93.87
265.436	32.43
265.652	48.81
265.868	-0.34
266.084	30.38
266.3	52.91
266.516	40.62
266.732	3.75
266.948	-26.96
267.164	67.24
267.38	102.06
267.596	59.05
267.812	136.87
268.028	42.67
268.244	42.67
268.46	7.85
268.676	85.67
268.892	57
269.108	9.9
269.324	36.52
269.54	42.67
269.756	108.2
269.972	-33.11
270.188	9.9
270.403	-24.92
270.619	5.8
270.835	38.57
271.051	16.04
271.267	18.09
271.483	-22.87
271.698	81.58
271.914	-20.82
272.13	-16.73
272.346	1.71
272.562	1.71
272.777	24.23
272.993	34.47
273.209	3.75
273.425	77.48
273.64	61.1
273.856	40.62
274.072	40.62
274.287	-65.88
274.503	50.86
274.719	-33.11
274.934	73.39
275.15	-29.01
275.366	-14.68
275.581	44.71
275.797	106.15
276.012	13.99
276.228	69.29
276.444	44.71
276.659	155.3
276.875	42.67
277.09	59.05
277.306	24.23
277.521	9.9
277.737	130.73
277.952	54.95
278.168	54.95
278.383	-2.39
278.599	46.76
278.814	50.86
279.03	16.04
279.245	26.28
279.461	42.67
279.676	69.29
279.892	34.47
280.107	28.33
280.322	-37.2
280.538	44.71
280.753	32.43
280.969	114.34
281.184	91.82
281.399	28.33
281.615	28.33
281.83	-4.44
282.045	34.47
282.26	9.9
282.476	89.77
282.691	11.95
282.906	20.14
283.122	57
283.337	26.28
283.552	36.52
283.767	89.77
283.983	16.04
284.198	54.95
284.413	100.01
284.628	-6.49
284.843	52.91
285.058	69.29
285.274	28.33
285.489	-0.34
285.704	34.47
285.919	3.75
286.134	40.62
286.349	-8.53
286.564	-2.39
286.779	73.39
286.995	67.24
287.21	-8.53
287.425	110.25
287.64	93.87
287.855	106.15
288.07	28.33
288.285	9.9
288.5	-0.34
288.715	57
288.93	16.04
289.145	-14.68
289.36	91.82
289.575	57
289.79	85.67
290.004	52.91
290.219	30.38
290.434	-12.63
290.649	32.43
290.864	22.19
291.079	63.15
291.294	32.43
291.509	18.09
291.724	28.33
291.938	-8.53
292.153	65.19
292.368	-41.3
292.583	34.47
292.798	57
293.012	20.14
293.227	40.62
293.442	-2.39
293.657	44.71
293.871	57
294.086	18.09
294.301	122.54
294.516	93.87
294.73	36.52
294.945	-49.49
295.16	-24.92
295.374	52.91
295.589	30.38
295.804	-0.34
296.018	81.58
296.233	132.78
296.447	102.06
296.662	67.24
296.877	-8.53
297.091	20.14
297.306	-12.63
297.52	32.43
297.735	44.71
297.949	42.67
298.164	-4.44
298.378	5.8
298.593	-2.39
298.807	24.23
299.022	3.75
299.236	79.53
299.451	83.63
299.665	-24.92
299.88	69.29
300.094	1.71
300.309	50.86
300.523	57
300.737	9.9
300.952	59.05
301.166	48.81
301.381	57
301.595	57
301.809	7.85
302.024	89.77
302.238	67.24
302.452	57
302.667	75.43
302.881	69.29
303.095	61.1
303.309	11.95
303.524	59.05
303.738	18.09
303.952	63.15
304.166	26.28
304.381	-6.49
304.595	26.28
304.809	-31.06
305.023	106.15
305.237	32.43
305.452	48.81
305.666	57
305.88	110.25
306.094	61.1
306.308	108.2
306.522	34.47
306.736	26.28
306.95	106.15
307.164	122.54
307.379	46.76
307.593	57
307.807	79.53
308.021	116.39
308.235	67.24
308.449	-43.35
308.663	81.58
308.877	50.86
309.091	48.81
309.305	85.67
309.519	32.43
309.733	48.81
309.947	9.9
310.161	89.77
310.374	34.47
310.588	91.82
310.802	67.24
311.016	48.81
311.23	-10.58
311.444	-6.49
311.658	65.19
311.872	61.1
312.085	16.04
312.299	126.63
312.513	36.52
312.727	44.71
312.941	3.75
313.154	57
313.368	97.96
313.582	24.23
313.796	59.05
314.009	79.53
314.223	52.91
314.437	-2.39
314.651	52.91
314.864	-96.6
315.078	34.47
315.292	7.85
315.505	7.85
315.719	22.19
315.933	7.85
316.146	40.62
316.36	42.67
316.573	124.58
316.787	100.01
317.001	46.76
317.214	-14.68
317.428	69.29
317.641	32.43
317.855	18.09
318.068	1.71
318.282	87.72
318.495	40.62
318.709	75.43
318.922	13.99
319.136	147.11
319.349	97.96
319.563	67.24
319.776	-37.2
319.99	38.57
320.203	114.34
320.417	83.63
320.63	108.2
320.843	71.34
321.057	1.71
321.27	44.71
321.483	50.86
321.697	106.15
321.91	87.72
322.124	1.71
322.337	16.04
322.55	85.67
322.763	-10.58
322.977	61.1
323.19	61.1
323.403	42.67
323.617	38.57
323.83	110.25
324.043	5.8
324.256	65.19
324.469	-8.53
324.683	83.63
324.896	40.62
325.109	18.09
325.322	16.04
325.535	110.25
325.748	65.19
325.962	48.81
326.175	83.63
326.388	91.82
326.601	18.09
326.814	11.95
327.027	91.82
327.24	89.77
327.453	-4.44
327.666	69.29
327.879	116.39
328.092	67.24
328.305	128.68
328.518	48.81
328.731	20.14
328.944	140.97
329.157	44.71
329.37	11.95
329.583	57
329.796	83.63
330.009	1.71
330.222	42.67
330.435	106.15
330.648	122.54
330.861	61.1
331.073	-8.53
331.286	89.77
331.499	91.82
331.712	-0.34
331.925	110.25
332.138	52.91
332.35	59.05
332.563	44.71
332.776	114.34
332.989	44.71
333.202	40.62
333.414	-2.39
333.627	97.96
333.84	-33.11
334.053	46.76
334.265	71.34
334.478	57
334.691	50.86
334.903	63.15
335.116	52.91
335.329	36.52
335.541	61.1
335.754	122.54
335.966	-12.63
336.179	120.49
336.392	77.48
336.604	75.43
336.817	77.48
337.029	40.62
337.242	85.67
337.454	44.71
337.667	130.73
337.88	65.19
338.092	26.28
338.305	106.15
338.517	9.9
338.729	48.81
338.942	73.39
339.154	106.15
339.367	44.71
339.579	126.63
339.792	-6.49
340.004	97.96
340.217	77.48
340.429	44.71
340.641	71.34
340.854	57
341.066	3.75
341.278	73.39
341.491	32.43
341.703	61.1
341.915	36.52
342.128	102.06
342.34	143.02
342.552	7.85
342.764	20.14
342.977	50.86
343.189	3.75
343.401	-0.34
343.613	16.04
343.826	138.92
344.038	40.62
344.25	57
344.462	28.33
344.674	9.9
344.886	116.39
345.099	42.67
345.311	106.15
345.523	11.95
345.735	36.52
345.947	34.47
346.159	26.28
346.371	-8.53
346.583	-31.06
346.795	145.06
347.007	9.9
347.219	114.34
347.431	34.47
347.643	112.3
347.855	81.58
348.067	106.15
348.279	-24.92
348.491	24.23
348.703	61.1
348.915	11.95
349.127	7.85
349.339	57
349.551	71.34
349.763	97.96
349.975	61.1
350.187	9.9
350.399	67.24
350.61	61.1
350.822	16.04
351.034	97.96
351.246	57
351.458	122.54
351.669	130.73
351.881	108.2
352.093	91.82
352.305	102.06
352.517	67.24
352.728	81.58
352.94	48.81
353.152	85.67
353.363	32.43
353.575	59.05
353.787	48.81
353.999	34.47
354.21	100.01
354.422	38.57
354.633	-2.39
354.845	48.81
355.057	26.28
355.268	40.62
355.48	93.87
355.692	40.62
355.903	24.23
356.115	-8.53
356.326	7.85
356.538	67.24
356.749	9.9
356.961	91.82
357.172	61.1
357.384	-33.11
357.595	1.71
357.807	87.72
358.018	32.43
358.23	-43.35
358.441	104.11
358.653	16.04
358.864	20.14
359.075	50.86
359.287	73.39
359.498	124.58
359.709	63.15
359.921	67.24
360.132	100.01
360.344	50.86
360.555	26.28
360.766	65.19
360.977	9.9
361.189	65.19
361.4	71.34
361.611	145.06
361.823	79.53
362.034	9.9
362.245	-33.11
362.456	61.1
362.667	50.86
362.879	138.92
363.09	61.1
363.301	34.47
363.512	28.33
363.723	44.71
363.935	67.24
364.146	46.76
364.357	61.1
364.568	97.96
364.779	-55.64
364.99	106.15
365.201	-14.68
365.412	57
365.623	32.43
365.834	147.11
366.045	65.19
366.256	104.11
366.467	87.72
366.678	63.15
366.889	26.28
367.1	-22.87
367.311	143.02
367.522	38.57
367.733	16.04
367.944	163.5
368.155	79.53
368.366	79.53
368.577	73.39
368.788	89.77
368.999	106.15
369.209	59.05
369.42	50.86
369.631	108.2
369.842	93.87
370.053	110.25
370.264	40.62
370.474	65.19
370.685	110.25
370.896	48.81
371.107	77.48
371.317	87.72
371.528	130.73
371.739	16.04
371.95	81.58
372.16	40.62
372.371	24.23
372.582	54.95
372.792	59.05
373.003	147.11
373.214	63.15
373.424	57
373.635	7.85
373.846	100.01
374.056	108.2
374.267	100.01
374.477	81.58
374.688	20.14
374.898	1.71
375.109	71.34
375.319	38.57
375.53	67.24
375.74	34.47
375.951	34.47
376.161	85.67
376.372	97.96
376.582	46.76
376.793	63.15
377.003	83.63
377.214	20.14
377.424	89.77
377.635	34.47
377.845	61.1
378.055	181.93
378.266	30.38
378.476	100.01
378.686	61.1
378.897	110.25
379.107	36.52
379.317	61.1
379.528	61.1
379.738	97.96
379.948	24.23
380.158	110.25
380.369	65.19
380.579	89.77
380.789	106.15
380.999	81.58
381.21	89.77
381.42	130.73
381.63	40.62
381.84	112.3
382.05	73.39
382.261	52.91
382.471	71.34
382.681	67.24
382.891	114.34
383.101	118.44
383.311	61.1
383.521	85.67
383.731	102.06
383.941	85.67
384.151	65.19
384.361	50.86
384.571	13.99
384.781	91.82
384.991	161.45
385.201	91.82
385.411	79.53
385.621	130.73
385.831	110.25
386.041	143.02
386.251	44.71
386.461	48.81
386.671	57
386.881	57
387.091	108.2
387.301	73.39
387.511	61.1
387.72	122.54
387.93	110.25
388.14	104.11
388.35	87.72
388.56	79.53
388.769	16.04
388.979	106.15
389.189	73.39
389.399	73.39
389.609	128.68
389.818	97.96
390.028	61.1
390.238	52.91
390.447	81.58
390.657	83.63
390.867	65.19
391.076	79.53
391.286	87.72
391.496	42.67
391.705	83.63
391.915	89.77
392.125	102.06
392.334	130.73
392.544	87.72
392.753	93.87
392.963	97.96
393.172	81.58
393.382	83.63
393.591	61.1
393.801	91.82
394.01	157.35
394.22	155.3
394.429	110.25
394.639	42.67
394.848	89.77
395.058	140.97
395.267	75.43
395.477	48.81
395.686	54.95
395.895	157.35
396.105	73.39
396.314	65.19
396.524	89.77
396.733	77.48
396.942	163.5
397.152	143.02
397.361	155.3
397.57	155.3
397.78	147.11
397.989	89.77
398.198	245.41
398.407	97.96
398.617	132.78
398.826	147.11
399.035	106.15
399.244	116.39
399.453	132.78
399.663	89.77
399.872	149.16
400.081	179.88
400.29	171.69
400.499	87.72
400.708	130.73
400.917	120.49
401.127	229.03
401.336	183.98
401.545	237.22
401.754	206.5
401.963	183.98
402.172	143.02
402.381	147.11
402.59	81.58
402.799	130.73
403.008	196.26
403.217	159.4
403.426	181.93
403.635	175.78
403.844	190.12
404.053	171.69
404.262	147.11
404.471	202.41
404.68	188.07
404.888	171.69
405.097	245.41
405.306	183.98
405.515	239.27
405.724	204.46
405.933	200.36
406.142	198.31
406.35	280.23
406.559	251.56
406.768	206.5
406.977	231.08
407.185	282.28
407.394	257.7
407.603	218.79
407.812	269.99
408.02	300.71
408.229	274.09
408.438	331.43
408.646	278.18
408.855	392.87
409.064	272.04
409.272	294.57
409.481	313
409.69	288.42
409.898	362.15
410.107	313
410.315	456.36
410.524	349.86
410.733	382.63
410.941	392.87
411.15	431.78
411.358	485.03
411.567	550.56
411.775	509.6
411.984	480.93
412.192	552.61
412.401	485.03
412.609	530.08
412.818	607.91
413.026	614.05
413.234	622.24
413.443	648.86
413.651	763.55
413.86	745.12
414.068	794.27
414.276	835.23
414.485	747.17
414.693	802.46
414.901	870.05
415.11	927.39
415.318	972.44
415.526	949.92
415.734	949.92
415.943	958.11
416.151	1015.45
416.359	1115.8
416.567	1162.9
416.776	1126.04
416.984	1130.14
417.192	1085.08
417.4	1244.82
417.608	1269.4
417.817	1285.78
418.025	1222.3
418.233	1490.58
418.441	1353.37
418.649	1486.48
418.857	1631.89
419.065	1711.76
419.273	1722
419.481	1629.84
419.689	1724.05
419.897	1861.26
420.105	1842.83
420.313	1992.33
420.521	2031.24
420.729	2031.24
420.937	2170.51
421.145	2258.57
421.353	2334.34
421.561	2506.37
421.769	2401.93
421.977	2494.08
422.185	2633.35
422.393	2657.92
422.601	2821.76
422.809	2875.01
423.017	2803.33
423.224	3004.03
423.432	3094.14
423.64	3118.72
423.848	3460.73
424.056	3335.8
424.263	3731.06
424.471	3686
424.679	3630.71
424.887	3800.69
425.094	3997.29
425.302	3913.33
425.51	4073.07
425.718	4236.91
425.925	4310.63
426.133	4486.76
426.341	4755.04
426.548	4822.63
426.756	4957.79
426.964	5086.81
427.171	5246.55
427.379	5219.93
427.586	5451.35
427.794	5709.4
428.001	5826.13
428.209	6221.39
428.417	6055.5
428.624	6512.2
428.832	6628.93
429.039	6489.67
429.247	6508.1
429.454	6954.56
429.662	7505.46
429.869	6919.75
430.076	7478.84
430.284	7433.79
430.491	7530.04
430.699	8144.43
430.906	7861.81
431.114	8142.38
431.321	8478.25
431.528	8560.17
431.736	9188.89
431.943	9537.05
432.15	9182.75
432.358	9487.9
432.565	10030.61
432.772	9766.42
432.979	10364.43
433.187	10434.06
433.394	10507.79
433.601	11353.6
433.808	11472.38
434.016	11333.12
434.223	11789.81
434.43	12318.19
434.637	12248.56
434.844	12875.24
435.052	13143.52
435.259	12903.91
435.466	13307.36
435.673	12963.3
435.88	13788.63
436.087	14806.47
436.294	14519.76
436.501	14233.04
436.708	14646.73
436.915	15168.96
437.122	15599.04
437.329	15664.57
437.537	16133.56
437.743	16676.27
437.95	16293.3
438.157	17040.81
438.364	17868.19
438.571	17751.45
438.778	17771.93
438.985	19498.37
439.192	18857.35
439.399	19299.72
439.606	18734.48
439.813	19877.24
440.02	21202.28
440.227	20565.36
440.433	20417.91
440.64	20964.71
440.847	20960.62
441.054	21560.67
441.261	23248.2
441.467	22902.09
441.674	23151.95
441.881	24241.46
442.088	23921.98
442.294	23588.16
442.501	24284.47
442.708	24675.63
442.914	25785.63
443.121	26809.62
443.328	26414.36
443.534	27862.27
443.741	27227.4
443.948	26918.16
444.154	28605.69
444.361	28423.42
444.568	28808.44
444.774	28519.67
444.981	28859.63
445.187	29908.19
445.394	31153.36
445.6	30424.28
445.807	33592.49
446.013	31939.78
446.22	32926.9
446.426	34012.32
446.633	34221.22
446.839	35282.06
447.046	33895.59
447.252	35519.63
447.459	35953.8
447.665	35583.12
447.871	37514.35
448.078	38921.3
448.284	37059.7
448.491	38003.81
448.697	39433.3
448.903	39900.23
449.11	40838.2
449.316	39566.41
449.522	40234.05
449.728	41407.54
449.935	41815.08
450.141	41233.46
450.347	42501.15
450.553	41102.39
450.76	41659.44
450.966	42959.9
451.172	42812.45
451.378	43432.98
451.584	42695.71
451.791	43635.73
451.997	43502.61
452.203	44311.56
452.409	44221.45
452.615	44252.17
452.821	42550.31
453.027	41743.41
453.233	44172.3
453.44	42570.79
453.646	43037.72
453.852	42953.76
454.058	44002.32
454.264	42591.26
454.47	43774.99
454.676	42370.08
454.882	44000.27
455.088	40055.88
455.294	40946.75
455.5	41339.96
455.705	41688.11
455.911	40092.74
456.117	39081.05
456.323	39093.33
456.529	37178.48
456.735	38521.95
456.941	37241.97
457.147	37317.75
457.352	35693.71
457.558	35476.62
457.764	35648.65
457.97	34577.56
458.176	34077.86
458.381	34321.57
458.587	32509.11
458.793	32263.36
458.999	30903.51
459.204	32761.01
459.41	32038.08
459.616	30055.65
459.821	29955.3
460.027	30180.57
460.233	28968.18
460.438	27680
460.644	28228.86
460.85	26782.99
461.055	26361.11
461.261	26737.94
461.466	24616.24
461.672	23878.97
461.878	25451.81
462.083	23809.34
462.289	23117.13
462.494	23090.51
462.7	21990.75
462.905	21443.94
463.111	22412.63
463.316	22046.04
463.522	21753.18
463.727	21908.83
463.932	21710.18
464.138	21542.24
464.343	21749.09
464.549	21067.11
464.754	21810.53
464.959	21556.58
465.165	21378.4
465.37	20237.69
465.575	20034.94
465.781	20862.32
465.986	20530.55
466.191	19828.09
466.397	19543.42
466.602	18683.28
466.807	19107.21
467.012	19467.65
467.218	19156.36
467.423	19015.05
467.628	19438.98
467.833	19989.88
468.038	19099.02
468.244	18840.97
