Data from USB4F104151__153__14-19-29-508.txt Node

Date: Thu Mar 13 14:19:29 EDT 2025
User: louis
Spectrometer: USB4F10415
Trigger mode: 4
Integration Time (sec): 2.000000E-2
Scans to average: 1
Electric dark correction enabled: true
Nonlinearity correction enabled: false
Boxcar width: 0
XAxis mode: Wavelengths
Number of Pixels in Spectrum: 3648
>>>>>Begin Spectral Data<<<<<
178.204	-123.39
178.424	-123.39
178.644	-123.39
178.864	-107.01
179.084	-154.11
179.304	-18.94
179.524	17.92
179.744	22.02
179.964	54.78
180.184	17.92
180.404	34.3
180.624	-74.24
180.844	-55.81
181.064	-27.14
181.283	50.69
181.503	-55.81
181.723	34.3
181.943	-51.71
182.163	38.4
182.383	-37.38
182.602	-0.51
182.822	69.12
183.042	15.87
183.262	38.4
183.482	-33.28
183.701	38.4
183.921	58.88
184.141	-6.66
184.361	38.4
184.58	26.11
184.8	126.46
185.02	13.82
185.239	40.45
185.459	-51.71
185.679	89.6
185.898	15.87
186.118	134.65
186.338	58.88
186.557	34.3
186.777	24.06
186.997	-51.71
187.216	-8.7
187.436	40.45
187.655	50.69
187.875	28.16
188.095	-49.66
188.314	62.98
188.534	-8.7
188.753	13.82
188.973	-31.23
189.192	42.5
189.412	-31.23
189.631	-23.04
189.851	75.26
190.07	44.54
190.29	-115.2
190.509	32.26
190.729	36.35
190.948	30.21
191.168	81.41
191.387	54.78
191.607	-35.33
191.826	-10.75
192.045	-10.75
192.265	24.06
192.484	-20.99
192.704	-8.7
192.923	34.3
193.142	89.6
193.362	24.06
193.581	5.63
193.8	1.54
194.02	46.59
194.239	38.4
194.458	15.87
194.678	-4.61
194.897	13.82
195.116	67.07
195.335	17.92
195.555	69.12
195.774	69.12
195.993	46.59
196.212	67.07
196.432	-23.04
196.651	7.68
196.87	38.4
197.089	105.98
197.308	1.54
197.528	-43.52
197.747	46.59
197.966	11.78
198.185	30.21
198.404	30.21
198.623	26.11
198.842	-10.75
199.062	83.45
199.281	52.74
199.5	-49.66
199.719	40.45
199.938	52.74
200.157	48.64
200.376	81.41
200.595	69.12
200.814	5.63
201.033	-35.33
201.252	-2.56
201.471	32.26
201.69	-8.7
201.909	40.45
202.128	5.63
202.347	67.07
202.566	38.4
202.785	-0.51
203.004	-29.18
203.223	112.13
203.442	-61.95
203.661	52.74
203.879	50.69
204.098	32.26
204.317	19.97
204.536	58.88
204.755	5.63
204.974	54.78
205.193	60.93
205.411	58.88
205.63	26.11
205.849	83.45
206.068	-51.71
206.287	-2.56
206.505	101.89
206.724	-41.47
206.943	30.21
207.162	-0.51
207.381	-6.66
207.599	58.88
207.818	32.26
208.037	3.58
208.255	-25.09
208.474	-2.56
208.693	-27.14
208.911	-25.09
209.13	38.4
209.349	-0.51
209.567	26.11
209.786	42.5
210.005	34.3
210.223	5.63
210.442	32.26
210.661	65.02
210.879	42.5
211.098	9.73
211.316	112.13
211.535	103.93
211.753	-0.51
211.972	48.64
212.191	40.45
212.409	15.87
212.628	67.07
212.846	67.07
213.065	77.31
213.283	50.69
213.502	-23.04
213.72	3.58
213.938	22.02
214.157	26.11
214.375	-27.14
214.594	32.26
214.812	-20.99
215.031	13.82
215.249	-18.94
215.467	22.02
215.686	93.69
215.904	-45.57
216.122	122.37
216.341	13.82
216.559	13.82
216.778	5.63
216.996	114.17
217.214	24.06
217.432	-2.56
217.651	-25.09
217.869	22.02
218.087	5.63
218.306	38.4
218.524	58.88
218.742	-64
218.96	30.21
219.179	15.87
219.397	28.16
219.615	71.17
219.833	73.21
220.051	83.45
220.27	1.54
220.488	108.03
220.706	32.26
220.924	13.82
221.142	13.82
221.36	38.4
221.578	1.54
221.796	40.45
222.015	62.98
222.233	9.73
222.451	108.03
222.669	75.26
222.887	46.59
223.105	42.5
223.323	17.92
223.541	-10.75
223.759	58.88
223.977	13.82
224.195	19.97
224.413	38.4
224.631	77.31
224.849	40.45
225.067	62.98
225.285	-35.33
225.503	71.17
225.721	-68.09
225.939	83.45
226.157	105.98
226.375	79.36
226.592	-68.09
226.81	30.21
227.028	-0.51
227.246	48.64
227.464	3.58
227.682	87.55
227.9	3.58
228.117	54.78
228.335	-31.23
228.553	13.82
228.771	124.41
228.989	-0.51
229.206	-2.56
229.424	48.64
229.642	56.83
229.86	-39.42
230.077	62.98
230.295	-2.56
230.513	26.11
230.731	62.98
230.948	13.82
231.166	-4.61
231.384	13.82
231.601	30.21
231.819	105.98
232.037	13.82
232.254	56.83
232.472	-23.04
232.689	46.59
232.907	48.64
233.125	-4.61
233.342	56.83
233.56	11.78
233.777	67.07
233.995	87.55
234.213	36.35
234.43	-0.51
234.648	15.87
234.865	52.74
235.083	101.89
235.3	34.3
235.518	-2.56
235.735	32.26
235.953	36.35
236.17	-27.14
236.388	-6.66
236.605	50.69
236.822	22.02
237.04	40.45
237.257	38.4
237.475	-18.94
237.692	50.69
237.909	7.68
238.127	17.92
238.344	81.41
238.562	105.98
238.779	17.92
238.996	34.3
239.214	32.26
239.431	67.07
239.648	-27.14
239.865	3.58
240.083	28.16
240.3	-20.99
240.517	-59.9
240.735	15.87
240.952	-2.56
241.169	50.69
241.386	26.11
241.603	75.26
241.821	30.21
242.038	52.74
242.255	5.63
242.472	3.58
242.689	40.45
242.907	83.45
243.124	81.41
243.341	48.64
243.558	22.02
243.775	26.11
243.992	-12.8
244.209	22.02
244.426	42.5
244.643	24.06
244.86	-8.7
245.078	42.5
245.295	-2.56
245.512	3.58
245.729	13.82
245.946	-6.66
246.163	65.02
246.38	-18.94
246.597	11.78
246.814	22.02
247.031	79.36
247.248	-18.94
247.464	24.06
247.681	50.69
247.898	22.02
248.115	5.63
248.332	-2.56
248.549	87.55
248.766	97.79
248.983	56.83
249.2	56.83
249.417	54.78
249.633	75.26
249.85	38.4
250.067	1.54
250.284	17.92
250.501	136.7
250.717	83.45
250.934	22.02
251.151	1.54
251.368	30.21
251.585	30.21
251.801	69.12
252.018	-43.52
252.235	13.82
252.451	-33.28
252.668	-47.62
252.885	40.45
253.102	-12.8
253.318	128.51
253.535	38.4
253.752	60.93
253.968	-18.94
254.185	-16.9
254.401	151.04
254.618	-25.09
254.835	50.69
255.051	56.83
255.268	1.54
255.484	-12.8
255.701	5.63
255.917	91.65
256.134	-43.52
256.351	5.63
256.567	-31.23
256.784	7.68
257	-0.51
257.217	-2.56
257.433	24.06
257.65	83.45
257.866	60.93
258.082	42.5
258.299	22.02
258.515	75.26
258.732	-10.75
258.948	69.12
259.165	38.4
259.381	22.02
259.597	42.5
259.814	54.78
260.03	52.74
260.246	62.98
260.463	50.69
260.679	77.31
260.895	-6.66
261.112	83.45
261.328	38.4
261.544	-76.29
261.761	77.31
261.977	56.83
262.193	-23.04
262.409	54.78
262.626	65.02
262.842	69.12
263.058	11.78
263.274	15.87
263.49	-45.57
263.707	83.45
263.923	36.35
264.139	24.06
264.355	11.78
264.571	22.02
264.787	3.58
265.004	71.17
265.22	1.54
265.436	13.82
265.652	22.02
265.868	-31.23
266.084	-10.75
266.3	1.54
266.516	17.92
266.732	69.12
266.948	24.06
267.164	-14.85
267.38	95.74
267.596	50.69
267.812	71.17
268.028	75.26
268.244	22.02
268.46	1.54
268.676	9.73
268.892	34.3
269.108	-4.61
269.324	38.4
269.54	-12.8
269.756	50.69
269.972	7.68
270.188	50.69
270.403	3.58
270.619	24.06
270.835	58.88
271.051	34.3
271.267	22.02
271.483	58.88
271.698	30.21
271.914	48.64
272.13	40.45
272.346	-2.56
272.562	-8.7
272.777	65.02
272.993	1.54
273.209	17.92
273.425	46.59
273.64	5.63
273.856	13.82
274.072	7.68
274.287	11.78
274.503	65.02
274.719	15.87
274.934	42.5
275.15	-18.94
275.366	56.83
275.581	-0.51
275.797	120.32
276.012	38.4
276.228	-10.75
276.444	-8.7
276.659	103.93
276.875	7.68
277.09	-6.66
277.306	5.63
277.521	46.59
277.737	11.78
277.952	38.4
278.168	46.59
278.383	52.74
278.599	-43.52
278.814	-8.7
279.03	-35.33
279.245	-68.09
279.461	56.83
279.676	32.26
279.892	-45.57
280.107	-0.51
280.322	17.92
280.538	101.89
280.753	-8.7
280.969	62.98
281.184	5.63
281.399	54.78
281.615	-14.85
281.83	-35.33
282.045	38.4
282.26	-59.9
282.476	79.36
282.691	1.54
282.906	30.21
283.122	-25.09
283.337	-20.99
283.552	24.06
283.767	46.59
283.983	-14.85
284.198	24.06
284.413	-35.33
284.628	-27.14
284.843	46.59
285.058	40.45
285.274	69.12
285.489	3.58
285.704	34.3
285.919	19.97
286.134	24.06
286.349	-8.7
286.564	15.87
286.779	-0.51
286.995	128.51
287.21	-27.14
287.425	22.02
287.64	-90.62
287.855	-8.7
288.07	-33.28
288.285	-2.56
288.5	17.92
288.715	89.6
288.93	-4.61
289.145	-14.85
289.36	5.63
289.575	-82.43
289.79	22.02
290.004	-0.51
290.219	-18.94
290.434	-8.7
290.649	-43.52
290.864	24.06
291.079	13.82
291.294	97.79
291.509	24.06
291.724	9.73
291.938	32.26
292.153	22.02
292.368	46.59
292.583	-0.51
292.798	-0.51
293.012	36.35
293.227	13.82
293.442	22.02
293.657	91.65
293.871	71.17
294.086	28.16
294.301	13.82
294.516	48.64
294.73	5.63
294.945	52.74
295.16	34.3
295.374	-8.7
295.589	56.83
295.804	5.63
296.018	15.87
296.233	-68.09
296.447	-2.56
296.662	26.11
296.877	54.78
297.091	62.98
297.306	-10.75
297.52	44.54
297.735	-6.66
297.949	9.73
298.164	65.02
298.378	40.45
298.593	22.02
298.807	-4.61
299.022	9.73
299.236	46.59
299.451	7.68
299.665	-6.66
299.88	17.92
300.094	38.4
300.309	50.69
300.523	22.02
300.737	103.93
300.952	52.74
301.166	38.4
301.381	34.3
301.595	-41.47
301.809	24.06
302.024	-12.8
302.238	24.06
302.452	-10.75
302.667	24.06
302.881	44.54
303.095	71.17
303.309	-0.51
303.524	-39.42
303.738	-27.14
303.952	67.07
304.166	40.45
304.381	-27.14
304.595	112.13
304.809	-8.7
305.023	-16.9
305.237	42.5
305.452	-6.66
305.666	15.87
305.88	1.54
306.094	-14.85
306.308	62.98
306.522	17.92
306.736	132.61
306.95	87.55
307.164	48.64
307.379	-14.85
307.593	79.36
307.807	81.41
308.021	-16.9
308.235	-0.51
308.449	62.98
308.663	50.69
308.877	67.07
309.091	54.78
309.305	34.3
309.519	42.5
309.733	46.59
309.947	85.5
310.161	87.55
310.374	-4.61
310.588	-6.66
310.802	34.3
311.016	54.78
311.23	83.45
311.444	-27.14
311.658	19.97
311.872	13.82
312.085	30.21
312.299	58.88
312.513	5.63
312.727	54.78
312.941	7.68
313.154	-2.56
313.368	108.03
313.582	118.27
313.796	36.35
314.009	56.83
314.223	17.92
314.437	69.12
314.651	50.69
314.864	40.45
315.078	65.02
315.292	38.4
315.505	-49.66
315.719	65.02
315.933	28.16
316.146	71.17
316.36	48.64
316.573	-20.99
316.787	-8.7
317.001	-6.66
317.214	5.63
317.428	87.55
317.641	24.06
317.855	-14.85
318.068	1.54
318.282	-6.66
318.495	112.13
318.709	48.64
318.922	120.32
319.136	130.56
319.349	77.31
319.563	-49.66
319.776	116.22
319.99	24.06
320.203	71.17
320.417	56.83
320.63	-10.75
320.843	87.55
321.057	1.54
321.27	56.83
321.483	60.93
321.697	120.32
321.91	-10.75
322.124	1.54
322.337	-0.51
322.55	-12.8
322.763	-10.75
322.977	146.94
323.19	-20.99
323.403	9.73
323.617	17.92
323.83	62.98
324.043	65.02
324.256	26.11
324.469	13.82
324.683	79.36
324.896	36.35
325.109	46.59
325.322	-59.9
325.535	40.45
325.748	-10.75
325.962	71.17
326.175	48.64
326.388	73.21
326.601	65.02
326.814	124.41
327.027	56.83
327.24	65.02
327.453	-76.29
327.666	34.3
327.879	22.02
328.092	22.02
328.305	118.27
328.518	9.73
328.731	56.83
328.944	54.78
329.157	19.97
329.37	34.3
329.583	62.98
329.796	71.17
330.009	-23.04
330.222	5.63
330.435	54.78
330.648	30.21
330.861	71.17
331.073	-14.85
331.286	-14.85
331.499	42.5
331.712	-51.71
331.925	54.78
332.138	40.45
332.35	114.17
332.563	-16.9
332.776	46.59
332.989	17.92
333.202	26.11
333.414	50.69
333.627	56.83
333.84	-18.94
334.053	24.06
334.265	-14.85
334.478	15.87
334.691	22.02
334.903	38.4
335.116	-68.09
335.329	17.92
335.541	-10.75
335.754	85.5
335.966	42.5
336.179	28.16
336.392	11.78
336.604	-8.7
336.817	5.63
337.029	120.32
337.242	13.82
337.454	13.82
337.667	42.5
337.88	48.64
338.092	38.4
338.305	-23.04
338.517	32.26
338.729	58.88
338.942	67.07
339.154	24.06
339.367	-6.66
339.579	56.83
339.792	34.3
340.004	50.69
340.217	7.68
340.429	-25.09
340.641	30.21
340.854	87.55
341.066	65.02
341.278	95.74
341.491	15.87
341.703	-16.9
341.915	99.84
342.128	-37.38
342.34	30.21
342.552	3.58
342.764	46.59
342.977	48.64
343.189	13.82
343.401	-31.23
343.613	9.73
343.826	48.64
344.038	26.11
344.25	79.36
344.462	48.64
344.674	77.31
344.886	38.4
345.099	22.02
345.311	-6.66
345.523	1.54
345.735	7.68
345.947	22.02
346.159	120.32
346.371	22.02
346.583	-16.9
346.795	79.36
347.007	-2.56
347.219	17.92
347.431	3.58
347.643	58.88
347.855	60.93
348.067	89.6
348.279	11.78
348.491	9.73
348.703	9.73
348.915	103.93
349.127	30.21
349.339	71.17
349.551	-8.7
349.763	30.21
349.975	3.58
350.187	62.98
350.399	95.74
350.61	-0.51
350.822	17.92
351.034	54.78
351.246	56.83
351.458	50.69
351.669	38.4
351.881	87.55
352.093	34.3
352.305	48.64
352.517	65.02
352.728	83.45
352.94	22.02
353.152	85.5
353.363	-0.51
353.575	42.5
353.787	97.79
353.999	99.84
354.21	67.07
354.422	65.02
354.633	3.58
354.845	36.35
355.057	75.26
355.268	103.93
355.48	103.93
355.692	52.74
355.903	-29.18
356.115	40.45
356.326	-0.51
356.538	163.33
356.749	91.65
356.961	38.4
357.172	5.63
357.384	13.82
357.595	83.45
357.807	50.69
358.018	24.06
358.23	-43.52
358.441	30.21
358.653	134.65
358.864	17.92
359.075	19.97
359.287	105.98
359.498	42.5
359.709	17.92
359.921	-0.51
360.132	-14.85
360.344	-0.51
360.555	17.92
360.766	1.54
360.977	28.16
361.189	99.84
361.4	30.21
361.611	144.89
361.823	91.65
362.034	46.59
362.245	22.02
362.456	17.92
362.667	-14.85
362.879	30.21
363.09	54.78
363.301	26.11
363.512	24.06
363.723	-57.86
363.935	24.06
364.146	-47.62
364.357	71.17
364.568	5.63
364.779	30.21
364.99	79.36
365.201	65.02
365.412	79.36
365.623	79.36
365.834	73.21
366.045	1.54
366.256	101.89
366.467	103.93
366.678	114.17
366.889	46.59
367.1	40.45
367.311	3.58
367.522	13.82
367.733	89.6
367.944	40.45
368.155	50.69
368.366	-14.85
368.577	40.45
368.788	13.82
368.999	97.79
369.209	62.98
369.42	161.28
369.631	58.88
369.842	87.55
370.053	95.74
370.264	36.35
370.474	34.3
370.685	1.54
370.896	48.64
371.107	-12.8
371.317	65.02
371.528	7.68
371.739	89.6
371.95	-0.51
372.16	58.88
372.371	71.17
372.582	54.78
372.792	30.21
373.003	7.68
373.214	58.88
373.424	38.4
373.635	13.82
373.846	56.83
374.056	-27.14
374.267	3.58
374.477	40.45
374.688	138.75
374.898	9.73
375.109	81.41
375.319	44.54
375.53	65.02
375.74	108.03
375.951	17.92
376.161	24.06
376.372	105.98
376.582	103.93
376.793	38.4
377.003	34.3
377.214	7.68
377.424	17.92
377.635	17.92
377.845	60.93
378.055	87.55
378.266	-16.9
378.476	62.98
378.686	13.82
378.897	114.17
379.107	130.56
379.317	1.54
379.528	44.54
379.738	5.63
379.948	105.98
380.158	105.98
380.369	83.45
380.579	71.17
380.789	26.11
380.999	105.98
381.21	40.45
381.42	144.89
381.63	46.59
381.84	22.02
382.05	36.35
382.261	81.41
382.471	24.06
382.681	89.6
382.891	56.83
383.101	87.55
383.311	17.92
383.521	79.36
383.731	85.5
383.941	5.63
384.151	26.11
384.361	9.73
384.571	65.02
384.781	83.45
384.991	112.13
385.201	32.26
385.411	32.26
385.621	46.59
385.831	87.55
386.041	65.02
386.251	19.97
386.461	120.32
386.671	-16.9
386.881	91.65
387.091	19.97
387.301	146.94
387.511	-0.51
387.72	50.69
387.93	108.03
388.14	46.59
388.35	95.74
388.56	114.17
388.769	124.41
388.979	67.07
389.189	126.46
389.399	120.32
389.609	97.79
389.818	73.21
390.028	67.07
390.238	105.98
390.447	110.08
390.657	46.59
390.867	73.21
391.076	-4.61
391.286	38.4
391.496	62.98
391.705	75.26
391.915	54.78
392.125	93.69
392.334	50.69
392.544	75.26
392.753	11.78
392.963	79.36
393.172	128.51
393.382	54.78
393.591	146.94
393.801	50.69
394.01	69.12
394.22	46.59
394.429	22.02
394.639	30.21
394.848	95.74
395.058	36.35
395.267	54.78
395.477	75.26
395.686	105.98
395.895	161.28
396.105	112.13
396.314	32.26
396.524	71.17
396.733	13.82
396.942	177.66
397.152	75.26
397.361	103.93
397.57	148.99
397.78	132.61
397.989	132.61
398.198	130.56
398.407	138.75
398.617	185.85
398.826	136.7
399.035	77.31
399.244	165.37
399.453	130.56
399.663	140.8
399.872	101.89
400.081	44.54
400.29	153.09
400.499	32.26
400.708	146.94
400.917	144.89
401.127	144.89
401.336	89.6
401.545	179.71
401.754	108.03
401.963	140.8
402.172	122.37
402.381	136.7
402.59	99.84
402.799	138.75
403.008	163.33
403.217	128.51
403.426	118.27
403.635	112.13
403.844	128.51
404.053	228.86
404.262	136.7
404.471	153.09
404.68	124.41
404.888	122.37
405.097	124.41
405.306	187.9
405.515	216.57
405.724	194.05
405.933	202.24
406.142	200.19
406.35	177.66
406.559	230.91
406.768	241.15
406.977	253.44
407.185	237.05
407.394	226.81
407.603	173.57
407.812	284.16
408.02	253.44
408.229	216.57
408.438	294.4
408.646	212.48
408.855	284.16
409.064	282.11
409.272	251.39
409.481	333.31
409.69	310.78
409.898	345.59
410.107	411.13
410.315	439.8
410.524	427.51
410.733	364.03
410.941	443.9
411.15	357.88
411.358	458.23
411.567	497.14
411.775	417.27
411.984	486.9
412.192	536.06
412.401	523.77
412.609	464.38
412.818	624.12
413.026	581.11
413.234	681.46
413.443	706.04
413.651	671.22
413.86	613.88
414.068	724.47
414.276	843.25
414.485	722.42
414.693	787.96
414.901	816.63
415.11	779.76
415.318	792.05
415.526	818.68
415.734	830.96
415.943	894.45
416.151	1007.09
416.359	1105.39
416.567	1007.09
416.776	1062.38
416.984	1033.71
417.192	1232.37
417.4	1144.3
417.608	1148.4
417.817	1250.8
418.025	1248.75
418.233	1474.03
418.441	1265.13
418.649	1539.56
418.857	1631.72
419.065	1512.94
419.273	1578.47
419.481	1656.29
419.689	1697.25
419.897	1865.19
420.105	1820.13
420.313	1938.91
420.521	1881.57
420.729	1957.35
420.937	1945.06
421.145	2031.07
421.353	2270.69
421.561	2246.11
421.769	2373.08
421.977	2502.11
422.185	2555.35
422.393	2553.31
422.601	2749.91
422.809	2704.85
423.017	2778.58
423.224	2866.64
423.432	2946.52
423.64	2948.56
423.848	3163.6
424.056	3186.13
424.263	3276.24
424.471	3356.11
424.679	3503.56
424.887	3614.15
425.094	3892.68
425.302	3827.14
425.51	3980.74
425.718	3937.73
425.925	3997.12
426.133	4226.5
426.341	4378.05
426.548	4701.62
426.756	4572.6
426.964	4728.25
427.171	5037.49
427.379	5213.62
427.586	5156.27
427.794	5361.07
428.001	5569.96
428.209	5760.42
428.417	5739.94
428.624	6100.39
428.832	6127.01
429.039	6143.39
429.247	6151.59
429.454	6866.33
429.662	7189.91
429.869	6768.02
430.076	7251.35
430.284	6798.74
430.491	7183.76
430.699	7792.01
430.906	7777.67
431.114	7757.19
431.321	7847.3
431.528	8058.25
431.736	8594.81
431.943	9192.82
432.15	8732.03
432.358	8795.51
432.565	9358.71
432.772	9477.49
432.979	9977.19
433.187	10059.11
433.394	9979.24
433.601	10665.31
433.808	10902.87
434.016	10685.79
434.223	11304.28
434.43	11943.24
434.637	11629.9
434.844	12375.36
435.052	12711.23
435.259	12436.8
435.466	12684.61
435.673	12492.1
435.88	13677.87
436.087	14120.23
436.294	13792.56
436.501	13704.49
436.708	13798.7
436.915	14300.45
437.122	15267.1
437.329	14988.57
437.537	15445.27
437.743	15557.91
437.95	15777.04
438.157	16524.55
438.364	17042.68
438.571	16817.41
438.778	17003.77
438.985	18703.59
439.192	18015.47
439.399	18586.85
439.606	18058.48
439.813	18953.44
440.02	20128.97
440.227	19981.52
440.433	19700.95
440.64	20145.36
440.847	20274.38
441.054	20493.51
441.261	22209.71
441.467	21746.87
441.674	22154.41
441.881	22930.59
442.088	23016.61
442.294	22461.61
442.501	23082.14
442.708	23489.69
442.914	24274.06
443.121	25425.02
443.328	25123.97
443.534	26766.44
443.741	25812.09
443.948	25918.58
444.154	27403.36
444.361	27090.02
444.568	27513.95
444.774	27477.08
444.981	27763.8
445.187	28320.85
445.394	29496.38
445.6	29219.91
445.807	32203.8
446.013	30891.05
446.22	31083.56
446.426	32543.76
446.633	32613.39
446.839	33723.39
447.046	32461.84
447.252	33731.58
447.459	34016.25
447.665	33840.12
447.871	35560.42
448.078	36893.65
448.284	35275.75
448.491	36301.78
448.697	37565.38
448.903	38147
449.11	38351.8
449.316	37913.53
449.522	38335.42
449.728	39652.26
449.935	39525.28
450.141	39697.31
450.347	40475.54
450.553	39130.03
450.76	39343.02
450.966	41534.34
451.172	40627.09
451.378	41288.59
451.584	40739.73
451.791	41354.12
451.997	41716.61
452.203	42462.07
452.409	42382.2
452.615	42019.71
452.821	40342.42
453.027	39988.13
453.233	41962.37
453.44	40381.34
453.646	40915.86
453.852	41503.62
454.058	42013.57
454.264	40741.78
454.47	41366.41
454.676	40420.25
454.882	41896.83
455.088	38288.31
455.294	39011.24
455.5	39021.48
455.705	39406.5
455.911	38190.01
456.117	37641.15
456.323	36983.76
456.529	35058.67
456.735	36248.53
456.941	35754.97
457.147	35154.92
457.352	33807.36
457.558	33903.61
457.764	33686.53
457.97	33065.99
458.176	32144.41
458.381	32508.94
458.587	30663.72
458.793	31120.42
458.999	29330.5
459.204	31056.93
459.41	30112.82
459.616	28519.5
459.821	28296.27
460.027	28451.92
460.233	27870.29
460.438	26414.19
460.644	26891.37
460.85	25447.55
461.055	25142.4
461.261	25101.44
461.466	23215.26
461.672	22746.28
461.878	24308.88
462.083	22598.82
462.289	22291.63
462.494	22049.97
462.7	20862.15
462.905	20528.33
463.111	21234.88
463.316	21200.06
463.522	20675.78
463.727	20612.29
463.932	20638.92
464.138	20731.08
464.343	20647.11
464.549	19905.74
464.754	20755.65
464.959	20169.93
465.165	20235.47
465.37	19354.84
465.575	18971.87
465.781	19789.01
465.986	19864.78
466.191	19107.04
466.397	18558.18
466.602	18236.65
466.807	18625.76
467.012	18656.48
467.218	18115.82
467.423	18263.27
