Data from USB4F104151__114__14-18-19-933.txt Node

Date: Thu Mar 13 14:18:19 EDT 2025
User: louis
Spectrometer: USB4F10415
Trigger mode: 4
Integration Time (sec): 2.000000E-2
Scans to average: 1
Electric dark correction enabled: true
Nonlinearity correction enabled: false
Boxcar width: 0
XAxis mode: Wavelengths
Number of Pixels in Spectrum: 3648
>>>>>Begin Spectral Data<<<<<
178.204	-56.15
178.424	-56.15
178.644	-56.15
178.864	-62.29
179.084	-105.3
179.304	-4.95
179.524	9.39
179.744	-31.57
179.964	42.15
180.184	-33.62
180.404	-31.57
180.624	36.01
180.844	25.77
181.064	-7
181.283	17.58
181.503	23.72
181.723	-45.91
181.943	-11.09
182.163	91.31
182.383	5.29
182.602	-64.34
182.822	85.16
183.042	46.25
183.262	5.29
183.482	33.96
183.701	-31.57
183.921	83.11
184.141	-21.33
184.361	9.39
184.58	3.24
184.8	50.35
185.02	54.44
185.239	44.2
185.459	64.68
185.679	50.35
185.898	-45.91
186.118	9.39
186.338	-25.43
186.557	70.83
186.777	-19.29
186.997	11.43
187.216	-7
187.436	101.55
187.655	13.48
187.875	50.35
188.095	54.44
188.314	85.16
188.534	87.21
188.753	36.01
188.973	66.73
189.192	17.58
189.412	-17.24
189.631	66.73
189.851	13.48
190.07	85.16
190.29	-7
190.509	-4.95
190.729	58.54
190.948	66.73
191.168	115.88
191.387	17.58
191.607	42.15
191.826	-23.38
192.045	48.3
192.265	91.31
192.484	33.96
192.704	36.01
192.923	-72.53
193.142	109.74
193.362	66.73
193.581	50.35
193.8	54.44
194.02	52.39
194.239	9.39
194.458	31.91
194.678	-35.67
194.897	46.25
195.116	46.25
195.335	52.39
195.555	-13.14
195.774	-7
195.993	58.54
196.212	13.48
196.432	74.92
196.651	-15.19
196.87	42.15
197.089	107.69
197.308	13.48
197.528	76.97
197.747	60.59
197.966	9.39
198.185	97.45
198.404	-35.67
198.623	42.15
198.842	107.69
199.062	29.87
199.281	19.63
199.5	-7
199.719	21.67
199.938	60.59
200.157	-66.39
200.376	17.58
200.595	76.97
200.814	60.59
201.033	27.82
201.252	17.58
201.471	21.67
201.69	13.48
201.909	29.87
202.128	58.54
202.347	5.29
202.566	72.87
202.785	13.48
203.004	7.34
203.223	33.96
203.442	42.15
203.661	1.19
203.879	52.39
204.098	74.92
204.317	50.35
204.536	66.73
204.755	23.72
204.974	91.31
205.193	38.06
205.411	156.84
205.63	19.63
205.849	56.49
206.068	-4.95
206.287	42.15
206.505	76.97
206.724	68.78
206.943	-11.09
207.162	46.25
207.381	66.73
207.599	-25.43
207.818	9.39
208.037	11.43
208.255	-21.33
208.474	44.2
208.693	44.2
208.911	-29.52
209.13	-13.14
209.349	50.35
209.567	-11.09
209.786	72.87
210.005	21.67
210.223	-7
210.442	81.07
210.661	60.59
210.879	103.59
211.098	-13.14
211.316	36.01
211.535	117.93
211.753	3.24
211.972	46.25
212.191	33.96
212.409	9.39
212.628	25.77
212.846	42.15
213.065	95.4
213.283	-9.05
213.502	-0.85
213.72	44.2
213.938	52.39
214.157	117.93
214.375	21.67
214.594	-9.05
214.812	74.92
215.031	74.92
215.249	74.92
215.467	42.15
215.686	93.35
215.904	93.35
216.122	48.3
216.341	93.35
216.559	85.16
216.778	99.5
216.996	11.43
217.214	-7
217.432	7.34
217.651	11.43
217.869	60.59
218.087	9.39
218.306	31.91
218.524	56.49
218.742	33.96
218.96	60.59
219.179	-47.96
219.397	91.31
219.615	74.92
219.833	38.06
220.051	1.19
220.27	64.68
220.488	68.78
220.706	42.15
220.924	27.82
221.142	27.82
221.36	25.77
221.578	-0.85
221.796	-9.05
222.015	13.48
222.233	91.31
222.451	93.35
222.669	74.92
222.887	-2.9
223.105	9.39
223.323	5.29
223.541	-45.91
223.759	25.77
223.977	3.24
224.195	76.97
224.413	25.77
224.631	29.87
224.849	81.07
225.067	74.92
225.285	19.63
225.503	-7
225.721	-15.19
225.939	17.58
226.157	70.83
226.375	124.07
226.592	3.24
226.81	87.21
227.028	33.96
227.246	27.82
227.464	38.06
227.682	91.31
227.9	91.31
228.117	74.92
228.335	13.48
228.553	36.01
228.771	76.97
228.989	103.59
229.206	17.58
229.424	25.77
229.642	17.58
229.86	17.58
230.077	46.25
230.295	50.35
230.513	60.59
230.731	68.78
230.948	91.31
231.166	136.36
231.384	25.77
231.601	64.68
231.819	25.77
232.037	111.78
232.254	17.58
232.472	25.77
232.689	48.3
232.907	46.25
233.125	-4.95
233.342	5.29
233.56	-15.19
233.777	17.58
233.995	9.39
234.213	36.01
234.43	25.77
234.648	70.83
234.865	48.3
235.083	66.73
235.3	17.58
235.518	27.82
235.735	52.39
235.953	36.01
236.17	42.15
236.388	-35.67
236.605	23.72
236.822	21.67
237.04	107.69
237.257	11.43
237.475	33.96
237.692	42.15
237.909	64.68
238.127	60.59
238.344	25.77
238.562	83.11
238.779	-23.38
238.996	38.06
239.214	50.35
239.431	122.02
239.648	50.35
239.865	124.07
240.083	46.25
240.3	-35.67
240.517	-21.33
240.735	52.39
240.952	42.15
241.169	83.11
241.386	-0.85
241.603	19.63
241.821	-23.38
242.038	50.35
242.255	15.53
242.472	58.54
242.689	17.58
242.907	130.22
243.124	27.82
243.341	-7
243.558	9.39
243.775	33.96
243.992	62.63
244.209	111.78
244.426	171.18
244.643	-11.09
244.86	50.35
245.078	68.78
245.295	134.31
245.512	56.49
245.729	-2.9
245.946	124.07
246.163	15.53
246.38	38.06
246.597	40.11
246.814	17.58
247.031	-25.43
247.248	25.77
247.464	-4.95
247.681	-25.43
247.898	3.24
248.115	58.54
248.332	-13.14
248.549	3.24
248.766	107.69
248.983	103.59
249.2	27.82
249.417	93.35
249.633	-33.62
249.85	-31.57
250.067	38.06
250.284	25.77
250.501	79.02
250.717	40.11
250.934	99.5
251.151	-23.38
251.368	9.39
251.585	54.44
251.801	-9.05
252.018	-31.57
252.235	-56.15
252.451	44.2
252.668	-43.86
252.885	107.69
253.102	83.11
253.318	19.63
253.535	-27.48
253.752	79.02
253.968	21.67
254.185	42.15
254.401	50.35
254.618	27.82
254.835	60.59
255.051	52.39
255.268	33.96
255.484	60.59
255.701	40.11
255.917	-4.95
256.134	11.43
256.351	52.39
256.567	-9.05
256.784	93.35
257	9.39
257.217	-23.38
257.433	74.92
257.65	91.31
257.866	38.06
258.082	13.48
258.299	36.01
258.515	74.92
258.732	126.12
258.948	15.53
259.165	17.58
259.381	-21.33
259.597	50.35
259.814	-11.09
260.03	36.01
260.246	-0.85
260.463	109.74
260.679	3.24
260.895	50.35
261.112	11.43
261.328	-4.95
261.544	1.19
261.761	62.63
261.977	38.06
262.193	-41.81
262.409	27.82
262.626	48.3
262.842	17.58
263.058	17.58
263.274	142.5
263.49	74.92
263.707	76.97
263.923	25.77
264.139	50.35
264.355	-25.43
264.571	52.39
264.787	1.19
265.004	-37.72
265.22	-2.9
265.436	-19.29
265.652	25.77
265.868	15.53
266.084	25.77
266.3	124.07
266.516	-13.14
266.732	33.96
266.948	83.11
267.164	17.58
267.38	87.21
267.596	36.01
267.812	83.11
268.028	74.92
268.244	17.58
268.46	25.77
268.676	9.39
268.892	83.11
269.108	58.54
269.324	17.58
269.54	74.92
269.756	36.01
269.972	-62.29
270.188	29.87
270.403	9.39
270.619	74.92
270.835	15.53
271.051	44.2
271.267	40.11
271.483	15.53
271.698	52.39
271.914	27.82
272.13	66.73
272.346	23.72
272.562	128.17
272.777	7.34
272.993	-21.33
273.209	7.34
273.425	52.39
273.64	-29.52
273.856	42.15
274.072	-4.95
274.287	-31.57
274.503	33.96
274.719	70.83
274.934	36.01
275.15	-43.86
275.366	-23.38
275.581	25.77
275.797	62.63
276.012	38.06
276.228	50.35
276.444	58.54
276.659	17.58
276.875	101.55
277.09	54.44
277.306	70.83
277.521	21.67
277.737	3.24
277.952	66.73
278.168	-15.19
278.383	52.39
278.599	54.44
278.814	52.39
279.03	11.43
279.245	93.35
279.461	74.92
279.676	25.77
279.892	27.82
280.107	50.35
280.322	74.92
280.538	-2.9
280.753	5.29
280.969	3.24
281.184	44.2
281.399	21.67
281.615	13.48
281.83	52.39
282.045	-13.14
282.26	3.24
282.476	48.3
282.691	19.63
282.906	54.44
283.122	-19.29
283.337	-7
283.552	68.78
283.767	25.77
283.983	91.31
284.198	15.53
284.413	74.92
284.628	1.19
284.843	101.55
285.058	52.39
285.274	1.19
285.489	44.2
285.704	93.35
285.919	52.39
286.134	48.3
286.349	9.39
286.564	9.39
286.779	124.07
286.995	-37.72
287.21	36.01
287.425	33.96
287.64	46.25
287.855	68.78
288.07	-2.9
288.285	21.67
288.5	9.39
288.715	58.54
288.93	83.11
289.145	-39.76
289.36	70.83
289.575	83.11
289.79	66.73
290.004	79.02
290.219	132.26
290.434	17.58
290.649	1.19
290.864	95.4
291.079	109.74
291.294	36.01
291.509	33.96
291.724	99.5
291.938	11.43
292.153	66.73
292.368	46.25
292.583	36.01
292.798	117.93
293.012	103.59
293.227	25.77
293.442	54.44
293.657	13.48
293.871	-7
294.086	31.91
294.301	99.5
294.516	36.01
294.73	9.39
294.945	62.63
295.16	-52.05
295.374	66.73
295.589	60.59
295.804	52.39
296.018	25.77
296.233	25.77
296.447	50.35
296.662	13.48
296.877	74.92
297.091	17.58
297.306	76.97
297.52	17.58
297.735	50.35
297.949	95.4
298.164	31.91
298.378	79.02
298.593	9.39
298.807	44.2
299.022	72.87
299.236	91.31
299.451	81.07
299.665	29.87
299.88	52.39
300.094	29.87
300.309	72.87
300.523	85.16
300.737	-7
300.952	115.88
301.166	54.44
301.381	64.68
301.595	3.24
301.809	46.25
302.024	19.63
302.238	-2.9
302.452	115.88
302.667	-33.62
302.881	27.82
303.095	99.5
303.309	52.39
303.524	29.87
303.738	68.78
303.952	85.16
304.166	109.74
304.381	-15.19
304.595	70.83
304.809	40.11
305.023	44.2
305.237	60.59
305.452	107.69
305.666	1.19
305.88	17.58
306.094	62.63
306.308	72.87
306.522	79.02
306.736	70.83
306.95	44.2
307.164	27.82
307.379	58.54
307.593	119.98
307.807	81.07
308.021	13.48
308.235	13.48
308.449	-0.85
308.663	-62.29
308.877	126.12
309.091	44.2
309.305	93.35
309.519	-23.38
309.733	103.59
309.947	52.39
310.161	46.25
310.374	54.44
310.588	101.55
310.802	25.77
311.016	66.73
311.23	117.93
311.444	85.16
311.658	-4.95
311.872	5.29
312.085	36.01
312.299	79.02
312.513	113.83
312.727	-2.9
312.941	54.44
313.154	117.93
313.368	36.01
313.582	99.5
313.796	54.44
314.009	19.63
314.223	9.39
314.437	91.31
314.651	19.63
314.864	48.3
315.078	42.15
315.292	42.15
315.505	21.67
315.719	117.93
315.933	60.59
316.146	68.78
316.36	33.96
316.573	95.4
316.787	42.15
317.001	33.96
317.214	17.58
317.428	62.63
317.641	42.15
317.855	13.48
318.068	15.53
318.282	85.16
318.495	103.59
318.709	58.54
318.922	85.16
319.136	54.44
319.349	52.39
319.563	74.92
319.776	83.11
319.99	36.01
320.203	83.11
320.417	79.02
320.63	87.21
320.843	58.54
321.057	83.11
321.27	15.53
321.483	68.78
321.697	-15.19
321.91	83.11
322.124	107.69
322.337	91.31
322.55	1.19
322.763	13.48
322.977	42.15
323.19	13.48
323.403	68.78
323.617	124.07
323.83	142.5
324.043	38.06
324.256	93.35
324.469	38.06
324.683	117.93
324.896	29.87
325.109	83.11
325.322	64.68
325.535	107.69
325.748	91.31
325.962	58.54
326.175	42.15
326.388	17.58
326.601	85.16
326.814	101.55
327.027	58.54
327.24	85.16
327.453	-2.9
327.666	9.39
327.879	107.69
328.092	107.69
328.305	40.11
328.518	91.31
328.731	15.53
328.944	87.21
329.157	36.01
329.37	-29.52
329.583	68.78
329.796	81.07
330.009	105.64
330.222	93.35
330.435	62.63
330.648	91.31
330.861	76.97
331.073	99.5
331.286	107.69
331.499	52.39
331.712	-4.95
331.925	89.26
332.138	27.82
332.35	40.11
332.563	23.72
332.776	99.5
332.989	31.91
333.202	1.19
333.414	74.92
333.627	140.46
333.84	21.67
334.053	68.78
334.265	50.35
334.478	29.87
334.691	-7
334.903	60.59
335.116	-0.85
335.329	27.82
335.541	44.2
335.754	115.88
335.966	38.06
336.179	44.2
336.392	-11.09
336.604	91.31
336.817	54.44
337.029	9.39
337.242	52.39
337.454	60.59
337.667	74.92
337.88	107.69
338.092	128.17
338.305	46.25
338.517	17.58
338.729	117.93
338.942	48.3
339.154	33.96
339.367	-27.48
339.579	-4.95
339.792	5.29
340.004	89.26
340.217	13.48
340.429	91.31
340.641	25.77
340.854	33.96
341.066	33.96
341.278	68.78
341.491	58.54
341.703	46.25
341.915	48.3
342.128	13.48
342.34	15.53
342.552	25.77
342.764	15.53
342.977	89.26
343.189	-19.29
343.401	66.73
343.613	-11.09
343.826	58.54
344.038	42.15
344.25	97.45
344.462	50.35
344.674	58.54
344.886	93.35
345.099	58.54
345.311	76.97
345.523	19.63
345.735	93.35
345.947	66.73
346.159	85.16
346.371	150.7
346.583	23.72
346.795	146.6
347.007	-2.9
347.219	101.55
347.431	99.5
347.643	19.63
347.855	56.49
348.067	46.25
348.279	109.74
348.491	128.17
348.703	83.11
348.915	-2.9
349.127	74.92
349.339	66.73
349.551	33.96
349.763	93.35
349.975	40.11
350.187	60.59
350.399	66.73
350.61	33.96
350.822	33.96
351.034	144.55
351.246	85.16
351.458	46.25
351.669	52.39
351.881	85.16
352.093	44.2
352.305	95.4
352.517	44.2
352.728	109.74
352.94	58.54
353.152	-21.33
353.363	25.77
353.575	103.59
353.787	119.98
353.999	103.59
354.21	93.35
354.422	19.63
354.633	40.11
354.845	142.5
355.057	-13.14
355.268	21.67
355.48	76.97
355.692	56.49
355.903	48.3
356.115	93.35
356.326	44.2
356.538	46.25
356.749	-25.43
356.961	70.83
357.172	50.35
357.384	1.19
357.595	101.55
357.807	36.01
358.018	44.2
358.23	1.19
358.441	83.11
358.653	58.54
358.864	101.55
359.075	76.97
359.287	9.39
359.498	91.31
359.709	85.16
359.921	70.83
360.132	74.92
360.344	25.77
360.555	74.92
360.766	76.97
360.977	132.26
361.189	142.5
361.4	19.63
361.611	23.72
361.823	83.11
362.034	85.16
362.245	-7
362.456	36.01
362.667	74.92
362.879	62.63
363.09	21.67
363.301	99.5
363.512	97.45
363.723	62.63
363.935	54.44
364.146	46.25
364.357	105.64
364.568	68.78
364.779	89.26
364.99	79.02
365.201	46.25
365.412	91.31
365.623	9.39
365.834	68.78
366.045	87.21
366.256	56.49
366.467	52.39
366.678	66.73
366.889	74.92
367.1	115.88
367.311	33.96
367.522	83.11
367.733	93.35
367.944	44.2
368.155	19.63
368.366	160.94
368.577	103.59
368.788	38.06
368.999	36.01
369.209	52.39
369.42	107.69
369.631	79.02
369.842	91.31
370.053	42.15
370.264	117.93
370.474	109.74
370.685	42.15
370.896	130.22
371.107	122.02
371.317	74.92
371.528	25.77
371.739	126.12
371.95	29.87
372.16	-15.19
372.371	33.96
372.582	25.77
372.792	109.74
373.003	72.87
373.214	23.72
373.424	101.55
373.635	83.11
373.846	142.5
374.056	103.59
374.267	74.92
374.477	33.96
374.688	58.54
374.898	50.35
375.109	46.25
375.319	115.88
375.53	109.74
375.74	62.63
375.951	81.07
376.161	38.06
376.372	109.74
376.582	70.83
376.793	19.63
377.003	17.58
377.214	81.07
377.424	50.35
377.635	50.35
377.845	76.97
378.055	134.31
378.266	95.4
378.476	115.88
378.686	64.68
378.897	165.03
379.107	33.96
379.317	107.69
379.528	33.96
379.738	136.36
379.948	33.96
380.158	27.82
380.369	119.98
380.579	107.69
380.789	60.59
380.999	119.98
381.21	66.73
381.42	85.16
381.63	134.31
381.84	128.17
382.05	79.02
382.261	93.35
382.471	74.92
382.681	50.35
382.891	83.11
383.101	171.18
383.311	58.54
383.521	58.54
383.731	83.11
383.941	111.78
384.151	99.5
384.361	68.78
384.571	107.69
384.781	52.39
384.991	74.92
385.201	124.07
385.411	93.35
385.621	97.45
385.831	79.02
386.041	50.35
386.251	136.36
386.461	68.78
386.671	5.29
386.881	36.01
387.091	25.77
387.301	99.5
387.511	21.67
387.72	21.67
387.93	144.55
388.14	66.73
388.35	52.39
388.56	81.07
388.769	99.5
388.979	38.06
389.189	83.11
389.399	74.92
389.609	70.83
389.818	111.78
390.028	177.32
390.238	115.88
390.447	52.39
390.657	36.01
390.867	66.73
391.076	44.2
391.286	107.69
391.496	173.22
391.705	54.44
391.915	148.65
392.125	160.94
392.334	42.15
392.544	99.5
392.753	111.78
392.963	95.4
393.172	99.5
393.382	95.4
393.591	156.84
393.801	68.78
394.01	66.73
394.22	156.84
394.429	19.63
394.639	60.59
394.848	152.74
395.058	140.46
395.267	107.69
395.477	142.5
395.686	132.26
395.895	189.61
396.105	160.94
396.314	95.4
396.524	72.87
396.733	128.17
396.942	124.07
397.152	199.85
397.361	124.07
397.57	99.5
397.78	132.26
397.989	158.89
398.198	117.93
398.407	124.07
398.617	66.73
398.826	158.89
399.035	242.85
399.244	183.46
399.453	66.73
399.663	132.26
399.872	222.38
400.081	142.5
400.29	115.88
400.499	74.92
400.708	189.61
400.917	175.27
401.127	181.42
401.336	173.22
401.545	169.13
401.754	234.66
401.963	167.08
402.172	191.66
402.381	142.5
402.59	189.61
402.799	160.94
403.008	201.9
403.217	167.08
403.426	189.61
403.635	189.61
403.844	95.4
404.053	267.43
404.262	140.46
404.471	234.66
404.68	234.66
404.888	230.57
405.097	177.32
405.306	244.9
405.515	230.57
405.724	185.51
405.933	224.42
406.142	261.29
406.35	240.81
406.559	179.37
406.768	267.43
406.977	361.64
407.185	339.11
407.394	275.62
407.603	339.11
407.812	304.29
408.02	353.45
408.229	382.12
408.438	353.45
408.646	351.4
408.855	371.88
409.064	382.12
409.272	345.25
409.481	382.12
409.69	404.64
409.898	435.36
410.107	443.56
410.315	574.63
410.524	447.65
410.733	498.85
410.941	591.01
411.15	550.05
411.358	447.65
411.567	666.78
411.775	523.43
411.984	543.91
412.192	533.67
412.401	574.63
412.609	722.08
412.818	617.63
413.026	711.84
413.234	717.98
413.443	726.18
413.651	734.37
413.86	709.79
414.068	904.35
414.276	861.34
414.485	775.33
414.693	816.29
414.901	976.03
415.11	967.84
415.318	963.74
415.526	959.64
415.734	1078.43
415.943	1094.81
416.151	1199.26
416.359	1180.82
416.567	1123.48
416.776	1154.2
416.984	1289.37
417.192	1328.28
417.4	1354.9
417.608	1402.01
417.817	1512.6
418.025	1490.07
418.233	1680.53
418.441	1535.12
418.649	1684.62
418.857	1696.91
419.065	1811.6
419.273	1795.22
419.481	1778.83
419.689	1983.63
419.897	1965.2
420.105	2108.55
420.313	2217.1
420.521	2024.59
420.729	2391.17
420.937	2356.36
421.145	2368.65
421.353	2538.63
421.561	2704.51
421.769	2655.36
421.977	2794.62
422.185	2786.43
422.393	2925.69
422.601	3085.44
422.809	3064.96
423.017	3265.66
423.224	3253.37
423.432	3398.77
423.64	3544.18
423.848	3703.92
424.056	3679.35
424.263	3968.11
424.471	3875.95
424.679	3951.73
424.887	4267.11
425.094	4349.03
425.302	4306.02
425.51	4449.38
425.718	4711.52
425.925	4670.56
426.133	4785.25
426.341	5291.1
426.548	5479.51
426.756	5428.31
426.964	5469.27
427.171	5776.47
427.379	5930.06
427.586	6011.98
427.794	6112.33
428.001	6308.94
428.209	6710.34
428.417	6679.62
428.624	7195.71
428.832	6943.81
429.039	7042.11
429.247	7048.26
429.454	7625.78
429.662	8324.14
429.869	7664.69
430.076	8289.32
430.284	8045.62
430.491	8320.04
430.699	8840.23
430.906	8746.02
431.114	9135.14
431.321	9335.84
431.528	9569.3
431.736	10138.64
431.943	10585.1
432.15	10101.78
432.358	10155.02
432.565	10990.59
432.772	10961.92
432.979	11359.23
433.187	11781.11
433.394	11748.34
433.601	12502
433.808	12465.13
434.016	12483.56
434.223	12915.69
434.43	13487.07
434.637	13366.24
434.844	14332.88
435.052	14556.11
435.259	14203.86
435.466	14547.92
435.673	14318.54
435.88	15332.29
436.087	16139.19
436.294	15985.59
436.501	15905.72
436.708	16094.13
436.915	16567.21
437.122	17298.34
437.329	17218.47
437.537	17892.25
437.743	18219.92
437.95	17978.26
438.157	19047.3
438.364	19630.98
438.571	19338.12
438.778	19735.42
438.985	21332.84
439.192	20534.13
439.399	21187.43
439.606	20401.01
439.813	22127.45
440.02	23380.81
440.227	22782.8
440.433	22444.88
440.64	23427.91
440.847	23300.94
441.054	23747.39
441.261	25088.81
441.467	24828.72
441.674	25580.32
441.881	26225.43
442.088	26399.51
442.294	26034.97
442.501	26739.47
442.708	27456.26
442.914	28097.28
443.121	29360.87
443.328	28730.1
443.534	30733.01
443.741	29283.05
443.948	29504.23
444.154	31984.32
444.361	31451.85
444.568	31435.47
444.774	31611.59
444.981	31969.99
445.187	32793.27
445.394	34112.16
445.6	33778.34
445.807	36946.55
446.013	34976.4
446.22	36049.54
446.426	37132.92
446.633	37589.61
446.839	39414.35
447.046	37184.12
447.252	39436.88
447.459	39699.02
447.665	39017.05
447.871	40669.76
448.078	42246.69
448.284	40452.67
448.491	41873.96
448.697	43139.61
448.903	43964.94
449.11	44222.98
449.316	43522.58
449.522	44358.15
449.728	45351.41
449.935	45804.02
450.141	45496.82
450.347	46438.89
450.553	45076.99
450.76	45836.78
450.966	47385.05
451.172	46639.59
451.378	48251.34
451.584	47237.59
451.791	48005.58
451.997	47686.1
452.203	48435.66
452.409	48755.14
452.615	48601.54
452.821	46866.91
453.027	45984.24
453.233	48744.9
453.44	46522.85
453.646	47223.26
453.852	47475.16
454.058	48630.21
454.264	46823.9
454.47	48132.56
454.676	46821.86
454.882	48280.01
455.088	43962.89
455.294	44708.35
455.5	45357.56
455.705	45638.13
455.911	44425.73
456.117	43471.38
456.323	43295.25
456.529	40321.6
456.735	42525.22
456.941	40811.07
457.147	40555.07
457.352	39252.56
457.558	38910.55
457.764	39246.42
457.97	38738.52
458.176	37462.64
458.381	37192.31
458.587	35914.37
458.793	35967.62
458.999	34192.03
459.204	36416.13
459.41	35330.7
459.616	32850.61
459.821	33168.05
460.027	33088.18
460.233	32508.6
460.438	30884.56
460.644	31343.31
460.85	29858.53
461.055	29309.68
461.261	29201.13
461.466	27155.21
461.672	25971.49
461.878	28001.02
462.083	26559.25
462.289	25535.27
462.494	25477.93
462.7	24400.69
462.905	24030.01
463.111	24920.88
463.316	24519.48
463.522	24099.64
463.727	24154.94
463.932	24187.71
464.138	23860.03
464.343	23892.8
464.549	23317.32
464.754	24040.25
464.959	23917.37
465.165	23444.29
465.37	22649.68
465.575	22313.81
465.781	22987.6
465.986	22915.92
466.191	22006.62
466.397	21656.42
466.602	20892.52
466.807	21371.75
467.012	21437.28
