Data from USB4F104151__32__14-16-33-391.txt Node

Date: Thu Mar 13 14:16:33 EDT 2025
User: louis
Spectrometer: USB4F10415
Trigger mode: 4
Integration Time (sec): 2.000000E-2
Scans to average: 1
Electric dark correction enabled: true
Nonlinearity correction enabled: false
Boxcar width: 0
XAxis mode: Wavelengths
Number of Pixels in Spectrum: 3648
>>>>>Begin Spectral Data<<<<<
178.204	-140.63
178.424	-140.63
178.644	-140.63
178.864	-85.33
179.084	-85.33
179.304	47.79
179.524	0.68
179.744	-17.75
179.964	60.07
180.184	-11.61
180.404	6.83
180.624	-30.04
180.844	-23.89
181.064	-32.08
181.283	4.78
181.503	-46.42
181.723	41.64
181.943	12.97
182.163	84.65
182.383	-13.65
182.602	17.07
182.822	-48.47
183.042	66.22
183.262	23.21
183.482	4.78
183.701	17.07
183.921	-48.47
184.141	-3.41
184.361	17.07
184.58	90.79
184.8	-46.42
185.02	10.92
185.239	76.46
185.459	94.89
185.679	27.31
185.898	37.55
186.118	-13.65
186.338	25.26
186.557	25.26
186.777	-32.08
186.997	0.68
187.216	4.78
187.436	109.22
187.655	0.68
187.875	-44.37
188.095	25.26
188.314	49.83
188.534	68.27
188.753	10.92
188.973	25.26
189.192	82.6
189.412	4.78
189.631	33.45
189.851	35.5
190.07	31.4
190.29	12.97
190.509	-81.24
190.729	-40.28
190.948	64.17
191.168	148.14
191.387	66.22
191.607	10.92
191.826	4.78
192.045	-25.94
192.265	27.31
192.484	84.65
192.704	-32.08
192.923	-48.47
193.142	51.88
193.362	70.31
193.581	66.22
193.8	60.07
194.02	33.45
194.239	8.87
194.458	-17.75
194.678	-79.19
194.897	-5.46
195.116	35.5
195.335	2.73
195.555	-73.04
195.774	41.64
195.993	19.11
196.212	58.03
196.432	-50.52
196.651	-56.66
196.87	-1.37
197.089	62.12
197.308	29.35
197.528	55.98
197.747	-71
197.966	-17.75
198.185	66.22
198.404	76.46
198.623	49.83
198.842	66.22
199.062	37.55
199.281	-3.41
199.5	-1.37
199.719	15.02
199.938	-11.61
200.157	27.31
200.376	66.22
200.595	49.83
200.814	17.07
201.033	31.4
201.252	19.11
201.471	4.78
201.69	72.36
201.909	17.07
202.128	41.64
202.347	68.27
202.566	-7.51
202.785	-27.99
203.004	-11.61
203.223	80.55
203.442	60.07
203.661	21.16
203.879	0.68
204.098	66.22
204.317	74.41
204.536	60.07
204.755	2.73
204.974	62.12
205.193	29.35
205.411	96.94
205.63	66.22
205.849	31.4
206.068	31.4
206.287	33.45
206.505	-48.47
206.724	58.03
206.943	49.83
207.162	74.41
207.381	-5.46
207.599	-19.8
207.818	0.68
208.037	-50.52
208.255	-13.65
208.474	45.74
208.693	-38.23
208.911	51.88
209.13	62.12
209.349	-5.46
209.567	17.07
209.786	-3.41
210.005	43.69
210.223	-30.04
210.442	12.97
210.661	25.26
210.879	12.97
211.098	45.74
211.316	72.36
211.535	10.92
211.753	-21.85
211.972	115.37
212.191	55.98
212.409	74.41
212.628	17.07
212.846	62.12
213.065	8.87
213.283	98.99
213.502	25.26
213.72	51.88
213.938	8.87
214.157	-15.7
214.375	68.27
214.594	23.21
214.812	43.69
215.031	6.83
215.249	-32.08
215.467	51.88
215.686	62.12
215.904	37.55
216.122	15.02
216.341	8.87
216.559	33.45
216.778	8.87
216.996	94.89
217.214	17.07
217.432	45.74
217.651	41.64
217.869	-11.61
218.087	33.45
218.306	37.55
218.524	80.55
218.742	17.07
218.96	43.69
219.179	17.07
219.397	98.99
219.615	66.22
219.833	49.83
220.051	-1.37
220.27	33.45
220.488	-1.37
220.706	-73.04
220.924	-73.04
221.142	4.78
221.36	82.6
221.578	49.83
221.796	-27.99
222.015	33.45
222.233	109.22
222.451	-30.04
222.669	29.35
222.887	29.35
223.105	0.68
223.323	-9.56
223.541	35.5
223.759	17.07
223.977	4.78
224.195	107.18
224.413	17.07
224.631	39.59
224.849	0.68
225.067	43.69
225.285	-7.51
225.503	129.7
225.721	-44.37
225.939	47.79
226.157	-23.89
226.375	66.22
226.592	4.78
226.81	35.5
227.028	84.65
227.246	74.41
227.464	-32.08
227.682	68.27
227.9	25.26
228.117	-50.52
228.335	19.11
228.553	-27.99
228.771	25.26
228.989	60.07
229.206	84.65
229.424	88.75
229.642	74.41
229.86	60.07
230.077	74.41
230.295	19.11
230.513	43.69
230.731	49.83
230.948	23.21
231.166	33.45
231.384	33.45
231.601	25.26
231.819	-19.8
232.037	39.59
232.254	15.02
232.472	-13.65
232.689	19.11
232.907	17.07
233.125	21.16
233.342	8.87
233.56	-5.46
233.777	4.78
233.995	29.35
234.213	-60.76
234.43	2.73
234.648	19.11
234.865	45.74
235.083	47.79
235.3	-23.89
235.518	55.98
235.735	10.92
235.953	10.92
236.17	-15.7
236.388	-11.61
236.605	-13.65
236.822	25.26
237.04	37.55
237.257	70.31
237.475	-23.89
237.692	-13.65
237.909	98.99
238.127	78.51
238.344	-30.04
238.562	82.6
238.779	-17.75
238.996	-32.08
239.214	-48.47
239.431	92.84
239.648	-38.23
239.865	76.46
240.083	51.88
240.3	-7.51
240.517	-32.08
240.735	10.92
240.952	88.75
241.169	115.37
241.386	-23.89
241.603	-30.04
241.821	8.87
242.038	66.22
242.255	45.74
242.472	-21.85
242.689	51.88
242.907	86.7
243.124	41.64
243.341	33.45
243.558	-5.46
243.775	-3.41
243.992	41.64
244.209	41.64
244.426	60.07
244.643	33.45
244.86	-5.46
245.078	74.41
245.295	60.07
245.512	-15.7
245.729	-48.47
245.946	2.73
246.163	33.45
246.38	27.31
246.597	33.45
246.814	45.74
247.031	60.07
247.248	37.55
247.464	51.88
247.681	-19.8
247.898	8.87
248.115	47.79
248.332	43.69
248.549	55.98
248.766	39.59
248.983	41.64
249.2	66.22
249.417	58.03
249.633	68.27
249.85	17.07
250.067	-13.65
250.284	-3.41
250.501	12.97
250.717	74.41
250.934	-23.89
251.151	86.7
251.368	88.75
251.585	2.73
251.801	62.12
252.018	41.64
252.235	64.17
252.451	29.35
252.668	23.21
252.885	31.4
253.102	29.35
253.318	55.98
253.535	-7.51
253.752	78.51
253.968	35.5
254.185	-62.8
254.401	90.79
254.618	27.31
254.835	-32.08
255.051	58.03
255.268	41.64
255.484	-5.46
255.701	17.07
255.917	-11.61
256.134	-64.85
256.351	76.46
256.567	82.6
256.784	12.97
257	-7.51
257.217	60.07
257.433	58.03
257.65	78.51
257.866	-5.46
258.082	29.35
258.299	70.31
258.515	96.94
258.732	62.12
258.948	0.68
259.165	-5.46
259.381	51.88
259.597	8.87
259.814	45.74
260.03	-54.61
260.246	41.64
260.463	66.22
260.679	74.41
260.895	10.92
261.112	27.31
261.328	21.16
261.544	-13.65
261.761	62.12
261.977	66.22
262.193	-11.61
262.409	47.79
262.626	43.69
262.842	58.03
263.058	-13.65
263.274	70.31
263.49	8.87
263.707	94.89
263.923	74.41
264.139	-5.46
264.355	-5.46
264.571	76.46
264.787	25.26
265.004	27.31
265.22	-3.41
265.436	-25.94
265.652	82.6
265.868	82.6
266.084	-64.85
266.3	-27.99
266.516	33.45
266.732	25.26
266.948	4.78
267.164	39.59
267.38	-5.46
267.596	-19.8
267.812	8.87
268.028	45.74
268.244	-15.7
268.46	29.35
268.676	35.5
268.892	45.74
269.108	49.83
269.324	68.27
269.54	-7.51
269.756	41.64
269.972	2.73
270.188	-36.18
270.403	-15.7
270.619	49.83
270.835	58.03
271.051	4.78
271.267	-27.99
271.483	82.6
271.698	92.84
271.914	94.89
272.13	117.42
272.346	35.5
272.562	-21.85
272.777	25.26
272.993	33.45
273.209	29.35
273.425	98.99
273.64	49.83
273.856	15.02
274.072	58.03
274.287	45.74
274.503	-48.47
274.719	25.26
274.934	82.6
275.15	-5.46
275.366	29.35
275.581	12.97
275.797	17.07
276.012	-15.7
276.228	27.31
276.444	-9.56
276.659	86.7
276.875	-5.46
277.09	2.73
277.306	15.02
277.521	98.99
277.737	25.26
277.952	8.87
278.168	33.45
278.383	92.84
278.599	-30.04
278.814	58.03
279.03	21.16
279.245	-3.41
279.461	68.27
279.676	-15.7
279.892	6.83
280.107	4.78
280.322	74.41
280.538	107.18
280.753	37.55
280.969	0.68
281.184	-3.41
281.399	25.26
281.615	12.97
281.83	-15.7
282.045	21.16
282.26	82.6
282.476	6.83
282.691	37.55
282.906	84.65
283.122	45.74
283.337	-13.65
283.552	49.83
283.767	-32.08
283.983	58.03
284.198	62.12
284.413	43.69
284.628	35.5
284.843	51.88
285.058	17.07
285.274	-1.37
285.489	17.07
285.704	78.51
285.919	-23.89
286.134	12.97
286.349	21.16
286.564	2.73
286.779	45.74
286.995	-17.75
287.21	17.07
287.425	0.68
287.64	25.26
287.855	-40.28
288.07	-32.08
288.285	0.68
288.5	111.27
288.715	66.22
288.93	51.88
289.145	-48.47
289.36	33.45
289.575	0.68
289.79	27.31
290.004	-68.95
290.219	43.69
290.434	-1.37
290.649	84.65
290.864	25.26
291.079	-5.46
291.294	107.18
291.509	17.07
291.724	35.5
291.938	-44.37
292.153	74.41
292.368	27.31
292.583	-15.7
292.798	6.83
293.012	-19.8
293.227	-32.08
293.442	58.03
293.657	0.68
293.871	150.18
294.086	27.31
294.301	101.03
294.516	2.73
294.73	12.97
294.945	33.45
295.16	-15.7
295.374	70.31
295.589	86.7
295.804	33.45
296.018	74.41
296.233	17.07
296.447	-3.41
296.662	25.26
296.877	53.93
297.091	58.03
297.306	33.45
297.52	-3.41
297.735	35.5
297.949	25.26
298.164	35.5
298.378	51.88
298.593	74.41
298.807	74.41
299.022	62.12
299.236	51.88
299.451	41.64
299.665	103.08
299.88	90.79
300.094	33.45
300.309	60.07
300.523	58.03
300.737	49.83
300.952	49.83
301.166	62.12
301.381	-15.7
301.595	60.07
301.809	17.07
302.024	35.5
302.238	29.35
302.452	23.21
302.667	58.03
302.881	51.88
303.095	49.83
303.309	78.51
303.524	25.26
303.738	-7.51
303.952	17.07
304.166	103.08
304.381	-36.18
304.595	113.32
304.809	19.11
305.023	43.69
305.237	27.31
305.452	60.07
305.666	33.45
305.88	66.22
306.094	-17.75
306.308	74.41
306.522	103.08
306.736	12.97
306.95	12.97
307.164	53.93
307.379	4.78
307.593	39.59
307.807	-34.13
308.021	80.55
308.235	105.13
308.449	33.45
308.663	10.92
308.877	103.08
309.091	-3.41
309.305	-7.51
309.519	-3.41
309.733	17.07
309.947	-3.41
310.161	101.03
310.374	98.99
310.588	92.84
310.802	88.75
311.016	41.64
311.23	68.27
311.444	64.17
311.658	17.07
311.872	66.22
312.085	39.59
312.299	8.87
312.513	82.6
312.727	31.4
312.941	-44.37
313.154	35.5
313.368	2.73
313.582	60.07
313.796	62.12
314.009	78.51
314.223	12.97
314.437	47.79
314.651	43.69
314.864	58.03
315.078	84.65
315.292	-46.42
315.505	8.87
315.719	152.23
315.933	64.17
316.146	53.93
316.36	35.5
316.573	68.27
316.787	-7.51
317.001	-5.46
317.214	21.16
317.428	33.45
317.641	-25.94
317.855	43.69
318.068	25.26
318.282	-38.23
318.495	70.31
318.709	80.55
318.922	43.69
319.136	133.8
319.349	60.07
319.563	-48.47
319.776	45.74
319.99	-1.37
320.203	-36.18
320.417	-5.46
320.63	0.68
320.843	74.41
321.057	0.68
321.27	41.64
321.483	12.97
321.697	17.07
321.91	62.12
322.124	19.11
322.337	74.41
322.55	17.07
322.763	-40.28
322.977	-46.42
323.19	-38.23
323.403	60.07
323.617	76.46
323.83	0.68
324.043	88.75
324.256	84.65
324.469	29.35
324.683	45.74
324.896	-21.85
325.109	74.41
325.322	27.31
325.535	-27.99
325.748	66.22
325.962	23.21
326.175	62.12
326.388	72.36
326.601	84.65
326.814	41.64
327.027	25.26
327.24	123.56
327.453	21.16
327.666	76.46
327.879	74.41
328.092	72.36
328.305	12.97
328.518	17.07
328.731	27.31
328.944	-3.41
329.157	29.35
329.37	4.78
329.583	115.37
329.796	45.74
330.009	-32.08
330.222	29.35
330.435	60.07
330.648	25.26
330.861	-15.7
331.073	8.87
331.286	31.4
331.499	8.87
331.712	51.88
331.925	-11.61
332.138	-23.89
332.35	27.31
332.563	29.35
332.776	17.07
332.989	62.12
333.202	43.69
333.414	43.69
333.627	64.17
333.84	43.69
334.053	-3.41
334.265	41.64
334.478	-1.37
334.691	47.79
334.903	62.12
335.116	-32.08
335.329	66.22
335.541	19.11
335.754	80.55
335.966	33.45
336.179	29.35
336.392	8.87
336.604	25.26
336.817	33.45
337.029	-7.51
337.242	-27.99
337.454	17.07
337.667	19.11
337.88	60.07
338.092	43.69
338.305	49.83
338.517	-7.51
338.729	41.64
338.942	64.17
339.154	29.35
339.367	12.97
339.579	33.45
339.792	29.35
340.004	49.83
340.217	27.31
340.429	-7.51
340.641	37.55
340.854	-32.08
341.066	6.83
341.278	101.03
341.491	47.79
341.703	-7.51
341.915	33.45
342.128	49.83
342.34	19.11
342.552	-5.46
342.764	39.59
342.977	31.4
343.189	68.27
343.401	27.31
343.613	53.93
343.826	49.83
344.038	49.83
344.25	53.93
344.462	-54.61
344.674	45.74
344.886	23.21
345.099	-48.47
345.311	29.35
345.523	25.26
345.735	17.07
345.947	144.04
346.159	15.02
346.371	68.27
346.583	-52.56
346.795	70.31
347.007	107.18
347.219	27.31
347.431	101.03
347.643	45.74
347.855	45.74
348.067	84.65
348.279	2.73
348.491	27.31
348.703	78.51
348.915	25.26
349.127	-42.32
349.339	103.08
349.551	6.83
349.763	-11.61
349.975	103.08
350.187	25.26
350.399	-25.94
350.61	74.41
350.822	37.55
351.034	43.69
351.246	51.88
351.458	33.45
351.669	17.07
351.881	66.22
352.093	-11.61
352.305	76.46
352.517	41.64
352.728	88.75
352.94	58.03
353.152	19.11
353.363	31.4
353.575	58.03
353.787	94.89
353.999	98.99
354.21	21.16
354.422	-19.8
354.633	25.26
354.845	68.27
355.057	66.22
355.268	12.97
355.48	45.74
355.692	74.41
355.903	101.03
356.115	21.16
356.326	47.79
356.538	84.65
356.749	25.26
356.961	55.98
357.172	-25.94
357.384	43.69
357.595	78.51
357.807	148.14
358.018	8.87
358.23	0.68
358.441	121.51
358.653	62.12
358.864	82.6
359.075	84.65
359.287	41.64
359.498	72.36
359.709	-21.85
359.921	123.56
360.132	58.03
360.344	12.97
360.555	10.92
360.766	49.83
360.977	51.88
361.189	58.03
361.4	60.07
361.611	86.7
361.823	98.99
362.034	84.65
362.245	-3.41
362.456	92.84
362.667	121.51
362.879	29.35
363.09	76.46
363.301	47.79
363.512	27.31
363.723	29.35
363.935	-27.99
364.146	51.88
364.357	-21.85
364.568	68.27
364.779	25.26
364.99	60.07
365.201	-5.46
365.412	-1.37
365.623	-7.51
365.834	62.12
366.045	17.07
366.256	92.84
366.467	49.83
366.678	144.04
366.889	12.97
367.1	53.93
367.311	-7.51
367.522	41.64
367.733	45.74
367.944	33.45
368.155	-15.7
368.366	117.42
368.577	49.83
368.788	96.94
368.999	19.11
369.209	66.22
369.42	49.83
369.631	45.74
369.842	125.61
370.053	45.74
370.264	53.93
370.474	-3.41
370.685	-1.37
370.896	8.87
371.107	58.03
371.317	76.46
371.528	15.02
371.739	76.46
371.95	82.6
372.16	137.9
372.371	4.78
372.582	86.7
372.792	68.27
373.003	27.31
373.214	62.12
373.424	74.41
373.635	39.59
373.846	111.27
374.056	8.87
374.267	12.97
374.477	135.85
374.688	41.64
374.898	62.12
375.109	0.68
375.319	101.03
375.53	33.45
375.74	105.13
375.951	51.88
376.161	-32.08
376.372	86.7
376.582	-19.8
376.793	49.83
377.003	-13.65
377.214	45.74
377.424	60.07
377.635	103.08
377.845	35.5
378.055	51.88
378.266	23.21
378.476	41.64
378.686	51.88
378.897	51.88
379.107	62.12
379.317	-7.51
379.528	70.31
379.738	76.46
379.948	0.68
380.158	72.36
380.369	37.55
380.579	60.07
380.789	49.83
380.999	90.79
381.21	74.41
381.42	82.6
381.63	60.07
381.84	76.46
382.05	58.03
382.261	33.45
382.471	58.03
382.681	19.11
382.891	131.75
383.101	33.45
383.311	-5.46
383.521	76.46
383.731	131.75
383.941	62.12
384.151	-17.75
384.361	-7.51
384.571	70.31
384.781	-34.13
384.991	111.27
385.201	107.18
385.411	41.64
385.621	-13.65
385.831	58.03
386.041	58.03
386.251	51.88
386.461	62.12
386.671	53.93
386.881	115.37
387.091	10.92
387.301	41.64
387.511	49.83
387.72	117.42
387.93	43.69
388.14	35.5
388.35	8.87
388.56	68.27
388.769	49.83
388.979	68.27
389.189	21.16
389.399	60.07
389.609	70.31
389.818	94.89
390.028	86.7
390.238	37.55
390.447	60.07
390.657	60.07
390.867	29.35
391.076	4.78
391.286	31.4
391.496	70.31
391.705	31.4
391.915	88.75
392.125	131.75
392.334	49.83
392.544	84.65
392.753	49.83
392.963	12.97
393.172	135.85
393.382	66.22
393.591	121.51
393.801	109.22
394.01	133.8
394.22	45.74
394.429	107.18
394.639	12.97
394.848	105.13
395.058	58.03
395.267	45.74
395.477	51.88
395.686	45.74
395.895	152.23
396.105	94.89
396.314	98.99
396.524	98.99
396.733	88.75
396.942	94.89
397.152	96.94
397.361	139.94
397.57	141.99
397.78	146.09
397.989	98.99
398.198	84.65
398.407	45.74
398.617	123.56
398.826	139.94
399.035	113.32
399.244	94.89
399.453	92.84
399.663	66.22
399.872	176.81
400.081	107.18
400.29	101.03
400.499	58.03
400.708	133.8
400.917	101.03
401.127	90.79
401.336	125.61
401.545	232.1
401.754	137.9
401.963	154.28
402.172	72.36
402.381	47.79
402.59	109.22
402.799	115.37
403.008	125.61
403.217	64.17
403.426	144.04
403.635	109.22
403.844	94.89
404.053	84.65
404.262	182.95
404.471	141.99
404.68	154.28
404.888	107.18
405.097	166.57
405.306	158.38
405.515	109.22
405.724	101.03
405.933	123.56
406.142	205.48
406.35	242.34
406.559	174.76
406.768	158.38
406.977	207.53
407.185	148.14
407.394	133.8
407.603	221.86
407.812	189.1
408.02	195.24
408.229	264.87
408.438	234.15
408.646	156.33
408.855	225.96
409.064	332.45
409.272	305.83
409.481	264.87
409.69	246.44
409.898	295.59
410.107	256.68
410.315	357.03
410.524	320.17
410.733	418.47
410.941	357.03
411.15	389.8
411.358	342.69
411.567	371.37
411.775	381.6
411.984	443.04
412.192	434.85
412.401	404.13
412.609	475.81
412.818	498.34
413.026	473.76
413.234	426.66
413.443	469.67
413.651	488.1
413.86	438.95
414.068	574.11
414.276	664.22
414.485	602.79
414.693	524.96
414.901	567.97
415.11	709.28
415.318	584.35
415.526	719.52
415.734	690.85
415.943	725.66
416.151	752.29
416.359	701.09
416.567	799.39
416.776	803.49
416.984	959.13
417.192	969.37
417.4	955.04
417.608	963.23
417.817	1073.82
418.025	1063.58
418.233	1098.39
418.441	1067.67
418.649	1145.5
418.857	1172.12
419.065	1254.04
419.273	1190.55
419.481	1194.65
419.689	1368.73
419.897	1462.93
420.105	1440.4
420.313	1450.64
420.521	1538.71
420.729	1483.41
420.937	1618.58
421.145	1651.35
421.353	1800.85
421.561	1884.81
421.769	1831.57
421.977	2050.7
422.185	1905.29
422.393	2073.23
422.601	2292.36
422.809	2087.56
423.017	2220.68
423.224	2339.46
423.432	2386.57
423.64	2361.99
423.848	2681.47
424.056	2531.97
424.263	2769.54
424.471	2794.11
424.679	2761.34
424.887	2964.09
425.094	3091.07
425.302	2966.14
425.51	3224.19
425.718	3199.61
425.925	3345.02
426.133	3394.17
426.341	3611.25
426.548	3768.95
426.756	3697.27
426.964	3805.81
427.171	3998.32
427.379	3963.5
427.586	4166.25
427.794	4340.33
428.001	4491.88
428.209	4627.04
428.417	4547.17
428.624	4844.13
428.832	4971.1
429.039	4835.94
429.247	4866.66
429.454	5415.51
429.662	5661.27
429.869	5456.47
430.076	5732.95
430.284	5605.97
430.491	5710.42
430.699	6095.44
430.906	6017.61
431.114	6167.12
431.321	6404.68
431.528	6591.05
431.736	7031.36
431.943	7262.78
432.15	7078.46
432.358	7123.52
432.565	7563.83
432.772	7541.3
432.979	8081.97
433.187	8157.74
433.394	8057.39
433.601	8712.74
433.808	8636.97
434.016	8593.96
434.223	9097.76
434.43	9525.79
434.637	9294.36
434.844	9904.66
435.052	10183.18
435.259	10121.74
435.466	10127.89
435.673	10232.33
435.88	10590.73
436.087	11328
436.294	11213.31
436.501	11164.16
436.708	11270.65
436.915	11346.43
437.122	11995.64
437.329	12247.54
437.537	12493.29
437.743	12755.43
437.95	12624.36
438.157	13332.96
438.364	13627.87
438.571	14088.66
438.778	13765.08
438.985	14776.78
439.192	14178.77
439.399	14776.78
439.606	14469.58
439.813	15501.76
440.02	15993.27
440.227	16050.61
440.433	15778.23
440.64	16531.89
440.847	15954.36
441.054	16556.46
441.261	17672.6
441.467	17643.93
441.674	17889.69
441.881	18463.12
442.088	18512.27
442.294	18266.52
442.501	18704.78
442.708	19145.09
442.914	19923.32
443.121	20597.1
443.328	20029.82
443.534	21686.62
443.741	20787.57
443.948	20619.63
444.154	21977.44
444.361	21743.97
444.568	22161.75
444.774	22157.66
444.981	22440.28
445.187	22991.18
445.394	24205.63
445.6	23992.64
445.807	26059.04
446.013	24863.02
446.22	25211.18
446.426	26269.98
446.633	26390.81
446.839	27519.24
447.046	26315.03
447.252	27724.04
447.459	28162.3
447.665	27693.32
447.871	28705.01
448.078	30357.72
448.284	28670.2
448.491	29495.53
448.697	30415.07
448.903	30916.82
449.11	31477.96
449.316	30750.93
449.522	31273.17
449.728	31965.38
449.935	32547
450.141	32420.03
450.347	32860.34
450.553	31779.01
450.76	32510.14
450.966	33534.12
451.172	33018.03
451.378	34070.69
451.584	33149.1
451.791	34304.16
451.997	33927.33
452.203	34732.18
452.409	34664.6
452.615	34511
452.821	32858.29
453.027	32860.34
453.233	34519.2
453.44	33208.5
453.646	33226.93
453.852	33675.43
454.058	34252.96
454.264	32921.78
454.47	33876.13
454.676	32786.61
454.882	33841.32
455.088	31099.09
455.294	31899.84
455.5	31996.1
455.705	32372.92
455.911	31326.41
456.117	30431.45
456.323	30083.3
456.529	28721.4
456.735	30128.35
456.941	29155.57
457.147	28655.86
457.352	27742.47
457.558	27517.19
457.764	27556.1
457.97	27128.08
458.176	26511.64
458.381	26384.66
458.587	25395.5
458.793	25245.99
458.999	24101.18
459.204	25694.5
459.41	24693.04
459.616	23146.83
459.821	23542.08
460.027	23269.7
460.233	22712.66
460.438	21469.54
460.644	21893.47
460.85	20965.74
461.055	20435.31
461.261	20552.05
461.466	18874.76
461.672	18395.54
461.878	19691.9
462.083	18278.8
462.289	17887.64
462.494	17809.82
462.7	17224.1
462.905	16591.28
463.111	17228.2
463.316	17113.51
463.522	16996.78
463.727	17064.36
463.932	17164.71
464.138	16665
464.343	16710.06
464.549	16294.32
464.754	16681.39
464.959	16542.13
465.165	16615.85
465.37	15890.87
465.575	15708.6
465.781	16091.57
465.986	16236.98
466.191	15460.8
466.397	15458.75
466.602	14571.98
466.807	15098.31
467.012	15395.26
467.218	15028.68
467.423	14723.53
