Data from USB4F104151__27__14-16-26-893.txt Node

Date: Thu Mar 13 14:16:26 EDT 2025
User: louis
Spectrometer: USB4F10415
Trigger mode: 4
Integration Time (sec): 2.000000E-2
Scans to average: 1
Electric dark correction enabled: true
Nonlinearity correction enabled: false
Boxcar width: 0
XAxis mode: Wavelengths
Number of Pixels in Spectrum: 3648
>>>>>Begin Spectral Data<<<<<
178.204	-117.93
178.424	-117.93
178.644	-117.93
178.864	-140.46
179.084	-150.7
179.304	21.33
179.524	23.38
179.744	-7.34
179.964	9.05
180.184	-9.39
180.404	21.33
180.624	-64.68
180.844	7
181.064	-50.35
181.283	35.67
181.503	2.9
181.723	11.09
181.943	-5.29
182.163	113.49
182.383	-19.63
182.602	11.09
182.822	54.1
183.042	23.38
183.262	29.52
183.482	-11.43
183.701	-11.43
183.921	-31.91
184.141	-11.43
184.361	17.24
184.58	-27.82
184.8	-3.24
185.02	39.76
185.239	29.52
185.459	-1.19
185.679	-7.34
185.898	-1.19
186.118	86.87
186.338	-21.67
186.557	15.19
186.777	-48.3
186.997	-68.78
187.216	9.05
187.436	37.72
187.655	23.38
187.875	45.91
188.095	31.57
188.314	31.57
188.534	54.1
188.753	74.58
188.973	-7.34
189.192	45.91
189.412	35.67
189.631	-13.48
189.851	50
190.07	21.33
190.29	-40.11
190.509	-25.77
190.729	31.57
190.948	25.43
191.168	144.21
191.387	64.34
191.607	-3.24
191.826	-33.96
192.045	-25.77
192.265	50
192.484	-1.19
192.704	-11.43
192.923	-48.3
193.142	54.1
193.362	13.14
193.581	37.72
193.8	45.91
194.02	37.72
194.239	2.9
194.458	4.95
194.678	33.62
194.897	35.67
195.116	-19.63
195.335	90.96
195.555	62.29
195.774	13.14
195.993	13.14
196.212	-9.39
196.432	-19.63
196.651	-29.87
196.87	-23.72
197.089	82.77
197.308	23.38
197.528	-5.29
197.747	-33.96
197.966	15.19
198.185	62.29
198.404	7
198.623	7
198.842	31.57
199.062	66.39
199.281	-44.2
199.5	37.72
199.719	4.95
199.938	29.52
200.157	56.15
200.376	47.96
200.595	29.52
200.814	-19.63
201.033	47.96
201.252	21.33
201.471	-44.2
201.69	45.91
201.909	21.33
202.128	58.2
202.347	4.95
202.566	-15.53
202.785	21.33
203.004	-48.3
203.223	11.09
203.442	13.14
203.661	37.72
203.879	31.57
204.098	-1.19
204.317	13.14
204.536	82.77
204.755	-48.3
204.974	-33.96
205.193	39.76
205.411	54.1
205.63	33.62
205.849	4.95
206.068	4.95
206.287	-27.82
206.505	0.85
206.724	45.91
206.943	0.85
207.162	80.72
207.381	11.09
207.599	13.14
207.818	-11.43
208.037	25.43
208.255	39.76
208.474	58.2
208.693	-66.73
208.911	-7.34
209.13	33.62
209.349	39.76
209.567	25.43
209.786	62.29
210.005	0.85
210.223	13.14
210.442	-36.01
210.661	64.34
210.879	33.62
211.098	45.91
211.316	17.24
211.535	15.19
211.753	41.81
211.972	-7.34
212.191	-19.63
212.409	7
212.628	72.53
212.846	-25.77
213.065	-3.24
213.283	54.1
213.502	-15.53
213.72	-13.48
213.938	72.53
214.157	-44.2
214.375	31.57
214.594	4.95
214.812	4.95
215.031	62.29
215.249	-25.77
215.467	-23.72
215.686	21.33
215.904	37.72
216.122	9.05
216.341	33.62
216.559	-23.72
216.778	45.91
216.996	21.33
217.214	15.19
217.432	13.14
217.651	-40.11
217.869	-7.34
218.087	-58.54
218.306	9.05
218.524	56.15
218.742	23.38
218.96	37.72
219.179	84.82
219.397	27.48
219.615	4.95
219.833	29.52
220.051	-15.53
220.27	13.14
220.488	-17.58
220.706	-50.35
220.924	21.33
221.142	-15.53
221.36	-9.39
221.578	66.39
221.796	13.14
222.015	-7.34
222.233	-21.67
222.451	66.39
222.669	-29.87
222.887	-11.43
223.105	4.95
223.323	-44.2
223.541	11.09
223.759	86.87
223.977	-1.19
224.195	13.14
224.413	-3.24
224.631	15.19
224.849	21.33
225.067	43.86
225.285	21.33
225.503	41.81
225.721	-68.78
225.939	62.29
226.157	33.62
226.375	50
226.592	9.05
226.81	31.57
227.028	39.76
227.246	99.16
227.464	37.72
227.682	29.52
227.9	54.1
228.117	21.33
228.335	-1.19
228.553	-25.77
228.771	11.09
228.989	-7.34
229.206	-33.96
229.424	11.09
229.642	25.43
229.86	-11.43
230.077	-13.48
230.295	15.19
230.513	58.2
230.731	58.2
230.948	37.72
231.166	21.33
231.384	-1.19
231.601	-11.43
231.819	31.57
232.037	50
232.254	-25.77
232.472	56.15
232.689	-9.39
232.907	-19.63
233.125	37.72
233.342	-64.68
233.56	13.14
233.777	29.52
233.995	-9.39
234.213	17.24
234.43	4.95
234.648	-3.24
234.865	-50.35
235.083	21.33
235.3	-38.06
235.518	99.16
235.735	7
235.953	-3.24
236.17	-48.3
236.388	39.76
236.605	56.15
236.822	33.62
237.04	23.38
237.257	-36.01
237.475	-11.43
237.692	64.34
237.909	-5.29
238.127	-5.29
238.344	-5.29
238.562	70.48
238.779	-19.63
238.996	7
239.214	-19.63
239.431	-1.19
239.648	-17.58
239.865	52.05
240.083	15.19
240.3	37.72
240.517	74.58
240.735	-33.96
240.952	27.48
241.169	39.76
241.386	121.68
241.603	-5.29
241.821	-25.77
242.038	52.05
242.255	15.19
242.472	-70.83
242.689	54.1
242.907	29.52
243.124	-68.78
243.341	13.14
243.558	35.67
243.775	-68.78
243.992	-44.2
244.209	0.85
244.426	88.92
244.643	17.24
244.86	-19.63
245.078	4.95
245.295	21.33
245.512	-3.24
245.729	-52.39
245.946	15.19
246.163	4.95
246.38	31.57
246.597	21.33
246.814	-36.01
247.031	58.2
247.248	39.76
247.464	80.72
247.681	43.86
247.898	29.52
248.115	64.34
248.332	0.85
248.549	127.83
248.766	15.19
248.983	37.72
249.2	37.72
249.417	62.29
249.633	33.62
249.85	56.15
250.067	72.53
250.284	-7.34
250.501	-7.34
250.717	25.43
250.934	4.95
251.151	17.24
251.368	17.24
251.585	-13.48
251.801	39.76
252.018	23.38
252.235	-7.34
252.451	-83.11
252.668	-11.43
252.885	-27.82
253.102	-13.48
253.318	62.29
253.535	-23.72
253.752	70.48
253.968	23.38
254.185	39.76
254.401	0.85
254.618	54.1
254.835	72.53
255.051	152.4
255.268	13.14
255.484	-1.19
255.701	-36.01
255.917	74.58
256.134	-29.87
256.351	105.3
256.567	-21.67
256.784	78.68
257	4.95
257.217	-3.24
257.433	-19.63
257.65	7
257.866	37.72
258.082	-7.34
258.299	43.86
258.515	33.62
258.732	-29.87
258.948	4.95
259.165	33.62
259.381	-50.35
259.597	-15.53
259.814	-21.67
260.03	-27.82
260.246	13.14
260.463	-11.43
260.679	33.62
260.895	-27.82
261.112	39.76
261.328	-95.4
261.544	-13.48
261.761	64.34
261.977	23.38
262.193	31.57
262.409	88.92
262.626	13.14
262.842	45.91
263.058	9.05
263.274	45.91
263.49	-7.34
263.707	-5.29
263.923	-3.24
264.139	31.57
264.355	-21.67
264.571	107.35
264.787	56.15
265.004	45.91
265.22	11.09
265.436	56.15
265.652	-154.79
265.868	52.05
266.084	-42.15
266.3	-3.24
266.516	-68.78
266.732	-25.77
266.948	-33.96
267.164	-3.24
267.38	4.95
267.596	52.05
267.812	62.29
268.028	84.82
268.244	-17.58
268.46	-19.63
268.676	-33.96
268.892	21.33
269.108	21.33
269.324	17.24
269.54	29.52
269.756	45.91
269.972	-19.63
270.188	86.87
270.403	-56.49
270.619	41.81
270.835	25.43
271.051	33.62
271.267	-11.43
271.483	-15.53
271.698	17.24
271.914	-17.58
272.13	-7.34
272.346	21.33
272.562	13.14
272.777	66.39
272.993	11.09
273.209	29.52
273.425	-9.39
273.64	-42.15
273.856	-7.34
274.072	62.29
274.287	-13.48
274.503	39.76
274.719	-23.72
274.934	-11.43
275.15	17.24
275.366	-52.39
275.581	-36.01
275.797	2.9
276.012	-19.63
276.228	115.54
276.444	33.62
276.659	68.44
276.875	37.72
277.09	-68.78
277.306	-52.39
277.521	7
277.737	4.95
277.952	41.81
278.168	13.14
278.383	86.87
278.599	-17.58
278.814	7
279.03	-23.72
279.245	23.38
279.461	-52.39
279.676	39.76
279.892	-44.2
280.107	-11.43
280.322	-1.19
280.538	13.14
280.753	-11.43
280.969	74.58
281.184	-1.19
281.399	35.67
281.615	-56.49
281.83	4.95
282.045	-29.87
282.26	-40.11
282.476	4.95
282.691	41.81
282.906	31.57
283.122	9.05
283.337	47.96
283.552	23.38
283.767	-76.97
283.983	23.38
284.198	37.72
284.413	-48.3
284.628	-19.63
284.843	39.76
285.058	103.25
285.274	15.19
285.489	-19.63
285.704	-3.24
285.919	-31.91
286.134	39.76
286.349	21.33
286.564	-13.48
286.779	21.33
286.995	-11.43
287.21	11.09
287.425	21.33
287.64	9.05
287.855	13.14
288.07	7
288.285	-46.25
288.5	33.62
288.715	29.52
288.93	-7.34
289.145	-25.77
289.36	74.58
289.575	52.05
289.79	33.62
290.004	64.34
290.219	-15.53
290.434	-23.72
290.649	-17.58
290.864	111.44
291.079	41.81
291.294	-17.58
291.509	0.85
291.724	86.87
291.938	11.09
292.153	37.72
292.368	-48.3
292.583	-7.34
292.798	43.86
293.012	29.52
293.227	-9.39
293.442	88.92
293.657	62.29
293.871	9.05
294.086	-19.63
294.301	70.48
294.516	74.58
294.73	58.2
294.945	-9.39
295.16	2.9
295.374	35.67
295.589	45.91
295.804	142.16
296.018	-9.39
296.233	-25.77
296.447	70.48
296.662	-3.24
296.877	80.72
297.091	25.43
297.306	-13.48
297.52	0.85
297.735	39.76
297.949	62.29
298.164	-7.34
298.378	0.85
298.593	13.14
298.807	-15.53
299.022	7
299.236	54.1
299.451	72.53
299.665	41.81
299.88	4.95
300.094	-52.39
300.309	29.52
300.523	-40.11
300.737	-27.82
300.952	37.72
301.166	-44.2
301.381	4.95
301.595	-7.34
301.809	17.24
302.024	-7.34
302.238	-7.34
302.452	21.33
302.667	-36.01
302.881	70.48
303.095	47.96
303.309	15.19
303.524	-19.63
303.738	0.85
303.952	-44.2
304.166	-7.34
304.381	25.43
304.595	-31.91
304.809	4.95
305.023	41.81
305.237	-7.34
305.452	11.09
305.666	45.91
305.88	76.63
306.094	-19.63
306.308	-15.53
306.522	-1.19
306.736	-17.58
306.95	-48.3
307.164	41.81
307.379	-29.87
307.593	21.33
307.807	64.34
308.021	-25.77
308.235	37.72
308.449	-64.68
308.663	-3.24
308.877	136.02
309.091	7
309.305	-23.72
309.519	-54.44
309.733	-3.24
309.947	23.38
310.161	58.2
310.374	25.43
310.588	13.14
310.802	23.38
311.016	-5.29
311.23	25.43
311.444	-19.63
311.658	-7.34
311.872	86.87
312.085	68.44
312.299	66.39
312.513	-9.39
312.727	39.76
312.941	66.39
313.154	39.76
313.368	-27.82
313.582	21.33
313.796	-50.35
314.009	45.91
314.223	95.06
314.437	78.68
314.651	23.38
314.864	52.05
315.078	-101.55
315.292	-1.19
315.505	2.9
315.719	-17.58
315.933	-1.19
316.146	4.95
316.36	25.43
316.573	86.87
316.787	-3.24
317.001	-19.63
317.214	17.24
317.428	29.52
317.641	4.95
317.855	7
318.068	13.14
318.282	58.2
318.495	140.12
318.709	0.85
318.922	-11.43
319.136	66.39
319.349	-40.11
319.563	7
319.776	29.52
319.99	-33.96
320.203	-25.77
320.417	-27.82
320.63	66.39
320.843	-11.43
321.057	41.81
321.27	-11.43
321.483	4.95
321.697	45.91
321.91	0.85
322.124	41.81
322.337	-52.39
322.55	0.85
322.763	29.52
322.977	-44.2
323.19	-3.24
323.403	50
323.617	39.76
323.83	45.91
324.043	-9.39
324.256	33.62
324.469	-19.63
324.683	50
324.896	-44.2
325.109	74.58
325.322	-36.01
325.535	127.83
325.748	47.96
325.962	-40.11
326.175	-3.24
326.388	23.38
326.601	4.95
326.814	-54.44
327.027	-1.19
327.24	54.1
327.453	-15.53
327.666	-58.54
327.879	64.34
328.092	2.9
328.305	-33.96
328.518	39.76
328.731	4.95
328.944	11.09
329.157	64.34
329.37	62.29
329.583	52.05
329.796	45.91
330.009	-7.34
330.222	70.48
330.435	56.15
330.648	76.63
330.861	39.76
331.073	4.95
331.286	-7.34
331.499	-17.58
331.712	-9.39
331.925	37.72
332.138	-33.96
332.35	64.34
332.563	78.68
332.776	97.11
332.989	25.43
333.202	45.91
333.414	-11.43
333.627	13.14
333.84	-23.72
334.053	0.85
334.265	-27.82
334.478	29.52
334.691	9.05
334.903	54.1
335.116	54.1
335.329	62.29
335.541	68.44
335.754	-40.11
335.966	-40.11
336.179	-68.78
336.392	47.96
336.604	9.05
336.817	39.76
337.029	58.2
337.242	29.52
337.454	17.24
337.667	-40.11
337.88	97.11
338.092	-19.63
338.305	7
338.517	47.96
338.729	13.14
338.942	68.44
339.154	27.48
339.367	54.1
339.579	-36.01
339.792	-58.54
340.004	-11.43
340.217	11.09
340.429	-36.01
340.641	-50.35
340.854	35.67
341.066	13.14
341.278	56.15
341.491	60.24
341.703	13.14
341.915	37.72
342.128	21.33
342.34	7
342.552	50
342.764	11.09
342.977	29.52
343.189	2.9
343.401	78.68
343.613	56.15
343.826	-17.58
344.038	52.05
344.25	54.1
344.462	101.2
344.674	56.15
344.886	-21.67
345.099	25.43
345.311	105.3
345.523	-31.91
345.735	-9.39
345.947	39.76
346.159	35.67
346.371	-11.43
346.583	9.05
346.795	101.2
347.007	-9.39
347.219	13.14
347.431	-23.72
347.643	19.29
347.855	25.43
348.067	-66.73
348.279	-56.49
348.491	-56.49
348.703	-15.53
348.915	37.72
349.127	-48.3
349.339	54.1
349.551	31.57
349.763	78.68
349.975	17.24
350.187	97.11
350.399	66.39
350.61	58.2
350.822	-52.39
351.034	13.14
351.246	7
351.458	23.38
351.669	-42.15
351.881	-13.48
352.093	78.68
352.305	76.63
352.517	41.81
352.728	21.33
352.94	13.14
353.152	76.63
353.363	-42.15
353.575	41.81
353.787	-9.39
353.999	19.29
354.21	15.19
354.422	-11.43
354.633	15.19
354.845	7
355.057	19.29
355.268	62.29
355.48	33.62
355.692	-11.43
355.903	-23.72
356.115	-19.63
356.326	-42.15
356.538	56.15
356.749	-7.34
356.961	37.72
357.172	47.96
357.384	-81.07
357.595	56.15
357.807	-15.53
358.018	103.25
358.23	17.24
358.441	54.1
358.653	86.87
358.864	-11.43
359.075	-42.15
359.287	97.11
359.498	121.68
359.709	62.29
359.921	-9.39
360.132	9.05
360.344	17.24
360.555	62.29
360.766	50
360.977	25.43
361.189	4.95
361.4	66.39
361.611	72.53
361.823	43.86
362.034	133.97
362.245	-64.68
362.456	105.3
362.667	39.76
362.879	39.76
363.09	103.25
363.301	9.05
363.512	64.34
363.723	7
363.935	-17.58
364.146	33.62
364.357	11.09
364.568	103.25
364.779	-23.72
364.99	7
365.201	54.1
365.412	39.76
365.623	-27.82
365.834	70.48
366.045	21.33
366.256	66.39
366.467	11.09
366.678	47.96
366.889	-23.72
367.1	-3.24
367.311	45.91
367.522	-23.72
367.733	39.76
367.944	-7.34
368.155	13.14
368.366	-19.63
368.577	76.63
368.788	58.2
368.999	-52.39
369.209	58.2
369.42	23.38
369.631	140.12
369.842	47.96
370.053	11.09
370.264	4.95
370.474	-27.82
370.685	27.48
370.896	47.96
371.107	80.72
371.317	109.4
371.528	58.2
371.739	27.48
371.95	17.24
372.16	-9.39
372.371	-33.96
372.582	21.33
372.792	15.19
373.003	-48.3
373.214	-17.58
373.424	7
373.635	-50.35
373.846	13.14
374.056	-9.39
374.267	37.72
374.477	29.52
374.688	50
374.898	60.24
375.109	47.96
375.319	-27.82
375.53	58.2
375.74	99.16
375.951	-19.63
376.161	86.87
376.372	41.81
376.582	103.25
376.793	60.24
377.003	50
377.214	-9.39
377.424	72.53
377.635	29.52
377.845	-40.11
378.055	121.68
378.266	0.85
378.476	37.72
378.686	70.48
378.897	25.43
379.107	23.38
379.317	52.05
379.528	9.05
379.738	39.76
379.948	43.86
380.158	62.29
380.369	23.38
380.579	11.09
380.789	39.76
380.999	103.25
381.21	93.01
381.42	95.06
381.63	4.95
381.84	23.38
382.05	64.34
382.261	64.34
382.471	86.87
382.681	95.06
382.891	29.52
383.101	-17.58
383.311	-27.82
383.521	47.96
383.731	37.72
383.941	45.91
384.151	54.1
384.361	4.95
384.571	99.16
384.781	56.15
384.991	23.38
385.201	43.86
385.411	127.83
385.621	45.91
385.831	70.48
386.041	72.53
386.251	-19.63
386.461	23.38
386.671	-25.77
386.881	47.96
387.091	-3.24
387.301	138.07
387.511	29.52
387.72	86.87
387.93	41.81
388.14	7
388.35	-9.39
388.56	131.92
388.769	27.48
388.979	23.38
389.189	31.57
389.399	86.87
389.609	17.24
389.818	56.15
390.028	58.2
390.238	13.14
390.447	-7.34
390.657	37.72
390.867	17.24
391.076	74.58
391.286	45.91
391.496	62.29
391.705	41.81
391.915	62.29
392.125	54.1
392.334	78.68
392.544	88.92
392.753	-9.39
392.963	82.77
393.172	60.24
393.382	54.1
393.591	45.91
393.801	70.48
394.01	103.25
394.22	86.87
394.429	62.29
394.639	7
394.848	138.07
395.058	56.15
395.267	121.68
395.477	27.48
395.686	43.86
395.895	111.44
396.105	103.25
396.314	45.91
396.524	97.11
396.733	88.92
396.942	154.45
397.152	72.53
397.361	68.44
397.57	7
397.78	-42.15
397.989	97.11
398.198	109.4
398.407	50
398.617	4.95
398.826	101.2
399.035	62.29
399.244	43.86
399.453	37.72
399.663	45.91
399.872	113.49
400.081	80.72
400.29	80.72
400.499	82.77
400.708	23.38
400.917	-21.67
401.127	205.65
401.336	80.72
401.545	123.73
401.754	111.44
401.963	103.25
402.172	90.96
402.381	111.44
402.59	168.79
402.799	133.97
403.008	111.44
403.217	107.35
403.426	90.96
403.635	160.59
403.844	93.01
404.053	113.49
404.262	64.34
404.471	183.12
404.68	136.02
404.888	80.72
405.097	39.76
405.306	111.44
405.515	197.46
405.724	115.54
405.933	213.84
406.142	205.65
406.35	162.64
406.559	93.01
406.768	95.06
406.977	258.9
407.185	146.26
407.394	168.79
407.603	164.69
407.812	160.59
408.02	195.41
408.229	203.6
408.438	224.08
408.646	219.99
408.855	252.75
409.064	219.99
409.272	291.66
409.481	301.9
409.69	179.03
409.898	299.86
410.107	336.72
410.315	340.82
410.524	303.95
410.733	248.66
410.941	332.62
411.15	430.93
411.358	353.1
411.567	342.86
411.775	342.86
411.984	381.78
412.192	373.58
412.401	389.97
412.609	430.93
412.818	541.52
413.026	529.23
413.234	523.09
413.443	465.74
413.651	467.79
413.86	541.52
414.068	535.37
414.276	666.44
414.485	555.85
414.693	615.24
414.901	660.3
415.11	717.64
415.318	734.03
415.526	695.11
415.734	713.55
415.943	820.04
416.151	834.38
416.359	799.56
416.567	721.74
416.776	848.71
416.984	930.63
417.192	889.67
417.4	1014.6
417.608	944.97
417.817	901.96
418.025	1020.74
418.233	1176.39
418.441	1147.72
418.649	987.97
418.857	1160
419.065	1211.2
419.273	1203.01
419.481	1354.56
419.689	1356.61
419.897	1463.1
420.105	1469.25
420.313	1528.64
420.521	1596.22
420.729	1481.53
420.937	1710.91
421.145	1655.61
421.353	1655.61
421.561	1835.83
421.769	1725.24
421.977	1956.66
422.185	1919.8
422.393	2085.69
422.601	2061.11
422.809	2077.49
423.017	2157.36
423.224	2294.58
423.432	2337.59
423.64	2413.36
423.848	2700.08
424.056	2589.49
424.263	2704.17
424.471	2677.55
424.679	2738.99
424.887	2908.97
425.094	3076.9
425.302	3146.53
425.51	3179.3
425.718	3246.88
425.925	3257.12
426.133	3355.43
426.341	3472.16
426.548	3556.13
426.756	3674.91
426.964	3752.73
427.171	3906.33
427.379	4111.13
427.586	4145.94
427.794	4266.77
428.001	4410.13
428.209	4580.11
428.417	4502.29
428.624	4805.39
428.832	4862.73
429.039	4823.82
429.247	4834.06
429.454	5448.45
429.662	5634.82
429.869	5387.01
430.076	5591.81
430.284	5661.44
430.491	5825.28
430.699	6040.31
430.906	6157.05
431.114	6255.35
431.321	6308.6
431.528	6529.78
431.736	6898.41
431.943	7430.88
432.15	6931.18
432.358	7074.54
432.565	7525.09
432.772	7557.86
432.979	7944.92
433.187	8063.71
433.394	7832.29
433.601	8753.87
433.808	8655.57
434.016	8653.52
434.223	8895.18
434.43	9384.65
434.637	9347.78
434.844	9822.91
435.052	9976.51
435.259	9992.89
435.466	10017.47
435.673	10035.9
435.88	10615.48
436.087	11129.52
436.294	10984.11
436.501	10916.53
436.708	11180.71
436.915	11752.1
437.122	11920.03
437.329	11936.42
437.537	12468.89
437.743	12579.48
437.95	12354.2
438.157	13251.21
438.364	13611.65
438.571	13468.3
438.778	13669
438.985	14701.17
439.192	14185.08
439.399	14760.56
439.606	14467.7
439.813	15327.85
440.02	15993.44
440.227	15905.38
440.433	15858.28
440.64	16487
440.847	16175.71
441.054	16497.24
441.261	17539.66
441.467	17443.4
441.674	17553.99
441.881	18410.04
442.088	18432.57
442.294	18399.8
442.501	18537.02
442.708	18983.48
442.914	19749.42
443.121	20406.81
443.328	20099.62
443.534	21543.44
443.741	20693.53
443.948	20421.15
444.154	22071.81
444.361	21930.5
444.568	22270.47
444.774	22055.43
444.981	22512.13
445.187	23030.26
445.394	23978.47
445.6	23806.44
445.807	26098.12
446.013	24746.46
446.22	25104.85
446.426	26593.73
446.633	26698.17
446.839	27326.9
447.046	26425.79
447.252	27691.44
447.459	27494.83
447.665	27644.34
447.871	28551.59
448.078	30220.68
448.284	28389.8
448.491	29669.78
448.697	30415.24
448.903	31125.88
449.11	31224.18
449.316	30677.38
449.522	31347.06
449.728	32051.56
449.935	31969.65
450.141	32469.35
450.347	32749.92
450.553	31678.83
450.76	32282.98
450.966	33618.26
451.172	32782.69
451.378	34023.76
451.584	33341.78
451.791	33976.65
451.997	33954.13
452.203	34562.37
452.409	34773.31
452.615	34244.94
452.821	33046.88
453.027	32440.68
453.233	34380.1
453.44	33040.73
453.646	33456.47
453.852	33732.95
454.058	34269.51
454.264	32909.66
454.47	33653.08
454.676	32407.91
454.882	34087.25
455.088	31168.89
455.294	31635.83
455.5	31965.55
455.705	32090.48
455.911	31078.78
456.117	30425.48
456.323	30232.97
456.529	28473.76
456.735	30204.3
456.941	28883.36
457.147	28293.54
457.352	27324.85
457.558	27244.98
457.764	27234.74
457.97	26843.58
458.176	26378.69
458.381	26296.77
458.587	24949.21
458.793	25014.74
458.999	23861.74
459.204	25498.06
459.41	24562.14
459.616	23181.81
459.821	23103.99
460.027	23071.22
460.233	22628.86
460.438	21660.17
460.644	22088.2
460.85	20734.49
461.055	20222.5
461.261	20365.85
461.466	18993.72
461.672	18401.85
461.878	19626.54
462.083	18291.26
462.289	17769.03
462.494	17805.89
462.7	17191.5
462.905	16501.34
463.111	16933.46
463.316	17349.2
463.522	16751.19
463.727	16783.96
463.932	17076.82
464.138	16491.1
464.343	16716.37
464.549	16185.95
464.754	16648.79
464.959	16470.62
465.165	16394.84
465.37	15942.24
465.575	15467.11
465.781	15829.6
465.986	16081.5
466.191	15694.44
466.397	15299.18
466.602	14371.45
466.807	14856.82
467.012	14979.7
467.218	15012.46
467.423	14733.94
467.628	15012.46
467.833	15569.51
468.038	14815.86
