Data from USB4F104151__87__14-17-51-363.txt Node

Date: Thu Mar 13 14:17:51 EDT 2025
User: louis
Spectrometer: USB4F10415
Trigger mode: 4
Integration Time (sec): 2.000000E-2
Scans to average: 1
Electric dark correction enabled: true
Nonlinearity correction enabled: false
Boxcar width: 0
XAxis mode: Wavelengths
Number of Pixels in Spectrum: 3648
>>>>>Begin Spectral Data<<<<<
178.204	-173.05
178.424	-173.05
178.644	-173.05
178.864	-193.53
179.084	-152.57
179.304	-107.52
179.524	-37.89
179.744	84.99
179.964	3.07
180.184	-1.02
180.404	3.07
180.624	-44.03
180.844	37.89
181.064	-56.32
181.283	19.46
181.503	33.79
181.723	64.51
181.943	-25.6
182.163	84.99
182.383	-5.12
182.602	52.22
182.822	58.37
183.042	84.99
183.262	-41.98
183.482	52.22
183.701	3.07
183.921	-68.61
184.141	37.89
184.361	70.65
184.58	7.17
184.8	54.27
185.02	-21.5
185.239	27.65
185.459	25.6
185.679	46.08
185.898	-23.55
186.118	97.28
186.338	72.7
186.557	80.89
186.777	-46.08
186.997	9.22
187.216	13.31
187.436	27.65
187.655	-19.46
187.875	9.22
188.095	-29.7
188.314	60.42
188.534	48.13
188.753	19.46
188.973	132.09
189.192	-25.6
189.412	44.03
189.631	60.42
189.851	-37.89
190.07	39.94
190.29	15.36
190.509	23.55
190.729	7.17
190.948	33.79
191.168	177.15
191.387	84.99
191.607	44.03
191.826	76.8
192.045	-27.65
192.265	11.26
192.484	-27.65
192.704	-9.22
192.923	-60.42
193.142	101.37
193.362	-3.07
193.581	109.57
193.8	11.26
194.02	-25.6
194.239	-25.6
194.458	-13.31
194.678	37.89
194.897	27.65
195.116	-56.32
195.335	3.07
195.555	44.03
195.774	50.18
195.993	60.42
196.212	9.22
196.432	23.55
196.651	9.22
196.87	-21.5
197.089	-19.46
197.308	-15.36
197.528	19.46
197.747	-3.07
197.966	46.08
198.185	19.46
198.404	13.31
198.623	37.89
198.842	27.65
199.062	76.8
199.281	95.23
199.5	-19.46
199.719	62.46
199.938	-46.08
200.157	115.71
200.376	17.41
200.595	84.99
200.814	5.12
201.033	15.36
201.252	9.22
201.471	11.26
201.69	7.17
201.909	-13.31
202.128	46.08
202.347	52.22
202.566	62.46
202.785	11.26
203.004	-29.7
203.223	72.7
203.442	-9.22
203.661	27.65
203.879	93.18
204.098	76.8
204.317	-13.31
204.536	3.07
204.755	-13.31
204.974	46.08
205.193	35.84
205.411	48.13
205.63	13.31
205.849	76.8
206.068	11.26
206.287	41.98
206.505	23.55
206.724	19.46
206.943	-25.6
207.162	15.36
207.381	35.84
207.599	1.02
207.818	-3.07
208.037	31.74
208.255	-11.26
208.474	13.31
208.693	-19.46
208.911	68.61
209.13	11.26
209.349	113.66
209.567	-44.03
209.786	13.31
210.005	44.03
210.223	9.22
210.442	27.65
210.661	-37.89
210.879	27.65
211.098	56.32
211.316	68.61
211.535	54.27
211.753	31.74
211.972	46.08
212.191	-3.07
212.409	-3.07
212.628	-46.08
212.846	29.7
213.065	-11.26
213.283	35.84
213.502	60.42
213.72	19.46
213.938	-17.41
214.157	60.42
214.375	19.46
214.594	13.31
214.812	27.65
215.031	15.36
215.249	101.37
215.467	-54.27
215.686	29.7
215.904	19.46
216.122	21.5
216.341	15.36
216.559	9.22
216.778	66.56
216.996	52.22
217.214	15.36
217.432	41.98
217.651	-23.55
217.869	37.89
218.087	-25.6
218.306	52.22
218.524	1.02
218.742	11.26
218.96	29.7
219.179	-37.89
219.397	60.42
219.615	15.36
219.833	52.22
220.051	44.03
220.27	19.46
220.488	46.08
220.706	7.17
220.924	-70.65
221.142	-41.98
221.36	68.61
221.578	54.27
221.796	23.55
222.015	-9.22
222.233	72.7
222.451	29.7
222.669	-25.6
222.887	27.65
223.105	-13.31
223.323	13.31
223.541	19.46
223.759	44.03
223.977	25.6
224.195	134.14
224.413	5.12
224.631	-5.12
224.849	-54.27
225.067	72.7
225.285	-23.55
225.503	-33.79
225.721	-13.31
225.939	-5.12
226.157	44.03
226.375	76.8
226.592	-58.37
226.81	-13.31
227.028	35.84
227.246	121.85
227.464	64.51
227.682	-11.26
227.9	89.09
228.117	19.46
228.335	19.46
228.553	-33.79
228.771	89.09
228.989	62.46
229.206	-31.74
229.424	27.65
229.642	-11.26
229.86	-1.02
230.077	113.66
230.295	39.94
230.513	13.31
230.731	-35.84
230.948	9.22
231.166	80.89
231.384	-5.12
231.601	5.12
231.819	5.12
232.037	-27.65
232.254	-58.37
232.472	19.46
232.689	-3.07
232.907	37.89
233.125	82.94
233.342	-50.18
233.56	11.26
233.777	39.94
233.995	48.13
234.213	109.57
234.43	70.65
234.648	-3.07
234.865	-37.89
235.083	76.8
235.3	54.27
235.518	52.22
235.735	62.46
235.953	44.03
236.17	7.17
236.388	-33.79
236.605	48.13
236.822	58.37
237.04	52.22
237.257	31.74
237.475	11.26
237.692	54.27
237.909	19.46
238.127	3.07
238.344	13.31
238.562	-29.7
238.779	13.31
238.996	-21.5
239.214	-5.12
239.431	13.31
239.648	37.89
239.865	-5.12
240.083	27.65
240.3	72.7
240.517	50.18
240.735	11.26
240.952	13.31
241.169	19.46
241.386	50.18
241.603	-5.12
241.821	46.08
242.038	44.03
242.255	125.95
242.472	-64.51
242.689	-13.31
242.907	-29.7
243.124	-21.5
243.341	-35.84
243.558	-21.5
243.775	-41.98
243.992	-5.12
244.209	107.52
244.426	58.37
244.643	19.46
244.86	-19.46
245.078	19.46
245.295	25.6
245.512	-1.02
245.729	76.8
245.946	68.61
246.163	56.32
246.38	87.04
246.597	13.31
246.814	7.17
247.031	-5.12
247.248	13.31
247.464	-11.26
247.681	23.55
247.898	50.18
248.115	-3.07
248.332	44.03
248.549	39.94
248.766	62.46
248.983	41.98
249.2	46.08
249.417	91.13
249.633	5.12
249.85	87.04
250.067	58.37
250.284	-25.6
250.501	64.51
250.717	39.94
250.934	7.17
251.151	11.26
251.368	-3.07
251.585	39.94
251.801	29.7
252.018	-23.55
252.235	-13.31
252.451	37.89
252.668	-5.12
252.885	5.12
253.102	74.75
253.318	48.13
253.535	-7.17
253.752	11.26
253.968	52.22
254.185	33.79
254.401	29.7
254.618	44.03
254.835	11.26
255.051	62.46
255.268	54.27
255.484	-48.13
255.701	19.46
255.917	19.46
256.134	68.61
256.351	35.84
256.567	-19.46
256.784	60.42
257	-13.31
257.217	33.79
257.433	-1.02
257.65	46.08
257.866	-33.79
258.082	-50.18
258.299	-23.55
258.515	84.99
258.732	-7.17
258.948	-70.65
259.165	68.61
259.381	-31.74
259.597	52.22
259.814	-1.02
260.03	52.22
260.246	-27.65
260.463	-7.17
260.679	60.42
260.895	37.89
261.112	52.22
261.328	54.27
261.544	44.03
261.761	101.37
261.977	31.74
262.193	-3.07
262.409	46.08
262.626	23.55
262.842	13.31
263.058	-29.7
263.274	52.22
263.49	-11.26
263.707	-1.02
263.923	44.03
264.139	-1.02
264.355	-35.84
264.571	-54.27
264.787	39.94
265.004	11.26
265.22	89.09
265.436	60.42
265.652	-50.18
265.868	62.46
266.084	35.84
266.3	23.55
266.516	46.08
266.732	46.08
266.948	-1.02
267.164	52.22
267.38	-13.31
267.596	72.7
267.812	89.09
268.028	-5.12
268.244	-11.26
268.46	27.65
268.676	3.07
268.892	62.46
269.108	9.22
269.324	35.84
269.54	52.22
269.756	11.26
269.972	-74.75
270.188	37.89
270.403	-37.89
270.619	-5.12
270.835	37.89
271.051	62.46
271.267	3.07
271.483	48.13
271.698	29.7
271.914	48.13
272.13	-17.41
272.346	87.04
272.562	11.26
272.777	60.42
272.993	3.07
273.209	31.74
273.425	27.65
273.64	-29.7
273.856	3.07
274.072	76.8
274.287	66.56
274.503	-15.36
274.719	56.32
274.934	37.89
275.15	11.26
275.366	87.04
275.581	-76.8
275.797	3.07
276.012	21.5
276.228	27.65
276.444	21.5
276.659	107.52
276.875	52.22
277.09	-23.55
277.306	25.6
277.521	19.46
277.737	33.79
277.952	13.31
278.168	-9.22
278.383	-7.17
278.599	15.36
278.814	25.6
279.03	-60.42
279.245	48.13
279.461	62.46
279.676	-3.07
279.892	56.32
280.107	-1.02
280.322	3.07
280.538	7.17
280.753	11.26
280.969	46.08
281.184	64.51
281.399	68.61
281.615	70.65
281.83	3.07
282.045	27.65
282.26	-25.6
282.476	-3.07
282.691	68.61
282.906	50.18
283.122	3.07
283.337	23.55
283.552	56.32
283.767	93.18
283.983	-21.5
284.198	3.07
284.413	11.26
284.628	-46.08
284.843	29.7
285.058	-21.5
285.274	15.36
285.489	-13.31
285.704	19.46
285.919	46.08
286.134	35.84
286.349	44.03
286.564	62.46
286.779	-19.46
286.995	62.46
287.21	3.07
287.425	35.84
287.64	-60.42
287.855	7.17
288.07	1.02
288.285	19.46
288.5	7.17
288.715	68.61
288.93	-7.17
289.145	13.31
289.36	19.46
289.575	11.26
289.79	44.03
290.004	-15.36
290.219	39.94
290.434	54.27
290.649	19.46
290.864	7.17
291.079	-29.7
291.294	70.65
291.509	5.12
291.724	-11.26
291.938	-111.61
292.153	74.75
292.368	11.26
292.583	27.65
292.798	23.55
293.012	37.89
293.227	68.61
293.442	37.89
293.657	52.22
293.871	11.26
294.086	-35.84
294.301	87.04
294.516	3.07
294.73	23.55
294.945	-39.94
295.16	27.65
295.374	46.08
295.589	-21.5
295.804	-9.22
296.018	72.7
296.233	93.18
296.447	23.55
296.662	-58.37
296.877	52.22
297.091	25.6
297.306	-5.12
297.52	21.5
297.735	37.89
297.949	-21.5
298.164	54.27
298.378	-23.55
298.593	-44.03
298.807	-46.08
299.022	-25.6
299.236	33.79
299.451	87.04
299.665	7.17
299.88	87.04
300.094	3.07
300.309	17.41
300.523	19.46
300.737	-35.84
300.952	11.26
301.166	46.08
301.381	-64.51
301.595	-41.98
301.809	50.18
302.024	-3.07
302.238	46.08
302.452	54.27
302.667	27.65
302.881	27.65
303.095	48.13
303.309	23.55
303.524	-76.8
303.738	-1.02
303.952	23.55
304.166	60.42
304.381	-29.7
304.595	76.8
304.809	5.12
305.023	3.07
305.237	11.26
305.452	39.94
305.666	54.27
305.88	23.55
306.094	56.32
306.308	117.76
306.522	37.89
306.736	11.26
306.95	64.51
307.164	-1.02
307.379	52.22
307.593	44.03
307.807	54.27
308.021	103.42
308.235	11.26
308.449	46.08
308.663	27.65
308.877	117.76
309.091	19.46
309.305	44.03
309.519	-52.22
309.733	93.18
309.947	7.17
310.161	-31.74
310.374	91.13
310.588	66.56
310.802	-25.6
311.016	64.51
311.23	27.65
311.444	33.79
311.658	11.26
311.872	25.6
312.085	68.61
312.299	33.79
312.513	70.65
312.727	29.7
312.941	-27.65
313.154	-35.84
313.368	27.65
313.582	80.89
313.796	19.46
314.009	19.46
314.223	52.22
314.437	105.47
314.651	46.08
314.864	21.5
315.078	46.08
315.292	70.65
315.505	35.84
315.719	39.94
315.933	101.37
316.146	19.46
316.36	-25.6
316.573	52.22
316.787	39.94
317.001	80.89
317.214	-50.18
317.428	11.26
317.641	44.03
317.855	84.99
318.068	9.22
318.282	27.65
318.495	33.79
318.709	68.61
318.922	99.33
319.136	78.85
319.349	27.65
319.563	68.61
319.776	76.8
319.99	29.7
320.203	117.76
320.417	-3.07
320.63	11.26
320.843	105.47
321.057	74.75
321.27	11.26
321.483	-37.89
321.697	54.27
321.91	103.42
322.124	37.89
322.337	13.31
322.55	-13.31
322.763	5.12
322.977	76.8
323.19	41.98
323.403	-5.12
323.617	44.03
323.83	46.08
324.043	78.85
324.256	11.26
324.469	-15.36
324.683	-1.02
324.896	23.55
325.109	5.12
325.322	-41.98
325.535	103.42
325.748	13.31
325.962	-37.89
326.175	19.46
326.388	39.94
326.601	76.8
326.814	27.65
327.027	21.5
327.24	76.8
327.453	29.7
327.666	41.98
327.879	152.57
328.092	11.26
328.305	27.65
328.518	-27.65
328.731	27.65
328.944	-29.7
329.157	68.61
329.37	-3.07
329.583	19.46
329.796	80.89
330.009	-35.84
330.222	11.26
330.435	31.74
330.648	103.42
330.861	29.7
331.073	7.17
331.286	35.84
331.499	46.08
331.712	3.07
331.925	29.7
332.138	84.99
332.35	41.98
332.563	23.55
332.776	52.22
332.989	46.08
333.202	35.84
333.414	23.55
333.627	11.26
333.84	-5.12
334.053	46.08
334.265	-15.36
334.478	-3.07
334.691	46.08
334.903	3.07
335.116	27.65
335.329	62.46
335.541	-13.31
335.754	68.61
335.966	-60.42
336.179	5.12
336.392	29.7
336.604	11.26
336.817	84.99
337.029	70.65
337.242	-44.03
337.454	46.08
337.667	84.99
337.88	44.03
338.092	-9.22
338.305	-46.08
338.517	-15.36
338.729	-31.74
338.942	-15.36
339.154	31.74
339.367	109.57
339.579	44.03
339.792	62.46
340.004	19.46
340.217	-62.46
340.429	-29.7
340.641	-52.22
340.854	-7.17
341.066	31.74
341.278	35.84
341.491	15.36
341.703	48.13
341.915	-70.65
342.128	142.33
342.34	121.85
342.552	44.03
342.764	23.55
342.977	-21.5
343.189	44.03
343.401	21.5
343.613	-17.41
343.826	44.03
344.038	54.27
344.25	27.65
344.462	21.5
344.674	7.17
344.886	-29.7
345.099	3.07
345.311	31.74
345.523	48.13
345.735	-29.7
345.947	56.32
346.159	62.46
346.371	27.65
346.583	23.55
346.795	93.18
347.007	-13.31
347.219	84.99
347.431	58.37
347.643	-21.5
347.855	19.46
348.067	62.46
348.279	27.65
348.491	46.08
348.703	44.03
348.915	-21.5
349.127	56.32
349.339	-52.22
349.551	5.12
349.763	15.36
349.975	52.22
350.187	80.89
350.399	39.94
350.61	54.27
350.822	15.36
351.034	37.89
351.246	76.8
351.458	17.41
351.669	66.56
351.881	52.22
352.093	78.85
352.305	13.31
352.517	-19.46
352.728	76.8
352.94	84.99
353.152	7.17
353.363	54.27
353.575	103.42
353.787	91.13
353.999	44.03
354.21	58.37
354.422	82.94
354.633	-68.61
354.845	7.17
355.057	68.61
355.268	156.67
355.48	76.8
355.692	5.12
355.903	78.85
356.115	52.22
356.326	3.07
356.538	93.18
356.749	-3.07
356.961	52.22
357.172	-15.36
357.384	-5.12
357.595	97.28
357.807	23.55
358.018	-19.46
358.23	-23.55
358.441	72.7
358.653	62.46
358.864	62.46
359.075	-21.5
359.287	84.99
359.498	68.61
359.709	-11.26
359.921	48.13
360.132	31.74
360.344	11.26
360.555	-13.31
360.766	-27.65
360.977	60.42
361.189	54.27
361.4	103.42
361.611	72.7
361.823	21.5
362.034	3.07
362.245	-58.37
362.456	99.33
362.667	117.76
362.879	37.89
363.09	-17.41
363.301	39.94
363.512	41.98
363.723	19.46
363.935	-5.12
364.146	68.61
364.357	62.46
364.568	-50.18
364.779	17.41
364.99	46.08
365.201	7.17
365.412	146.43
365.623	9.22
365.834	48.13
366.045	13.31
366.256	87.04
366.467	66.56
366.678	-11.26
366.889	11.26
367.1	19.46
367.311	3.07
367.522	68.61
367.733	52.22
367.944	52.22
368.155	-3.07
368.366	66.56
368.577	19.46
368.788	48.13
368.999	9.22
369.209	37.89
369.42	52.22
369.631	117.76
369.842	37.89
370.053	29.7
370.264	3.07
370.474	-29.7
370.685	23.55
370.896	109.57
371.107	70.65
371.317	93.18
371.528	78.85
371.739	58.37
371.95	27.65
372.16	68.61
372.371	-3.07
372.582	-3.07
372.792	72.7
373.003	15.36
373.214	7.17
373.424	84.99
373.635	82.94
373.846	105.47
374.056	128
374.267	46.08
374.477	48.13
374.688	31.74
374.898	97.28
375.109	29.7
375.319	-25.6
375.53	117.76
375.74	44.03
375.951	25.6
376.161	27.65
376.372	-11.26
376.582	-5.12
376.793	-3.07
377.003	54.27
377.214	44.03
377.424	78.85
377.635	39.94
377.845	15.36
378.055	-52.22
378.266	35.84
378.476	19.46
378.686	27.65
378.897	54.27
379.107	-11.26
379.317	41.98
379.528	60.42
379.738	7.17
379.948	-62.46
380.158	78.85
380.369	89.09
380.579	80.89
380.789	-3.07
380.999	46.08
381.21	119.81
381.42	66.56
381.63	19.46
381.84	39.94
382.05	64.51
382.261	54.27
382.471	103.42
382.681	-33.79
382.891	134.14
383.101	29.7
383.311	46.08
383.521	13.31
383.731	146.43
383.941	84.99
384.151	31.74
384.361	3.07
384.571	11.26
384.781	117.76
384.991	130.05
385.201	44.03
385.411	52.22
385.621	-23.55
385.831	-19.46
386.041	60.42
386.251	68.61
386.461	97.28
386.671	119.81
386.881	48.13
387.091	29.7
387.301	95.23
387.511	19.46
387.72	33.79
387.93	80.89
388.14	50.18
388.35	46.08
388.56	66.56
388.769	54.27
388.979	89.09
389.189	23.55
389.399	19.46
389.609	52.22
389.818	46.08
390.028	29.7
390.238	35.84
390.447	13.31
390.657	101.37
390.867	64.51
391.076	3.07
391.286	5.12
391.496	46.08
391.705	35.84
391.915	29.7
392.125	103.42
392.334	44.03
392.544	101.37
392.753	80.89
392.963	62.46
393.172	64.51
393.382	60.42
393.591	115.71
393.801	19.46
394.01	78.85
394.22	84.99
394.429	13.31
394.639	103.42
394.848	76.8
395.058	5.12
395.267	19.46
395.477	29.7
395.686	117.76
395.895	89.09
396.105	150.53
396.314	70.65
396.524	93.18
396.733	33.79
396.942	105.47
397.152	-23.55
397.361	35.84
397.57	25.6
397.78	27.65
397.989	44.03
398.198	134.14
398.407	54.27
398.617	109.57
398.826	56.32
399.035	84.99
399.244	111.61
399.453	35.84
399.663	93.18
399.872	84.99
400.081	35.84
400.29	91.13
400.499	72.7
400.708	27.65
400.917	128
401.127	74.75
401.336	46.08
401.545	185.34
401.754	-15.36
401.963	158.72
402.172	109.57
402.381	109.57
402.59	35.84
402.799	103.42
403.008	177.15
403.217	68.61
403.426	142.33
403.635	64.51
403.844	21.5
404.053	125.95
404.262	128
404.471	154.62
404.68	125.95
404.888	93.18
405.097	136.19
405.306	117.76
405.515	60.42
405.724	140.29
405.933	183.29
406.142	103.42
406.35	125.95
406.559	146.43
406.768	189.44
406.977	183.29
407.185	199.68
407.394	191.49
407.603	160.77
407.812	136.19
408.02	187.39
408.229	171.01
408.438	166.91
408.646	177.15
408.855	121.85
409.064	224.25
409.272	257.02
409.481	201.72
409.69	209.92
409.898	236.54
410.107	273.4
410.315	257.02
410.524	332.79
410.733	324.6
410.941	207.87
411.15	287.74
411.358	277.5
411.567	363.51
411.775	371.71
411.984	314.36
412.192	297.98
412.401	336.89
412.609	318.46
412.818	416.76
413.026	353.27
413.234	375.8
413.443	353.27
413.651	416.76
413.86	457.72
414.068	539.64
414.276	504.82
414.485	439.29
414.693	539.64
414.901	529.4
415.11	560.12
415.318	568.31
415.526	562.17
415.734	629.75
415.943	578.55
416.151	637.94
416.359	728.05
416.567	644.09
416.776	740.34
416.984	683
417.192	789.49
417.4	738.29
417.608	852.98
417.817	863.22
418.025	932.85
418.233	994.29
418.441	969.71
418.649	977.91
418.857	1041.39
419.065	1125.36
419.273	1051.63
419.481	1078.26
419.689	1186.8
419.897	1184.75
420.105	1215.47
420.313	1250.28
420.521	1242.09
420.729	1348.59
420.937	1407.98
421.145	1416.17
421.353	1479.66
421.561	1600.49
421.769	1663.97
421.977	1635.3
422.185	1655.78
422.393	1760.23
422.601	1731.56
422.809	1829.86
423.017	1805.28
423.224	2087.9
423.432	1995.75
423.64	1989.6
423.848	2186.21
424.056	2173.92
424.263	2313.18
424.471	2323.42
424.679	2472.92
424.887	2472.92
425.094	2546.65
425.302	2657.24
425.51	2644.95
425.718	2657.24
425.925	2780.12
426.133	2808.79
426.341	3064.79
426.548	3224.53
426.756	3224.53
426.964	3275.73
427.171	3386.32
427.379	3435.47
427.586	3554.25
427.794	3771.33
428.001	3800.01
428.209	3967.94
428.417	3814.34
428.624	4281.28
428.832	4221.89
429.039	4139.97
429.247	4117.44
429.454	4529.08
429.662	4852.66
429.869	4369.34
430.076	4776.89
430.284	4797.37
430.491	5043.12
430.699	5188.53
430.906	5254.06
431.114	5438.38
431.321	5465
431.528	5698.47
431.736	5925.8
431.943	6247.33
432.15	6112.16
432.358	6138.79
432.565	6362.01
432.772	6572.96
432.979	6970.26
433.187	6939.54
433.394	6933.4
433.601	7312.27
433.808	7658.38
434.016	7447.44
434.223	7607.18
434.43	8063.88
434.637	8039.3
434.844	8524.67
435.052	8506.24
435.259	8485.76
435.466	8778.62
435.673	8651.64
435.88	9169.78
436.087	9622.38
436.294	9622.38
436.501	9393.01
436.708	9755.5
436.915	9894.76
437.122	10339.17
437.329	10562.4
437.537	10548.06
437.743	10949.46
437.95	10734.43
438.157	11385.68
438.364	11674.45
438.571	11467.6
438.778	11885.39
438.985	12690.24
439.192	12217.16
439.399	12645.18
439.606	12329.8
439.813	13065.02
440.02	14029.61
440.227	13628.21
440.433	13396.79
440.64	14080.81
440.847	13802.29
441.054	14203.69
441.261	15092.51
441.467	14844.7
441.674	15266.58
441.881	15803.15
442.088	15686.42
442.294	15710.99
442.501	15981.32
442.708	16376.58
442.914	17279.74
443.121	17627.89
443.328	17185.53
443.534	18649.83
443.741	17836.78
443.948	17894.13
444.154	18850.53
444.361	19018.46
444.568	19102.43
444.774	18932.45
444.981	19208.92
445.187	19759.83
445.394	20548.29
445.6	20376.27
445.807	22418.09
446.013	21084.86
446.22	21803.7
446.426	22782.63
446.633	23012
446.839	23323.29
447.046	22549.16
447.252	24064.66
447.459	24128.14
447.665	23898.77
447.871	24754.82
448.078	26077.81
448.284	24590.98
448.491	25295.49
448.697	26335.85
448.903	26700.39
449.11	26913.38
449.316	26417.77
449.522	26806.89
449.728	27671.13
449.935	28121.68
450.141	27804.25
450.347	28432.97
450.553	27675.23
450.76	27581.02
450.966	28602.96
451.172	28645.96
451.378	29248.07
451.584	28416.59
451.791	29469.25
451.997	29395.52
452.203	29792.83
452.409	30089.78
452.615	29588.03
452.821	28643.91
453.027	28224.08
453.233	29819.45
453.44	28779.08
453.646	29153.86
453.852	29528.64
454.058	29622.84
454.264	28287.57
454.47	29549.12
454.676	28705.35
454.882	29872.7
455.088	27075.17
455.294	27226.72
455.5	27859.54
455.705	28004.95
455.911	27134.56
456.117	26763.88
456.323	26339.95
456.529	24830.6
456.735	26466.92
456.941	25242.24
457.147	24865.41
457.352	24183.44
457.558	24044.18
457.764	24076.94
457.97	23624.34
458.176	22948.51
458.381	23026.34
458.587	21910.19
458.793	22114.99
458.999	20423.37
459.204	22633.13
459.41	21516.98
459.616	20007.63
459.821	20257.48
460.027	20325.07
460.233	19899.09
460.438	18991.84
460.644	19163.87
460.85	17996.53
461.055	17804.02
461.261	17869.55
461.466	16624.39
461.672	16118.54
461.878	17076.99
462.083	16046.86
462.289	15801.1
462.494	15561.49
462.7	14824.22
462.905	14631.71
463.111	15108.89
463.316	14998.3
463.522	14818.08
463.727	14795.55
463.932	14926.62
464.138	14443.3
464.343	14498.59
464.549	14285.61
464.754	14779.17
464.959	14461.73
465.165	14351.14
465.37	13941.55
465.575	13509.43
465.781	14093.1
465.986	14074.67
466.191	13560.63
466.397	13429.56
466.602	12550.98
466.807	13085.5
467.012	13159.22
467.218	13034.3
467.423	12915.51
467.628	13298.49
