Data from USB4F104151__90__14-17-56-941.txt Node

Date: Thu Mar 13 14:17:56 EDT 2025
User: louis
Spectrometer: USB4F10415
Trigger mode: 4
Integration Time (sec): 2.000000E-2
Scans to average: 1
Electric dark correction enabled: true
Nonlinearity correction enabled: false
Boxcar width: 0
XAxis mode: Wavelengths
Number of Pixels in Spectrum: 3648
>>>>>Begin Spectral Data<<<<<
178.204	-76.29
178.424	-76.29
178.644	-76.29
178.864	-113.15
179.084	-53.76
179.304	-29.18
179.524	19.97
179.744	-47.62
179.964	1.54
180.184	-6.66
180.404	22.02
180.624	-4.61
180.844	28.16
181.064	50.69
181.283	-23.04
181.503	-55.81
181.723	44.54
181.943	-35.33
182.163	13.82
182.383	1.54
182.602	75.26
182.822	-45.57
183.042	36.35
183.262	28.16
183.482	19.97
183.701	58.88
183.921	-27.14
184.141	9.73
184.361	17.92
184.58	22.02
184.8	7.68
185.02	-35.33
185.239	44.54
185.459	28.16
185.679	42.5
185.898	-33.28
186.118	69.12
186.338	79.36
186.557	87.55
186.777	54.78
186.997	30.21
187.216	28.16
187.436	101.89
187.655	89.6
187.875	50.69
188.095	19.97
188.314	122.37
188.534	112.13
188.753	42.5
188.973	7.68
189.192	54.78
189.412	7.68
189.631	-10.75
189.851	-20.99
190.07	69.12
190.29	17.92
190.509	13.82
190.729	19.97
190.948	9.73
191.168	77.31
191.387	101.89
191.607	22.02
191.826	46.59
192.045	17.92
192.265	-18.94
192.484	5.63
192.704	22.02
192.923	1.54
193.142	60.93
193.362	87.55
193.581	67.07
193.8	34.3
194.02	97.79
194.239	-23.04
194.458	79.36
194.678	17.92
194.897	42.5
195.116	-31.23
195.335	19.97
195.555	13.82
195.774	50.69
195.993	26.11
196.212	-14.85
196.432	26.11
196.651	48.64
196.87	24.06
197.089	73.21
197.308	83.45
197.528	19.97
197.747	-20.99
197.966	7.68
198.185	118.27
198.404	-31.23
198.623	28.16
198.842	50.69
199.062	112.13
199.281	1.54
199.5	71.17
199.719	34.3
199.938	-2.56
200.157	99.84
200.376	62.98
200.595	118.27
200.814	11.78
201.033	1.54
201.252	30.21
201.471	50.69
201.69	28.16
201.909	67.07
202.128	60.93
202.347	118.27
202.566	30.21
202.785	42.5
203.004	26.11
203.223	67.07
203.442	28.16
203.661	11.78
203.879	17.92
204.098	93.69
204.317	-6.66
204.536	42.5
204.755	58.88
204.974	83.45
205.193	69.12
205.411	134.65
205.63	9.73
205.849	15.87
206.068	34.3
206.287	50.69
206.505	44.54
206.724	91.65
206.943	75.26
207.162	65.02
207.381	34.3
207.599	52.74
207.818	67.07
208.037	-27.14
208.255	62.98
208.474	-6.66
208.693	-0.51
208.911	1.54
209.13	42.5
209.349	34.3
209.567	79.36
209.786	42.5
210.005	28.16
210.223	-12.8
210.442	112.13
210.661	42.5
210.879	34.3
211.098	87.55
211.316	5.63
211.535	54.78
211.753	32.26
211.972	-12.8
212.191	38.4
212.409	75.26
212.628	67.07
212.846	22.02
213.065	46.59
213.283	62.98
213.502	26.11
213.72	26.11
213.938	-61.95
214.157	30.21
214.375	-4.61
214.594	-6.66
214.812	69.12
215.031	17.92
215.249	50.69
215.467	38.4
215.686	5.63
215.904	95.74
216.122	87.55
216.341	87.55
216.559	-6.66
216.778	85.5
216.996	87.55
217.214	44.54
217.432	15.87
217.651	-23.04
217.869	26.11
218.087	24.06
218.306	-33.28
218.524	58.88
218.742	54.78
218.96	40.45
219.179	83.45
219.397	-33.28
219.615	120.32
219.833	108.03
220.051	15.87
220.27	5.63
220.488	71.17
220.706	71.17
220.924	11.78
221.142	69.12
221.36	-12.8
221.578	50.69
221.796	11.78
222.015	24.06
222.233	-23.04
222.451	42.5
222.669	13.82
222.887	116.22
223.105	26.11
223.323	-20.99
223.541	-10.75
223.759	-18.94
223.977	26.11
224.195	85.5
224.413	60.93
224.631	148.99
224.849	50.69
225.067	93.69
225.285	19.97
225.503	-4.61
225.721	42.5
225.939	24.06
226.157	44.54
226.375	75.26
226.592	17.92
226.81	17.92
227.028	75.26
227.246	-14.85
227.464	26.11
227.682	60.93
227.9	71.17
228.117	30.21
228.335	50.69
228.553	69.12
228.771	60.93
228.989	87.55
229.206	1.54
229.424	89.6
229.642	108.03
229.86	17.92
230.077	157.18
230.295	17.92
230.513	17.92
230.731	103.93
230.948	71.17
231.166	17.92
231.384	36.35
231.601	-4.61
231.819	85.5
232.037	-16.9
232.254	-4.61
232.472	-12.8
232.689	-45.57
232.907	3.58
233.125	50.69
233.342	34.3
233.56	-23.04
233.777	30.21
233.995	3.58
234.213	101.89
234.43	50.69
234.648	91.65
234.865	-39.42
235.083	42.5
235.3	79.36
235.518	42.5
235.735	175.61
235.953	58.88
236.17	15.87
236.388	11.78
236.605	42.5
236.822	60.93
237.04	9.73
237.257	62.98
237.475	-23.04
237.692	17.92
237.909	-35.33
238.127	9.73
238.344	79.36
238.562	48.64
238.779	-31.23
238.996	-12.8
239.214	42.5
239.431	-2.56
239.648	-31.23
239.865	7.68
240.083	19.97
240.3	-14.85
240.517	1.54
240.735	26.11
240.952	99.84
241.169	91.65
241.386	44.54
241.603	48.64
241.821	-18.94
242.038	42.5
242.255	26.11
242.472	-14.85
242.689	108.03
242.907	44.54
243.124	60.93
243.341	110.08
243.558	87.55
243.775	36.35
243.992	5.63
244.209	46.59
244.426	75.26
244.643	89.6
244.86	91.65
245.078	110.08
245.295	34.3
245.512	1.54
245.729	19.97
245.946	140.8
246.163	15.87
246.38	58.88
246.597	-39.42
246.814	28.16
247.031	-29.18
247.248	116.22
247.464	89.6
247.681	52.74
247.898	58.88
248.115	34.3
248.332	9.73
248.549	-20.99
248.766	62.98
248.983	44.54
249.2	38.4
249.417	118.27
249.633	17.92
249.85	71.17
250.067	71.17
250.284	1.54
250.501	83.45
250.717	97.79
250.934	9.73
251.151	93.69
251.368	26.11
251.585	42.5
251.801	62.98
252.018	-14.85
252.235	50.69
252.451	-39.42
252.668	-35.33
252.885	34.3
253.102	5.63
253.318	60.93
253.535	11.78
253.752	79.36
253.968	60.93
254.185	-39.42
254.401	46.59
254.618	112.13
254.835	22.02
255.051	108.03
255.268	75.26
255.484	38.4
255.701	44.54
255.917	17.92
256.134	26.11
256.351	54.78
256.567	34.3
256.784	44.54
257	-14.85
257.217	77.31
257.433	36.35
257.65	87.55
257.866	87.55
258.082	-14.85
258.299	15.87
258.515	67.07
258.732	-27.14
258.948	50.69
259.165	103.93
259.381	32.26
259.597	-43.52
259.814	62.98
260.03	11.78
260.246	22.02
260.463	13.82
260.679	60.93
260.895	-29.18
261.112	19.97
261.328	110.08
261.544	67.07
261.761	56.83
261.977	17.92
262.193	24.06
262.409	71.17
262.626	-0.51
262.842	-6.66
263.058	-39.42
263.274	67.07
263.49	67.07
263.707	159.23
263.923	46.59
264.139	5.63
264.355	71.17
264.571	36.35
264.787	-4.61
265.004	136.7
265.22	19.97
265.436	-6.66
265.652	30.21
265.868	71.17
266.084	5.63
266.3	67.07
266.516	13.82
266.732	38.4
266.948	58.88
267.164	52.74
267.38	11.78
267.596	56.83
267.812	46.59
268.028	87.55
268.244	79.36
268.46	93.69
268.676	30.21
268.892	67.07
269.108	1.54
269.324	-55.81
269.54	38.4
269.756	71.17
269.972	67.07
270.188	-6.66
270.403	32.26
270.619	52.74
270.835	24.06
271.051	132.61
271.267	87.55
271.483	-14.85
271.698	5.63
271.914	-14.85
272.13	36.35
272.346	-39.42
272.562	46.59
272.777	110.08
272.993	42.5
273.209	-31.23
273.425	-41.47
273.64	103.93
273.856	71.17
274.072	-23.04
274.287	9.73
274.503	44.54
274.719	-57.86
274.934	15.87
275.15	7.68
275.366	65.02
275.581	-57.86
275.797	36.35
276.012	9.73
276.228	89.6
276.444	60.93
276.659	173.57
276.875	50.69
277.09	87.55
277.306	36.35
277.521	26.11
277.737	52.74
277.952	91.65
278.168	17.92
278.383	-10.75
278.599	19.97
278.814	83.45
279.03	-64
279.245	13.82
279.461	38.4
279.676	5.63
279.892	77.31
280.107	50.69
280.322	1.54
280.538	-2.56
280.753	1.54
280.969	44.54
281.184	34.3
281.399	3.58
281.615	65.02
281.83	67.07
282.045	58.88
282.26	26.11
282.476	26.11
282.691	-4.61
282.906	52.74
283.122	44.54
283.337	60.93
283.552	50.69
283.767	-12.8
283.983	11.78
284.198	38.4
284.413	81.41
284.628	-10.75
284.843	83.45
285.058	-0.51
285.274	46.59
285.489	42.5
285.704	-70.14
285.919	-4.61
286.134	30.21
286.349	58.88
286.564	17.92
286.779	67.07
286.995	-39.42
287.21	-35.33
287.425	-0.51
287.64	-20.99
287.855	69.12
288.07	38.4
288.285	93.69
288.5	58.88
288.715	52.74
288.93	60.93
289.145	50.69
289.36	87.55
289.575	60.93
289.79	60.93
290.004	15.87
290.219	11.78
290.434	38.4
290.649	52.74
290.864	17.92
291.079	40.45
291.294	83.45
291.509	-35.33
291.724	62.98
291.938	-8.7
292.153	9.73
292.368	11.78
292.583	1.54
292.798	67.07
293.012	67.07
293.227	58.88
293.442	19.97
293.657	-6.66
293.871	5.63
294.086	11.78
294.301	120.32
294.516	-23.04
294.73	69.12
294.945	58.88
295.16	58.88
295.374	54.78
295.589	42.5
295.804	95.74
296.018	-10.75
296.233	17.92
296.447	19.97
296.662	-6.66
296.877	65.02
297.091	56.83
297.306	-39.42
297.52	22.02
297.735	17.92
297.949	34.3
298.164	99.84
298.378	30.21
298.593	17.92
298.807	38.4
299.022	99.84
299.236	99.84
299.451	67.07
299.665	-31.23
299.88	81.41
300.094	44.54
300.309	77.31
300.523	71.17
300.737	36.35
300.952	17.92
301.166	30.21
301.381	58.88
301.595	54.78
301.809	50.69
302.024	85.5
302.238	79.36
302.452	28.16
302.667	60.93
302.881	19.97
303.095	52.74
303.309	54.78
303.524	-31.23
303.738	60.93
303.952	7.68
304.166	93.69
304.381	-145.92
304.595	58.88
304.809	44.54
305.023	69.12
305.237	-18.94
305.452	28.16
305.666	91.65
305.88	83.45
306.094	24.06
306.308	75.26
306.522	134.65
306.736	-10.75
306.95	79.36
307.164	54.78
307.379	79.36
307.593	9.73
307.807	30.21
308.021	28.16
308.235	15.87
308.449	11.78
308.663	17.92
308.877	83.45
309.091	19.97
309.305	79.36
309.519	36.35
309.733	54.78
309.947	-2.56
310.161	1.54
310.374	110.08
310.588	151.04
310.802	26.11
311.016	19.97
311.23	167.42
311.444	3.58
311.658	44.54
311.872	30.21
312.085	-12.8
312.299	95.74
312.513	42.5
312.727	65.02
312.941	-37.38
313.154	34.3
313.368	1.54
313.582	126.46
313.796	56.83
314.009	13.82
314.223	67.07
314.437	13.82
314.651	108.03
314.864	26.11
315.078	34.3
315.292	60.93
315.505	1.54
315.719	26.11
315.933	77.31
316.146	9.73
316.36	52.74
316.573	67.07
316.787	46.59
317.001	-14.85
317.214	26.11
317.428	28.16
317.641	36.35
317.855	40.45
318.068	-6.66
318.282	85.5
318.495	99.84
318.709	40.45
318.922	52.74
319.136	58.88
319.349	99.84
319.563	13.82
319.776	83.45
319.99	77.31
320.203	103.93
320.417	42.5
320.63	42.5
320.843	83.45
321.057	36.35
321.27	54.78
321.483	58.88
321.697	1.54
321.91	50.69
322.124	58.88
322.337	71.17
322.55	11.78
322.763	-14.85
322.977	67.07
323.19	32.26
323.403	48.64
323.617	48.64
323.83	30.21
324.043	58.88
324.256	50.69
324.469	7.68
324.683	77.31
324.896	54.78
325.109	44.54
325.322	58.88
325.535	110.08
325.748	62.98
325.962	11.78
326.175	-2.56
326.388	75.26
326.601	28.16
326.814	22.02
327.027	42.5
327.24	108.03
327.453	-64
327.666	75.26
327.879	148.99
328.092	87.55
328.305	-51.71
328.518	28.16
328.731	52.74
328.944	7.68
329.157	-23.04
329.37	46.59
329.583	36.35
329.796	71.17
330.009	75.26
330.222	5.63
330.435	83.45
330.648	69.12
330.861	40.45
331.073	103.93
331.286	1.54
331.499	28.16
331.712	48.64
331.925	-14.85
332.138	19.97
332.35	99.84
332.563	-41.47
332.776	26.11
332.989	-6.66
333.202	112.13
333.414	65.02
333.627	58.88
333.84	58.88
334.053	58.88
334.265	34.3
334.478	34.3
334.691	36.35
334.903	22.02
335.116	17.92
335.329	91.65
335.541	73.21
335.754	62.98
335.966	54.78
336.179	71.17
336.392	50.69
336.604	99.84
336.817	93.69
337.029	93.69
337.242	30.21
337.454	91.65
337.667	26.11
337.88	54.78
338.092	17.92
338.305	140.8
338.517	9.73
338.729	17.92
338.942	91.65
339.154	34.3
339.367	48.64
339.579	38.4
339.792	69.12
340.004	62.98
340.217	-6.66
340.429	9.73
340.641	65.02
340.854	28.16
341.066	75.26
341.278	58.88
341.491	67.07
341.703	91.65
341.915	15.87
342.128	50.69
342.34	32.26
342.552	32.26
342.764	17.92
342.977	97.79
343.189	52.74
343.401	32.26
343.613	-6.66
343.826	112.13
344.038	40.45
344.25	38.4
344.462	77.31
344.674	48.64
344.886	77.31
345.099	67.07
345.311	28.16
345.523	-6.66
345.735	46.59
345.947	13.82
346.159	99.84
346.371	79.36
346.583	-12.8
346.795	122.37
347.007	46.59
347.219	17.92
347.431	-0.51
347.643	91.65
347.855	5.63
348.067	95.74
348.279	28.16
348.491	-23.04
348.703	79.36
348.915	122.37
349.127	26.11
349.339	52.74
349.551	40.45
349.763	58.88
349.975	67.07
350.187	118.27
350.399	116.22
350.61	83.45
350.822	79.36
351.034	-47.62
351.246	-2.56
351.458	118.27
351.669	93.69
351.881	60.93
352.093	91.65
352.305	101.89
352.517	97.79
352.728	75.26
352.94	-0.51
353.152	-6.66
353.363	24.06
353.575	67.07
353.787	116.22
353.999	22.02
354.21	30.21
354.422	28.16
354.633	46.59
354.845	101.89
355.057	44.54
355.268	5.63
355.48	-39.42
355.692	26.11
355.903	11.78
356.115	15.87
356.326	56.83
356.538	58.88
356.749	42.5
356.961	124.41
357.172	83.45
357.384	50.69
357.595	60.93
357.807	-14.85
358.018	5.63
358.23	54.78
358.441	77.31
358.653	93.69
358.864	75.26
359.075	56.83
359.287	75.26
359.498	75.26
359.709	79.36
359.921	44.54
360.132	26.11
360.344	120.32
360.555	34.3
360.766	108.03
360.977	85.5
361.189	103.93
361.4	28.16
361.611	44.54
361.823	58.88
362.034	56.83
362.245	36.35
362.456	17.92
362.667	99.84
362.879	-14.85
363.09	9.73
363.301	50.69
363.512	46.59
363.723	11.78
363.935	11.78
364.146	91.65
364.357	-0.51
364.568	58.88
364.779	-47.62
364.99	58.88
365.201	17.92
365.412	69.12
365.623	-37.38
365.834	71.17
366.045	69.12
366.256	50.69
366.467	46.59
366.678	-12.8
366.889	67.07
367.1	67.07
367.311	-4.61
367.522	75.26
367.733	136.7
367.944	26.11
368.155	91.65
368.366	112.13
368.577	116.22
368.788	50.69
368.999	-4.61
369.209	9.73
369.42	97.79
369.631	124.41
369.842	124.41
370.053	19.97
370.264	50.69
370.474	11.78
370.685	58.88
370.896	11.78
371.107	7.68
371.317	19.97
371.528	52.74
371.739	46.59
371.95	11.78
372.16	58.88
372.371	19.97
372.582	62.98
372.792	140.8
373.003	142.85
373.214	48.64
373.424	46.59
373.635	46.59
373.846	54.78
374.056	-43.52
374.267	67.07
374.477	34.3
374.688	36.35
374.898	24.06
375.109	28.16
375.319	58.88
375.53	99.84
375.74	75.26
375.951	15.87
376.161	-61.95
376.372	50.69
376.582	77.31
376.793	118.27
377.003	105.98
377.214	50.69
377.424	17.92
377.635	65.02
377.845	46.59
378.055	97.79
378.266	67.07
378.476	50.69
378.686	75.26
378.897	54.78
379.107	122.37
379.317	91.65
379.528	79.36
379.738	50.69
379.948	26.11
380.158	22.02
380.369	65.02
380.579	87.55
380.789	34.3
380.999	34.3
381.21	38.4
381.42	124.41
381.63	11.78
381.84	83.45
382.05	46.59
382.261	71.17
382.471	134.65
382.681	77.31
382.891	122.37
383.101	52.74
383.311	71.17
383.521	50.69
383.731	73.21
383.941	75.26
384.151	36.35
384.361	28.16
384.571	38.4
384.781	1.54
384.991	50.69
385.201	46.59
385.411	91.65
385.621	42.5
385.831	75.26
386.041	99.84
386.251	22.02
386.461	44.54
386.671	44.54
386.881	32.26
387.091	91.65
387.301	60.93
387.511	26.11
387.72	142.85
387.93	120.32
388.14	75.26
388.35	83.45
388.56	62.98
388.769	28.16
388.979	19.97
389.189	38.4
389.399	58.88
389.609	71.17
389.818	60.93
390.028	52.74
390.238	75.26
390.447	56.83
390.657	34.3
390.867	93.69
391.076	38.4
391.286	65.02
391.496	103.93
391.705	26.11
391.915	130.56
392.125	58.88
392.334	36.35
392.544	60.93
392.753	58.88
392.963	26.11
393.172	75.26
393.382	110.08
393.591	101.89
393.801	144.89
394.01	83.45
394.22	124.41
394.429	26.11
394.639	22.02
394.848	93.69
395.058	75.26
395.267	124.41
395.477	19.97
395.686	58.88
395.895	89.6
396.105	177.66
396.314	91.65
396.524	71.17
396.733	62.98
396.942	140.8
397.152	148.99
397.361	134.65
397.57	91.65
397.78	87.55
397.989	110.08
398.198	157.18
398.407	171.52
398.617	81.41
398.826	24.06
399.035	85.5
399.244	85.5
399.453	126.46
399.663	99.84
399.872	155.13
400.081	148.99
400.29	132.61
400.499	122.37
400.708	148.99
400.917	99.84
401.127	65.02
401.336	99.84
401.545	200.19
401.754	140.8
401.963	155.13
402.172	144.89
402.381	99.84
402.59	79.36
402.799	75.26
403.008	155.13
403.217	132.61
403.426	153.09
403.635	116.22
403.844	75.26
404.053	177.66
404.262	134.65
404.471	185.85
404.68	189.95
404.888	132.61
405.097	153.09
405.306	132.61
405.515	169.47
405.724	101.89
405.933	142.85
406.142	136.7
406.35	185.85
406.559	99.84
406.768	69.12
406.977	175.61
407.185	148.99
407.394	224.76
407.603	138.75
407.812	192
408.02	173.57
408.229	159.23
408.438	226.81
408.646	163.33
408.855	280.06
409.064	235
409.272	214.52
409.481	278.01
409.69	237.05
409.898	206.33
410.107	296.44
410.315	271.87
410.524	218.62
410.733	331.26
410.941	353.79
411.15	280.06
411.358	273.92
411.567	413.18
411.775	372.22
411.984	349.69
412.192	480.76
412.401	353.79
412.609	374.27
412.818	447.99
413.026	452.09
413.234	450.04
413.443	433.66
413.651	441.85
413.86	480.76
414.068	531.96
414.276	521.72
414.485	544.25
414.693	523.77
414.901	589.3
415.11	595.45
415.318	611.83
415.526	562.68
415.734	642.55
415.943	683.51
416.151	749.04
416.359	701.94
416.567	730.61
416.776	804.34
416.984	853.49
417.192	773.62
417.4	732.66
417.608	822.77
417.817	898.55
418.025	828.92
418.233	1035.76
418.441	853.49
418.649	976.37
418.857	1048.05
419.065	1091.06
419.273	1119.73
419.481	1093.1
419.689	1248.75
419.897	1283.56
420.105	1197.55
420.313	1359.34
420.521	1304.04
420.729	1357.29
420.937	1435.11
421.145	1412.59
421.353	1517.03
421.561	1680.87
421.769	1617.38
421.977	1781.22
422.185	1738.21
422.393	1680.87
422.601	1787.36
422.809	1908.19
423.017	1994.21
423.224	1967.59
423.432	2012.64
423.64	2123.23
423.848	2287.07
424.056	2254.3
424.263	2272.73
424.471	2412
424.679	2569.69
424.887	2524.63
425.094	2647.51
425.302	2643.42
425.51	2756.05
425.718	2805.21
425.925	2864.6
426.133	2960.85
426.341	3204.56
426.548	3220.94
426.756	3237.33
426.964	3188.18
427.171	3487.18
427.379	3648.97
427.586	3534.28
427.794	3749.32
428.001	3882.44
428.209	4146.62
428.417	4031.94
428.624	4410.81
428.832	4330.94
429.039	4206.02
429.247	4214.21
429.454	4732.34
429.662	4851.13
429.869	4552.12
430.076	5039.54
430.284	4683.19
430.491	4974
430.699	5246.38
430.906	5342.64
431.114	5193.14
431.321	5723.56
431.528	5705.13
431.736	6002.08
431.943	6296.99
432.15	6157.73
432.358	6133.15
432.565	6579.61
432.772	6456.73
432.979	6870.42
433.187	6948.25
433.394	7046.55
433.601	7476.62
433.808	7609.74
434.016	7554.44
434.223	7701.9
434.43	8281.47
434.637	8195.46
434.844	8533.37
435.052	8740.22
435.259	8815.99
435.466	8660.35
435.673	8705.4
435.88	9348.47
436.087	9571.69
436.294	9622.89
436.501	9565.55
436.708	9774.44
436.915	9966.95
437.122	10413.41
437.329	10399.07
437.537	10952.02
437.743	10792.28
437.95	10952.02
438.157	11242.84
438.364	11787.6
438.571	11760.97
438.778	11873.61
438.985	13065.53
439.192	12533.06
439.399	12922.17
439.606	12401.99
439.813	13331.76
440.02	14015.79
440.227	13886.76
440.433	13413.68
440.64	14021.93
440.847	14159.14
441.054	14304.55
441.261	15271.19
441.467	15099.16
441.674	15539.47
441.881	15967.5
442.088	15969.55
442.294	15703.31
442.501	16096.52
442.708	16442.63
442.914	17196.28
443.121	17853.68
443.328	17323.26
443.534	18842.85
443.741	18207.98
443.948	17761.52
444.154	19311.83
444.361	19088.6
444.568	19219.67
444.774	19127.52
444.981	19545.3
445.187	19872.98
445.394	20769.99
445.6	20696.26
445.807	22584.49
446.013	21419.19
446.22	21998.77
446.426	22541.48
446.633	23329.95
446.839	23614.62
447.046	22355.11
447.252	23803.03
447.459	24284.3
447.665	24056.98
447.871	24886.4
448.078	26154.1
448.284	24913.03
448.491	25623.67
448.697	26741.86
448.903	27092.07
449.11	27286.62
449.316	26342.51
449.522	27108.45
449.728	28085.33
449.935	27972.69
450.141	28122.19
450.347	28757.07
450.553	27933.78
450.76	27927.64
450.966	28822.6
451.172	29328.45
451.378	29617.21
451.584	28818.5
451.791	29662.27
451.997	29512.77
452.203	30049.33
452.409	30293.04
452.615	30028.85
452.821	28810.31
453.027	28345.42
453.233	30346.29
453.44	28630.09
453.646	29310.02
453.852	29484.09
454.058	29625.4
454.264	29127.75
454.47	29514.81
454.676	28605.52
454.882	29803.58
455.088	27567.2
455.294	27667.55
455.5	28294.22
455.705	28212.31
455.911	26913.89
456.117	26856.55
456.323	26715.24
456.529	24867.97
456.735	25932.92
456.941	25371.77
457.147	25109.63
457.352	24267.92
457.558	23946.39
457.764	24239.25
457.97	23547.03
458.176	23286.94
458.381	23385.24
458.587	21800.12
458.793	22195.37
458.999	20780.23
459.204	22400.17
459.41	21845.17
459.616	20397.26
459.821	20178.12
460.027	20432.07
460.233	19961.04
460.438	18912.48
460.644	19266.78
460.85	18326.76
461.055	17906.93
461.261	18029.8
461.466	16655.62
461.672	16162.06
461.878	17360.12
462.083	16104.71
462.289	15983.88
462.494	15652.11
462.7	15260.95
462.905	14789.92
463.111	15176.98
463.316	15213.85
463.522	14927.13
463.727	14996.76
463.932	14720.29
464.138	14890.27
464.343	14939.42
464.549	14255.4
464.754	14783.77
464.959	14492.96
465.165	14710.05
465.37	13886.76
465.575	13434.16
465.781	13862.19
465.986	14245.16
466.191	13829.42
466.397	13489.46
466.602	12608.83
466.807	13344.05
467.012	13280.57
467.218	13317.43
467.423	13174.07
467.628	12956.99
467.833	13741.36
