Data from USB4F104151__300__14-24-01-631.txt Node

Date: Thu Mar 13 14:24:01 EDT 2025
User: louis
Spectrometer: USB4F10415
Trigger mode: 4
Integration Time (sec): 2.000000E-2
Scans to average: 1
Electric dark correction enabled: true
Nonlinearity correction enabled: false
Boxcar width: 0
XAxis mode: Wavelengths
Number of Pixels in Spectrum: 3648
>>>>>Begin Spectral Data<<<<<
178.204	-100.35
178.424	-100.35
178.644	-100.35
178.864	-75.77
179.084	-16.38
179.304	6.14
179.524	12.29
179.744	-20.48
179.964	-24.58
180.184	-40.96
180.404	73.73
180.624	-20.48
180.844	38.91
181.064	-38.91
181.283	28.67
181.503	-28.67
181.723	14.34
181.943	-61.44
182.163	40.96
182.383	4.1
182.602	0
182.822	69.63
183.042	49.15
183.262	69.63
183.482	30.72
183.701	55.3
183.921	12.29
184.141	-40.96
184.361	110.59
184.58	-10.24
184.8	75.77
185.02	-4.1
185.239	55.3
185.459	-8.19
185.679	30.72
185.898	-38.91
186.118	77.82
186.338	88.06
186.557	110.59
186.777	38.91
186.997	-4.1
187.216	43.01
187.436	157.69
187.655	61.44
187.875	145.41
188.095	57.34
188.314	67.58
188.534	81.92
188.753	8.19
188.973	57.34
189.192	36.86
189.412	47.1
189.631	88.06
189.851	8.19
190.07	63.49
190.29	88.06
190.509	69.63
190.729	106.49
190.948	20.48
191.168	143.36
191.387	108.54
191.607	22.53
191.826	34.82
192.045	-45.06
192.265	55.3
192.484	16.38
192.704	10.24
192.923	36.86
193.142	151.55
193.362	98.3
193.581	63.49
193.8	4.1
194.02	94.21
194.239	77.82
194.458	28.67
194.678	79.87
194.897	12.29
195.116	112.64
195.335	61.44
195.555	69.63
195.774	77.82
195.993	45.06
196.212	6.14
196.432	16.38
196.651	28.67
196.87	16.38
197.089	36.86
197.308	30.72
197.528	16.38
197.747	-45.06
197.966	73.73
198.185	155.65
198.404	30.72
198.623	36.86
198.842	53.25
199.062	96.25
199.281	110.59
199.5	14.34
199.719	12.29
199.938	77.82
200.157	131.07
200.376	110.59
200.595	55.3
200.814	45.06
201.033	120.83
201.252	61.44
201.471	38.91
201.69	55.3
201.909	16.38
202.128	6.14
202.347	63.49
202.566	22.53
202.785	2.05
203.004	75.77
203.223	14.34
203.442	32.77
203.661	12.29
203.879	108.54
204.098	135.17
204.317	-45.06
204.536	102.4
204.755	10.24
204.974	79.87
205.193	75.77
205.411	45.06
205.63	32.77
205.849	18.43
206.068	36.86
206.287	20.48
206.505	28.67
206.724	32.77
206.943	20.48
207.162	-10.24
207.381	-20.48
207.599	88.06
207.818	12.29
208.037	55.3
208.255	38.91
208.474	83.97
208.693	30.72
208.911	120.83
209.13	90.11
209.349	57.34
209.567	86.01
209.786	110.59
210.005	53.25
210.223	32.77
210.442	32.77
210.661	104.45
210.879	4.1
211.098	32.77
211.316	67.58
211.535	-8.19
211.753	6.14
211.972	67.58
212.191	45.06
212.409	20.48
212.628	36.86
212.846	12.29
213.065	92.16
213.283	4.1
213.502	86.01
213.72	88.06
213.938	124.93
214.157	75.77
214.375	98.3
214.594	55.3
214.812	79.87
215.031	6.14
215.249	-2.05
215.467	90.11
215.686	-10.24
215.904	4.1
216.122	12.29
216.341	69.63
216.559	26.62
216.778	102.4
216.996	110.59
217.214	104.45
217.432	-8.19
217.651	36.86
217.869	47.1
218.087	0
218.306	53.25
218.524	36.86
218.742	63.49
218.96	108.54
219.179	69.63
219.397	57.34
219.615	102.4
219.833	51.2
220.051	57.34
220.27	77.82
220.488	61.44
220.706	63.49
220.924	53.25
221.142	53.25
221.36	49.15
221.578	43.01
221.796	69.63
222.015	143.36
222.233	-8.19
222.451	120.83
222.669	26.62
222.887	88.06
223.105	16.38
223.323	38.91
223.541	12.29
223.759	120.83
223.977	40.96
224.195	86.01
224.413	61.44
224.631	86.01
224.849	53.25
225.067	110.59
225.285	20.48
225.503	24.58
225.721	53.25
225.939	71.68
226.157	49.15
226.375	110.59
226.592	30.72
226.81	16.38
227.028	79.87
227.246	86.01
227.464	28.67
227.682	81.92
227.9	18.43
228.117	73.73
228.335	63.49
228.553	51.2
228.771	86.01
228.989	10.24
229.206	12.29
229.424	24.58
229.642	10.24
229.86	47.1
230.077	36.86
230.295	67.58
230.513	26.62
230.731	67.58
230.948	38.91
231.166	51.2
231.384	4.1
231.601	67.58
231.819	118.78
232.037	47.1
232.254	12.29
232.472	28.67
232.689	-20.48
232.907	120.83
233.125	18.43
233.342	65.54
233.56	14.34
233.777	-20.48
233.995	-10.24
234.213	61.44
234.43	65.54
234.648	55.3
234.865	79.87
235.083	26.62
235.3	-16.38
235.518	114.69
235.735	55.3
235.953	24.58
236.17	79.87
236.388	75.77
236.605	-12.29
236.822	98.3
237.04	61.44
237.257	69.63
237.475	-49.15
237.692	79.87
237.909	49.15
238.127	22.53
238.344	2.05
238.562	135.17
238.779	-32.77
238.996	20.48
239.214	18.43
239.431	79.87
239.648	30.72
239.865	38.91
240.083	47.1
240.3	69.63
240.517	4.1
240.735	55.3
240.952	55.3
241.169	120.83
241.386	32.77
241.603	61.44
241.821	49.15
242.038	49.15
242.255	26.62
242.472	20.48
242.689	90.11
242.907	63.49
243.124	104.45
243.341	-28.67
243.558	-4.1
243.775	43.01
243.992	8.19
244.209	47.1
244.426	65.54
244.643	12.29
244.86	65.54
245.078	71.68
245.295	-18.43
245.512	73.73
245.729	-28.67
245.946	75.77
246.163	86.01
246.38	86.01
246.597	63.49
246.814	45.06
247.031	45.06
247.248	45.06
247.464	-10.24
247.681	71.68
247.898	73.73
248.115	34.82
248.332	38.91
248.549	81.92
248.766	98.3
248.983	104.45
249.2	-45.06
249.417	69.63
249.633	32.77
249.85	40.96
250.067	24.58
250.284	63.49
250.501	14.34
250.717	100.35
250.934	16.38
251.151	71.68
251.368	-38.91
251.585	75.77
251.801	73.73
252.018	59.39
252.235	8.19
252.451	30.72
252.668	-4.1
252.885	86.01
253.102	4.1
253.318	153.6
253.535	-4.1
253.752	36.86
253.968	88.06
254.185	-12.29
254.401	-2.05
254.618	59.39
254.835	90.11
255.051	49.15
255.268	8.19
255.484	49.15
255.701	90.11
255.917	102.4
256.134	38.91
256.351	77.82
256.567	61.44
256.784	12.29
257	32.77
257.217	16.38
257.433	53.25
257.65	61.44
257.866	77.82
258.082	53.25
258.299	47.1
258.515	81.92
258.732	-4.1
258.948	53.25
259.165	57.34
259.381	8.19
259.597	-24.58
259.814	-20.48
260.03	51.2
260.246	73.73
260.463	18.43
260.679	65.54
260.895	-8.19
261.112	-10.24
261.328	-32.77
261.544	75.77
261.761	129.02
261.977	36.86
262.193	88.06
262.409	53.25
262.626	77.82
262.842	30.72
263.058	18.43
263.274	79.87
263.49	-18.43
263.707	86.01
263.923	83.97
264.139	-10.24
264.355	102.4
264.571	110.59
264.787	12.29
265.004	126.97
265.22	34.82
265.436	-4.1
265.652	36.86
265.868	22.53
266.084	34.82
266.3	45.06
266.516	20.48
266.732	24.58
266.948	79.87
267.164	14.34
267.38	51.2
267.596	49.15
267.812	49.15
268.028	26.62
268.244	-4.1
268.46	28.67
268.676	73.73
268.892	86.01
269.108	47.1
269.324	47.1
269.54	18.43
269.756	106.49
269.972	53.25
270.188	59.39
270.403	-18.43
270.619	114.69
270.835	47.1
271.051	36.86
271.267	-20.48
271.483	57.34
271.698	133.12
271.914	98.3
272.13	71.68
272.346	124.93
272.562	-8.19
272.777	47.1
272.993	12.29
273.209	79.87
273.425	55.3
273.64	-4.1
273.856	53.25
274.072	20.48
274.287	-16.38
274.503	53.25
274.719	49.15
274.934	169.98
275.15	-14.34
275.366	18.43
275.581	83.97
275.797	59.39
276.012	49.15
276.228	77.82
276.444	22.53
276.659	112.64
276.875	69.63
277.09	67.58
277.306	77.82
277.521	86.01
277.737	94.21
277.952	79.87
278.168	71.68
278.383	40.96
278.599	30.72
278.814	116.73
279.03	45.06
279.245	69.63
279.461	26.62
279.676	161.79
279.892	55.3
280.107	24.58
280.322	12.29
280.538	81.92
280.753	71.68
280.969	45.06
281.184	36.86
281.399	126.97
281.615	40.96
281.83	98.3
282.045	55.3
282.26	18.43
282.476	0
282.691	38.91
282.906	55.3
283.122	67.58
283.337	28.67
283.552	18.43
283.767	20.48
283.983	36.86
284.198	18.43
284.413	-4.1
284.628	73.73
284.843	16.38
285.058	92.16
285.274	61.44
285.489	-28.67
285.704	53.25
285.919	38.91
286.134	8.19
286.349	61.44
286.564	32.77
286.779	122.88
286.995	47.1
287.21	14.34
287.425	4.1
287.64	38.91
287.855	69.63
288.07	-24.58
288.285	90.11
288.5	102.4
288.715	59.39
288.93	61.44
289.145	10.24
289.36	36.86
289.575	94.21
289.79	45.06
290.004	47.1
290.219	30.72
290.434	112.64
290.649	38.91
290.864	22.53
291.079	36.86
291.294	49.15
291.509	135.17
291.724	-36.86
291.938	61.44
292.153	45.06
292.368	65.54
292.583	61.44
292.798	55.3
293.012	10.24
293.227	59.39
293.442	45.06
293.657	86.01
293.871	159.74
294.086	20.48
294.301	73.73
294.516	45.06
294.73	34.82
294.945	104.45
295.16	45.06
295.374	14.34
295.589	-20.48
295.804	-2.05
296.018	20.48
296.233	86.01
296.447	40.96
296.662	-8.19
296.877	8.19
297.091	45.06
297.306	36.86
297.52	28.67
297.735	77.82
297.949	86.01
298.164	36.86
298.378	36.86
298.593	45.06
298.807	45.06
299.022	110.59
299.236	12.29
299.451	-16.38
299.665	18.43
299.88	38.91
300.094	98.3
300.309	-32.77
300.523	36.86
300.737	-8.19
300.952	53.25
301.166	129.02
301.381	26.62
301.595	28.67
301.809	-4.1
302.024	-61.44
302.238	69.63
302.452	51.2
302.667	8.19
302.881	96.25
303.095	143.36
303.309	20.48
303.524	45.06
303.738	73.73
303.952	14.34
304.166	65.54
304.381	28.67
304.595	61.44
304.809	28.67
305.023	36.86
305.237	40.96
305.452	69.63
305.666	110.59
305.88	86.01
306.094	51.2
306.308	94.21
306.522	83.97
306.736	112.64
306.95	22.53
307.164	69.63
307.379	65.54
307.593	88.06
307.807	81.92
308.021	20.48
308.235	-8.19
308.449	-30.72
308.663	81.92
308.877	112.64
309.091	129.02
309.305	77.82
309.519	36.86
309.733	32.77
309.947	77.82
310.161	81.92
310.374	61.44
310.588	38.91
310.802	4.1
311.016	24.58
311.23	6.14
311.444	43.01
311.658	75.77
311.872	131.07
312.085	36.86
312.299	90.11
312.513	96.25
312.727	53.25
312.941	-28.67
313.154	137.21
313.368	28.67
313.582	8.19
313.796	2.05
314.009	71.68
314.223	102.4
314.437	96.25
314.651	28.67
314.864	77.82
315.078	36.86
315.292	65.54
315.505	-16.38
315.719	30.72
315.933	2.05
316.146	61.44
316.36	75.77
316.573	143.36
316.787	96.25
317.001	143.36
317.214	45.06
317.428	69.63
317.641	104.45
317.855	110.59
318.068	61.44
318.282	28.67
318.495	94.21
318.709	129.02
318.922	83.97
319.136	71.68
319.349	98.3
319.563	135.17
319.776	49.15
319.99	24.58
320.203	22.53
320.417	88.06
320.63	81.92
320.843	104.45
321.057	110.59
321.27	53.25
321.483	14.34
321.697	18.43
321.91	38.91
322.124	63.49
322.337	67.58
322.55	-51.2
322.763	49.15
322.977	100.35
323.19	45.06
323.403	10.24
323.617	61.44
323.83	86.01
324.043	-2.05
324.256	61.44
324.469	12.29
324.683	94.21
324.896	32.77
325.109	59.39
325.322	6.14
325.535	53.25
325.748	67.58
325.962	38.91
326.175	-36.86
326.388	24.58
326.601	63.49
326.814	-36.86
327.027	-40.96
327.24	12.29
327.453	-43.01
327.666	-2.05
327.879	77.82
328.092	65.54
328.305	32.77
328.518	12.29
328.731	47.1
328.944	75.77
329.157	40.96
329.37	81.92
329.583	69.63
329.796	34.82
330.009	4.1
330.222	53.25
330.435	36.86
330.648	137.21
330.861	79.87
331.073	28.67
331.286	98.3
331.499	30.72
331.712	-20.48
331.925	18.43
332.138	18.43
332.35	129.02
332.563	26.62
332.776	90.11
332.989	12.29
333.202	47.1
333.414	-4.1
333.627	28.67
333.84	-12.29
334.053	110.59
334.265	6.14
334.478	10.24
334.691	-26.62
334.903	86.01
335.116	38.91
335.329	4.1
335.541	114.69
335.754	96.25
335.966	20.48
336.179	24.58
336.392	20.48
336.604	81.92
336.817	-26.62
337.029	45.06
337.242	36.86
337.454	92.16
337.667	16.38
337.88	63.49
338.092	40.96
338.305	16.38
338.517	40.96
338.729	77.82
338.942	141.31
339.154	36.86
339.367	10.24
339.579	73.73
339.792	-28.67
340.004	20.48
340.217	8.19
340.429	110.59
340.641	36.86
340.854	98.3
341.066	65.54
341.278	86.01
341.491	28.67
341.703	38.91
341.915	4.1
342.128	129.02
342.34	-4.1
342.552	61.44
342.764	122.88
342.977	45.06
343.189	96.25
343.401	116.73
343.613	38.91
343.826	77.82
344.038	-10.24
344.25	-12.29
344.462	77.82
344.674	30.72
344.886	102.4
345.099	86.01
345.311	36.86
345.523	71.68
345.735	49.15
345.947	-4.1
346.159	18.43
346.371	57.34
346.583	53.25
346.795	88.06
347.007	-36.86
347.219	75.77
347.431	-8.19
347.643	45.06
347.855	104.45
348.067	108.54
348.279	18.43
348.491	4.1
348.703	20.48
348.915	55.3
349.127	110.59
349.339	24.58
349.551	30.72
349.763	55.3
349.975	47.1
350.187	20.48
350.399	77.82
350.61	30.72
350.822	-2.05
351.034	47.1
351.246	69.63
351.458	30.72
351.669	69.63
351.881	14.34
352.093	51.2
352.305	118.78
352.517	30.72
352.728	55.3
352.94	2.05
353.152	110.59
353.363	71.68
353.575	102.4
353.787	112.64
353.999	86.01
354.21	83.97
354.422	28.67
354.633	57.34
354.845	73.73
355.057	0
355.268	24.58
355.48	61.44
355.692	45.06
355.903	28.67
356.115	86.01
356.326	77.82
356.538	88.06
356.749	26.62
356.961	65.54
357.172	100.35
357.384	79.87
357.595	36.86
357.807	38.91
358.018	118.78
358.23	83.97
358.441	137.21
358.653	43.01
358.864	67.58
359.075	86.01
359.287	98.3
359.498	-20.48
359.709	34.82
359.921	30.72
360.132	106.49
360.344	47.1
360.555	124.93
360.766	102.4
360.977	65.54
361.189	59.39
361.4	20.48
361.611	69.63
361.823	174.08
362.034	112.64
362.245	14.34
362.456	131.07
362.667	28.67
362.879	69.63
363.09	36.86
363.301	36.86
363.512	36.86
363.723	53.25
363.935	94.21
364.146	102.4
364.357	86.01
364.568	77.82
364.779	65.54
364.99	53.25
365.201	20.48
365.412	36.86
365.623	32.77
365.834	22.53
366.045	61.44
366.256	67.58
366.467	135.17
366.678	67.58
366.889	24.58
367.1	57.34
367.311	155.65
367.522	53.25
367.733	0
367.944	77.82
368.155	69.63
368.366	65.54
368.577	71.68
368.788	57.34
368.999	32.77
369.209	4.1
369.42	92.16
369.631	83.97
369.842	53.25
370.053	63.49
370.264	-12.29
370.474	32.77
370.685	45.06
370.896	77.82
371.107	20.48
371.317	6.14
371.528	51.2
371.739	110.59
371.95	65.54
372.16	28.67
372.371	65.54
372.582	-16.38
372.792	45.06
373.003	102.4
373.214	32.77
373.424	86.01
373.635	32.77
373.846	53.25
374.056	104.45
374.267	57.34
374.477	40.96
374.688	96.25
374.898	77.82
375.109	22.53
375.319	34.82
375.53	69.63
375.74	69.63
375.951	38.91
376.161	61.44
376.372	94.21
376.582	90.11
376.793	94.21
377.003	67.58
377.214	77.82
377.424	12.29
377.635	12.29
377.845	32.77
378.055	124.93
378.266	16.38
378.476	102.4
378.686	-20.48
378.897	53.25
379.107	20.48
379.317	34.82
379.528	65.54
379.738	94.21
379.948	63.49
380.158	94.21
380.369	22.53
380.579	122.88
380.789	102.4
380.999	143.36
381.21	98.3
381.42	61.44
381.63	45.06
381.84	16.38
382.05	69.63
382.261	90.11
382.471	112.64
382.681	67.58
382.891	102.4
383.101	71.68
383.311	4.1
383.521	20.48
383.731	92.16
383.941	65.54
384.151	12.29
384.361	8.19
384.571	61.44
384.781	69.63
384.991	86.01
385.201	67.58
385.411	110.59
385.621	114.69
385.831	0
386.041	53.25
386.251	57.34
386.461	53.25
386.671	114.69
386.881	71.68
387.091	36.86
387.301	57.34
387.511	118.78
387.72	135.17
387.93	59.39
388.14	79.87
388.35	28.67
388.56	98.3
388.769	88.06
388.979	40.96
389.189	36.86
389.399	-10.24
389.609	12.29
389.818	104.45
390.028	57.34
390.238	94.21
390.447	47.1
390.657	90.11
390.867	45.06
391.076	30.72
391.286	40.96
391.496	55.3
391.705	20.48
391.915	92.16
392.125	55.3
392.334	55.3
392.544	69.63
392.753	96.25
392.963	40.96
393.172	100.35
393.382	6.14
393.591	90.11
393.801	94.21
394.01	106.49
394.22	88.06
394.429	71.68
394.639	77.82
394.848	69.63
395.058	71.68
395.267	83.97
395.477	88.06
395.686	77.82
395.895	133.12
396.105	135.17
396.314	98.3
396.524	30.72
396.733	102.4
396.942	120.83
397.152	96.25
397.361	172.03
397.57	139.26
397.78	65.54
397.989	98.3
398.198	106.49
398.407	180.22
398.617	114.69
398.826	110.59
399.035	137.21
399.244	110.59
399.453	159.74
399.663	94.21
399.872	131.07
400.081	67.58
400.29	169.98
400.499	36.86
400.708	118.78
400.917	106.49
401.127	86.01
401.336	98.3
401.545	104.45
401.754	88.06
401.963	96.25
402.172	100.35
402.381	57.34
402.59	131.07
402.799	69.63
403.008	94.21
403.217	88.06
403.426	129.02
403.635	75.77
403.844	90.11
404.053	102.4
404.262	77.82
404.471	143.36
404.68	143.36
404.888	96.25
405.097	129.02
405.306	149.5
405.515	204.8
405.724	120.83
405.933	118.78
406.142	151.55
406.35	120.83
406.559	200.7
406.768	137.21
406.977	219.13
407.185	176.13
407.394	194.56
407.603	151.55
407.812	184.32
408.02	225.28
408.229	186.37
408.438	262.14
408.646	225.28
408.855	235.52
409.064	274.43
409.272	229.37
409.481	196.61
409.69	219.13
409.898	202.75
410.107	249.85
410.315	327.68
410.524	251.9
410.733	307.2
410.941	321.53
411.15	397.31
411.358	331.77
411.567	333.82
411.775	243.71
411.984	313.34
412.192	409.59
412.401	405.5
412.609	317.44
412.818	440.31
413.026	364.54
413.234	456.7
413.443	380.92
413.651	462.84
413.86	479.22
414.068	507.9
414.276	518.14
414.485	450.55
414.693	573.43
414.901	514.04
415.11	593.91
415.318	587.77
415.526	552.95
415.734	612.34
415.943	616.44
416.151	628.73
416.359	653.3
416.567	612.34
416.776	716.79
416.984	735.22
417.192	778.23
417.4	727.03
417.608	774.13
417.817	858.1
418.025	831.48
418.233	870.39
418.441	864.24
418.649	929.78
418.857	1013.74
419.065	993.26
419.273	950.26
419.481	1105.9
419.689	1093.62
419.897	1167.34
420.105	1226.73
420.313	1202.16
420.521	1191.92
420.729	1300.46
420.937	1218.54
421.145	1306.6
421.353	1251.31
421.561	1529.83
421.769	1492.97
421.977	1546.22
422.185	1601.51
422.393	1585.13
422.601	1742.82
422.809	1699.81
423.017	1716.2
423.224	1767.4
423.432	1884.13
423.64	1849.32
423.848	1978.34
424.056	1939.43
424.263	2205.66
424.471	2138.08
424.679	2228.19
424.887	2289.63
425.094	2338.78
425.302	2324.44
425.51	2394.08
425.718	2449.37
425.925	2498.52
426.133	2676.7
426.341	2785.24
426.548	2791.38
426.756	2961.36
426.964	2899.92
427.171	3051.47
427.379	3176.4
427.586	3139.54
427.794	3321.81
428.001	3473.36
428.209	3567.56
428.417	3567.56
428.624	3729.35
428.832	3815.37
429.039	3801.03
429.247	3751.88
429.454	4140.99
429.662	4292.54
429.869	4065.22
430.076	4313.02
430.284	4249.54
430.491	4513.72
430.699	4743.1
430.906	4812.73
431.114	4722.62
431.321	4984.76
431.528	5164.98
431.736	5353.39
431.943	5437.36
432.15	5502.89
432.358	5398.45
432.565	5840.81
432.772	5791.66
432.979	6150.05
433.187	6039.46
433.394	6270.88
433.601	6807.45
433.808	6750.11
434.016	6565.79
434.223	6905.75
434.43	7305.1
434.637	7303.06
434.844	7667.6
435.052	7876.49
435.259	7712.65
435.466	7776.14
435.673	7821.19
435.88	8198.02
436.087	8564.61
436.294	8421.25
436.501	8363.9
436.708	8576.89
436.915	8884.09
437.122	9271.15
437.329	9119.6
437.537	9531.25
437.743	9748.33
437.95	9607.02
438.157	10186.6
438.364	10301.28
438.571	10606.43
438.778	10274.66
438.985	11349.84
439.192	11089.75
439.399	11163.48
439.606	10999.64
439.813	11620.17
440.02	12554.05
440.227	12109.64
440.433	12132.17
440.64	12339.01
440.847	12291.91
441.054	12687.17
441.261	13602.61
441.467	13369.14
441.674	13702.96
441.881	13948.72
442.088	14130.98
442.294	13791.02
442.501	14251.81
442.708	14350.12
442.914	14970.65
443.121	15939.34
443.328	15068.95
443.534	16639.75
443.741	16000.78
443.948	15572.75
444.154	16822.02
444.361	16498.44
444.568	17047.29
444.774	16670.47
444.981	16848.64
445.187	17485.56
445.394	18317.03
445.6	17895.15
445.807	19685.08
446.013	18929.38
446.22	19107.55
446.426	19701.46
446.633	20285.13
446.839	20850.37
447.046	19965.65
447.252	20639.43
447.459	20846.27
447.665	20821.7
447.871	21911.22
448.078	22875.81
448.284	21563.06
448.491	22283.95
448.697	23234.21
448.903	23580.31
449.11	23651.99
449.316	23103.14
449.522	23807.64
449.728	24428.17
449.935	24450.7
450.141	24487.56
450.347	25165.44
450.553	24147.6
450.76	24614.54
450.966	25661.05
451.172	25253.5
451.378	25587.32
451.584	25063.04
451.791	25845.37
451.997	25740.92
452.203	26218.1
452.409	26205.81
452.615	26484.33
452.821	25300.61
453.027	24751.75
453.233	26218.1
453.44	25366.14
453.646	25413.24
453.852	25824.89
454.058	25794.17
454.264	25294.46
454.47	25591.42
454.676	24833.67
454.882	26156.66
455.088	23817.88
455.294	24434.32
455.5	24530.57
455.705	24796.81
455.911	23545.5
456.117	23506.59
456.323	22974.11
456.529	21567.16
456.735	22601.38
456.941	22339.24
457.147	21679.8
457.352	21290.68
457.558	20807.36
457.764	20885.19
457.97	20772.55
458.176	20168.4
458.381	20207.31
458.587	19076.83
458.793	18910.94
458.999	18179.82
459.204	19668.69
459.41	18956
459.616	17884.91
459.821	17872.62
460.027	17827.57
460.233	17506.04
460.438	16641.79
460.644	16705.28
460.85	15820.56
461.055	15795.98
461.261	15789.84
461.466	14585.63
461.672	14159.66
461.878	15187.74
462.083	14481.19
462.289	13817.65
462.494	13545.27
462.7	13078.33
462.905	12787.52
463.111	13309.75
463.316	13244.21
463.522	12842.81
463.727	12881.72
463.932	12959.55
464.138	12810.04
464.343	12769.09
464.549	12554.05
464.754	12957.5
464.959	12752.7
465.165	12525.38
465.37	12322.63
465.575	11661.13
465.781	12347.2
465.986	12517.18
466.191	12046.15
466.397	11622.22
466.602	10995.54
466.807	11726.67
467.012	11425.62
467.218	11419.47
467.423	11206.48
467.628	11595.6
467.833	11724.62
468.038	11485.01
