Data from USB4F104151__203__14-20-38-363.txt Node

Date: Thu Mar 13 14:20:38 EDT 2025
User: louis
Spectrometer: USB4F10415
Trigger mode: 4
Integration Time (sec): 2.000000E-2
Scans to average: 1
Electric dark correction enabled: true
Nonlinearity correction enabled: false
Boxcar width: 0
XAxis mode: Wavelengths
Number of Pixels in Spectrum: 3648
>>>>>Begin Spectral Data<<<<<
178.204	-195.92
178.424	-195.92
178.644	-195.92
178.864	-79.19
179.084	-171.35
179.304	-62.8
179.524	-3.41
179.744	72.36
179.964	74.41
180.184	-36.18
180.404	43.69
180.624	17.07
180.844	-97.62
181.064	33.45
181.283	55.98
181.503	-40.28
181.723	-56.66
181.943	-66.9
182.163	27.31
182.383	-79.19
182.602	98.99
182.822	84.65
183.042	-15.7
183.262	84.65
183.482	10.92
183.701	62.12
183.921	55.98
184.141	-75.09
184.361	41.64
184.58	-11.61
184.8	66.22
185.02	31.4
185.239	121.51
185.459	41.64
185.679	17.07
185.898	23.21
186.118	98.99
186.338	68.27
186.557	82.6
186.777	-36.18
186.997	-79.19
187.216	-23.89
187.436	39.59
187.655	47.79
187.875	107.18
188.095	17.07
188.314	33.45
188.534	25.26
188.753	70.31
188.973	8.87
189.192	58.03
189.412	25.26
189.631	25.26
189.851	0.68
190.07	51.88
190.29	12.97
190.509	90.79
190.729	-11.61
190.948	58.03
191.168	101.03
191.387	45.74
191.607	33.45
191.826	35.5
192.045	-27.99
192.265	29.35
192.484	2.73
192.704	19.11
192.923	-58.71
193.142	47.79
193.362	21.16
193.581	70.31
193.8	-17.75
194.02	21.16
194.239	-13.65
194.458	0.68
194.678	-19.8
194.897	0.68
195.116	25.26
195.335	8.87
195.555	53.93
195.774	27.31
195.993	10.92
196.212	35.5
196.432	-17.75
196.651	-3.41
196.87	35.5
197.089	51.88
197.308	17.07
197.528	-21.85
197.747	-21.85
197.966	49.83
198.185	19.11
198.404	-19.8
198.623	76.46
198.842	21.16
199.062	25.26
199.281	-62.8
199.5	45.74
199.719	66.22
199.938	58.03
200.157	33.45
200.376	43.69
200.595	-32.08
200.814	33.45
201.033	74.41
201.252	144.04
201.471	-15.7
201.69	92.84
201.909	84.65
202.128	27.31
202.347	25.26
202.566	-3.41
202.785	-23.89
203.004	2.73
203.223	37.55
203.442	25.26
203.661	23.21
203.879	-9.56
204.098	41.64
204.317	33.45
204.536	8.87
204.755	82.6
204.974	25.26
205.193	43.69
205.411	-30.04
205.63	82.6
205.849	27.31
206.068	98.99
206.287	-3.41
206.505	35.5
206.724	33.45
206.943	-27.99
207.162	58.03
207.381	-5.46
207.599	-23.89
207.818	0.68
208.037	-7.51
208.255	19.11
208.474	17.07
208.693	8.87
208.911	29.35
209.13	10.92
209.349	-40.28
209.567	10.92
209.786	68.27
210.005	58.03
210.223	-7.51
210.442	25.26
210.661	70.31
210.879	94.89
211.098	10.92
211.316	-9.56
211.535	105.13
211.753	55.98
211.972	58.03
212.191	-56.66
212.409	92.84
212.628	74.41
212.846	51.88
213.065	17.07
213.283	101.03
213.502	82.6
213.72	64.17
213.938	2.73
214.157	-1.37
214.375	19.11
214.594	68.27
214.812	2.73
215.031	-1.37
215.249	-23.89
215.467	66.22
215.686	8.87
215.904	17.07
216.122	-44.37
216.341	68.27
216.559	-23.89
216.778	35.5
216.996	51.88
217.214	-15.7
217.432	-17.75
217.651	0.68
217.869	27.31
218.087	0.68
218.306	-23.89
218.524	45.74
218.742	0.68
218.96	-5.46
219.179	-21.85
219.397	-73.04
219.615	4.78
219.833	58.03
220.051	31.4
220.27	15.02
220.488	-21.85
220.706	60.07
220.924	-23.89
221.142	-50.52
221.36	17.07
221.578	-5.46
221.796	49.83
222.015	90.79
222.233	82.6
222.451	72.36
222.669	-3.41
222.887	0.68
223.105	-13.65
223.323	-17.75
223.541	12.97
223.759	-21.85
223.977	-19.8
224.195	45.74
224.413	37.55
224.631	35.5
224.849	58.03
225.067	-7.51
225.285	19.11
225.503	29.35
225.721	10.92
225.939	31.4
226.157	43.69
226.375	144.04
226.592	10.92
226.81	-3.41
227.028	-23.89
227.246	6.83
227.464	35.5
227.682	60.07
227.9	8.87
228.117	-11.61
228.335	17.07
228.553	15.02
228.771	15.02
228.989	58.03
229.206	-19.8
229.424	45.74
229.642	41.64
229.86	-11.61
230.077	25.26
230.295	78.51
230.513	70.31
230.731	98.99
230.948	41.64
231.166	72.36
231.384	62.12
231.601	21.16
231.819	33.45
232.037	60.07
232.254	-21.85
232.472	-19.8
232.689	49.83
232.907	72.36
233.125	-27.99
233.342	-9.56
233.56	-7.51
233.777	15.02
233.995	10.92
234.213	121.51
234.43	51.88
234.648	29.35
234.865	-5.46
235.083	66.22
235.3	35.5
235.518	49.83
235.735	15.02
235.953	-5.46
236.17	21.16
236.388	15.02
236.605	8.87
236.822	66.22
237.04	-5.46
237.257	-7.51
237.475	-36.18
237.692	109.22
237.909	10.92
238.127	53.93
238.344	19.11
238.562	-5.46
238.779	19.11
238.996	-21.85
239.214	41.64
239.431	33.45
239.648	-13.65
239.865	68.27
240.083	62.12
240.3	51.88
240.517	-103.76
240.735	60.07
240.952	53.93
241.169	19.11
241.386	17.07
241.603	-7.51
241.821	21.16
242.038	-7.51
242.255	51.88
242.472	-27.99
242.689	37.55
242.907	-32.08
243.124	-23.89
243.341	49.83
243.558	33.45
243.775	35.5
243.992	25.26
244.209	92.84
244.426	90.79
244.643	66.22
244.86	-15.7
245.078	23.21
245.295	45.74
245.512	17.07
245.729	98.99
245.946	29.35
246.163	-23.89
246.38	164.52
246.597	25.26
246.814	-19.8
247.031	45.74
247.248	33.45
247.464	0.68
247.681	2.73
247.898	49.83
248.115	-21.85
248.332	-56.66
248.549	2.73
248.766	21.16
248.983	58.03
249.2	10.92
249.417	51.88
249.633	-30.04
249.85	4.78
250.067	0.68
250.284	8.87
250.501	80.55
250.717	53.93
250.934	-118.1
251.151	39.59
251.368	37.55
251.585	25.26
251.801	-9.56
252.018	35.5
252.235	17.07
252.451	0.68
252.668	-77.14
252.885	58.03
253.102	-13.65
253.318	66.22
253.535	-30.04
253.752	33.45
253.968	33.45
254.185	58.03
254.401	10.92
254.618	21.16
254.835	-11.61
255.051	35.5
255.268	82.6
255.484	-3.41
255.701	31.4
255.917	37.55
256.134	-56.66
256.351	8.87
256.567	0.68
256.784	74.41
257	-30.04
257.217	33.45
257.433	35.5
257.65	51.88
257.866	58.03
258.082	-5.46
258.299	39.59
258.515	70.31
258.732	49.83
258.948	37.55
259.165	58.03
259.381	51.88
259.597	-3.41
259.814	35.5
260.03	-32.08
260.246	27.31
260.463	25.26
260.679	94.89
260.895	10.92
261.112	51.88
261.328	-5.46
261.544	10.92
261.761	72.36
261.977	0.68
262.193	-19.8
262.409	27.31
262.626	-3.41
262.842	82.6
263.058	2.73
263.274	78.51
263.49	2.73
263.707	-5.46
263.923	70.31
264.139	-13.65
264.355	-42.32
264.571	68.27
264.787	33.45
265.004	55.98
265.22	10.92
265.436	43.69
265.652	21.16
265.868	68.27
266.084	-15.7
266.3	-3.41
266.516	21.16
266.732	90.79
266.948	33.45
267.164	-13.65
267.38	-36.18
267.596	29.35
267.812	70.31
268.028	21.16
268.244	-5.46
268.46	2.73
268.676	25.26
268.892	0.68
269.108	-42.32
269.324	8.87
269.54	-42.32
269.756	70.31
269.972	29.35
270.188	29.35
270.403	29.35
270.619	-56.66
270.835	35.5
271.051	64.17
271.267	43.69
271.483	37.55
271.698	41.64
271.914	12.97
272.13	10.92
272.346	10.92
272.562	15.02
272.777	80.55
272.993	17.07
273.209	27.31
273.425	23.21
273.64	27.31
273.856	66.22
274.072	37.55
274.287	12.97
274.503	12.97
274.719	41.64
274.934	-11.61
275.15	-7.51
275.366	62.12
275.581	33.45
275.797	0.68
276.012	-19.8
276.228	4.78
276.444	-21.85
276.659	43.69
276.875	-3.41
277.09	33.45
277.306	-103.76
277.521	60.07
277.737	-5.46
277.952	25.26
278.168	17.07
278.383	117.42
278.599	-3.41
278.814	8.87
279.03	19.11
279.245	58.03
279.461	17.07
279.676	49.83
279.892	29.35
280.107	0.68
280.322	43.69
280.538	49.83
280.753	-66.9
280.969	15.02
281.184	-9.56
281.399	23.21
281.615	62.12
281.83	43.69
282.045	25.26
282.26	84.65
282.476	-17.75
282.691	68.27
282.906	27.31
283.122	70.31
283.337	10.92
283.552	35.5
283.767	43.69
283.983	58.03
284.198	49.83
284.413	35.5
284.628	-30.04
284.843	10.92
285.058	-1.37
285.274	51.88
285.489	19.11
285.704	58.03
285.919	47.79
286.134	8.87
286.349	-32.08
286.564	21.16
286.779	86.7
286.995	25.26
287.21	10.92
287.425	-13.65
287.64	43.69
287.855	49.83
288.07	-64.85
288.285	29.35
288.5	37.55
288.715	23.21
288.93	47.79
289.145	35.5
289.36	45.74
289.575	-81.24
289.79	51.88
290.004	-21.85
290.219	31.4
290.434	66.22
290.649	-5.46
290.864	-32.08
291.079	-5.46
291.294	49.83
291.509	72.36
291.724	25.26
291.938	33.45
292.153	25.26
292.368	-54.61
292.583	82.6
292.798	-15.7
293.012	25.26
293.227	-19.8
293.442	82.6
293.657	49.83
293.871	49.83
294.086	90.79
294.301	98.99
294.516	10.92
294.73	-3.41
294.945	29.35
295.16	25.26
295.374	101.03
295.589	41.64
295.804	53.93
296.018	0.68
296.233	-3.41
296.447	43.69
296.662	29.35
296.877	21.16
297.091	101.03
297.306	0.68
297.52	-9.56
297.735	8.87
297.949	-17.75
298.164	41.64
298.378	-11.61
298.593	12.97
298.807	-32.08
299.022	33.45
299.236	-5.46
299.451	49.83
299.665	27.31
299.88	27.31
300.094	17.07
300.309	49.83
300.523	-3.41
300.737	49.83
300.952	27.31
301.166	92.84
301.381	-23.89
301.595	-11.61
301.809	33.45
302.024	6.83
302.238	-7.51
302.452	156.33
302.667	119.46
302.881	131.75
303.095	51.88
303.309	4.78
303.524	-9.56
303.738	17.07
303.952	12.97
304.166	41.64
304.381	-75.09
304.595	86.7
304.809	21.16
305.023	51.88
305.237	-95.57
305.452	-44.37
305.666	0.68
305.88	90.79
306.094	25.26
306.308	-15.7
306.522	33.45
306.736	12.97
306.95	-38.23
307.164	15.02
307.379	58.03
307.593	12.97
307.807	23.21
308.021	6.83
308.235	137.9
308.449	-50.52
308.663	47.79
308.877	162.47
309.091	21.16
309.305	27.31
309.519	-122.2
309.733	109.22
309.947	21.16
310.161	58.03
310.374	19.11
310.588	70.31
310.802	-11.61
311.016	-5.46
311.23	103.08
311.444	12.97
311.658	33.45
311.872	94.89
312.085	51.88
312.299	107.18
312.513	90.79
312.727	41.64
312.941	8.87
313.154	66.22
313.368	33.45
313.582	29.35
313.796	17.07
314.009	39.59
314.223	21.16
314.437	45.74
314.651	90.79
314.864	21.16
315.078	80.55
315.292	-15.7
315.505	25.26
315.719	47.79
315.933	21.16
316.146	62.12
316.36	66.22
316.573	66.22
316.787	66.22
317.001	8.87
317.214	-5.46
317.428	2.73
317.641	23.21
317.855	92.84
318.068	86.7
318.282	10.92
318.495	4.78
318.709	55.98
318.922	17.07
319.136	58.03
319.349	55.98
319.563	8.87
319.776	-19.8
319.99	4.78
320.203	2.73
320.417	-30.04
320.63	-40.28
320.843	76.46
321.057	43.69
321.27	-17.75
321.483	49.83
321.697	66.22
321.91	25.26
322.124	45.74
322.337	31.4
322.55	8.87
322.763	66.22
322.977	17.07
323.19	12.97
323.403	2.73
323.617	64.17
323.83	96.94
324.043	53.93
324.256	15.02
324.469	-15.7
324.683	94.89
324.896	33.45
325.109	17.07
325.322	-3.41
325.535	41.64
325.748	72.36
325.962	45.74
326.175	139.94
326.388	60.07
326.601	72.36
326.814	19.11
327.027	27.31
327.24	68.27
327.453	-50.52
327.666	47.79
327.879	49.83
328.092	62.12
328.305	76.46
328.518	45.74
328.731	-54.61
328.944	96.94
329.157	90.79
329.37	37.55
329.583	-13.65
329.796	92.84
330.009	-9.56
330.222	-19.8
330.435	51.88
330.648	94.89
330.861	41.64
331.073	-48.47
331.286	90.79
331.499	84.65
331.712	2.73
331.925	131.75
332.138	-27.99
332.35	35.5
332.563	15.02
332.776	82.6
332.989	2.73
333.202	76.46
333.414	-9.56
333.627	17.07
333.84	135.85
334.053	53.93
334.265	17.07
334.478	29.35
334.691	-7.51
334.903	0.68
335.116	-40.28
335.329	37.55
335.541	62.12
335.754	39.59
335.966	15.02
336.179	10.92
336.392	25.26
336.604	-60.76
336.817	68.27
337.029	49.83
337.242	78.51
337.454	53.93
337.667	37.55
337.88	66.22
338.092	10.92
338.305	131.75
338.517	-15.7
338.729	45.74
338.942	-48.47
339.154	35.5
339.367	-1.37
339.579	88.75
339.792	12.97
340.004	109.22
340.217	107.18
340.429	62.12
340.641	-21.85
340.854	-13.65
341.066	-23.89
341.278	127.66
341.491	47.79
341.703	35.5
341.915	15.02
342.128	92.84
342.34	55.98
342.552	45.74
342.764	58.03
342.977	98.99
343.189	23.21
343.401	66.22
343.613	-9.56
343.826	86.7
344.038	37.55
344.25	62.12
344.462	58.03
344.674	94.89
344.886	8.87
345.099	-11.61
345.311	25.26
345.523	92.84
345.735	-46.42
345.947	39.59
346.159	-21.85
346.371	-30.04
346.583	-56.66
346.795	86.7
347.007	-7.51
347.219	-9.56
347.431	94.89
347.643	105.13
347.855	23.21
348.067	31.4
348.279	-21.85
348.491	-27.99
348.703	58.03
348.915	43.69
349.127	35.5
349.339	33.45
349.551	31.4
349.763	74.41
349.975	17.07
350.187	103.08
350.399	82.6
350.61	33.45
350.822	74.41
351.034	43.69
351.246	70.31
351.458	66.22
351.669	47.79
351.881	144.04
352.093	29.35
352.305	76.46
352.517	82.6
352.728	29.35
352.94	0.68
353.152	17.07
353.363	29.35
353.575	-32.08
353.787	58.03
353.999	74.41
354.21	119.46
354.422	-25.94
354.633	4.78
354.845	23.21
355.057	37.55
355.268	41.64
355.48	123.56
355.692	10.92
355.903	82.6
356.115	37.55
356.326	-21.85
356.538	2.73
356.749	45.74
356.961	94.89
357.172	25.26
357.384	-30.04
357.595	115.37
357.807	49.83
358.018	33.45
358.23	84.65
358.441	17.07
358.653	62.12
358.864	76.46
359.075	8.87
359.287	49.83
359.498	78.51
359.709	8.87
359.921	27.31
360.132	74.41
360.344	-5.46
360.555	-23.89
360.766	39.59
360.977	-23.89
361.189	113.32
361.4	12.97
361.611	58.03
361.823	115.37
362.034	90.79
362.245	31.4
362.456	76.46
362.667	33.45
362.879	27.31
363.09	2.73
363.301	82.6
363.512	125.61
363.723	25.26
363.935	60.07
364.146	64.17
364.357	33.45
364.568	25.26
364.779	31.4
364.99	55.98
365.201	19.11
365.412	94.89
365.623	2.73
365.834	98.99
366.045	41.64
366.256	29.35
366.467	109.22
366.678	-50.52
366.889	35.5
367.1	23.21
367.311	25.26
367.522	101.03
367.733	107.18
367.944	101.03
368.155	60.07
368.366	66.22
368.577	94.89
368.788	55.98
368.999	47.79
369.209	21.16
369.42	49.83
369.631	60.07
369.842	144.04
370.053	74.41
370.264	37.55
370.474	0.68
370.685	17.07
370.896	49.83
371.107	86.7
371.317	103.08
371.528	21.16
371.739	53.93
371.95	78.51
372.16	-1.37
372.371	-3.41
372.582	33.45
372.792	90.79
373.003	25.26
373.214	111.27
373.424	49.83
373.635	31.4
373.846	74.41
374.056	-23.89
374.267	12.97
374.477	33.45
374.688	-7.51
374.898	37.55
375.109	41.64
375.319	2.73
375.53	72.36
375.74	58.03
375.951	58.03
376.161	41.64
376.372	141.99
376.582	25.26
376.793	49.83
377.003	27.31
377.214	74.41
377.424	131.75
377.635	10.92
377.845	-7.51
378.055	115.37
378.266	51.88
378.476	27.31
378.686	90.79
378.897	58.03
379.107	58.03
379.317	-30.04
379.528	66.22
379.738	19.11
379.948	8.87
380.158	76.46
380.369	25.26
380.579	35.5
380.789	98.99
380.999	41.64
381.21	133.8
381.42	148.14
381.63	103.08
381.84	109.22
382.05	60.07
382.261	62.12
382.471	125.61
382.681	51.88
382.891	31.4
383.101	74.41
383.311	53.93
383.521	66.22
383.731	35.5
383.941	27.31
384.151	41.64
384.361	111.27
384.571	62.12
384.781	62.12
384.991	80.55
385.201	101.03
385.411	43.69
385.621	74.41
385.831	8.87
386.041	60.07
386.251	-44.37
386.461	74.41
386.671	115.37
386.881	62.12
387.091	29.35
387.301	55.98
387.511	103.08
387.72	19.11
387.93	125.61
388.14	58.03
388.35	107.18
388.56	53.93
388.769	107.18
388.979	33.45
389.189	82.6
389.399	84.65
389.609	90.79
389.818	119.46
390.028	92.84
390.238	64.17
390.447	66.22
390.657	148.14
390.867	117.42
391.076	115.37
391.286	78.51
391.496	41.64
391.705	8.87
391.915	23.21
392.125	115.37
392.334	111.27
392.544	94.89
392.753	66.22
392.963	-19.8
393.172	98.99
393.382	45.74
393.591	127.66
393.801	53.93
394.01	164.52
394.22	58.03
394.429	72.36
394.639	84.65
394.848	119.46
395.058	152.23
395.267	131.75
395.477	156.33
395.686	72.36
395.895	115.37
396.105	160.42
396.314	166.57
396.524	111.27
396.733	51.88
396.942	127.66
397.152	176.81
397.361	121.51
397.57	101.03
397.78	135.85
397.989	156.33
398.198	148.14
398.407	82.6
398.617	133.8
398.826	115.37
399.035	133.8
399.244	115.37
399.453	107.18
399.663	141.99
399.872	133.8
400.081	139.94
400.29	176.81
400.499	58.03
400.708	164.52
400.917	164.52
401.127	117.42
401.336	180.9
401.545	203.43
401.754	217.77
401.963	96.94
402.172	166.57
402.381	101.03
402.59	76.46
402.799	111.27
403.008	164.52
403.217	115.37
403.426	125.61
403.635	156.33
403.844	96.94
404.053	205.48
404.262	139.94
404.471	262.82
404.68	139.94
404.888	156.33
405.097	203.43
405.306	156.33
405.515	191.14
405.724	205.48
405.933	246.44
406.142	250.53
406.35	156.33
406.559	230.06
406.768	256.68
406.977	254.63
407.185	230.06
407.394	189.1
407.603	244.39
407.812	240.3
408.02	346.79
408.229	322.21
408.438	254.63
408.646	307.88
408.855	322.21
409.064	400.04
409.272	328.36
409.481	395.94
409.69	336.55
409.898	305.83
410.107	348.84
410.315	402.08
410.524	381.6
410.733	500.39
410.941	490.15
411.15	418.47
411.358	455.33
411.567	533.15
411.775	477.86
411.984	543.39
412.192	500.39
412.401	557.73
412.609	627.36
412.818	631.46
413.026	682.66
413.234	719.52
413.443	615.07
413.651	658.08
413.86	748.19
414.068	778.91
414.276	815.77
414.485	713.38
414.693	778.91
414.901	963.23
415.11	842.4
415.318	877.21
415.526	897.69
415.734	926.36
415.943	1045.15
416.151	1024.67
416.359	1073.82
416.567	1131.16
416.776	1202.84
416.984	1260.18
417.192	1266.33
417.4	1297.05
417.608	1266.33
417.817	1342.1
418.025	1532.56
418.233	1450.64
418.441	1514.13
418.649	1559.19
418.857	1610.39
419.065	1727.12
419.273	1755.79
419.481	1845.9
419.689	1780.37
419.897	1958.54
420.105	1903.25
420.313	2011.79
420.521	2103.95
420.729	2065.04
420.937	2286.22
421.145	2359.94
421.353	2454.15
421.561	2491.01
421.769	2433.67
421.977	2744.96
422.185	2628.23
422.393	2771.58
422.601	2957.95
422.809	2927.23
423.017	2957.95
423.224	3078.78
423.432	3328.63
423.64	3265.14
423.848	3566.2
424.056	3363.45
424.263	3752.56
424.471	3607.16
424.679	3727.99
424.887	3998.32
425.094	4199.02
425.302	4178.54
425.51	4217.45
425.718	4325.99
425.925	4563.56
426.133	4672.1
426.341	4809.31
426.548	4967.01
426.756	5032.54
426.964	5186.14
427.171	5278.3
427.379	5642.84
427.586	5605.97
427.794	5681.75
428.001	6003.28
428.209	6318.67
428.417	6324.81
428.624	6609.48
428.832	6609.48
429.039	6584.9
429.247	6658.63
429.454	7295.55
429.662	7828.02
429.869	7160.38
430.076	7883.31
430.284	7756.34
430.491	7938.61
430.699	8432.17
430.906	8387.11
431.114	8391.21
431.321	8639.01
431.528	9126.43
431.736	9407
431.943	9935.38
432.15	9591.32
432.358	9667.1
432.565	10127.89
432.772	10045.97
432.979	10803.72
433.187	10633.74
433.394	10906.12
433.601	11909.62
433.808	11731.45
434.016	11604.47
434.223	12179.95
434.43	12923.37
434.637	12632.55
434.844	13406.69
435.052	13607.39
435.259	13613.53
435.466	13701.59
435.673	13658.59
435.88	14365.14
436.087	15135.17
436.294	15079.88
436.501	14737.87
436.708	15172.04
436.915	15925.69
437.122	16425.39
437.329	16398.77
437.537	16726.44
437.743	17187.24
437.95	16927.14
438.157	17744.28
438.364	18362.77
438.571	18504.08
438.778	18473.36
438.985	20400.5
439.192	19409.28
439.399	19992.95
439.606	19575.17
439.813	20697.45
440.02	21877.08
440.227	21483.87
440.433	21373.28
440.64	21991.77
440.847	21735.77
441.054	22706.51
441.261	23832.89
441.467	23744.83
441.674	24365.37
441.881	25125.16
442.088	24625.46
442.294	24654.13
442.501	25264.43
442.708	25782.56
442.914	26722.58
443.121	27848.96
443.328	27326.73
443.534	29014.26
443.741	28348.67
443.948	27832.58
444.154	29774.05
444.361	29849.83
444.568	29645.03
444.774	29978.85
444.981	30040.29
445.187	31054.03
445.394	32297.15
445.6	31854.79
445.807	34742.42
446.013	33554.6
446.22	34054.31
446.426	35035.28
446.633	35551.37
446.839	36837.5
447.046	35098.77
447.252	37099.64
447.459	37326.96
447.665	37062.77
447.871	38496.35
448.078	39989.32
448.284	38230.12
448.491	39469.14
448.697	41060.41
448.903	41222.2
449.11	41439.28
449.316	40968.25
449.522	41541.68
449.728	43081.75
449.935	43247.64
450.141	42815.52
450.347	44011.53
450.553	42780.7
450.76	43247.64
450.966	44716.03
451.172	44400.65
451.378	45365.24
451.584	44247.05
451.791	45420.53
451.997	45541.36
452.203	45983.72
452.409	46012.4
452.615	46202.86
452.821	44183.56
453.027	44050.44
453.233	45807.6
453.44	44060.68
453.646	44718.08
453.852	44789.76
454.058	45189.11
454.264	44306.44
454.47	44918.78
454.676	43841.55
454.882	45475.83
455.088	41750.57
455.294	42612.77
455.5	43079.71
455.705	43538.45
455.911	41789.49
456.117	40855.61
456.323	40347.71
456.529	38142.05
456.735	39913.55
456.941	38740.06
457.147	38080.61
457.352	37255.28
457.558	37032.05
457.764	36757.63
457.97	35907.72
458.176	35338.38
458.381	35426.45
458.587	33745.06
458.793	33802.41
458.999	31844.55
459.204	34234.53
459.41	32934.07
459.616	31115.47
459.821	30869.72
460.027	31209.68
460.233	30277.85
460.438	29073.65
460.644	29421.8
460.85	27894.02
461.055	27812.1
461.261	27412.74
461.466	25401.64
461.672	24447.29
461.878	26456.34
462.083	24666.42
462.289	24105.27
462.494	23740.74
462.7	23191.88
462.905	22356.31
463.111	23372.1
463.316	23193.93
463.522	22704.46
463.727	22765.9
463.932	22937.93
464.138	22516.05
464.343	22645.07
464.549	22057.31
464.754	22688.08
464.959	22454.61
465.165	22245.72
465.37	21393.76
465.575	20722.03
465.781	21756.25
465.986	21727.58
466.191	21035.37
466.397	20367.73
466.602	19341.7
