Data from USB4F104151__211__14-21-08-073.txt Node

Date: Thu Mar 13 14:21:08 EDT 2025
User: louis
Spectrometer: USB4F10415
Trigger mode: 4
Integration Time (sec): 2.000000E-2
Scans to average: 1
Electric dark correction enabled: true
Nonlinearity correction enabled: false
Boxcar width: 0
XAxis mode: Wavelengths
Number of Pixels in Spectrum: 3648
>>>>>Begin Spectral Data<<<<<
178.204	-66.56
178.424	-66.56
178.644	-66.56
178.864	-87.04
179.084	-134.14
179.304	5.12
179.524	-74.75
179.744	-33.79
179.964	74.75
180.184	29.7
180.404	15.36
180.624	21.5
180.844	-1.02
181.064	7.17
181.283	17.41
181.503	-68.61
181.723	7.17
181.943	-91.13
182.163	84.99
182.383	35.84
182.602	50.18
182.822	23.55
183.042	72.7
183.262	31.74
183.482	54.27
183.701	-13.31
183.921	31.74
184.141	-5.12
184.361	27.65
184.58	-23.55
184.8	50.18
185.02	33.79
185.239	56.32
185.459	48.13
185.679	68.61
185.898	-7.17
186.118	93.18
186.338	70.65
186.557	23.55
186.777	-17.41
186.997	-11.26
187.216	-9.22
187.436	17.41
187.655	138.24
187.875	-11.26
188.095	27.65
188.314	91.13
188.534	-5.12
188.753	23.55
188.973	-11.26
189.192	66.56
189.412	23.55
189.631	5.12
189.851	105.47
190.07	76.8
190.29	-23.55
190.509	-15.36
190.729	39.94
190.948	31.74
191.168	123.9
191.387	17.41
191.607	-15.36
191.826	72.7
192.045	9.22
192.265	72.7
192.484	3.07
192.704	95.23
192.923	27.65
193.142	80.89
193.362	35.84
193.581	80.89
193.8	58.37
194.02	80.89
194.239	31.74
194.458	-46.08
194.678	87.04
194.897	103.42
195.116	-11.26
195.335	33.79
195.555	52.22
195.774	19.46
195.993	33.79
196.212	25.6
196.432	-5.12
196.651	48.13
196.87	19.46
197.089	91.13
197.308	7.17
197.528	132.09
197.747	-13.31
197.966	66.56
198.185	91.13
198.404	9.22
198.623	44.03
198.842	-21.5
199.062	74.75
199.281	113.66
199.5	60.42
199.719	64.51
199.938	58.37
200.157	1.02
200.376	162.81
200.595	58.37
200.814	9.22
201.033	-9.22
201.252	103.42
201.471	-56.32
201.69	93.18
201.909	76.8
202.128	80.89
202.347	35.84
202.566	78.85
202.785	56.32
203.004	-17.41
203.223	56.32
203.442	44.03
203.661	80.89
203.879	68.61
204.098	58.37
204.317	-17.41
204.536	41.98
204.755	35.84
204.974	62.46
205.193	29.7
205.411	130.05
205.63	64.51
205.849	56.32
206.068	39.94
206.287	27.65
206.505	33.79
206.724	41.98
206.943	48.13
207.162	25.6
207.381	15.36
207.599	58.37
207.818	48.13
208.037	72.7
208.255	89.09
208.474	44.03
208.693	56.32
208.911	44.03
209.13	54.27
209.349	27.65
209.567	39.94
209.786	52.22
210.005	23.55
210.223	7.17
210.442	41.98
210.661	72.7
210.879	19.46
211.098	121.85
211.316	7.17
211.535	5.12
211.753	58.37
211.972	80.89
212.191	48.13
212.409	23.55
212.628	68.61
212.846	7.17
213.065	23.55
213.283	25.6
213.502	29.7
213.72	58.37
213.938	91.13
214.157	58.37
214.375	27.65
214.594	25.6
214.812	19.46
215.031	23.55
215.249	-1.02
215.467	105.47
215.686	7.17
215.904	82.94
216.122	48.13
216.341	9.22
216.559	33.79
216.778	44.03
216.996	-31.74
217.214	48.13
217.432	-25.6
217.651	-25.6
217.869	-37.89
218.087	15.36
218.306	-44.03
218.524	62.46
218.742	11.26
218.96	74.75
219.179	23.55
219.397	31.74
219.615	66.56
219.833	56.32
220.051	39.94
220.27	74.75
220.488	5.12
220.706	74.75
220.924	93.18
221.142	5.12
221.36	7.17
221.578	60.42
221.796	21.5
222.015	80.89
222.233	-29.7
222.451	7.17
222.669	50.18
222.887	80.89
223.105	-15.36
223.323	62.46
223.541	-21.5
223.759	23.55
223.977	-9.22
224.195	99.33
224.413	89.09
224.631	134.14
224.849	44.03
225.067	44.03
225.285	-33.79
225.503	15.36
225.721	-23.55
225.939	17.41
226.157	97.28
226.375	62.46
226.592	-23.55
226.81	-54.27
227.028	37.89
227.246	66.56
227.464	-1.02
227.682	31.74
227.9	15.36
228.117	84.99
228.335	-52.22
228.553	3.07
228.771	93.18
228.989	52.22
229.206	23.55
229.424	31.74
229.642	39.94
229.86	9.22
230.077	41.98
230.295	78.85
230.513	54.27
230.731	25.6
230.948	33.79
231.166	91.13
231.384	37.89
231.601	44.03
231.819	93.18
232.037	37.89
232.254	58.37
232.472	72.7
232.689	3.07
232.907	9.22
233.125	19.46
233.342	56.32
233.56	15.36
233.777	39.94
233.995	56.32
234.213	19.46
234.43	-29.7
234.648	39.94
234.865	-23.55
235.083	97.28
235.3	-37.89
235.518	105.47
235.735	78.85
235.953	25.6
236.17	107.52
236.388	74.75
236.605	39.94
236.822	82.94
237.04	-5.12
237.257	21.5
237.475	17.41
237.692	41.98
237.909	58.37
238.127	-7.17
238.344	60.42
238.562	66.56
238.779	37.89
238.996	1.02
239.214	-41.98
239.431	35.84
239.648	50.18
239.865	39.94
240.083	60.42
240.3	105.47
240.517	27.65
240.735	78.85
240.952	64.51
241.169	41.98
241.386	113.66
241.603	-1.02
241.821	23.55
242.038	48.13
242.255	-3.07
242.472	-39.94
242.689	68.61
242.907	80.89
243.124	9.22
243.341	-23.55
243.558	31.74
243.775	-58.37
243.992	-29.7
244.209	48.13
244.426	117.76
244.643	105.47
244.86	80.89
245.078	58.37
245.295	134.14
245.512	-41.98
245.729	138.24
245.946	64.51
246.163	60.42
246.38	7.17
246.597	21.5
246.814	13.31
247.031	31.74
247.248	87.04
247.464	56.32
247.681	41.98
247.898	60.42
248.115	50.18
248.332	13.31
248.549	68.61
248.766	97.28
248.983	27.65
249.2	25.6
249.417	31.74
249.633	15.36
249.85	66.56
250.067	37.89
250.284	66.56
250.501	72.7
250.717	19.46
250.934	-39.94
251.151	15.36
251.368	23.55
251.585	31.74
251.801	115.71
252.018	-11.26
252.235	25.6
252.451	31.74
252.668	1.02
252.885	76.8
253.102	11.26
253.318	3.07
253.535	7.17
253.752	54.27
253.968	19.46
254.185	39.94
254.401	-39.94
254.618	17.41
254.835	15.36
255.051	107.52
255.268	41.98
255.484	44.03
255.701	41.98
255.917	62.46
256.134	56.32
256.351	58.37
256.567	56.32
256.784	39.94
257	31.74
257.217	66.56
257.433	105.47
257.65	89.09
257.866	76.8
258.082	66.56
258.299	52.22
258.515	89.09
258.732	-1.02
258.948	9.22
259.165	97.28
259.381	11.26
259.597	89.09
259.814	84.99
260.03	62.46
260.246	15.36
260.463	48.13
260.679	89.09
260.895	15.36
261.112	31.74
261.328	9.22
261.544	-3.07
261.761	46.08
261.977	21.5
262.193	-23.55
262.409	23.55
262.626	-1.02
262.842	72.7
263.058	17.41
263.274	105.47
263.49	89.09
263.707	177.15
263.923	39.94
264.139	23.55
264.355	93.18
264.571	54.27
264.787	39.94
265.004	72.7
265.22	64.51
265.436	52.22
265.652	60.42
265.868	37.89
266.084	-9.22
266.3	56.32
266.516	35.84
266.732	89.09
266.948	35.84
267.164	99.33
267.38	37.89
267.596	68.61
267.812	154.62
268.028	89.09
268.244	27.65
268.46	99.33
268.676	50.18
268.892	84.99
269.108	29.7
269.324	134.14
269.54	56.32
269.756	101.37
269.972	97.28
270.188	58.37
270.403	-31.74
270.619	99.33
270.835	99.33
271.051	76.8
271.267	-21.5
271.483	19.46
271.698	60.42
271.914	48.13
272.13	41.98
272.346	48.13
272.562	-13.31
272.777	89.09
272.993	31.74
273.209	1.02
273.425	56.32
273.64	50.18
273.856	17.41
274.072	56.32
274.287	54.27
274.503	125.95
274.719	117.76
274.934	62.46
275.15	-31.74
275.366	72.7
275.581	44.03
275.797	48.13
276.012	62.46
276.228	-17.41
276.444	68.61
276.659	105.47
276.875	19.46
277.09	23.55
277.306	23.55
277.521	17.41
277.737	68.61
277.952	89.09
278.168	64.51
278.383	37.89
278.599	58.37
278.814	64.51
279.03	25.6
279.245	105.47
279.461	123.9
279.676	68.61
279.892	25.6
280.107	48.13
280.322	70.65
280.538	56.32
280.753	-1.02
280.969	138.24
281.184	33.79
281.399	35.84
281.615	-9.22
281.83	78.85
282.045	101.37
282.26	48.13
282.476	78.85
282.691	21.5
282.906	-48.13
283.122	52.22
283.337	15.36
283.552	72.7
283.767	66.56
283.983	84.99
284.198	60.42
284.413	15.36
284.628	72.7
284.843	25.6
285.058	52.22
285.274	115.71
285.489	39.94
285.704	91.13
285.919	-1.02
286.134	17.41
286.349	21.5
286.564	72.7
286.779	91.13
286.995	66.56
287.21	46.08
287.425	80.89
287.64	-9.22
287.855	48.13
288.07	-37.89
288.285	113.66
288.5	31.74
288.715	25.6
288.93	84.99
289.145	58.37
289.36	138.24
289.575	23.55
289.79	99.33
290.004	78.85
290.219	115.71
290.434	72.7
290.649	128
290.864	11.26
291.079	72.7
291.294	64.51
291.509	84.99
291.724	52.22
291.938	66.56
292.153	48.13
292.368	46.08
292.583	64.51
292.798	3.07
293.012	52.22
293.227	23.55
293.442	56.32
293.657	66.56
293.871	54.27
294.086	99.33
294.301	166.91
294.516	58.37
294.73	3.07
294.945	9.22
295.16	33.79
295.374	58.37
295.589	105.47
295.804	15.36
296.018	78.85
296.233	107.52
296.447	39.94
296.662	-25.6
296.877	134.14
297.091	23.55
297.306	33.79
297.52	60.42
297.735	76.8
297.949	-1.02
298.164	101.37
298.378	54.27
298.593	33.79
298.807	52.22
299.022	15.36
299.236	123.9
299.451	25.6
299.665	27.65
299.88	7.17
300.094	9.22
300.309	37.89
300.523	52.22
300.737	9.22
300.952	68.61
301.166	80.89
301.381	11.26
301.595	74.75
301.809	13.31
302.024	17.41
302.238	23.55
302.452	-17.41
302.667	9.22
302.881	50.18
303.095	105.47
303.309	89.09
303.524	58.37
303.738	60.42
303.952	46.08
304.166	31.74
304.381	3.07
304.595	52.22
304.809	17.41
305.023	56.32
305.237	15.36
305.452	101.37
305.666	9.22
305.88	23.55
306.094	68.61
306.308	27.65
306.522	31.74
306.736	56.32
306.95	29.7
307.164	66.56
307.379	-17.41
307.593	35.84
307.807	54.27
308.021	70.65
308.235	74.75
308.449	91.13
308.663	46.08
308.877	173.05
309.091	115.71
309.305	50.18
309.519	1.02
309.733	41.98
309.947	1.02
310.161	60.42
310.374	121.85
310.588	56.32
310.802	3.07
311.016	31.74
311.23	48.13
311.444	48.13
311.658	15.36
311.872	60.42
312.085	5.12
312.299	123.9
312.513	109.57
312.727	146.43
312.941	84.99
313.154	35.84
313.368	52.22
313.582	60.42
313.796	15.36
314.009	-70.65
314.223	44.03
314.437	29.7
314.651	125.95
314.864	136.19
315.078	15.36
315.292	80.89
315.505	54.27
315.719	72.7
315.933	50.18
316.146	72.7
316.36	72.7
316.573	138.24
316.787	27.65
317.001	56.32
317.214	21.5
317.428	107.52
317.641	-17.41
317.855	39.94
318.068	-1.02
318.282	76.8
318.495	23.55
318.709	91.13
318.922	56.32
319.136	44.03
319.349	72.7
319.563	76.8
319.776	15.36
319.99	17.41
320.203	84.99
320.417	60.42
320.63	-9.22
320.843	80.89
321.057	125.95
321.27	84.99
321.483	134.14
321.697	72.7
321.91	41.98
322.124	72.7
322.337	66.56
322.55	25.6
322.763	9.22
322.977	37.89
323.19	68.61
323.403	39.94
323.617	31.74
323.83	60.42
324.043	76.8
324.256	44.03
324.469	-50.18
324.683	95.23
324.896	46.08
325.109	66.56
325.322	9.22
325.535	97.28
325.748	80.89
325.962	64.51
326.175	64.51
326.388	105.47
326.601	60.42
326.814	58.37
327.027	37.89
327.24	115.71
327.453	-9.22
327.666	37.89
327.879	68.61
328.092	60.42
328.305	121.85
328.518	-13.31
328.731	115.71
328.944	31.74
329.157	31.74
329.37	-41.98
329.583	56.32
329.796	113.66
330.009	31.74
330.222	72.7
330.435	48.13
330.648	-5.12
330.861	17.41
331.073	41.98
331.286	19.46
331.499	27.65
331.712	1.02
331.925	48.13
332.138	105.47
332.35	72.7
332.563	7.17
332.776	89.09
332.989	113.66
333.202	82.94
333.414	3.07
333.627	44.03
333.84	52.22
334.053	101.37
334.265	41.98
334.478	52.22
334.691	15.36
334.903	29.7
335.116	91.13
335.329	9.22
335.541	130.05
335.754	107.52
335.966	44.03
336.179	23.55
336.392	-15.36
336.604	101.37
336.817	48.13
337.029	76.8
337.242	93.18
337.454	105.47
337.667	58.37
337.88	68.61
338.092	48.13
338.305	74.75
338.517	25.6
338.729	91.13
338.942	123.9
339.154	87.04
339.367	-11.26
339.579	-1.02
339.792	-7.17
340.004	101.37
340.217	68.61
340.429	39.94
340.641	-9.22
340.854	58.37
341.066	15.36
341.278	115.71
341.491	-1.02
341.703	48.13
341.915	25.6
342.128	121.85
342.34	78.85
342.552	35.84
342.764	41.98
342.977	52.22
343.189	130.05
343.401	33.79
343.613	113.66
343.826	39.94
344.038	-37.89
344.25	119.81
344.462	146.43
344.674	74.75
344.886	101.37
345.099	23.55
345.311	17.41
345.523	109.57
345.735	-25.6
345.947	74.75
346.159	107.52
346.371	72.7
346.583	91.13
346.795	171.01
347.007	-25.6
347.219	162.81
347.431	9.22
347.643	29.7
347.855	52.22
348.067	52.22
348.279	66.56
348.491	68.61
348.703	-44.03
348.915	97.28
349.127	-7.17
349.339	48.13
349.551	-25.6
349.763	84.99
349.975	144.38
350.187	138.24
350.399	89.09
350.61	72.7
350.822	25.6
351.034	13.31
351.246	107.52
351.458	113.66
351.669	58.37
351.881	52.22
352.093	56.32
352.305	1.02
352.517	109.57
352.728	146.43
352.94	44.03
353.152	76.8
353.363	-7.17
353.575	39.94
353.787	109.57
353.999	52.22
354.21	74.75
354.422	-5.12
354.633	-9.22
354.845	58.37
355.057	101.37
355.268	128
355.48	93.18
355.692	35.84
355.903	-31.74
356.115	48.13
356.326	35.84
356.538	62.46
356.749	138.24
356.961	23.55
357.172	23.55
357.384	74.75
357.595	111.61
357.807	99.33
358.018	66.56
358.23	31.74
358.441	107.52
358.653	123.9
358.864	56.32
359.075	-11.26
359.287	50.18
359.498	39.94
359.709	-5.12
359.921	23.55
360.132	97.28
360.344	56.32
360.555	9.22
360.766	105.47
360.977	64.51
361.189	97.28
361.4	23.55
361.611	138.24
361.823	99.33
362.034	56.32
362.245	-11.26
362.456	-7.17
362.667	39.94
362.879	76.8
363.09	44.03
363.301	-5.12
363.512	68.61
363.723	89.09
363.935	66.56
364.146	52.22
364.357	70.65
364.568	58.37
364.779	25.6
364.99	66.56
365.201	44.03
365.412	179.2
365.623	21.5
365.834	89.09
366.045	121.85
366.256	64.51
366.467	89.09
366.678	19.46
366.889	9.22
367.1	5.12
367.311	-23.55
367.522	50.18
367.733	19.46
367.944	56.32
368.155	68.61
368.366	97.28
368.577	78.85
368.788	91.13
368.999	33.79
369.209	84.99
369.42	107.52
369.631	97.28
369.842	11.26
370.053	19.46
370.264	105.47
370.474	1.02
370.685	132.09
370.896	9.22
371.107	121.85
371.317	60.42
371.528	87.04
371.739	70.65
371.95	66.56
372.16	62.46
372.371	19.46
372.582	31.74
372.792	27.65
373.003	80.89
373.214	101.37
373.424	82.94
373.635	56.32
373.846	48.13
374.056	25.6
374.267	68.61
374.477	7.17
374.688	3.07
374.898	132.09
375.109	27.65
375.319	72.7
375.53	95.23
375.74	72.7
375.951	80.89
376.161	58.37
376.372	41.98
376.582	52.22
376.793	105.47
377.003	56.32
377.214	23.55
377.424	125.95
377.635	56.32
377.845	50.18
378.055	35.84
378.266	101.37
378.476	76.8
378.686	140.29
378.897	68.61
379.107	113.66
379.317	64.51
379.528	80.89
379.738	62.46
379.948	13.31
380.158	76.8
380.369	11.26
380.579	154.62
380.789	60.42
380.999	39.94
381.21	74.75
381.42	113.66
381.63	68.61
381.84	113.66
382.05	132.09
382.261	123.9
382.471	64.51
382.681	27.65
382.891	154.62
383.101	41.98
383.311	21.5
383.521	37.89
383.731	99.33
383.941	115.71
384.151	17.41
384.361	82.94
384.571	89.09
384.781	64.51
384.991	82.94
385.201	91.13
385.411	72.7
385.621	89.09
385.831	44.03
386.041	171.01
386.251	115.71
386.461	89.09
386.671	56.32
386.881	80.89
387.091	66.56
387.301	72.7
387.511	99.33
387.72	82.94
387.93	1.02
388.14	15.36
388.35	82.94
388.56	107.52
388.769	91.13
388.979	132.09
389.189	70.65
389.399	15.36
389.609	113.66
389.818	52.22
390.028	39.94
390.238	97.28
390.447	58.37
390.657	105.47
390.867	64.51
391.076	31.74
391.286	48.13
391.496	48.13
391.705	-13.31
391.915	76.8
392.125	123.9
392.334	39.94
392.544	97.28
392.753	58.37
392.963	84.99
393.172	60.42
393.382	105.47
393.591	134.14
393.801	84.99
394.01	99.33
394.22	105.47
394.429	56.32
394.639	84.99
394.848	39.94
395.058	82.94
395.267	48.13
395.477	76.8
395.686	80.89
395.895	80.89
396.105	115.71
396.314	138.24
396.524	130.05
396.733	54.27
396.942	97.28
397.152	154.62
397.361	121.85
397.57	27.65
397.78	66.56
397.989	5.12
398.198	166.91
398.407	148.48
398.617	146.43
398.826	189.44
399.035	76.8
399.244	87.04
399.453	93.18
399.663	123.9
399.872	121.85
400.081	89.09
400.29	195.58
400.499	87.04
400.708	121.85
400.917	17.41
401.127	187.39
401.336	48.13
401.545	158.72
401.754	35.84
401.963	199.68
402.172	125.95
402.381	52.22
402.59	134.14
402.799	50.18
403.008	236.54
403.217	72.7
403.426	179.2
403.635	48.13
403.844	121.85
404.053	138.24
404.262	142.33
404.471	138.24
404.68	162.81
404.888	148.48
405.097	183.29
405.306	130.05
405.515	121.85
405.724	195.58
405.933	171.01
406.142	191.49
406.35	173.05
406.559	142.33
406.768	191.49
406.977	220.16
407.185	207.87
407.394	173.05
407.603	130.05
407.812	281.6
408.02	191.49
408.229	179.2
408.438	175.1
408.646	238.59
408.855	220.16
409.064	203.77
409.272	254.97
409.481	322.56
409.69	283.64
409.898	222.2
410.107	279.55
410.315	295.93
410.524	265.21
410.733	252.92
410.941	285.69
411.15	404.47
411.358	316.41
411.567	441.34
411.775	326.65
411.984	443.39
412.192	400.38
412.401	322.56
412.609	476.15
412.818	461.82
413.026	486.39
413.234	459.77
413.443	478.2
413.651	510.97
413.86	556.02
414.068	560.12
414.276	603.13
414.485	603.13
414.693	732.15
414.901	691.19
415.11	617.46
415.318	685.05
415.526	648.18
415.734	760.82
415.943	785.4
416.151	756.72
416.359	709.62
416.567	861.17
416.776	902.13
416.984	924.66
417.192	963.57
417.4	824.31
417.608	943.09
417.817	932.85
418.025	998.38
418.233	1084.4
418.441	1080.3
418.649	1002.48
418.857	1184.75
419.065	1154.03
419.273	1129.45
419.481	1217.52
419.689	1381.35
419.897	1350.64
420.105	1418.22
420.313	1407.98
420.521	1434.6
420.729	1442.79
420.937	1457.13
421.145	1608.68
421.353	1623.02
421.561	1711.08
421.769	1842.15
421.977	1821.67
422.185	1756.13
422.393	2003.94
422.601	2098.14
422.809	1997.79
423.017	2063.33
423.224	2145.25
423.432	2153.44
423.64	2165.73
423.848	2427.87
424.056	2360.28
424.263	2595.8
424.471	2450.39
424.679	2624.47
424.887	2800.6
425.094	2806.74
425.302	2833.36
425.51	2917.33
425.718	2958.29
425.925	3169.23
426.133	3251.15
426.341	3322.83
426.548	3466.19
426.756	3531.72
426.964	3546.06
427.171	3705.8
427.379	3873.73
427.586	3896.26
427.794	4035.52
428.001	4070.34
428.209	4373.44
428.417	4142.02
428.624	4531.13
428.832	4488.12
429.039	4395.96
429.247	4604.86
429.454	4973.49
429.662	5286.83
429.869	4922.29
430.076	5178.29
430.284	5116.85
430.491	5299.12
430.699	5596.07
430.906	5548.97
431.114	5872.55
431.321	5999.52
431.528	6120.35
431.736	6392.73
431.943	6960.02
432.15	6523.8
432.358	6658.97
432.565	6970.26
432.772	7035.8
432.979	7332.75
433.187	7394.19
433.394	7451.53
433.601	8014.73
433.808	7936.9
434.016	7981.96
434.223	8297.35
434.43	8698.75
434.637	8686.46
434.844	9147.25
435.052	9274.23
435.259	9243.51
435.466	9362.29
435.673	9419.63
435.88	9954.15
436.087	10509.15
436.294	10546.02
436.501	10271.59
436.708	10562.4
436.915	10920.79
437.122	11217.75
437.329	11305.81
437.537	11795.28
437.743	11830.09
437.95	11674.45
438.157	12473.15
438.364	12739.39
438.571	12669.76
438.778	12567.36
438.985	13822.77
439.192	13257.53
439.399	13894.44
439.606	13335.35
439.813	14211.88
440.02	15037.21
440.227	14748.45
440.433	14668.58
440.64	15182.62
440.847	14992.16
441.054	15340.31
441.261	16263.94
441.467	16134.92
441.674	16577.28
441.881	17283.83
442.088	17173.24
442.294	16769.79
442.501	17406.71
442.708	17914.61
442.914	18352.87
443.121	19047.13
443.328	18350.82
443.534	19790.55
443.741	19391.19
443.948	19086.04
444.154	20579.01
444.361	20376.27
444.568	20456.14
444.774	20513.48
444.981	20703.94
445.187	21240.51
445.394	22143.66
445.6	21764.79
445.807	23939.73
446.013	22745.76
446.22	23450.27
446.426	24392.33
446.633	24748.68
446.839	25283.2
447.046	24294.03
447.252	25735.8
447.459	25559.67
447.665	25662.07
447.871	26593.9
448.078	27773.53
448.284	26526.32
448.491	27417.18
448.697	28295.76
448.903	28828.23
449.11	28897.86
449.316	28471.89
449.522	29274.69
449.728	29739.58
449.935	29964.85
450.141	29567.55
450.347	30620.2
450.553	29770.3
450.76	30028.34
450.966	30818.86
451.172	30587.44
451.378	31410.72
451.584	30433.84
451.791	31656.48
451.997	31515.17
452.203	31793.69
452.409	31805.98
452.615	31863.32
452.821	30548.53
453.027	29927.99
453.233	31740.44
453.44	30671.4
453.646	30863.91
453.852	30900.78
454.058	31511.07
454.264	30284.34
454.47	31494.69
454.676	30761.51
454.882	31408.67
455.088	28914.25
455.294	29002.31
455.5	29698.62
455.705	29930.04
455.911	28574.28
456.117	28377.68
456.323	28039.76
456.529	26530.41
456.735	27419.23
456.941	26763.88
457.147	26372.72
457.352	26004.08
457.558	25526.91
457.764	25703.03
457.97	25102.98
458.176	24267.41
458.381	24416.91
458.587	23425.69
458.793	23081.63
458.999	22133.42
459.204	23448.22
459.41	22932.13
459.616	21441.21
459.821	21568.18
460.027	21324.47
460.233	21144.25
460.438	20202.19
460.644	20187.85
460.85	19348.18
461.055	19188.44
461.261	18899.68
461.466	17439.48
461.672	17113.85
461.878	18209.51
462.083	17197.82
462.289	17107.71
462.494	16618.24
462.7	15919.89
462.905	15446.8
463.111	15854.35
463.316	16120.59
463.522	15577.87
463.727	15706.9
463.932	15600.4
464.138	15201.05
464.343	15725.33
464.549	14926.62
464.754	15563.54
464.959	15485.72
465.165	15414.04
465.37	14781.21
465.575	14557.99
465.781	15031.07
465.986	14826.27
466.191	14246.69
466.397	14248.74
466.602	13634.35
466.807	14230.31
467.012	13919.02
467.218	13951.79
467.423	13667.12
467.628	13908.78
