Data from USB4F104151__279__14-23-26-484.txt Node

Date: Thu Mar 13 14:23:26 EDT 2025
User: louis
Spectrometer: USB4F10415
Trigger mode: 4
Integration Time (sec): 2.000000E-2
Scans to average: 1
Electric dark correction enabled: true
Nonlinearity correction enabled: false
Boxcar width: 0
XAxis mode: Wavelengths
Number of Pixels in Spectrum: 3648
>>>>>Begin Spectral Data<<<<<
178.204	-64.85
178.424	-64.85
178.644	-64.85
178.864	-124.24
179.084	-177.49
179.304	-17.75
179.524	0.68
179.744	41.64
179.964	10.92
180.184	8.87
180.404	-25.94
180.624	-42.32
180.844	-9.56
181.064	33.45
181.283	6.83
181.503	-21.85
181.723	15.02
181.943	-71
182.163	6.83
182.383	0.68
182.602	51.88
182.822	66.22
183.042	-36.18
183.262	64.17
183.482	-25.94
183.701	6.83
183.921	80.55
184.141	27.31
184.361	23.21
184.58	37.55
184.8	31.4
185.02	-5.46
185.239	0.68
185.459	58.03
185.679	55.98
185.898	-75.09
186.118	47.79
186.338	62.12
186.557	78.51
186.777	-3.41
186.997	19.11
187.216	-25.94
187.436	15.02
187.655	23.21
187.875	55.98
188.095	49.83
188.314	72.36
188.534	74.41
188.753	-21.85
188.973	33.45
189.192	-21.85
189.412	23.21
189.631	17.07
189.851	4.78
190.07	25.26
190.29	15.02
190.509	68.27
190.729	64.17
190.948	74.41
191.168	111.27
191.387	72.36
191.607	4.78
191.826	72.36
192.045	-56.66
192.265	37.55
192.484	92.84
192.704	55.98
192.923	47.79
193.142	152.23
193.362	55.98
193.581	-5.46
193.8	49.83
194.02	58.03
194.239	31.4
194.458	37.55
194.678	41.64
194.897	115.37
195.116	29.35
195.335	76.46
195.555	0.68
195.774	31.4
195.993	92.84
196.212	2.73
196.432	23.21
196.651	-1.37
196.87	-9.56
197.089	125.61
197.308	-3.41
197.528	31.4
197.747	-21.85
197.966	8.87
198.185	121.51
198.404	62.12
198.623	-40.28
198.842	27.31
199.062	88.75
199.281	39.59
199.5	64.17
199.719	74.41
199.938	29.35
200.157	72.36
200.376	-66.9
200.595	58.03
200.814	45.74
201.033	37.55
201.252	74.41
201.471	51.88
201.69	105.13
201.909	15.02
202.128	43.69
202.347	107.18
202.566	25.26
202.785	-58.71
203.004	-34.13
203.223	55.98
203.442	-48.47
203.661	64.17
203.879	88.75
204.098	60.07
204.317	-1.37
204.536	-1.37
204.755	55.98
204.974	115.37
205.193	80.55
205.411	90.79
205.63	-1.37
205.849	19.11
206.068	43.69
206.287	-23.89
206.505	4.78
206.724	80.55
206.943	6.83
207.162	-1.37
207.381	6.83
207.599	12.97
207.818	15.02
208.037	47.79
208.255	31.4
208.474	15.02
208.693	15.02
208.911	-9.56
209.13	-21.85
209.349	15.02
209.567	0.68
209.786	43.69
210.005	135.85
210.223	55.98
210.442	35.5
210.661	29.35
210.879	27.31
211.098	86.7
211.316	-13.65
211.535	53.93
211.753	12.97
211.972	58.03
212.191	19.11
212.409	27.31
212.628	49.83
212.846	41.64
213.065	76.46
213.283	47.79
213.502	-54.61
213.72	8.87
213.938	43.69
214.157	6.83
214.375	-25.94
214.594	19.11
214.812	90.79
215.031	15.02
215.249	-11.61
215.467	-25.94
215.686	-17.75
215.904	-25.94
216.122	47.79
216.341	121.51
216.559	39.59
216.778	25.26
216.996	88.75
217.214	23.21
217.432	-5.46
217.651	19.11
217.869	2.73
218.087	47.79
218.306	51.88
218.524	51.88
218.742	82.6
218.96	74.41
219.179	25.26
219.397	39.59
219.615	62.12
219.833	121.51
220.051	31.4
220.27	178.86
220.488	72.36
220.706	23.21
220.924	6.83
221.142	-15.7
221.36	60.07
221.578	-1.37
221.796	55.98
222.015	10.92
222.233	31.4
222.451	68.27
222.669	8.87
222.887	55.98
223.105	33.45
223.323	-17.75
223.541	55.98
223.759	115.37
223.977	-17.75
224.195	-9.56
224.413	82.6
224.631	0.68
224.849	35.5
225.067	17.07
225.285	117.42
225.503	39.59
225.721	55.98
225.939	58.03
226.157	15.02
226.375	35.5
226.592	-5.46
226.81	-58.71
227.028	4.78
227.246	111.27
227.464	51.88
227.682	49.83
227.9	8.87
228.117	60.07
228.335	35.5
228.553	12.97
228.771	68.27
228.989	53.93
229.206	47.79
229.424	-42.32
229.642	80.55
229.86	17.07
230.077	31.4
230.295	0.68
230.513	49.83
230.731	43.69
230.948	80.55
231.166	47.79
231.384	10.92
231.601	12.97
231.819	98.99
232.037	27.31
232.254	23.21
232.472	17.07
232.689	47.79
232.907	66.22
233.125	72.36
233.342	-50.52
233.56	0.68
233.777	178.86
233.995	-17.75
234.213	23.21
234.43	76.46
234.648	-9.56
234.865	6.83
235.083	47.79
235.3	33.45
235.518	125.61
235.735	146.09
235.953	-17.75
236.17	12.97
236.388	55.98
236.605	-54.61
236.822	105.13
237.04	58.03
237.257	55.98
237.475	-30.04
237.692	15.02
237.909	55.98
238.127	-23.89
238.344	117.42
238.562	-25.94
238.779	25.26
238.996	-11.61
239.214	74.41
239.431	109.22
239.648	55.98
239.865	64.17
240.083	55.98
240.3	117.42
240.517	25.26
240.735	-23.89
240.952	76.46
241.169	64.17
241.386	76.46
241.603	33.45
241.821	17.07
242.038	25.26
242.255	70.31
242.472	0.68
242.689	0.68
242.907	31.4
243.124	-32.08
243.341	31.4
243.558	51.88
243.775	31.4
243.992	-23.89
244.209	27.31
244.426	12.97
244.643	35.5
244.86	17.07
245.078	19.11
245.295	19.11
245.512	113.32
245.729	49.83
245.946	55.98
246.163	35.5
246.38	31.4
246.597	-27.99
246.814	6.83
247.031	19.11
247.248	55.98
247.464	47.79
247.681	35.5
247.898	12.97
248.115	17.07
248.332	8.87
248.549	15.02
248.766	86.7
248.983	76.46
249.2	25.26
249.417	68.27
249.633	68.27
249.85	64.17
250.067	25.26
250.284	64.17
250.501	51.88
250.717	94.89
250.934	15.02
251.151	-5.46
251.368	47.79
251.585	0.68
251.801	39.59
252.018	-30.04
252.235	27.31
252.451	25.26
252.668	76.46
252.885	55.98
253.102	2.73
253.318	96.94
253.535	-1.37
253.752	-9.56
253.968	35.5
254.185	39.59
254.401	58.03
254.618	12.97
254.835	-7.51
255.051	64.17
255.268	-1.37
255.484	-25.94
255.701	39.59
255.917	66.22
256.134	-40.28
256.351	90.79
256.567	-15.7
256.784	-30.04
257	31.4
257.217	-1.37
257.433	92.84
257.65	15.02
257.866	74.41
258.082	90.79
258.299	-34.13
258.515	113.32
258.732	33.45
258.948	-1.37
259.165	39.59
259.381	-23.89
259.597	49.83
259.814	51.88
260.03	17.07
260.246	15.02
260.463	27.31
260.679	51.88
260.895	-36.18
261.112	17.07
261.328	58.03
261.544	8.87
261.761	125.61
261.977	31.4
262.193	-15.7
262.409	29.35
262.626	80.55
262.842	-15.7
263.058	-42.32
263.274	33.45
263.49	17.07
263.707	86.7
263.923	-25.94
264.139	90.79
264.355	101.03
264.571	66.22
264.787	10.92
265.004	60.07
265.22	103.08
265.436	47.79
265.652	-19.8
265.868	33.45
266.084	6.83
266.3	10.92
266.516	-79.19
266.732	55.98
266.948	6.83
267.164	8.87
267.38	62.12
267.596	-9.56
267.812	35.5
268.028	41.64
268.244	17.07
268.46	8.87
268.676	80.55
268.892	-1.37
269.108	37.55
269.324	98.99
269.54	23.21
269.756	64.17
269.972	64.17
270.188	72.36
270.403	-5.46
270.619	55.98
270.835	74.41
271.051	49.83
271.267	4.78
271.483	37.55
271.698	115.37
271.914	84.65
272.13	41.64
272.346	88.75
272.562	17.07
272.777	64.17
272.993	70.31
273.209	23.21
273.425	72.36
273.64	-7.51
273.856	62.12
274.072	58.03
274.287	29.35
274.503	6.83
274.719	15.02
274.934	45.74
275.15	62.12
275.366	68.27
275.581	-30.04
275.797	39.59
276.012	109.22
276.228	92.84
276.444	47.79
276.659	58.03
276.875	-13.65
277.09	41.64
277.306	47.79
277.521	8.87
277.737	86.7
277.952	82.6
278.168	-44.37
278.383	33.45
278.599	33.45
278.814	23.21
279.03	60.07
279.245	39.59
279.461	-30.04
279.676	92.84
279.892	-44.37
280.107	76.46
280.322	88.75
280.538	64.17
280.753	-46.42
280.969	8.87
281.184	35.5
281.399	64.17
281.615	49.83
281.83	37.55
282.045	-21.85
282.26	8.87
282.476	68.27
282.691	60.07
282.906	51.88
283.122	15.02
283.337	-42.32
283.552	51.88
283.767	-19.8
283.983	80.55
284.198	43.69
284.413	8.87
284.628	-9.56
284.843	-1.37
285.058	117.42
285.274	43.69
285.489	-1.37
285.704	74.41
285.919	4.78
286.134	49.83
286.349	27.31
286.564	-32.08
286.779	84.65
286.995	74.41
287.21	96.94
287.425	74.41
287.64	-7.51
287.855	33.45
288.07	15.02
288.285	55.98
288.5	27.31
288.715	82.6
288.93	-13.65
289.145	-17.75
289.36	94.89
289.575	45.74
289.79	4.78
290.004	8.87
290.219	35.5
290.434	-25.94
290.649	15.02
290.864	68.27
291.079	-3.41
291.294	10.92
291.509	31.4
291.724	55.98
291.938	51.88
292.153	55.98
292.368	64.17
292.583	55.98
292.798	35.5
293.012	80.55
293.227	76.46
293.442	0.68
293.657	86.7
293.871	72.36
294.086	43.69
294.301	68.27
294.516	58.03
294.73	31.4
294.945	-7.51
295.16	27.31
295.374	43.69
295.589	64.17
295.804	62.12
296.018	64.17
296.233	125.61
296.447	37.55
296.662	109.22
296.877	74.41
297.091	15.02
297.306	58.03
297.52	-15.7
297.735	0.68
297.949	80.55
298.164	25.26
298.378	74.41
298.593	15.02
298.807	103.08
299.022	10.92
299.236	152.23
299.451	-1.37
299.665	76.46
299.88	15.02
300.094	84.65
300.309	19.11
300.523	78.51
300.737	37.55
300.952	25.26
301.166	139.94
301.381	-46.42
301.595	72.36
301.809	64.17
302.024	17.07
302.238	-3.41
302.452	68.27
302.667	6.83
302.881	113.32
303.095	17.07
303.309	17.07
303.524	31.4
303.738	55.98
303.952	23.21
304.166	2.73
304.381	-15.7
304.595	70.31
304.809	43.69
305.023	76.46
305.237	-32.08
305.452	58.03
305.666	-23.89
305.88	15.02
306.094	88.75
306.308	49.83
306.522	25.26
306.736	103.08
306.95	47.79
307.164	2.73
307.379	66.22
307.593	78.51
307.807	98.99
308.021	72.36
308.235	55.98
308.449	-11.61
308.663	35.5
308.877	76.46
309.091	-5.46
309.305	80.55
309.519	25.26
309.733	15.02
309.947	55.98
310.161	27.31
310.374	49.83
310.588	121.51
310.802	8.87
311.016	0.68
311.23	80.55
311.444	-15.7
311.658	82.6
311.872	96.94
312.085	21.16
312.299	17.07
312.513	125.61
312.727	55.98
312.941	-71
313.154	23.21
313.368	19.11
313.582	33.45
313.796	55.98
314.009	6.83
314.223	64.17
314.437	31.4
314.651	123.56
314.864	98.99
315.078	92.84
315.292	6.83
315.505	72.36
315.719	68.27
315.933	117.42
316.146	33.45
316.36	58.03
316.573	62.12
316.787	6.83
317.001	43.69
317.214	88.75
317.428	-32.08
317.641	35.5
317.855	35.5
318.068	2.73
318.282	80.55
318.495	25.26
318.709	68.27
318.922	-34.13
319.136	82.6
319.349	39.59
319.563	25.26
319.776	60.07
319.99	27.31
320.203	64.17
320.417	47.79
320.63	47.79
320.843	113.32
321.057	64.17
321.27	31.4
321.483	19.11
321.697	31.4
321.91	-3.41
322.124	49.83
322.337	51.88
322.55	41.64
322.763	58.03
322.977	27.31
323.19	-36.18
323.403	92.84
323.617	25.26
323.83	64.17
324.043	-17.75
324.256	6.83
324.469	-48.47
324.683	90.79
324.896	141.99
325.109	60.07
325.322	-21.85
325.535	96.94
325.748	21.16
325.962	-1.37
326.175	31.4
326.388	15.02
326.601	-32.08
326.814	31.4
327.027	39.59
327.24	127.66
327.453	-3.41
327.666	55.98
327.879	43.69
328.092	121.51
328.305	80.55
328.518	82.6
328.731	119.46
328.944	-9.56
329.157	74.41
329.37	47.79
329.583	19.11
329.796	53.93
330.009	2.73
330.222	109.22
330.435	76.46
330.648	15.02
330.861	47.79
331.073	113.32
331.286	21.16
331.499	6.83
331.712	107.18
331.925	21.16
332.138	39.59
332.35	105.13
332.563	39.59
332.776	115.37
332.989	19.11
333.202	2.73
333.414	-23.89
333.627	105.13
333.84	27.31
334.053	72.36
334.265	25.26
334.478	25.26
334.691	47.79
334.903	55.98
335.116	82.6
335.329	31.4
335.541	60.07
335.754	80.55
335.966	70.31
336.179	23.21
336.392	33.45
336.604	64.17
336.817	80.55
337.029	64.17
337.242	6.83
337.454	105.13
337.667	109.22
337.88	88.75
338.092	23.21
338.305	64.17
338.517	-21.85
338.729	41.64
338.942	17.07
339.154	-56.66
339.367	12.97
339.579	51.88
339.792	68.27
340.004	98.99
340.217	19.11
340.429	74.41
340.641	49.83
340.854	23.21
341.066	15.02
341.278	88.75
341.491	103.08
341.703	64.17
341.915	64.17
342.128	60.07
342.34	39.59
342.552	-3.41
342.764	70.31
342.977	80.55
343.189	-13.65
343.401	76.46
343.613	-58.71
343.826	6.83
344.038	-9.56
344.25	84.65
344.462	19.11
344.674	47.79
344.886	-5.46
345.099	90.79
345.311	96.94
345.523	66.22
345.735	37.55
345.947	66.22
346.159	43.69
346.371	-11.61
346.583	51.88
346.795	88.75
347.007	27.31
347.219	51.88
347.431	55.98
347.643	96.94
347.855	58.03
348.067	135.85
348.279	31.4
348.491	-27.99
348.703	35.5
348.915	96.94
349.127	-3.41
349.339	49.83
349.551	49.83
349.763	156.33
349.975	23.21
350.187	53.93
350.399	43.69
350.61	121.51
350.822	10.92
351.034	60.07
351.246	96.94
351.458	41.64
351.669	27.31
351.881	66.22
352.093	41.64
352.305	23.21
352.517	-17.75
352.728	43.69
352.94	62.12
353.152	62.12
353.363	17.07
353.575	92.84
353.787	98.99
353.999	25.26
354.21	121.51
354.422	23.21
354.633	49.83
354.845	-15.7
355.057	47.79
355.268	51.88
355.48	-1.37
355.692	96.94
355.903	60.07
356.115	6.83
356.326	-75.09
356.538	92.84
356.749	21.16
356.961	88.75
357.172	64.17
357.384	60.07
357.595	74.41
357.807	53.93
358.018	49.83
358.23	49.83
358.441	51.88
358.653	35.5
358.864	47.79
359.075	-30.04
359.287	121.51
359.498	84.65
359.709	31.4
359.921	37.55
360.132	0.68
360.344	25.26
360.555	23.21
360.766	96.94
360.977	121.51
361.189	72.36
361.4	47.79
361.611	55.98
361.823	152.23
362.034	47.79
362.245	-25.94
362.456	-21.85
362.667	-21.85
362.879	47.79
363.09	68.27
363.301	-7.51
363.512	66.22
363.723	39.59
363.935	23.21
364.146	150.18
364.357	23.21
364.568	66.22
364.779	15.02
364.99	117.42
365.201	58.03
365.412	-5.46
365.623	41.64
365.834	47.79
366.045	66.22
366.256	98.99
366.467	62.12
366.678	17.07
366.889	27.31
367.1	49.83
367.311	19.11
367.522	15.02
367.733	101.03
367.944	107.18
368.155	2.73
368.366	78.51
368.577	72.36
368.788	117.42
368.999	49.83
369.209	45.74
369.42	27.31
369.631	88.75
369.842	66.22
370.053	39.59
370.264	55.98
370.474	72.36
370.685	125.61
370.896	55.98
371.107	45.74
371.317	115.37
371.528	21.16
371.739	88.75
371.95	78.51
372.16	64.17
372.371	31.4
372.582	125.61
372.792	113.32
373.003	66.22
373.214	58.03
373.424	41.64
373.635	43.69
373.846	92.84
374.056	60.07
374.267	164.52
374.477	60.07
374.688	64.17
374.898	84.65
375.109	2.73
375.319	96.94
375.53	74.41
375.74	55.98
375.951	-17.75
376.161	88.75
376.372	109.22
376.582	-11.61
376.793	55.98
377.003	-25.94
377.214	53.93
377.424	76.46
377.635	47.79
377.845	-17.75
378.055	88.75
378.266	27.31
378.476	23.21
378.686	8.87
378.897	80.55
379.107	94.89
379.317	31.4
379.528	23.21
379.738	41.64
379.948	55.98
380.158	68.27
380.369	68.27
380.579	60.07
380.789	29.35
380.999	101.03
381.21	88.75
381.42	170.66
381.63	33.45
381.84	84.65
382.05	62.12
382.261	58.03
382.471	6.83
382.681	47.79
382.891	17.07
383.101	88.75
383.311	58.03
383.521	74.41
383.731	72.36
383.941	139.94
384.151	47.79
384.361	74.41
384.571	90.79
384.781	35.5
384.991	45.74
385.201	39.59
385.411	33.45
385.621	84.65
385.831	74.41
386.041	96.94
386.251	80.55
386.461	47.79
386.671	8.87
386.881	70.31
387.091	64.17
387.301	80.55
387.511	33.45
387.72	141.99
387.93	47.79
388.14	31.4
388.35	29.35
388.56	170.66
388.769	31.4
388.979	72.36
389.189	-23.89
389.399	39.59
389.609	33.45
389.818	129.7
390.028	21.16
390.238	60.07
390.447	12.97
390.657	76.46
390.867	35.5
391.076	-25.94
391.286	43.69
391.496	88.75
391.705	84.65
391.915	94.89
392.125	182.95
392.334	58.03
392.544	131.75
392.753	115.37
392.963	55.98
393.172	88.75
393.382	-7.51
393.591	121.51
393.801	23.21
394.01	172.71
394.22	121.51
394.429	17.07
394.639	119.46
394.848	164.52
395.058	-1.37
395.267	82.6
395.477	53.93
395.686	88.75
395.895	115.37
396.105	84.65
396.314	105.13
396.524	172.71
396.733	8.87
396.942	137.9
397.152	90.79
397.361	107.18
397.57	107.18
397.78	62.12
397.989	154.28
398.198	96.94
398.407	92.84
398.617	168.62
398.826	15.02
399.035	150.18
399.244	178.86
399.453	123.56
399.663	131.75
399.872	55.98
400.081	92.84
400.29	156.33
400.499	41.64
400.708	189.1
400.917	125.61
401.127	80.55
401.336	111.27
401.545	271.01
401.754	168.62
401.963	170.66
402.172	150.18
402.381	58.03
402.59	168.62
402.799	96.94
403.008	117.42
403.217	125.61
403.426	260.77
403.635	182.95
403.844	113.32
404.053	105.13
404.262	178.86
404.471	228.01
404.68	158.38
404.888	170.66
405.097	160.42
405.306	234.15
405.515	137.9
405.724	168.62
405.933	174.76
406.142	297.64
406.35	166.57
406.559	205.48
406.768	205.48
406.977	268.97
407.185	195.24
407.394	236.2
407.603	201.38
407.812	248.49
408.02	281.25
408.229	336.55
408.438	365.22
408.646	246.44
408.855	242.34
409.064	289.45
409.272	297.64
409.481	375.46
409.69	342.69
409.898	328.36
410.107	350.89
410.315	430.76
410.524	375.46
410.733	318.12
410.941	395.94
411.15	432.8
411.358	430.76
411.567	432.8
411.775	453.28
411.984	500.39
412.192	576.16
412.401	522.91
412.609	621.22
412.818	610.98
413.026	629.41
413.234	533.15
413.443	604.83
413.651	596.64
413.86	627.36
414.068	680.61
414.276	772.77
414.485	699.04
414.693	688.8
414.901	813.73
415.11	711.33
415.318	797.34
415.526	811.68
415.734	846.49
415.943	903.84
416.151	897.69
416.359	944.8
416.567	1002.14
416.776	1063.58
416.984	1024.67
417.192	1147.55
417.4	1172.12
417.608	1163.93
417.817	1170.07
418.025	1301.14
418.233	1278.62
418.441	1264.28
418.649	1309.33
418.857	1467.03
419.065	1491.6
419.273	1407.64
419.481	1581.71
419.689	1573.52
419.897	1628.82
420.105	1690.26
420.313	1723.02
420.521	1897.1
420.729	1976.97
420.937	1948.3
421.145	1997.45
421.353	2048.65
421.561	2114.19
421.769	2218.63
421.977	2386.57
422.185	2253.45
422.393	2398.85
422.601	2538.12
422.809	2587.27
423.017	2564.74
423.224	2663.04
423.432	2757.25
423.64	2882.17
423.848	2996.86
424.056	3037.82
424.263	3269.24
424.471	3166.84
424.679	3199.61
424.887	3437.17
425.094	3678.83
425.302	3578.48
425.51	3639.92
425.718	3805.81
425.925	3885.68
426.133	4020.85
426.341	4110.96
426.548	4336.23
426.756	4356.71
426.964	4391.53
427.171	4805.22
427.379	4760.16
427.586	4878.94
427.794	5112.41
428.001	5208.67
428.209	5528.15
428.417	5454.42
428.624	5818.96
428.832	5687.89
429.039	5784.15
429.247	5780.05
429.454	6308.43
429.662	6793.79
429.869	6484.55
430.076	6771.27
430.284	6523.46
430.491	6867.52
430.699	7166.53
430.906	7248.44
431.114	7367.23
431.321	7637.56
431.528	7819.83
431.736	8358.44
431.943	8641.06
432.15	8133.17
432.358	8389.16
432.565	9005.6
432.772	8802.85
432.979	9488.92
433.187	9333.28
433.394	9370.14
433.601	10105.36
433.808	10293.77
434.016	9959.95
434.223	10486.28
434.43	11262.46
434.637	10822.15
434.844	11622.91
435.052	12063.22
435.259	11698.68
435.466	11850.23
435.673	11817.46
435.88	12442.09
436.087	13177.31
436.294	13183.46
436.501	12794.34
436.708	13234.66
436.915	13568.48
437.122	14338.51
437.329	14205.39
437.537	14643.66
437.743	14883.27
437.95	14901.7
438.157	15460.8
438.364	16048.57
438.571	16095.67
438.778	16163.25
438.985	17439.14
439.192	16726.44
439.399	17131.94
439.606	16779.69
439.813	17856.92
440.02	18942.35
440.227	18610.57
440.433	18377.11
440.64	18858.38
440.847	18979.21
441.054	19292.55
441.261	20582.77
441.467	20287.86
441.674	20812.14
441.881	21479.78
442.088	21524.83
442.294	21160.3
442.501	21780.83
442.708	22266.2
442.914	23251.27
443.121	23980.35
443.328	23460.16
443.534	25110.83
443.741	24525.11
443.948	23990.59
444.154	25790.75
444.361	25508.13
444.568	25973.02
444.774	25760.03
444.981	26261.79
445.187	26726.67
445.394	28141.82
445.6	27558.15
445.807	30419.16
446.013	28911.86
446.22	29724.9
446.426	30628.06
446.633	30900.44
446.839	31908.04
447.046	30566.62
447.252	32268.48
447.459	32374.97
447.665	32100.54
447.871	33783.98
448.078	34912.41
448.284	33118.39
448.491	34199.71
448.697	35465.36
448.903	36497.53
449.11	36311.17
449.316	35713.16
449.522	36194.43
449.728	37453.94
449.935	37107.83
450.141	37470.32
450.347	38453.34
450.553	37437.55
450.76	37726.31
450.966	39254.1
451.172	38695
451.378	39612.49
451.584	38303.84
451.791	39802.96
451.997	39522.38
452.203	39856.2
452.409	40192.07
452.615	39805
452.821	38387.81
453.027	38195.3
453.233	40140.87
453.44	38662.24
453.646	39170.13
453.852	39028.82
454.058	39915.59
454.264	38541.41
454.47	39792.72
454.676	38420.58
454.882	39442.51
455.088	36735.1
455.294	36952.18
455.5	37421.17
455.705	37916.78
455.911	36253.83
456.117	36098.18
456.323	35543.18
456.529	33573.03
456.735	34687.13
456.941	34457.76
457.147	33601.71
457.352	32774.33
457.558	32309.44
457.764	32671.93
457.97	31801.54
458.176	30943.44
458.381	31033.55
458.587	29817.06
458.793	29884.64
458.999	27908.35
459.204	30320.86
459.41	29178.09
459.616	27484.42
459.821	27664.64
460.027	27320.59
460.233	26589.46
460.438	25497.89
460.644	25878.82
460.85	24535.35
461.055	24064.32
461.261	24092.99
461.466	22612.31
461.672	21752.16
461.878	23462.21
462.083	21662.05
462.289	21305.7
462.494	21029.23
462.7	20244.85
462.905	19577.22
463.111	20347.25
463.316	20760.94
463.522	19880.32
463.727	19876.22
463.932	19820.92
464.138	19751.29
464.343	19675.52
464.549	19108.23
464.754	20040.06
464.959	19833.21
465.165	19538.3
465.37	18798.99
465.575	18098.58
465.781	19112.33
465.986	19063.18
466.191	18375.06
466.397	17944.98
466.602	17232.29
466.807	18037.14
467.012	17869.21
467.218	17703.32
