Data from USB4F104151__149__14-19-24-609.txt Node

Date: Thu Mar 13 14:19:24 EDT 2025
User: louis
Spectrometer: USB4F10415
Trigger mode: 4
Integration Time (sec): 2.000000E-2
Scans to average: 1
Electric dark correction enabled: true
Nonlinearity correction enabled: false
Boxcar width: 0
XAxis mode: Wavelengths
Number of Pixels in Spectrum: 3648
>>>>>Begin Spectral Data<<<<<
178.204	-166.06
178.424	-166.06
178.644	-166.06
178.864	-110.76
179.084	-28.84
179.304	10.07
179.524	3.93
179.744	44.88
179.964	-43.18
180.184	-18.6
180.404	36.69
180.624	-34.99
180.844	40.79
181.064	-24.75
181.283	-20.65
181.503	-30.89
181.723	36.69
181.943	-16.55
182.163	32.6
182.383	36.69
182.602	67.41
182.822	5.97
183.042	1.88
183.262	85.84
183.482	36.69
183.701	22.36
183.921	81.75
184.141	94.04
184.361	61.27
184.58	53.08
184.8	-16.55
185.02	24.4
185.239	40.79
185.459	94.04
185.679	77.65
185.898	51.03
186.118	73.56
186.338	-57.51
186.557	40.79
186.777	10.07
186.997	12.12
187.216	38.74
187.436	85.84
187.655	36.69
187.875	8.02
188.095	28.5
188.314	48.98
188.534	61.27
188.753	-4.27
188.973	32.6
189.192	63.32
189.412	-0.17
189.631	40.79
189.851	14.17
190.07	102.23
190.29	65.36
190.509	1.88
190.729	44.88
190.948	3.93
191.168	126.8
191.387	114.52
191.607	-69.8
191.826	53.08
192.045	30.55
192.265	44.88
192.484	55.12
192.704	104.28
192.923	-20.65
193.142	139.09
193.362	61.27
193.581	63.32
193.8	44.88
194.02	-10.41
194.239	-4.27
194.458	22.36
194.678	22.36
194.897	81.75
195.116	12.12
195.335	55.12
195.555	38.74
195.774	61.27
195.993	57.17
196.212	63.32
196.432	61.27
196.651	63.32
196.87	-2.22
197.089	24.4
197.308	73.56
197.528	-2.22
197.747	-53.42
197.966	26.45
198.185	104.28
198.404	-2.22
198.623	10.07
198.842	36.69
199.062	87.89
199.281	-28.84
199.5	1.88
199.719	8.02
199.938	81.75
200.157	-6.31
200.376	44.88
200.595	143.19
200.814	57.17
201.033	46.93
201.252	91.99
201.471	91.99
201.69	87.89
201.909	28.5
202.128	22.36
202.347	8.02
202.566	69.46
202.785	-34.99
203.004	-0.17
203.223	61.27
203.442	53.08
203.661	104.28
203.879	69.46
204.098	75.6
204.317	-18.6
204.536	79.7
204.755	-32.94
204.974	69.46
205.193	28.5
205.411	96.08
205.63	32.6
205.849	-12.46
206.068	65.36
206.287	30.55
206.505	77.65
206.724	36.69
206.943	10.07
207.162	30.55
207.381	87.89
207.599	89.94
207.818	65.36
208.037	16.21
208.255	87.89
208.474	3.93
208.693	18.26
208.911	79.7
209.13	20.31
209.349	26.45
209.567	26.45
209.786	24.4
210.005	61.27
210.223	-2.22
210.442	5.97
210.661	20.31
210.879	22.36
211.098	36.69
211.316	67.41
211.535	57.17
211.753	-24.75
211.972	-8.36
212.191	3.93
212.409	5.97
212.628	57.17
212.846	10.07
213.065	63.32
213.283	143.19
213.502	-32.94
213.72	36.69
213.938	69.46
214.157	42.84
214.375	-4.27
214.594	18.26
214.812	16.21
215.031	85.84
215.249	28.5
215.467	69.46
215.686	-2.22
215.904	53.08
216.122	69.46
216.341	69.46
216.559	-24.75
216.778	79.7
216.996	55.12
217.214	65.36
217.432	71.51
217.651	46.93
217.869	12.12
218.087	102.23
218.306	65.36
218.524	-30.89
218.742	32.6
218.96	98.13
219.179	28.5
219.397	-0.17
219.615	106.32
219.833	-24.75
220.051	20.31
220.27	34.64
220.488	38.74
220.706	24.4
220.924	83.8
221.142	63.32
221.36	55.12
221.578	3.93
221.796	57.17
222.015	81.75
222.233	10.07
222.451	65.36
222.669	12.12
222.887	57.17
223.105	28.5
223.323	5.97
223.541	51.03
223.759	85.84
223.977	22.36
224.195	67.41
224.413	116.56
224.631	-0.17
224.849	12.12
225.067	67.41
225.285	-37.03
225.503	53.08
225.721	-8.36
225.939	102.23
226.157	22.36
226.375	112.47
226.592	36.69
226.81	81.75
227.028	65.36
227.246	22.36
227.464	20.31
227.682	85.84
227.9	24.4
228.117	-41.13
228.335	-20.65
228.553	89.94
228.771	94.04
228.989	24.4
229.206	69.46
229.424	-26.79
229.642	12.12
229.86	8.02
230.077	32.6
230.295	-47.27
230.513	94.04
230.731	3.93
230.948	57.17
231.166	65.36
231.384	-43.18
231.601	38.74
231.819	83.8
232.037	40.79
232.254	12.12
232.472	22.36
232.689	143.19
232.907	159.57
233.125	14.17
233.342	73.56
233.56	-39.08
233.777	12.12
233.995	-0.17
234.213	69.46
234.43	51.03
234.648	44.88
234.865	36.69
235.083	-45.23
235.3	32.6
235.518	24.4
235.735	100.18
235.953	118.61
236.17	-28.84
236.388	59.22
236.605	102.23
236.822	98.13
237.04	79.7
237.257	46.93
237.475	-16.55
237.692	-10.41
237.909	10.07
238.127	20.31
238.344	30.55
238.562	32.6
238.779	38.74
238.996	12.12
239.214	-4.27
239.431	28.5
239.648	-10.41
239.865	53.08
240.083	28.5
240.3	10.07
240.517	8.02
240.735	12.12
240.952	63.32
241.169	104.28
241.386	57.17
241.603	36.69
241.821	12.12
242.038	102.23
242.255	44.88
242.472	3.93
242.689	63.32
242.907	63.32
243.124	44.88
243.341	79.7
243.558	46.93
243.775	-8.36
243.992	-4.27
244.209	-0.17
244.426	67.41
244.643	28.5
244.86	32.6
245.078	83.8
245.295	102.23
245.512	46.93
245.729	5.97
245.946	63.32
246.163	-10.41
246.38	-24.75
246.597	14.17
246.814	55.12
247.031	75.6
247.248	53.08
247.464	-20.65
247.681	110.42
247.898	48.98
248.115	32.6
248.332	18.26
248.549	94.04
248.766	34.64
248.983	63.32
249.2	-10.41
249.417	89.94
249.633	20.31
249.85	87.89
250.067	20.31
250.284	48.98
250.501	28.5
250.717	120.66
250.934	-34.99
251.151	42.84
251.368	8.02
251.585	65.36
251.801	-39.08
252.018	-34.99
252.235	26.45
252.451	24.4
252.668	22.36
252.885	22.36
253.102	-32.94
253.318	61.27
253.535	-24.75
253.752	81.75
253.968	51.03
254.185	16.21
254.401	-10.41
254.618	65.36
254.835	108.37
255.051	61.27
255.268	40.79
255.484	63.32
255.701	63.32
255.917	-37.03
256.134	28.5
256.351	122.71
256.567	38.74
256.784	28.5
257	-34.99
257.217	81.75
257.433	8.02
257.65	32.6
257.866	67.41
258.082	12.12
258.299	32.6
258.515	-14.51
258.732	-10.41
258.948	-0.17
259.165	-4.27
259.381	20.31
259.597	102.23
259.814	-26.79
260.03	-43.18
260.246	-10.41
260.463	22.36
260.679	5.97
260.895	12.12
261.112	-4.27
261.328	61.27
261.544	79.7
261.761	114.52
261.977	63.32
262.193	-45.23
262.409	28.5
262.626	22.36
262.842	-16.55
263.058	-45.23
263.274	38.74
263.49	63.32
263.707	85.84
263.923	10.07
264.139	-37.03
264.355	32.6
264.571	94.04
264.787	46.93
265.004	98.13
265.22	-12.46
265.436	-20.65
265.652	53.08
265.868	1.88
266.084	-8.36
266.3	65.36
266.516	22.36
266.732	79.7
266.948	16.21
267.164	-43.18
267.38	71.51
267.596	10.07
267.812	24.4
268.028	77.65
268.244	8.02
268.46	30.55
268.676	122.71
268.892	69.46
269.108	-12.46
269.324	-2.22
269.54	36.69
269.756	28.5
269.972	-12.46
270.188	-16.55
270.403	-20.65
270.619	46.93
270.835	28.5
271.051	71.51
271.267	38.74
271.483	116.56
271.698	81.75
271.914	83.8
272.13	-20.65
272.346	3.93
272.562	-28.84
272.777	63.32
272.993	-37.03
273.209	81.75
273.425	87.89
273.64	16.21
273.856	20.31
274.072	22.36
274.287	-4.27
274.503	83.8
274.719	-4.27
274.934	57.17
275.15	-32.94
275.366	61.27
275.581	38.74
275.797	20.31
276.012	14.17
276.228	-45.23
276.444	69.46
276.659	53.08
276.875	32.6
277.09	24.4
277.306	-14.51
277.521	44.88
277.737	36.69
277.952	-10.41
278.168	100.18
278.383	87.89
278.599	102.23
278.814	75.6
279.03	24.4
279.245	69.46
279.461	61.27
279.676	126.8
279.892	-20.65
280.107	57.17
280.322	91.99
280.538	42.84
280.753	-10.41
280.969	75.6
281.184	87.89
281.399	-41.13
281.615	77.65
281.83	73.56
282.045	32.6
282.26	40.79
282.476	20.31
282.691	63.32
282.906	77.65
283.122	98.13
283.337	48.98
283.552	44.88
283.767	20.31
283.983	55.12
284.198	12.12
284.413	12.12
284.628	3.93
284.843	44.88
285.058	46.93
285.274	102.23
285.489	71.51
285.704	69.46
285.919	26.45
286.134	5.97
286.349	79.7
286.564	46.93
286.779	96.08
286.995	12.12
287.21	-22.7
287.425	24.4
287.64	22.36
287.855	12.12
288.07	55.12
288.285	96.08
288.5	36.69
288.715	20.31
288.93	20.31
289.145	67.41
289.36	120.66
289.575	147.28
289.79	71.51
290.004	44.88
290.219	69.46
290.434	-0.17
290.649	-8.36
290.864	137.04
291.079	-26.79
291.294	77.65
291.509	53.08
291.724	5.97
291.938	12.12
292.153	36.69
292.368	-8.36
292.583	30.55
292.798	91.99
293.012	-30.89
293.227	32.6
293.442	-49.32
293.657	114.52
293.871	94.04
294.086	36.69
294.301	89.94
294.516	-6.31
294.73	120.66
294.945	-16.55
295.16	48.98
295.374	55.12
295.589	81.75
295.804	48.98
296.018	3.93
296.233	55.12
296.447	98.13
296.662	30.55
296.877	151.38
297.091	46.93
297.306	44.88
297.52	53.08
297.735	104.28
297.949	55.12
298.164	61.27
298.378	69.46
298.593	22.36
298.807	-0.17
299.022	30.55
299.236	104.28
299.451	69.46
299.665	65.36
299.88	-4.27
300.094	26.45
300.309	102.23
300.523	-6.31
300.737	44.88
300.952	63.32
301.166	89.94
301.381	-28.84
301.595	-8.36
301.809	22.36
302.024	53.08
302.238	-24.75
302.452	73.56
302.667	63.32
302.881	77.65
303.095	55.12
303.309	57.17
303.524	20.31
303.738	40.79
303.952	-77.99
304.166	77.65
304.381	40.79
304.595	44.88
304.809	32.6
305.023	75.6
305.237	61.27
305.452	36.69
305.666	69.46
305.88	22.36
306.094	89.94
306.308	73.56
306.522	44.88
306.736	94.04
306.95	48.98
307.164	79.7
307.379	42.84
307.593	120.66
307.807	61.27
308.021	71.51
308.235	77.65
308.449	30.55
308.663	65.36
308.877	48.98
309.091	44.88
309.305	98.13
309.519	61.27
309.733	128.85
309.947	-55.47
310.161	102.23
310.374	22.36
310.588	53.08
310.802	83.8
311.016	38.74
311.23	59.22
311.444	30.55
311.658	1.88
311.872	-37.03
312.085	98.13
312.299	46.93
312.513	118.61
312.727	57.17
312.941	53.08
313.154	32.6
313.368	48.98
313.582	120.66
313.796	24.4
314.009	94.04
314.223	5.97
314.437	44.88
314.651	-8.36
314.864	28.5
315.078	48.98
315.292	14.17
315.505	12.12
315.719	46.93
315.933	28.5
316.146	14.17
316.36	40.79
316.573	139.09
316.787	94.04
317.001	-12.46
317.214	-20.65
317.428	55.12
317.641	96.08
317.855	12.12
318.068	24.4
318.282	38.74
318.495	51.03
318.709	20.31
318.922	-8.36
319.136	102.23
319.349	55.12
319.563	32.6
319.776	51.03
319.99	22.36
320.203	135
320.417	71.51
320.63	61.27
320.843	77.65
321.057	40.79
321.27	69.46
321.483	65.36
321.697	-0.17
321.91	18.26
322.124	44.88
322.337	59.22
322.55	53.08
322.763	53.08
322.977	55.12
323.19	28.5
323.403	77.65
323.617	-41.13
323.83	61.27
324.043	46.93
324.256	28.5
324.469	65.36
324.683	87.89
324.896	18.26
325.109	73.56
325.322	-8.36
325.535	102.23
325.748	-16.55
325.962	104.28
326.175	110.42
326.388	-24.75
326.601	81.75
326.814	44.88
327.027	53.08
327.24	104.28
327.453	102.23
327.666	61.27
327.879	24.4
328.092	38.74
328.305	3.93
328.518	83.8
328.731	-12.46
328.944	85.84
329.157	61.27
329.37	-4.27
329.583	73.56
329.796	139.09
330.009	1.88
330.222	51.03
330.435	28.5
330.648	22.36
330.861	69.46
331.073	24.4
331.286	53.08
331.499	-4.27
331.712	53.08
331.925	20.31
332.138	14.17
332.35	149.33
332.563	22.36
332.776	44.88
332.989	-53.42
333.202	-4.27
333.414	16.21
333.627	8.02
333.84	73.56
334.053	63.32
334.265	38.74
334.478	20.31
334.691	55.12
334.903	51.03
335.116	26.45
335.329	42.84
335.541	48.98
335.754	96.08
335.966	40.79
336.179	20.31
336.392	26.45
336.604	20.31
336.817	44.88
337.029	53.08
337.242	20.31
337.454	34.64
337.667	65.36
337.88	135
338.092	42.84
338.305	77.65
338.517	55.12
338.729	16.21
338.942	89.94
339.154	69.46
339.367	12.12
339.579	38.74
339.792	-49.32
340.004	85.84
340.217	85.84
340.429	132.95
340.641	48.98
340.854	-41.13
341.066	16.21
341.278	96.08
341.491	79.7
341.703	12.12
341.915	16.21
342.128	26.45
342.34	63.32
342.552	22.36
342.764	28.5
342.977	69.46
343.189	137.04
343.401	94.04
343.613	-0.17
343.826	36.69
344.038	48.98
344.25	28.5
344.462	79.7
344.674	44.88
344.886	73.56
345.099	36.69
345.311	36.69
345.523	-14.51
345.735	20.31
345.947	16.21
346.159	73.56
346.371	22.36
346.583	8.02
346.795	44.88
347.007	24.4
347.219	46.93
347.431	53.08
347.643	102.23
347.855	-32.94
348.067	96.08
348.279	8.02
348.491	63.32
348.703	12.12
348.915	-94.38
349.127	81.75
349.339	85.84
349.551	3.93
349.763	79.7
349.975	3.93
350.187	77.65
350.399	126.8
350.61	26.45
350.822	20.31
351.034	77.65
351.246	28.5
351.458	63.32
351.669	-2.22
351.881	63.32
352.093	75.6
352.305	77.65
352.517	59.22
352.728	135
352.94	3.93
353.152	71.51
353.363	3.93
353.575	28.5
353.787	57.17
353.999	69.46
354.21	100.18
354.422	14.17
354.633	28.5
354.845	38.74
355.057	71.51
355.268	28.5
355.48	73.56
355.692	5.97
355.903	24.4
356.115	-2.22
356.326	-8.36
356.538	135
356.749	8.02
356.961	126.8
357.172	63.32
357.384	46.93
357.595	71.51
357.807	36.69
358.018	22.36
358.23	89.94
358.441	112.47
358.653	-8.36
358.864	-2.22
359.075	16.21
359.287	36.69
359.498	139.09
359.709	63.32
359.921	61.27
360.132	-0.17
360.344	94.04
360.555	-49.32
360.766	53.08
360.977	12.12
361.189	16.21
361.4	75.6
361.611	24.4
361.823	110.42
362.034	65.36
362.245	-14.51
362.456	-16.55
362.667	40.79
362.879	10.07
363.09	5.97
363.301	48.98
363.512	79.7
363.723	69.46
363.935	-6.31
364.146	63.32
364.357	91.99
364.568	112.47
364.779	30.55
364.99	104.28
365.201	-43.18
365.412	28.5
365.623	48.98
365.834	98.13
366.045	163.67
366.256	69.46
366.467	38.74
366.678	59.22
366.889	3.93
367.1	48.98
367.311	16.21
367.522	20.31
367.733	81.75
367.944	198.48
368.155	-4.27
368.366	44.88
368.577	3.93
368.788	73.56
368.999	16.21
369.209	51.03
369.42	-10.41
369.631	122.71
369.842	-0.17
370.053	51.03
370.264	67.41
370.474	18.26
370.685	96.08
370.896	5.97
371.107	81.75
371.317	87.89
371.528	28.5
371.739	77.65
371.95	75.6
372.16	48.98
372.371	71.51
372.582	53.08
372.792	40.79
373.003	61.27
373.214	-10.41
373.424	28.5
373.635	75.6
373.846	139.09
374.056	77.65
374.267	36.69
374.477	-0.17
374.688	12.12
374.898	34.64
375.109	102.23
375.319	61.27
375.53	38.74
375.74	38.74
375.951	40.79
376.161	-4.27
376.372	163.67
376.582	12.12
376.793	94.04
377.003	-12.46
377.214	110.42
377.424	106.32
377.635	106.32
377.845	85.84
378.055	36.69
378.266	28.5
378.476	91.99
378.686	30.55
378.897	-12.46
379.107	87.89
379.317	104.28
379.528	75.6
379.738	118.61
379.948	3.93
380.158	91.99
380.369	5.97
380.579	69.46
380.789	38.74
380.999	36.69
381.21	69.46
381.42	118.61
381.63	22.36
381.84	53.08
382.05	46.93
382.261	96.08
382.471	110.42
382.681	87.89
382.891	110.42
383.101	83.8
383.311	12.12
383.521	30.55
383.731	28.5
383.941	85.84
384.151	143.19
384.361	55.12
384.571	96.08
384.781	79.7
384.991	40.79
385.201	118.61
385.411	-0.17
385.621	139.09
385.831	75.6
386.041	12.12
386.251	38.74
386.461	57.17
386.671	94.04
386.881	65.36
387.091	28.5
387.301	98.13
387.511	5.97
387.72	147.28
387.93	83.8
388.14	63.32
388.35	87.89
388.56	94.04
388.769	89.94
388.979	135
389.189	77.65
389.399	69.46
389.609	53.08
389.818	135
390.028	57.17
390.238	122.71
390.447	26.45
390.657	65.36
390.867	69.46
391.076	18.26
391.286	155.47
391.496	135
391.705	-26.79
391.915	89.94
392.125	71.51
392.334	63.32
392.544	110.42
392.753	53.08
392.963	98.13
393.172	112.47
393.382	28.5
393.591	79.7
393.801	130.9
394.01	67.41
394.22	124.76
394.429	108.37
394.639	71.51
394.848	42.84
395.058	53.08
395.267	71.51
395.477	132.95
395.686	-10.41
395.895	83.8
396.105	171.86
396.314	89.94
396.524	126.8
396.733	53.08
396.942	130.9
397.152	79.7
397.361	151.38
397.57	110.42
397.78	48.98
397.989	137.04
398.198	184.15
398.407	61.27
398.617	71.51
398.826	46.93
399.035	81.75
399.244	118.61
399.453	112.47
399.663	167.76
399.872	135
400.081	94.04
400.29	212.82
400.499	55.12
400.708	94.04
400.917	126.8
401.127	57.17
401.336	135
401.545	151.38
401.754	147.28
401.963	128.85
402.172	143.19
402.381	75.6
402.59	200.53
402.799	137.04
403.008	98.13
403.217	106.32
403.426	135
403.635	130.9
403.844	169.81
404.053	210.77
404.262	157.52
404.471	194.39
404.68	184.15
404.888	110.42
405.097	65.36
405.306	178
405.515	239.44
405.724	128.85
405.933	143.19
406.142	202.58
406.35	253.78
406.559	233.3
406.768	188.24
406.977	225.11
407.185	175.95
407.394	188.24
407.603	202.58
407.812	247.63
408.02	245.59
408.229	259.92
408.438	264.02
408.646	268.11
408.855	249.68
409.064	315.22
409.272	257.87
409.481	325.46
409.69	286.54
409.898	227.15
410.107	315.22
410.315	325.46
410.524	311.12
410.733	380.75
410.941	315.22
411.15	415.57
411.358	350.03
411.567	446.29
411.775	405.33
411.984	481.1
412.192	513.87
412.401	499.53
412.609	505.68
412.818	491.34
413.026	520.01
413.234	540.49
413.443	446.29
413.651	583.5
413.86	577.36
414.068	644.94
414.276	585.55
414.485	636.75
414.693	741.19
414.901	763.72
415.11	771.91
415.318	757.58
415.526	761.67
415.734	714.57
415.943	886.6
416.151	765.77
416.359	864.07
416.567	808.78
416.776	880.46
416.984	927.56
417.192	989
417.4	1050.44
417.608	1044.29
417.817	1089.35
418.025	1122.12
418.233	1177.41
418.441	1199.94
418.649	1283.91
418.857	1290.05
419.065	1343.3
419.273	1333.06
419.481	1419.07
419.689	1472.32
419.897	1564.48
420.105	1638.2
420.313	1593.15
420.521	1668.92
420.729	1793.85
420.937	1666.88
421.145	1810.23
421.353	1832.76
421.561	1990.45
421.769	2017.08
421.977	2068.28
422.185	2096.95
422.393	2279.22
422.601	2436.91
422.809	2346.8
423.017	2408.24
423.224	2469.68
423.432	2588.46
423.64	2455.34
423.848	2758.44
424.056	2723.63
424.263	2936.62
424.471	2912.04
424.679	2989.86
424.887	3075.88
425.094	3243.81
425.302	3211.04
425.51	3475.23
425.718	3512.1
425.925	3567.39
426.133	3665.69
426.341	3827.48
426.548	4013.85
426.756	4032.28
426.964	4026.14
427.171	4357.91
427.379	4341.52
427.586	4488.98
427.794	4624.14
428.001	4894.47
428.209	5129.99
428.417	5031.69
428.624	5381.89
428.832	5267.2
429.039	5295.88
429.247	5156.61
429.454	5832.44
429.662	6229.75
429.869	5750.53
430.076	6196.98
430.284	5955.32
430.491	6330.1
430.699	6532.85
430.906	6504.18
431.114	6786.8
431.321	6821.61
431.528	7075.56
431.736	7530.21
431.943	7735.01
432.15	7587.55
432.358	7790.3
432.565	8068.83
432.772	8163.03
432.979	8572.63
433.187	8515.28
433.394	8634.07
433.601	9256.65
433.808	9277.13
434.016	9207.5
434.223	9443.01
434.43	10227.39
434.637	9868.99
434.844	10679.99
435.052	10677.94
435.259	10802.86
435.466	10700.47
435.673	10833.58
435.88	11392.68
436.087	12164.76
436.294	11818.66
436.501	11837.09
436.708	12068.51
436.915	12283.55
437.122	13053.58
437.329	12963.47
437.537	13393.54
437.743	13446.79
437.95	13311.63
438.157	14237.31
438.364	14610.04
438.571	14341.75
438.778	14491.26
438.985	15937.12
439.192	15210.09
439.399	15640.17
439.606	15433.32
439.813	16186.97
440.02	17116.75
440.227	17083.98
440.433	16543.32
440.64	17174.1
440.847	16981.59
441.054	17645.13
441.261	18853.43
441.467	18533.95
441.674	18914.87
441.881	19863.08
442.088	19340.85
442.294	19387.95
442.501	19891.75
442.708	20313.63
442.914	21218.83
443.121	22001.16
443.328	21124.63
443.534	22726.14
443.741	22089.22
443.948	21952.01
444.154	23178.74
444.361	23274.99
444.568	23381.49
444.774	23186.93
444.981	23791.08
445.187	24561.12
445.394	25327.06
445.6	24905.18
445.807	27395.51
446.013	26219.97
446.22	26791.36
446.426	27628.98
446.633	27758
446.839	29080.99
447.046	27577.78
447.252	29095.32
447.459	29095.32
447.665	29019.55
447.871	30252.42
448.078	31749.49
448.284	30154.12
448.491	30696.83
448.697	32228.71
448.903	32845.15
449.11	33103.2
449.316	32347.5
449.522	32980.32
449.728	33619.28
449.935	33830.23
450.141	34188.62
450.347	34925.89
450.553	33860.94
450.76	34108.75
450.966	35396.92
451.172	34768.19
451.378	35538.23
451.584	35302.71
451.791	35450.17
451.997	35833.14
452.203	36855.07
452.409	36363.56
452.615	36152.62
452.821	34731.33
453.027	34575.69
453.233	36574.5
453.44	34940.22
453.646	35099.97
453.852	35294.52
454.058	35878.19
454.264	34907.46
454.47	35814.71
454.676	34755.91
454.882	36162.86
455.088	33043.81
455.294	33365.34
455.5	34180.43
455.705	34331.98
455.911	32920.93
456.117	32537.96
456.323	31675.76
456.529	30039.43
456.735	31329.66
456.941	30731.65
457.147	30002.57
457.352	29668.75
457.558	29138.33
457.764	28872.09
457.97	28480.93
458.176	28249.51
458.381	28104.1
458.587	26785.21
458.793	26625.47
458.999	25404.88
459.204	27157.94
459.41	26394.05
459.616	24321.51
459.821	24393.19
460.027	24485.34
460.233	23985.64
460.438	22695.42
460.644	23268.85
460.85	22130.18
461.055	21552.65
461.261	21548.56
461.466	20291.1
461.672	19260.98
461.878	21048.85
462.083	19330.61
462.289	19033.65
462.494	18988.6
462.7	17864.26
462.905	17405.52
463.111	18286.14
463.316	18210.37
463.522	17952.32
463.727	17722.95
463.932	17849.92
464.138	17524.3
464.343	17780.29
464.549	17165.9
464.754	17903.17
464.959	17684.04
465.165	17432.14
465.37	16877.14
465.575	16404.06
465.781	16883.28
465.986	16961.11
466.191	16367.2
466.397	16082.53
466.602	15423.08
466.807	15980.13
467.012	15752.8
467.218	15924.83
467.423	15597.16
467.628	15750.76
