Data from USB4F104151__272__14-23-15-547.txt Node

Date: Thu Mar 13 14:23:15 EDT 2025
User: louis
Spectrometer: USB4F10415
Trigger mode: 4
Integration Time (sec): 2.000000E-2
Scans to average: 1
Electric dark correction enabled: true
Nonlinearity correction enabled: false
Boxcar width: 0
XAxis mode: Wavelengths
Number of Pixels in Spectrum: 3648
>>>>>Begin Spectral Data<<<<<
178.204	-156.84
178.424	-156.84
178.644	-156.84
178.864	-101.55
179.084	-124.07
179.304	0.85
179.524	54.1
179.744	-27.82
179.964	62.29
180.184	-58.54
180.404	-11.43
180.624	-9.39
180.844	-13.48
181.064	-33.96
181.283	64.34
181.503	-66.73
181.723	39.76
181.943	-15.53
182.163	21.33
182.383	-38.06
182.602	70.48
182.822	47.96
183.042	90.96
183.262	9.05
183.482	47.96
183.701	43.86
183.921	50
184.141	2.9
184.361	86.87
184.58	-19.63
184.8	37.72
185.02	-17.58
185.239	74.58
185.459	-58.54
185.679	41.81
185.898	-1.19
186.118	25.43
186.338	70.48
186.557	19.29
186.777	15.19
186.997	15.19
187.216	21.33
187.436	72.53
187.655	64.34
187.875	64.34
188.095	17.24
188.314	84.82
188.534	15.19
188.753	-1.19
188.973	13.14
189.192	37.72
189.412	-3.24
189.631	4.95
189.851	-42.15
190.07	-31.91
190.29	-58.54
190.509	-11.43
190.729	21.33
190.948	31.57
191.168	127.83
191.387	35.67
191.607	15.19
191.826	37.72
192.045	41.81
192.265	-17.58
192.484	-11.43
192.704	31.57
192.923	-3.24
193.142	121.68
193.362	68.44
193.581	-19.63
193.8	88.92
194.02	25.43
194.239	29.52
194.458	-27.82
194.678	50
194.897	-36.01
195.116	-7.34
195.335	41.81
195.555	70.48
195.774	4.95
195.993	50
196.212	60.24
196.432	-64.68
196.651	50
196.87	90.96
197.089	80.72
197.308	7
197.528	41.81
197.747	9.05
197.966	62.29
198.185	74.58
198.404	29.52
198.623	72.53
198.842	62.29
199.062	58.2
199.281	7
199.5	15.19
199.719	-19.63
199.938	-13.48
200.157	97.11
200.376	123.73
200.595	58.2
200.814	33.62
201.033	15.19
201.252	29.52
201.471	72.53
201.69	-11.43
201.909	78.68
202.128	7
202.347	41.81
202.566	29.52
202.785	25.43
203.004	37.72
203.223	60.24
203.442	39.76
203.661	-23.72
203.879	-29.87
204.098	127.83
204.317	25.43
204.536	76.63
204.755	0.85
204.974	47.96
205.193	45.91
205.411	121.68
205.63	56.15
205.849	21.33
206.068	0.85
206.287	54.1
206.505	64.34
206.724	25.43
206.943	37.72
207.162	29.52
207.381	21.33
207.599	21.33
207.818	39.76
208.037	-13.48
208.255	23.38
208.474	-27.82
208.693	4.95
208.911	23.38
209.13	-7.34
209.349	-3.24
209.567	47.96
209.786	54.1
210.005	0.85
210.223	103.25
210.442	23.38
210.661	-33.96
210.879	60.24
211.098	29.52
211.316	93.01
211.535	60.24
211.753	54.1
211.972	68.44
212.191	29.52
212.409	-27.82
212.628	27.48
212.846	23.38
213.065	-17.58
213.283	86.87
213.502	9.05
213.72	50
213.938	4.95
214.157	60.24
214.375	-68.78
214.594	9.05
214.812	11.09
215.031	-1.19
215.249	15.19
215.467	54.1
215.686	27.48
215.904	31.57
216.122	-40.11
216.341	17.24
216.559	4.95
216.778	90.96
216.996	39.76
217.214	29.52
217.432	15.19
217.651	-19.63
217.869	31.57
218.087	70.48
218.306	66.39
218.524	-11.43
218.742	4.95
218.96	80.72
219.179	62.29
219.397	119.64
219.615	37.72
219.833	45.91
220.051	-1.19
220.27	86.87
220.488	58.2
220.706	97.11
220.924	7
221.142	-19.63
221.36	0.85
221.578	74.58
221.796	17.24
222.015	-27.82
222.233	0.85
222.451	15.19
222.669	-11.43
222.887	52.05
223.105	74.58
223.323	66.39
223.541	-3.24
223.759	29.52
223.977	27.48
224.195	90.96
224.413	90.96
224.631	15.19
224.849	62.29
225.067	86.87
225.285	9.05
225.503	-23.72
225.721	7
225.939	-1.19
226.157	66.39
226.375	80.72
226.592	-68.78
226.81	11.09
227.028	56.15
227.246	31.57
227.464	74.58
227.682	37.72
227.9	72.53
228.117	39.76
228.335	33.62
228.553	29.52
228.771	58.2
228.989	50
229.206	39.76
229.424	29.52
229.642	-11.43
229.86	43.86
230.077	47.96
230.295	21.33
230.513	70.48
230.731	7
230.948	64.34
231.166	82.77
231.384	74.58
231.601	-17.58
231.819	119.64
232.037	17.24
232.254	27.48
232.472	37.72
232.689	62.29
232.907	41.81
233.125	-58.54
233.342	41.81
233.56	-27.82
233.777	17.24
233.995	31.57
234.213	64.34
234.43	70.48
234.648	-19.63
234.865	15.19
235.083	50
235.3	-1.19
235.518	62.29
235.735	-25.77
235.953	95.06
236.17	105.3
236.388	17.24
236.605	-5.29
236.822	62.29
237.04	27.48
237.257	-23.72
237.475	37.72
237.692	52.05
237.909	82.77
238.127	-3.24
238.344	-19.63
238.562	70.48
238.779	-46.25
238.996	-25.77
239.214	54.1
239.431	23.38
239.648	4.95
239.865	9.05
240.083	70.48
240.3	78.68
240.517	19.29
240.735	11.09
240.952	-19.63
241.169	103.25
241.386	39.76
241.603	29.52
241.821	17.24
242.038	21.33
242.255	19.29
242.472	0.85
242.689	33.62
242.907	43.86
243.124	-17.58
243.341	58.2
243.558	0.85
243.775	29.52
243.992	-50.35
244.209	41.81
244.426	64.34
244.643	68.44
244.86	-3.24
245.078	33.62
245.295	-64.68
245.512	25.43
245.729	15.19
245.946	54.1
246.163	27.48
246.38	82.77
246.597	4.95
246.814	-9.39
247.031	-29.87
247.248	13.14
247.464	54.1
247.681	56.15
247.898	37.72
248.115	33.62
248.332	-1.19
248.549	64.34
248.766	95.06
248.983	37.72
249.2	-11.43
249.417	-9.39
249.633	33.62
249.85	21.33
250.067	-1.19
250.284	-13.48
250.501	37.72
250.717	54.1
250.934	-11.43
251.151	9.05
251.368	41.81
251.585	56.15
251.801	-25.77
252.018	-68.78
252.235	86.87
252.451	-3.24
252.668	-17.58
252.885	72.53
253.102	64.34
253.318	88.92
253.535	-19.63
253.752	23.38
253.968	70.48
254.185	-46.25
254.401	4.95
254.618	15.19
254.835	62.29
255.051	86.87
255.268	-68.78
255.484	-44.2
255.701	-29.87
255.917	62.29
256.134	66.39
256.351	-11.43
256.567	13.14
256.784	2.9
257	-27.82
257.217	62.29
257.433	-7.34
257.65	4.95
257.866	93.01
258.082	9.05
258.299	13.14
258.515	37.72
258.732	70.48
258.948	-3.24
259.165	50
259.381	13.14
259.597	29.52
259.814	-9.39
260.03	0.85
260.246	56.15
260.463	-9.39
260.679	33.62
260.895	31.57
261.112	0.85
261.328	-15.53
261.544	7
261.761	-9.39
261.977	21.33
262.193	-17.58
262.409	45.91
262.626	43.86
262.842	90.96
263.058	0.85
263.274	70.48
263.49	4.95
263.707	113.49
263.923	31.57
264.139	-56.49
264.355	45.91
264.571	23.38
264.787	39.76
265.004	27.48
265.22	54.1
265.436	0.85
265.652	4.95
265.868	0.85
266.084	27.48
266.3	66.39
266.516	-13.48
266.732	25.43
266.948	-27.82
267.164	13.14
267.38	56.15
267.596	29.52
267.812	31.57
268.028	54.1
268.244	-31.91
268.46	80.72
268.676	0.85
268.892	31.57
269.108	25.43
269.324	17.24
269.54	39.76
269.756	4.95
269.972	-52.39
270.188	27.48
270.403	29.52
270.619	72.53
270.835	80.72
271.051	50
271.267	-3.24
271.483	-25.77
271.698	23.38
271.914	95.06
272.13	35.67
272.346	43.86
272.562	11.09
272.777	39.76
272.993	50
273.209	-40.11
273.425	78.68
273.64	-64.68
273.856	-9.39
274.072	-3.24
274.287	-9.39
274.503	86.87
274.719	74.58
274.934	-48.3
275.15	-17.58
275.366	58.2
275.581	-7.34
275.797	27.48
276.012	15.19
276.228	39.76
276.444	-11.43
276.659	78.68
276.875	19.29
277.09	37.72
277.306	-7.34
277.521	17.24
277.737	37.72
277.952	21.33
278.168	76.63
278.383	27.48
278.599	13.14
278.814	41.81
279.03	-19.63
279.245	17.24
279.461	-27.82
279.676	-11.43
279.892	45.91
280.107	-3.24
280.322	-31.91
280.538	31.57
280.753	-1.19
280.969	113.49
281.184	60.24
281.399	45.91
281.615	66.39
281.83	23.38
282.045	15.19
282.26	23.38
282.476	11.09
282.691	58.2
282.906	19.29
283.122	21.33
283.337	25.43
283.552	56.15
283.767	-5.29
283.983	23.38
284.198	29.52
284.413	25.43
284.628	-13.48
284.843	56.15
285.058	-54.44
285.274	9.05
285.489	-15.53
285.704	21.33
285.919	-3.24
286.134	15.19
286.349	0.85
286.564	0.85
286.779	54.1
286.995	-11.43
287.21	7
287.425	47.96
287.64	45.91
287.855	-11.43
288.07	-19.63
288.285	9.05
288.5	-23.72
288.715	54.1
288.93	-27.82
289.145	7
289.36	84.82
289.575	64.34
289.79	0.85
290.004	33.62
290.219	2.9
290.434	17.24
290.649	2.9
290.864	-40.11
291.079	58.2
291.294	-33.96
291.509	54.1
291.724	50
291.938	23.38
292.153	25.43
292.368	-58.54
292.583	19.29
292.798	25.43
293.012	35.67
293.227	37.72
293.442	47.96
293.657	17.24
293.871	-9.39
294.086	21.33
294.301	97.11
294.516	140.12
294.73	99.16
294.945	37.72
295.16	62.29
295.374	70.48
295.589	-5.29
295.804	2.9
296.018	56.15
296.233	37.72
296.447	39.76
296.662	-29.87
296.877	11.09
297.091	41.81
297.306	-11.43
297.52	13.14
297.735	50
297.949	-1.19
298.164	19.29
298.378	74.58
298.593	7
298.807	-13.48
299.022	31.57
299.236	52.05
299.451	23.38
299.665	-3.24
299.88	4.95
300.094	33.62
300.309	17.24
300.523	64.34
300.737	13.14
300.952	-15.53
301.166	39.76
301.381	70.48
301.595	31.57
301.809	-19.63
302.024	13.14
302.238	-11.43
302.452	-27.82
302.667	17.24
302.881	33.62
303.095	43.86
303.309	-27.82
303.524	95.06
303.738	-3.24
303.952	47.96
304.166	21.33
304.381	-25.77
304.595	70.48
304.809	21.33
305.023	27.48
305.237	-27.82
305.452	-19.63
305.666	86.87
305.88	54.1
306.094	60.24
306.308	13.14
306.522	13.14
306.736	50
306.95	7
307.164	111.44
307.379	2.9
307.593	95.06
307.807	88.92
308.021	80.72
308.235	33.62
308.449	-31.91
308.663	-52.39
308.877	133.97
309.091	25.43
309.305	45.91
309.519	4.95
309.733	29.52
309.947	-11.43
310.161	84.82
310.374	17.24
310.588	70.48
310.802	17.24
311.016	56.15
311.23	103.25
311.444	-13.48
311.658	47.96
311.872	70.48
312.085	70.48
312.299	90.96
312.513	95.06
312.727	37.72
312.941	45.91
313.154	90.96
313.368	-21.67
313.582	-66.73
313.796	21.33
314.009	58.2
314.223	45.91
314.437	15.19
314.651	7
314.864	-1.19
315.078	31.57
315.292	-5.29
315.505	-19.63
315.719	33.62
315.933	13.14
316.146	9.05
316.36	-33.96
316.573	39.76
316.787	62.29
317.001	15.19
317.214	37.72
317.428	7
317.641	-64.68
317.855	78.68
318.068	54.1
318.282	13.14
318.495	19.29
318.709	111.44
318.922	52.05
319.136	64.34
319.349	88.92
319.563	9.05
319.776	152.4
319.99	15.19
320.203	66.39
320.417	50
320.63	-33.96
320.843	58.2
321.057	78.68
321.27	15.19
321.483	33.62
321.697	111.44
321.91	45.91
322.124	45.91
322.337	37.72
322.55	-5.29
322.763	7
322.977	19.29
323.19	-23.72
323.403	39.76
323.617	103.25
323.83	37.72
324.043	47.96
324.256	27.48
324.469	-66.73
324.683	99.16
324.896	56.15
325.109	33.62
325.322	37.72
325.535	17.24
325.748	25.43
325.962	2.9
326.175	21.33
326.388	54.1
326.601	50
326.814	31.57
327.027	2.9
327.24	25.43
327.453	80.72
327.666	4.95
327.879	41.81
328.092	54.1
328.305	68.44
328.518	35.67
328.731	37.72
328.944	23.38
329.157	54.1
329.37	-11.43
329.583	131.92
329.796	74.58
330.009	15.19
330.222	50
330.435	33.62
330.648	72.53
330.861	45.91
331.073	-56.49
331.286	60.24
331.499	45.91
331.712	13.14
331.925	13.14
332.138	13.14
332.35	78.68
332.563	-1.19
332.776	13.14
332.989	13.14
333.202	7
333.414	31.57
333.627	70.48
333.84	35.67
334.053	21.33
334.265	-3.24
334.478	29.52
334.691	41.81
334.903	45.91
335.116	15.19
335.329	13.14
335.541	119.64
335.754	86.87
335.966	37.72
336.179	-13.48
336.392	82.77
336.604	50
336.817	62.29
337.029	90.96
337.242	54.1
337.454	97.11
337.667	45.91
337.88	107.35
338.092	62.29
338.305	9.05
338.517	-44.2
338.729	109.4
338.942	70.48
339.154	-31.91
339.367	-11.43
339.579	21.33
339.792	-25.77
340.004	29.52
340.217	17.24
340.429	29.52
340.641	-17.58
340.854	47.96
341.066	-58.54
341.278	78.68
341.491	60.24
341.703	50
341.915	7
342.128	9.05
342.34	-33.96
342.552	9.05
342.764	23.38
342.977	4.95
343.189	-11.43
343.401	37.72
343.613	11.09
343.826	86.87
344.038	52.05
344.25	7
344.462	23.38
344.674	50
344.886	72.53
345.099	70.48
345.311	78.68
345.523	27.48
345.735	-9.39
345.947	23.38
346.159	54.1
346.371	21.33
346.583	62.29
346.795	105.3
347.007	62.29
347.219	62.29
347.431	-19.63
347.643	21.33
347.855	45.91
348.067	138.07
348.279	21.33
348.491	-25.77
348.703	13.14
348.915	103.25
349.127	31.57
349.339	56.15
349.551	-27.82
349.763	88.92
349.975	21.33
350.187	62.29
350.399	88.92
350.61	-9.39
350.822	66.39
351.034	90.96
351.246	41.81
351.458	80.72
351.669	-33.96
351.881	47.96
352.093	45.91
352.305	0.85
352.517	66.39
352.728	86.87
352.94	-9.39
353.152	-5.29
353.363	95.06
353.575	13.14
353.787	21.33
353.999	15.19
354.21	23.38
354.422	-46.25
354.633	62.29
354.845	131.92
355.057	41.81
355.268	60.24
355.48	15.19
355.692	33.62
355.903	-27.82
356.115	0.85
356.326	11.09
356.538	95.06
356.749	35.67
356.961	66.39
357.172	-15.53
357.384	45.91
357.595	95.06
357.807	25.43
358.018	2.9
358.23	62.29
358.441	56.15
358.653	47.96
358.864	23.38
359.075	-7.34
359.287	39.76
359.498	144.21
359.709	97.11
359.921	80.72
360.132	129.88
360.344	13.14
360.555	113.49
360.766	113.49
360.977	-60.59
361.189	23.38
361.4	7
361.611	105.3
361.823	74.58
362.034	35.67
362.245	86.87
362.456	50
362.667	86.87
362.879	45.91
363.09	-9.39
363.301	54.1
363.512	54.1
363.723	-9.39
363.935	78.68
364.146	70.48
364.357	78.68
364.568	56.15
364.779	17.24
364.99	72.53
365.201	29.52
365.412	95.06
365.623	7
365.834	15.19
366.045	66.39
366.256	95.06
366.467	29.52
366.678	13.14
366.889	70.48
367.1	7
367.311	21.33
367.522	56.15
367.733	29.52
367.944	111.44
368.155	-17.58
368.366	72.53
368.577	66.39
368.788	29.52
368.999	-11.43
369.209	62.29
369.42	123.73
369.631	86.87
369.842	62.29
370.053	21.33
370.264	152.4
370.474	21.33
370.685	-17.58
370.896	9.05
371.107	62.29
371.317	4.95
371.528	45.91
371.739	148.31
371.95	31.57
372.16	50
372.371	31.57
372.582	-25.77
372.792	15.19
373.003	78.68
373.214	-13.48
373.424	21.33
373.635	-19.63
373.846	123.73
374.056	37.72
374.267	-42.15
374.477	23.38
374.688	19.29
374.898	74.58
375.109	4.95
375.319	72.53
375.53	62.29
375.74	17.24
375.951	64.34
376.161	99.16
376.372	99.16
376.582	119.64
376.793	107.35
377.003	-15.53
377.214	95.06
377.424	62.29
377.635	80.72
377.845	9.05
378.055	62.29
378.266	60.24
378.476	33.62
378.686	56.15
378.897	25.43
379.107	54.1
379.317	39.76
379.528	66.39
379.738	88.92
379.948	-27.82
380.158	41.81
380.369	52.05
380.579	56.15
380.789	88.92
380.999	37.72
381.21	39.76
381.42	142.16
381.63	-11.43
381.84	45.91
382.05	45.91
382.261	115.54
382.471	23.38
382.681	50
382.891	64.34
383.101	-7.34
383.311	37.72
383.521	-11.43
383.731	62.29
383.941	70.48
384.151	19.29
384.361	43.86
384.571	47.96
384.781	127.83
384.991	-52.39
385.201	72.53
385.411	37.72
385.621	103.25
385.831	-1.19
386.041	72.53
386.251	13.14
386.461	129.88
386.671	31.57
386.881	31.57
387.091	39.76
387.301	4.95
387.511	7
387.72	78.68
387.93	11.09
388.14	45.91
388.35	9.05
388.56	80.72
388.769	-31.91
388.979	62.29
389.189	115.54
389.399	4.95
389.609	99.16
389.818	115.54
390.028	45.91
390.238	105.3
390.447	50
390.657	29.52
390.867	64.34
391.076	-31.91
391.286	97.11
391.496	52.05
391.705	-15.53
391.915	146.26
392.125	103.25
392.334	70.48
392.544	37.72
392.753	66.39
392.963	39.76
393.172	138.07
393.382	37.72
393.591	152.4
393.801	29.52
394.01	13.14
394.22	68.44
394.429	64.34
394.639	33.62
394.848	86.87
395.058	37.72
395.267	50
395.477	50
395.686	97.11
395.895	88.92
396.105	95.06
396.314	21.33
396.524	86.87
396.733	25.43
396.942	107.35
397.152	105.3
397.361	140.12
397.57	31.57
397.78	131.92
397.989	88.92
398.198	168.79
398.407	111.44
398.617	88.92
398.826	33.62
399.035	76.63
399.244	58.2
399.453	117.59
399.663	52.05
399.872	136.02
400.081	37.72
400.29	29.52
400.499	101.2
400.708	176.98
400.917	76.63
401.127	54.1
401.336	74.58
401.545	138.07
401.754	115.54
401.963	164.69
402.172	35.67
402.381	97.11
402.59	64.34
402.799	154.45
403.008	101.2
403.217	172.88
403.426	52.05
403.635	162.64
403.844	140.12
404.053	138.07
404.262	193.36
404.471	160.59
404.68	209.75
404.888	144.21
405.097	189.27
405.306	170.83
405.515	211.79
405.724	158.55
405.933	195.41
406.142	258.9
406.35	176.98
406.559	201.55
406.768	164.69
406.977	195.41
407.185	174.93
407.394	168.79
407.603	203.6
407.812	332.62
408.02	187.22
408.229	209.75
408.438	232.27
408.646	244.56
408.855	262.99
409.064	258.9
409.272	252.75
409.481	303.95
409.69	342.86
409.898	308.05
410.107	332.62
410.315	373.58
410.524	406.35
410.733	369.49
410.941	342.86
411.15	457.55
411.358	396.11
411.567	521.04
411.775	443.21
411.984	504.65
412.192	482.13
412.401	496.46
412.609	461.65
412.818	467.79
413.026	545.61
413.234	496.46
413.443	598.86
413.651	600.91
413.86	623.44
414.068	611.15
414.276	621.39
414.485	652.11
414.693	709.45
414.901	809.8
415.11	717.64
415.318	721.74
415.526	723.79
415.734	766.79
415.943	817.99
416.151	793.42
416.359	785.23
416.567	865.1
416.776	961.35
416.984	949.06
417.192	1073.99
417.4	1016.65
417.608	1100.61
417.817	1086.28
418.025	1188.68
418.233	1217.35
418.441	1160
418.649	1168.2
418.857	1338.18
419.065	1405.76
419.273	1241.92
419.481	1426.24
419.689	1469.25
419.897	1506.11
420.105	1661.76
420.313	1594.17
420.521	1719.1
420.729	1749.82
420.937	1774.39
421.145	1725.24
421.353	1987.38
421.561	2009.91
421.769	2003.77
421.977	2126.64
422.185	2102.07
422.393	2153.27
422.601	2429.74
422.809	2241.33
423.017	2448.18
423.224	2532.14
423.432	2589.49
423.64	2655.02
423.848	2767.66
424.056	2806.57
424.263	2902.83
424.471	3035.94
424.679	2980.65
424.887	3158.82
425.094	3142.44
425.302	3332.9
425.51	3445.54
425.718	3576.61
425.925	3535.65
426.133	3625.76
426.341	3896.09
426.548	4088.6
426.756	4119.32
426.964	4217.62
427.171	4360.98
427.379	4590.35
427.586	4608.78
427.794	4719.37
428.001	4889.35
428.209	5165.83
428.417	4950.79
428.624	5452.55
428.832	5247.75
429.039	5411.59
429.247	5362.44
429.454	6036.22
429.662	6273.78
429.869	5880.57
430.076	6408.95
430.284	6187.77
430.491	6185.72
430.699	6808.3
430.906	6615.79
431.114	6841.07
431.321	7150.31
431.528	7164.65
431.736	7609.06
431.943	7998.17
432.15	7678.69
432.358	7852.77
432.565	8379.09
432.772	8159.96
432.979	8489.68
433.187	8764.11
433.394	8841.93
433.601	9401.03
433.808	9489.09
434.016	9429.7
434.223	9888.45
434.43	10474.17
434.637	10183.35
434.844	10859.18
435.052	11061.93
435.259	10965.68
435.466	11145.9
435.673	10879.66
435.88	11748
436.087	12229.27
436.294	12264.09
436.501	11842.21
436.708	12186.27
436.915	12460.7
437.122	13228.68
437.329	12907.15
437.537	13347.47
437.743	13681.28
437.95	13644.42
438.157	14344.83
438.364	14750.32
438.571	14850.67
438.778	15104.62
438.985	16415.32
439.192	15456.87
439.399	16054.88
439.606	15786.6
439.813	16829.01
440.02	17695.3
440.227	17160.78
440.433	17447.5
440.64	17680.97
440.847	17719.88
441.054	18248.25
441.261	19141.17
441.467	18899.51
441.674	19227.18
441.881	19970.6
442.088	20107.81
442.294	19780.14
442.501	20255.26
442.708	20863.51
442.914	21619.21
443.121	22454.78
443.328	21889.54
443.534	23079.41
443.741	22727.16
443.948	22417.92
444.154	24136.17
444.361	23765.48
444.568	23953.9
444.774	24275.43
444.981	24289.76
445.187	24789.47
445.394	26044.87
445.6	25649.61
445.807	28043.69
446.013	26931.64
446.22	27554.22
446.426	28021.16
446.633	29135.26
446.839	29862.29
447.046	28320.17
447.252	30394.76
447.459	30181.77
447.665	29966.73
447.871	31396.21
448.078	32534.88
448.284	31089.02
448.491	31787.38
448.697	33212.76
448.903	33546.58
449.11	33687.89
449.316	33024.35
449.522	33769.81
449.728	34836.8
449.935	35512.63
450.141	35322.17
450.347	36051.25
450.553	34603.33
450.76	35074.37
450.966	36311.34
451.172	35948.85
451.378	36768.04
451.584	36094.25
451.791	37304.6
451.997	37277.98
452.203	37466.39
452.409	37830.93
452.615	37677.33
452.821	35830.07
453.027	35457.34
453.233	37798.16
453.44	36227.37
453.646	36487.46
453.852	36651.3
454.058	37335.32
454.264	36434.22
454.47	37161.25
454.676	36067.63
454.882	37683.48
455.088	34382.15
455.294	34906.43
455.5	35305.79
455.705	35807.54
455.911	34249.03
456.117	33227.1
456.323	33153.37
456.529	31154.55
456.735	32616.8
456.941	31885.68
457.147	31779.18
457.352	30777.73
457.558	30321.03
457.764	30513.54
457.97	29677.97
458.176	29301.14
458.381	29084.06
458.587	28096.94
458.793	27769.26
458.999	26513.86
459.204	28244.39
459.41	27265.46
459.616	25635.28
459.821	25749.96
460.027	25965
460.233	24984.02
460.438	23957.99
460.644	24050.15
460.85	23083.51
461.055	22950.39
461.261	22567.42
461.466	21013.01
461.672	20488.73
461.878	21832.2
462.083	20431.39
462.289	19972.64
462.494	19874.34
462.7	19163.7
462.905	18500.16
463.111	19026.48
463.316	19227.18
463.522	18907.7
463.727	18608.7
463.932	18756.15
464.138	18479.68
464.343	18844.21
464.549	18008.64
464.754	18541.11
464.959	18668.09
465.165	18106.95
465.37	17453.64
465.575	17242.7
465.781	18094.66
465.986	17926.72
466.191	17416.78
466.397	16964.18
466.602	16263.77
466.807	16720.47
467.012	16736.85
467.218	16638.55
467.423	16446.04
467.628	16630.36
467.833	16988.75
468.038	16595.54
468.244	16257.63
468.449	16939.6
468.654	16130.66
468.859	16114.27
