Data from USB4F104151__21__14-16-14-358.txt Node

Date: Thu Mar 13 14:16:14 EDT 2025
User: louis
Spectrometer: USB4F10415
Trigger mode: 4
Integration Time (sec): 2.000000E-2
Scans to average: 1
Electric dark correction enabled: true
Nonlinearity correction enabled: false
Boxcar width: 0
XAxis mode: Wavelengths
Number of Pixels in Spectrum: 3648
>>>>>Begin Spectral Data<<<<<
178.204	-118.44
178.424	-118.44
178.644	-118.44
178.864	-40.62
179.084	-161.45
179.304	-40.62
179.524	12.63
179.744	-22.19
179.964	14.68
180.184	-81.58
180.404	-42.67
180.624	24.92
180.844	-3.75
181.064	16.73
181.283	14.68
181.503	12.63
181.723	94.55
181.943	-83.63
182.163	106.84
182.383	20.82
182.602	82.26
182.822	104.79
183.042	31.06
183.262	-3.75
183.482	0.34
183.701	12.63
183.921	84.31
184.141	-24.23
184.361	55.64
184.58	24.92
184.8	4.44
185.02	63.83
185.239	39.25
185.459	29.01
185.679	-18.09
185.898	-44.71
186.118	82.26
186.338	72.02
186.557	10.58
186.777	20.82
186.997	20.82
187.216	-34.47
187.436	37.2
187.655	31.06
187.875	129.36
188.095	-9.9
188.314	-18.09
188.534	131.41
188.753	59.73
188.973	43.35
189.192	14.68
189.412	0.34
189.631	106.84
189.851	69.97
190.07	18.77
190.29	18.77
190.509	29.01
190.729	24.92
190.948	69.97
191.168	31.06
191.387	63.83
191.607	-18.09
191.826	53.59
192.045	51.54
192.265	69.97
192.484	6.49
192.704	-1.71
192.923	16.73
193.142	164.18
193.362	45.4
193.581	29.01
193.8	67.92
194.02	72.02
194.239	29.01
194.458	31.06
194.678	8.53
194.897	49.49
195.116	80.21
195.335	10.58
195.555	6.49
195.774	-22.19
195.993	69.97
196.212	-26.28
196.432	-18.09
196.651	12.63
196.87	-11.95
197.089	63.83
197.308	-5.8
197.528	-36.52
197.747	10.58
197.966	24.92
198.185	57.68
198.404	-26.28
198.623	65.88
198.842	-11.95
199.062	37.2
199.281	78.16
199.5	61.78
199.719	12.63
199.938	57.68
200.157	45.4
200.376	31.06
200.595	80.21
200.814	63.83
201.033	4.44
201.252	69.97
201.471	24.92
201.69	110.93
201.909	-1.71
202.128	33.11
202.347	65.88
202.566	86.36
202.785	12.63
203.004	53.59
203.223	76.12
203.442	53.59
203.661	22.87
203.879	57.68
204.098	47.44
204.317	6.49
204.536	94.55
204.755	55.64
204.974	47.44
205.193	74.07
205.411	94.55
205.63	-1.71
205.849	31.06
206.068	29.01
206.287	29.01
206.505	72.02
206.724	61.78
206.943	43.35
207.162	8.53
207.381	29.01
207.599	45.4
207.818	63.83
208.037	37.2
208.255	41.3
208.474	61.78
208.693	59.73
208.911	0.34
209.13	53.59
209.349	76.12
209.567	102.74
209.786	86.36
210.005	55.64
210.223	143.7
210.442	-89.77
210.661	69.97
210.879	137.56
211.098	92.5
211.316	4.44
211.535	86.36
211.753	-3.75
211.972	20.82
212.191	102.74
212.409	53.59
212.628	24.92
212.846	90.45
213.065	65.88
213.283	22.87
213.502	0.34
213.72	47.44
213.938	63.83
214.157	29.01
214.375	39.25
214.594	-20.14
214.812	106.84
215.031	76.12
215.249	14.68
215.467	102.74
215.686	61.78
215.904	59.73
216.122	74.07
216.341	12.63
216.559	78.16
216.778	47.44
216.996	76.12
217.214	72.02
217.432	-36.52
217.651	20.82
217.869	69.97
218.087	-5.8
218.306	43.35
218.524	29.01
218.742	57.68
218.96	12.63
219.179	-16.04
219.397	31.06
219.615	82.26
219.833	112.98
220.051	24.92
220.27	12.63
220.488	82.26
220.706	39.25
220.924	45.4
221.142	-9.9
221.36	45.4
221.578	102.74
221.796	-26.28
222.015	4.44
222.233	74.07
222.451	45.4
222.669	47.44
222.887	94.55
223.105	-26.28
223.323	22.87
223.541	35.16
223.759	65.88
223.977	29.01
224.195	86.36
224.413	47.44
224.631	53.59
224.849	141.65
225.067	61.78
225.285	-11.95
225.503	-20.14
225.721	6.49
225.939	53.59
226.157	0.34
226.375	53.59
226.592	29.01
226.81	22.87
227.028	45.4
227.246	65.88
227.464	26.96
227.682	74.07
227.9	63.83
228.117	98.64
228.335	29.01
228.553	-40.62
228.771	14.68
228.989	53.59
229.206	41.3
229.424	-3.75
229.642	4.44
229.86	59.73
230.077	63.83
230.295	59.73
230.513	53.59
230.731	53.59
230.948	69.97
231.166	61.78
231.384	39.25
231.601	53.59
231.819	31.06
232.037	24.92
232.254	8.53
232.472	53.59
232.689	-28.33
232.907	53.59
233.125	47.44
233.342	45.4
233.56	-1.71
233.777	47.44
233.995	-32.43
234.213	39.25
234.43	102.74
234.648	112.98
234.865	78.16
235.083	67.92
235.3	59.73
235.518	76.12
235.735	67.92
235.953	74.07
236.17	-85.67
236.388	69.97
236.605	33.11
236.822	65.88
237.04	22.87
237.257	69.97
237.475	0.34
237.692	86.36
237.909	20.82
238.127	-38.57
238.344	55.64
238.562	14.68
238.779	51.54
238.996	74.07
239.214	96.6
239.431	74.07
239.648	69.97
239.865	12.63
240.083	37.2
240.3	45.4
240.517	39.25
240.735	-24.23
240.952	47.44
241.169	43.35
241.386	65.88
241.603	94.55
241.821	0.34
242.038	57.68
242.255	37.2
242.472	37.2
242.689	-32.43
242.907	29.01
243.124	67.92
243.341	33.11
243.558	31.06
243.775	22.87
243.992	45.4
244.209	69.97
244.426	8.53
244.643	37.2
244.86	20.82
245.078	-11.95
245.295	63.83
245.512	78.16
245.729	-57
245.946	20.82
246.163	45.4
246.38	8.53
246.597	-40.62
246.814	6.49
247.031	63.83
247.248	-11.95
247.464	-36.52
247.681	94.55
247.898	86.36
248.115	0.34
248.332	12.63
248.549	53.59
248.766	45.4
248.983	37.2
249.2	-7.85
249.417	49.49
249.633	20.82
249.85	49.49
250.067	43.35
250.284	18.77
250.501	37.2
250.717	53.59
250.934	14.68
251.151	20.82
251.368	29.01
251.585	72.02
251.801	24.92
252.018	14.68
252.235	24.92
252.451	29.01
252.668	29.01
252.885	29.01
253.102	80.21
253.318	45.4
253.535	29.01
253.752	-11.95
253.968	16.73
254.185	53.59
254.401	-1.71
254.618	4.44
254.835	57.68
255.051	-16.04
255.268	86.36
255.484	63.83
255.701	8.53
255.917	84.31
256.134	74.07
256.351	119.12
256.567	-16.04
256.784	45.4
257	31.06
257.217	86.36
257.433	4.44
257.65	-3.75
257.866	45.4
258.082	10.58
258.299	59.73
258.515	53.59
258.732	0.34
258.948	-42.67
259.165	-48.81
259.381	86.36
259.597	22.87
259.814	53.59
260.03	26.96
260.246	45.4
260.463	119.12
260.679	96.6
260.895	8.53
261.112	69.97
261.328	29.01
261.544	6.49
261.761	104.79
261.977	100.69
262.193	37.2
262.409	80.21
262.626	53.59
262.842	55.64
263.058	0.34
263.274	129.36
263.49	-22.19
263.707	129.36
263.923	6.49
264.139	-9.9
264.355	-5.8
264.571	61.78
264.787	-18.09
265.004	10.58
265.22	100.69
265.436	49.49
265.652	-18.09
265.868	33.11
266.084	53.59
266.3	49.49
266.516	-9.9
266.732	88.4
266.948	-18.09
267.164	6.49
267.38	8.53
267.596	49.49
267.812	33.11
268.028	53.59
268.244	61.78
268.46	47.44
268.676	-77.48
268.892	-50.86
269.108	6.49
269.324	10.58
269.54	37.2
269.756	24.92
269.972	-44.71
270.188	0.34
270.403	4.44
270.619	96.6
270.835	145.75
271.051	39.25
271.267	0.34
271.483	31.06
271.698	41.3
271.914	37.2
272.13	37.2
272.346	-28.33
272.562	90.45
272.777	53.59
272.993	45.4
273.209	43.35
273.425	47.44
273.64	49.49
273.856	57.68
274.072	94.55
274.287	10.58
274.503	80.21
274.719	-28.33
274.934	31.06
275.15	53.59
275.366	20.82
275.581	53.59
275.797	129.36
276.012	33.11
276.228	-40.62
276.444	2.39
276.659	82.26
276.875	-18.09
277.09	61.78
277.306	33.11
277.521	65.88
277.737	45.4
277.952	47.44
278.168	63.83
278.383	-1.71
278.599	72.02
278.814	24.92
279.03	63.83
279.245	63.83
279.461	8.53
279.676	78.16
279.892	82.26
280.107	-42.67
280.322	14.68
280.538	37.2
280.753	-7.85
280.969	61.78
281.184	72.02
281.399	86.36
281.615	16.73
281.83	65.88
282.045	67.92
282.26	69.97
282.476	12.63
282.691	72.02
282.906	78.16
283.122	49.49
283.337	-1.71
283.552	22.87
283.767	20.82
283.983	88.4
284.198	-18.09
284.413	39.25
284.628	22.87
284.843	78.16
285.058	74.07
285.274	53.59
285.489	76.12
285.704	119.12
285.919	53.59
286.134	-5.8
286.349	2.39
286.564	-26.28
286.779	135.51
286.995	65.88
287.21	2.39
287.425	37.2
287.64	-11.95
287.855	78.16
288.07	-38.57
288.285	61.78
288.5	78.16
288.715	6.49
288.93	0.34
289.145	86.36
289.36	43.35
289.575	51.54
289.79	10.58
290.004	14.68
290.219	115.03
290.434	-24.23
290.649	4.44
290.864	16.73
291.079	53.59
291.294	47.44
291.509	0.34
291.724	-46.76
291.938	18.77
292.153	96.6
292.368	20.82
292.583	82.26
292.798	37.2
293.012	137.56
293.227	76.12
293.442	6.49
293.657	39.25
293.871	20.82
294.086	6.49
294.301	110.93
294.516	76.12
294.73	14.68
294.945	43.35
295.16	61.78
295.374	94.55
295.589	12.63
295.804	31.06
296.018	67.92
296.233	119.12
296.447	82.26
296.662	45.4
296.877	104.79
297.091	115.03
297.306	78.16
297.52	-16.04
297.735	-46.76
297.949	10.58
298.164	86.36
298.378	65.88
298.593	16.73
298.807	26.96
299.022	16.73
299.236	24.92
299.451	78.16
299.665	-59.05
299.88	-11.95
300.094	10.58
300.309	43.35
300.523	29.01
300.737	49.49
300.952	12.63
301.166	20.82
301.381	6.49
301.595	-20.14
301.809	-3.75
302.024	4.44
302.238	-50.86
302.452	24.92
302.667	53.59
302.881	86.36
303.095	22.87
303.309	18.77
303.524	-5.8
303.738	74.07
303.952	12.63
304.166	100.69
304.381	45.4
304.595	24.92
304.809	47.44
305.023	55.64
305.237	61.78
305.452	53.59
305.666	45.4
305.88	37.2
306.094	24.92
306.308	100.69
306.522	63.83
306.736	-11.95
306.95	26.96
307.164	63.83
307.379	45.4
307.593	57.68
307.807	65.88
308.021	102.74
308.235	61.78
308.449	41.3
308.663	20.82
308.877	102.74
309.091	-7.85
309.305	47.44
309.519	-26.28
309.733	53.59
309.947	2.39
310.161	72.02
310.374	-11.95
310.588	-13.99
310.802	69.97
311.016	74.07
311.23	61.78
311.444	8.53
311.658	86.36
311.872	49.49
312.085	90.45
312.299	74.07
312.513	80.21
312.727	61.78
312.941	20.82
313.154	133.46
313.368	86.36
313.582	72.02
313.796	31.06
314.009	80.21
314.223	47.44
314.437	-30.38
314.651	47.44
314.864	61.78
315.078	16.73
315.292	67.92
315.505	26.96
315.719	59.73
315.933	6.49
316.146	18.77
316.36	59.73
316.573	0.34
316.787	18.77
317.001	127.32
317.214	0.34
317.428	-11.95
317.641	18.77
317.855	24.92
318.068	18.77
318.282	16.73
318.495	139.6
318.709	12.63
318.922	-22.19
319.136	65.88
319.349	119.12
319.563	31.06
319.776	6.49
319.99	6.49
320.203	86.36
320.417	16.73
320.63	151.89
320.843	86.36
321.057	31.06
321.27	86.36
321.483	20.82
321.697	-13.99
321.91	45.4
322.124	39.25
322.337	94.55
322.55	80.21
322.763	37.2
322.977	110.93
323.19	49.49
323.403	-20.14
323.617	33.11
323.83	74.07
324.043	20.82
324.256	41.3
324.469	8.53
324.683	108.88
324.896	78.16
325.109	14.68
325.322	-16.04
325.535	31.06
325.748	4.44
325.962	55.64
326.175	80.21
326.388	86.36
326.601	-11.95
326.814	16.73
327.027	139.6
327.24	94.55
327.453	-16.04
327.666	14.68
327.879	131.41
328.092	14.68
328.305	33.11
328.518	39.25
328.731	57.68
328.944	184.66
329.157	94.55
329.37	20.82
329.583	121.17
329.796	145.75
330.009	-32.43
330.222	49.49
330.435	12.63
330.648	53.59
330.861	78.16
331.073	29.01
331.286	41.3
331.499	-1.71
331.712	-38.57
331.925	-1.71
332.138	63.83
332.35	18.77
332.563	33.11
332.776	10.58
332.989	12.63
333.202	16.73
333.414	6.49
333.627	-32.43
333.84	57.68
334.053	61.78
334.265	-5.8
334.478	39.25
334.691	86.36
334.903	33.11
335.116	29.01
335.329	0.34
335.541	6.49
335.754	123.22
335.966	88.4
336.179	49.49
336.392	55.64
336.604	29.01
336.817	63.83
337.029	4.44
337.242	-26.28
337.454	96.6
337.667	-44.71
337.88	61.78
338.092	12.63
338.305	72.02
338.517	33.11
338.729	-7.85
338.942	131.41
339.154	39.25
339.367	37.2
339.579	24.92
339.792	20.82
340.004	145.75
340.217	61.78
340.429	61.78
340.641	-20.14
340.854	41.3
341.066	80.21
341.278	143.7
341.491	35.16
341.703	55.64
341.915	35.16
342.128	131.41
342.34	35.16
342.552	22.87
342.764	37.2
342.977	22.87
343.189	55.64
343.401	55.64
343.613	45.4
343.826	63.83
344.038	8.53
344.25	94.55
344.462	63.83
344.674	31.06
344.886	-22.19
345.099	-24.23
345.311	72.02
345.523	10.58
345.735	84.31
345.947	57.68
346.159	74.07
346.371	61.78
346.583	6.49
346.795	53.59
347.007	63.83
347.219	53.59
347.431	49.49
347.643	102.74
347.855	86.36
348.067	115.03
348.279	78.16
348.491	22.87
348.703	53.59
348.915	55.64
349.127	51.54
349.339	39.25
349.551	26.96
349.763	65.88
349.975	45.4
350.187	115.03
350.399	45.4
350.61	-3.75
350.822	74.07
351.034	59.73
351.246	55.64
351.458	78.16
351.669	92.5
351.881	43.35
352.093	82.26
352.305	55.64
352.517	43.35
352.728	55.64
352.94	39.25
353.152	61.78
353.363	-36.52
353.575	94.55
353.787	53.59
353.999	-16.04
354.21	59.73
354.422	26.96
354.633	4.44
354.845	86.36
355.057	16.73
355.268	112.98
355.48	65.88
355.692	12.63
355.903	69.97
356.115	-28.33
356.326	20.82
356.538	6.49
356.749	55.64
356.961	110.93
357.172	88.4
357.384	49.49
357.595	98.64
357.807	45.4
358.018	92.5
358.23	22.87
358.441	33.11
358.653	29.01
358.864	65.88
359.075	29.01
359.287	35.16
359.498	90.45
359.709	112.98
359.921	74.07
360.132	115.03
360.344	72.02
360.555	57.68
360.766	55.64
360.977	41.3
361.189	-1.71
361.4	14.68
361.611	-9.9
361.823	102.74
362.034	78.16
362.245	12.63
362.456	69.97
362.667	78.16
362.879	72.02
363.09	90.45
363.301	47.44
363.512	55.64
363.723	4.44
363.935	22.87
364.146	53.59
364.357	57.68
364.568	65.88
364.779	29.01
364.99	49.49
365.201	-9.9
365.412	2.39
365.623	53.59
365.834	82.26
366.045	26.96
366.256	78.16
366.467	43.35
366.678	39.25
366.889	29.01
367.1	57.68
367.311	131.41
367.522	-63.15
367.733	119.12
367.944	63.83
368.155	4.44
368.366	63.83
368.577	108.88
368.788	61.78
368.999	18.77
369.209	39.25
369.42	108.88
369.631	69.97
369.842	53.59
370.053	41.3
370.264	47.44
370.474	65.88
370.685	16.73
370.896	94.55
371.107	160.08
371.317	69.97
371.528	37.2
371.739	78.16
371.95	10.58
372.16	37.2
372.371	55.64
372.582	65.88
372.792	69.97
373.003	162.13
373.214	26.96
373.424	63.83
373.635	88.4
373.846	53.59
374.056	92.5
374.267	63.83
374.477	29.01
374.688	47.44
374.898	4.44
375.109	47.44
375.319	22.87
375.53	-9.9
375.74	61.78
375.951	74.07
376.161	55.64
376.372	102.74
376.582	0.34
376.793	55.64
377.003	55.64
377.214	-1.71
377.424	12.63
377.635	18.77
377.845	-42.67
378.055	63.83
378.266	-3.75
378.476	82.26
378.686	20.82
378.897	133.46
379.107	33.11
379.317	41.3
379.528	88.4
379.738	47.44
379.948	86.36
380.158	94.55
380.369	-28.33
380.579	61.78
380.789	74.07
380.999	110.93
381.21	78.16
381.42	88.4
381.63	18.77
381.84	102.74
382.05	86.36
382.261	133.46
382.471	16.73
382.681	129.36
382.891	104.79
383.101	53.59
383.311	37.2
383.521	33.11
383.731	47.44
383.941	12.63
384.151	104.79
384.361	55.64
384.571	121.17
384.781	112.98
384.991	180.56
385.201	86.36
385.411	88.4
385.621	112.98
385.831	-11.95
386.041	98.64
386.251	39.25
386.461	151.89
386.671	8.53
386.881	119.12
387.091	29.01
387.301	96.6
387.511	98.64
387.72	82.26
387.93	47.44
388.14	29.01
388.35	53.59
388.56	135.51
388.769	76.12
388.979	80.21
389.189	-7.85
389.399	80.21
389.609	102.74
389.818	29.01
390.028	86.36
390.238	92.5
390.447	-65.19
390.657	53.59
390.867	-1.71
391.076	8.53
391.286	88.4
391.496	63.83
391.705	39.25
391.915	100.69
392.125	61.78
392.334	31.06
392.544	119.12
392.753	-42.67
392.963	-16.04
393.172	39.25
393.382	12.63
393.591	108.88
393.801	69.97
394.01	104.79
394.22	49.49
394.429	104.79
394.639	88.4
394.848	96.6
395.058	45.4
395.267	45.4
395.477	69.97
395.686	57.68
395.895	110.93
396.105	84.31
396.314	121.17
396.524	78.16
396.733	149.84
396.942	108.88
397.152	123.22
397.361	174.42
397.57	106.84
397.78	137.56
397.989	129.36
398.198	51.54
398.407	69.97
398.617	53.59
398.826	106.84
399.035	135.51
399.244	184.66
399.453	102.74
399.663	155.99
399.872	131.41
400.081	102.74
400.29	123.22
400.499	147.8
400.708	178.51
400.917	110.93
401.127	106.84
401.336	108.88
401.545	184.66
401.754	76.12
401.963	80.21
402.172	162.13
402.381	55.64
402.59	61.78
402.799	123.22
403.008	133.46
403.217	61.78
403.426	141.65
403.635	74.07
403.844	168.27
404.053	96.6
404.262	139.6
404.471	115.03
404.68	100.69
404.888	123.22
405.097	86.36
405.306	65.88
405.515	160.08
405.724	135.51
405.933	127.32
406.142	110.93
406.35	246.1
406.559	176.47
406.768	131.41
406.977	178.51
407.185	254.29
407.394	227.67
407.603	170.32
407.812	254.29
408.02	147.8
408.229	201.04
408.438	248.15
408.646	227.67
408.855	213.33
409.064	235.86
409.272	178.51
409.481	315.73
409.69	319.82
409.898	221.52
410.107	303.44
410.315	293.2
410.524	282.96
410.733	348.5
410.941	348.5
411.15	368.98
411.358	452.94
411.567	442.7
411.775	260.43
411.984	387.41
412.192	414.03
412.401	342.35
412.609	446.8
412.818	577.87
413.026	498
413.234	479.57
413.443	454.99
413.651	567.63
413.86	541.01
414.068	555.34
414.276	581.96
414.485	465.23
414.693	653.64
414.901	665.93
415.11	719.18
415.318	676.17
415.526	708.94
415.734	682.31
415.943	700.75
416.151	817.48
416.359	837.96
416.567	784.71
416.776	866.63
416.984	858.44
417.192	942.41
417.4	975.17
417.608	860.49
417.817	913.74
418.025	1022.28
418.233	1053
418.441	1036.61
418.649	1089.86
418.857	1139.01
419.065	1206.59
419.273	1220.93
419.481	1239.36
419.689	1282.37
419.897	1483.07
420.105	1382.72
420.313	1454.4
420.521	1519.93
420.729	1528.13
420.937	1579.33
421.145	1587.52
421.353	1653.05
421.561	1698.11
421.769	1720.64
421.977	1808.7
422.185	1829.18
422.393	1986.87
422.601	2033.97
422.809	2044.21
423.017	2083.13
423.224	2265.39
423.432	2302.26
423.64	2326.83
423.848	2494.77
424.056	2488.62
424.263	2722.09
424.471	2656.56
424.679	2728.24
424.887	2824.49
425.094	3006.76
425.302	2842.92
425.51	3006.76
425.718	3150.12
425.925	3146.02
426.133	3342.63
426.341	3442.98
426.548	3512.61
426.756	3559.71
426.964	3698.97
427.171	3711.26
427.379	3789.08
427.586	4008.22
427.794	4083.99
428.001	4096.28
428.209	4366.61
428.417	4436.24
428.624	4641.04
428.832	4899.08
429.039	4694.29
429.247	4763.92
429.454	5214.47
429.662	5536
429.869	5107.98
430.076	5525.76
430.284	5310.72
430.491	5640.45
430.699	5828.86
430.906	5890.3
431.114	6070.52
431.321	6236.41
431.528	6189.3
431.736	6820.08
431.943	7131.37
432.15	6758.64
432.358	6883.56
432.565	7463.14
432.772	7401.7
432.979	7549.15
433.187	7788.77
433.394	7555.3
433.601	8386.77
433.808	8380.63
434.016	8372.44
434.223	8399.06
434.43	9025.74
434.637	8718.54
434.844	9582.79
435.052	9834.69
435.259	9687.23
435.466	9547.97
435.673	9765.06
435.88	10148.03
436.087	10832.05
436.294	10807.47
436.501	10358.97
436.708	10672.31
436.915	10920.11
437.122	11399.34
437.329	11466.92
437.537	11796.64
437.743	12023.97
437.95	11923.62
438.157	12599.45
438.364	12951.7
438.571	12935.31
438.778	13060.24
438.985	14405.75
439.192	13594.76
439.399	13947.01
439.606	14008.45
439.813	14803.06
440.02	15614.06
440.227	15112.3
440.433	15241.32
440.64	15470.7
440.847	15423.59
441.054	15880.29
441.261	16955.47
441.467	16820.31
441.674	16949.33
441.881	17594.44
442.088	17424.46
442.294	17371.21
442.501	17723.46
442.708	18278.46
442.914	18851.89
443.121	19611.69
443.328	19093.55
443.534	20473.88
443.741	19992.61
443.948	19466.28
444.154	20934.68
444.361	21108.76
444.568	20961.3
444.774	21104.66
444.981	21442.57
445.187	21800.97
445.394	22929.4
445.6	22679.55
445.807	24895.45
446.013	23545.84
446.22	24322.02
446.426	25036.76
446.633	25415.63
446.839	26331.08
447.046	25114.58
447.252	26527.68
447.459	26320.84
447.665	26515.39
447.871	27641.78
448.078	28690.34
448.284	27410.36
448.491	28053.42
448.697	29255.57
448.903	29579.15
449.11	29720.46
449.316	29181.85
449.522	29491.09
449.728	30566.27
449.935	30769.02
450.141	30496.64
450.347	31709.04
450.553	30416.77
450.76	30801.79
450.966	31790.96
451.172	31436.66
451.378	32550.76
451.584	31598.45
451.791	32225.13
451.997	32290.66
452.203	33101.66
452.409	32868.19
452.615	32638.82
452.821	31446.9
453.027	31223.67
453.233	32999.26
453.44	31590.26
453.646	32046.96
453.852	32137.07
454.058	32728.93
454.264	31283.06
454.47	32192.36
454.676	31289.21
454.882	32255.85
455.088	29947.79
455.294	30117.77
455.5	30216.07
455.705	31037.31
455.911	29628.31
456.117	29257.62
456.323	28841.89
456.529	27350.96
456.735	28446.63
456.941	27936.68
457.147	27729.84
457.352	26601.41
457.558	26519.49
457.764	26417.09
457.97	25829.32
458.176	25212.88
458.381	25173.97
458.587	24307.68
458.793	24039.4
458.999	22732.79
459.204	24217.57
459.41	23638
459.616	22310.91
459.821	21839.88
460.027	22274.05
460.233	21649.42
460.438	20746.26
460.644	20652.06
460.85	19847.21
461.055	19400.75
461.261	19466.28
461.466	18198.59
461.672	17440.84
461.878	18686.01
462.083	17569.87
462.289	17403.98
462.494	16937.04
462.7	16408.67
462.905	16054.37
463.111	16316.51
463.316	16482.39
463.522	15972.45
463.727	16091.23
463.932	16246.88
464.138	15710.31
464.343	16021.6
464.549	15317.1
464.754	16050.27
464.959	15837.28
465.165	15757.41
465.37	15024.24
465.575	14532.73
465.781	15382.63
465.986	15263.85
466.191	14618.74
466.397	14391.42
466.602	13713.54
466.807	14344.31
467.012	14372.99
467.218	14190.72
467.423	13987.97
467.628	14164.09
467.833	14798.96
