Data from USB4F104151__212__14-21-08-593.txt Node

Date: Thu Mar 13 14:21:08 EDT 2025
User: louis
Spectrometer: USB4F10415
Trigger mode: 4
Integration Time (sec): 2.000000E-2
Scans to average: 1
Electric dark correction enabled: true
Nonlinearity correction enabled: false
Boxcar width: 0
XAxis mode: Wavelengths
Number of Pixels in Spectrum: 3648
>>>>>Begin Spectral Data<<<<<
178.204	-113.15
178.424	-113.15
178.644	-113.15
178.864	-147.97
179.084	-111.1
179.304	19.97
179.524	-41.47
179.744	19.97
179.964	28.16
180.184	1.54
180.404	13.82
180.624	17.92
180.844	52.74
181.064	-37.38
181.283	9.73
181.503	-43.52
181.723	-41.47
181.943	-29.18
182.163	9.73
182.383	26.11
182.602	62.98
182.822	48.64
183.042	60.93
183.262	110.08
183.482	-39.42
183.701	-78.33
183.921	9.73
184.141	-27.14
184.361	48.64
184.58	-31.23
184.8	28.16
185.02	87.55
185.239	67.07
185.459	-16.9
185.679	-23.04
185.898	17.92
186.118	7.68
186.338	26.11
186.557	3.58
186.777	-41.47
186.997	11.78
187.216	-31.23
187.436	44.54
187.655	103.93
187.875	3.58
188.095	9.73
188.314	50.69
188.534	3.58
188.753	-14.85
188.973	36.35
189.192	110.08
189.412	-14.85
189.631	-20.99
189.851	-25.09
190.07	58.88
190.29	-31.23
190.509	-6.66
190.729	3.58
190.948	69.12
191.168	65.02
191.387	69.12
191.607	56.83
191.826	1.54
192.045	-16.9
192.265	17.92
192.484	42.5
192.704	50.69
192.923	-8.7
193.142	-14.85
193.362	-14.85
193.581	26.11
193.8	13.82
194.02	50.69
194.239	58.88
194.458	50.69
194.678	-31.23
194.897	13.82
195.116	11.78
195.335	73.21
195.555	71.17
195.774	50.69
195.993	13.82
196.212	-4.61
196.432	13.82
196.651	-43.52
196.87	3.58
197.089	136.7
197.308	75.26
197.528	5.63
197.747	-33.28
197.966	38.4
198.185	54.78
198.404	-2.56
198.623	1.54
198.842	11.78
199.062	15.87
199.281	42.5
199.5	5.63
199.719	3.58
199.938	-0.51
200.157	44.54
200.376	34.3
200.595	93.69
200.814	15.87
201.033	-14.85
201.252	-6.66
201.471	75.26
201.69	46.59
201.909	46.59
202.128	26.11
202.347	38.4
202.566	28.16
202.785	-31.23
203.004	-41.47
203.223	93.69
203.442	54.78
203.661	11.78
203.879	40.45
204.098	50.69
204.317	-10.75
204.536	91.65
204.755	11.78
204.974	3.58
205.193	34.3
205.411	19.97
205.63	58.88
205.849	60.93
206.068	-18.94
206.287	-84.48
206.505	7.68
206.724	83.45
206.943	-4.61
207.162	79.36
207.381	38.4
207.599	58.88
207.818	19.97
208.037	-12.8
208.255	3.58
208.474	60.93
208.693	19.97
208.911	-4.61
209.13	62.98
209.349	-14.85
209.567	26.11
209.786	56.83
210.005	62.98
210.223	17.92
210.442	-6.66
210.661	17.92
210.879	17.92
211.098	22.02
211.316	-16.9
211.535	19.97
211.753	3.58
211.972	50.69
212.191	-43.52
212.409	36.35
212.628	34.3
212.846	42.5
213.065	30.21
213.283	1.54
213.502	15.87
213.72	34.3
213.938	3.58
214.157	-31.23
214.375	-27.14
214.594	15.87
214.812	42.5
215.031	38.4
215.249	17.92
215.467	34.3
215.686	30.21
215.904	67.07
216.122	34.3
216.341	58.88
216.559	87.55
216.778	114.17
216.996	52.74
217.214	-4.61
217.432	-61.95
217.651	1.54
217.869	50.69
218.087	-23.04
218.306	11.78
218.524	93.69
218.742	11.78
218.96	34.3
219.179	26.11
219.397	-2.56
219.615	134.65
219.833	73.21
220.051	26.11
220.27	24.06
220.488	50.69
220.706	71.17
220.924	38.4
221.142	1.54
221.36	1.54
221.578	50.69
221.796	50.69
222.015	22.02
222.233	1.54
222.451	42.5
222.669	-33.28
222.887	130.56
223.105	73.21
223.323	28.16
223.541	34.3
223.759	34.3
223.977	-49.66
224.195	83.45
224.413	19.97
224.631	11.78
224.849	13.82
225.067	58.88
225.285	-6.66
225.503	-29.18
225.721	-31.23
225.939	-76.29
226.157	-47.62
226.375	99.84
226.592	-12.8
226.81	75.26
227.028	42.5
227.246	95.74
227.464	-2.56
227.682	50.69
227.9	58.88
228.117	-86.53
228.335	65.02
228.553	-23.04
228.771	-8.7
228.989	9.73
229.206	-66.05
229.424	32.26
229.642	22.02
229.86	26.11
230.077	17.92
230.295	-4.61
230.513	24.06
230.731	32.26
230.948	1.54
231.166	13.82
231.384	-23.04
231.601	52.74
231.819	44.54
232.037	-18.94
232.254	3.58
232.472	34.3
232.689	-35.33
232.907	7.68
233.125	-51.71
233.342	62.98
233.56	17.92
233.777	7.68
233.995	1.54
234.213	42.5
234.43	36.35
234.648	-25.09
234.865	5.63
235.083	46.59
235.3	17.92
235.518	67.07
235.735	26.11
235.953	112.13
236.17	34.3
236.388	62.98
236.605	-6.66
236.822	79.36
237.04	42.5
237.257	36.35
237.475	-41.47
237.692	50.69
237.909	-72.19
238.127	13.82
238.344	32.26
238.562	38.4
238.779	-39.42
238.996	-70.14
239.214	83.45
239.431	73.21
239.648	26.11
239.865	22.02
240.083	42.5
240.3	79.36
240.517	-12.8
240.735	13.82
240.952	17.92
241.169	38.4
241.386	54.78
241.603	42.5
241.821	-16.9
242.038	46.59
242.255	36.35
242.472	24.06
242.689	62.98
242.907	67.07
243.124	36.35
243.341	26.11
243.558	-10.75
243.775	-39.42
243.992	-41.47
244.209	9.73
244.426	85.5
244.643	42.5
244.86	9.73
245.078	54.78
245.295	-29.18
245.512	58.88
245.729	50.69
245.946	99.84
246.163	-10.75
246.38	24.06
246.597	44.54
246.814	46.59
247.031	34.3
247.248	81.41
247.464	38.4
247.681	42.5
247.898	-20.99
248.115	-47.62
248.332	-55.81
248.549	3.58
248.766	95.74
248.983	26.11
249.2	30.21
249.417	19.97
249.633	28.16
249.85	-8.7
250.067	58.88
250.284	5.63
250.501	13.82
250.717	-8.7
250.934	-29.18
251.151	3.58
251.368	-55.81
251.585	5.63
251.801	-20.99
252.018	-55.81
252.235	103.93
252.451	34.3
252.668	-4.61
252.885	30.21
253.102	-27.14
253.318	46.59
253.535	-10.75
253.752	75.26
253.968	-64
254.185	3.58
254.401	42.5
254.618	-6.66
254.835	-47.62
255.051	36.35
255.268	1.54
255.484	50.69
255.701	48.64
255.917	52.74
256.134	30.21
256.351	11.78
256.567	-64
256.784	3.58
257	1.54
257.217	67.07
257.433	34.3
257.65	-6.66
257.866	-18.94
258.082	-51.71
258.299	19.97
258.515	34.3
258.732	9.73
258.948	-23.04
259.165	-16.9
259.381	-23.04
259.597	56.83
259.814	28.16
260.03	36.35
260.246	40.45
260.463	1.54
260.679	62.98
260.895	-6.66
261.112	46.59
261.328	3.58
261.544	-25.09
261.761	75.26
261.977	-35.33
262.193	-18.94
262.409	24.06
262.626	54.78
262.842	71.17
263.058	75.26
263.274	77.31
263.49	-12.8
263.707	58.88
263.923	17.92
264.139	-35.33
264.355	-2.56
264.571	83.45
264.787	46.59
265.004	26.11
265.22	9.73
265.436	3.58
265.652	36.35
265.868	52.74
266.084	32.26
266.3	67.07
266.516	22.02
266.732	75.26
266.948	77.31
267.164	-31.23
267.38	1.54
267.596	11.78
267.812	67.07
268.028	75.26
268.244	5.63
268.46	26.11
268.676	-27.14
268.892	54.78
269.108	-31.23
269.324	-6.66
269.54	-12.8
269.756	105.98
269.972	52.74
270.188	34.3
270.403	17.92
270.619	1.54
270.835	34.3
271.051	75.26
271.267	9.73
271.483	69.12
271.698	9.73
271.914	67.07
272.13	32.26
272.346	28.16
272.562	54.78
272.777	81.41
272.993	65.02
273.209	60.93
273.425	9.73
273.64	-6.66
273.856	62.98
274.072	26.11
274.287	26.11
274.503	-20.99
274.719	-31.23
274.934	-23.04
275.15	-25.09
275.366	-27.14
275.581	24.06
275.797	93.69
276.012	-39.42
276.228	3.58
276.444	73.21
276.659	42.5
276.875	-47.62
277.09	24.06
277.306	-45.57
277.521	67.07
277.737	48.64
277.952	108.03
278.168	-0.51
278.383	5.63
278.599	-2.56
278.814	22.02
279.03	52.74
279.245	91.65
279.461	-66.05
279.676	95.74
279.892	-4.61
280.107	-37.38
280.322	32.26
280.538	1.54
280.753	34.3
280.969	116.22
281.184	67.07
281.399	58.88
281.615	-35.33
281.83	67.07
282.045	50.69
282.26	-39.42
282.476	44.54
282.691	71.17
282.906	112.13
283.122	48.64
283.337	-25.09
283.552	34.3
283.767	-18.94
283.983	30.21
284.198	50.69
284.413	28.16
284.628	-2.56
284.843	44.54
285.058	50.69
285.274	9.73
285.489	-29.18
285.704	3.58
285.919	44.54
286.134	11.78
286.349	36.35
286.564	28.16
286.779	91.65
286.995	9.73
287.21	13.82
287.425	46.59
287.64	-39.42
287.855	26.11
288.07	1.54
288.285	-16.9
288.5	50.69
288.715	30.21
288.93	101.89
289.145	28.16
289.36	120.32
289.575	-23.04
289.79	56.83
290.004	36.35
290.219	79.36
290.434	1.54
290.649	5.63
290.864	-4.61
291.079	28.16
291.294	5.63
291.509	-4.61
291.724	-70.14
291.938	11.78
292.153	54.78
292.368	15.87
292.583	75.26
292.798	26.11
293.012	58.88
293.227	22.02
293.442	44.54
293.657	83.45
293.871	93.69
294.086	9.73
294.301	71.17
294.516	54.78
294.73	26.11
294.945	-31.23
295.16	42.5
295.374	71.17
295.589	-0.51
295.804	-45.57
296.018	-4.61
296.233	54.78
296.447	42.5
296.662	30.21
296.877	1.54
297.091	79.36
297.306	58.88
297.52	-23.04
297.735	-0.51
297.949	34.3
298.164	-45.57
298.378	67.07
298.593	30.21
298.807	60.93
299.022	-0.51
299.236	19.97
299.451	3.58
299.665	11.78
299.88	60.93
300.094	81.41
300.309	85.5
300.523	-20.99
300.737	-4.61
300.952	-18.94
301.166	-4.61
301.381	-4.61
301.595	34.3
301.809	-47.62
302.024	-18.94
302.238	19.97
302.452	103.93
302.667	52.74
302.881	97.79
303.095	62.98
303.309	34.3
303.524	-25.09
303.738	-27.14
303.952	85.5
304.166	19.97
304.381	-6.66
304.595	62.98
304.809	30.21
305.023	30.21
305.237	36.35
305.452	26.11
305.666	69.12
305.88	153.09
306.094	30.21
306.308	19.97
306.522	28.16
306.736	101.89
306.95	58.88
307.164	38.4
307.379	60.93
307.593	73.21
307.807	93.69
308.021	-16.9
308.235	-23.04
308.449	48.64
308.663	-43.52
308.877	67.07
309.091	75.26
309.305	62.98
309.519	1.54
309.733	42.5
309.947	-23.04
310.161	9.73
310.374	99.84
310.588	54.78
310.802	-68.09
311.016	-10.75
311.23	81.41
311.444	32.26
311.658	24.06
311.872	9.73
312.085	-2.56
312.299	65.02
312.513	89.6
312.727	9.73
312.941	-43.52
313.154	1.54
313.368	58.88
313.582	-2.56
313.796	-4.61
314.009	77.31
314.223	28.16
314.437	-23.04
314.651	26.11
314.864	-51.71
315.078	-45.57
315.292	13.82
315.505	3.58
315.719	46.59
315.933	28.16
316.146	9.73
316.36	-39.42
316.573	50.69
316.787	99.84
317.001	99.84
317.214	-10.75
317.428	-18.94
317.641	-33.28
317.855	-10.75
318.068	58.88
318.282	52.74
318.495	5.63
318.709	69.12
318.922	-80.38
319.136	7.68
319.349	-45.57
319.563	-12.8
319.776	36.35
319.99	-16.9
320.203	83.45
320.417	13.82
320.63	-12.8
320.843	75.26
321.057	1.54
321.27	52.74
321.483	46.59
321.697	138.75
321.91	60.93
322.124	65.02
322.337	-39.42
322.55	71.17
322.763	26.11
322.977	58.88
323.19	108.03
323.403	85.5
323.617	32.26
323.83	99.84
324.043	-51.71
324.256	13.82
324.469	-12.8
324.683	36.35
324.896	42.5
325.109	60.93
325.322	13.82
325.535	46.59
325.748	-20.99
325.962	11.78
326.175	79.36
326.388	52.74
326.601	91.65
326.814	132.61
327.027	9.73
327.24	77.31
327.453	-23.04
327.666	26.11
327.879	22.02
328.092	81.41
328.305	11.78
328.518	26.11
328.731	-137.73
328.944	-23.04
329.157	91.65
329.37	1.54
329.583	79.36
329.796	124.41
330.009	28.16
330.222	52.74
330.435	19.97
330.648	50.69
330.861	-6.66
331.073	58.88
331.286	22.02
331.499	-12.8
331.712	11.78
331.925	99.84
332.138	22.02
332.35	28.16
332.563	-20.99
332.776	54.78
332.989	7.68
333.202	-4.61
333.414	9.73
333.627	17.92
333.84	-14.85
334.053	22.02
334.265	89.6
334.478	17.92
334.691	-12.8
334.903	83.45
335.116	-18.94
335.329	54.78
335.541	-12.8
335.754	103.93
335.966	-39.42
336.179	95.74
336.392	-6.66
336.604	1.54
336.817	75.26
337.029	-18.94
337.242	58.88
337.454	42.5
337.667	54.78
337.88	99.84
338.092	-39.42
338.305	75.26
338.517	73.21
338.729	3.58
338.942	46.59
339.154	58.88
339.367	-29.18
339.579	52.74
339.792	9.73
340.004	81.41
340.217	34.3
340.429	-14.85
340.641	7.68
340.854	5.63
341.066	1.54
341.278	19.97
341.491	112.13
341.703	15.87
341.915	-2.56
342.128	-20.99
342.34	-0.51
342.552	-14.85
342.764	67.07
342.977	5.63
343.189	13.82
343.401	-12.8
343.613	-53.76
343.826	-20.99
344.038	-39.42
344.25	-6.66
344.462	-18.94
344.674	-12.8
344.886	-39.42
345.099	1.54
345.311	5.63
345.523	69.12
345.735	-61.95
345.947	42.5
346.159	30.21
346.371	50.69
346.583	65.02
346.795	50.69
347.007	-23.04
347.219	19.97
347.431	93.69
347.643	42.5
347.855	1.54
348.067	-6.66
348.279	-72.19
348.491	-0.51
348.703	30.21
348.915	69.12
349.127	-4.61
349.339	22.02
349.551	-4.61
349.763	71.17
349.975	36.35
350.187	91.65
350.399	34.3
350.61	42.5
350.822	22.02
351.034	17.92
351.246	54.78
351.458	26.11
351.669	95.74
351.881	65.02
352.093	26.11
352.305	17.92
352.517	11.78
352.728	173.57
352.94	1.54
353.152	26.11
353.363	71.17
353.575	42.5
353.787	116.22
353.999	50.69
354.21	28.16
354.422	-14.85
354.633	-18.94
354.845	-4.61
355.057	91.65
355.268	101.89
355.48	81.41
355.692	58.88
355.903	-6.66
356.115	83.45
356.326	-25.09
356.538	28.16
356.749	36.35
356.961	19.97
357.172	-25.09
357.384	11.78
357.595	165.37
357.807	42.5
358.018	-55.81
358.23	101.89
358.441	1.54
358.653	-33.28
358.864	75.26
359.075	-4.61
359.287	-14.85
359.498	32.26
359.709	26.11
359.921	38.4
360.132	46.59
360.344	30.21
360.555	-35.33
360.766	9.73
360.977	101.89
361.189	83.45
361.4	15.87
361.611	48.64
361.823	120.32
362.034	26.11
362.245	-6.66
362.456	52.74
362.667	50.69
362.879	34.3
363.09	-2.56
363.301	69.12
363.512	95.74
363.723	58.88
363.935	-39.42
364.146	118.27
364.357	71.17
364.568	13.82
364.779	-6.66
364.99	-4.61
365.201	-12.8
365.412	34.3
365.623	-6.66
365.834	9.73
366.045	28.16
366.256	34.3
366.467	26.11
366.678	36.35
366.889	69.12
367.1	34.3
367.311	32.26
367.522	1.54
367.733	69.12
367.944	67.07
368.155	34.3
368.366	75.26
368.577	60.93
368.788	52.74
368.999	5.63
369.209	-4.61
369.42	140.8
369.631	11.78
369.842	46.59
370.053	22.02
370.264	56.83
370.474	46.59
370.685	17.92
370.896	24.06
371.107	79.36
371.317	69.12
371.528	11.78
371.739	65.02
371.95	83.45
372.16	17.92
372.371	-23.04
372.582	44.54
372.792	40.45
373.003	52.74
373.214	3.58
373.424	30.21
373.635	79.36
373.846	108.03
374.056	13.82
374.267	38.4
374.477	56.83
374.688	9.73
374.898	108.03
375.109	60.93
375.319	-39.42
375.53	79.36
375.74	110.08
375.951	58.88
376.161	75.26
376.372	85.5
376.582	30.21
376.793	3.58
377.003	26.11
377.214	-6.66
377.424	54.78
377.635	9.73
377.845	11.78
378.055	-23.04
378.266	50.69
378.476	9.73
378.686	32.26
378.897	30.21
379.107	83.45
379.317	54.78
379.528	50.69
379.738	-16.9
379.948	32.26
380.158	91.65
380.369	46.59
380.579	93.69
380.789	-18.94
380.999	116.22
381.21	114.17
381.42	110.08
381.63	108.03
381.84	-2.56
382.05	32.26
382.261	52.74
382.471	54.78
382.681	-39.42
382.891	136.7
383.101	15.87
383.311	75.26
383.521	58.88
383.731	46.59
383.941	120.32
384.151	34.3
384.361	122.37
384.571	58.88
384.781	-47.62
384.991	101.89
385.201	77.31
385.411	58.88
385.621	110.08
385.831	-2.56
386.041	3.58
386.251	118.27
386.461	34.3
386.671	15.87
386.881	67.07
387.091	-33.28
387.301	22.02
387.511	50.69
387.72	52.74
387.93	67.07
388.14	44.54
388.35	42.5
388.56	62.98
388.769	77.31
388.979	60.93
389.189	36.35
389.399	19.97
389.609	138.75
389.818	91.65
390.028	75.26
390.238	101.89
390.447	3.58
390.657	60.93
390.867	81.41
391.076	-23.04
391.286	83.45
391.496	40.45
391.705	-23.04
391.915	30.21
392.125	62.98
392.334	83.45
392.544	110.08
392.753	36.35
392.963	-6.66
393.172	110.08
393.382	42.5
393.591	116.22
393.801	48.64
394.01	101.89
394.22	42.5
394.429	124.41
394.639	65.02
394.848	40.45
395.058	34.3
395.267	19.97
395.477	42.5
395.686	140.8
395.895	97.79
396.105	122.37
396.314	134.65
396.524	83.45
396.733	142.85
396.942	50.69
397.152	38.4
397.361	126.46
397.57	132.61
397.78	77.31
397.989	36.35
398.198	132.61
398.407	101.89
398.617	60.93
398.826	40.45
399.035	114.17
399.244	65.02
399.453	46.59
399.663	91.65
399.872	52.74
400.081	30.21
400.29	181.76
400.499	52.74
400.708	34.3
400.917	3.58
401.127	79.36
401.336	36.35
401.545	124.41
401.754	116.22
401.963	77.31
402.172	95.74
402.381	97.79
402.59	95.74
402.799	114.17
403.008	26.11
403.217	175.61
403.426	65.02
403.635	126.46
403.844	60.93
404.053	155.13
404.262	105.98
404.471	69.12
404.68	148.99
404.888	142.85
405.097	124.41
405.306	132.61
405.515	216.57
405.724	163.33
405.933	136.7
406.142	101.89
406.35	159.23
406.559	159.23
406.768	134.65
406.977	214.52
407.185	151.04
407.394	165.37
407.603	134.65
407.812	208.38
408.02	206.33
408.229	87.55
408.438	196.09
408.646	175.61
408.855	230.91
409.064	200.19
409.272	243.2
409.481	224.76
409.69	146.94
409.898	157.18
410.107	220.67
410.315	247.29
410.524	308.73
410.733	278.01
410.941	271.87
411.15	263.68
411.358	353.79
411.567	415.23
411.775	323.07
411.984	321.02
412.192	380.41
412.401	325.12
412.609	407.03
412.818	382.46
413.026	454.14
413.234	464.38
413.443	419.32
413.651	435.71
413.86	493.05
414.068	484.86
414.276	570.87
414.485	468.47
414.693	529.91
414.901	663.03
415.11	548.34
415.318	667.13
415.526	534.01
415.734	728.56
415.943	796.15
416.151	722.42
416.359	652.79
416.567	728.56
416.776	665.08
416.984	839.16
417.192	937.46
417.4	812.53
417.608	914.93
417.817	855.54
418.025	1029.62
418.233	1076.72
418.441	912.88
418.649	1005.04
418.857	1093.1
419.065	1215.98
419.273	1048.05
419.481	1199.6
419.689	1209.84
419.897	1224.17
420.105	1314.28
420.313	1304.04
420.521	1463.79
420.729	1422.83
420.937	1533.42
421.145	1543.66
421.353	1560.04
421.561	1805.8
421.769	1705.45
421.977	1736.17
422.185	1680.87
422.393	1920.48
422.601	1967.59
422.809	2002.4
423.017	1918.43
423.224	2098.66
423.432	2117.09
423.64	2205.15
423.848	2319.84
424.056	2321.88
424.263	2389.47
424.471	2409.95
424.679	2461.15
424.887	2565.59
425.094	2674.14
425.302	2708.95
425.51	2911.7
425.718	2760.15
425.925	3010
426.133	3044.82
426.341	3317.2
426.548	3278.29
426.756	3468.75
426.964	3352.01
427.171	3491.27
427.379	3800.52
427.586	3796.42
427.794	3876.29
428.001	4138.43
428.209	4212.16
428.417	4128.19
428.624	4462.01
428.832	4447.68
429.039	4451.77
429.247	4402.62
429.454	4847.03
429.662	5199.28
429.869	4853.17
430.076	5285.3
430.284	5131.7
430.491	5313.97
430.699	5442.99
430.906	5703.08
431.114	5590.44
431.321	5989.8
431.528	6088.1
431.736	6215.07
431.943	6706.59
432.15	6411.68
432.358	6401.44
432.565	6833.56
432.772	6677.91
432.979	7112.08
433.187	7329.17
433.394	7398.8
433.601	7865.74
433.808	7867.78
434.016	7783.82
434.223	8154.5
434.43	8375.68
434.637	8422.78
434.844	8916.34
435.052	8983.93
435.259	9047.41
435.466	9143.67
435.673	9225.59
435.88	9637.23
436.087	10159.46
436.294	10147.17
436.501	9784.68
436.708	9987.43
436.915	10315.11
437.122	10769.76
437.329	10691.93
437.537	11158.87
437.743	11568.46
437.95	11294.04
438.157	11701.58
438.364	12418.37
438.571	12117.32
438.778	12371.27
438.985	13389.11
439.192	12930.36
439.399	13337.91
439.606	13149.5
439.813	14046.51
440.02	14566.69
440.227	14267.69
440.433	14355.75
440.64	14894.36
440.847	14634.27
441.054	14970.14
441.261	16147.72
441.467	15881.49
441.674	16080.14
441.881	16559.36
442.088	16569.6
442.294	16524.55
442.501	16772.35
442.708	17075.45
442.914	18005.23
443.121	18842.85
443.328	18195.69
443.534	19254.49
443.741	18824.42
443.948	18707.68
444.154	19848.4
444.361	19907.79
444.568	19809.49
444.774	20104.4
444.981	20208.84
445.187	20665.54
445.394	21703.86
445.6	21507.26
445.807	23839.89
446.013	22604.97
446.22	22701.22
446.426	23450.78
446.633	23889.04
446.839	24599.69
447.046	24173.71
447.252	25164.93
447.459	24904.84
447.665	25136.26
447.871	26172.53
448.078	27106.4
448.284	25721.98
448.491	26401.9
448.697	27362.4
448.903	28025.94
449.11	28105.81
449.316	27583.58
449.522	28306.51
449.728	28748.87
449.935	28937.29
450.141	28732.49
450.347	29631.55
450.553	29070.4
450.76	29416.51
450.966	30233.65
451.172	29606.97
451.378	30678.06
451.584	29619.26
451.791	30745.64
451.997	30557.23
452.203	31011.88
452.409	31075.37
452.615	30784.55
452.821	29619.26
453.027	29631.55
453.233	30958.63
453.44	29811.77
453.646	30057.53
453.852	30180.4
454.058	30639.15
454.264	29596.73
454.47	30417.97
454.676	29725.75
454.882	30671.92
455.088	27712.6
455.294	28892.23
455.5	28947.53
455.705	29000.77
455.911	27614.3
456.117	27520.09
456.323	27184.23
456.529	25635.96
456.735	26602.6
456.941	25724.02
457.147	25533.56
457.352	25199.74
457.558	24953.99
457.764	25003.14
457.97	24183.95
458.176	23782.55
458.381	23815.32
458.587	22711.46
458.793	22959.27
458.999	21595.32
459.204	22805.67
459.41	22428.84
459.616	21081.28
459.821	20997.31
460.027	20710.6
460.233	20477.13
460.438	19604.69
460.644	19850.45
460.85	18961.63
461.055	18416.87
461.261	18449.64
461.466	17157.37
461.672	16469.25
461.878	17765.62
462.083	16614.66
462.289	16438.53
462.494	16354.57
462.7	15553.81
462.905	15056.15
463.111	15289.62
463.316	15744.27
463.522	15324.44
463.727	15166.74
463.932	15217.94
464.138	14982.43
464.343	15168.79
464.549	14716.19
464.754	15052.06
464.959	14818.59
465.165	14843.17
465.37	14060.84
465.575	13819.18
465.781	14486.82
465.986	14449.96
466.191	14048.55
466.397	13696.3
466.602	12911.93
466.807	13649.2
467.012	13733.17
467.218	13501.75
467.423	13311.28
467.628	13405.49
467.833	14193.96
