Data from USB4F104151__206__14-20-39-963.txt Node

Date: Thu Mar 13 14:20:39 EDT 2025
User: louis
Spectrometer: USB4F10415
Trigger mode: 4
Integration Time (sec): 2.000000E-2
Scans to average: 1
Electric dark correction enabled: true
Nonlinearity correction enabled: false
Boxcar width: 0
XAxis mode: Wavelengths
Number of Pixels in Spectrum: 3648
>>>>>Begin Spectral Data<<<<<
178.204	-133.63
178.424	-133.63
178.644	-133.63
178.864	-84.48
179.084	-76.29
179.304	5.63
179.524	-25.09
179.744	-29.18
179.964	3.58
180.184	40.45
180.404	3.58
180.624	-0.51
180.844	3.58
181.064	-12.8
181.283	-27.14
181.503	46.59
181.723	-8.7
181.943	-51.71
182.163	85.5
182.383	73.21
182.602	44.54
182.822	34.3
183.042	73.21
183.262	11.78
183.482	34.3
183.701	-8.7
183.921	19.97
184.141	-37.38
184.361	13.82
184.58	22.02
184.8	36.35
185.02	-0.51
185.239	38.4
185.459	-0.51
185.679	24.06
185.898	32.26
186.118	60.93
186.338	48.64
186.557	81.41
186.777	44.54
186.997	-27.14
187.216	22.02
187.436	73.21
187.655	75.26
187.875	44.54
188.095	-6.66
188.314	52.74
188.534	85.5
188.753	52.74
188.973	32.26
189.192	77.31
189.412	77.31
189.631	32.26
189.851	38.4
190.07	62.98
190.29	-2.56
190.509	19.97
190.729	67.07
190.948	69.12
191.168	120.32
191.387	52.74
191.607	44.54
191.826	65.02
192.045	30.21
192.265	-27.14
192.484	-43.52
192.704	-8.7
192.923	71.17
193.142	120.32
193.362	112.13
193.581	101.89
193.8	73.21
194.02	52.74
194.239	60.93
194.458	54.78
194.678	62.98
194.897	56.83
195.116	40.45
195.335	-18.94
195.555	62.98
195.774	-12.8
195.993	-31.23
196.212	24.06
196.432	-92.67
196.651	11.78
196.87	-4.61
197.089	40.45
197.308	-0.51
197.528	46.59
197.747	11.78
197.966	15.87
198.185	60.93
198.404	30.21
198.623	-12.8
198.842	52.74
199.062	-10.75
199.281	52.74
199.5	26.11
199.719	40.45
199.938	69.12
200.157	44.54
200.376	-2.56
200.595	97.79
200.814	-31.23
201.033	5.63
201.252	52.74
201.471	130.56
201.69	30.21
201.909	-43.52
202.128	65.02
202.347	71.17
202.566	-6.66
202.785	-25.09
203.004	22.02
203.223	87.55
203.442	-31.23
203.661	-18.94
203.879	58.88
204.098	60.93
204.317	-4.61
204.536	-16.9
204.755	9.73
204.974	52.74
205.193	62.98
205.411	15.87
205.63	-53.76
205.849	52.74
206.068	87.55
206.287	-37.38
206.505	36.35
206.724	28.16
206.943	38.4
207.162	62.98
207.381	44.54
207.599	65.02
207.818	-10.75
208.037	-0.51
208.255	60.93
208.474	-16.9
208.693	38.4
208.911	73.21
209.13	97.79
209.349	42.5
209.567	50.69
209.786	36.35
210.005	52.74
210.223	24.06
210.442	-37.38
210.661	69.12
210.879	69.12
211.098	7.68
211.316	17.92
211.535	71.17
211.753	13.82
211.972	75.26
212.191	62.98
212.409	79.36
212.628	26.11
212.846	11.78
213.065	81.41
213.283	97.79
213.502	17.92
213.72	48.64
213.938	-0.51
214.157	65.02
214.375	56.83
214.594	-10.75
214.812	56.83
215.031	36.35
215.249	22.02
215.467	17.92
215.686	11.78
215.904	46.59
216.122	19.97
216.341	52.74
216.559	87.55
216.778	11.78
216.996	30.21
217.214	-6.66
217.432	-4.61
217.651	-41.47
217.869	93.69
218.087	-10.75
218.306	28.16
218.524	40.45
218.742	28.16
218.96	-41.47
219.179	32.26
219.397	103.93
219.615	97.79
219.833	46.59
220.051	-29.18
220.27	87.55
220.488	56.83
220.706	122.37
220.924	17.92
221.142	22.02
221.36	-20.99
221.578	73.21
221.796	-12.8
222.015	28.16
222.233	30.21
222.451	-31.23
222.669	5.63
222.887	19.97
223.105	15.87
223.323	97.79
223.541	-29.18
223.759	75.26
223.977	60.93
224.195	32.26
224.413	17.92
224.631	3.58
224.849	46.59
225.067	40.45
225.285	-41.47
225.503	60.93
225.721	-16.9
225.939	54.78
226.157	60.93
226.375	40.45
226.592	-12.8
226.81	46.59
227.028	128.51
227.246	81.41
227.464	-49.66
227.682	75.26
227.9	142.85
228.117	38.4
228.335	-4.61
228.553	-2.56
228.771	77.31
228.989	-18.94
229.206	9.73
229.424	-10.75
229.642	40.45
229.86	-4.61
230.077	52.74
230.295	65.02
230.513	28.16
230.731	85.5
230.948	165.37
231.166	118.27
231.384	44.54
231.601	7.68
231.819	40.45
232.037	46.59
232.254	-4.61
232.472	-16.9
232.689	36.35
232.907	97.79
233.125	110.08
233.342	26.11
233.56	5.63
233.777	54.78
233.995	3.58
234.213	19.97
234.43	3.58
234.648	38.4
234.865	48.64
235.083	97.79
235.3	44.54
235.518	124.41
235.735	56.83
235.953	46.59
236.17	52.74
236.388	-8.7
236.605	24.06
236.822	110.08
237.04	36.35
237.257	42.5
237.475	62.98
237.692	1.54
237.909	62.98
238.127	-18.94
238.344	48.64
238.562	40.45
238.779	24.06
238.996	-12.8
239.214	36.35
239.431	142.85
239.648	-68.09
239.865	110.08
240.083	44.54
240.3	58.88
240.517	-6.66
240.735	46.59
240.952	126.46
241.169	114.17
241.386	15.87
241.603	22.02
241.821	-6.66
242.038	95.74
242.255	44.54
242.472	28.16
242.689	126.46
242.907	42.5
243.124	15.87
243.341	28.16
243.558	28.16
243.775	44.54
243.992	11.78
244.209	58.88
244.426	85.5
244.643	26.11
244.86	79.36
245.078	60.93
245.295	15.87
245.512	13.82
245.729	24.06
245.946	-0.51
246.163	36.35
246.38	3.58
246.597	85.5
246.814	38.4
247.031	-12.8
247.248	93.69
247.464	58.88
247.681	54.78
247.898	44.54
248.115	54.78
248.332	-2.56
248.549	22.02
248.766	83.45
248.983	81.41
249.2	73.21
249.417	3.58
249.633	-4.61
249.85	87.55
250.067	28.16
250.284	101.89
250.501	60.93
250.717	77.31
250.934	7.68
251.151	15.87
251.368	48.64
251.585	24.06
251.801	9.73
252.018	42.5
252.235	71.17
252.451	-6.66
252.668	24.06
252.885	-68.09
253.102	112.13
253.318	9.73
253.535	42.5
253.752	101.89
253.968	42.5
254.185	30.21
254.401	99.84
254.618	62.98
254.835	114.17
255.051	50.69
255.268	24.06
255.484	52.74
255.701	15.87
255.917	22.02
256.134	-16.9
256.351	32.26
256.567	13.82
256.784	52.74
257	-31.23
257.217	13.82
257.433	77.31
257.65	7.68
257.866	28.16
258.082	-12.8
258.299	-29.18
258.515	40.45
258.732	11.78
258.948	54.78
259.165	-10.75
259.381	22.02
259.597	44.54
259.814	13.82
260.03	50.69
260.246	85.5
260.463	69.12
260.679	28.16
260.895	22.02
261.112	97.79
261.328	-33.28
261.544	26.11
261.761	28.16
261.977	32.26
262.193	32.26
262.409	54.78
262.626	11.78
262.842	69.12
263.058	13.82
263.274	-41.47
263.49	-4.61
263.707	138.75
263.923	69.12
264.139	-20.99
264.355	7.68
264.571	56.83
264.787	103.93
265.004	44.54
265.22	32.26
265.436	13.82
265.652	44.54
265.868	-12.8
266.084	22.02
266.3	73.21
266.516	28.16
266.732	-25.09
266.948	11.78
267.164	3.58
267.38	58.88
267.596	17.92
267.812	112.13
268.028	15.87
268.244	71.17
268.46	40.45
268.676	11.78
268.892	30.21
269.108	5.63
269.324	-4.61
269.54	85.5
269.756	48.64
269.972	-68.09
270.188	15.87
270.403	60.93
270.619	163.33
270.835	52.74
271.051	17.92
271.267	19.97
271.483	60.93
271.698	87.55
271.914	-4.61
272.13	60.93
272.346	22.02
272.562	11.78
272.777	60.93
272.993	81.41
273.209	26.11
273.425	40.45
273.64	19.97
273.856	56.83
274.072	54.78
274.287	13.82
274.503	118.27
274.719	65.02
274.934	30.21
275.15	38.4
275.366	62.98
275.581	46.59
275.797	44.54
276.012	24.06
276.228	60.93
276.444	19.97
276.659	24.06
276.875	44.54
277.09	-20.99
277.306	36.35
277.521	128.51
277.737	-12.8
277.952	93.69
278.168	48.64
278.383	38.4
278.599	9.73
278.814	15.87
279.03	-8.7
279.245	85.5
279.461	22.02
279.676	-4.61
279.892	5.63
280.107	38.4
280.322	7.68
280.538	17.92
280.753	46.59
280.969	40.45
281.184	36.35
281.399	42.5
281.615	22.02
281.83	81.41
282.045	13.82
282.26	19.97
282.476	5.63
282.691	97.79
282.906	32.26
283.122	85.5
283.337	62.98
283.552	48.64
283.767	56.83
283.983	85.5
284.198	46.59
284.413	60.93
284.628	26.11
284.843	17.92
285.058	22.02
285.274	79.36
285.489	13.82
285.704	22.02
285.919	48.64
286.134	69.12
286.349	42.5
286.564	44.54
286.779	50.69
286.995	52.74
287.21	60.93
287.425	65.02
287.64	-4.61
287.855	54.78
288.07	48.64
288.285	17.92
288.5	114.17
288.715	56.83
288.93	62.98
289.145	28.16
289.36	42.5
289.575	54.78
289.79	-4.61
290.004	19.97
290.219	56.83
290.434	32.26
290.649	46.59
290.864	11.78
291.079	73.21
291.294	175.61
291.509	60.93
291.724	11.78
291.938	19.97
292.153	87.55
292.368	26.11
292.583	62.98
292.798	52.74
293.012	58.88
293.227	15.87
293.442	77.31
293.657	85.5
293.871	138.75
294.086	105.98
294.301	130.56
294.516	-2.56
294.73	38.4
294.945	114.17
295.16	52.74
295.374	11.78
295.589	93.69
295.804	77.31
296.018	60.93
296.233	54.78
296.447	-29.18
296.662	11.78
296.877	112.13
297.091	52.74
297.306	89.6
297.52	52.74
297.735	42.5
297.949	46.59
298.164	75.26
298.378	73.21
298.593	67.07
298.807	13.82
299.022	-6.66
299.236	89.6
299.451	26.11
299.665	-0.51
299.88	38.4
300.094	15.87
300.309	58.88
300.523	11.78
300.737	5.63
300.952	77.31
301.166	28.16
301.381	60.93
301.595	3.58
301.809	48.64
302.024	46.59
302.238	50.69
302.452	85.5
302.667	79.36
302.881	95.74
303.095	103.93
303.309	87.55
303.524	67.07
303.738	32.26
303.952	54.78
304.166	112.13
304.381	36.35
304.595	122.37
304.809	17.92
305.023	120.32
305.237	69.12
305.452	85.5
305.666	120.32
305.88	95.74
306.094	67.07
306.308	97.79
306.522	112.13
306.736	52.74
306.95	19.97
307.164	-4.61
307.379	44.54
307.593	11.78
307.807	116.22
308.021	42.5
308.235	3.58
308.449	38.4
308.663	11.78
308.877	99.84
309.091	85.5
309.305	136.7
309.519	97.79
309.733	134.65
309.947	-16.9
310.161	118.27
310.374	85.5
310.588	32.26
310.802	11.78
311.016	71.17
311.23	60.93
311.444	-20.99
311.658	83.45
311.872	101.89
312.085	7.68
312.299	42.5
312.513	60.93
312.727	34.3
312.941	71.17
313.154	-2.56
313.368	69.12
313.582	32.26
313.796	118.27
314.009	32.26
314.223	58.88
314.437	116.22
314.651	77.31
314.864	-16.9
315.078	19.97
315.292	-12.8
315.505	-20.99
315.719	36.35
315.933	-102.91
316.146	-59.9
316.36	42.5
316.573	118.27
316.787	-2.56
317.001	52.74
317.214	-94.72
317.428	56.83
317.641	40.45
317.855	-4.61
318.068	69.12
318.282	19.97
318.495	40.45
318.709	85.5
318.922	28.16
319.136	93.69
319.349	73.21
319.563	19.97
319.776	32.26
319.99	77.31
320.203	24.06
320.417	-4.61
320.63	52.74
320.843	122.37
321.057	44.54
321.27	44.54
321.483	44.54
321.697	48.64
321.91	81.41
322.124	60.93
322.337	56.83
322.55	44.54
322.763	77.31
322.977	62.98
323.19	36.35
323.403	24.06
323.617	38.4
323.83	19.97
324.043	44.54
324.256	38.4
324.469	36.35
324.683	87.55
324.896	69.12
325.109	34.3
325.322	28.16
325.535	112.13
325.748	79.36
325.962	22.02
326.175	44.54
326.388	-27.14
326.601	85.5
326.814	44.54
327.027	112.13
327.24	79.36
327.453	48.64
327.666	50.69
327.879	44.54
328.092	36.35
328.305	26.11
328.518	83.45
328.731	52.74
328.944	34.3
329.157	32.26
329.37	24.06
329.583	108.03
329.796	34.3
330.009	58.88
330.222	44.54
330.435	-2.56
330.648	28.16
330.861	5.63
331.073	-25.09
331.286	-2.56
331.499	75.26
331.712	67.07
331.925	89.6
332.138	44.54
332.35	142.85
332.563	69.12
332.776	44.54
332.989	5.63
333.202	24.06
333.414	79.36
333.627	79.36
333.84	60.93
334.053	132.61
334.265	-2.56
334.478	83.45
334.691	15.87
334.903	13.82
335.116	-0.51
335.329	89.6
335.541	-59.9
335.754	91.65
335.966	69.12
336.179	36.35
336.392	75.26
336.604	28.16
336.817	36.35
337.029	24.06
337.242	52.74
337.454	-8.7
337.667	24.06
337.88	54.78
338.092	91.65
338.305	56.83
338.517	24.06
338.729	32.26
338.942	62.98
339.154	-12.8
339.367	1.54
339.579	126.46
339.792	24.06
340.004	1.54
340.217	71.17
340.429	120.32
340.641	-10.75
340.854	67.07
341.066	40.45
341.278	69.12
341.491	46.59
341.703	24.06
341.915	-4.61
342.128	60.93
342.34	38.4
342.552	26.11
342.764	15.87
342.977	-4.61
343.189	-6.66
343.401	73.21
343.613	60.93
343.826	13.82
344.038	44.54
344.25	126.46
344.462	17.92
344.674	54.78
344.886	89.6
345.099	77.31
345.311	103.93
345.523	62.98
345.735	36.35
345.947	62.98
346.159	54.78
346.371	95.74
346.583	56.83
346.795	101.89
347.007	40.45
347.219	99.84
347.431	54.78
347.643	103.93
347.855	3.58
348.067	175.61
348.279	38.4
348.491	54.78
348.703	75.26
348.915	71.17
349.127	46.59
349.339	32.26
349.551	19.97
349.763	81.41
349.975	69.12
350.187	38.4
350.399	1.54
350.61	3.58
350.822	97.79
351.034	93.69
351.246	101.89
351.458	48.64
351.669	54.78
351.881	69.12
352.093	138.75
352.305	114.17
352.517	48.64
352.728	75.26
352.94	-10.75
353.152	30.21
353.363	79.36
353.575	44.54
353.787	89.6
353.999	73.21
354.21	97.79
354.422	54.78
354.633	19.97
354.845	30.21
355.057	89.6
355.268	118.27
355.48	112.13
355.692	50.69
355.903	17.92
356.115	85.5
356.326	79.36
356.538	54.78
356.749	105.98
356.961	89.6
357.172	52.74
357.384	79.36
357.595	89.6
357.807	58.88
358.018	28.16
358.23	22.02
358.441	93.69
358.653	110.08
358.864	85.5
359.075	15.87
359.287	79.36
359.498	85.5
359.709	75.26
359.921	77.31
360.132	65.02
360.344	79.36
360.555	56.83
360.766	69.12
360.977	44.54
361.189	142.85
361.4	118.27
361.611	77.31
361.823	118.27
362.034	3.58
362.245	62.98
362.456	60.93
362.667	60.93
362.879	81.41
363.09	28.16
363.301	120.32
363.512	105.98
363.723	40.45
363.935	7.68
364.146	112.13
364.357	-10.75
364.568	56.83
364.779	22.02
364.99	30.21
365.201	44.54
365.412	44.54
365.623	11.78
365.834	118.27
366.045	32.26
366.256	52.74
366.467	52.74
366.678	40.45
366.889	44.54
367.1	56.83
367.311	93.69
367.522	56.83
367.733	44.54
367.944	69.12
368.155	-4.61
368.366	54.78
368.577	52.74
368.788	144.89
368.999	36.35
369.209	95.74
369.42	101.89
369.631	134.65
369.842	116.22
370.053	93.69
370.264	126.46
370.474	105.98
370.685	62.98
370.896	7.68
371.107	110.08
371.317	77.31
371.528	105.98
371.739	103.93
371.95	69.12
372.16	73.21
372.371	62.98
372.582	19.97
372.792	52.74
373.003	60.93
373.214	13.82
373.424	134.65
373.635	67.07
373.846	112.13
374.056	71.17
374.267	44.54
374.477	171.52
374.688	-4.61
374.898	93.69
375.109	108.03
375.319	110.08
375.53	79.36
375.74	56.83
375.951	60.93
376.161	65.02
376.372	93.69
376.582	40.45
376.793	28.16
377.003	28.16
377.214	62.98
377.424	65.02
377.635	24.06
377.845	44.54
378.055	69.12
378.266	38.4
378.476	93.69
378.686	42.5
378.897	87.55
379.107	110.08
379.317	73.21
379.528	52.74
379.738	30.21
379.948	-12.8
380.158	138.75
380.369	17.92
380.579	34.3
380.789	44.54
380.999	79.36
381.21	138.75
381.42	97.79
381.63	11.78
381.84	87.55
382.05	93.69
382.261	101.89
382.471	48.64
382.681	11.78
382.891	71.17
383.101	81.41
383.311	36.35
383.521	26.11
383.731	62.98
383.941	120.32
384.151	42.5
384.361	34.3
384.571	65.02
384.781	126.46
384.991	110.08
385.201	132.61
385.411	69.12
385.621	56.83
385.831	85.5
386.041	30.21
386.251	101.89
386.461	159.23
386.671	19.97
386.881	77.31
387.091	110.08
387.301	132.61
387.511	52.74
387.72	46.59
387.93	69.12
388.14	7.68
388.35	95.74
388.56	116.22
388.769	73.21
388.979	73.21
389.189	-16.9
389.399	91.65
389.609	85.5
389.818	85.5
390.028	62.98
390.238	36.35
390.447	19.97
390.657	73.21
390.867	101.89
391.076	85.5
391.286	-8.7
391.496	50.69
391.705	128.51
391.915	159.23
392.125	101.89
392.334	71.17
392.544	142.85
392.753	120.32
392.963	114.17
393.172	118.27
393.382	85.5
393.591	151.04
393.801	77.31
394.01	103.93
394.22	134.65
394.429	142.85
394.639	69.12
394.848	65.02
395.058	99.84
395.267	134.65
395.477	93.69
395.686	101.89
395.895	136.7
396.105	87.55
396.314	52.74
396.524	77.31
396.733	65.02
396.942	159.23
397.152	118.27
397.361	151.04
397.57	159.23
397.78	87.55
397.989	128.51
398.198	171.52
398.407	58.88
398.617	163.33
398.826	101.89
399.035	112.13
399.244	144.89
399.453	157.18
399.663	192
399.872	200.19
400.081	93.69
400.29	183.81
400.499	103.93
400.708	138.75
400.917	69.12
401.127	151.04
401.336	97.79
401.545	192
401.754	175.61
401.963	208.38
402.172	134.65
402.381	52.74
402.59	128.51
402.799	159.23
403.008	208.38
403.217	224.76
403.426	167.42
403.635	120.32
403.844	138.75
404.053	179.71
404.262	151.04
404.471	175.61
404.68	159.23
404.888	118.27
405.097	118.27
405.306	257.53
405.515	167.42
405.724	192
405.933	224.76
406.142	194.05
406.35	167.42
406.559	153.09
406.768	202.24
406.977	241.15
407.185	275.96
407.394	228.86
407.603	208.38
407.812	282.11
408.02	394.75
408.229	241.15
408.438	282.11
408.646	259.58
408.855	380.41
409.064	400.89
409.272	325.12
409.481	388.6
409.69	359.93
409.898	364.03
410.107	321.02
410.315	443.9
410.524	413.18
410.733	421.37
410.941	396.79
411.15	450.04
411.358	560.63
411.567	486.9
411.775	601.59
411.984	513.53
412.192	544.25
412.401	527.86
412.609	617.97
412.818	577.02
413.026	622.07
413.234	591.35
413.443	667.13
413.651	691.7
413.86	736.76
414.068	734.71
414.276	785.91
414.485	806.39
414.693	857.59
414.901	867.83
415.11	916.98
415.318	896.5
415.526	968.18
415.734	1068.53
415.943	996.85
416.151	1060.34
416.359	1043.95
416.567	959.99
416.776	1177.07
416.984	1172.97
417.192	1261.04
417.4	1267.18
417.608	1289.71
417.817	1367.53
418.025	1297.9
418.233	1500.65
418.441	1453.55
418.649	1482.22
418.857	1682.92
419.065	1693.16
419.273	1623.53
419.481	1816.04
419.689	1945.06
419.897	1834.47
420.105	1940.96
420.313	1971.68
420.521	2100.7
420.729	2045.41
420.937	2174.43
421.145	2180.57
421.353	2366.94
421.561	2424.28
421.769	2518.49
421.977	2584.02
422.185	2579.93
422.393	2772.44
422.601	2913.75
422.809	2891.22
423.017	2997.71
423.224	3030.48
423.432	3175.89
423.64	3282.38
423.848	3397.07
424.056	3237.33
424.263	3575.24
424.471	3657.16
424.679	3714.5
424.887	3952.07
425.094	3995.08
425.302	4212.16
425.51	4156.86
425.718	4425.15
425.925	4412.86
426.133	4498.88
426.341	4808.12
426.548	4967.86
426.756	4926.9
426.964	4996.53
427.171	5283.25
427.379	5494.19
427.586	5688.75
427.794	5819.82
428.001	5997.99
428.209	6397.34
428.417	6165.92
428.624	6600.09
428.832	6686.11
429.039	6727.07
429.247	6565.28
429.454	7196.05
429.662	7650.7
429.869	7214.48
430.076	7720.33
430.284	7447.95
430.491	7822.73
430.699	8158.6
430.906	8250.75
431.114	8277.38
431.321	8588.67
431.528	8916.34
431.736	9317.75
431.943	9835.88
432.15	9301.36
432.358	9577.84
432.565	10077.54
432.772	10284.39
432.979	10835.29
433.187	10591.58
433.394	10806.62
433.601	11578.7
433.808	11707.73
434.016	11537.74
434.223	11875.66
434.43	12690.75
434.637	12488
434.844	13260.09
435.052	13503.79
435.259	13270.33
435.466	13509.94
435.673	13505.84
435.88	14232.87
436.087	14968.09
436.294	15023.39
436.501	14664.99
436.708	15007
436.915	15271.19
437.122	16274.7
437.329	16063.75
437.537	16686.34
437.743	17024.25
437.95	16751.87
438.157	17532.15
438.364	18451.69
438.571	18154.73
438.778	18263.27
438.985	19834.07
439.192	18992.35
439.399	19748.05
439.606	19363.03
439.813	20477.13
440.02	21832.88
440.227	21331.13
440.433	21007.55
440.64	21580.98
440.847	21343.42
441.054	22191.28
441.261	23129.25
441.467	23166.11
441.674	23594.14
441.881	24650.89
442.088	24583.3
442.294	24562.83
442.501	24980.61
442.708	25549.95
442.914	26082.42
443.121	27352.16
443.328	26600.55
443.534	28372.05
443.741	27808.86
443.948	27391.07
444.154	29570.11
444.361	29119.56
444.568	29240.39
444.774	29240.39
444.981	29719.61
445.187	30626.86
445.394	32113.69
445.6	31421.47
445.807	34540.53
446.013	32801.8
446.22	33342.47
446.426	34583.54
446.633	34874.35
446.839	36262.87
447.046	34546.67
447.252	36547.54
447.459	36514.77
447.665	36297.69
447.871	38210.49
448.078	39859.1
448.284	37884.86
448.491	38874.03
448.697	40514.45
448.903	41042.83
449.11	40868.75
449.316	40235.93
449.522	41204.62
449.728	41763.71
449.935	42650.49
450.141	42838.9
450.347	43043.7
450.553	42230.65
450.76	42740.6
450.966	43783.01
451.172	43346.79
451.378	44516.18
451.584	43602.79
451.791	44893.01
451.997	44704.6
452.203	45511.5
452.409	45091.66
452.615	45058.9
452.821	43422.57
453.027	43199.34
453.233	45458.25
453.44	44055.39
453.646	44372.83
453.852	43787.11
454.058	45065.04
454.264	43342.7
454.47	44553.05
454.676	43303.79
454.882	44757.85
455.088	41278.35
455.294	41802.63
455.5	42523.51
455.705	43164.53
455.911	40868.75
456.117	40377.24
456.323	40166.3
456.529	37807.04
456.735	39433.13
456.941	38335.42
457.147	37675.97
457.352	36883.41
457.558	36576.21
457.764	36197.34
457.97	35902.43
458.176	35019.75
458.381	34984.94
458.587	33152.01
458.793	33405.95
458.999	31101.99
459.204	33707.01
459.41	32855.05
459.616	30970.92
459.821	30905.38
460.027	30655.53
460.233	29959.22
460.438	28613.71
460.644	29246.53
460.85	27202.66
461.055	26963.04
461.261	26803.3
461.466	24802.44
461.672	24233.1
461.878	26092.66
462.083	24138.9
462.289	23995.54
462.494	23800.98
462.7	22531.24
462.905	22119.6
463.111	22754.47
463.316	22815.91
463.522	22342.83
463.727	22260.91
463.932	22351.02
464.138	21904.56
464.343	22088.88
464.549	21488.82
464.754	22240.43
464.959	22162.61
465.165	21826.74
465.37	20907.2
465.575	20595.91
465.781	21228.73
465.986	21472.44
466.191	20481.22
466.397	20219.08
466.602	19117.28
466.807	20090.06
467.012	19918.03
