Data from USB4F104151__233__14-22-06-572.txt Node

Date: Thu Mar 13 14:22:06 EDT 2025
User: louis
Spectrometer: USB4F10415
Trigger mode: 4
Integration Time (sec): 2.000000E-2
Scans to average: 1
Electric dark correction enabled: true
Nonlinearity correction enabled: false
Boxcar width: 0
XAxis mode: Wavelengths
Number of Pixels in Spectrum: 3648
>>>>>Begin Spectral Data<<<<<
178.204	-89.77
178.424	-89.77
178.644	-89.77
178.864	-81.58
179.084	-147.11
179.304	-32.43
179.524	-46.76
179.744	-7.85
179.964	18.77
180.184	78.16
180.404	51.54
180.624	47.44
180.844	41.3
181.064	-83.63
181.283	-7.85
181.503	-67.24
181.723	8.53
181.943	-48.81
182.163	117.08
182.383	-32.43
182.602	31.06
182.822	26.96
183.042	24.92
183.262	51.54
183.482	-9.9
183.701	39.25
183.921	49.49
184.141	-50.86
184.361	6.49
184.58	53.59
184.8	82.26
185.02	35.16
185.239	82.26
185.459	16.73
185.679	96.6
185.898	6.49
186.118	41.3
186.338	8.53
186.557	51.54
186.777	22.87
186.997	33.11
187.216	6.49
187.436	78.16
187.655	59.73
187.875	63.83
188.095	74.07
188.314	76.12
188.534	14.68
188.753	-22.19
188.973	6.49
189.192	63.83
189.412	43.35
189.631	-32.43
189.851	-38.57
190.07	55.64
190.29	0.34
190.509	2.39
190.729	72.02
190.948	43.35
191.168	76.12
191.387	45.4
191.607	39.25
191.826	90.45
192.045	35.16
192.265	6.49
192.484	-7.85
192.704	94.55
192.923	-9.9
193.142	22.87
193.362	18.77
193.581	190.8
193.8	14.68
194.02	55.64
194.239	22.87
194.458	92.5
194.678	80.21
194.897	41.3
195.116	-13.99
195.335	-22.19
195.555	96.6
195.774	59.73
195.993	90.45
196.212	22.87
196.432	14.68
196.651	0.34
196.87	47.44
197.089	137.56
197.308	-11.95
197.528	43.35
197.747	-24.23
197.966	-7.85
198.185	106.84
198.404	41.3
198.623	102.74
198.842	47.44
199.062	59.73
199.281	94.55
199.5	53.59
199.719	63.83
199.938	26.96
200.157	14.68
200.376	92.5
200.595	14.68
200.814	72.02
201.033	33.11
201.252	88.4
201.471	78.16
201.69	43.35
201.909	26.96
202.128	8.53
202.347	57.68
202.566	-11.95
202.785	-9.9
203.004	31.06
203.223	106.84
203.442	4.44
203.661	55.64
203.879	35.16
204.098	59.73
204.317	14.68
204.536	65.88
204.755	43.35
204.974	-32.43
205.193	-5.8
205.411	76.12
205.63	33.11
205.849	22.87
206.068	55.64
206.287	43.35
206.505	51.54
206.724	14.68
206.943	112.98
207.162	94.55
207.381	41.3
207.599	31.06
207.818	100.69
208.037	49.49
208.255	12.63
208.474	74.07
208.693	55.64
208.911	53.59
209.13	43.35
209.349	-1.71
209.567	63.83
209.786	82.26
210.005	96.6
210.223	-40.62
210.442	-1.71
210.661	49.49
210.879	74.07
211.098	47.44
211.316	72.02
211.535	-5.8
211.753	22.87
211.972	31.06
212.191	57.68
212.409	14.68
212.628	80.21
212.846	2.39
213.065	35.16
213.283	24.92
213.502	39.25
213.72	55.64
213.938	12.63
214.157	37.2
214.375	39.25
214.594	47.44
214.812	51.54
215.031	49.49
215.249	-20.14
215.467	45.4
215.686	84.31
215.904	63.83
216.122	26.96
216.341	49.49
216.559	0.34
216.778	59.73
216.996	43.35
217.214	47.44
217.432	-30.38
217.651	47.44
217.869	22.87
218.087	57.68
218.306	57.68
218.524	6.49
218.742	22.87
218.96	88.4
219.179	88.4
219.397	35.16
219.615	8.53
219.833	63.83
220.051	-1.71
220.27	106.84
220.488	-1.71
220.706	26.96
220.924	-18.09
221.142	6.49
221.36	51.54
221.578	51.54
221.796	88.4
222.015	24.92
222.233	26.96
222.451	24.92
222.669	43.35
222.887	80.21
223.105	-11.95
223.323	-20.14
223.541	78.16
223.759	49.49
223.977	53.59
224.195	69.97
224.413	59.73
224.631	47.44
224.849	-9.9
225.067	88.4
225.285	55.64
225.503	72.02
225.721	-32.43
225.939	121.17
226.157	55.64
226.375	24.92
226.592	33.11
226.81	-9.9
227.028	133.46
227.246	129.36
227.464	-9.9
227.682	78.16
227.9	80.21
228.117	96.6
228.335	55.64
228.553	59.73
228.771	96.6
228.989	47.44
229.206	35.16
229.424	0.34
229.642	37.2
229.86	14.68
230.077	67.92
230.295	6.49
230.513	65.88
230.731	39.25
230.948	22.87
231.166	57.68
231.384	26.96
231.601	47.44
231.819	41.3
232.037	-3.75
232.254	-30.38
232.472	72.02
232.689	20.82
232.907	39.25
233.125	22.87
233.342	-1.71
233.56	0.34
233.777	14.68
233.995	57.68
234.213	76.12
234.43	55.64
234.648	-18.09
234.865	16.73
235.083	41.3
235.3	72.02
235.518	39.25
235.735	-9.9
235.953	6.49
236.17	20.82
236.388	47.44
236.605	37.2
236.822	18.77
237.04	18.77
237.257	0.34
237.475	-54.95
237.692	43.35
237.909	117.08
238.127	65.88
238.344	0.34
238.562	45.4
238.779	53.59
238.996	14.68
239.214	65.88
239.431	63.83
239.648	26.96
239.865	41.3
240.083	10.58
240.3	18.77
240.517	35.16
240.735	51.54
240.952	35.16
241.169	22.87
241.386	0.34
241.603	35.16
241.821	55.64
242.038	96.6
242.255	100.69
242.472	0.34
242.689	88.4
242.907	98.64
243.124	-16.04
243.341	-50.86
243.558	6.49
243.775	8.53
243.992	26.96
244.209	8.53
244.426	14.68
244.643	31.06
244.86	41.3
245.078	72.02
245.295	43.35
245.512	16.73
245.729	-50.86
245.946	10.58
246.163	-44.71
246.38	33.11
246.597	67.92
246.814	2.39
247.031	-18.09
247.248	80.21
247.464	80.21
247.681	78.16
247.898	108.88
248.115	55.64
248.332	31.06
248.549	24.92
248.766	125.27
248.983	26.96
249.2	88.4
249.417	-30.38
249.633	55.64
249.85	129.36
250.067	14.68
250.284	141.65
250.501	35.16
250.717	63.83
250.934	47.44
251.151	59.73
251.368	33.11
251.585	72.02
251.801	80.21
252.018	4.44
252.235	61.78
252.451	104.79
252.668	61.78
252.885	125.27
253.102	49.49
253.318	49.49
253.535	74.07
253.752	39.25
253.968	26.96
254.185	49.49
254.401	47.44
254.618	55.64
254.835	29.01
255.051	82.26
255.268	18.77
255.484	63.83
255.701	72.02
255.917	16.73
256.134	-5.8
256.351	39.25
256.567	6.49
256.784	14.68
257	20.82
257.217	12.63
257.433	39.25
257.65	92.5
257.866	125.27
258.082	6.49
258.299	-1.71
258.515	8.53
258.732	4.44
258.948	-18.09
259.165	6.49
259.381	29.01
259.597	63.83
259.814	-79.53
260.03	57.68
260.246	74.07
260.463	84.31
260.679	67.92
260.895	-11.95
261.112	131.41
261.328	12.63
261.544	4.44
261.761	135.51
261.977	24.92
262.193	8.53
262.409	84.31
262.626	-26.28
262.842	80.21
263.058	-13.99
263.274	72.02
263.49	39.25
263.707	125.27
263.923	18.77
264.139	-16.04
264.355	8.53
264.571	14.68
264.787	47.44
265.004	96.6
265.22	14.68
265.436	22.87
265.652	12.63
265.868	51.54
266.084	31.06
266.3	16.73
266.516	-13.99
266.732	51.54
266.948	18.77
267.164	39.25
267.38	80.21
267.596	164.18
267.812	22.87
268.028	82.26
268.244	39.25
268.46	-1.71
268.676	-18.09
268.892	92.5
269.108	8.53
269.324	26.96
269.54	31.06
269.756	96.6
269.972	-22.19
270.188	-16.04
270.403	-20.14
270.619	37.2
270.835	-7.85
271.051	16.73
271.267	31.06
271.483	63.83
271.698	31.06
271.914	-11.95
272.13	92.5
272.346	35.16
272.562	-30.38
272.777	98.64
272.993	-9.9
273.209	16.73
273.425	115.03
273.64	39.25
273.856	39.25
274.072	115.03
274.287	-16.04
274.503	112.98
274.719	65.88
274.934	63.83
275.15	90.45
275.366	121.17
275.581	10.58
275.797	39.25
276.012	18.77
276.228	61.78
276.444	26.96
276.659	108.88
276.875	59.73
277.09	6.49
277.306	-18.09
277.521	110.93
277.737	47.44
277.952	47.44
278.168	55.64
278.383	-7.85
278.599	49.49
278.814	145.75
279.03	92.5
279.245	112.98
279.461	24.92
279.676	41.3
279.892	-24.23
280.107	47.44
280.322	-34.47
280.538	92.5
280.753	20.82
280.969	112.98
281.184	4.44
281.399	67.92
281.615	-26.28
281.83	29.01
282.045	94.55
282.26	-36.52
282.476	10.58
282.691	33.11
282.906	72.02
283.122	59.73
283.337	16.73
283.552	108.88
283.767	14.68
283.983	84.31
284.198	26.96
284.413	-5.8
284.628	0.34
284.843	104.79
285.058	67.92
285.274	-34.47
285.489	24.92
285.704	0.34
285.919	96.6
286.134	-22.19
286.349	22.87
286.564	29.01
286.779	61.78
286.995	53.59
287.21	26.96
287.425	82.26
287.64	51.54
287.855	24.92
288.07	69.97
288.285	96.6
288.5	12.63
288.715	153.94
288.93	49.49
289.145	76.12
289.36	49.49
289.575	16.73
289.79	22.87
290.004	18.77
290.219	0.34
290.434	74.07
290.649	-18.09
290.864	43.35
291.079	65.88
291.294	84.31
291.509	117.08
291.724	88.4
291.938	80.21
292.153	35.16
292.368	14.68
292.583	16.73
292.798	-18.09
293.012	88.4
293.227	96.6
293.442	90.45
293.657	45.4
293.871	84.31
294.086	55.64
294.301	121.17
294.516	69.97
294.73	92.5
294.945	10.58
295.16	63.83
295.374	117.08
295.589	96.6
295.804	82.26
296.018	47.44
296.233	31.06
296.447	72.02
296.662	2.39
296.877	98.64
297.091	86.36
297.306	-36.52
297.52	61.78
297.735	82.26
297.949	20.82
298.164	35.16
298.378	76.12
298.593	39.25
298.807	-3.75
299.022	49.49
299.236	14.68
299.451	-9.9
299.665	88.4
299.88	72.02
300.094	88.4
300.309	65.88
300.523	74.07
300.737	92.5
300.952	22.87
301.166	31.06
301.381	106.84
301.595	24.92
301.809	96.6
302.024	31.06
302.238	10.58
302.452	33.11
302.667	108.88
302.881	0.34
303.095	127.32
303.309	96.6
303.524	29.01
303.738	35.16
303.952	-26.28
304.166	55.64
304.381	69.97
304.595	123.22
304.809	14.68
305.023	22.87
305.237	72.02
305.452	96.6
305.666	57.68
305.88	51.54
306.094	33.11
306.308	43.35
306.522	88.4
306.736	20.82
306.95	22.87
307.164	92.5
307.379	43.35
307.593	100.69
307.807	37.2
308.021	123.22
308.235	55.64
308.449	14.68
308.663	59.73
308.877	39.25
309.091	102.74
309.305	2.39
309.519	-44.71
309.733	100.69
309.947	10.58
310.161	51.54
310.374	127.32
310.588	35.16
310.802	39.25
311.016	35.16
311.23	65.88
311.444	86.36
311.658	65.88
311.872	57.68
312.085	137.56
312.299	121.17
312.513	47.44
312.727	90.45
312.941	18.77
313.154	39.25
313.368	57.68
313.582	43.35
313.796	92.5
314.009	6.49
314.223	39.25
314.437	63.83
314.651	74.07
314.864	6.49
315.078	8.53
315.292	31.06
315.505	47.44
315.719	90.45
315.933	82.26
316.146	16.73
316.36	69.97
316.573	47.44
316.787	61.78
317.001	0.34
317.214	63.83
317.428	86.36
317.641	-46.76
317.855	143.7
318.068	-59.05
318.282	0.34
318.495	43.35
318.709	55.64
318.922	78.16
319.136	88.4
319.349	115.03
319.563	110.93
319.776	43.35
319.99	26.96
320.203	67.92
320.417	80.21
320.63	100.69
320.843	88.4
321.057	20.82
321.27	-24.23
321.483	76.12
321.697	108.88
321.91	82.26
322.124	22.87
322.337	55.64
322.55	72.02
322.763	162.13
322.977	74.07
323.19	-7.85
323.403	92.5
323.617	31.06
323.83	80.21
324.043	26.96
324.256	-18.09
324.469	24.92
324.683	100.69
324.896	47.44
325.109	51.54
325.322	47.44
325.535	82.26
325.748	39.25
325.962	-7.85
326.175	121.17
326.388	39.25
326.601	94.55
326.814	96.6
327.027	55.64
327.24	67.92
327.453	16.73
327.666	-16.04
327.879	53.59
328.092	76.12
328.305	39.25
328.518	121.17
328.731	59.73
328.944	51.54
329.157	55.64
329.37	22.87
329.583	141.65
329.796	33.11
330.009	6.49
330.222	63.83
330.435	92.5
330.648	-7.85
330.861	47.44
331.073	137.56
331.286	74.07
331.499	39.25
331.712	106.84
331.925	170.32
332.138	69.97
332.35	39.25
332.563	47.44
332.776	65.88
332.989	-16.04
333.202	65.88
333.414	96.6
333.627	112.98
333.84	69.97
334.053	63.83
334.265	104.79
334.478	14.68
334.691	63.83
334.903	84.31
335.116	-5.8
335.329	18.77
335.541	63.83
335.754	155.99
335.966	63.83
336.179	43.35
336.392	121.17
336.604	98.64
336.817	84.31
337.029	41.3
337.242	43.35
337.454	92.5
337.667	2.39
337.88	90.45
338.092	72.02
338.305	22.87
338.517	35.16
338.729	43.35
338.942	96.6
339.154	57.68
339.367	39.25
339.579	49.49
339.792	39.25
340.004	43.35
340.217	14.68
340.429	55.64
340.641	0.34
340.854	-42.67
341.066	24.92
341.278	115.03
341.491	170.32
341.703	112.98
341.915	35.16
342.128	106.84
342.34	39.25
342.552	-3.75
342.764	39.25
342.977	33.11
343.189	26.96
343.401	55.64
343.613	0.34
343.826	41.3
344.038	31.06
344.25	112.98
344.462	47.44
344.674	47.44
344.886	98.64
345.099	72.02
345.311	59.73
345.523	98.64
345.735	35.16
345.947	104.79
346.159	57.68
346.371	47.44
346.583	0.34
346.795	76.12
347.007	59.73
347.219	61.78
347.431	67.92
347.643	133.46
347.855	88.4
348.067	96.6
348.279	72.02
348.491	100.69
348.703	65.88
348.915	-9.9
349.127	45.4
349.339	57.68
349.551	26.96
349.763	84.31
349.975	41.3
350.187	100.69
350.399	108.88
350.61	121.17
350.822	24.92
351.034	74.07
351.246	112.98
351.458	78.16
351.669	31.06
351.881	104.79
352.093	31.06
352.305	49.49
352.517	80.21
352.728	39.25
352.94	88.4
353.152	33.11
353.363	51.54
353.575	59.73
353.787	129.36
353.999	90.45
354.21	96.6
354.422	-20.14
354.633	55.64
354.845	55.64
355.057	29.01
355.268	0.34
355.48	33.11
355.692	-5.8
355.903	26.96
356.115	4.44
356.326	31.06
356.538	115.03
356.749	100.69
356.961	104.79
357.172	47.44
357.384	61.78
357.595	115.03
357.807	153.94
358.018	-42.67
358.23	123.22
358.441	43.35
358.653	80.21
358.864	61.78
359.075	90.45
359.287	133.46
359.498	106.84
359.709	16.73
359.921	57.68
360.132	-32.43
360.344	14.68
360.555	47.44
360.766	94.55
360.977	65.88
361.189	115.03
361.4	33.11
361.611	-18.09
361.823	147.8
362.034	39.25
362.245	31.06
362.456	14.68
362.667	100.69
362.879	33.11
363.09	57.68
363.301	129.36
363.512	84.31
363.723	67.92
363.935	63.83
364.146	102.74
364.357	55.64
364.568	72.02
364.779	-36.52
364.99	33.11
365.201	106.84
365.412	82.26
365.623	51.54
365.834	92.5
366.045	41.3
366.256	55.64
366.467	76.12
366.678	24.92
366.889	43.35
367.1	86.36
367.311	110.93
367.522	67.92
367.733	125.27
367.944	22.87
368.155	45.4
368.366	59.73
368.577	162.13
368.788	63.83
368.999	88.4
369.209	112.98
369.42	147.8
369.631	141.65
369.842	16.73
370.053	20.82
370.264	127.32
370.474	31.06
370.685	26.96
370.896	133.46
371.107	55.64
371.317	65.88
371.528	82.26
371.739	-9.9
371.95	106.84
372.16	108.88
372.371	14.68
372.582	55.64
372.792	96.6
373.003	18.77
373.214	31.06
373.424	51.54
373.635	14.68
373.846	92.5
374.056	80.21
374.267	45.4
374.477	67.92
374.688	39.25
374.898	96.6
375.109	80.21
375.319	119.12
375.53	155.99
375.74	72.02
375.951	112.98
376.161	33.11
376.372	90.45
376.582	84.31
376.793	115.03
377.003	108.88
377.214	22.87
377.424	80.21
377.635	63.83
377.845	6.49
378.055	59.73
378.266	22.87
378.476	4.44
378.686	76.12
378.897	65.88
379.107	129.36
379.317	33.11
379.528	63.83
379.738	86.36
379.948	88.4
380.158	129.36
380.369	63.83
380.579	168.27
380.789	72.02
380.999	39.25
381.21	76.12
381.42	174.42
381.63	14.68
381.84	18.77
382.05	69.97
382.261	135.51
382.471	96.6
382.681	82.26
382.891	61.78
383.101	112.98
383.311	63.83
383.521	57.68
383.731	129.36
383.941	61.78
384.151	49.49
384.361	76.12
384.571	-13.99
384.781	90.45
384.991	131.41
385.201	92.5
385.411	88.4
385.621	57.68
385.831	137.56
386.041	63.83
386.251	76.12
386.461	84.31
386.671	98.64
386.881	47.44
387.091	82.26
387.301	51.54
387.511	88.4
387.72	121.17
387.93	26.96
388.14	8.53
388.35	-1.71
388.56	129.36
388.769	96.6
388.979	88.4
389.189	16.73
389.399	82.26
389.609	104.79
389.818	139.6
390.028	133.46
390.238	88.4
390.447	131.41
390.657	57.68
390.867	69.97
391.076	84.31
391.286	10.58
391.496	170.32
391.705	129.36
391.915	82.26
392.125	104.79
392.334	108.88
392.544	194.9
392.753	94.55
392.963	104.79
393.172	155.99
393.382	59.73
393.591	135.51
393.801	112.98
394.01	121.17
394.22	110.93
394.429	90.45
394.639	96.6
394.848	80.21
395.058	115.03
395.267	72.02
395.477	188.75
395.686	92.5
395.895	174.42
396.105	112.98
396.314	160.08
396.524	135.51
396.733	69.97
396.942	151.89
397.152	53.59
397.361	178.51
397.57	92.5
397.78	131.41
397.989	162.13
398.198	221.52
398.407	180.56
398.617	194.9
398.826	149.84
399.035	117.08
399.244	153.94
399.453	178.51
399.663	67.92
399.872	115.03
400.081	104.79
400.29	227.67
400.499	80.21
400.708	186.71
400.917	182.61
401.127	115.03
401.336	176.47
401.545	227.67
401.754	235.86
401.963	170.32
402.172	102.74
402.381	145.75
402.59	102.74
402.799	129.36
403.008	162.13
403.217	178.51
403.426	280.91
403.635	147.8
403.844	198.99
404.053	168.27
404.262	194.9
404.471	188.75
404.68	221.52
404.888	258.39
405.097	153.94
405.306	235.86
405.515	203.09
405.724	153.94
405.933	239.95
406.142	227.67
406.35	303.44
406.559	229.71
406.768	180.56
406.977	305.49
407.185	225.62
407.394	301.39
407.603	289.1
407.812	285.01
408.02	340.3
408.229	264.53
408.438	319.82
408.646	371.02
408.855	272.72
409.064	371.02
409.272	336.21
409.481	303.44
409.69	334.16
409.898	375.12
410.107	387.41
410.315	424.27
410.524	436.56
410.733	491.85
410.941	405.84
411.15	510.29
411.358	411.98
411.567	547.15
411.775	584.01
411.984	440.65
412.192	604.49
412.401	606.54
412.609	676.17
412.818	663.88
413.026	641.36
413.234	596.3
413.443	713.03
413.651	655.69
413.86	780.62
414.068	844.1
414.276	792.91
414.485	905.54
414.693	891.21
414.901	883.02
415.11	923.98
415.318	942.41
415.526	919.88
415.734	1038.66
415.943	940.36
416.151	1237.31
416.359	1018.18
416.567	1171.78
416.776	1147.2
416.984	1261.89
417.192	1229.12
417.4	1251.65
417.608	1296.71
417.817	1360.19
418.025	1409.34
418.233	1505.6
418.441	1456.45
418.649	1550.65
418.857	1696.06
419.065	1587.52
419.273	1567.04
419.481	1734.97
419.689	1890.62
419.897	1902.9
420.105	1917.24
420.313	1988.92
420.521	2005.3
420.729	2173.24
420.937	2218.29
421.145	2214.2
421.353	2351.41
421.561	2537.77
421.769	2421.04
421.977	2572.59
422.185	2566.45
422.393	2736.43
422.601	2906.41
422.809	2906.41
423.017	2869.55
423.224	3021.1
423.432	3092.77
423.64	3307.81
423.848	3508.51
424.056	3473.7
424.263	3563.81
424.471	3594.53
424.679	3772.7
424.887	3854.62
425.094	4000.02
425.302	4036.89
425.51	4217.11
425.718	4358.42
425.925	4348.18
426.133	4456.72
426.341	4944.14
426.548	4995.34
426.756	4942.09
426.964	5224.71
427.171	5316.87
427.379	5384.45
427.586	5454.08
427.794	5822.72
428.001	6072.57
428.209	6281.46
428.417	6220.02
428.624	6652.14
428.832	6695.15
429.039	6592.75
429.247	6559.99
429.454	7211.24
429.662	7504.1
429.869	7119.08
430.076	7710.94
430.284	7483.62
430.491	7747.81
430.699	8210.65
430.906	8190.17
431.114	8329.43
431.321	8564.95
431.528	8773.84
431.736	9228.49
431.943	9773.25
432.15	9367.75
432.358	9511.11
432.565	10012.86
432.772	9969.85
432.979	10531
433.187	10807.47
433.394	10864.82
433.601	11518.12
433.808	11536.55
434.016	11528.36
434.223	12040.35
434.43	12599.45
434.637	12507.29
434.844	13357.19
435.052	13447.3
435.259	13326.47
435.466	13531.27
435.673	13527.17
435.88	14135.42
436.087	14958.71
436.294	14977.14
436.501	14667.89
436.708	14997.62
436.915	15431.79
437.122	16169.05
437.329	16078.94
437.537	16666.71
437.743	16525.4
437.95	16771.16
438.157	17539.15
438.364	18096.19
438.571	18145.34
438.778	18251.84
438.985	20090.91
439.192	19337.26
439.399	19552.3
439.606	19314.73
439.813	20338.72
440.02	21686.28
440.227	21393.42
440.433	20949.01
440.64	21518.35
440.847	21547.02
441.054	22282.24
441.261	23672.81
441.467	23146.48
441.674	23642.09
441.881	24600.54
442.088	24582.11
442.294	24252.39
442.501	24877.02
442.708	25356.24
442.914	26599.36
443.121	27303.86
443.328	26685.37
443.534	28551.07
443.741	27535.28
443.948	27574.19
444.154	29511.57
444.361	29233.05
444.568	29364.12
444.774	29431.7
444.981	30019.47
445.187	30711.68
445.394	31901.55
445.6	31315.83
445.807	34541.38
446.013	33269.59
446.22	33527.64
446.426	34746.18
446.633	35096.38
446.839	36181.81
447.046	34764.61
447.252	36687.65
447.459	36929.31
447.665	36947.75
447.871	38541.07
448.078	39794.42
448.284	38283.02
448.491	38919.94
448.697	40548.07
448.903	41299.68
449.11	41557.72
449.316	40670.95
449.522	41424.61
449.728	42462.93
449.935	42841.8
450.141	42602.19
450.347	43515.58
450.553	42372.81
450.76	42819.27
450.966	44166.84
451.172	43966.13
451.378	44959.4
451.584	44125.88
451.791	45067.94
451.997	45362.85
452.203	45958.81
452.409	45706.91
452.615	45573.79
452.821	43845.3
453.027	43443.9
453.233	45682.33
453.44	44089.01
453.646	44652.2
453.852	44947.11
454.058	45235.88
454.264	44402.35
454.47	45305.51
454.676	43923.13
454.882	45473.44
455.088	41647.83
455.294	42594
455.5	43333.31
455.705	43355.84
455.911	41662.17
456.117	40840.93
456.323	40482.54
456.529	38397.71
456.735	40064.75
456.941	38958.85
457.147	38561.54
457.352	37115.68
457.558	37072.67
457.764	36855.59
457.97	36144.94
458.176	35598.13
458.381	35931.95
458.587	34252.62
458.793	34101.07
458.999	32401.25
459.204	34637.64
459.41	33673.04
459.616	31506.29
459.821	31342.46
460.027	31334.26
460.233	30549.89
460.438	29423.51
460.644	29847.44
460.85	28057.51
461.055	27811.76
461.261	27854.76
461.466	25624.53
461.672	24987.61
461.878	26496.96
462.083	24913.88
462.289	24395.75
462.494	24092.65
462.7	23265.27
462.905	22902.78
463.111	23511.02
463.316	23189.49
463.522	23011.32
463.727	22706.17
463.932	22708.22
464.138	22560.77
464.343	22786.04
464.549	21964.81
464.754	22773.75
464.959	22951.93
465.165	22360.06
465.37	21426.19
465.575	20752.41
465.781	21747.72
465.986	22046.72
466.191	21075.99
466.397	20590.62
466.602	19626.03
466.807	20582.43
467.012	20523.04
