Data from USB4F104151__154__14-19-29-908.txt Node

Date: Thu Mar 13 14:19:29 EDT 2025
User: louis
Spectrometer: USB4F10415
Trigger mode: 4
Integration Time (sec): 2.000000E-2
Scans to average: 1
Electric dark correction enabled: true
Nonlinearity correction enabled: false
Boxcar width: 0
XAxis mode: Wavelengths
Number of Pixels in Spectrum: 3648
>>>>>Begin Spectral Data<<<<<
178.204	-121.85
178.424	-121.85
178.644	-121.85
178.864	-136.19
179.084	-62.46
179.304	-37.89
179.524	-21.5
179.744	31.74
179.964	29.7
180.184	19.46
180.404	84.99
180.624	-41.98
180.844	29.7
181.064	-44.03
181.283	-62.46
181.503	-1.02
181.723	13.31
181.943	-17.41
182.163	138.24
182.383	44.03
182.602	29.7
182.822	17.41
183.042	-7.17
183.262	68.61
183.482	-7.17
183.701	93.18
183.921	70.65
184.141	-66.56
184.361	72.7
184.58	11.26
184.8	3.07
185.02	48.13
185.239	56.32
185.459	9.22
185.679	84.99
185.898	-46.08
186.118	27.65
186.338	-17.41
186.557	101.37
186.777	66.56
186.997	15.36
187.216	-17.41
187.436	62.46
187.655	56.32
187.875	97.28
188.095	-27.65
188.314	44.03
188.534	68.61
188.753	-41.98
188.973	60.42
189.192	87.04
189.412	-21.5
189.631	7.17
189.851	27.65
190.07	56.32
190.29	35.84
190.509	39.94
190.729	89.09
190.948	97.28
191.168	109.57
191.387	93.18
191.607	-21.5
191.826	72.7
192.045	37.89
192.265	52.22
192.484	56.32
192.704	48.13
192.923	-27.65
193.142	9.22
193.362	31.74
193.581	52.22
193.8	-17.41
194.02	117.76
194.239	-11.26
194.458	60.42
194.678	-9.22
194.897	7.17
195.116	29.7
195.335	105.47
195.555	54.27
195.774	-3.07
195.993	70.65
196.212	35.84
196.432	-13.31
196.651	-52.22
196.87	27.65
197.089	97.28
197.308	-25.6
197.528	44.03
197.747	13.31
197.966	27.65
198.185	78.85
198.404	48.13
198.623	82.94
198.842	27.65
199.062	-13.31
199.281	84.99
199.5	27.65
199.719	56.32
199.938	68.61
200.157	60.42
200.376	128
200.595	21.5
200.814	84.99
201.033	76.8
201.252	48.13
201.471	60.42
201.69	39.94
201.909	70.65
202.128	107.52
202.347	82.94
202.566	19.46
202.785	25.6
203.004	70.65
203.223	19.46
203.442	25.6
203.661	19.46
203.879	17.41
204.098	48.13
204.317	60.42
204.536	3.07
204.755	15.36
204.974	74.75
205.193	-19.46
205.411	70.65
205.63	78.85
205.849	68.61
206.068	76.8
206.287	-13.31
206.505	54.27
206.724	-1.02
206.943	21.5
207.162	66.56
207.381	70.65
207.599	35.84
207.818	31.74
208.037	-9.22
208.255	-21.5
208.474	128
208.693	52.22
208.911	80.89
209.13	13.31
209.349	29.7
209.567	29.7
209.786	109.57
210.005	80.89
210.223	66.56
210.442	-5.12
210.661	35.84
210.879	-33.79
211.098	72.7
211.316	-11.26
211.535	21.5
211.753	-17.41
211.972	68.61
212.191	-58.37
212.409	-41.98
212.628	80.89
212.846	54.27
213.065	35.84
213.283	72.7
213.502	56.32
213.72	60.42
213.938	27.65
214.157	46.08
214.375	76.8
214.594	56.32
214.812	37.89
215.031	-9.22
215.249	50.18
215.467	72.7
215.686	29.7
215.904	76.8
216.122	56.32
216.341	44.03
216.559	-37.89
216.778	-21.5
216.996	33.79
217.214	11.26
217.432	68.61
217.651	23.55
217.869	46.08
218.087	93.18
218.306	13.31
218.524	11.26
218.742	-21.5
218.96	60.42
219.179	21.5
219.397	46.08
219.615	93.18
219.833	44.03
220.051	-9.22
220.27	21.5
220.488	68.61
220.706	78.85
220.924	48.13
221.142	31.74
221.36	50.18
221.578	70.65
221.796	21.5
222.015	54.27
222.233	87.04
222.451	35.84
222.669	27.65
222.887	35.84
223.105	-21.5
223.323	11.26
223.541	13.31
223.759	13.31
223.977	31.74
224.195	15.36
224.413	35.84
224.631	-27.65
224.849	70.65
225.067	87.04
225.285	27.65
225.503	3.07
225.721	-11.26
225.939	3.07
226.157	31.74
226.375	84.99
226.592	78.85
226.81	44.03
227.028	46.08
227.246	142.33
227.464	46.08
227.682	-21.5
227.9	68.61
228.117	29.7
228.335	-11.26
228.553	-25.6
228.771	13.31
228.989	48.13
229.206	1.02
229.424	72.7
229.642	39.94
229.86	13.31
230.077	39.94
230.295	-1.02
230.513	52.22
230.731	56.32
230.948	56.32
231.166	21.5
231.384	23.55
231.601	15.36
231.819	46.08
232.037	74.75
232.254	-15.36
232.472	11.26
232.689	44.03
232.907	39.94
233.125	27.65
233.342	31.74
233.56	31.74
233.777	84.99
233.995	5.12
234.213	48.13
234.43	23.55
234.648	78.85
234.865	44.03
235.083	111.61
235.3	68.61
235.518	-60.42
235.735	29.7
235.953	27.65
236.17	113.66
236.388	48.13
236.605	97.28
236.822	44.03
237.04	3.07
237.257	-5.12
237.475	3.07
237.692	11.26
237.909	3.07
238.127	87.04
238.344	78.85
238.562	76.8
238.779	-5.12
238.996	17.41
239.214	17.41
239.431	41.98
239.648	-21.5
239.865	60.42
240.083	37.89
240.3	11.26
240.517	25.6
240.735	11.26
240.952	33.79
241.169	89.09
241.386	121.85
241.603	19.46
241.821	-25.6
242.038	117.76
242.255	101.37
242.472	44.03
242.689	62.46
242.907	13.31
243.124	121.85
243.341	1.02
243.558	19.46
243.775	21.5
243.992	-25.6
244.209	109.57
244.426	78.85
244.643	64.51
244.86	66.56
245.078	117.76
245.295	37.89
245.512	62.46
245.729	-62.46
245.946	80.89
246.163	7.17
246.38	-27.65
246.597	109.57
246.814	29.7
247.031	39.94
247.248	93.18
247.464	44.03
247.681	-5.12
247.898	-5.12
248.115	-37.89
248.332	37.89
248.549	52.22
248.766	44.03
248.983	95.23
249.2	33.79
249.417	39.94
249.633	46.08
249.85	70.65
250.067	72.7
250.284	56.32
250.501	39.94
250.717	72.7
250.934	-13.31
251.151	111.61
251.368	31.74
251.585	15.36
251.801	3.07
252.018	80.89
252.235	37.89
252.451	11.26
252.668	-25.6
252.885	109.57
253.102	56.32
253.318	103.42
253.535	41.98
253.752	19.46
253.968	-41.98
254.185	-1.02
254.401	1.02
254.618	27.65
254.835	31.74
255.051	11.26
255.268	91.13
255.484	87.04
255.701	72.7
255.917	60.42
256.134	-5.12
256.351	23.55
256.567	5.12
256.784	123.9
257	23.55
257.217	68.61
257.433	44.03
257.65	-11.26
257.866	68.61
258.082	5.12
258.299	17.41
258.515	-5.12
258.732	-25.6
258.948	-5.12
259.165	52.22
259.381	76.8
259.597	27.65
259.814	33.79
260.03	11.26
260.246	44.03
260.463	64.51
260.679	27.65
260.895	15.36
261.112	48.13
261.328	-29.7
261.544	-17.41
261.761	97.28
261.977	37.89
262.193	-9.22
262.409	54.27
262.626	13.31
262.842	27.65
263.058	54.27
263.274	33.79
263.49	7.17
263.707	95.23
263.923	87.04
264.139	60.42
264.355	3.07
264.571	23.55
264.787	80.89
265.004	76.8
265.22	68.61
265.436	37.89
265.652	-3.07
265.868	31.74
266.084	54.27
266.3	35.84
266.516	9.22
266.732	68.61
266.948	101.37
267.164	-5.12
267.38	101.37
267.596	19.46
267.812	70.65
268.028	31.74
268.244	70.65
268.46	101.37
268.676	95.23
268.892	-46.08
269.108	-44.03
269.324	39.94
269.54	91.13
269.756	84.99
269.972	-27.65
270.188	101.37
270.403	44.03
270.619	146.43
270.835	89.09
271.051	72.7
271.267	64.51
271.483	-13.31
271.698	-1.02
271.914	21.5
272.13	66.56
272.346	-41.98
272.562	9.22
272.777	72.7
272.993	33.79
273.209	23.55
273.425	-33.79
273.64	37.89
273.856	60.42
274.072	-44.03
274.287	76.8
274.503	103.42
274.719	80.89
274.934	31.74
275.15	29.7
275.366	62.46
275.581	9.22
275.797	-19.46
276.012	35.84
276.228	-21.5
276.444	-1.02
276.659	175.1
276.875	101.37
277.09	48.13
277.306	39.94
277.521	60.42
277.737	39.94
277.952	50.18
278.168	58.37
278.383	44.03
278.599	-29.7
278.814	21.5
279.03	52.22
279.245	64.51
279.461	64.51
279.676	48.13
279.892	58.37
280.107	21.5
280.322	56.32
280.538	9.22
280.753	15.36
280.969	76.8
281.184	19.46
281.399	21.5
281.615	-5.12
281.83	58.37
282.045	13.31
282.26	103.42
282.476	29.7
282.691	113.66
282.906	35.84
283.122	27.65
283.337	-3.07
283.552	160.77
283.767	87.04
283.983	60.42
284.198	1.02
284.413	64.51
284.628	41.98
284.843	3.07
285.058	78.85
285.274	-5.12
285.489	-13.31
285.704	150.53
285.919	19.46
286.134	46.08
286.349	39.94
286.564	44.03
286.779	66.56
286.995	21.5
287.21	-11.26
287.425	64.51
287.64	35.84
287.855	48.13
288.07	-39.94
288.285	84.99
288.5	56.32
288.715	60.42
288.93	23.55
289.145	62.46
289.36	27.65
289.575	35.84
289.79	33.79
290.004	-19.46
290.219	29.7
290.434	29.7
290.649	33.79
290.864	117.76
291.079	-35.84
291.294	19.46
291.509	23.55
291.724	33.79
291.938	-11.26
292.153	54.27
292.368	74.75
292.583	66.56
292.798	146.43
293.012	19.46
293.227	52.22
293.442	19.46
293.657	37.89
293.871	117.76
294.086	66.56
294.301	68.61
294.516	128
294.73	19.46
294.945	-23.55
295.16	78.85
295.374	54.27
295.589	76.8
295.804	5.12
296.018	-3.07
296.233	103.42
296.447	44.03
296.662	44.03
296.877	121.85
297.091	29.7
297.306	-13.31
297.52	46.08
297.735	25.6
297.949	13.31
298.164	125.95
298.378	21.5
298.593	3.07
298.807	46.08
299.022	29.7
299.236	35.84
299.451	25.6
299.665	82.94
299.88	44.03
300.094	44.03
300.309	76.8
300.523	33.79
300.737	68.61
300.952	70.65
301.166	29.7
301.381	29.7
301.595	31.74
301.809	46.08
302.024	-19.46
302.238	5.12
302.452	119.81
302.667	54.27
302.881	35.84
303.095	84.99
303.309	52.22
303.524	-13.31
303.738	44.03
303.952	44.03
304.166	72.7
304.381	-17.41
304.595	56.32
304.809	91.13
305.023	35.84
305.237	-44.03
305.452	3.07
305.666	56.32
305.88	11.26
306.094	31.74
306.308	68.61
306.522	99.33
306.736	52.22
306.95	3.07
307.164	35.84
307.379	76.8
307.593	121.85
307.807	70.65
308.021	93.18
308.235	-1.02
308.449	-37.89
308.663	44.03
308.877	109.57
309.091	29.7
309.305	62.46
309.519	5.12
309.733	84.99
309.947	46.08
310.161	52.22
310.374	-78.85
310.588	70.65
310.802	64.51
311.016	64.51
311.23	52.22
311.444	27.65
311.658	87.04
311.872	31.74
312.085	109.57
312.299	84.99
312.513	35.84
312.727	76.8
312.941	31.74
313.154	80.89
313.368	37.89
313.582	62.46
313.796	35.84
314.009	37.89
314.223	78.85
314.437	52.22
314.651	19.46
314.864	29.7
315.078	68.61
315.292	-35.84
315.505	19.46
315.719	29.7
315.933	109.57
316.146	-5.12
316.36	33.79
316.573	39.94
316.787	56.32
317.001	80.89
317.214	52.22
317.428	44.03
317.641	11.26
317.855	70.65
318.068	72.7
318.282	64.51
318.495	60.42
318.709	72.7
318.922	31.74
319.136	48.13
319.349	66.56
319.563	17.41
319.776	109.57
319.99	-15.36
320.203	78.85
320.417	37.89
320.63	-5.12
320.843	44.03
321.057	37.89
321.27	52.22
321.483	62.46
321.697	54.27
321.91	11.26
322.124	64.51
322.337	56.32
322.55	39.94
322.763	15.36
322.977	46.08
323.19	11.26
323.403	-13.31
323.617	35.84
323.83	113.66
324.043	46.08
324.256	27.65
324.469	31.74
324.683	62.46
324.896	64.51
325.109	48.13
325.322	72.7
325.535	27.65
325.748	54.27
325.962	44.03
326.175	3.07
326.388	56.32
326.601	62.46
326.814	27.65
327.027	29.7
327.24	101.37
327.453	33.79
327.666	19.46
327.879	3.07
328.092	64.51
328.305	35.84
328.518	-58.37
328.731	-39.94
328.944	58.37
329.157	93.18
329.37	44.03
329.583	21.5
329.796	62.46
330.009	-78.85
330.222	109.57
330.435	37.89
330.648	27.65
330.861	37.89
331.073	-17.41
331.286	105.47
331.499	39.94
331.712	76.8
331.925	35.84
332.138	70.65
332.35	-15.36
332.563	-13.31
332.776	97.28
332.989	-62.46
333.202	52.22
333.414	29.7
333.627	87.04
333.84	-13.31
334.053	37.89
334.265	3.07
334.478	175.1
334.691	11.26
334.903	-11.26
335.116	76.8
335.329	31.74
335.541	84.99
335.754	52.22
335.966	31.74
336.179	19.46
336.392	3.07
336.604	37.89
336.817	54.27
337.029	13.31
337.242	27.65
337.454	39.94
337.667	46.08
337.88	95.23
338.092	3.07
338.305	101.37
338.517	9.22
338.729	74.75
338.942	31.74
339.154	72.7
339.367	54.27
339.579	39.94
339.792	52.22
340.004	44.03
340.217	1.02
340.429	84.99
340.641	80.89
340.854	62.46
341.066	37.89
341.278	146.43
341.491	62.46
341.703	62.46
341.915	-15.36
342.128	60.42
342.34	80.89
342.552	29.7
342.764	11.26
342.977	3.07
343.189	35.84
343.401	78.85
343.613	35.84
343.826	31.74
344.038	31.74
344.25	52.22
344.462	-9.22
344.674	93.18
344.886	60.42
345.099	148.48
345.311	11.26
345.523	109.57
345.735	35.84
345.947	105.47
346.159	56.32
346.371	117.76
346.583	21.5
346.795	29.7
347.007	111.61
347.219	68.61
347.431	72.7
347.643	105.47
347.855	27.65
348.067	68.61
348.279	64.51
348.491	54.27
348.703	56.32
348.915	56.32
349.127	15.36
349.339	68.61
349.551	37.89
349.763	95.23
349.975	66.56
350.187	140.29
350.399	-7.17
350.61	76.8
350.822	44.03
351.034	80.89
351.246	56.32
351.458	52.22
351.669	54.27
351.881	70.65
352.093	68.61
352.305	87.04
352.517	62.46
352.728	39.94
352.94	44.03
353.152	-9.22
353.363	7.17
353.575	35.84
353.787	109.57
353.999	35.84
354.21	62.46
354.422	-27.65
354.633	37.89
354.845	29.7
355.057	15.36
355.268	97.28
355.48	-19.46
355.692	15.36
355.903	25.6
356.115	31.74
356.326	54.27
356.538	70.65
356.749	93.18
356.961	89.09
357.172	93.18
357.384	60.42
357.595	130.05
357.807	84.99
358.018	31.74
358.23	-5.12
358.441	132.09
358.653	15.36
358.864	37.89
359.075	-13.31
359.287	60.42
359.498	62.46
359.709	56.32
359.921	50.18
360.132	93.18
360.344	97.28
360.555	52.22
360.766	13.31
360.977	142.33
361.189	60.42
361.4	46.08
361.611	89.09
361.823	105.47
362.034	62.46
362.245	103.42
362.456	19.46
362.667	84.99
362.879	31.74
363.09	25.6
363.301	23.55
363.512	-23.55
363.723	105.47
363.935	84.99
364.146	56.32
364.357	72.7
364.568	29.7
364.779	54.27
364.99	41.98
365.201	87.04
365.412	66.56
365.623	27.65
365.834	60.42
366.045	44.03
366.256	117.76
366.467	154.62
366.678	62.46
366.889	84.99
367.1	5.12
367.311	80.89
367.522	66.56
367.733	15.36
367.944	72.7
368.155	76.8
368.366	-9.22
368.577	35.84
368.788	76.8
368.999	7.17
369.209	72.7
369.42	123.9
369.631	125.95
369.842	60.42
370.053	56.32
370.264	101.37
370.474	-3.07
370.685	78.85
370.896	103.42
371.107	44.03
371.317	113.66
371.528	27.65
371.739	89.09
371.95	101.37
372.16	109.57
372.371	109.57
372.582	19.46
372.792	140.29
373.003	54.27
373.214	68.61
373.424	-21.5
373.635	37.89
373.846	134.14
374.056	39.94
374.267	117.76
374.477	72.7
374.688	37.89
374.898	87.04
375.109	11.26
375.319	144.38
375.53	78.85
375.74	76.8
375.951	11.26
376.161	-25.6
376.372	160.77
376.582	35.84
376.793	128
377.003	21.5
377.214	60.42
377.424	60.42
377.635	33.79
377.845	56.32
378.055	99.33
378.266	-3.07
378.476	130.05
378.686	-46.08
378.897	-13.31
379.107	138.24
379.317	52.22
379.528	41.98
379.738	64.51
379.948	27.65
380.158	111.61
380.369	101.37
380.579	11.26
380.789	46.08
380.999	84.99
381.21	89.09
381.42	109.57
381.63	37.89
381.84	134.14
382.05	68.61
382.261	-25.6
382.471	109.57
382.681	80.89
382.891	125.95
383.101	35.84
383.311	52.22
383.521	105.47
383.731	80.89
383.941	70.65
384.151	64.51
384.361	144.38
384.571	3.07
384.781	62.46
384.991	142.33
385.201	113.66
385.411	84.99
385.621	91.13
385.831	-15.36
386.041	119.81
386.251	113.66
386.461	115.71
386.671	62.46
386.881	70.65
387.091	70.65
387.301	87.04
387.511	87.04
387.72	119.81
387.93	87.04
388.14	62.46
388.35	31.74
388.56	87.04
388.769	103.42
388.979	60.42
389.189	105.47
389.399	76.8
389.609	179.2
389.818	89.09
390.028	50.18
390.238	101.37
390.447	68.61
390.657	144.38
390.867	37.89
391.076	76.8
391.286	17.41
391.496	72.7
391.705	82.94
391.915	105.47
392.125	95.23
392.334	68.61
392.544	56.32
392.753	52.22
392.963	60.42
393.172	103.42
393.382	103.42
393.591	130.05
393.801	134.14
394.01	130.05
394.22	70.65
394.429	97.28
394.639	150.53
394.848	177.15
395.058	97.28
395.267	56.32
395.477	125.95
395.686	89.09
395.895	97.28
396.105	111.61
396.314	101.37
396.524	80.89
396.733	128
396.942	130.05
397.152	91.13
397.361	97.28
397.57	117.76
397.78	142.33
397.989	136.19
398.198	281.6
398.407	119.81
398.617	115.71
398.826	154.62
399.035	103.42
399.244	158.72
399.453	128
399.663	152.57
399.872	142.33
400.081	76.8
400.29	185.34
400.499	138.24
400.708	234.49
400.917	164.86
401.127	171.01
401.336	181.25
401.545	205.82
401.754	164.86
401.963	183.29
402.172	181.25
402.381	179.2
402.59	41.98
402.799	150.53
403.008	105.47
403.217	269.31
403.426	173.05
403.635	211.96
403.844	158.72
404.053	259.07
404.262	226.3
404.471	191.49
404.68	183.29
404.888	228.35
405.097	191.49
405.306	201.72
405.515	207.87
405.724	166.91
405.933	191.49
406.142	160.77
406.35	248.83
406.559	183.29
406.768	209.92
406.977	289.79
407.185	187.39
407.394	257.02
407.603	257.02
407.812	347.13
408.02	257.02
408.229	199.68
408.438	314.36
408.646	273.4
408.855	326.65
409.064	287.74
409.272	355.32
409.481	357.37
409.69	273.4
409.898	340.99
410.107	379.9
410.315	398.33
410.524	431.1
410.733	404.47
410.941	377.85
411.15	506.87
411.358	506.87
411.567	553.98
411.775	496.63
411.984	478.2
412.192	529.4
412.401	519.16
412.609	572.41
412.818	631.8
413.026	670.71
413.234	637.94
413.443	652.28
413.651	748.53
413.86	717.81
414.068	719.86
414.276	707.57
414.485	762.87
414.693	807.92
414.901	850.93
415.11	805.88
415.318	857.07
415.526	891.89
415.734	961.52
415.943	959.47
416.151	941.04
416.359	1022.96
416.567	1084.4
416.776	1088.5
416.984	1199.09
417.192	1262.57
417.4	1151.98
417.608	1178.61
417.817	1274.86
418.025	1268.72
418.233	1479.66
418.441	1317.87
418.649	1461.23
418.857	1489.9
419.065	1584.1
419.273	1553.38
419.481	1627.11
419.689	1674.21
419.897	1895.4
420.105	1874.92
420.313	1905.63
420.521	1997.79
420.729	1924.07
420.937	2120.67
421.145	2147.3
421.353	2233.31
421.561	2274.27
421.769	2413.53
421.977	2597.85
422.185	2413.53
422.393	2610.14
422.601	2694.1
422.809	2640.86
423.017	2743.25
423.224	2849.75
423.432	3034.07
423.64	3079.12
423.848	3324.88
424.056	3128.27
424.263	3285.97
424.471	3288.01
424.679	3451.85
424.887	3613.64
425.094	3707.85
425.302	3726.28
425.51	4043.71
425.718	4086.72
425.925	4164.54
426.133	4189.12
426.341	4502.46
426.548	4494.27
426.756	4758.46
426.964	4672.44
427.171	5110.71
427.379	5174.19
427.586	5247.92
427.794	5385.13
428.001	5610.41
428.209	5907.37
428.417	5657.51
428.624	6161.31
428.832	6253.47
429.039	6093.73
429.247	6069.16
429.454	6757.27
429.662	7154.58
429.869	6656.92
430.076	7175.06
430.284	6835.1
430.491	7287.7
430.699	7560.08
430.906	7603.08
431.114	7768.97
431.321	7994.25
431.528	8309.63
431.736	8565.63
431.943	9057.14
432.15	8801.15
432.358	8997.75
432.565	9354.1
432.772	9311.09
432.979	9939.82
433.187	10040.17
433.394	9984.87
433.601	10822.49
433.808	10931.03
434.016	10640.22
434.223	11111.25
434.43	12020.55
434.637	11639.63
434.844	12284.74
435.052	12489.54
435.259	12618.56
435.466	12417.86
435.673	12430.15
435.88	13249.33
436.087	13949.74
436.294	14099.24
436.501	13585.2
436.708	13929.26
436.915	14588.71
437.122	15008.54
437.329	14863.13
437.537	15348.5
437.743	15801.1
437.95	15362.84
438.157	16276.23
438.364	16919.29
438.571	16657.15
438.778	16966.4
438.985	18598.63
439.192	17636.08
439.399	18346.73
439.606	17894.13
439.813	19010.27
440.02	19913.42
440.227	19729.11
440.433	19436.25
440.64	20126.41
440.847	20017.87
441.054	20517.57
441.261	21754.55
441.467	21615.29
441.674	22207.15
441.881	22524.58
442.088	22428.33
442.294	22545.06
442.501	23216.8
442.708	23444.12
442.914	24627.85
443.121	25617.02
443.328	24666.76
443.534	26446.44
443.741	25870.97
443.948	25420.41
444.154	27454.05
444.361	26976.87
444.568	27247.2
444.774	27312.74
444.981	27736.66
445.187	28379.73
445.394	29305.41
445.6	29217.35
445.807	31732.25
446.013	30673.45
446.22	31425.06
446.426	32375.31
446.633	32713.23
446.839	33495.55
447.046	32102.93
447.252	34130.42
447.459	33962.49
447.665	34019.83
447.871	35602.91
448.078	36678.1
448.284	35232.23
448.491	36151.77
448.697	37398.98
448.903	38123.96
449.11	38138.3
449.316	37419.46
449.522	38345.14
449.728	39166.38
449.935	39602.6
450.141	39403.94
450.347	40262.04
450.553	39166.38
450.76	39596.45
450.966	41019.79
451.172	40563.09
451.378	41263.5
451.584	40759.7
451.791	41499.01
451.997	41286.03
452.203	42199.42
452.409	42080.64
452.615	41697.67
452.821	40214.94
453.027	39778.72
453.233	41877.89
453.44	40632.72
453.646	41222.54
453.852	41181.58
454.058	41847.17
454.264	40610.2
454.47	41369.99
454.676	40026.53
454.882	41812.35
455.088	37884.35
455.294	38932.91
455.5	39170.47
455.705	39782.82
455.911	38214.07
456.117	37355.97
456.323	36940.24
456.529	35088.87
456.735	36684.24
456.941	35557.86
457.147	35004.91
457.352	33939.96
457.558	33595.9
457.764	33505.79
457.97	33167.88
458.176	32272.92
458.381	32234
458.587	30472.75
458.793	30655.02
458.999	29262.4
459.204	31447.58
459.41	30517.81
459.616	28367.44
459.821	28365.39
460.027	28306
460.233	27710.04
460.438	26716.78
460.644	26690.15
460.85	25141.89
461.055	25019.01
461.261	25010.82
461.466	23632.54
461.672	22489.77
461.878	24052.37
462.083	22368.94
462.289	22268.59
462.494	22104.75
462.7	20837.06
462.905	20224.72
463.111	21201.6
463.316	21455.54
463.522	20650.69
463.727	20812.48
463.932	20611.78
464.138	20611.78
464.343	20746.95
464.549	19675.86
464.754	20949.7
464.959	20370.12
465.165	20269.77
465.37	19497.69
465.575	19028.7
465.781	19868.37
465.986	20056.78
466.191	19024.61
466.397	18541.29
466.602	17867.5
466.807	18516.71
467.012	18485.99
467.218	18492.13
