Data from USB4F104151__102__14-18-07-257.txt Node

Date: Thu Mar 13 14:18:07 EDT 2025
User: louis
Spectrometer: USB4F10415
Trigger mode: 4
Integration Time (sec): 2.000000E-2
Scans to average: 1
Electric dark correction enabled: true
Nonlinearity correction enabled: false
Boxcar width: 0
XAxis mode: Wavelengths
Number of Pixels in Spectrum: 3648
>>>>>Begin Spectral Data<<<<<
178.204	-106.32
178.424	-106.32
178.644	-106.32
178.864	-94.04
179.084	-55.12
179.304	6.31
179.524	-55.12
179.744	-36.69
179.964	61.61
180.184	32.94
180.404	49.32
180.624	-89.94
180.844	10.41
181.064	-32.6
181.283	28.84
181.503	-44.88
181.723	69.8
181.943	-44.88
182.163	30.89
182.383	-34.64
182.602	67.75
182.822	-28.5
183.042	16.55
183.262	-46.93
183.482	73.9
183.701	41.13
183.921	26.79
184.141	-48.98
184.361	-18.26
184.58	10.41
184.8	116.9
185.02	-24.4
185.239	75.95
185.459	24.75
185.679	57.51
185.898	-3.93
186.118	0.17
186.338	-48.98
186.557	-22.36
186.777	-1.88
186.997	-36.69
187.216	69.8
187.436	47.27
187.655	-12.12
187.875	55.47
188.095	61.61
188.314	106.67
188.534	-20.31
188.753	80.04
188.973	41.13
189.192	102.57
189.412	-26.45
189.631	10.41
189.851	0.17
190.07	73.9
190.29	51.37
190.509	-48.98
190.729	12.46
190.948	51.37
191.168	204.97
191.387	88.23
191.607	-34.64
191.826	39.08
192.045	92.33
192.265	24.75
192.484	8.36
192.704	-8.02
192.923	16.55
193.142	32.94
193.362	32.94
193.581	-28.5
193.8	59.56
194.02	61.61
194.239	-40.79
194.458	61.61
194.678	-22.36
194.897	32.94
195.116	34.99
195.335	49.32
195.555	16.55
195.774	34.99
195.993	98.47
196.212	57.51
196.432	28.84
196.651	26.79
196.87	12.46
197.089	137.38
197.308	10.41
197.528	73.9
197.747	53.42
197.966	32.94
198.185	102.57
198.404	37.03
198.623	-8.02
198.842	32.94
199.062	100.52
199.281	59.56
199.5	-16.21
199.719	57.51
199.938	73.9
200.157	-16.21
200.376	41.13
200.595	24.75
200.814	41.13
201.033	-3.93
201.252	-3.93
201.471	73.9
201.69	8.36
201.909	37.03
202.128	-16.21
202.347	71.85
202.566	104.62
202.785	-28.5
203.004	-22.36
203.223	90.28
203.442	24.75
203.661	-10.07
203.879	32.94
204.098	39.08
204.317	41.13
204.536	2.22
204.755	49.32
204.974	26.79
205.193	88.23
205.411	61.61
205.63	49.32
205.849	45.23
206.068	43.18
206.287	12.46
206.505	41.13
206.724	75.95
206.943	84.14
207.162	90.28
207.381	14.51
207.599	37.03
207.818	49.32
208.037	43.18
208.255	2.22
208.474	26.79
208.693	14.51
208.911	10.41
209.13	92.33
209.349	-24.4
209.567	-3.93
209.786	69.8
210.005	18.6
210.223	55.47
210.442	0.17
210.661	30.89
210.879	4.27
211.098	24.75
211.316	49.32
211.535	32.94
211.753	6.31
211.972	121
212.191	-16.21
212.409	57.51
212.628	51.37
212.846	26.79
213.065	-5.97
213.283	73.9
213.502	-5.97
213.72	-14.17
213.938	-8.02
214.157	59.56
214.375	0.17
214.594	49.32
214.812	32.94
215.031	90.28
215.249	-24.4
215.467	32.94
215.686	24.75
215.904	47.27
216.122	-12.12
216.341	106.67
216.559	22.7
216.778	32.94
216.996	-3.93
217.214	28.84
217.432	-5.97
217.651	-48.98
217.869	-40.79
218.087	-40.79
218.306	-14.17
218.524	94.38
218.742	32.94
218.96	129.19
219.179	114.86
219.397	73.9
219.615	84.14
219.833	12.46
220.051	20.65
220.27	86.19
220.488	53.42
220.706	49.32
220.924	6.31
221.142	2.22
221.36	-8.02
221.578	57.51
221.796	-8.02
222.015	80.04
222.233	14.51
222.451	24.75
222.669	75.95
222.887	32.94
223.105	22.7
223.323	55.47
223.541	-10.07
223.759	67.75
223.977	57.51
224.195	16.55
224.413	104.62
224.631	94.38
224.849	26.79
225.067	92.33
225.285	-5.97
225.503	41.13
225.721	10.41
225.939	-5.97
226.157	61.61
226.375	63.66
226.592	16.55
226.81	16.55
227.028	51.37
227.246	69.8
227.464	51.37
227.682	45.23
227.9	16.55
228.117	20.65
228.335	18.6
228.553	63.66
228.771	-16.21
228.989	24.75
229.206	22.7
229.424	34.99
229.642	16.55
229.86	10.41
230.077	16.55
230.295	-24.4
230.513	73.9
230.731	53.42
230.948	82.09
231.166	73.9
231.384	49.32
231.601	-8.02
231.819	-73.56
232.037	28.84
232.254	-8.02
232.472	8.36
232.689	-12.12
232.907	10.41
233.125	39.08
233.342	47.27
233.56	18.6
233.777	61.61
233.995	8.36
234.213	18.6
234.43	-8.02
234.648	32.94
234.865	32.94
235.083	-20.31
235.3	26.79
235.518	41.13
235.735	59.56
235.953	28.84
236.17	43.18
236.388	59.56
236.605	43.18
236.822	98.47
237.04	73.9
237.257	125.1
237.475	-65.36
237.692	110.76
237.909	65.71
238.127	45.23
238.344	-24.4
238.562	32.94
238.779	-65.36
238.996	14.51
239.214	47.27
239.431	39.08
239.648	49.32
239.865	92.33
240.083	57.51
240.3	30.89
240.517	-30.55
240.735	82.09
240.952	86.19
241.169	24.75
241.386	63.66
241.603	-20.31
241.821	14.51
242.038	90.28
242.255	8.36
242.472	39.08
242.689	-3.93
242.907	34.99
243.124	8.36
243.341	-24.4
243.558	26.79
243.775	24.75
243.992	-14.17
244.209	65.71
244.426	45.23
244.643	51.37
244.86	24.75
245.078	32.94
245.295	55.47
245.512	18.6
245.729	-12.12
245.946	14.51
246.163	45.23
246.38	104.62
246.597	-30.55
246.814	16.55
247.031	82.09
247.248	37.03
247.464	45.23
247.681	86.19
247.898	55.47
248.115	18.6
248.332	24.75
248.549	67.75
248.766	49.32
248.983	139.43
249.2	32.94
249.417	-5.97
249.633	12.46
249.85	94.38
250.067	61.61
250.284	57.51
250.501	41.13
250.717	39.08
250.934	24.75
251.151	34.99
251.368	57.51
251.585	-30.55
251.801	-16.21
252.018	4.27
252.235	4.27
252.451	-5.97
252.668	30.89
252.885	61.61
253.102	8.36
253.318	-14.17
253.535	84.14
253.752	-30.55
253.968	2.22
254.185	-14.17
254.401	41.13
254.618	41.13
254.835	12.46
255.051	106.67
255.268	34.99
255.484	49.32
255.701	18.6
255.917	49.32
256.134	26.79
256.351	-63.32
256.567	43.18
256.784	110.76
257	10.41
257.217	67.75
257.433	18.6
257.65	75.95
257.866	-10.07
258.082	43.18
258.299	-5.97
258.515	10.41
258.732	-26.45
258.948	6.31
259.165	14.51
259.381	-30.55
259.597	20.65
259.814	75.95
260.03	106.67
260.246	0.17
260.463	37.03
260.679	47.27
260.895	65.71
261.112	16.55
261.328	98.47
261.544	12.46
261.761	43.18
261.977	45.23
262.193	-16.21
262.409	94.38
262.626	2.22
262.842	86.19
263.058	12.46
263.274	34.99
263.49	20.65
263.707	82.09
263.923	-1.88
264.139	37.03
264.355	-14.17
264.571	104.62
264.787	20.65
265.004	49.32
265.22	59.56
265.436	94.38
265.652	20.65
265.868	14.51
266.084	-12.12
266.3	45.23
266.516	8.36
266.732	94.38
266.948	61.61
267.164	18.6
267.38	61.61
267.596	63.66
267.812	67.75
268.028	-1.88
268.244	59.56
268.46	2.22
268.676	8.36
268.892	92.33
269.108	82.09
269.324	49.32
269.54	-22.36
269.756	24.75
269.972	37.03
270.188	24.75
270.403	2.22
270.619	28.84
270.835	49.32
271.051	16.55
271.267	-10.07
271.483	-20.31
271.698	24.75
271.914	39.08
272.13	39.08
272.346	63.66
272.562	-24.4
272.777	20.65
272.993	12.46
273.209	18.6
273.425	24.75
273.64	-16.21
273.856	22.7
274.072	2.22
274.287	-24.4
274.503	22.7
274.719	-46.93
274.934	2.22
275.15	28.84
275.366	59.56
275.581	51.37
275.797	53.42
276.012	0.17
276.228	-28.5
276.444	67.75
276.659	45.23
276.875	-57.17
277.09	49.32
277.306	-20.31
277.521	65.71
277.737	32.94
277.952	32.94
278.168	18.6
278.383	16.55
278.599	-3.93
278.814	59.56
279.03	-85.84
279.245	32.94
279.461	6.31
279.676	22.7
279.892	-24.4
280.107	24.75
280.322	57.51
280.538	37.03
280.753	-16.21
280.969	102.57
281.184	-40.79
281.399	43.18
281.615	16.55
281.83	28.84
282.045	-34.64
282.26	43.18
282.476	-38.74
282.691	24.75
282.906	37.03
283.122	39.08
283.337	8.36
283.552	-10.07
283.767	4.27
283.983	82.09
284.198	-3.93
284.413	41.13
284.628	-14.17
284.843	41.13
285.058	84.14
285.274	121
285.489	28.84
285.704	-8.02
285.919	116.9
286.134	-8.02
286.349	67.75
286.564	82.09
286.779	94.38
286.995	16.55
287.21	-28.5
287.425	65.71
287.64	34.99
287.855	8.36
288.07	30.89
288.285	51.37
288.5	20.65
288.715	80.04
288.93	8.36
289.145	30.89
289.36	8.36
289.575	80.04
289.79	69.8
290.004	24.75
290.219	92.33
290.434	-38.74
290.649	61.61
290.864	41.13
291.079	49.32
291.294	16.55
291.509	32.94
291.724	45.23
291.938	8.36
292.153	32.94
292.368	57.51
292.583	114.86
292.798	37.03
293.012	-16.21
293.227	10.41
293.442	82.09
293.657	14.51
293.871	4.27
294.086	65.71
294.301	92.33
294.516	90.28
294.73	-55.12
294.945	43.18
295.16	26.79
295.374	75.95
295.589	82.09
295.804	-40.79
296.018	-73.56
296.233	137.38
296.447	98.47
296.662	26.79
296.877	75.95
297.091	10.41
297.306	100.52
297.52	59.56
297.735	57.51
297.949	-16.21
298.164	57.51
298.378	71.85
298.593	18.6
298.807	0.17
299.022	32.94
299.236	139.43
299.451	-5.97
299.665	30.89
299.88	32.94
300.094	69.8
300.309	12.46
300.523	32.94
300.737	34.99
300.952	-8.02
301.166	84.14
301.381	-8.02
301.595	-16.21
301.809	41.13
302.024	108.71
302.238	57.51
302.452	100.52
302.667	-44.88
302.881	63.66
303.095	26.79
303.309	98.47
303.524	16.55
303.738	0.17
303.952	0.17
304.166	24.75
304.381	-102.23
304.595	67.75
304.809	-30.55
305.023	32.94
305.237	-26.45
305.452	45.23
305.666	57.51
305.88	53.42
306.094	-1.88
306.308	82.09
306.522	65.71
306.736	73.9
306.95	28.84
307.164	-3.93
307.379	-34.64
307.593	32.94
307.807	71.85
308.021	94.38
308.235	77.99
308.449	-30.55
308.663	-8.02
308.877	69.8
309.091	26.79
309.305	67.75
309.519	-32.6
309.733	82.09
309.947	18.6
310.161	84.14
310.374	-16.21
310.588	34.99
310.802	8.36
311.016	2.22
311.23	18.6
311.444	4.27
311.658	51.37
311.872	63.66
312.085	-77.65
312.299	73.9
312.513	80.04
312.727	30.89
312.941	32.94
313.154	39.08
313.368	41.13
313.582	-22.36
313.796	16.55
314.009	92.33
314.223	65.71
314.437	92.33
314.651	-12.12
314.864	28.84
315.078	20.65
315.292	8.36
315.505	102.57
315.719	106.67
315.933	16.55
316.146	73.9
316.36	10.41
316.573	65.71
316.787	32.94
317.001	8.36
317.214	-18.26
317.428	114.86
317.641	96.43
317.855	10.41
318.068	131.24
318.282	22.7
318.495	77.99
318.709	-36.69
318.922	-3.93
319.136	55.47
319.349	49.32
319.563	8.36
319.776	45.23
319.99	-8.02
320.203	69.8
320.417	32.94
320.63	16.55
320.843	34.99
321.057	41.13
321.27	110.76
321.483	73.9
321.697	41.13
321.91	47.27
322.124	2.22
322.337	24.75
322.55	34.99
322.763	63.66
322.977	0.17
323.19	-34.64
323.403	-14.17
323.617	-5.97
323.83	84.14
324.043	51.37
324.256	26.79
324.469	-3.93
324.683	82.09
324.896	90.28
325.109	34.99
325.322	65.71
325.535	135.34
325.748	137.38
325.962	65.71
326.175	39.08
326.388	41.13
326.601	53.42
326.814	67.75
327.027	8.36
327.24	108.71
327.453	20.65
327.666	18.6
327.879	49.32
328.092	131.24
328.305	69.8
328.518	32.94
328.731	32.94
328.944	4.27
329.157	118.95
329.37	30.89
329.583	18.6
329.796	45.23
330.009	2.22
330.222	114.86
330.435	51.37
330.648	51.37
330.861	-22.36
331.073	57.51
331.286	55.47
331.499	0.17
331.712	12.46
331.925	6.31
332.138	55.47
332.35	98.47
332.563	57.51
332.776	57.51
332.989	41.13
333.202	16.55
333.414	45.23
333.627	0.17
333.84	65.71
334.053	10.41
334.265	51.37
334.478	45.23
334.691	61.61
334.903	24.75
335.116	-30.55
335.329	41.13
335.541	26.79
335.754	77.99
335.966	61.61
336.179	8.36
336.392	69.8
336.604	41.13
336.817	32.94
337.029	49.32
337.242	82.09
337.454	-14.17
337.667	49.32
337.88	102.57
338.092	16.55
338.305	59.56
338.517	18.6
338.729	53.42
338.942	100.52
339.154	18.6
339.367	34.99
339.579	49.32
339.792	32.94
340.004	102.57
340.217	-3.93
340.429	77.99
340.641	28.84
340.854	51.37
341.066	24.75
341.278	77.99
341.491	45.23
341.703	143.53
341.915	94.38
342.128	84.14
342.34	-22.36
342.552	12.46
342.764	8.36
342.977	24.75
343.189	45.23
343.401	45.23
343.613	30.89
343.826	-32.6
344.038	8.36
344.25	26.79
344.462	0.17
344.674	24.75
344.886	51.37
345.099	6.31
345.311	34.99
345.523	71.85
345.735	8.36
345.947	57.51
346.159	92.33
346.371	55.47
346.583	37.03
346.795	41.13
347.007	73.9
347.219	82.09
347.431	-10.07
347.643	69.8
347.855	30.89
348.067	26.79
348.279	-5.97
348.491	-5.97
348.703	141.48
348.915	43.18
349.127	41.13
349.339	73.9
349.551	-12.12
349.763	108.71
349.975	100.52
350.187	41.13
350.399	-3.93
350.61	67.75
350.822	8.36
351.034	45.23
351.246	-24.4
351.458	59.56
351.669	26.79
351.881	39.08
352.093	30.89
352.305	67.75
352.517	41.13
352.728	55.47
352.94	57.51
353.152	53.42
353.363	65.71
353.575	77.99
353.787	49.32
353.999	121
354.21	143.53
354.422	110.76
354.633	26.79
354.845	143.53
355.057	43.18
355.268	71.85
355.48	71.85
355.692	86.19
355.903	10.41
356.115	84.14
356.326	-14.17
356.538	57.51
356.749	34.99
356.961	73.9
357.172	57.51
357.384	-8.02
357.595	80.04
357.807	-20.31
358.018	14.51
358.23	41.13
358.441	69.8
358.653	88.23
358.864	14.51
359.075	77.99
359.287	43.18
359.498	73.9
359.709	32.94
359.921	4.27
360.132	37.03
360.344	49.32
360.555	37.03
360.766	106.67
360.977	-24.4
361.189	82.09
361.4	53.42
361.611	110.76
361.823	57.51
362.034	94.38
362.245	28.84
362.456	59.56
362.667	39.08
362.879	10.41
363.09	8.36
363.301	49.32
363.512	123.05
363.723	16.55
363.935	8.36
364.146	14.51
364.357	61.61
364.568	0.17
364.779	10.41
364.99	28.84
365.201	30.89
365.412	137.38
365.623	32.94
365.834	135.34
366.045	69.8
366.256	37.03
366.467	106.67
366.678	20.65
366.889	75.95
367.1	34.99
367.311	80.04
367.522	0.17
367.733	73.9
367.944	172.2
368.155	-5.97
368.366	53.42
368.577	96.43
368.788	18.6
368.999	18.6
369.209	41.13
369.42	102.57
369.631	61.61
369.842	73.9
370.053	69.8
370.264	12.46
370.474	82.09
370.685	92.33
370.896	45.23
371.107	67.75
371.317	114.86
371.528	41.13
371.739	92.33
371.95	106.67
372.16	73.9
372.371	65.71
372.582	49.32
372.792	39.08
373.003	82.09
373.214	77.99
373.424	164.01
373.635	43.18
373.846	94.38
374.056	51.37
374.267	82.09
374.477	37.03
374.688	51.37
374.898	65.71
375.109	100.52
375.319	26.79
375.53	41.13
375.74	30.89
375.951	73.9
376.161	90.28
376.372	125.1
376.582	61.61
376.793	49.32
377.003	61.61
377.214	10.41
377.424	77.99
377.635	98.47
377.845	53.42
378.055	61.61
378.266	-42.84
378.476	24.75
378.686	43.18
378.897	20.65
379.107	75.95
379.317	18.6
379.528	69.8
379.738	73.9
379.948	10.41
380.158	49.32
380.369	37.03
380.579	51.37
380.789	75.95
380.999	180.39
381.21	125.1
381.42	104.62
381.63	-30.55
381.84	98.47
382.05	77.99
382.261	67.75
382.471	39.08
382.681	69.8
382.891	32.94
383.101	57.51
383.311	16.55
383.521	37.03
383.731	131.24
383.941	123.05
384.151	82.09
384.361	0.17
384.571	67.75
384.781	45.23
384.991	174.25
385.201	100.52
385.411	71.85
385.621	98.47
385.831	77.99
386.041	92.33
386.251	26.79
386.461	82.09
386.671	0.17
386.881	90.28
387.091	45.23
387.301	49.32
387.511	18.6
387.72	32.94
387.93	22.7
388.14	45.23
388.35	108.71
388.56	2.22
388.769	108.71
388.979	129.19
389.189	32.94
389.399	24.75
389.609	149.67
389.818	77.99
390.028	92.33
390.238	43.18
390.447	77.99
390.657	110.76
390.867	65.71
391.076	8.36
391.286	94.38
391.496	77.99
391.705	39.08
391.915	92.33
392.125	49.32
392.334	51.37
392.544	108.71
392.753	129.19
392.963	67.75
393.172	49.32
393.382	71.85
393.591	141.48
393.801	84.14
394.01	84.14
394.22	65.71
394.429	139.43
394.639	57.51
394.848	98.47
395.058	110.76
395.267	63.66
395.477	123.05
395.686	106.67
395.895	116.9
396.105	188.58
396.314	104.62
396.524	114.86
396.733	104.62
396.942	155.82
397.152	123.05
397.361	114.86
397.57	84.14
397.78	131.24
397.989	90.28
398.198	114.86
398.407	123.05
398.617	28.84
398.826	69.8
399.035	125.1
399.244	102.57
399.453	149.67
399.663	118.95
399.872	121
400.081	90.28
400.29	94.38
400.499	133.29
400.708	147.62
400.917	118.95
401.127	151.72
401.336	143.53
401.545	116.9
401.754	114.86
401.963	166.06
402.172	114.86
402.381	92.33
402.59	133.29
402.799	118.95
403.008	139.43
403.217	153.77
403.426	137.38
403.635	164.01
403.844	147.62
404.053	190.63
404.262	69.8
404.471	133.29
404.68	157.86
404.888	186.54
405.097	159.91
405.306	174.25
405.515	137.38
405.724	196.78
405.933	223.4
406.142	147.62
406.35	207.02
406.559	174.25
406.768	196.78
406.977	264.36
407.185	229.54
407.394	315.56
407.603	233.64
407.812	254.12
408.02	270.5
408.229	207.02
408.438	278.69
408.646	270.5
408.855	274.6
409.064	198.82
409.272	319.65
409.481	297.13
409.69	295.08
409.898	385.19
410.107	270.5
410.315	354.47
410.524	329.89
410.733	403.62
410.941	401.57
411.15	389.28
411.358	434.34
411.567	405.67
411.775	405.67
411.984	460.96
412.192	522.4
412.401	561.31
412.609	516.26
412.818	559.27
413.026	577.7
413.234	606.37
413.443	604.32
413.651	657.57
413.86	702.62
414.068	606.37
414.276	764.06
414.485	729.25
414.693	753.82
414.901	766.11
415.11	762.02
415.318	854.17
415.526	788.64
415.734	827.55
415.943	915.61
416.151	886.94
416.359	921.76
416.567	975
416.776	1032.35
416.984	1040.54
417.192	1136.79
417.4	1247.38
417.608	1083.55
417.817	1224.86
418.025	1192.09
418.233	1259.67
418.441	1224.86
418.649	1403.03
418.857	1478.8
419.065	1374.36
419.273	1487
419.481	1536.15
419.689	1622.16
419.897	1691.79
420.105	1722.51
420.313	1829.01
420.521	1790.1
420.729	1837.2
420.937	1941.65
421.145	1876.11
421.353	2064.52
421.561	2183.31
421.769	2228.36
421.977	2400.39
422.185	2265.22
422.393	2576.52
422.601	2597
422.809	2601.09
423.017	2582.66
423.224	2685.06
423.432	2834.56
423.64	2805.89
423.848	3201.15
424.056	2924.67
424.263	3221.63
424.471	3088.51
424.679	3219.58
424.887	3381.37
425.094	3645.56
425.302	3448.95
425.51	3739.76
425.718	3852.4
425.925	3698.8
426.133	4003.95
426.341	4151.4
426.548	4419.69
426.756	4343.91
426.964	4395.11
427.171	4573.28
427.379	4825.19
427.586	5003.36
427.794	4946.02
428.001	5202.01
428.209	5435.48
428.417	5103.71
428.624	5699.67
428.832	5728.34
429.039	5820.5
429.247	5742.68
429.454	6197.32
429.662	6545.48
429.869	6307.91
430.076	6778.95
430.284	6578.25
430.491	6703.17
430.699	7168.06
430.906	7135.29
431.114	7237.69
431.321	7678.01
431.528	7569.46
431.736	8108.08
431.943	8601.64
432.15	8413.23
432.358	8482.86
432.565	8945.7
432.772	8677.41
432.979	9330.72
433.187	9590.81
433.394	9508.89
433.601	10194.96
433.808	10115.09
434.016	10113.04
434.223	10532.87
434.43	11036.67
434.637	10928.13
434.844	11601.91
435.052	11771.9
435.259	11743.22
435.466	11831.29
435.673	11775.99
435.88	12376.05
436.087	13070.31
436.294	13033.44
436.501	12629.99
436.708	13066.21
436.915	13613.02
437.122	14104.53
437.329	14233.55
437.537	14387.15
437.743	14854.09
437.95	14811.08
438.157	15601.6
438.364	16107.44
438.571	15984.57
438.778	15976.37
438.985	17483.68
439.192	16832.43
439.399	17297.31
439.606	16857
439.813	17985.43
440.02	19148.68
440.227	18603.92
440.433	18491.28
440.64	19003.27
440.847	18767.76
441.054	19502.98
441.261	20531.06
441.467	20524.91
441.674	20914.03
441.881	21534.56
442.088	21356.39
442.294	21469.03
442.501	22021.98
442.708	22275.93
442.914	23230.28
443.121	24350.52
443.328	23697.22
443.534	25208.62
443.741	24399.67
443.948	23914.3
444.154	25739.04
444.361	26017.57
444.568	25808.67
444.774	26195.74
444.981	26177.31
445.187	26726.16
445.394	27576.07
445.6	27727.62
445.807	30559.96
446.013	29112.05
446.22	29581.03
446.426	30895.83
446.633	31039.19
446.839	32112.32
447.046	30551.77
447.252	32184
447.459	32351.93
447.665	32147.14
447.871	33658.54
448.078	35077.78
448.284	33298.09
448.491	34369.18
448.697	35634.83
448.903	36265.6
449.11	36378.24
449.316	35640.97
449.522	36519.55
449.728	37058.17
449.935	37654.12
450.141	37508.72
450.347	38495.84
450.553	37437.04
450.76	37924.46
450.966	38911.58
451.172	38596.19
451.378	39540.3
451.584	38448.74
451.791	39839.31
451.997	39663.18
452.203	40076.87
452.409	40009.29
452.615	39827.02
452.821	38647.39
453.027	38366.82
453.233	40332.87
453.44	38485.6
453.646	38856.28
453.852	39276.12
454.058	40087.11
454.264	38747.74
454.47	39884.36
454.676	38598.24
454.882	39872.07
455.088	36519.55
455.294	37017.21
455.5	37508.72
455.705	37480.05
455.911	36302.46
456.117	35618.44
456.323	35417.74
456.529	33746.6
456.735	35270.29
456.941	33920.68
457.147	33666.73
457.352	32626.36
457.558	32106.18
457.764	32612.03
457.97	31610.57
458.176	30944.98
458.381	31069.9
458.587	29404.91
458.793	29423.34
458.999	27965.18
459.204	30271.2
459.41	28841.71
459.616	27330.31
459.821	27352.84
460.027	27277.07
460.233	26900.24
460.438	25378.6
460.644	25782.05
460.85	24500.02
461.055	24274.74
461.261	24282.94
461.466	22384.47
461.672	21718.88
461.878	23209.8
462.083	21610.34
462.289	21624.67
462.494	21100.39
462.7	20182.9
462.905	19558.27
463.111	20365.17
463.316	20354.93
463.522	19740.54
463.727	19963.77
463.932	19957.63
464.138	19398.53
464.343	19810.17
464.549	19285.89
464.754	20012.92
464.959	19640.19
465.165	19300.23
465.37	18737.04
465.575	18290.58
465.781	19099.53
465.986	19163.01
466.191	18364.31
466.397	17989.53
466.602	17192.87
466.807	17854.36
467.012	17797.02
467.218	17581.98
467.423	17491.87
