Data from USB4F104151__80__14-17-42-946.txt Node

Date: Thu Mar 13 14:17:42 EDT 2025
User: louis
Spectrometer: USB4F10415
Trigger mode: 4
Integration Time (sec): 2.000000E-2
Scans to average: 1
Electric dark correction enabled: true
Nonlinearity correction enabled: false
Boxcar width: 0
XAxis mode: Wavelengths
Number of Pixels in Spectrum: 3648
>>>>>Begin Spectral Data<<<<<
178.204	-52.22
178.424	-52.22
178.644	-52.22
178.864	-117.76
179.084	-93.18
179.304	-11.26
179.524	-29.7
179.744	15.36
179.964	-44.03
180.184	-1.02
180.404	27.65
180.624	5.12
180.844	-9.22
181.064	-27.65
181.283	39.94
181.503	17.41
181.723	17.41
181.943	-11.26
182.163	5.12
182.383	66.56
182.602	76.8
182.822	-48.13
183.042	54.27
183.262	5.12
183.482	9.22
183.701	-11.26
183.921	-3.07
184.141	-25.6
184.361	-1.02
184.58	-50.18
184.8	29.7
185.02	-44.03
185.239	21.5
185.459	-21.5
185.679	15.36
185.898	-23.55
186.118	39.94
186.338	-11.26
186.557	5.12
186.777	62.46
186.997	66.56
187.216	13.31
187.436	89.09
187.655	52.22
187.875	33.79
188.095	-11.26
188.314	82.94
188.534	46.08
188.753	15.36
188.973	-7.17
189.192	-17.41
189.412	-5.12
189.631	21.5
189.851	-19.46
190.07	-3.07
190.29	-44.03
190.509	78.85
190.729	-3.07
190.948	-5.12
191.168	31.74
191.387	78.85
191.607	13.31
191.826	-39.94
192.045	-15.36
192.265	23.55
192.484	29.7
192.704	-13.31
192.923	48.13
193.142	17.41
193.362	-9.22
193.581	70.65
193.8	72.7
194.02	-3.07
194.239	9.22
194.458	52.22
194.678	-7.17
194.897	-11.26
195.116	-7.17
195.335	9.22
195.555	48.13
195.774	29.7
195.993	25.6
196.212	13.31
196.432	-21.5
196.651	87.04
196.87	-15.36
197.089	-23.55
197.308	37.89
197.528	97.28
197.747	15.36
197.966	37.89
198.185	64.51
198.404	5.12
198.623	56.32
198.842	52.22
199.062	48.13
199.281	54.27
199.5	9.22
199.719	-27.65
199.938	-35.84
200.157	13.31
200.376	64.51
200.595	3.07
200.814	21.5
201.033	35.84
201.252	-11.26
201.471	13.31
201.69	23.55
201.909	56.32
202.128	5.12
202.347	78.85
202.566	-3.07
202.785	-19.46
203.004	21.5
203.223	60.42
203.442	68.61
203.661	48.13
203.879	-68.61
204.098	82.94
204.317	50.18
204.536	-35.84
204.755	9.22
204.974	52.22
205.193	21.5
205.411	95.23
205.63	5.12
205.849	54.27
206.068	-11.26
206.287	-25.6
206.505	128
206.724	-11.26
206.943	58.37
207.162	33.79
207.381	3.07
207.599	-64.51
207.818	54.27
208.037	27.65
208.255	-11.26
208.474	-11.26
208.693	-5.12
208.911	3.07
209.13	-41.98
209.349	64.51
209.567	-3.07
209.786	84.99
210.005	-9.22
210.223	17.41
210.442	-11.26
210.661	31.74
210.879	-35.84
211.098	1.02
211.316	-35.84
211.535	-1.02
211.753	29.7
211.972	68.61
212.191	-25.6
212.409	48.13
212.628	44.03
212.846	-11.26
213.065	29.7
213.283	29.7
213.502	25.6
213.72	25.6
213.938	82.94
214.157	-39.94
214.375	39.94
214.594	19.46
214.812	-17.41
215.031	31.74
215.249	60.42
215.467	72.7
215.686	-23.55
215.904	48.13
216.122	21.5
216.341	23.55
216.559	5.12
216.778	48.13
216.996	-1.02
217.214	-15.36
217.432	5.12
217.651	17.41
217.869	-76.8
218.087	-3.07
218.306	-15.36
218.524	-19.46
218.742	17.41
218.96	23.55
219.179	-17.41
219.397	-13.31
219.615	62.46
219.833	62.46
220.051	31.74
220.27	21.5
220.488	7.17
220.706	25.6
220.924	-11.26
221.142	1.02
221.36	-3.07
221.578	54.27
221.796	3.07
222.015	50.18
222.233	13.31
222.451	29.7
222.669	-27.65
222.887	46.08
223.105	7.17
223.323	13.31
223.541	-3.07
223.759	78.85
223.977	39.94
224.195	82.94
224.413	54.27
224.631	-5.12
224.849	5.12
225.067	54.27
225.285	62.46
225.503	25.6
225.721	-23.55
225.939	-27.65
226.157	1.02
226.375	87.04
226.592	78.85
226.81	-21.5
227.028	7.17
227.246	119.81
227.464	-23.55
227.682	5.12
227.9	-5.12
228.117	-11.26
228.335	56.32
228.553	99.33
228.771	33.79
228.989	39.94
229.206	29.7
229.424	50.18
229.642	-15.36
229.86	13.31
230.077	39.94
230.295	72.7
230.513	33.79
230.731	41.98
230.948	-1.02
231.166	-23.55
231.384	-1.02
231.601	31.74
231.819	-5.12
232.037	15.36
232.254	-48.13
232.472	64.51
232.689	-1.02
232.907	15.36
233.125	-27.65
233.342	-3.07
233.56	-70.65
233.777	-23.55
233.995	7.17
234.213	-11.26
234.43	-5.12
234.648	54.27
234.865	-50.18
235.083	7.17
235.3	-1.02
235.518	48.13
235.735	82.94
235.953	66.56
236.17	54.27
236.388	23.55
236.605	-23.55
236.822	37.89
237.04	-68.61
237.257	17.41
237.475	37.89
237.692	15.36
237.909	21.5
238.127	29.7
238.344	46.08
238.562	9.22
238.779	-25.6
238.996	46.08
239.214	37.89
239.431	7.17
239.648	-19.46
239.865	-9.22
240.083	41.98
240.3	56.32
240.517	9.22
240.735	17.41
240.952	87.04
241.169	21.5
241.386	9.22
241.603	-19.46
241.821	-35.84
242.038	15.36
242.255	-31.74
242.472	-68.61
242.689	70.65
242.907	25.6
243.124	37.89
243.341	62.46
243.558	52.22
243.775	-31.74
243.992	-19.46
244.209	39.94
244.426	46.08
244.643	31.74
244.86	15.36
245.078	7.17
245.295	21.5
245.512	54.27
245.729	-54.27
245.946	56.32
246.163	-41.98
246.38	17.41
246.597	1.02
246.814	19.46
247.031	74.75
247.248	-19.46
247.464	95.23
247.681	-9.22
247.898	23.55
248.115	33.79
248.332	-9.22
248.549	7.17
248.766	80.89
248.983	62.46
249.2	9.22
249.417	27.65
249.633	56.32
249.85	62.46
250.067	-5.12
250.284	64.51
250.501	9.22
250.717	46.08
250.934	-33.79
251.151	25.6
251.368	-25.6
251.585	41.98
251.801	-35.84
252.018	-27.65
252.235	64.51
252.451	7.17
252.668	35.84
252.885	13.31
253.102	23.55
253.318	23.55
253.535	-11.26
253.752	-3.07
253.968	-33.79
254.185	-9.22
254.401	-35.84
254.618	37.89
254.835	7.17
255.051	52.22
255.268	-21.5
255.484	103.42
255.701	-5.12
255.917	140.29
256.134	-1.02
256.351	48.13
256.567	-11.26
256.784	23.55
257	23.55
257.217	21.5
257.433	31.74
257.65	46.08
257.866	41.98
258.082	-17.41
258.299	-11.26
258.515	58.37
258.732	-27.65
258.948	27.65
259.165	54.27
259.381	-1.02
259.597	5.12
259.814	-1.02
260.03	27.65
260.246	15.36
260.463	-1.02
260.679	50.18
260.895	15.36
261.112	74.75
261.328	72.7
261.544	-27.65
261.761	103.42
261.977	-11.26
262.193	13.31
262.409	-1.02
262.626	7.17
262.842	13.31
263.058	-52.22
263.274	9.22
263.49	-3.07
263.707	95.23
263.923	27.65
264.139	70.65
264.355	46.08
264.571	3.07
264.787	5.12
265.004	62.46
265.22	-93.18
265.436	3.07
265.652	62.46
265.868	-19.46
266.084	-3.07
266.3	103.42
266.516	13.31
266.732	37.89
266.948	103.42
267.164	37.89
267.38	66.56
267.596	-23.55
267.812	82.94
268.028	-9.22
268.244	5.12
268.46	50.18
268.676	21.5
268.892	13.31
269.108	-39.94
269.324	29.7
269.54	-9.22
269.756	64.51
269.972	62.46
270.188	35.84
270.403	-33.79
270.619	-48.13
270.835	-7.17
271.051	66.56
271.267	5.12
271.483	48.13
271.698	25.6
271.914	13.31
272.13	25.6
272.346	29.7
272.562	29.7
272.777	-3.07
272.993	58.37
273.209	25.6
273.425	41.98
273.64	-27.65
273.856	-31.74
274.072	-9.22
274.287	-23.55
274.503	-23.55
274.719	13.31
274.934	-58.37
275.15	-74.75
275.366	91.13
275.581	9.22
275.797	37.89
276.012	-3.07
276.228	62.46
276.444	-23.55
276.659	23.55
276.875	27.65
277.09	29.7
277.306	-17.41
277.521	-35.84
277.737	29.7
277.952	-25.6
278.168	-27.65
278.383	-11.26
278.599	13.31
278.814	9.22
279.03	13.31
279.245	93.18
279.461	-11.26
279.676	29.7
279.892	15.36
280.107	-33.79
280.322	35.84
280.538	-17.41
280.753	-15.36
280.969	82.94
281.184	50.18
281.399	13.31
281.615	31.74
281.83	21.5
282.045	-27.65
282.26	70.65
282.476	19.46
282.691	-17.41
282.906	9.22
283.122	5.12
283.337	-13.31
283.552	29.7
283.767	-9.22
283.983	-39.94
284.198	5.12
284.413	37.89
284.628	-35.84
284.843	21.5
285.058	21.5
285.274	19.46
285.489	-50.18
285.704	58.37
285.919	48.13
286.134	29.7
286.349	50.18
286.564	-21.5
286.779	25.6
286.995	46.08
287.21	-56.32
287.425	91.13
287.64	9.22
287.855	35.84
288.07	-23.55
288.285	7.17
288.5	25.6
288.715	37.89
288.93	7.17
289.145	9.22
289.36	41.98
289.575	15.36
289.79	66.56
290.004	-9.22
290.219	27.65
290.434	-35.84
290.649	-17.41
290.864	37.89
291.079	11.26
291.294	-1.02
291.509	-33.79
291.724	21.5
291.938	74.75
292.153	-35.84
292.368	-29.7
292.583	35.84
292.798	29.7
293.012	-1.02
293.227	11.26
293.442	13.31
293.657	-33.79
293.871	62.46
294.086	62.46
294.301	29.7
294.516	54.27
294.73	107.52
294.945	31.74
295.16	21.5
295.374	41.98
295.589	144.38
295.804	-35.84
296.018	33.79
296.233	29.7
296.447	31.74
296.662	21.5
296.877	25.6
297.091	56.32
297.306	70.65
297.52	50.18
297.735	58.37
297.949	25.6
298.164	15.36
298.378	-58.37
298.593	23.55
298.807	-11.26
299.022	9.22
299.236	84.99
299.451	11.26
299.665	23.55
299.88	5.12
300.094	82.94
300.309	23.55
300.523	-23.55
300.737	-11.26
300.952	5.12
301.166	82.94
301.381	-50.18
301.595	41.98
301.809	78.85
302.024	-19.46
302.238	-105.47
302.452	84.99
302.667	41.98
302.881	29.7
303.095	56.32
303.309	44.03
303.524	11.26
303.738	21.5
303.952	25.6
304.166	-15.36
304.381	-31.74
304.595	23.55
304.809	-56.32
305.023	46.08
305.237	74.75
305.452	13.31
305.666	80.89
305.88	37.89
306.094	52.22
306.308	66.56
306.522	9.22
306.736	21.5
306.95	-23.55
307.164	-58.37
307.379	21.5
307.593	37.89
307.807	48.13
308.021	21.5
308.235	3.07
308.449	-19.46
308.663	-41.98
308.877	128
309.091	-15.36
309.305	58.37
309.519	39.94
309.733	58.37
309.947	13.31
310.161	89.09
310.374	33.79
310.588	29.7
310.802	15.36
311.016	-37.89
311.23	41.98
311.444	-50.18
311.658	64.51
311.872	113.66
312.085	78.85
312.299	56.32
312.513	70.65
312.727	87.04
312.941	-15.36
313.154	29.7
313.368	1.02
313.582	5.12
313.796	5.12
314.009	39.94
314.223	-17.41
314.437	31.74
314.651	-3.07
314.864	31.74
315.078	5.12
315.292	5.12
315.505	19.46
315.719	7.17
315.933	25.6
316.146	7.17
316.36	-3.07
316.573	29.7
316.787	50.18
317.001	13.31
317.214	7.17
317.428	25.6
317.641	35.84
317.855	54.27
318.068	-3.07
318.282	5.12
318.495	84.99
318.709	58.37
318.922	21.5
319.136	87.04
319.349	-25.6
319.563	-54.27
319.776	-5.12
319.99	-11.26
320.203	15.36
320.417	9.22
320.63	25.6
320.843	128
321.057	-3.07
321.27	80.89
321.483	33.79
321.697	62.46
321.91	-48.13
322.124	58.37
322.337	35.84
322.55	31.74
322.763	-5.12
322.977	50.18
323.19	1.02
323.403	48.13
323.617	5.12
323.83	33.79
324.043	9.22
324.256	5.12
324.469	62.46
324.683	64.51
324.896	33.79
325.109	-50.18
325.322	21.5
325.535	29.7
325.748	68.61
325.962	9.22
326.175	21.5
326.388	25.6
326.601	64.51
326.814	21.5
327.027	37.89
327.24	70.65
327.453	33.79
327.666	15.36
327.879	29.7
328.092	13.31
328.305	-64.51
328.518	9.22
328.731	-39.94
328.944	-50.18
329.157	54.27
329.37	87.04
329.583	39.94
329.796	64.51
330.009	48.13
330.222	95.23
330.435	76.8
330.648	-31.74
330.861	-33.79
331.073	97.28
331.286	37.89
331.499	44.03
331.712	-19.46
331.925	-9.22
332.138	29.7
332.35	74.75
332.563	-44.03
332.776	128
332.989	23.55
333.202	17.41
333.414	89.09
333.627	-11.26
333.84	46.08
334.053	95.23
334.265	-37.89
334.478	-7.17
334.691	37.89
334.903	5.12
335.116	-76.8
335.329	142.33
335.541	74.75
335.754	76.8
335.966	37.89
336.179	125.95
336.392	60.42
336.604	128
336.817	41.98
337.029	29.7
337.242	19.46
337.454	74.75
337.667	-7.17
337.88	119.81
338.092	-9.22
338.305	50.18
338.517	-21.5
338.729	64.51
338.942	-3.07
339.154	27.65
339.367	46.08
339.579	-7.17
339.792	-7.17
340.004	-27.65
340.217	-23.55
340.429	-17.41
340.641	-54.27
340.854	50.18
341.066	31.74
341.278	11.26
341.491	54.27
341.703	46.08
341.915	54.27
342.128	99.33
342.34	-35.84
342.552	31.74
342.764	21.5
342.977	9.22
343.189	41.98
343.401	33.79
343.613	-27.65
343.826	87.04
344.038	11.26
344.25	-1.02
344.462	-31.74
344.674	48.13
344.886	13.31
345.099	5.12
345.311	-17.41
345.523	-13.31
345.735	13.31
345.947	-56.32
346.159	37.89
346.371	68.61
346.583	46.08
346.795	62.46
347.007	-46.08
347.219	5.12
347.431	35.84
347.643	80.89
347.855	-25.6
348.067	60.42
348.279	-19.46
348.491	-70.65
348.703	56.32
348.915	58.37
349.127	29.7
349.339	21.5
349.551	52.22
349.763	37.89
349.975	31.74
350.187	54.27
350.399	87.04
350.61	-3.07
350.822	13.31
351.034	21.5
351.246	78.85
351.458	-19.46
351.669	33.79
351.881	72.7
352.093	17.41
352.305	25.6
352.517	23.55
352.728	39.94
352.94	7.17
353.152	37.89
353.363	-15.36
353.575	-3.07
353.787	76.8
353.999	84.99
354.21	146.43
354.422	-3.07
354.633	3.07
354.845	68.61
355.057	52.22
355.268	37.89
355.48	-27.65
355.692	44.03
355.903	7.17
356.115	171.01
356.326	17.41
356.538	54.27
356.749	37.89
356.961	62.46
357.172	54.27
357.384	1.02
357.595	56.32
357.807	1.02
358.018	17.41
358.23	48.13
358.441	97.28
358.653	62.46
358.864	-41.98
359.075	-27.65
359.287	37.89
359.498	25.6
359.709	9.22
359.921	17.41
360.132	37.89
360.344	13.31
360.555	5.12
360.766	58.37
360.977	-23.55
361.189	5.12
361.4	15.36
361.611	33.79
361.823	54.27
362.034	84.99
362.245	62.46
362.456	46.08
362.667	70.65
362.879	21.5
363.09	70.65
363.301	46.08
363.512	46.08
363.723	62.46
363.935	54.27
364.146	46.08
364.357	25.6
364.568	5.12
364.779	-9.22
364.99	54.27
365.201	48.13
365.412	62.46
365.623	-25.6
365.834	66.56
366.045	-21.5
366.256	78.85
366.467	-11.26
366.678	31.74
366.889	37.89
367.1	54.27
367.311	-21.5
367.522	54.27
367.733	62.46
367.944	19.46
368.155	82.94
368.366	103.42
368.577	101.37
368.788	29.7
368.999	23.55
369.209	46.08
369.42	113.66
369.631	25.6
369.842	37.89
370.053	62.46
370.264	29.7
370.474	-3.07
370.685	46.08
370.896	56.32
371.107	48.13
371.317	54.27
371.528	99.33
371.739	72.7
371.95	13.31
372.16	103.42
372.371	44.03
372.582	29.7
372.792	58.37
373.003	29.7
373.214	1.02
373.424	54.27
373.635	19.46
373.846	48.13
374.056	-23.55
374.267	87.04
374.477	46.08
374.688	70.65
374.898	31.74
375.109	48.13
375.319	-17.41
375.53	15.36
375.74	58.37
375.951	31.74
376.161	99.33
376.372	25.6
376.582	74.75
376.793	99.33
377.003	29.7
377.214	-23.55
377.424	54.27
377.635	-27.65
377.845	11.26
378.055	113.66
378.266	48.13
378.476	48.13
378.686	60.42
378.897	29.7
379.107	-19.46
379.317	48.13
379.528	5.12
379.738	99.33
379.948	-23.55
380.158	5.12
380.369	41.98
380.579	46.08
380.789	56.32
380.999	56.32
381.21	7.17
381.42	35.84
381.63	37.89
381.84	89.09
382.05	105.47
382.261	136.19
382.471	7.17
382.681	21.5
382.891	89.09
383.101	29.7
383.311	-27.65
383.521	-7.17
383.731	105.47
383.941	89.09
384.151	64.51
384.361	37.89
384.571	101.37
384.781	111.61
384.991	72.7
385.201	31.74
385.411	15.36
385.621	-13.31
385.831	-25.6
386.041	33.79
386.251	74.75
386.461	15.36
386.671	5.12
386.881	56.32
387.091	33.79
387.301	11.26
387.511	41.98
387.72	93.18
387.93	11.26
388.14	-19.46
388.35	29.7
388.56	41.98
388.769	39.94
388.979	48.13
389.189	5.12
389.399	46.08
389.609	128
389.818	9.22
390.028	58.37
390.238	58.37
390.447	-25.6
390.657	48.13
390.867	15.36
391.076	31.74
391.286	15.36
391.496	23.55
391.705	-15.36
391.915	78.85
392.125	9.22
392.334	-31.74
392.544	82.94
392.753	70.65
392.963	15.36
393.172	5.12
393.382	15.36
393.591	87.04
393.801	46.08
394.01	46.08
394.22	87.04
394.429	50.18
394.639	50.18
394.848	132.09
395.058	56.32
395.267	1.02
395.477	31.74
395.686	41.98
395.895	66.56
396.105	132.09
396.314	58.37
396.524	91.13
396.733	39.94
396.942	66.56
397.152	119.81
397.361	97.28
397.57	99.33
397.78	13.31
397.989	80.89
398.198	80.89
398.407	-21.5
398.617	87.04
398.826	1.02
399.035	7.17
399.244	70.65
399.453	31.74
399.663	72.7
399.872	17.41
400.081	37.89
400.29	48.13
400.499	-15.36
400.708	82.94
400.917	25.6
401.127	84.99
401.336	80.89
401.545	160.77
401.754	31.74
401.963	134.14
402.172	70.65
402.381	111.61
402.59	87.04
402.799	179.2
403.008	70.65
403.217	46.08
403.426	154.62
403.635	105.47
403.844	62.46
404.053	87.04
404.262	80.89
404.471	132.09
404.68	136.19
404.888	87.04
405.097	150.53
405.306	50.18
405.515	117.76
405.724	58.37
405.933	140.29
406.142	160.77
406.35	148.48
406.559	119.81
406.768	101.37
406.977	193.53
407.185	187.39
407.394	156.67
407.603	132.09
407.812	193.53
408.02	220.16
408.229	162.81
408.438	164.86
408.646	64.51
408.855	197.63
409.064	218.11
409.272	218.11
409.481	220.16
409.69	154.62
409.898	183.29
410.107	259.07
410.315	283.64
410.524	238.59
410.733	300.03
410.941	265.21
411.15	306.17
411.358	218.11
411.567	275.45
411.775	357.37
411.984	300.03
412.192	375.8
412.401	316.41
412.609	293.88
412.818	402.43
413.026	320.51
413.234	349.18
413.443	340.99
413.651	488.44
413.86	480.25
414.068	480.25
414.276	478.2
414.485	461.82
414.693	433.15
414.901	578.55
415.11	492.54
415.318	513.02
415.526	535.54
415.734	613.37
415.943	629.75
416.151	715.77
416.359	603.13
416.567	742.39
416.776	766.96
416.984	752.63
417.192	756.72
417.4	816.12
417.608	705.53
417.817	848.88
418.025	893.94
418.233	873.46
418.441	812.02
418.649	791.54
418.857	941.04
419.065	938.99
419.273	1006.58
419.481	1061.87
419.689	1055.73
419.897	1061.87
420.105	1115.12
420.313	1176.56
420.521	1186.8
420.729	1281
420.937	1340.4
421.145	1317.87
421.353	1440.75
421.561	1491.95
421.769	1508.33
421.977	1594.34
422.185	1549.29
422.393	1659.88
422.601	1735.65
422.809	1790.95
423.017	1709.03
423.224	1864.68
423.432	1905.63
423.64	1825.76
423.848	2077.66
424.056	1987.55
424.263	2137.06
424.471	2159.58
424.679	2241.5
424.887	2354.14
425.094	2409.44
425.302	2550.75
425.51	2589.66
425.718	2644.95
425.925	2741.21
426.133	2710.49
426.341	2868.18
426.548	2974.67
426.756	2884.56
426.964	2941.91
427.171	3173.33
427.379	3404.75
427.586	3277.77
427.794	3484.62
428.001	3625.93
428.209	3785.67
428.417	3738.57
428.624	3992.52
428.832	4045.76
429.039	3937.22
429.247	3969.99
429.454	4340.67
429.662	4619.19
429.869	4215.74
430.076	4543.42
430.284	4527.03
430.491	4694.97
430.699	4969.4
430.906	4944.82
431.114	5034.93
431.321	5243.82
431.528	5282.74
431.736	5544.88
431.943	6001.57
432.15	5708.71
432.358	5622.7
432.565	6003.62
432.772	6097.83
432.979	6384.54
433.187	6400.93
433.394	6607.77
433.601	7039.89
433.808	7209.87
434.016	6982.55
434.223	7160.72
434.43	7555.98
434.637	7601.04
434.844	8012.68
435.052	8076.16
435.259	8254.34
435.466	8037.25
435.673	7943.05
435.88	8780.67
436.087	9108.34
436.294	8977.27
436.501	9001.85
436.708	9016.18
436.915	9337.71
437.122	9778.03
437.329	9712.49
437.537	9995.11
437.743	10109.8
437.95	10156.9
438.157	10759
438.364	11049.82
438.571	10820.44
438.778	11146.07
438.985	12145.48
439.192	11639.63
439.399	12045.13
439.606	11782.99
439.813	12456.77
440.02	13140.79
440.227	12999.48
440.433	12741.44
440.64	13202.23
440.847	12868.41
441.054	13458.23
441.261	14263.08
441.467	14025.51
441.674	14330.66
441.881	14797.6
442.088	14922.52
442.294	14715.68
442.501	15217.43
442.708	15268.63
442.914	16030.48
443.121	16675.59
443.328	16134.92
443.534	17353.46
443.741	16853.76
443.948	16601.86
444.154	17836.78
444.361	17681.14
444.568	17814.26
444.774	17871.6
444.981	18334.44
445.187	18801.38
445.394	19284.7
445.6	19040.99
445.807	20918.98
446.013	19944.14
446.22	20187.85
446.426	21246.65
446.633	21658.29
446.839	22082.22
447.046	21129.92
447.252	22422.19
447.459	22524.58
447.665	22450.86
447.871	23270.04
448.078	24367.76
448.284	23016.1
448.491	23988.88
448.697	24619.66
448.903	25213.57
449.11	25248.38
449.316	24933
449.522	25307.77
449.728	25754.23
449.935	26102.39
450.141	26196.59
450.347	26806.89
450.553	25754.23
450.76	26169.97
450.966	26972.77
451.172	26647.15
451.378	27728.47
451.584	27009.64
451.791	27716.19
451.997	27626.07
452.203	27841.11
452.409	28054.1
452.615	28052.05
452.821	27017.83
453.027	26653.29
453.233	28088.92
453.44	26712.68
453.646	27118.18
453.852	27347.55
454.058	27642.46
454.264	26948.2
454.47	27546.2
454.676	26935.91
454.882	27503.2
455.088	25252.48
455.294	25838.2
455.5	26329.71
455.705	26358.38
455.911	25320.06
456.117	24898.18
456.323	24851.08
456.529	23306.91
456.735	24287.89
456.941	23622.3
457.147	23311
457.352	22819.49
457.558	22180.53
457.764	22364.84
457.97	22053.55
458.176	21273.28
458.381	21527.22
458.587	20636.36
458.793	20267.72
458.999	19473.11
459.204	20749
459.41	20124.36
459.616	18934.5
459.821	19276.51
460.027	18901.73
460.233	18330.34
460.438	17990.38
460.644	17838.83
460.85	17122.04
461.055	16741.12
461.261	16726.78
461.466	15151.9
461.672	15186.71
461.878	16143.11
462.083	14977.82
462.289	14746.4
462.494	14517.03
462.7	13880.11
462.905	13558.58
463.111	13968.17
463.316	13900.59
463.522	13763.37
463.727	13767.47
463.932	13554.48
464.138	13271.86
464.343	13861.68
464.549	13292.34
464.754	13595.44
464.959	13593.39
465.165	13361.97
465.37	12794.68
465.575	12444.48
465.781	12907.32
465.986	13316.92
466.191	12628.8
466.397	12360.52
466.602	11746.12
466.807	12362.56
467.012	12342.08
467.218	12151.62
467.423	11998.02
467.628	11922.25
467.833	12563.26
468.038	12088.14
468.244	11733.84
468.449	12280.64
468.654	11703.12
