Data from USB4F104151__26__14-16-26-473.txt Node

Date: Thu Mar 13 14:16:26 EDT 2025
User: louis
Spectrometer: USB4F10415
Trigger mode: 4
Integration Time (sec): 2.000000E-2
Scans to average: 1
Electric dark correction enabled: true
Nonlinearity correction enabled: false
Boxcar width: 0
XAxis mode: Wavelengths
Number of Pixels in Spectrum: 3648
>>>>>Begin Spectral Data<<<<<
178.204	-87.55
178.424	-87.55
178.644	-87.55
178.864	-103.93
179.084	-120.32
179.304	-44.54
179.524	18.94
179.744	4.61
179.964	-19.97
180.184	-38.4
180.404	37.38
180.624	47.62
180.844	-28.16
181.064	-1.54
181.283	31.23
181.503	-1.54
181.723	-5.63
181.943	2.56
182.163	76.29
182.383	59.9
182.602	84.48
182.822	82.43
183.042	96.77
183.262	68.09
183.482	86.53
183.701	45.57
183.921	59.9
184.141	10.75
184.361	35.33
184.58	70.14
184.8	61.95
185.02	0.51
185.239	131.58
185.459	-13.82
185.679	64
185.898	-9.73
186.118	23.04
186.338	53.76
186.557	133.63
186.777	-11.78
186.997	68.09
187.216	39.42
187.436	123.39
187.655	45.57
187.875	-1.54
188.095	-1.54
188.314	76.29
188.534	96.77
188.753	-30.21
188.973	92.67
189.192	-19.97
189.412	102.91
189.631	35.33
189.851	43.52
190.07	59.9
190.29	-46.59
190.509	59.9
190.729	80.38
190.948	35.33
191.168	92.67
191.387	92.67
191.607	10.75
191.826	68.09
192.045	35.33
192.265	16.9
192.484	39.42
192.704	55.81
192.923	29.18
193.142	66.05
193.362	94.72
193.581	125.44
193.8	2.56
194.02	59.9
194.239	53.76
194.458	55.81
194.678	82.43
194.897	59.9
195.116	2.56
195.335	16.9
195.555	84.48
195.774	39.42
195.993	51.71
196.212	64
196.432	-22.02
196.651	68.09
196.87	2.56
197.089	43.52
197.308	70.14
197.528	35.33
197.747	14.85
197.966	47.62
198.185	133.63
198.404	-38.4
198.623	64
198.842	18.94
199.062	61.95
199.281	84.48
199.5	129.53
199.719	10.75
199.938	76.29
200.157	68.09
200.376	45.57
200.595	20.99
200.814	47.62
201.033	18.94
201.252	64
201.471	35.33
201.69	74.24
201.909	12.8
202.128	68.09
202.347	74.24
202.566	27.14
202.785	-19.97
203.004	84.48
203.223	117.25
203.442	92.67
203.661	35.33
203.879	2.56
204.098	86.53
204.317	94.72
204.536	51.71
204.755	20.99
204.974	29.18
205.193	80.38
205.411	109.05
205.63	-9.73
205.849	68.09
206.068	4.61
206.287	-13.82
206.505	102.91
206.724	61.95
206.943	-3.58
207.162	41.47
207.381	125.44
207.599	35.33
207.818	86.53
208.037	59.9
208.255	-1.54
208.474	37.38
208.693	20.99
208.911	41.47
209.13	133.63
209.349	184.83
209.567	100.86
209.786	84.48
210.005	33.28
210.223	80.38
210.442	59.9
210.661	39.42
210.879	43.52
211.098	66.05
211.316	59.9
211.535	78.33
211.753	43.52
211.972	92.67
212.191	-24.06
212.409	86.53
212.628	94.72
212.846	45.57
213.065	31.23
213.283	135.68
213.502	2.56
213.72	125.44
213.938	51.71
214.157	-5.63
214.375	53.76
214.594	94.72
214.812	27.14
215.031	10.75
215.249	20.99
215.467	6.66
215.686	43.52
215.904	107.01
216.122	23.04
216.341	-1.54
216.559	100.86
216.778	-13.82
216.996	35.33
217.214	51.71
217.432	150.01
217.651	-19.97
217.869	64
218.087	0.51
218.306	-9.73
218.524	35.33
218.742	-101.89
218.96	90.62
219.179	78.33
219.397	68.09
219.615	141.82
219.833	23.04
220.051	16.9
220.27	51.71
220.488	29.18
220.706	43.52
220.924	115.2
221.142	-42.5
221.36	18.94
221.578	111.1
221.796	51.71
222.015	57.86
222.233	68.09
222.451	94.72
222.669	-13.82
222.887	55.81
223.105	39.42
223.323	70.14
223.541	-34.3
223.759	18.94
223.977	45.57
224.195	23.04
224.413	80.38
224.631	80.38
224.849	45.57
225.067	104.96
225.285	43.52
225.503	43.52
225.721	29.18
225.939	76.29
226.157	31.23
226.375	92.67
226.592	61.95
226.81	18.94
227.028	37.38
227.246	133.63
227.464	51.71
227.682	84.48
227.9	68.09
228.117	35.33
228.335	68.09
228.553	43.52
228.771	98.81
228.989	57.86
229.206	47.62
229.424	51.71
229.642	8.7
229.86	6.66
230.077	160.25
230.295	-54.78
230.513	53.76
230.731	139.77
230.948	39.42
231.166	100.86
231.384	61.95
231.601	35.33
231.819	166.4
232.037	68.09
232.254	76.29
232.472	20.99
232.689	-79.36
232.907	16.9
233.125	51.71
233.342	-3.58
233.56	20.99
233.777	143.87
233.995	64
234.213	86.53
234.43	154.11
234.648	51.71
234.865	68.09
235.083	98.81
235.3	20.99
235.518	49.66
235.735	27.14
235.953	117.25
236.17	64
236.388	4.61
236.605	10.75
236.822	6.66
237.04	68.09
237.257	43.52
237.475	68.09
237.692	80.38
237.909	31.23
238.127	10.75
238.344	20.99
238.562	104.96
238.779	37.38
238.996	18.94
239.214	33.28
239.431	88.57
239.648	37.38
239.865	51.71
240.083	45.57
240.3	12.8
240.517	-5.63
240.735	68.09
240.952	20.99
241.169	102.91
241.386	55.81
241.603	25.09
241.821	49.66
242.038	59.9
242.255	10.75
242.472	55.81
242.689	37.38
242.907	119.29
243.124	64
243.341	102.91
243.558	49.66
243.775	94.72
243.992	10.75
244.209	102.91
244.426	145.92
244.643	100.86
244.86	18.94
245.078	129.53
245.295	86.53
245.512	68.09
245.729	20.99
245.946	51.71
246.163	14.85
246.38	76.29
246.597	49.66
246.814	33.28
247.031	51.71
247.248	90.62
247.464	4.61
247.681	51.71
247.898	86.53
248.115	18.94
248.332	45.57
248.549	20.99
248.766	107.01
248.983	-9.73
249.2	68.09
249.417	80.38
249.633	18.94
249.85	68.09
250.067	55.81
250.284	6.66
250.501	18.94
250.717	6.66
250.934	12.8
251.151	4.61
251.368	76.29
251.585	70.14
251.801	53.76
252.018	72.19
252.235	31.23
252.451	72.19
252.668	12.8
252.885	43.52
253.102	78.33
253.318	37.38
253.535	35.33
253.752	59.9
253.968	18.94
254.185	86.53
254.401	27.14
254.618	18.94
254.835	92.67
255.051	64
255.268	43.52
255.484	57.86
255.701	35.33
255.917	47.62
256.134	12.8
256.351	102.91
256.567	2.56
256.784	49.66
257	-9.73
257.217	51.71
257.433	-13.82
257.65	78.33
257.866	94.72
258.082	53.76
258.299	-22.02
258.515	43.52
258.732	39.42
258.948	-1.54
259.165	111.1
259.381	-1.54
259.597	59.9
259.814	57.86
260.03	-11.78
260.246	39.42
260.463	12.8
260.679	41.47
260.895	109.05
261.112	94.72
261.328	59.9
261.544	6.66
261.761	51.71
261.977	109.05
262.193	27.14
262.409	61.95
262.626	121.34
262.842	20.99
263.058	18.94
263.274	102.91
263.49	33.28
263.707	92.67
263.923	-11.78
264.139	31.23
264.355	76.29
264.571	102.91
264.787	8.7
265.004	84.48
265.22	68.09
265.436	86.53
265.652	27.14
265.868	53.76
266.084	35.33
266.3	92.67
266.516	-3.58
266.732	66.05
266.948	111.1
267.164	57.86
267.38	61.95
267.596	123.39
267.812	117.25
268.028	133.63
268.244	-38.4
268.46	8.7
268.676	2.56
268.892	100.86
269.108	49.66
269.324	27.14
269.54	-3.58
269.756	61.95
269.972	51.71
270.188	66.05
270.403	20.99
270.619	43.52
270.835	0.51
271.051	94.72
271.267	51.71
271.483	43.52
271.698	86.53
271.914	39.42
272.13	76.29
272.346	45.57
272.562	27.14
272.777	129.53
272.993	92.67
273.209	29.18
273.425	78.33
273.64	-3.58
273.856	78.33
274.072	68.09
274.287	-1.54
274.503	76.29
274.719	53.76
274.934	64
275.15	33.28
275.366	135.68
275.581	64
275.797	68.09
276.012	82.43
276.228	43.52
276.444	37.38
276.659	121.34
276.875	39.42
277.09	37.38
277.306	23.04
277.521	20.99
277.737	27.14
277.952	152.06
278.168	29.18
278.383	102.91
278.599	-1.54
278.814	49.66
279.03	86.53
279.245	39.42
279.461	104.96
279.676	80.38
279.892	10.75
280.107	43.52
280.322	-5.63
280.538	-9.73
280.753	12.8
280.969	59.9
281.184	61.95
281.399	33.28
281.615	43.52
281.83	80.38
282.045	29.18
282.26	82.43
282.476	10.75
282.691	35.33
282.906	64
283.122	20.99
283.337	-42.5
283.552	53.76
283.767	61.95
283.983	72.19
284.198	43.52
284.413	35.33
284.628	27.14
284.843	78.33
285.058	51.71
285.274	43.52
285.489	10.75
285.704	25.09
285.919	117.25
286.134	20.99
286.349	6.66
286.564	49.66
286.779	49.66
286.995	37.38
287.21	45.57
287.425	117.25
287.64	27.14
287.855	64
288.07	29.18
288.285	78.33
288.5	86.53
288.715	123.39
288.93	29.18
289.145	6.66
289.36	96.77
289.575	45.57
289.79	47.62
290.004	64
290.219	35.33
290.434	68.09
290.649	68.09
290.864	111.1
291.079	10.75
291.294	27.14
291.509	-9.73
291.724	102.91
291.938	59.9
292.153	14.85
292.368	55.81
292.583	55.81
292.798	23.04
293.012	31.23
293.227	43.52
293.442	123.39
293.657	84.48
293.871	43.52
294.086	37.38
294.301	53.76
294.516	47.62
294.73	109.05
294.945	51.71
295.16	27.14
295.374	92.67
295.589	37.38
295.804	41.47
296.018	-13.82
296.233	117.25
296.447	51.71
296.662	-3.58
296.877	86.53
297.091	51.71
297.306	68.09
297.52	57.86
297.735	92.67
297.949	51.71
298.164	37.38
298.378	72.19
298.593	29.18
298.807	2.56
299.022	64
299.236	86.53
299.451	43.52
299.665	29.18
299.88	82.43
300.094	57.86
300.309	59.9
300.523	100.86
300.737	78.33
300.952	51.71
301.166	125.44
301.381	92.67
301.595	64
301.809	-28.16
302.024	35.33
302.238	23.04
302.452	45.57
302.667	49.66
302.881	45.57
303.095	115.2
303.309	27.14
303.524	-7.68
303.738	115.2
303.952	-50.69
304.166	29.18
304.381	-28.16
304.595	68.09
304.809	61.95
305.023	96.77
305.237	20.99
305.452	51.71
305.666	31.23
305.88	18.94
306.094	55.81
306.308	59.9
306.522	43.52
306.736	59.9
306.95	96.77
307.164	96.77
307.379	-52.74
307.593	61.95
307.807	2.56
308.021	61.95
308.235	117.25
308.449	41.47
308.663	66.05
308.877	100.86
309.091	72.19
309.305	29.18
309.519	35.33
309.733	39.42
309.947	82.43
310.161	45.57
310.374	37.38
310.588	86.53
310.802	59.9
311.016	-52.74
311.23	53.76
311.444	39.42
311.658	88.57
311.872	102.91
312.085	23.04
312.299	43.52
312.513	57.86
312.727	45.57
312.941	84.48
313.154	86.53
313.368	78.33
313.582	90.62
313.796	68.09
314.009	55.81
314.223	86.53
314.437	68.09
314.651	80.38
314.864	37.38
315.078	68.09
315.292	41.47
315.505	84.48
315.719	55.81
315.933	-32.26
316.146	88.57
316.36	20.99
316.573	78.33
316.787	51.71
317.001	84.48
317.214	12.8
317.428	72.19
317.641	-26.11
317.855	49.66
318.068	14.85
318.282	102.91
318.495	117.25
318.709	78.33
318.922	68.09
319.136	61.95
319.349	68.09
319.563	4.61
319.776	64
319.99	70.14
320.203	107.01
320.417	74.24
320.63	55.81
320.843	135.68
321.057	29.18
321.27	31.23
321.483	20.99
321.697	137.73
321.91	88.57
322.124	102.91
322.337	33.28
322.55	88.57
322.763	94.72
322.977	109.05
323.19	68.09
323.403	31.23
323.617	37.38
323.83	10.75
324.043	102.91
324.256	72.19
324.469	70.14
324.683	61.95
324.896	104.96
325.109	160.25
325.322	8.7
325.535	96.77
325.748	102.91
325.962	43.52
326.175	45.57
326.388	59.9
326.601	43.52
326.814	88.57
327.027	76.29
327.24	61.95
327.453	70.14
327.666	137.73
327.879	68.09
328.092	102.91
328.305	68.09
328.518	72.19
328.731	41.47
328.944	109.05
329.157	78.33
329.37	113.15
329.583	78.33
329.796	125.44
330.009	12.8
330.222	35.33
330.435	94.72
330.648	-26.11
330.861	98.81
331.073	27.14
331.286	92.67
331.499	100.86
331.712	27.14
331.925	-22.02
332.138	80.38
332.35	59.9
332.563	41.47
332.776	98.81
332.989	2.56
333.202	27.14
333.414	117.25
333.627	31.23
333.84	20.99
334.053	35.33
334.265	66.05
334.478	23.04
334.691	70.14
334.903	158.21
335.116	125.44
335.329	137.73
335.541	16.9
335.754	78.33
335.966	78.33
336.179	45.57
336.392	51.71
336.604	29.18
336.817	55.81
337.029	33.28
337.242	20.99
337.454	55.81
337.667	20.99
337.88	170.49
338.092	57.86
338.305	102.91
338.517	-3.58
338.729	55.81
338.942	55.81
339.154	53.76
339.367	45.57
339.579	25.09
339.792	51.71
340.004	92.67
340.217	-22.02
340.429	111.1
340.641	70.14
340.854	-30.21
341.066	64
341.278	59.9
341.491	76.29
341.703	59.9
341.915	76.29
342.128	94.72
342.34	61.95
342.552	27.14
342.764	84.48
342.977	84.48
343.189	39.42
343.401	84.48
343.613	102.91
343.826	78.33
344.038	76.29
344.25	78.33
344.462	51.71
344.674	23.04
344.886	104.96
345.099	64
345.311	43.52
345.523	53.76
345.735	0.51
345.947	154.11
346.159	51.71
346.371	78.33
346.583	12.8
346.795	35.33
347.007	53.76
347.219	74.24
347.431	27.14
347.643	78.33
347.855	51.71
348.067	94.72
348.279	43.52
348.491	76.29
348.703	16.9
348.915	-3.58
349.127	61.95
349.339	68.09
349.551	6.66
349.763	125.44
349.975	80.38
350.187	109.05
350.399	37.38
350.61	45.57
350.822	84.48
351.034	47.62
351.246	35.33
351.458	43.52
351.669	160.25
351.881	127.49
352.093	137.73
352.305	84.48
352.517	96.77
352.728	59.9
352.94	86.53
353.152	20.99
353.363	35.33
353.575	78.33
353.787	27.14
353.999	61.95
354.21	111.1
354.422	49.66
354.633	92.67
354.845	51.71
355.057	92.67
355.268	100.86
355.48	33.28
355.692	18.94
355.903	35.33
356.115	84.48
356.326	70.14
356.538	51.71
356.749	70.14
356.961	129.53
357.172	6.66
357.384	25.09
357.595	70.14
357.807	25.09
358.018	96.77
358.23	45.57
358.441	133.63
358.653	84.48
358.864	45.57
359.075	14.85
359.287	59.9
359.498	88.57
359.709	133.63
359.921	12.8
360.132	51.71
360.344	92.67
360.555	76.29
360.766	72.19
360.977	100.86
361.189	76.29
361.4	109.05
361.611	162.3
361.823	86.53
362.034	111.1
362.245	76.29
362.456	23.04
362.667	94.72
362.879	20.99
363.09	4.61
363.301	29.18
363.512	37.38
363.723	-3.58
363.935	84.48
364.146	88.57
364.357	123.39
364.568	100.86
364.779	47.62
364.99	125.44
365.201	76.29
365.412	92.67
365.623	29.18
365.834	35.33
366.045	12.8
366.256	150.01
366.467	102.91
366.678	121.34
366.889	61.95
367.1	76.29
367.311	59.9
367.522	35.33
367.733	14.85
367.944	20.99
368.155	20.99
368.366	61.95
368.577	158.21
368.788	137.73
368.999	31.23
369.209	90.62
369.42	113.15
369.631	160.25
369.842	43.52
370.053	59.9
370.264	51.71
370.474	20.99
370.685	125.44
370.896	111.1
371.107	61.95
371.317	76.29
371.528	49.66
371.739	176.64
371.95	76.29
372.16	133.63
372.371	27.14
372.582	84.48
372.792	61.95
373.003	76.29
373.214	39.42
373.424	117.25
373.635	33.28
373.846	166.4
374.056	147.97
374.267	35.33
374.477	61.95
374.688	35.33
374.898	100.86
375.109	51.71
375.319	37.38
375.53	86.53
375.74	53.76
375.951	2.56
376.161	94.72
376.372	76.29
376.582	76.29
376.793	72.19
377.003	100.86
377.214	59.9
377.424	119.29
377.635	131.58
377.845	-7.68
378.055	152.06
378.266	18.94
378.476	68.09
378.686	102.91
378.897	72.19
379.107	-30.21
379.317	94.72
379.528	117.25
379.738	29.18
379.948	29.18
380.158	72.19
380.369	88.57
380.579	86.53
380.789	86.53
380.999	53.76
381.21	104.96
381.42	111.1
381.63	23.04
381.84	47.62
382.05	121.34
382.261	27.14
382.471	55.81
382.681	61.95
382.891	33.28
383.101	84.48
383.311	10.75
383.521	117.25
383.731	78.33
383.941	45.57
384.151	4.61
384.361	61.95
384.571	100.86
384.781	6.66
384.991	139.77
385.201	111.1
385.411	84.48
385.621	86.53
385.831	127.49
386.041	64
386.251	156.16
386.461	141.82
386.671	61.95
386.881	160.25
387.091	107.01
387.301	100.86
387.511	74.24
387.72	88.57
387.93	78.33
388.14	33.28
388.35	43.52
388.56	100.86
388.769	84.48
388.979	119.29
389.189	43.52
389.399	100.86
389.609	115.2
389.818	64
390.028	90.62
390.238	125.44
390.447	33.28
390.657	111.1
390.867	166.4
391.076	57.86
391.286	143.87
391.496	51.71
391.705	88.57
391.915	92.67
392.125	141.82
392.334	137.73
392.544	47.62
392.753	68.09
392.963	133.63
393.172	88.57
393.382	51.71
393.591	121.34
393.801	82.43
394.01	188.93
394.22	92.67
394.429	-7.68
394.639	43.52
394.848	78.33
395.058	84.48
395.267	174.59
395.477	94.72
395.686	76.29
395.895	92.67
396.105	113.15
396.314	76.29
396.524	150.01
396.733	27.14
396.942	158.21
397.152	104.96
397.361	139.77
397.57	51.71
397.78	129.53
397.989	141.82
398.198	225.79
398.407	70.14
398.617	166.4
398.826	31.23
399.035	150.01
399.244	68.09
399.453	150.01
399.663	121.34
399.872	90.62
400.081	117.25
400.29	141.82
400.499	74.24
400.708	125.44
400.917	119.29
401.127	147.97
401.336	139.77
401.545	174.59
401.754	195.07
401.963	184.83
402.172	90.62
402.381	174.59
402.59	166.4
402.799	152.06
403.008	182.78
403.217	76.29
403.426	219.64
403.635	109.05
403.844	100.86
404.053	188.93
404.262	121.34
404.471	182.78
404.68	90.62
404.888	188.93
405.097	102.91
405.306	215.55
405.515	205.31
405.724	152.06
405.933	176.64
406.142	219.64
406.35	256.51
406.559	283.13
406.768	154.11
406.977	215.55
407.185	170.49
407.394	217.6
407.603	203.26
407.812	197.12
408.02	264.7
408.229	233.98
408.438	205.31
408.646	227.84
408.855	307.71
409.064	240.12
409.272	322.04
409.481	250.36
409.69	248.32
409.898	289.28
410.107	332.28
410.315	317.95
410.524	403.96
410.733	367.1
410.941	342.52
411.15	326.14
411.358	350.71
411.567	326.14
411.775	412.15
411.984	438.78
412.192	395.77
412.401	387.58
412.609	469.5
412.818	526.84
413.026	461.3
413.234	524.79
413.443	543.22
413.651	510.46
413.86	547.32
414.068	633.33
414.276	635.38
414.485	592.37
414.693	702.97
414.901	668.15
415.11	690.68
415.318	690.68
415.526	707.06
415.734	782.84
415.943	797.17
416.151	864.75
416.359	795.12
416.567	829.94
416.776	936.43
416.984	993.78
417.192	1010.16
417.4	987.63
417.608	1014.26
417.817	1028.59
418.025	1100.27
418.233	1020.4
418.441	1137.13
418.649	1137.13
418.857	1214.96
419.065	1280.49
419.273	1307.12
419.481	1272.3
419.689	1413.61
419.897	1405.42
420.105	1520.1
420.313	1438.19
420.521	1468.91
420.729	1698.28
420.937	1739.24
421.145	1692.13
421.353	1853.92
421.561	1706.47
421.769	1903.07
421.977	1921.51
422.185	2017.76
422.393	2017.76
422.601	2081.25
422.809	2140.64
423.017	2175.45
423.224	2347.48
423.432	2353.63
423.64	2435.55
423.848	2705.88
424.056	2599.38
424.263	2773.46
424.471	2828.76
424.679	2773.46
424.887	3047.89
425.094	3058.13
425.302	3049.94
425.51	3133.9
425.718	3242.45
425.925	3295.69
426.133	3426.76
426.341	3588.55
426.548	3684.81
426.756	3856.84
426.964	3770.82
427.171	4028.87
427.379	4102.59
427.586	4147.65
427.794	4360.64
428.001	4563.39
428.209	4723.13
428.417	4647.35
428.624	4919.73
428.832	5110.19
429.039	4889.01
429.247	4880.82
429.454	5419.44
429.662	5667.24
429.869	5366.19
430.076	5822.89
430.284	5607.85
430.491	5861.8
430.699	6238.62
430.906	6281.63
431.114	6146.47
431.321	6304.16
431.528	6666.65
431.736	6908.31
431.943	7205.27
432.15	6990.23
432.358	7334.29
432.565	7502.22
432.772	7473.55
432.979	7942.53
433.187	8063.36
433.394	8008.07
433.601	8653.18
433.808	8692.09
434.016	8591.74
434.223	9040.25
434.43	9449.84
434.637	9316.72
434.844	10070.37
435.052	10213.73
435.259	9724.27
435.466	10142.05
435.673	10021.22
435.88	10598.75
436.087	11243.86
436.294	11039.06
436.501	10977.62
436.708	11172.18
436.915	11417.94
437.122	11995.46
437.329	12069.19
437.537	12415.3
437.743	12400.96
437.95	12364.1
438.157	12923.19
438.364	13756.72
438.571	13715.76
438.778	13865.26
438.985	15038.75
439.192	14194.98
439.399	14577.95
439.606	14502.18
439.813	15364.37
440.02	16144.65
440.227	15653.14
440.433	15753.49
440.64	16345.35
440.847	16101.64
441.054	16548.1
441.261	17680.63
441.467	17445.11
441.674	17484.02
441.881	18413.8
442.088	18428.13
442.294	18145.52
442.501	18821.34
442.708	19040.48
442.914	19488.98
443.121	20814.02
443.328	20168.91
443.534	21309.63
443.741	20908.22
443.948	20555.97
444.154	22151.34
444.361	22206.64
444.568	22155.44
444.774	21770.42
444.981	22247.6
445.187	23228.57
445.394	23900.31
445.6	23865.49
445.807	25935.99
446.013	24782.98
446.22	25534.59
446.426	26359.92
446.633	26560.62
446.839	27291.74
447.046	26349.68
447.252	27682.91
447.459	27402.33
447.665	27463.77
447.871	29356.1
448.078	29747.26
448.284	28651.59
448.491	29468.73
448.697	30392.37
448.903	31275.04
449.11	31070.25
449.316	30427.18
449.522	31033.38
449.728	32024.6
449.935	32008.22
450.141	32059.41
450.347	32937.99
450.553	32065.56
450.76	32464.91
450.966	33734.65
451.172	33153.03
451.378	34275.32
451.584	33257.48
451.791	34031.61
451.997	33576.96
452.203	34482.16
452.409	34453.49
452.615	34256.89
452.821	33124.36
453.027	32765.96
453.233	34045.94
453.44	33101.83
453.646	33511.42
453.852	33558.53
454.058	33992.7
454.264	32933.9
454.47	33841.15
454.676	32778.25
454.882	33990.65
455.088	30748.71
455.294	31545.37
455.5	32120.85
455.705	32391.19
455.911	31197.22
456.117	30535.73
456.323	30136.37
456.529	28389.45
456.735	30009.4
456.941	28858.44
457.147	28643.4
457.352	27672.67
457.558	27490.4
457.764	27533.4
457.97	27084.9
458.176	26243.18
458.381	26556.52
458.587	25036.93
458.793	25073.79
458.999	23715.99
459.204	25426.04
459.41	24723.59
459.616	23134.37
459.821	23292.06
460.027	22954.15
460.233	22646.95
460.438	21577.91
460.644	21899.44
460.85	20697.28
461.055	20324.55
461.261	20711.62
461.466	18634.98
461.672	18131.18
461.878	19538.13
462.083	18200.81
462.289	18000.11
462.494	17805.55
462.7	17383.67
462.905	16707.84
463.111	17142.01
463.316	17230.07
463.522	16871.68
463.727	16838.91
463.932	16824.58
464.138	16570.63
464.343	16883.97
464.549	16361.73
464.754	16861.44
464.959	16670.98
465.165	16462.08
465.37	15827.21
465.575	15454.48
465.781	15857.93
465.986	16167.18
466.191	15391
466.397	15157.53
466.602	14448.93
466.807	15141.14
467.012	15137.05
467.218	14838.05
467.423	14881.05
