Data from USB4F104151__85__14-17-50-344.txt Node

Date: Thu Mar 13 14:17:50 EDT 2025
User: louis
Spectrometer: USB4F10415
Trigger mode: 4
Integration Time (sec): 2.000000E-2
Scans to average: 1
Electric dark correction enabled: true
Nonlinearity correction enabled: false
Boxcar width: 0
XAxis mode: Wavelengths
Number of Pixels in Spectrum: 3648
>>>>>Begin Spectral Data<<<<<
178.204	-139.77
178.424	-139.77
178.644	-139.77
178.864	-166.4
179.084	-109.05
179.304	-49.66
179.524	40.45
179.744	-25.09
179.964	56.83
180.184	-20.99
180.404	-2.56
180.624	9.73
180.844	24.06
181.064	-39.42
181.283	-0.51
181.503	9.73
181.723	-2.56
181.943	-37.38
182.163	95.74
182.383	17.92
182.602	79.36
182.822	13.82
183.042	-35.33
183.262	56.83
183.482	22.02
183.701	-25.09
183.921	-2.56
184.141	19.97
184.361	-27.14
184.58	22.02
184.8	38.4
185.02	-45.57
185.239	32.26
185.459	13.82
185.679	13.82
185.898	-49.66
186.118	54.78
186.338	1.54
186.557	46.59
186.777	-23.04
186.997	-6.66
187.216	1.54
187.436	-39.42
187.655	79.36
187.875	11.78
188.095	-0.51
188.314	89.6
188.534	48.64
188.753	-68.09
188.973	34.3
189.192	-10.75
189.412	-8.7
189.631	32.26
189.851	-0.51
190.07	83.45
190.29	38.4
190.509	56.83
190.729	-55.81
190.948	58.88
191.168	40.45
191.387	-37.38
191.607	58.88
191.826	17.92
192.045	-2.56
192.265	-2.56
192.484	-27.14
192.704	-55.81
192.923	7.68
193.142	71.17
193.362	-6.66
193.581	54.78
193.8	40.45
194.02	58.88
194.239	38.4
194.458	-18.94
194.678	19.97
194.897	7.68
195.116	-59.9
195.335	30.21
195.555	-35.33
195.774	24.06
195.993	-82.43
196.212	-8.7
196.432	-23.04
196.651	-61.95
196.87	19.97
197.089	58.88
197.308	-49.66
197.528	30.21
197.747	19.97
197.966	-4.61
198.185	-47.62
198.404	-25.09
198.623	-31.23
198.842	56.83
199.062	128.51
199.281	-33.28
199.5	15.87
199.719	-10.75
199.938	103.93
200.157	17.92
200.376	-23.04
200.595	7.68
200.814	22.02
201.033	-78.33
201.252	-25.09
201.471	-18.94
201.69	-27.14
201.909	71.17
202.128	15.87
202.347	54.78
202.566	-68.09
202.785	-66.05
203.004	-29.18
203.223	30.21
203.442	97.79
203.661	-53.76
203.879	62.98
204.098	-10.75
204.317	-10.75
204.536	15.87
204.755	5.63
204.974	24.06
205.193	-8.7
205.411	69.12
205.63	50.69
205.849	32.26
206.068	-35.33
206.287	22.02
206.505	32.26
206.724	3.58
206.943	-2.56
207.162	-43.52
207.381	26.11
207.599	26.11
207.818	50.69
208.037	-18.94
208.255	-31.23
208.474	52.74
208.693	50.69
208.911	-33.28
209.13	-27.14
209.349	65.02
209.567	17.92
209.786	-4.61
210.005	22.02
210.223	5.63
210.442	-66.05
210.661	40.45
210.879	-59.9
211.098	24.06
211.316	52.74
211.535	19.97
211.753	-6.66
211.972	40.45
212.191	13.82
212.409	30.21
212.628	-8.7
212.846	7.68
213.065	-2.56
213.283	79.36
213.502	-20.99
213.72	-25.09
213.938	-115.2
214.157	-23.04
214.375	-20.99
214.594	-16.9
214.812	7.68
215.031	22.02
215.249	-55.81
215.467	58.88
215.686	3.58
215.904	36.35
216.122	-23.04
216.341	46.59
216.559	-4.61
216.778	40.45
216.996	13.82
217.214	-10.75
217.432	-18.94
217.651	-0.51
217.869	-25.09
218.087	-10.75
218.306	-2.56
218.524	-0.51
218.742	28.16
218.96	38.4
219.179	-6.66
219.397	38.4
219.615	62.98
219.833	40.45
220.051	54.78
220.27	40.45
220.488	28.16
220.706	-43.52
220.924	-10.75
221.142	-2.56
221.36	30.21
221.578	-8.7
221.796	62.98
222.015	-51.71
222.233	-78.33
222.451	146.94
222.669	-37.38
222.887	56.83
223.105	46.59
223.323	15.87
223.541	-51.71
223.759	-41.47
223.977	30.21
224.195	60.93
224.413	42.5
224.631	40.45
224.849	13.82
225.067	42.5
225.285	-23.04
225.503	5.63
225.721	-18.94
225.939	15.87
226.157	-23.04
226.375	79.36
226.592	-39.42
226.81	-39.42
227.028	54.78
227.246	73.21
227.464	58.88
227.682	-16.9
227.9	9.73
228.117	-0.51
228.335	-33.28
228.553	-10.75
228.771	36.35
228.989	-8.7
229.206	32.26
229.424	-2.56
229.642	38.4
229.86	-31.23
230.077	34.3
230.295	9.73
230.513	5.63
230.731	13.82
230.948	22.02
231.166	42.5
231.384	-18.94
231.601	-57.86
231.819	71.17
232.037	-0.51
232.254	5.63
232.472	89.6
232.689	-51.71
232.907	9.73
233.125	-2.56
233.342	22.02
233.56	-10.75
233.777	11.78
233.995	1.54
234.213	75.26
234.43	-23.04
234.648	7.68
234.865	7.68
235.083	26.11
235.3	-0.51
235.518	-27.14
235.735	108.03
235.953	40.45
236.17	-45.57
236.388	17.92
236.605	30.21
236.822	75.26
237.04	-18.94
237.257	5.63
237.475	5.63
237.692	24.06
237.909	-16.9
238.127	-10.75
238.344	-35.33
238.562	-16.9
238.779	-141.82
238.996	-25.09
239.214	32.26
239.431	22.02
239.648	-18.94
239.865	62.98
240.083	26.11
240.3	32.26
240.517	5.63
240.735	-4.61
240.952	-37.38
241.169	32.26
241.386	30.21
241.603	-2.56
241.821	79.36
242.038	26.11
242.255	-2.56
242.472	3.58
242.689	-27.14
242.907	9.73
243.124	71.17
243.341	40.45
243.558	15.87
243.775	-47.62
243.992	-55.81
244.209	36.35
244.426	40.45
244.643	-6.66
244.86	-0.51
245.078	-10.75
245.295	15.87
245.512	38.4
245.729	-2.56
245.946	3.58
246.163	-33.28
246.38	15.87
246.597	-39.42
246.814	22.02
247.031	-45.57
247.248	-0.51
247.464	-16.9
247.681	26.11
247.898	32.26
248.115	-16.9
248.332	-25.09
248.549	71.17
248.766	58.88
248.983	67.07
249.2	-33.28
249.417	42.5
249.633	9.73
249.85	-20.99
250.067	50.69
250.284	-35.33
250.501	38.4
250.717	24.06
250.934	22.02
251.151	-10.75
251.368	15.87
251.585	-2.56
251.801	-18.94
252.018	-109.05
252.235	-23.04
252.451	-27.14
252.668	46.59
252.885	79.36
253.102	22.02
253.318	-2.56
253.535	-2.56
253.752	-68.09
253.968	-6.66
254.185	32.26
254.401	38.4
254.618	-39.42
254.835	71.17
255.051	34.3
255.268	24.06
255.484	79.36
255.701	26.11
255.917	-0.51
256.134	-16.9
256.351	17.92
256.567	-10.75
256.784	32.26
257	-12.8
257.217	-10.75
257.433	30.21
257.65	38.4
257.866	58.88
258.082	-74.24
258.299	-6.66
258.515	67.07
258.732	-14.85
258.948	30.21
259.165	-4.61
259.381	105.98
259.597	75.26
259.814	-27.14
260.03	15.87
260.246	-31.23
260.463	13.82
260.679	32.26
260.895	81.41
261.112	-8.7
261.328	24.06
261.544	7.68
261.761	38.4
261.977	9.73
262.193	19.97
262.409	-2.56
262.626	40.45
262.842	65.02
263.058	-66.05
263.274	52.74
263.49	67.07
263.707	105.98
263.923	38.4
264.139	-20.99
264.355	46.59
264.571	71.17
264.787	26.11
265.004	24.06
265.22	22.02
265.436	-61.95
265.652	34.3
265.868	17.92
266.084	17.92
266.3	7.68
266.516	50.69
266.732	30.21
266.948	17.92
267.164	-43.52
267.38	5.63
267.596	-25.09
267.812	65.02
268.028	32.26
268.244	5.63
268.46	73.21
268.676	-72.19
268.892	-25.09
269.108	34.3
269.324	19.97
269.54	-47.62
269.756	-29.18
269.972	26.11
270.188	-57.86
270.403	-55.81
270.619	-25.09
270.835	87.55
271.051	62.98
271.267	-10.75
271.483	52.74
271.698	24.06
271.914	-0.51
272.13	54.78
272.346	-25.09
272.562	79.36
272.777	1.54
272.993	24.06
273.209	-16.9
273.425	42.5
273.64	-0.51
273.856	-18.94
274.072	-4.61
274.287	46.59
274.503	32.26
274.719	42.5
274.934	-35.33
275.15	48.64
275.366	1.54
275.581	3.58
275.797	17.92
276.012	22.02
276.228	30.21
276.444	-10.75
276.659	-35.33
276.875	7.68
277.09	56.83
277.306	13.82
277.521	22.02
277.737	-43.52
277.952	-55.81
278.168	22.02
278.383	5.63
278.599	-10.75
278.814	-41.47
279.03	-14.85
279.245	-27.14
279.461	58.88
279.676	38.4
279.892	13.82
280.107	-39.42
280.322	-23.04
280.538	79.36
280.753	-113.15
280.969	-39.42
281.184	-8.7
281.399	34.3
281.615	44.54
281.83	-6.66
282.045	-12.8
282.26	-33.28
282.476	-23.04
282.691	46.59
282.906	-6.66
283.122	24.06
283.337	5.63
283.552	9.73
283.767	34.3
283.983	-68.09
284.198	28.16
284.413	40.45
284.628	-2.56
284.843	67.07
285.058	89.6
285.274	44.54
285.489	-90.62
285.704	1.54
285.919	-10.75
286.134	60.93
286.349	-27.14
286.564	-2.56
286.779	32.26
286.995	48.64
287.21	40.45
287.425	44.54
287.64	-74.24
287.855	-10.75
288.07	-8.7
288.285	58.88
288.5	73.21
288.715	-39.42
288.93	-39.42
289.145	-0.51
289.36	-10.75
289.575	-33.28
289.79	46.59
290.004	-51.71
290.219	54.78
290.434	-8.7
290.649	-2.56
290.864	26.11
291.079	28.16
291.294	30.21
291.509	13.82
291.724	-45.57
291.938	-78.33
292.153	-35.33
292.368	9.73
292.583	13.82
292.798	-18.94
293.012	15.87
293.227	-10.75
293.442	46.59
293.657	-2.56
293.871	22.02
294.086	-8.7
294.301	-18.94
294.516	42.5
294.73	24.06
294.945	-23.04
295.16	17.92
295.374	3.58
295.589	95.74
295.804	9.73
296.018	62.98
296.233	24.06
296.447	9.73
296.662	-43.52
296.877	-10.75
297.091	3.58
297.306	7.68
297.52	-20.99
297.735	-27.14
297.949	13.82
298.164	-43.52
298.378	-82.43
298.593	62.98
298.807	-6.66
299.022	22.02
299.236	-14.85
299.451	-8.7
299.665	-8.7
299.88	87.55
300.094	-10.75
300.309	-39.42
300.523	108.03
300.737	-55.81
300.952	60.93
301.166	-18.94
301.381	-10.75
301.595	42.5
301.809	22.02
302.024	40.45
302.238	13.82
302.452	81.41
302.667	-14.85
302.881	5.63
303.095	17.92
303.309	62.98
303.524	5.63
303.738	-10.75
303.952	38.4
304.166	62.98
304.381	34.3
304.595	-2.56
304.809	38.4
305.023	17.92
305.237	-23.04
305.452	-0.51
305.666	-8.7
305.88	58.88
306.094	62.98
306.308	36.35
306.522	103.93
306.736	132.61
306.95	26.11
307.164	-18.94
307.379	50.69
307.593	79.36
307.807	-6.66
308.021	91.65
308.235	13.82
308.449	-25.09
308.663	52.74
308.877	99.84
309.091	3.58
309.305	46.59
309.519	-27.14
309.733	19.97
309.947	-10.75
310.161	-8.7
310.374	5.63
310.588	73.21
310.802	50.69
311.016	-55.81
311.23	54.78
311.444	56.83
311.658	-12.8
311.872	32.26
312.085	1.54
312.299	1.54
312.513	97.79
312.727	-27.14
312.941	-27.14
313.154	9.73
313.368	-18.94
313.582	-2.56
313.796	48.64
314.009	5.63
314.223	87.55
314.437	65.02
314.651	91.65
314.864	-14.85
315.078	-2.56
315.292	62.98
315.505	-4.61
315.719	42.5
315.933	-39.42
316.146	-43.52
316.36	-76.29
316.573	13.82
316.787	36.35
317.001	50.69
317.214	58.88
317.428	-25.09
317.641	17.92
317.855	22.02
318.068	-31.23
318.282	34.3
318.495	7.68
318.709	79.36
318.922	17.92
319.136	54.78
319.349	-18.94
319.563	-16.9
319.776	24.06
319.99	22.02
320.203	40.45
320.417	-14.85
320.63	17.92
320.843	26.11
321.057	-4.61
321.27	24.06
321.483	38.4
321.697	75.26
321.91	1.54
322.124	15.87
322.337	13.82
322.55	17.92
322.763	56.83
322.977	52.74
323.19	-37.38
323.403	11.78
323.617	-37.38
323.83	65.02
324.043	-10.75
324.256	-16.9
324.469	40.45
324.683	42.5
324.896	38.4
325.109	15.87
325.322	-49.66
325.535	62.98
325.748	-33.28
325.962	-10.75
326.175	48.64
326.388	15.87
326.601	-27.14
326.814	19.97
327.027	13.82
327.24	22.02
327.453	-31.23
327.666	13.82
327.879	81.41
328.092	40.45
328.305	67.07
328.518	9.73
328.731	42.5
328.944	46.59
329.157	62.98
329.37	13.82
329.583	-0.51
329.796	54.78
330.009	-49.66
330.222	13.82
330.435	19.97
330.648	87.55
330.861	7.68
331.073	87.55
331.286	24.06
331.499	15.87
331.712	54.78
331.925	17.92
332.138	28.16
332.35	69.12
332.563	46.59
332.776	40.45
332.989	22.02
333.202	30.21
333.414	26.11
333.627	17.92
333.84	13.82
334.053	89.6
334.265	48.64
334.478	-18.94
334.691	42.5
334.903	34.3
335.116	22.02
335.329	67.07
335.541	13.82
335.754	22.02
335.966	-51.71
336.179	32.26
336.392	15.87
336.604	-23.04
336.817	-18.94
337.029	15.87
337.242	65.02
337.454	62.98
337.667	-16.9
337.88	62.98
338.092	24.06
338.305	34.3
338.517	-29.18
338.729	120.32
338.942	34.3
339.154	7.68
339.367	26.11
339.579	24.06
339.792	71.17
340.004	-2.56
340.217	77.31
340.429	22.02
340.641	22.02
340.854	13.82
341.066	-6.66
341.278	24.06
341.491	40.45
341.703	44.54
341.915	30.21
342.128	22.02
342.34	-4.61
342.552	-31.23
342.764	-18.94
342.977	52.74
343.189	-86.53
343.401	28.16
343.613	-10.75
343.826	30.21
344.038	22.02
344.25	79.36
344.462	-35.33
344.674	48.64
344.886	44.54
345.099	28.16
345.311	-18.94
345.523	1.54
345.735	-18.94
345.947	-8.7
346.159	120.32
346.371	15.87
346.583	-76.29
346.795	128.51
347.007	-23.04
347.219	-14.85
347.431	-41.47
347.643	-35.33
347.855	-23.04
348.067	62.98
348.279	-23.04
348.491	-78.33
348.703	65.02
348.915	28.16
349.127	-10.75
349.339	58.88
349.551	54.78
349.763	79.36
349.975	-8.7
350.187	69.12
350.399	38.4
350.61	-2.56
350.822	1.54
351.034	11.78
351.246	95.74
351.458	1.54
351.669	44.54
351.881	46.59
352.093	38.4
352.305	32.26
352.517	-2.56
352.728	-18.94
352.94	112.13
353.152	103.93
353.363	-23.04
353.575	30.21
353.787	58.88
353.999	32.26
354.21	91.65
354.422	-18.94
354.633	13.82
354.845	-16.9
355.057	1.54
355.268	42.5
355.48	-18.94
355.692	13.82
355.903	26.11
356.115	62.98
356.326	30.21
356.538	87.55
356.749	62.98
356.961	58.88
357.172	-2.56
357.384	46.59
357.595	132.61
357.807	15.87
358.018	-33.28
358.23	17.92
358.441	93.69
358.653	19.97
358.864	46.59
359.075	-18.94
359.287	46.59
359.498	58.88
359.709	26.11
359.921	22.02
360.132	38.4
360.344	22.02
360.555	62.98
360.766	3.58
360.977	101.89
361.189	69.12
361.4	-23.04
361.611	-6.66
361.823	112.13
362.034	83.45
362.245	-51.71
362.456	7.68
362.667	65.02
362.879	-27.14
363.09	7.68
363.301	5.63
363.512	9.73
363.723	13.82
363.935	-41.47
364.146	30.21
364.357	-18.94
364.568	71.17
364.779	-10.75
364.99	67.07
365.201	60.93
365.412	15.87
365.623	-51.71
365.834	36.35
366.045	17.92
366.256	48.64
366.467	34.3
366.678	-41.47
366.889	-8.7
367.1	34.3
367.311	46.59
367.522	-6.66
367.733	-2.56
367.944	22.02
368.155	9.73
368.366	87.55
368.577	50.69
368.788	114.17
368.999	24.06
369.209	-4.61
369.42	11.78
369.631	91.65
369.842	75.26
370.053	50.69
370.264	32.26
370.474	28.16
370.685	69.12
370.896	42.5
371.107	-16.9
371.317	15.87
371.528	40.45
371.739	40.45
371.95	22.02
372.16	118.27
372.371	-43.52
372.582	-35.33
372.792	62.98
373.003	17.92
373.214	28.16
373.424	22.02
373.635	7.68
373.846	13.82
374.056	-2.56
374.267	110.08
374.477	40.45
374.688	-23.04
374.898	58.88
375.109	-35.33
375.319	-16.9
375.53	-18.94
375.74	28.16
375.951	-4.61
376.161	-0.51
376.372	91.65
376.582	54.78
376.793	42.5
377.003	-16.9
377.214	42.5
377.424	38.4
377.635	13.82
377.845	17.92
378.055	62.98
378.266	-35.33
378.476	50.69
378.686	89.6
378.897	65.02
379.107	-61.95
379.317	73.21
379.528	-20.99
379.738	-8.7
379.948	5.63
380.158	42.5
380.369	-6.66
380.579	-49.66
380.789	48.64
380.999	-23.04
381.21	79.36
381.42	42.5
381.63	24.06
381.84	32.26
382.05	99.84
382.261	105.98
382.471	-4.61
382.681	34.3
382.891	138.75
383.101	22.02
383.311	11.78
383.521	7.68
383.731	24.06
383.941	54.78
384.151	-0.51
384.361	13.82
384.571	7.68
384.781	30.21
384.991	65.02
385.201	89.6
385.411	22.02
385.621	-10.75
385.831	-57.86
386.041	-0.51
386.251	62.98
386.461	138.75
386.671	9.73
386.881	26.11
387.091	-41.47
387.301	19.97
387.511	-0.51
387.72	65.02
387.93	71.17
388.14	5.63
388.35	26.11
388.56	79.36
388.769	112.13
388.979	5.63
389.189	-27.14
389.399	65.02
389.609	65.02
389.818	108.03
390.028	114.17
390.238	79.36
390.447	60.93
390.657	48.64
390.867	58.88
391.076	-4.61
391.286	26.11
391.496	136.7
391.705	-0.51
391.915	93.69
392.125	42.5
392.334	62.98
392.544	56.83
392.753	54.78
392.963	17.92
393.172	13.82
393.382	7.68
393.591	73.21
393.801	11.78
394.01	105.98
394.22	60.93
394.429	103.93
394.639	75.26
394.848	38.4
395.058	99.84
395.267	46.59
395.477	11.78
395.686	103.93
395.895	-0.51
396.105	67.07
396.314	58.88
396.524	-8.7
396.733	36.35
396.942	73.21
397.152	81.41
397.361	60.93
397.57	79.36
397.78	71.17
397.989	120.32
398.198	194.05
398.407	46.59
398.617	69.12
398.826	112.13
399.035	40.45
399.244	130.56
399.453	38.4
399.663	112.13
399.872	60.93
400.081	89.6
400.29	95.74
400.499	91.65
400.708	128.51
400.917	77.31
401.127	19.97
401.336	34.3
401.545	120.32
401.754	138.75
401.963	15.87
402.172	73.21
402.381	42.5
402.59	124.41
402.799	73.21
403.008	71.17
403.217	103.93
403.426	144.89
403.635	132.61
403.844	75.26
404.053	128.51
404.262	126.46
404.471	136.7
404.68	179.71
404.888	87.55
405.097	163.33
405.306	159.23
405.515	30.21
405.724	81.41
405.933	99.84
406.142	85.5
406.35	175.61
406.559	83.45
406.768	144.89
406.977	138.75
407.185	218.62
407.394	210.43
407.603	120.32
407.812	95.74
408.02	218.62
408.229	181.76
408.438	173.57
408.646	218.62
408.855	161.28
409.064	187.9
409.272	202.24
409.481	269.82
409.69	267.77
409.898	169.47
410.107	189.95
410.315	280.06
410.524	228.86
410.733	249.34
410.941	306.68
411.15	331.26
411.358	302.59
411.567	292.35
411.775	286.2
411.984	366.07
412.192	351.74
412.401	372.22
412.609	359.93
412.818	382.46
413.026	384.51
413.234	417.27
413.443	349.69
413.651	464.38
413.86	419.32
414.068	488.95
414.276	415.23
414.485	392.7
414.693	617.97
414.901	583.16
415.11	472.57
415.318	540.15
415.526	574.97
415.734	697.85
415.943	710.13
416.151	632.31
416.359	695.8
416.567	681.46
416.776	769.52
416.984	816.63
417.192	853.49
417.4	916.98
417.608	759.28
417.817	851.44
418.025	916.98
418.233	939.51
418.441	798.2
418.649	1013.23
418.857	1046
419.065	1084.91
419.273	1103.34
419.481	1046
419.689	1160.69
419.897	1187.31
420.105	1302
420.313	1193.45
420.521	1261.04
420.729	1365.48
420.937	1340.91
421.145	1347.05
421.353	1465.83
421.561	1555.94
421.769	1682.92
421.977	1644.01
422.185	1580.52
422.393	1676.77
422.601	1975.78
422.809	1859.04
423.017	1818.08
423.224	1889.76
423.432	2069.98
423.64	1996.26
423.848	2242.01
424.056	2201.05
424.263	2311.64
424.471	2254.3
424.679	2391.52
424.887	2475.48
425.094	2565.59
425.302	2629.08
425.51	2741.72
425.718	2799.06
425.925	2751.96
426.133	2958.8
426.341	3075.54
426.548	3235.28
426.756	3198.42
426.964	3304.91
427.171	3276.24
427.379	3573.19
427.586	3462.6
427.794	3603.91
428.001	3816.9
428.209	4015.55
428.417	3939.78
428.624	4146.62
428.832	4220.35
429.039	4165.06
429.247	4160.96
429.454	4576.7
429.662	4965.81
429.869	4631.99
430.076	4920.76
430.284	4869.56
430.491	5086.64
430.699	5350.83
430.906	5043.64
431.114	5268.91
431.321	5473.71
431.528	5752.23
431.736	5969.32
431.943	6256.03
432.15	6161.83
432.358	6280.61
432.565	6507.93
432.772	6403.49
432.979	6833.56
433.187	6839.7
433.394	6839.7
433.601	7478.67
433.808	7503.25
434.016	7353.74
434.223	7593.36
434.43	8093.06
434.637	8084.87
434.844	8492.41
435.052	8707.45
435.259	8637.82
435.466	8635.77
435.673	8453.5
435.88	9278.83
436.087	9629.04
436.294	9608.56
436.501	9493.87
436.708	9624.94
436.915	9983.34
437.122	10311.01
437.329	10218.85
437.537	10720.6
437.743	10851.67
437.95	10704.22
438.157	11349.33
438.364	11754.83
438.571	11867.47
438.778	11728.21
438.985	12795.2
439.192	12283.2
439.399	12918.07
439.606	12342.6
439.813	13182.26
440.02	13997.35
440.227	13620.53
440.433	13415.73
440.64	13851.95
440.847	13835.56
441.054	14314.79
441.261	15234.33
441.467	15013.15
441.674	15185.18
441.881	15967.5
442.088	15813.9
442.294	15832.33
442.501	16184.59
442.708	16448.77
442.914	16952.57
443.121	17906.93
443.328	17140.99
443.534	18537.7
443.741	18148.59
443.948	17689.84
444.154	19082.46
444.361	18842.85
444.568	19008.73
444.774	19377.37
444.981	19391.7
445.187	19860.69
445.394	20661.44
445.6	20534.47
445.807	22213.81
446.013	21394.62
446.22	21574.84
446.426	22690.98
446.633	22893.73
446.839	23657.62
447.046	22652.07
447.252	23817.36
447.459	24044.69
447.665	23794.84
447.871	24798.34
448.078	25990.26
448.284	24892.55
448.491	25359.49
448.697	26332.27
448.903	26981.48
449.11	26500.2
449.316	26303.6
449.522	27022.44
449.728	27737.18
449.935	27792.47
450.141	27585.63
450.347	28232.79
450.553	27821.14
450.76	27974.74
450.966	29058.12
451.172	28521.55
451.378	29123.65
451.584	28992.58
451.791	29613.12
451.997	29424.7
452.203	30067.77
452.409	29711.42
452.615	29672.51
452.821	28881.99
453.027	28566.6
453.233	30125.11
453.44	28742.73
453.646	29174.85
453.852	29271.11
454.058	29484.09
454.264	28779.59
454.47	29445.18
454.676	28720.2
454.882	29645.88
455.088	27221.09
455.294	27499.61
455.5	27759.7
455.705	28251.22
455.911	26940.52
456.117	26692.71
456.323	26266.74
456.529	24990.85
456.735	26000.5
456.941	25341.05
457.147	25117.82
457.352	24439.95
457.558	24097.94
457.764	24212.62
457.97	23618.71
458.176	23299.23
458.381	22924.45
458.587	21869.75
458.793	21783.73
458.999	20911.3
459.204	22303.92
459.41	21785.78
459.616	20380.87
459.821	20249.8
460.027	20301
460.233	19778.77
460.438	18945.25
460.644	19342.55
460.85	18236.65
461.055	17829.1
461.261	17962.22
461.466	16608.51
461.672	16168.2
461.878	17517.81
462.083	15949.07
462.289	15836.43
462.494	15709.46
462.7	15056.15
462.905	14566.69
463.111	14898.46
463.316	15215.9
463.522	15017.24
463.727	14931.23
463.932	14988.57
464.138	14548.26
464.343	14920.99
464.549	14239.01
464.754	14601.51
464.959	14533.92
465.165	14470.44
465.37	13856.04
465.575	13567.28
465.781	13997.35
465.986	14122.28
466.191	13813.04
466.397	13286.71
466.602	12676.41
466.807	13061.43
467.012	13262.13
