Data from USB4F104151__175__14-19-58-977.txt Node

Date: Thu Mar 13 14:19:58 EDT 2025
User: louis
Spectrometer: USB4F10415
Trigger mode: 4
Integration Time (sec): 2.000000E-2
Scans to average: 1
Electric dark correction enabled: true
Nonlinearity correction enabled: false
Boxcar width: 0
XAxis mode: Wavelengths
Number of Pixels in Spectrum: 3648
>>>>>Begin Spectral Data<<<<<
178.204	-79.87
178.424	-79.87
178.644	-79.87
178.864	-77.82
179.084	-131.07
179.304	24.58
179.524	-28.67
179.744	24.58
179.964	57.34
180.184	-38.91
180.404	-6.14
180.624	2.05
180.844	-22.53
181.064	-79.87
181.283	2.05
181.503	8.19
181.723	57.34
181.943	-47.1
182.163	65.53
182.383	53.25
182.602	75.77
182.822	26.62
183.042	38.91
183.262	8.19
183.482	-14.34
183.701	-28.67
183.921	-28.67
184.141	-63.49
184.361	57.34
184.58	49.15
184.8	-81.92
185.02	-16.38
185.239	22.53
185.459	4.1
185.679	49.15
185.898	6.14
186.118	63.49
186.338	24.58
186.557	0
186.777	-16.38
186.997	-40.96
187.216	-16.38
187.436	53.25
187.655	45.06
187.875	32.77
188.095	116.73
188.314	24.58
188.534	49.15
188.753	22.53
188.973	30.72
189.192	28.67
189.412	4.1
189.631	16.38
189.851	-12.29
190.07	63.49
190.29	4.1
190.509	51.2
190.729	-24.58
190.948	32.77
191.168	100.35
191.387	4.1
191.607	57.34
191.826	34.82
192.045	-40.96
192.265	73.73
192.484	-20.48
192.704	16.38
192.923	51.2
193.142	90.11
193.362	-43.01
193.581	57.34
193.8	0
194.02	135.17
194.239	0
194.458	-34.82
194.678	34.82
194.897	57.34
195.116	26.62
195.335	34.82
195.555	32.77
195.774	24.58
195.993	69.63
196.212	0
196.432	-38.91
196.651	0
196.87	36.86
197.089	71.68
197.308	26.62
197.528	92.16
197.747	-57.34
197.966	65.53
198.185	55.3
198.404	8.19
198.623	-6.14
198.842	59.39
199.062	98.3
199.281	77.82
199.5	0
199.719	65.53
199.938	98.3
200.157	49.15
200.376	-20.48
200.595	57.34
200.814	67.58
201.033	0
201.252	-8.19
201.471	22.53
201.69	0
201.909	-24.58
202.128	16.38
202.347	28.67
202.566	-8.19
202.785	-8.19
203.004	81.92
203.223	75.77
203.442	0
203.661	32.77
203.879	51.2
204.098	53.25
204.317	-14.34
204.536	49.15
204.755	55.3
204.974	67.58
205.193	40.96
205.411	2.05
205.63	-18.43
205.849	14.34
206.068	79.87
206.287	30.72
206.505	116.73
206.724	-18.43
206.943	2.05
207.162	43.01
207.381	16.38
207.599	36.86
207.818	43.01
208.037	-14.34
208.255	-10.24
208.474	-53.25
208.693	43.01
208.911	-24.58
209.13	-8.19
209.349	16.38
209.567	65.53
209.786	51.2
210.005	43.01
210.223	-8.19
210.442	-32.77
210.661	-24.58
210.879	-24.58
211.098	-14.34
211.316	59.39
211.535	-36.86
211.753	24.58
211.972	77.82
212.191	49.15
212.409	81.92
212.628	49.15
212.846	36.86
213.065	36.86
213.283	65.53
213.502	28.67
213.72	51.2
213.938	34.82
214.157	12.29
214.375	-61.44
214.594	-4.1
214.812	16.38
215.031	-8.19
215.249	10.24
215.467	61.44
215.686	32.77
215.904	67.58
216.122	2.05
216.341	-8.19
216.559	100.35
216.778	106.49
216.996	47.1
217.214	26.62
217.432	-16.38
217.651	45.06
217.869	-20.48
218.087	16.38
218.306	34.82
218.524	34.82
218.742	-30.72
218.96	16.38
219.179	-20.48
219.397	32.77
219.615	53.25
219.833	-6.14
220.051	14.34
220.27	83.97
220.488	-12.29
220.706	63.49
220.924	-6.14
221.142	-16.38
221.36	0
221.578	45.06
221.796	-22.53
222.015	24.58
222.233	-32.77
222.451	32.77
222.669	-73.73
222.887	12.29
223.105	16.38
223.323	20.48
223.541	16.38
223.759	28.67
223.977	106.49
224.195	47.1
224.413	49.15
224.631	53.25
224.849	57.34
225.067	100.35
225.285	8.19
225.503	10.24
225.721	10.24
225.939	61.44
226.157	14.34
226.375	98.3
226.592	106.49
226.81	51.2
227.028	53.25
227.246	116.73
227.464	-36.86
227.682	16.38
227.9	34.82
228.117	16.38
228.335	83.97
228.553	-24.58
228.771	16.38
228.989	10.24
229.206	30.72
229.424	34.82
229.642	12.29
229.86	24.58
230.077	65.53
230.295	24.58
230.513	24.58
230.731	43.01
230.948	8.19
231.166	98.3
231.384	45.06
231.601	83.97
231.819	59.39
232.037	-8.19
232.254	-30.72
232.472	57.34
232.689	16.38
232.907	-8.19
233.125	-22.53
233.342	43.01
233.56	40.96
233.777	45.06
233.995	26.62
234.213	-16.38
234.43	-30.72
234.648	16.38
234.865	-18.43
235.083	49.15
235.3	16.38
235.518	4.1
235.735	20.48
235.953	114.69
236.17	49.15
236.388	75.77
236.605	32.77
236.822	71.68
237.04	88.06
237.257	-26.62
237.475	-14.34
237.692	47.1
237.909	40.96
238.127	24.58
238.344	-16.38
238.562	8.19
238.779	-6.14
238.996	0
239.214	57.34
239.431	6.14
239.648	-40.96
239.865	10.24
240.083	-47.1
240.3	49.15
240.517	-16.38
240.735	26.62
240.952	45.06
241.169	57.34
241.386	8.19
241.603	20.48
241.821	28.67
242.038	-30.72
242.255	108.54
242.472	4.1
242.689	43.01
242.907	43.01
243.124	124.93
243.341	0
243.558	-16.38
243.775	-12.29
243.992	16.38
244.209	83.97
244.426	65.53
244.643	28.67
244.86	8.19
245.078	75.77
245.295	59.39
245.512	2.05
245.729	-73.73
245.946	32.77
246.163	43.01
246.38	28.67
246.597	88.06
246.814	57.34
247.031	-20.48
247.248	-8.19
247.464	-65.54
247.681	10.24
247.898	98.3
248.115	-8.19
248.332	0
248.549	-55.3
248.766	61.44
248.983	114.69
249.2	-22.53
249.417	86.01
249.633	10.24
249.85	34.82
250.067	28.67
250.284	-8.19
250.501	0
250.717	28.67
250.934	24.58
251.151	10.24
251.368	36.86
251.585	55.3
251.801	16.38
252.018	75.77
252.235	-28.67
252.451	-28.67
252.668	20.48
252.885	43.01
253.102	57.34
253.318	32.77
253.535	20.48
253.752	0
253.968	45.06
254.185	-16.38
254.401	26.62
254.618	36.86
254.835	2.05
255.051	81.92
255.268	94.21
255.484	6.14
255.701	-65.54
255.917	32.77
256.134	57.34
256.351	-16.38
256.567	-10.24
256.784	16.38
257	26.62
257.217	59.39
257.433	43.01
257.65	28.67
257.866	88.06
258.082	-20.48
258.299	28.67
258.515	22.53
258.732	-69.63
258.948	-16.38
259.165	-12.29
259.381	16.38
259.597	2.05
259.814	49.15
260.03	36.86
260.246	-16.38
260.463	-20.48
260.679	24.58
260.895	61.44
261.112	18.43
261.328	-8.19
261.544	28.67
261.761	86.01
261.977	0
262.193	-4.1
262.409	77.82
262.626	38.91
262.842	47.1
263.058	34.82
263.274	75.77
263.49	90.11
263.707	-32.77
263.923	51.2
264.139	34.82
264.355	73.73
264.571	22.53
264.787	122.88
265.004	36.86
265.22	30.72
265.436	45.06
265.652	8.19
265.868	24.58
266.084	83.97
266.3	40.96
266.516	55.3
266.732	20.48
266.948	10.24
267.164	55.3
267.38	75.77
267.596	-14.34
267.812	28.67
268.028	47.1
268.244	43.01
268.46	8.19
268.676	22.53
268.892	12.29
269.108	0
269.324	8.19
269.54	4.1
269.756	73.73
269.972	-47.1
270.188	55.3
270.403	-55.3
270.619	-16.38
270.835	57.34
271.051	14.34
271.267	53.25
271.483	-30.72
271.698	20.48
271.914	18.43
272.13	45.06
272.346	43.01
272.562	30.72
272.777	49.15
272.993	-34.82
273.209	36.86
273.425	20.48
273.64	-14.34
273.856	8.19
274.072	24.58
274.287	-81.92
274.503	71.68
274.719	-36.86
274.934	-38.91
275.15	-28.67
275.366	26.62
275.581	65.53
275.797	20.48
276.012	106.49
276.228	65.53
276.444	57.34
276.659	73.73
276.875	-67.58
277.09	-8.19
277.306	-14.34
277.521	45.06
277.737	38.91
277.952	118.78
278.168	-12.29
278.383	40.96
278.599	34.82
278.814	2.05
279.03	18.43
279.245	8.19
279.461	24.58
279.676	34.82
279.892	0
280.107	-32.77
280.322	-49.15
280.538	40.96
280.753	34.82
280.969	4.1
281.184	-26.62
281.399	149.5
281.615	-8.19
281.83	124.93
282.045	-10.24
282.26	4.1
282.476	32.77
282.691	20.48
282.906	65.53
283.122	0
283.337	-30.72
283.552	75.77
283.767	43.01
283.983	-8.19
284.198	38.91
284.413	-10.24
284.628	-10.24
284.843	59.39
285.058	90.11
285.274	92.16
285.489	-53.25
285.704	67.58
285.919	32.77
286.134	8.19
286.349	0
286.564	34.82
286.779	86.01
286.995	75.77
287.21	38.91
287.425	43.01
287.64	61.44
287.855	67.58
288.07	-67.58
288.285	79.87
288.5	57.34
288.715	28.67
288.93	49.15
289.145	24.58
289.36	133.12
289.575	-18.43
289.79	83.97
290.004	49.15
290.219	8.19
290.434	57.34
290.649	8.19
290.864	-10.24
291.079	-45.06
291.294	28.67
291.509	16.38
291.724	43.01
291.938	-2.05
292.153	61.44
292.368	-26.62
292.583	40.96
292.798	-20.48
293.012	32.77
293.227	75.77
293.442	34.82
293.657	24.58
293.871	53.25
294.086	16.38
294.301	92.16
294.516	81.92
294.73	12.29
294.945	14.34
295.16	-6.14
295.374	106.49
295.589	34.82
295.804	24.58
296.018	12.29
296.233	34.82
296.447	20.48
296.662	34.82
296.877	114.69
297.091	47.1
297.306	51.2
297.52	-30.72
297.735	-2.05
297.949	65.53
298.164	26.62
298.378	73.73
298.593	-20.48
298.807	43.01
299.022	94.21
299.236	63.49
299.451	49.15
299.665	67.58
299.88	112.64
300.094	4.1
300.309	16.38
300.523	59.39
300.737	71.68
300.952	49.15
301.166	32.77
301.381	57.34
301.595	32.77
301.809	-14.34
302.024	0
302.238	-4.1
302.452	51.2
302.667	57.34
302.881	28.67
303.095	94.21
303.309	114.69
303.524	4.1
303.738	73.73
303.952	-57.34
304.166	45.06
304.381	-30.72
304.595	24.58
304.809	14.34
305.023	57.34
305.237	20.48
305.452	-8.19
305.666	16.38
305.88	90.11
306.094	59.39
306.308	30.72
306.522	53.25
306.736	65.53
306.95	126.97
307.164	-4.1
307.379	-4.1
307.593	51.2
307.807	83.97
308.021	24.58
308.235	14.34
308.449	-49.15
308.663	-40.96
308.877	102.4
309.091	-18.43
309.305	55.3
309.519	45.06
309.733	-14.34
309.947	2.05
310.161	90.11
310.374	12.29
310.588	28.67
310.802	32.77
311.016	8.19
311.23	-4.1
311.444	34.82
311.658	-12.29
311.872	67.58
312.085	2.05
312.299	61.44
312.513	32.77
312.727	90.11
312.941	2.05
313.154	81.92
313.368	73.73
313.582	124.93
313.796	12.29
314.009	40.96
314.223	106.49
314.437	-16.38
314.651	4.1
314.864	-49.15
315.078	47.1
315.292	24.58
315.505	79.87
315.719	49.15
315.933	75.77
316.146	57.34
316.36	-4.1
316.573	49.15
316.787	45.06
317.001	43.01
317.214	98.3
317.428	135.17
317.641	-32.77
317.855	-8.19
318.068	-49.15
318.282	53.25
318.495	67.58
318.709	24.58
318.922	12.29
319.136	53.25
319.349	38.91
319.563	-6.14
319.776	20.48
319.99	32.77
320.203	43.01
320.417	55.3
320.63	-4.1
320.843	34.82
321.057	53.25
321.27	28.67
321.483	63.49
321.697	81.92
321.91	14.34
322.124	73.73
322.337	118.78
322.55	90.11
322.763	-4.1
322.977	61.44
323.19	16.38
323.403	83.97
323.617	0
323.83	43.01
324.043	45.06
324.256	-30.72
324.469	61.44
324.683	43.01
324.896	32.77
325.109	67.58
325.322	-32.77
325.535	96.25
325.748	10.24
325.962	49.15
326.175	79.87
326.388	-6.14
326.601	-6.14
326.814	-8.19
327.027	32.77
327.24	28.67
327.453	-57.34
327.666	40.96
327.879	12.29
328.092	81.92
328.305	12.29
328.518	8.19
328.731	12.29
328.944	90.11
329.157	32.77
329.37	26.62
329.583	55.3
329.796	65.53
330.009	2.05
330.222	26.62
330.435	49.15
330.648	20.48
330.861	32.77
331.073	32.77
331.286	26.62
331.499	12.29
331.712	49.15
331.925	73.73
332.138	57.34
332.35	32.77
332.563	90.11
332.776	81.92
332.989	0
333.202	81.92
333.414	81.92
333.627	0
333.84	71.68
334.053	69.63
334.265	40.96
334.478	40.96
334.691	-22.53
334.903	63.49
335.116	4.1
335.329	57.34
335.541	30.72
335.754	122.88
335.966	0
336.179	77.82
336.392	26.62
336.604	36.86
336.817	4.1
337.029	49.15
337.242	86.01
337.454	59.39
337.667	67.58
337.88	122.88
338.092	59.39
338.305	139.26
338.517	22.53
338.729	122.88
338.942	30.72
339.154	-24.58
339.367	-53.25
339.579	61.44
339.792	-20.48
340.004	36.86
340.217	-32.77
340.429	40.96
340.641	47.1
340.854	10.24
341.066	139.26
341.278	81.92
341.491	98.3
341.703	43.01
341.915	28.67
342.128	112.64
342.34	75.77
342.552	24.58
342.764	114.69
342.977	55.3
343.189	71.68
343.401	18.43
343.613	43.01
343.826	114.69
344.038	-40.96
344.25	16.38
344.462	36.86
344.674	40.96
344.886	-28.67
345.099	61.44
345.311	-26.62
345.523	26.62
345.735	-12.29
345.947	18.43
346.159	-34.82
346.371	6.14
346.583	145.41
346.795	108.54
347.007	20.48
347.219	28.67
347.431	12.29
347.643	118.78
347.855	-40.96
348.067	92.16
348.279	32.77
348.491	-8.19
348.703	40.96
348.915	-12.29
349.127	8.19
349.339	-8.19
349.551	40.96
349.763	20.48
349.975	92.16
350.187	34.82
350.399	53.25
350.61	8.19
350.822	18.43
351.034	12.29
351.246	26.62
351.458	24.58
351.669	75.77
351.881	65.53
352.093	40.96
352.305	49.15
352.517	24.58
352.728	155.65
352.94	77.82
353.152	24.58
353.363	4.1
353.575	26.62
353.787	116.73
353.999	73.73
354.21	112.64
354.422	-20.48
354.633	-20.48
354.845	59.39
355.057	69.63
355.268	24.58
355.48	-16.38
355.692	-47.1
355.903	77.82
356.115	26.62
356.326	-36.86
356.538	65.53
356.749	75.77
356.961	145.41
357.172	-20.48
357.384	-20.48
357.595	83.97
357.807	79.87
358.018	8.19
358.23	16.38
358.441	32.77
358.653	36.86
358.864	26.62
359.075	-55.3
359.287	49.15
359.498	49.15
359.709	40.96
359.921	40.96
360.132	83.97
360.344	40.96
360.555	18.43
360.766	16.38
360.977	10.24
361.189	81.92
361.4	-28.67
361.611	20.48
361.823	77.82
362.034	55.3
362.245	20.48
362.456	43.01
362.667	81.92
362.879	34.82
363.09	32.77
363.301	100.35
363.512	81.92
363.723	45.06
363.935	20.48
364.146	59.39
364.357	53.25
364.568	61.44
364.779	-32.77
364.99	79.87
365.201	129.02
365.412	69.63
365.623	49.15
365.834	24.58
366.045	49.15
366.256	61.44
366.467	71.68
366.678	98.3
366.889	24.58
367.1	32.77
367.311	61.44
367.522	-53.25
367.733	49.15
367.944	16.38
368.155	34.82
368.366	90.11
368.577	53.25
368.788	90.11
368.999	12.29
369.209	98.3
369.42	67.58
369.631	63.49
369.842	106.49
370.053	73.73
370.264	22.53
370.474	28.67
370.685	-8.19
370.896	24.58
371.107	24.58
371.317	92.16
371.528	18.43
371.739	57.34
371.95	4.1
372.16	51.2
372.371	-38.91
372.582	34.82
372.792	75.77
373.003	83.97
373.214	108.54
373.424	57.34
373.635	14.34
373.846	106.49
374.056	24.58
374.267	104.45
374.477	73.73
374.688	24.58
374.898	79.87
375.109	26.62
375.319	71.68
375.53	8.19
375.74	-20.48
375.951	0
376.161	32.77
376.372	0
376.582	28.67
376.793	43.01
377.003	86.01
377.214	114.69
377.424	-53.25
377.635	98.3
377.845	36.86
378.055	65.53
378.266	24.58
378.476	36.86
378.686	18.43
378.897	65.53
379.107	10.24
379.317	90.11
379.528	69.63
379.738	57.34
379.948	20.48
380.158	81.92
380.369	63.49
380.579	100.35
380.789	-28.67
380.999	102.4
381.21	53.25
381.42	69.63
381.63	-10.24
381.84	10.24
382.05	57.34
382.261	77.82
382.471	67.58
382.681	26.62
382.891	10.24
383.101	2.05
383.311	12.29
383.521	8.19
383.731	69.63
383.941	30.72
384.151	90.11
384.361	57.34
384.571	43.01
384.781	92.16
384.991	57.34
385.201	53.25
385.411	40.96
385.621	34.82
385.831	92.16
386.041	55.3
386.251	53.25
386.461	86.01
386.671	40.96
386.881	118.78
387.091	59.39
387.301	88.06
387.511	32.77
387.72	67.58
387.93	145.41
388.14	24.58
388.35	122.88
388.56	43.01
388.769	20.48
388.979	32.77
389.189	32.77
389.399	114.69
389.609	112.64
389.818	57.34
390.028	57.34
390.238	36.86
390.447	-43.01
390.657	106.49
390.867	100.35
391.076	4.1
391.286	100.35
391.496	65.53
391.705	69.63
391.915	59.39
392.125	90.11
392.334	53.25
392.544	151.55
392.753	51.2
392.963	122.88
393.172	92.16
393.382	51.2
393.591	100.35
393.801	90.11
394.01	141.31
394.22	122.88
394.429	159.74
394.639	73.73
394.848	30.72
395.058	75.77
395.267	114.69
395.477	57.34
395.686	98.3
395.895	55.3
396.105	151.55
396.314	57.34
396.524	49.15
396.733	67.58
396.942	129.02
397.152	98.3
397.361	53.25
397.57	47.1
397.78	90.11
397.989	129.02
398.198	98.3
398.407	163.84
398.617	98.3
398.826	45.06
399.035	92.16
399.244	43.01
399.453	51.2
399.663	118.78
399.872	102.4
400.081	143.36
400.29	116.73
400.499	137.21
400.708	65.53
400.917	73.73
401.127	90.11
401.336	57.34
401.545	178.17
401.754	57.34
401.963	180.22
402.172	96.25
402.381	81.92
402.59	102.4
402.799	120.83
403.008	143.36
403.217	81.92
403.426	75.77
403.635	65.53
403.844	88.06
404.053	86.01
404.262	98.3
404.471	172.03
404.68	133.12
404.888	135.17
405.097	147.45
405.306	165.89
405.515	90.11
405.724	114.69
405.933	131.07
406.142	131.07
406.35	112.64
406.559	204.8
406.768	212.99
406.977	247.8
407.185	204.8
407.394	208.89
407.603	147.45
407.812	233.47
408.02	256
408.229	253.95
408.438	231.42
408.646	186.37
408.855	212.99
409.064	264.19
409.272	212.99
409.481	319.48
409.69	329.72
409.898	212.99
410.107	321.53
410.315	335.87
410.524	321.53
410.733	385.02
410.941	280.57
411.15	452.6
411.358	407.55
411.567	419.83
411.775	360.44
411.984	411.64
412.192	352.25
412.401	425.98
412.609	479.22
412.818	565.24
413.026	528.38
413.234	495.61
413.443	620.53
413.651	567.29
413.86	610.29
414.068	610.29
414.276	696.31
414.485	651.25
414.693	706.55
414.901	665.59
415.11	684.02
415.318	681.97
415.526	765.94
415.734	720.88
415.943	815.09
416.151	843.76
416.359	829.43
416.567	854
416.776	878.58
416.984	876.53
417.192	999.41
417.4	1077.23
417.608	972.79
417.817	1091.57
418.025	1167.34
418.233	1155.05
418.441	1208.3
418.649	1277.93
418.857	1277.93
419.065	1427.43
419.273	1253.36
419.481	1425.39
419.689	1396.71
419.897	1544.17
420.105	1531.88
420.313	1550.31
420.521	1564.65
420.729	1581.03
420.937	1736.68
421.145	1753.06
421.353	1906.66
421.561	1920.99
421.769	2023.39
421.977	2088.93
422.185	2050.02
422.393	2187.23
422.601	2475.99
422.809	2310.11
423.017	2301.92
423.224	2467.8
423.432	2631.64
423.64	2555.86
423.848	2752.47
424.056	2725.85
424.263	2924.5
424.471	2885.59
424.679	3067.86
424.887	3022.8
425.094	3268.56
425.302	3293.13
425.51	3395.53
425.718	3383.24
425.925	3504.07
426.133	3600.33
426.341	3669.96
426.548	3919.81
426.756	3874.76
426.964	4009.92
427.171	4143.04
427.379	4362.17
427.586	4511.68
427.794	4655.03
428.001	4820.92
428.209	4859.83
428.417	4941.75
428.624	5038
428.832	5199.79
429.039	5220.27
429.247	5250.99
429.454	5541.8
429.662	6270.88
429.869	5656.49
430.076	6016.93
430.284	5810.09
430.491	6279.07
430.699	6528.92
430.906	6662.04
431.114	6621.08
431.321	6930.33
431.528	6932.37
431.736	7323.54
431.943	7698.31
432.15	7540.62
432.358	7544.72
432.565	8042.37
432.772	8054.66
432.979	8298.37
433.187	8519.55
433.394	8591.23
433.601	9168.76
433.808	9254.77
434.016	9160.56
434.223	9461.62
434.43	10033
434.637	9822.06
434.844	10690.4
435.052	10815.32
435.259	10723.16
435.466	10766.17
435.673	10307.43
435.88	11478.86
436.087	11755.34
436.294	11818.83
436.501	11546.45
436.708	11806.54
436.915	12359.49
437.122	12855.1
437.329	12683.07
437.537	13066.04
437.743	13473.59
437.95	13389.62
438.157	14059.31
438.364	14346.02
438.571	14221.09
438.778	14554.91
438.985	15847.18
439.192	15384.34
439.399	16035.6
439.606	15275.8
439.813	16287.5
440.02	17385.21
440.227	16908.03
440.433	16817.92
440.64	17463.03
440.847	17092.35
441.054	17544.95
441.261	18757.35
441.467	18693.86
441.674	18659.04
441.881	19492.57
442.088	19498.71
442.294	19171.04
442.501	19844.82
442.708	20135.63
442.914	20860.61
443.121	21788.34
443.328	21016.26
443.534	22621.86
443.741	21917.36
443.948	21692.08
444.154	23092.9
444.361	23250.59
444.568	23291.55
444.774	23453.34
444.981	23457.43
445.187	24270.48
445.394	25298.56
445.6	25132.67
445.807	27055.72
446.013	26136.18
446.22	26375.79
446.426	27328.09
446.633	27803.22
446.839	28857.93
447.046	27596.38
447.252	29011.53
447.459	29326.91
447.665	29222.47
447.871	30748.2
448.078	31684.12
448.284	29949.49
448.491	30666.28
448.697	32269.84
448.903	32349.71
449.11	33003.02
449.316	32294.42
449.522	32947.72
449.728	33678.85
449.935	34336.24
450.141	33881.59
450.347	34465.27
450.553	33895.93
450.76	33777.15
450.966	35302.89
451.172	34731.5
451.378	35530.21
451.584	35093.99
451.791	36025.82
451.997	35919.32
452.203	36228.57
452.409	36337.11
452.615	36234.71
452.821	34571.76
453.027	34491.89
453.233	36333.01
453.44	34977.26
453.646	35614.18
453.852	35655.14
454.058	36228.57
454.264	34944.49
454.47	35687.9
454.676	34723.31
454.882	35888.6
455.088	33041.93
455.294	33232.39
455.5	33478.15
455.705	34397.68
455.911	32777.74
456.117	32247.32
456.323	31600.16
456.529	30463.54
456.735	31387.17
456.941	30676.52
457.147	29969.97
457.352	29484.61
457.558	28827.21
457.764	29283.91
457.97	28452.43
458.176	27801.18
458.381	28040.79
458.587	26510.96
458.793	26746.47
458.999	25169.54
459.204	27057.76
459.41	26199.66
459.616	24436.36
459.821	24721.03
460.027	24536.71
460.233	24004.24
460.438	23008.93
460.644	23346.84
460.85	21980.85
461.055	21894.83
461.261	21472.95
461.466	20135.63
461.672	19580.63
461.878	21024.45
462.083	19273.43
462.289	19115.74
462.494	18898.66
462.7	17975.02
462.905	17635.06
463.111	18255.59
463.316	18003.69
463.522	17819.38
463.727	17927.92
463.932	17889.01
464.138	17702.64
464.343	17571.57
464.549	17213.18
464.754	17833.71
464.959	17432.31
465.165	17403.64
465.37	16625.41
465.575	16289.54
465.781	17041.15
465.986	17104.63
466.191	16250.63
466.397	16338.69
466.602	15427.35
466.807	15882
467.012	15931.15
467.218	15611.67
467.423	15537.94
467.628	15562.51
467.833	16400.13
468.038	15789.84
468.244	15290.13
468.449	15976.2
