Data from USB4F104151__94__14-17-58-621.txt Node

Date: Thu Mar 13 14:17:58 EDT 2025
User: louis
Spectrometer: USB4F10415
Trigger mode: 4
Integration Time (sec): 2.000000E-2
Scans to average: 1
Electric dark correction enabled: true
Nonlinearity correction enabled: false
Boxcar width: 0
XAxis mode: Wavelengths
Number of Pixels in Spectrum: 3648
>>>>>Begin Spectral Data<<<<<
178.204	-95.23
178.424	-95.23
178.644	-95.23
178.864	-132.09
179.084	-146.43
179.304	-25.6
179.524	-60.42
179.744	84.99
179.964	-41.98
180.184	7.17
180.404	66.56
180.624	-3.07
180.844	-21.5
181.064	3.07
181.283	-7.17
181.503	23.55
181.723	-25.6
181.943	-27.65
182.163	52.22
182.383	33.79
182.602	27.65
182.822	84.99
183.042	-25.6
183.262	-17.41
183.482	-33.79
183.701	-17.41
183.921	-39.94
184.141	60.42
184.361	-15.36
184.58	87.04
184.8	-17.41
185.02	-1.02
185.239	35.84
185.459	29.7
185.679	33.79
185.898	-17.41
186.118	31.74
186.338	7.17
186.557	-33.79
186.777	-5.12
186.997	-9.22
187.216	-39.94
187.436	31.74
187.655	19.46
187.875	101.37
188.095	-1.02
188.314	50.18
188.534	91.13
188.753	19.46
188.973	27.65
189.192	9.22
189.412	52.22
189.631	11.26
189.851	-37.89
190.07	115.71
190.29	29.7
190.509	-1.02
190.729	62.46
190.948	84.99
191.168	125.95
191.387	7.17
191.607	-15.36
191.826	31.74
192.045	37.89
192.265	39.94
192.484	-17.41
192.704	25.6
192.923	-48.13
193.142	56.32
193.362	78.85
193.581	62.46
193.8	72.7
194.02	70.65
194.239	-66.56
194.458	19.46
194.678	44.03
194.897	80.89
195.116	-15.36
195.335	7.17
195.555	-33.79
195.774	72.7
195.993	-17.41
196.212	-25.6
196.432	89.09
196.651	-33.79
196.87	-29.7
197.089	70.65
197.308	66.56
197.528	17.41
197.747	-37.89
197.966	60.42
198.185	-19.46
198.404	35.84
198.623	23.55
198.842	109.57
199.062	21.5
199.281	33.79
199.5	-25.6
199.719	56.32
199.938	-29.7
200.157	31.74
200.376	50.18
200.595	39.94
200.814	105.47
201.033	-41.98
201.252	158.72
201.471	52.22
201.69	-9.22
201.909	7.17
202.128	25.6
202.347	68.61
202.566	97.28
202.785	23.55
203.004	-23.55
203.223	68.61
203.442	58.37
203.661	-9.22
203.879	-1.02
204.098	33.79
204.317	23.55
204.536	37.89
204.755	93.18
204.974	50.18
205.193	48.13
205.411	44.03
205.63	-1.02
205.849	25.6
206.068	3.07
206.287	48.13
206.505	27.65
206.724	39.94
206.943	7.17
207.162	-31.74
207.381	25.6
207.599	39.94
207.818	46.08
208.037	39.94
208.255	-23.55
208.474	72.7
208.693	107.52
208.911	33.79
209.13	-19.46
209.349	48.13
209.567	-25.6
209.786	48.13
210.005	89.09
210.223	17.41
210.442	1.02
210.661	56.32
210.879	-27.65
211.098	50.18
211.316	84.99
211.535	11.26
211.753	7.17
211.972	3.07
212.191	-58.37
212.409	35.84
212.628	29.7
212.846	-1.02
213.065	93.18
213.283	-9.22
213.502	-7.17
213.72	23.55
213.938	70.65
214.157	-17.41
214.375	7.17
214.594	-25.6
214.812	35.84
215.031	41.98
215.249	13.31
215.467	50.18
215.686	33.79
215.904	-68.61
216.122	27.65
216.341	27.65
216.559	-33.79
216.778	80.89
216.996	25.6
217.214	7.17
217.432	33.79
217.651	5.12
217.869	9.22
218.087	68.61
218.306	-70.65
218.524	58.37
218.742	11.26
218.96	5.12
219.179	-5.12
219.397	56.32
219.615	48.13
219.833	19.46
220.051	58.37
220.27	23.55
220.488	111.61
220.706	39.94
220.924	25.6
221.142	66.56
221.36	5.12
221.578	78.85
221.796	-1.02
222.015	23.55
222.233	72.7
222.451	21.5
222.669	-23.55
222.887	64.51
223.105	-50.18
223.323	50.18
223.541	1.02
223.759	64.51
223.977	5.12
224.195	21.5
224.413	101.37
224.631	-7.17
224.849	23.55
225.067	111.61
225.285	39.94
225.503	31.74
225.721	-9.22
225.939	-41.98
226.157	35.84
226.375	74.75
226.592	-41.98
226.81	-23.55
227.028	84.99
227.246	103.42
227.464	23.55
227.682	70.65
227.9	31.74
228.117	33.79
228.335	21.5
228.553	-21.5
228.771	-21.5
228.989	60.42
229.206	-9.22
229.424	82.94
229.642	-25.6
229.86	68.61
230.077	23.55
230.295	23.55
230.513	11.26
230.731	9.22
230.948	19.46
231.166	84.99
231.384	3.07
231.601	-37.89
231.819	31.74
232.037	-17.41
232.254	15.36
232.472	27.65
232.689	-1.02
232.907	48.13
233.125	52.22
233.342	89.09
233.56	56.32
233.777	1.02
233.995	33.79
234.213	72.7
234.43	56.32
234.648	19.46
234.865	-56.32
235.083	76.8
235.3	97.28
235.518	39.94
235.735	19.46
235.953	66.56
236.17	13.31
236.388	-1.02
236.605	25.6
236.822	99.33
237.04	48.13
237.257	60.42
237.475	74.75
237.692	35.84
237.909	13.31
238.127	37.89
238.344	-7.17
238.562	-33.79
238.779	48.13
238.996	-25.6
239.214	31.74
239.431	9.22
239.648	-54.27
239.865	62.46
240.083	82.94
240.3	101.37
240.517	-15.36
240.735	72.7
240.952	15.36
241.169	-11.26
241.386	97.28
241.603	19.46
241.821	11.26
242.038	21.5
242.255	128
242.472	7.17
242.689	39.94
242.907	97.28
243.124	64.51
243.341	33.79
243.558	-91.13
243.775	17.41
243.992	-37.89
244.209	39.94
244.426	9.22
244.643	56.32
244.86	15.36
245.078	3.07
245.295	-13.31
245.512	-17.41
245.729	-23.55
245.946	99.33
246.163	15.36
246.38	41.98
246.597	-13.31
246.814	101.37
247.031	13.31
247.248	39.94
247.464	23.55
247.681	13.31
247.898	60.42
248.115	-17.41
248.332	-56.32
248.549	31.74
248.766	9.22
248.983	31.74
249.2	58.37
249.417	27.65
249.633	29.7
249.85	17.41
250.067	-3.07
250.284	64.51
250.501	82.94
250.717	29.7
250.934	-41.98
251.151	35.84
251.368	46.08
251.585	44.03
251.801	-56.32
252.018	33.79
252.235	41.98
252.451	35.84
252.668	52.22
252.885	-17.41
253.102	19.46
253.318	80.89
253.535	48.13
253.752	-7.17
253.968	-9.22
254.185	39.94
254.401	44.03
254.618	15.36
254.835	50.18
255.051	5.12
255.268	50.18
255.484	68.61
255.701	23.55
255.917	52.22
256.134	-58.37
256.351	54.27
256.567	-21.5
256.784	21.5
257	7.17
257.217	9.22
257.433	35.84
257.65	-3.07
257.866	19.46
258.082	11.26
258.299	9.22
258.515	68.61
258.732	11.26
258.948	35.84
259.165	-41.98
259.381	-37.89
259.597	-23.55
259.814	9.22
260.03	-13.31
260.246	-7.17
260.463	15.36
260.679	72.7
260.895	62.46
261.112	101.37
261.328	41.98
261.544	-7.17
261.761	132.09
261.977	70.65
262.193	-21.5
262.409	101.37
262.626	-33.79
262.842	121.85
263.058	23.55
263.274	89.09
263.49	48.13
263.707	13.31
263.923	121.85
264.139	7.17
264.355	56.32
264.571	56.32
264.787	13.31
265.004	72.7
265.22	-13.31
265.436	39.94
265.652	19.46
265.868	80.89
266.084	3.07
266.3	66.56
266.516	15.36
266.732	23.55
266.948	-1.02
267.164	7.17
267.38	41.98
267.596	76.8
267.812	64.51
268.028	99.33
268.244	-52.22
268.46	9.22
268.676	23.55
268.892	23.55
269.108	-29.7
269.324	41.98
269.54	11.26
269.756	130.05
269.972	66.56
270.188	-17.41
270.403	-31.74
270.619	87.04
270.835	41.98
271.051	-19.46
271.267	23.55
271.483	99.33
271.698	27.65
271.914	101.37
272.13	-9.22
272.346	17.41
272.562	25.6
272.777	78.85
272.993	-1.02
273.209	5.12
273.425	41.98
273.64	48.13
273.856	80.89
274.072	-19.46
274.287	35.84
274.503	29.7
274.719	76.8
274.934	25.6
275.15	-56.32
275.366	-31.74
275.581	-25.6
275.797	-25.6
276.012	70.65
276.228	-9.22
276.444	15.36
276.659	-17.41
276.875	15.36
277.09	27.65
277.306	-23.55
277.521	19.46
277.737	23.55
277.952	44.03
278.168	-17.41
278.383	15.36
278.599	17.41
278.814	11.26
279.03	48.13
279.245	76.8
279.461	11.26
279.676	23.55
279.892	-11.26
280.107	-33.79
280.322	11.26
280.538	78.85
280.753	-5.12
280.969	-25.6
281.184	-29.7
281.399	58.37
281.615	-52.22
281.83	60.42
282.045	15.36
282.26	17.41
282.476	-48.13
282.691	31.74
282.906	23.55
283.122	76.8
283.337	-7.17
283.552	31.74
283.767	56.32
283.983	25.6
284.198	99.33
284.413	23.55
284.628	41.98
284.843	48.13
285.058	95.23
285.274	7.17
285.489	-25.6
285.704	27.65
285.919	44.03
286.134	54.27
286.349	48.13
286.564	23.55
286.779	46.08
286.995	50.18
287.21	-41.98
287.425	84.99
287.64	35.84
287.855	41.98
288.07	-48.13
288.285	72.7
288.5	31.74
288.715	27.65
288.93	70.65
289.145	-74.75
289.36	27.65
289.575	-29.7
289.79	50.18
290.004	-1.02
290.219	66.56
290.434	-5.12
290.649	17.41
290.864	58.37
291.079	-1.02
291.294	31.74
291.509	117.76
291.724	37.89
291.938	41.98
292.153	-17.41
292.368	1.02
292.583	44.03
292.798	11.26
293.012	31.74
293.227	37.89
293.442	11.26
293.657	27.65
293.871	142.33
294.086	29.7
294.301	15.36
294.516	33.79
294.73	27.65
294.945	-33.79
295.16	-33.79
295.374	175.1
295.589	56.32
295.804	58.37
296.018	23.55
296.233	52.22
296.447	-44.03
296.662	23.55
296.877	15.36
297.091	27.65
297.306	72.7
297.52	27.65
297.735	56.32
297.949	-9.22
298.164	39.94
298.378	66.56
298.593	-17.41
298.807	66.56
299.022	1.02
299.236	52.22
299.451	13.31
299.665	-9.22
299.88	-15.36
300.094	70.65
300.309	125.95
300.523	-37.89
300.737	50.18
300.952	-13.31
301.166	39.94
301.381	15.36
301.595	68.61
301.809	7.17
302.024	39.94
302.238	17.41
302.452	23.55
302.667	27.65
302.881	9.22
303.095	-39.94
303.309	50.18
303.524	-7.17
303.738	-21.5
303.952	-9.22
304.166	13.31
304.381	-78.85
304.595	107.52
304.809	29.7
305.023	64.51
305.237	-5.12
305.452	66.56
305.666	7.17
305.88	58.37
306.094	21.5
306.308	15.36
306.522	7.17
306.736	31.74
306.95	23.55
307.164	19.46
307.379	101.37
307.593	33.79
307.807	41.98
308.021	48.13
308.235	15.36
308.449	25.6
308.663	31.74
308.877	35.84
309.091	7.17
309.305	37.89
309.519	37.89
309.733	56.32
309.947	17.41
310.161	52.22
310.374	-15.36
310.588	95.23
310.802	11.26
311.016	113.66
311.23	48.13
311.444	-33.79
311.658	-25.6
311.872	64.51
312.085	56.32
312.299	56.32
312.513	3.07
312.727	72.7
312.941	35.84
313.154	48.13
313.368	80.89
313.582	21.5
313.796	7.17
314.009	35.84
314.223	82.94
314.437	39.94
314.651	99.33
314.864	-33.79
315.078	-37.89
315.292	15.36
315.505	-27.65
315.719	23.55
315.933	23.55
316.146	7.17
316.36	60.42
316.573	17.41
316.787	23.55
317.001	35.84
317.214	50.18
317.428	103.42
317.641	15.36
317.855	82.94
318.068	7.17
318.282	52.22
318.495	15.36
318.709	41.98
318.922	41.98
319.136	27.65
319.349	97.28
319.563	-54.27
319.776	109.57
319.99	-48.13
320.203	121.85
320.417	50.18
320.63	35.84
320.843	164.86
321.057	35.84
321.27	-13.31
321.483	-17.41
321.697	21.5
321.91	-25.6
322.124	-76.8
322.337	93.18
322.55	39.94
322.763	5.12
322.977	-50.18
323.19	-41.98
323.403	91.13
323.617	76.8
323.83	17.41
324.043	-15.36
324.256	41.98
324.469	-3.07
324.683	7.17
324.896	11.26
325.109	138.24
325.322	-44.03
325.535	41.98
325.748	44.03
325.962	1.02
326.175	1.02
326.388	60.42
326.601	113.66
326.814	44.03
327.027	31.74
327.24	82.94
327.453	-64.51
327.666	72.7
327.879	89.09
328.092	66.56
328.305	9.22
328.518	-41.98
328.731	70.65
328.944	11.26
329.157	80.89
329.37	-5.12
329.583	-25.6
329.796	82.94
330.009	-21.5
330.222	39.94
330.435	46.08
330.648	101.37
330.861	19.46
331.073	58.37
331.286	105.47
331.499	31.74
331.712	41.98
331.925	23.55
332.138	48.13
332.35	25.6
332.563	-7.17
332.776	66.56
332.989	33.79
333.202	19.46
333.414	-9.22
333.627	103.42
333.84	60.42
334.053	72.7
334.265	-25.6
334.478	-25.6
334.691	33.79
334.903	7.17
335.116	13.31
335.329	48.13
335.541	89.09
335.754	97.28
335.966	-17.41
336.179	13.31
336.392	19.46
336.604	72.7
336.817	44.03
337.029	89.09
337.242	19.46
337.454	76.8
337.667	1.02
337.88	54.27
338.092	-21.5
338.305	56.32
338.517	21.5
338.729	97.28
338.942	52.22
339.154	17.41
339.367	27.65
339.579	52.22
339.792	-33.79
340.004	5.12
340.217	-1.02
340.429	39.94
340.641	-25.6
340.854	7.17
341.066	-9.22
341.278	89.09
341.491	82.94
341.703	-23.55
341.915	-9.22
342.128	-11.26
342.34	33.79
342.552	-13.31
342.764	17.41
342.977	3.07
343.189	-1.02
343.401	39.94
343.613	64.51
343.826	70.65
344.038	17.41
344.25	48.13
344.462	-5.12
344.674	48.13
344.886	52.22
345.099	62.46
345.311	-11.26
345.523	93.18
345.735	15.36
345.947	-11.26
346.159	35.84
346.371	-46.08
346.583	39.94
346.795	52.22
347.007	-27.65
347.219	-9.22
347.431	11.26
347.643	72.7
347.855	60.42
348.067	31.74
348.279	89.09
348.491	-54.27
348.703	33.79
348.915	-21.5
349.127	15.36
349.339	-1.02
349.551	33.79
349.763	54.27
349.975	103.42
350.187	87.04
350.399	48.13
350.61	97.28
350.822	7.17
351.034	66.56
351.246	7.17
351.458	11.26
351.669	44.03
351.881	66.56
352.093	-1.02
352.305	144.38
352.517	64.51
352.728	82.94
352.94	70.65
353.152	23.55
353.363	41.98
353.575	9.22
353.787	89.09
353.999	-1.02
354.21	60.42
354.422	113.66
354.633	23.55
354.845	25.6
355.057	56.32
355.268	-5.12
355.48	97.28
355.692	-21.5
355.903	46.08
356.115	-33.79
356.326	-7.17
356.538	99.33
356.749	-1.02
356.961	72.7
357.172	105.47
357.384	74.75
357.595	109.57
357.807	21.5
358.018	-5.12
358.23	72.7
358.441	58.37
358.653	-1.02
358.864	23.55
359.075	23.55
359.287	35.84
359.498	-7.17
359.709	70.65
359.921	39.94
360.132	37.89
360.344	72.7
360.555	-5.12
360.766	78.85
360.977	-17.41
361.189	41.98
361.4	84.99
361.611	87.04
361.823	89.09
362.034	52.22
362.245	-17.41
362.456	39.94
362.667	113.66
362.879	29.7
363.09	101.37
363.301	54.27
363.512	1.02
363.723	-19.46
363.935	56.32
364.146	72.7
364.357	95.23
364.568	76.8
364.779	54.27
364.99	48.13
365.201	-25.6
365.412	-11.26
365.623	-1.02
365.834	76.8
366.045	80.89
366.256	72.7
366.467	41.98
366.678	11.26
366.889	11.26
367.1	80.89
367.311	68.61
367.522	11.26
367.733	107.52
367.944	93.18
368.155	23.55
368.366	33.79
368.577	64.51
368.788	72.7
368.999	64.51
369.209	48.13
369.42	101.37
369.631	72.7
369.842	23.55
370.053	72.7
370.264	97.28
370.474	29.7
370.685	121.85
370.896	17.41
371.107	50.18
371.317	48.13
371.528	35.84
371.739	3.07
371.95	23.55
372.16	76.8
372.371	-21.5
372.582	70.65
372.792	25.6
373.003	60.42
373.214	93.18
373.424	-9.22
373.635	-15.36
373.846	-25.6
374.056	-1.02
374.267	58.37
374.477	50.18
374.688	56.32
374.898	62.46
375.109	31.74
375.319	84.99
375.53	-9.22
375.74	78.85
375.951	-21.5
376.161	58.37
376.372	56.32
376.582	64.51
376.793	70.65
377.003	11.26
377.214	39.94
377.424	78.85
377.635	82.94
377.845	80.89
378.055	56.32
378.266	-25.6
378.476	89.09
378.686	56.32
378.897	-25.6
379.107	52.22
379.317	58.37
379.528	52.22
379.738	37.89
379.948	37.89
380.158	87.04
380.369	56.32
380.579	56.32
380.789	19.46
380.999	46.08
381.21	64.51
381.42	80.89
381.63	41.98
381.84	46.08
382.05	7.17
382.261	62.46
382.471	39.94
382.681	33.79
382.891	7.17
383.101	27.65
383.311	-37.89
383.521	1.02
383.731	46.08
383.941	89.09
384.151	23.55
384.361	-9.22
384.571	11.26
384.781	119.81
384.991	78.85
385.201	-7.17
385.411	46.08
385.621	154.62
385.831	-7.17
386.041	-82.94
386.251	64.51
386.461	31.74
386.671	17.41
386.881	97.28
387.091	138.24
387.301	64.51
387.511	84.99
387.72	82.94
387.93	89.09
388.14	99.33
388.35	17.41
388.56	101.37
388.769	91.13
388.979	80.89
389.189	13.31
389.399	31.74
389.609	93.18
389.818	74.75
390.028	72.7
390.238	103.42
390.447	72.7
390.657	9.22
390.867	84.99
391.076	25.6
391.286	72.7
391.496	48.13
391.705	130.05
391.915	62.46
392.125	78.85
392.334	164.86
392.544	115.71
392.753	97.28
392.963	80.89
393.172	66.56
393.382	25.6
393.591	64.51
393.801	52.22
394.01	121.85
394.22	50.18
394.429	-17.41
394.639	35.84
394.848	52.22
395.058	160.77
395.267	72.7
395.477	19.46
395.686	128
395.895	84.99
396.105	138.24
396.314	87.04
396.524	142.33
396.733	39.94
396.942	39.94
397.152	91.13
397.361	107.52
397.57	-1.02
397.78	76.8
397.989	121.85
398.198	91.13
398.407	60.42
398.617	97.28
398.826	80.89
399.035	44.03
399.244	93.18
399.453	119.81
399.663	58.37
399.872	58.37
400.081	97.28
400.29	89.09
400.499	68.61
400.708	121.85
400.917	160.77
401.127	60.42
401.336	76.8
401.545	138.24
401.754	138.24
401.963	60.42
402.172	138.24
402.381	23.55
402.59	60.42
402.799	58.37
403.008	44.03
403.217	103.42
403.426	44.03
403.635	23.55
403.844	121.85
404.053	84.99
404.262	52.22
404.471	175.1
404.68	142.33
404.888	205.82
405.097	70.65
405.306	97.28
405.515	103.42
405.724	148.48
405.933	138.24
406.142	238.59
406.35	103.42
406.559	134.14
406.768	134.14
406.977	218.11
407.185	105.47
407.394	185.34
407.603	185.34
407.812	211.96
408.02	252.92
408.229	109.57
408.438	207.87
408.646	197.63
408.855	244.73
409.064	216.06
409.272	177.15
409.481	304.12
409.69	205.82
409.898	236.54
410.107	216.06
410.315	269.31
410.524	152.57
410.733	300.03
410.941	318.46
411.15	375.8
411.358	289.79
411.567	318.46
411.775	338.94
411.984	312.32
412.192	279.55
412.401	410.62
412.609	332.79
412.818	390.14
413.026	351.23
413.234	414.71
413.443	474.1
413.651	375.8
413.86	543.74
414.068	549.88
414.276	459.77
414.485	461.82
414.693	494.58
414.901	537.59
415.11	478.2
415.318	551.93
415.526	556.02
415.734	623.61
415.943	517.11
416.151	672.76
416.359	654.33
416.567	713.72
416.776	639.99
416.984	785.4
417.192	680.95
417.4	828.4
417.608	736.24
417.817	867.31
418.025	893.94
418.233	910.32
418.441	865.27
418.649	961.52
418.857	941.04
419.065	998.38
419.273	951.28
419.481	1068.02
419.689	1156.08
419.897	1162.22
420.105	1168.37
420.313	1252.33
420.521	1188.85
420.729	1395.69
420.937	1340.4
421.145	1375.21
421.353	1424.36
421.561	1641.45
421.769	1524.71
421.977	1647.59
422.185	1620.97
422.393	1670.12
422.601	1780.71
422.809	1862.63
423.017	1844.2
423.224	1860.58
423.432	1926.11
423.64	1915.87
423.848	2096.1
424.056	2057.18
424.263	2212.83
424.471	2270.17
424.679	2423.77
424.887	2450.39
425.094	2376.67
425.302	2472.92
425.51	2593.75
425.718	2515.93
425.925	2620.38
426.133	2743.25
426.341	2943.96
426.548	2968.53
426.756	3058.64
426.964	3146.7
427.171	3406.8
427.379	3349.45
427.586	3455.95
427.794	3441.61
428.001	3668.94
428.209	3922.88
428.417	3701.7
428.624	4070.34
428.832	3974.08
429.039	4121.54
429.247	4142.02
429.454	4488.12
429.662	4746.17
429.869	4510.65
430.076	4754.36
430.284	4621.24
430.491	4895.67
430.699	5090.23
430.906	4991.92
431.114	5184.43
431.321	5282.74
431.528	5417.9
431.736	5841.83
431.943	6034.34
432.15	5921.7
432.358	5880.74
432.565	6046.63
432.772	6038.44
432.979	6568.86
433.187	6626.2
433.394	6589.34
433.601	7068.56
433.808	7166.87
434.016	7150.48
434.223	7353.23
434.43	7936.9
434.637	7719.82
434.844	8231.81
435.052	8424.32
435.259	8305.54
435.466	8627.07
435.673	8272.77
435.88	8903.54
436.087	9395.06
436.294	9376.62
436.501	9151.35
436.708	9321.33
436.915	9610.09
437.122	9919.34
437.329	9962.34
437.537	10339.17
437.743	10488.67
437.95	10371.94
438.157	11101.01
438.364	11316.05
438.571	11445.07
438.778	11307.86
438.985	12331.84
439.192	11905.87
439.399	11991.88
439.606	11989.83
439.813	12772.16
440.02	13536.05
440.227	13343.54
440.433	13048.63
440.64	13452.08
440.847	13562.67
441.054	13882.16
441.261	14760.73
441.467	14498.59
441.674	14824.22
441.881	15262.49
442.088	15219.48
442.294	15115.03
442.501	15405.84
442.708	15975.18
442.914	16431.88
443.121	17050.36
443.328	16558.85
443.534	17844.98
443.741	17056.51
443.948	17126.14
444.154	18365.16
444.361	18529
444.568	18492.13
444.774	18344.68
444.981	18500.33
445.187	19006.17
445.394	20130.51
445.6	19669.72
445.807	21492.41
446.013	20662.98
446.22	20796.1
446.426	21709.49
446.633	22067.89
446.839	22708.9
447.046	21942.96
447.252	22985.38
447.459	23120.54
447.665	22962.85
447.871	23747.22
448.078	24902.28
448.284	23478.94
448.491	24414.86
448.697	25180.8
448.903	25956.98
449.11	25827.96
449.316	25676.41
449.522	26073.71
449.728	26442.35
449.935	26616.43
450.141	26538.6
450.347	27146.85
450.553	26530.41
450.76	26880.61
450.966	27927.13
451.172	27466.33
451.378	28041.81
451.584	27486.81
451.791	28189.27
451.997	28568.14
452.203	29002.31
452.409	28422.73
452.615	28709.45
452.821	27427.42
453.027	27351.65
453.233	28750.41
453.44	27425.37
453.646	27763.29
453.852	28039.76
454.058	28564.04
454.264	27458.14
454.47	28242.51
454.676	27034.21
454.882	28209.75
455.088	25827.96
455.294	26409.58
455.5	26950.24
455.705	26759.78
455.911	26069.62
456.117	25514.62
456.323	25057.92
456.529	23700.12
456.735	24812.17
456.941	24263.31
457.147	23956.11
457.352	23335.58
457.558	22536.87
457.764	23034.53
457.97	22528.68
458.176	21988.02
458.381	22076.08
458.587	20818.63
458.793	20968.13
458.999	19917.52
459.204	21222.08
459.41	20615.88
459.616	19407.58
459.821	19407.58
460.027	19360.47
460.233	18993.89
460.438	18074.35
460.644	18166.51
460.85	17283.83
461.055	17281.78
461.261	16966.4
461.466	15960.84
461.672	15483.67
461.878	16481.03
462.083	15260.44
462.289	15092.51
462.494	14940.96
462.7	14353.19
462.905	13976.36
463.111	14388
463.316	14609.19
463.522	14041.9
463.727	14203.69
463.932	14256.93
464.138	13976.36
464.343	14142.25
464.549	13550.39
464.754	13974.31
464.959	13884.2
465.165	13822.77
465.37	13130.55
465.575	12878.65
465.781	13644.59
465.986	13648.69
466.191	13036.35
466.397	12858.17
466.602	12153.67
466.807	12612.42
467.012	12641.09
467.218	12462.91
467.423	12505.92
467.628	12643.14
467.833	12983.1
