Data from USB4F104151__131__14-19-06-136.txt Node

Date: Thu Mar 13 14:19:06 EDT 2025
User: louis
Spectrometer: USB4F10415
Trigger mode: 4
Integration Time (sec): 2.000000E-2
Scans to average: 1
Electric dark correction enabled: true
Nonlinearity correction enabled: false
Boxcar width: 0
XAxis mode: Wavelengths
Number of Pixels in Spectrum: 3648
>>>>>Begin Spectral Data<<<<<
178.204	-65.54
178.424	-65.54
178.644	-65.54
178.864	-139.26
179.084	-114.69
179.304	51.2
179.524	14.34
179.744	-30.72
179.964	28.67
180.184	-24.58
180.404	-4.1
180.624	-16.38
180.844	-8.19
181.064	8.19
181.283	-22.53
181.503	12.29
181.723	-8.19
181.943	-40.96
182.163	32.77
182.383	40.96
182.602	45.06
182.822	26.62
183.042	34.82
183.262	26.62
183.482	38.91
183.701	-71.68
183.921	-49.15
184.141	-22.53
184.361	61.44
184.58	12.29
184.8	40.96
185.02	40.96
185.239	0
185.459	-18.43
185.679	36.86
185.898	20.48
186.118	43.01
186.338	-6.14
186.557	61.44
186.777	-59.39
186.997	49.15
187.216	10.24
187.436	73.73
187.655	-8.19
187.875	36.86
188.095	20.48
188.314	0
188.534	34.82
188.753	-26.62
188.973	24.58
189.192	43.01
189.412	26.62
189.631	43.01
189.851	34.82
190.07	38.91
190.29	-6.14
190.509	34.82
190.729	2.05
190.948	32.77
191.168	24.58
191.387	34.82
191.607	53.25
191.826	90.11
192.045	-40.96
192.265	16.38
192.484	24.58
192.704	10.24
192.923	-8.19
193.142	110.59
193.362	-6.14
193.581	45.06
193.8	-8.19
194.02	92.16
194.239	59.39
194.458	59.39
194.678	24.58
194.897	2.05
195.116	65.53
195.335	-16.38
195.555	0
195.774	16.38
195.993	61.44
196.212	-16.38
196.432	4.1
196.651	-43.01
196.87	0
197.089	40.96
197.308	53.25
197.528	45.06
197.747	-77.82
197.966	22.53
198.185	63.49
198.404	65.53
198.623	-28.67
198.842	-43.01
199.062	20.48
199.281	53.25
199.5	-4.1
199.719	40.96
199.938	20.48
200.157	43.01
200.376	-2.05
200.595	43.01
200.814	-32.77
201.033	34.82
201.252	-2.05
201.471	61.44
201.69	49.15
201.909	59.39
202.128	100.35
202.347	47.1
202.566	6.14
202.785	53.25
203.004	-86.01
203.223	73.73
203.442	40.96
203.661	14.34
203.879	16.38
204.098	88.06
204.317	2.05
204.536	96.25
204.755	71.68
204.974	-18.43
205.193	-55.3
205.411	57.34
205.63	-8.19
205.849	43.01
206.068	24.58
206.287	-8.19
206.505	-12.29
206.724	10.24
206.943	18.43
207.162	-14.34
207.381	-32.77
207.599	-32.77
207.818	-4.1
208.037	24.58
208.255	57.34
208.474	73.73
208.693	14.34
208.911	40.96
209.13	26.62
209.349	38.91
209.567	16.38
209.786	26.62
210.005	51.2
210.223	49.15
210.442	-24.58
210.661	14.34
210.879	-65.54
211.098	8.19
211.316	-2.05
211.535	10.24
211.753	22.53
211.972	55.3
212.191	30.72
212.409	98.3
212.628	0
212.846	-49.15
213.065	-12.29
213.283	118.78
213.502	59.39
213.72	34.82
213.938	-32.77
214.157	-57.34
214.375	63.49
214.594	10.24
214.812	65.53
215.031	16.38
215.249	-20.48
215.467	49.15
215.686	12.29
215.904	81.92
216.122	12.29
216.341	45.06
216.559	32.77
216.778	10.24
216.996	81.92
217.214	47.1
217.432	4.1
217.651	40.96
217.869	-8.19
218.087	26.62
218.306	16.38
218.524	40.96
218.742	-34.82
218.96	40.96
219.179	-28.67
219.397	32.77
219.615	79.87
219.833	10.24
220.051	-6.14
220.27	8.19
220.488	32.77
220.706	-2.05
220.924	14.34
221.142	10.24
221.36	4.1
221.578	-20.48
221.796	28.67
222.015	16.38
222.233	90.11
222.451	-6.14
222.669	-8.19
222.887	20.48
223.105	40.96
223.323	38.91
223.541	16.38
223.759	32.77
223.977	-24.58
224.195	75.77
224.413	34.82
224.631	75.77
224.849	-8.19
225.067	106.49
225.285	16.38
225.503	16.38
225.721	-57.34
225.939	-81.92
226.157	16.38
226.375	114.69
226.592	-65.54
226.81	-32.77
227.028	18.43
227.246	90.11
227.464	20.48
227.682	20.48
227.9	-24.58
228.117	16.38
228.335	20.48
228.553	-6.14
228.771	-28.67
228.989	43.01
229.206	-22.53
229.424	-20.48
229.642	-34.82
229.86	6.14
230.077	67.58
230.295	116.73
230.513	8.19
230.731	22.53
230.948	-8.19
231.166	79.87
231.384	-8.19
231.601	-16.38
231.819	2.05
232.037	24.58
232.254	-45.06
232.472	12.29
232.689	20.48
232.907	32.77
233.125	40.96
233.342	0
233.56	20.48
233.777	0
233.995	-14.34
234.213	45.06
234.43	2.05
234.648	-6.14
234.865	-8.19
235.083	24.58
235.3	-16.38
235.518	40.96
235.735	59.39
235.953	34.82
236.17	26.62
236.388	131.07
236.605	14.34
236.822	45.06
237.04	71.68
237.257	61.44
237.475	40.96
237.692	53.25
237.909	2.05
238.127	-8.19
238.344	49.15
238.562	28.67
238.779	20.48
238.996	20.48
239.214	18.43
239.431	108.54
239.648	20.48
239.865	57.34
240.083	75.77
240.3	26.62
240.517	92.16
240.735	126.97
240.952	100.35
241.169	61.44
241.386	8.19
241.603	47.1
241.821	-6.14
242.038	34.82
242.255	0
242.472	-16.38
242.689	43.01
242.907	-6.14
243.124	-55.3
243.341	-53.25
243.558	-18.43
243.775	12.29
243.992	-20.48
244.209	59.39
244.426	53.25
244.643	53.25
244.86	100.35
245.078	81.92
245.295	-18.43
245.512	22.53
245.729	-51.2
245.946	43.01
246.163	-14.34
246.38	-24.58
246.597	-4.1
246.814	32.77
247.031	69.63
247.248	43.01
247.464	22.53
247.681	14.34
247.898	26.62
248.115	71.68
248.332	36.86
248.549	53.25
248.766	63.49
248.983	77.82
249.2	-43.01
249.417	57.34
249.633	-40.96
249.85	20.48
250.067	-12.29
250.284	-20.48
250.501	28.67
250.717	59.39
250.934	-24.58
251.151	4.1
251.368	-16.38
251.585	36.86
251.801	53.25
252.018	26.62
252.235	114.69
252.451	-28.67
252.668	-14.34
252.885	-45.06
253.102	-6.14
253.318	20.48
253.535	-57.34
253.752	36.86
253.968	-8.19
254.185	12.29
254.401	55.3
254.618	16.38
254.835	10.24
255.051	-22.53
255.268	47.1
255.484	16.38
255.701	-38.91
255.917	10.24
256.134	-47.1
256.351	-4.1
256.567	-4.1
256.784	81.92
257	-40.96
257.217	73.73
257.433	73.73
257.65	40.96
257.866	75.77
258.082	90.11
258.299	-16.38
258.515	45.06
258.732	-18.43
258.948	0
259.165	4.1
259.381	34.82
259.597	-8.19
259.814	40.96
260.03	20.48
260.246	-16.38
260.463	57.34
260.679	30.72
260.895	2.05
261.112	53.25
261.328	-6.14
261.544	43.01
261.761	47.1
261.977	26.62
262.193	20.48
262.409	26.62
262.626	12.29
262.842	102.4
263.058	30.72
263.274	-40.96
263.49	49.15
263.707	-22.53
263.923	36.86
264.139	57.34
264.355	51.2
264.571	114.69
264.787	-16.38
265.004	55.3
265.22	12.29
265.436	28.67
265.652	73.73
265.868	32.77
266.084	69.63
266.3	32.77
266.516	-2.05
266.732	26.62
266.948	-28.67
267.164	26.62
267.38	-106.49
267.596	30.72
267.812	28.67
268.028	-8.19
268.244	40.96
268.46	0
268.676	8.19
268.892	32.77
269.108	26.62
269.324	-77.82
269.54	73.73
269.756	24.58
269.972	8.19
270.188	75.77
270.403	-69.63
270.619	75.77
270.835	8.19
271.051	49.15
271.267	8.19
271.483	-22.53
271.698	53.25
271.914	-32.77
272.13	-12.29
272.346	24.58
272.562	-6.14
272.777	45.06
272.993	16.38
273.209	24.58
273.425	65.53
273.64	-14.34
273.856	65.53
274.072	69.63
274.287	-14.34
274.503	65.53
274.719	40.96
274.934	92.16
275.15	26.62
275.366	-77.82
275.581	-38.91
275.797	8.19
276.012	40.96
276.228	51.2
276.444	75.77
276.659	30.72
276.875	38.91
277.09	-8.19
277.306	-2.05
277.521	53.25
277.737	0
277.952	26.62
278.168	38.91
278.383	18.43
278.599	0
278.814	-8.19
279.03	-53.25
279.245	81.92
279.461	-8.19
279.676	102.4
279.892	0
280.107	34.82
280.322	53.25
280.538	81.92
280.753	-4.1
280.969	59.39
281.184	0
281.399	40.96
281.615	-8.19
281.83	16.38
282.045	8.19
282.26	34.82
282.476	22.53
282.691	-20.48
282.906	49.15
283.122	90.11
283.337	-4.1
283.552	81.92
283.767	22.53
283.983	24.58
284.198	0
284.413	92.16
284.628	-34.82
284.843	73.73
285.058	38.91
285.274	-8.19
285.489	-122.88
285.704	40.96
285.919	-8.19
286.134	32.77
286.349	12.29
286.564	40.96
286.779	73.73
286.995	0
287.21	12.29
287.425	0
287.64	-30.72
287.855	0
288.07	20.48
288.285	28.67
288.5	45.06
288.715	36.86
288.93	-53.25
289.145	63.49
289.36	57.34
289.575	12.29
289.79	36.86
290.004	32.77
290.219	-22.53
290.434	-8.19
290.649	-16.38
290.864	40.96
291.079	18.43
291.294	4.1
291.509	-26.62
291.724	-28.67
291.938	-22.53
292.153	16.38
292.368	32.77
292.583	55.3
292.798	40.96
293.012	-22.53
293.227	32.77
293.442	-47.1
293.657	-14.34
293.871	12.29
294.086	24.58
294.301	90.11
294.516	16.38
294.73	32.77
294.945	-59.39
295.16	112.64
295.374	53.25
295.589	61.44
295.804	8.19
296.018	12.29
296.233	81.92
296.447	83.97
296.662	51.2
296.877	8.19
297.091	49.15
297.306	43.01
297.52	12.29
297.735	32.77
297.949	71.68
298.164	49.15
298.378	-14.34
298.593	0
298.807	0
299.022	90.11
299.236	94.21
299.451	-40.96
299.665	-53.25
299.88	32.77
300.094	-8.19
300.309	43.01
300.523	30.72
300.737	2.05
300.952	24.58
301.166	108.54
301.381	-49.15
301.595	49.15
301.809	-61.44
302.024	47.1
302.238	4.1
302.452	122.88
302.667	10.24
302.881	47.1
303.095	43.01
303.309	106.49
303.524	-28.67
303.738	57.34
303.952	-45.06
304.166	67.58
304.381	40.96
304.595	102.4
304.809	20.48
305.023	49.15
305.237	65.53
305.452	16.38
305.666	-12.29
305.88	59.39
306.094	0
306.308	81.92
306.522	45.06
306.736	43.01
306.95	-8.19
307.164	-24.58
307.379	38.91
307.593	88.06
307.807	0
308.021	24.58
308.235	53.25
308.449	-38.91
308.663	-10.24
308.877	77.82
309.091	40.96
309.305	-8.19
309.519	-6.14
309.733	-4.1
309.947	-20.48
310.161	-12.29
310.374	45.06
310.588	57.34
310.802	57.34
311.016	14.34
311.23	38.91
311.444	90.11
311.658	20.48
311.872	57.34
312.085	63.49
312.299	90.11
312.513	4.1
312.727	18.43
312.941	0
313.154	-12.29
313.368	-8.19
313.582	32.77
313.796	6.14
314.009	40.96
314.223	83.97
314.437	24.58
314.651	49.15
314.864	2.05
315.078	49.15
315.292	32.77
315.505	28.67
315.719	94.21
315.933	45.06
316.146	18.43
316.36	49.15
316.573	30.72
316.787	40.96
317.001	34.82
317.214	55.3
317.428	32.77
317.641	18.43
317.855	8.19
318.068	-43.01
318.282	-12.29
318.495	59.39
318.709	53.25
318.922	90.11
319.136	75.77
319.349	81.92
319.563	40.96
319.776	40.96
319.99	26.62
320.203	-4.1
320.417	-16.38
320.63	94.21
320.843	98.3
321.057	14.34
321.27	81.92
321.483	-2.05
321.697	65.53
321.91	47.1
322.124	47.1
322.337	24.58
322.55	-8.19
322.763	73.73
322.977	4.1
323.19	2.05
323.403	4.1
323.617	40.96
323.83	24.58
324.043	32.77
324.256	49.15
324.469	-55.3
324.683	-8.19
324.896	-2.05
325.109	38.91
325.322	-24.58
325.535	59.39
325.748	59.39
325.962	40.96
326.175	30.72
326.388	69.63
326.601	75.77
326.814	20.48
327.027	0
327.24	36.86
327.453	49.15
327.666	6.14
327.879	40.96
328.092	100.35
328.305	77.82
328.518	16.38
328.731	-24.58
328.944	40.96
329.157	65.53
329.37	67.58
329.583	51.2
329.796	16.38
330.009	28.67
330.222	8.19
330.435	49.15
330.648	-16.38
330.861	-16.38
331.073	-71.68
331.286	-12.29
331.499	2.05
331.712	-32.77
331.925	8.19
332.138	8.19
332.35	16.38
332.563	18.43
332.776	81.92
332.989	77.82
333.202	36.86
333.414	59.39
333.627	51.2
333.84	28.67
334.053	36.86
334.265	-26.62
334.478	77.82
334.691	-10.24
334.903	12.29
335.116	10.24
335.329	32.77
335.541	98.3
335.754	122.88
335.966	32.77
336.179	57.34
336.392	0
336.604	-38.91
336.817	32.77
337.029	49.15
337.242	100.35
337.454	36.86
337.667	36.86
337.88	112.64
338.092	-63.49
338.305	116.73
338.517	61.44
338.729	59.39
338.942	36.86
339.154	4.1
339.367	0
339.579	90.11
339.792	-18.43
340.004	83.97
340.217	4.1
340.429	-16.38
340.641	53.25
340.854	40.96
341.066	30.72
341.278	69.63
341.491	141.31
341.703	43.01
341.915	16.38
342.128	61.44
342.34	43.01
342.552	18.43
342.764	32.77
342.977	-8.19
343.189	79.87
343.401	16.38
343.613	34.82
343.826	73.73
344.038	32.77
344.25	81.92
344.462	10.24
344.674	-77.82
344.886	24.58
345.099	36.86
345.311	-24.58
345.523	28.67
345.735	71.68
345.947	28.67
346.159	20.48
346.371	20.48
346.583	83.97
346.795	32.77
347.007	2.05
347.219	-8.19
347.431	0
347.643	86.01
347.855	30.72
348.067	88.06
348.279	-22.53
348.491	75.77
348.703	0
348.915	69.63
349.127	55.3
349.339	106.49
349.551	8.19
349.763	22.53
349.975	55.3
350.187	40.96
350.399	16.38
350.61	57.34
350.822	43.01
351.034	155.65
351.246	51.2
351.458	8.19
351.669	57.34
351.881	30.72
352.093	63.49
352.305	36.86
352.517	2.05
352.728	-16.38
352.94	22.53
353.152	24.58
353.363	-51.2
353.575	24.58
353.787	112.64
353.999	69.63
354.21	36.86
354.422	18.43
354.633	22.53
354.845	63.49
355.057	28.67
355.268	-51.2
355.48	98.3
355.692	-6.14
355.903	-22.53
356.115	24.58
356.326	-8.19
356.538	32.77
356.749	63.49
356.961	106.49
357.172	26.62
357.384	-6.14
357.595	69.63
357.807	6.14
358.018	12.29
358.23	73.73
358.441	75.77
358.653	57.34
358.864	22.53
359.075	61.44
359.287	16.38
359.498	88.06
359.709	81.92
359.921	59.39
360.132	88.06
360.344	-16.38
360.555	20.48
360.766	-4.1
360.977	49.15
361.189	16.38
361.4	-20.48
361.611	53.25
361.823	49.15
362.034	40.96
362.245	0
362.456	0
362.667	30.72
362.879	53.25
363.09	-14.34
363.301	86.01
363.512	-18.43
363.723	75.77
363.935	10.24
364.146	49.15
364.357	69.63
364.568	26.62
364.779	18.43
364.99	65.53
365.201	40.96
365.412	51.2
365.623	40.96
365.834	16.38
366.045	69.63
366.256	106.49
366.467	18.43
366.678	40.96
366.889	38.91
367.1	98.3
367.311	55.3
367.522	10.24
367.733	94.21
367.944	10.24
368.155	18.43
368.366	61.44
368.577	108.54
368.788	57.34
368.999	61.44
369.209	-36.86
369.42	-57.34
369.631	116.73
369.842	-8.19
370.053	30.72
370.264	6.14
370.474	6.14
370.685	53.25
370.896	73.73
371.107	77.82
371.317	24.58
371.528	69.63
371.739	24.58
371.95	-2.05
372.16	63.49
372.371	-40.96
372.582	-14.34
372.792	24.58
373.003	65.53
373.214	10.24
373.424	20.48
373.635	4.1
373.846	59.39
374.056	28.67
374.267	51.2
374.477	-12.29
374.688	75.77
374.898	10.24
375.109	83.97
375.319	22.53
375.53	83.97
375.74	24.58
375.951	0
376.161	34.82
376.372	59.39
376.582	-2.05
376.793	34.82
377.003	81.92
377.214	43.01
377.424	24.58
377.635	61.44
377.845	0
378.055	61.44
378.266	28.67
378.476	73.73
378.686	-8.19
378.897	20.48
379.107	108.54
379.317	24.58
379.528	59.39
379.738	0
379.948	10.24
380.158	24.58
380.369	12.29
380.579	2.05
380.789	135.17
380.999	20.48
381.21	94.21
381.42	90.11
381.63	18.43
381.84	16.38
382.05	36.86
382.261	28.67
382.471	20.48
382.681	32.77
382.891	26.62
383.101	63.49
383.311	45.06
383.521	24.58
383.731	79.87
383.941	124.93
384.151	73.73
384.361	45.06
384.571	26.62
384.781	69.63
384.991	98.3
385.201	24.58
385.411	49.15
385.621	43.01
385.831	2.05
386.041	59.39
386.251	45.06
386.461	110.59
386.671	-65.54
386.881	0
387.091	32.77
387.301	47.1
387.511	34.82
387.72	155.65
387.93	45.06
388.14	8.19
388.35	36.86
388.56	-12.29
388.769	79.87
388.979	18.43
389.189	34.82
389.399	-28.67
389.609	65.53
389.818	73.73
390.028	51.2
390.238	10.24
390.447	24.58
390.657	43.01
390.867	102.4
391.076	20.48
391.286	36.86
391.496	106.49
391.705	36.86
391.915	98.3
392.125	59.39
392.334	40.96
392.544	45.06
392.753	114.69
392.963	65.53
393.172	90.11
393.382	49.15
393.591	151.55
393.801	22.53
394.01	34.82
394.22	40.96
394.429	55.3
394.639	86.01
394.848	155.65
395.058	88.06
395.267	49.15
395.477	116.73
395.686	110.59
395.895	2.05
396.105	110.59
396.314	65.53
396.524	102.4
396.733	28.67
396.942	73.73
397.152	122.88
397.361	79.87
397.57	81.92
397.78	184.32
397.989	147.45
398.198	180.22
398.407	96.25
398.617	69.63
398.826	143.36
399.035	79.87
399.244	0
399.453	49.15
399.663	94.21
399.872	83.97
400.081	102.4
400.29	110.59
400.499	172.03
400.708	106.49
400.917	40.96
401.127	81.92
401.336	71.68
401.545	155.65
401.754	129.02
401.963	57.34
402.172	32.77
402.381	73.73
402.59	106.49
402.799	137.21
403.008	57.34
403.217	65.53
403.426	141.31
403.635	157.69
403.844	55.3
404.053	129.02
404.262	94.21
404.471	131.07
404.68	65.53
404.888	133.12
405.097	139.26
405.306	155.65
405.515	108.54
405.724	108.54
405.933	147.45
406.142	73.73
406.35	215.04
406.559	159.74
406.768	137.21
406.977	163.84
407.185	292.86
407.394	114.69
407.603	208.89
407.812	256
408.02	159.74
408.229	247.8
408.438	147.45
408.646	215.04
408.855	227.32
409.064	239.61
409.272	270.33
409.481	274.43
409.69	172.03
409.898	212.99
410.107	235.52
410.315	329.72
410.524	280.57
410.733	319.48
410.941	333.82
411.15	282.62
411.358	374.78
411.567	423.93
411.775	425.98
411.984	329.72
412.192	436.22
412.401	491.51
412.609	468.98
412.818	468.98
413.026	405.5
413.234	524.28
413.443	466.94
413.651	507.9
413.86	471.03
414.068	602.1
414.276	626.68
414.485	466.94
414.693	514.04
414.901	581.62
415.11	645.11
415.318	622.58
415.526	606.2
415.734	718.84
415.943	776.18
416.151	790.52
416.359	745.46
416.567	845.81
416.776	802.8
416.984	917.49
417.192	913.39
417.4	880.63
417.608	845.81
417.817	917.49
418.025	1015.79
418.233	1114.1
418.441	917.49
418.649	1064.94
418.857	1169.39
419.065	1216.49
419.273	1161.2
419.481	1320.94
419.689	1271.79
419.897	1392.62
420.105	1312.75
420.313	1308.65
420.521	1556.46
420.729	1495.02
420.937	1576.94
421.145	1669.09
421.353	1734.63
421.561	1812.45
421.769	1767.4
421.977	1863.65
422.185	1802.21
422.393	1804.26
422.601	1976.29
422.809	2064.35
423.017	2113.5
423.224	2195.42
423.432	2320.35
423.64	2353.12
423.848	2449.37
424.056	2441.18
424.263	2746.33
424.471	2596.82
424.679	2588.63
424.887	2832.34
425.094	2867.16
425.302	2908.12
425.51	2973.65
425.718	3024.85
425.925	3045.33
426.133	3203.02
426.341	3461.07
426.548	3559.37
426.756	3542.99
426.964	3706.82
427.171	3817.41
427.379	3846.09
427.586	4030.4
427.794	3930.05
428.001	4245.44
428.209	4382.65
428.417	4358.08
428.624	4710.33
428.832	4773.82
429.039	4687.8
429.247	4564.92
429.454	4925.36
429.662	5367.73
429.869	5099.44
430.076	5496.75
430.284	5367.73
430.491	5595.05
430.699	5973.92
430.906	5892.01
431.114	5902.25
431.321	6152.1
431.528	6184.87
431.736	6664.09
431.943	7067.54
432.15	6684.57
432.358	6799.26
432.565	7200.66
432.772	7098.26
432.979	7458.7
433.187	7798.66
433.394	7802.76
433.601	8189.83
433.808	8421.25
434.016	8142.72
434.223	8456.06
434.43	8925.05
434.637	8822.65
434.844	9412.46
435.052	9559.92
435.259	9582.45
435.466	9369.46
435.673	9422.7
435.88	10006.38
436.087	10727.26
436.294	10641.25
436.501	10415.97
436.708	10612.57
436.915	10913.63
437.122	11360.08
437.329	11413.33
437.537	11632.46
437.743	12062.54
437.95	11814.73
438.157	12539.71
438.364	12756.8
438.571	12805.95
438.778	13006.65
438.985	14247.72
439.192	13520.69
439.399	14040.87
439.606	13502.26
439.813	14221.09
440.02	15236.89
440.227	15021.85
440.433	14974.75
440.64	15355.67
440.847	15300.37
441.054	15505.17
441.261	16549.64
441.467	16703.23
441.674	16662.27
441.881	17540.85
442.088	17237.75
442.294	17096.44
442.501	17676.02
442.708	18181.87
442.914	18603.75
443.121	19594.97
443.328	19060.45
443.534	20315.85
443.741	19793.62
443.948	19533.53
444.154	20739.78
444.361	20594.37
444.568	20793.03
444.774	20940.48
444.981	21085.89
445.187	21620.41
445.394	22597.29
445.6	22290.09
445.807	24469.13
446.013	23400.09
446.22	23774.87
446.426	24782.47
446.633	25028.23
446.839	25947.76
447.046	24729.22
447.252	26234.48
447.459	26095.22
447.665	25984.63
447.871	27305.57
448.078	28440.14
448.284	26814.05
448.491	27717.21
448.697	28886.6
448.903	29001.29
449.11	29480.51
449.316	28509.77
449.522	29388.35
449.728	30645.8
449.935	30201.4
450.141	30213.68
450.347	31086.12
450.553	30058.04
450.76	30613.04
450.966	31655.45
451.172	31266.34
451.378	31710.75
451.584	31370.79
451.791	32132.63
451.997	32194.07
452.203	32841.23
452.409	32628.24
452.615	32503.31
452.821	31440.42
453.027	31016.49
453.233	32699.92
453.44	31526.43
453.646	31708.7
453.852	31663.64
454.058	32679.44
454.264	31155.75
454.47	32132.63
454.676	31358.5
454.882	32482.83
455.088	29486.65
455.294	30367.28
455.5	30131.76
455.705	30998.06
455.911	29572.67
456.117	29199.94
456.323	28681.8
456.529	27319.9
456.735	28286.54
456.941	27977.3
457.147	27389.53
457.352	26513
457.558	26074.74
457.764	25972.34
457.97	25628.28
458.176	25163.39
458.381	25028.23
458.587	23697.05
458.793	24141.46
458.999	23051.94
459.204	24430.22
459.41	23774.87
459.616	21962.42
459.821	22027.95
460.027	22140.59
460.233	21755.57
460.438	20786.88
460.644	20690.63
460.85	19840.72
461.055	19646.16
461.261	19556.05
461.466	18061.04
461.672	17596.15
461.878	18910.94
462.083	17592.05
462.289	17313.53
462.494	17123.07
462.7	16314.12
462.905	15886.09
463.111	16502.53
463.316	16508.68
463.522	15976.2
463.727	16332.55
463.932	16092.94
464.138	16105.23
464.343	16029.45
464.549	15470.36
464.754	16064.27
464.959	15945.48
465.165	15679.25
465.37	15228.7
465.575	14944.03
465.781	15322.9
465.986	15417.11
466.191	14683.94
466.397	14634.78
466.602	13924.14
466.807	14399.27
467.012	14393.12
467.218	14376.74
467.423	13893.42
467.628	14110.5
467.833	14919.45
468.038	14133.03
468.244	13745.97
468.449	14456.61
468.654	13793.07
468.859	13844.27
