Data from USB4F104151__179__14-20-06-375.txt Node

Date: Thu Mar 13 14:20:06 EDT 2025
User: louis
Spectrometer: USB4F10415
Trigger mode: 4
Integration Time (sec): 2.000000E-2
Scans to average: 1
Electric dark correction enabled: true
Nonlinearity correction enabled: false
Boxcar width: 0
XAxis mode: Wavelengths
Number of Pixels in Spectrum: 3648
>>>>>Begin Spectral Data<<<<<
178.204	-138.75
178.424	-138.75
178.644	-138.75
178.864	-148.99
179.084	-148.99
179.304	-24.06
179.524	16.9
179.744	-24.06
179.964	8.7
180.184	-22.02
180.404	-19.97
180.624	25.09
180.844	-34.3
181.064	2.56
181.283	-5.63
181.503	25.09
181.723	51.71
181.943	-89.6
182.163	107.01
182.383	-15.87
182.602	35.33
182.822	51.71
183.042	-32.26
183.262	23.04
183.482	-32.26
183.701	-38.4
183.921	41.47
184.141	-19.97
184.361	74.24
184.58	18.94
184.8	107.01
185.02	-24.06
185.239	57.86
185.459	-38.4
185.679	78.33
185.898	27.14
186.118	49.66
186.338	55.81
186.557	49.66
186.777	2.56
186.997	-48.64
187.216	35.33
187.436	98.81
187.655	84.48
187.875	20.99
188.095	-52.74
188.314	107.01
188.534	25.09
188.753	-5.63
188.973	-24.06
189.192	98.81
189.412	47.62
189.631	29.18
189.851	35.33
190.07	66.05
190.29	-46.59
190.509	117.25
190.729	-46.59
190.948	31.23
191.168	98.81
191.387	37.38
191.607	49.66
191.826	76.29
192.045	86.53
192.265	14.85
192.484	-3.58
192.704	12.8
192.923	-11.78
193.142	80.38
193.362	27.14
193.581	37.38
193.8	59.9
194.02	102.91
194.239	12.8
194.458	31.23
194.678	43.52
194.897	43.52
195.116	20.99
195.335	35.33
195.555	41.47
195.774	55.81
195.993	43.52
196.212	-40.45
196.432	-46.59
196.651	-22.02
196.87	49.66
197.089	147.97
197.308	-24.06
197.528	98.81
197.747	-32.26
197.966	86.53
198.185	37.38
198.404	64
198.623	16.9
198.842	41.47
199.062	10.75
199.281	55.81
199.5	-26.11
199.719	64
199.938	82.43
200.157	57.86
200.376	33.28
200.595	74.24
200.814	4.61
201.033	41.47
201.252	23.04
201.471	-5.63
201.69	49.66
201.909	25.09
202.128	2.56
202.347	0.51
202.566	49.66
202.785	51.71
203.004	-15.87
203.223	66.05
203.442	16.9
203.661	35.33
203.879	25.09
204.098	102.91
204.317	33.28
204.536	49.66
204.755	45.57
204.974	29.18
205.193	20.99
205.411	117.25
205.63	-9.73
205.849	27.14
206.068	59.9
206.287	25.09
206.505	20.99
206.724	41.47
206.943	53.76
207.162	43.52
207.381	29.18
207.599	-9.73
207.818	61.95
208.037	-52.74
208.255	-7.68
208.474	-13.82
208.693	23.04
208.911	68.09
209.13	90.62
209.349	8.7
209.567	25.09
209.786	4.61
210.005	98.81
210.223	4.61
210.442	-22.02
210.661	-48.64
210.879	49.66
211.098	-52.74
211.316	6.66
211.535	107.01
211.753	20.99
211.972	2.56
212.191	-13.82
212.409	74.24
212.628	16.9
212.846	27.14
213.065	39.42
213.283	-65.02
213.502	33.28
213.72	66.05
213.938	37.38
214.157	49.66
214.375	66.05
214.594	-22.02
214.812	64
215.031	47.62
215.249	-56.83
215.467	-7.68
215.686	78.33
215.904	49.66
216.122	-54.78
216.341	76.29
216.559	-5.63
216.778	123.39
216.996	2.56
217.214	45.57
217.432	12.8
217.651	43.52
217.869	43.52
218.087	27.14
218.306	59.9
218.524	-30.21
218.742	-36.35
218.96	74.24
219.179	10.75
219.397	8.7
219.615	18.94
219.833	35.33
220.051	4.61
220.27	49.66
220.488	37.38
220.706	8.7
220.924	20.99
221.142	-28.16
221.36	18.94
221.578	25.09
221.796	68.09
222.015	35.33
222.233	-54.78
222.451	23.04
222.669	-5.63
222.887	-24.06
223.105	-26.11
223.323	16.9
223.541	18.94
223.759	16.9
223.977	-22.02
224.195	92.67
224.413	49.66
224.631	-1.54
224.849	-40.45
225.067	74.24
225.285	41.47
225.503	53.76
225.721	20.99
225.939	66.05
226.157	51.71
226.375	74.24
226.592	-15.87
226.81	0.51
227.028	84.48
227.246	92.67
227.464	49.66
227.682	27.14
227.9	66.05
228.117	74.24
228.335	59.9
228.553	76.29
228.771	16.9
228.989	10.75
229.206	27.14
229.424	-13.82
229.642	16.9
229.86	-9.73
230.077	94.72
230.295	66.05
230.513	64
230.731	35.33
230.948	16.9
231.166	43.52
231.384	25.09
231.601	-22.02
231.819	0.51
232.037	43.52
232.254	57.86
232.472	0.51
232.689	88.57
232.907	147.97
233.125	23.04
233.342	4.61
233.56	45.57
233.777	61.95
233.995	8.7
234.213	2.56
234.43	-44.54
234.648	66.05
234.865	-7.68
235.083	76.29
235.3	-19.97
235.518	31.23
235.735	-5.63
235.953	47.62
236.17	39.42
236.388	12.8
236.605	41.47
236.822	102.91
237.04	18.94
237.257	59.9
237.475	41.47
237.692	33.28
237.909	25.09
238.127	-19.97
238.344	18.94
238.562	51.71
238.779	-22.02
238.996	20.99
239.214	31.23
239.431	74.24
239.648	-38.4
239.865	102.91
240.083	2.56
240.3	27.14
240.517	29.18
240.735	33.28
240.952	25.09
241.169	57.86
241.386	-24.06
241.603	-13.82
241.821	4.61
242.038	100.86
242.255	41.47
242.472	25.09
242.689	12.8
242.907	-7.68
243.124	-26.11
243.341	33.28
243.558	-5.63
243.775	25.09
243.992	-69.12
244.209	-13.82
244.426	147.97
244.643	68.09
244.86	16.9
245.078	20.99
245.295	12.8
245.512	25.09
245.729	18.94
245.946	16.9
246.163	64
246.38	29.18
246.597	45.57
246.814	70.14
247.031	2.56
247.248	86.53
247.464	92.67
247.681	-5.63
247.898	121.34
248.115	41.47
248.332	-38.4
248.549	41.47
248.766	96.77
248.983	37.38
249.2	-7.68
249.417	0.51
249.633	33.28
249.85	115.2
250.067	-52.74
250.284	12.8
250.501	12.8
250.717	117.25
250.934	-32.26
251.151	37.38
251.368	53.76
251.585	-5.63
251.801	102.91
252.018	-1.54
252.235	117.25
252.451	49.66
252.668	119.29
252.885	127.49
253.102	2.56
253.318	-38.4
253.535	-1.54
253.752	-40.45
253.968	31.23
254.185	-87.55
254.401	18.94
254.618	57.86
254.835	27.14
255.051	86.53
255.268	41.47
255.484	18.94
255.701	25.09
255.917	33.28
256.134	-44.54
256.351	-32.26
256.567	31.23
256.784	82.43
257	-54.78
257.217	43.52
257.433	14.85
257.65	68.09
257.866	43.52
258.082	-7.68
258.299	49.66
258.515	20.99
258.732	94.72
258.948	12.8
259.165	16.9
259.381	-40.45
259.597	-15.87
259.814	-13.82
260.03	41.47
260.246	-22.02
260.463	10.75
260.679	2.56
260.895	109.05
261.112	59.9
261.328	-19.97
261.544	31.23
261.761	92.67
261.977	8.7
262.193	-73.21
262.409	82.43
262.626	35.33
262.842	20.99
263.058	-36.35
263.274	82.43
263.49	78.33
263.707	27.14
263.923	16.9
264.139	2.56
264.355	33.28
264.571	37.38
264.787	14.85
265.004	29.18
265.22	37.38
265.436	107.01
265.652	-7.68
265.868	82.43
266.084	23.04
266.3	76.29
266.516	57.86
266.732	84.48
266.948	-71.17
267.164	45.57
267.38	-73.21
267.596	2.56
267.812	35.33
268.028	29.18
268.244	29.18
268.46	70.14
268.676	2.56
268.892	51.71
269.108	16.9
269.324	-11.78
269.54	82.43
269.756	88.57
269.972	-87.55
270.188	-22.02
270.403	-7.68
270.619	96.77
270.835	43.52
271.051	2.56
271.267	23.04
271.483	-50.69
271.698	35.33
271.914	33.28
272.13	-15.87
272.346	57.86
272.562	18.94
272.777	88.57
272.993	-79.36
273.209	90.62
273.425	35.33
273.64	49.66
273.856	25.09
274.072	-5.63
274.287	16.9
274.503	-13.82
274.719	43.52
274.934	49.66
275.15	-24.06
275.366	2.56
275.581	31.23
275.797	25.09
276.012	-17.92
276.228	53.76
276.444	-24.06
276.659	31.23
276.875	12.8
277.09	8.7
277.306	29.18
277.521	51.71
277.737	-15.87
277.952	0.51
278.168	41.47
278.383	20.99
278.599	-7.68
278.814	66.05
279.03	-7.68
279.245	72.19
279.461	31.23
279.676	57.86
279.892	49.66
280.107	-28.16
280.322	10.75
280.538	107.01
280.753	27.14
280.969	33.28
281.184	-15.87
281.399	70.14
281.615	49.66
281.83	59.9
282.045	4.61
282.26	29.18
282.476	-40.45
282.691	82.43
282.906	-24.06
283.122	23.04
283.337	-1.54
283.552	43.52
283.767	-13.82
283.983	47.62
284.198	25.09
284.413	37.38
284.628	2.56
284.843	18.94
285.058	92.67
285.274	-5.63
285.489	25.09
285.704	70.14
285.919	-32.26
286.134	133.63
286.349	0.51
286.564	25.09
286.779	16.9
286.995	35.33
287.21	14.85
287.425	41.47
287.64	2.56
287.855	55.81
288.07	-5.63
288.285	43.52
288.5	0.51
288.715	131.58
288.93	-17.92
289.145	25.09
289.36	70.14
289.575	49.66
289.79	-24.06
290.004	78.33
290.219	-7.68
290.434	45.57
290.649	68.09
290.864	16.9
291.079	16.9
291.294	-60.93
291.509	49.66
291.724	59.9
291.938	94.72
292.153	68.09
292.368	-5.63
292.583	107.01
292.798	64
293.012	66.05
293.227	8.7
293.442	47.62
293.657	82.43
293.871	174.59
294.086	-44.54
294.301	37.38
294.516	61.95
294.73	76.29
294.945	57.86
295.16	33.28
295.374	-34.3
295.589	88.57
295.804	35.33
296.018	33.28
296.233	57.86
296.447	66.05
296.662	33.28
296.877	8.7
297.091	18.94
297.306	39.42
297.52	0.51
297.735	37.38
297.949	45.57
298.164	68.09
298.378	0.51
298.593	8.7
298.807	-40.45
299.022	66.05
299.236	31.23
299.451	78.33
299.665	51.71
299.88	33.28
300.094	82.43
300.309	37.38
300.523	70.14
300.737	18.94
300.952	6.66
301.166	-24.06
301.381	-3.58
301.595	25.09
301.809	4.61
302.024	16.9
302.238	8.7
302.452	-42.5
302.667	90.62
302.881	92.67
303.095	45.57
303.309	18.94
303.524	-22.02
303.738	35.33
303.952	-7.68
304.166	27.14
304.381	41.47
304.595	88.57
304.809	18.94
305.023	70.14
305.237	47.62
305.452	-7.68
305.666	18.94
305.88	61.95
306.094	0.51
306.308	31.23
306.522	27.14
306.736	8.7
306.95	92.67
307.164	41.47
307.379	33.28
307.593	117.25
307.807	-17.92
308.021	37.38
308.235	37.38
308.449	51.71
308.663	-32.26
308.877	49.66
309.091	8.7
309.305	49.66
309.519	70.14
309.733	-5.63
309.947	-7.68
310.161	31.23
310.374	-3.58
310.588	41.47
310.802	-7.68
311.016	16.9
311.23	57.86
311.444	-5.63
311.658	25.09
311.872	66.05
312.085	25.09
312.299	33.28
312.513	43.52
312.727	8.7
312.941	45.57
313.154	-7.68
313.368	-30.21
313.582	20.99
313.796	37.38
314.009	70.14
314.223	41.47
314.437	74.24
314.651	-15.87
314.864	41.47
315.078	-11.78
315.292	-19.97
315.505	66.05
315.719	-22.02
315.933	41.47
316.146	59.9
316.36	4.61
316.573	119.29
316.787	74.24
317.001	51.71
317.214	16.9
317.428	45.57
317.641	107.01
317.855	37.38
318.068	92.67
318.282	90.62
318.495	107.01
318.709	94.72
318.922	29.18
319.136	72.19
319.349	123.39
319.563	66.05
319.776	-26.11
319.99	23.04
320.203	29.18
320.417	2.56
320.63	16.9
320.843	74.24
321.057	33.28
321.27	94.72
321.483	92.67
321.697	20.99
321.91	-9.73
322.124	37.38
322.337	-42.5
322.55	14.85
322.763	78.33
322.977	57.86
323.19	-30.21
323.403	8.7
323.617	8.7
323.83	76.29
324.043	-42.5
324.256	0.51
324.469	82.43
324.683	43.52
324.896	-15.87
325.109	74.24
325.322	14.85
325.535	117.25
325.748	66.05
325.962	49.66
326.175	74.24
326.388	33.28
326.601	111.1
326.814	84.48
327.027	-3.58
327.24	41.47
327.453	-22.02
327.666	74.24
327.879	66.05
328.092	53.76
328.305	72.19
328.518	-22.02
328.731	4.61
328.944	18.94
329.157	45.57
329.37	84.48
329.583	109.05
329.796	-5.63
330.009	-3.58
330.222	57.86
330.435	53.76
330.648	76.29
330.861	66.05
331.073	-32.26
331.286	55.81
331.499	127.49
331.712	88.57
331.925	20.99
332.138	41.47
332.35	25.09
332.563	37.38
332.776	98.81
332.989	53.76
333.202	2.56
333.414	37.38
333.627	53.76
333.84	-7.68
334.053	104.96
334.265	20.99
334.478	-32.26
334.691	16.9
334.903	49.66
335.116	27.14
335.329	-19.97
335.541	51.71
335.754	27.14
335.966	25.09
336.179	53.76
336.392	49.66
336.604	-19.97
336.817	57.86
337.029	57.86
337.242	53.76
337.454	-5.63
337.667	41.47
337.88	98.81
338.092	72.19
338.305	74.24
338.517	45.57
338.729	84.48
338.942	31.23
339.154	45.57
339.367	29.18
339.579	51.71
339.792	-30.21
340.004	-24.06
340.217	-22.02
340.429	45.57
340.641	10.75
340.854	33.28
341.066	47.62
341.278	16.9
341.491	57.86
341.703	18.94
341.915	-67.07
342.128	82.43
342.34	-22.02
342.552	39.42
342.764	33.28
342.977	96.77
343.189	72.19
343.401	107.01
343.613	-15.87
343.826	55.81
344.038	27.14
344.25	82.43
344.462	25.09
344.674	31.23
344.886	80.38
345.099	55.81
345.311	33.28
345.523	-9.73
345.735	76.29
345.947	-1.54
346.159	25.09
346.371	90.62
346.583	49.66
346.795	135.68
347.007	35.33
347.219	141.82
347.431	33.28
347.643	150.01
347.855	12.8
348.067	113.15
348.279	-40.45
348.491	49.66
348.703	39.42
348.915	49.66
349.127	51.71
349.339	41.47
349.551	-17.92
349.763	98.81
349.975	-5.63
350.187	8.7
350.399	51.71
350.61	27.14
350.822	-7.68
351.034	29.18
351.246	-5.63
351.458	59.9
351.669	47.62
351.881	92.67
352.093	131.58
352.305	84.48
352.517	70.14
352.728	49.66
352.94	16.9
353.152	61.95
353.363	29.18
353.575	-50.69
353.787	117.25
353.999	74.24
354.21	80.38
354.422	0.51
354.633	33.28
354.845	61.95
355.057	10.75
355.268	31.23
355.48	80.38
355.692	-15.87
355.903	47.62
356.115	16.9
356.326	-15.87
356.538	53.76
356.749	35.33
356.961	84.48
357.172	39.42
357.384	18.94
357.595	172.54
357.807	18.94
358.018	57.86
358.23	49.66
358.441	107.01
358.653	20.99
358.864	107.01
359.075	4.61
359.287	41.47
359.498	86.53
359.709	98.81
359.921	29.18
360.132	20.99
360.344	94.72
360.555	2.56
360.766	25.09
360.977	25.09
361.189	137.73
361.4	20.99
361.611	29.18
361.823	66.05
362.034	18.94
362.245	27.14
362.456	20.99
362.667	-19.97
362.879	41.47
363.09	4.61
363.301	10.75
363.512	-54.78
363.723	31.23
363.935	6.66
364.146	68.09
364.357	4.61
364.568	51.71
364.779	-7.68
364.99	27.14
365.201	37.38
365.412	12.8
365.623	70.14
365.834	-22.02
366.045	43.52
366.256	98.81
366.467	92.67
366.678	16.9
366.889	-11.78
367.1	16.9
367.311	49.66
367.522	76.29
367.733	16.9
367.944	90.62
368.155	10.75
368.366	117.25
368.577	133.63
368.788	68.09
368.999	43.52
369.209	66.05
369.42	109.05
369.631	68.09
369.842	94.72
370.053	4.61
370.264	68.09
370.474	51.71
370.685	33.28
370.896	0.51
371.107	-13.82
371.317	84.48
371.528	12.8
371.739	90.62
371.95	25.09
372.16	164.35
372.371	-1.54
372.582	27.14
372.792	41.47
373.003	10.75
373.214	29.18
373.424	98.81
373.635	45.57
373.846	18.94
374.056	80.38
374.267	33.28
374.477	41.47
374.688	41.47
374.898	74.24
375.109	86.53
375.319	27.14
375.53	49.66
375.74	57.86
375.951	12.8
376.161	25.09
376.372	82.43
376.582	-5.63
376.793	92.67
377.003	25.09
377.214	8.7
377.424	61.95
377.635	61.95
377.845	43.52
378.055	125.44
378.266	49.66
378.476	57.86
378.686	74.24
378.897	16.9
379.107	16.9
379.317	74.24
379.528	20.99
379.738	74.24
379.948	20.99
380.158	12.8
380.369	49.66
380.579	-3.58
380.789	2.56
380.999	33.28
381.21	39.42
381.42	27.14
381.63	61.95
381.84	150.01
382.05	72.19
382.261	84.48
382.471	139.77
382.681	41.47
382.891	123.39
383.101	25.09
383.311	39.42
383.521	68.09
383.731	90.62
383.941	102.91
384.151	111.1
384.361	33.28
384.571	-19.97
384.781	53.76
384.991	115.2
385.201	102.91
385.411	53.76
385.621	135.68
385.831	53.76
386.041	25.09
386.251	82.43
386.461	109.05
386.671	82.43
386.881	37.38
387.091	33.28
387.301	74.24
387.511	84.48
387.72	14.85
387.93	84.48
388.14	-24.06
388.35	74.24
388.56	49.66
388.769	109.05
388.979	127.49
389.189	14.85
389.399	45.57
389.609	20.99
389.818	31.23
390.028	41.47
390.238	6.66
390.447	66.05
390.657	90.62
390.867	115.2
391.076	39.42
391.286	49.66
391.496	8.7
391.705	94.72
391.915	84.48
392.125	74.24
392.334	90.62
392.544	107.01
392.753	61.95
392.963	8.7
393.172	-22.02
393.382	49.66
393.591	115.2
393.801	125.44
394.01	139.77
394.22	135.68
394.429	51.71
394.639	53.76
394.848	43.52
395.058	57.86
395.267	74.24
395.477	37.38
395.686	53.76
395.895	180.73
396.105	100.86
396.314	86.53
396.524	31.23
396.733	111.1
396.942	147.97
397.152	70.14
397.361	127.49
397.57	143.87
397.78	49.66
397.989	190.97
398.198	215.55
398.407	127.49
398.617	127.49
398.826	66.05
399.035	107.01
399.244	121.34
399.453	158.21
399.663	150.01
399.872	172.54
400.081	109.05
400.29	139.77
400.499	49.66
400.708	131.58
400.917	94.72
401.127	133.63
401.336	100.86
401.545	201.21
401.754	162.3
401.963	41.47
402.172	102.91
402.381	150.01
402.59	158.21
402.799	197.12
403.008	154.11
403.217	141.82
403.426	172.54
403.635	141.82
403.844	127.49
404.053	190.97
404.262	190.97
404.471	154.11
404.68	143.87
404.888	139.77
405.097	139.77
405.306	174.59
405.515	180.73
405.724	164.35
405.933	119.29
406.142	207.36
406.35	152.06
406.559	154.11
406.768	240.12
406.977	270.84
407.185	197.12
407.394	201.21
407.603	289.28
407.812	197.12
408.02	254.46
408.229	221.69
408.438	152.06
408.646	233.98
408.855	258.56
409.064	219.64
409.272	299.52
409.481	352.76
409.69	260.6
409.898	285.18
410.107	352.76
410.315	305.66
410.524	320
410.733	397.82
410.941	385.53
411.15	338.43
411.358	403.96
411.567	453.11
411.775	487.93
411.984	434.68
412.192	410.11
412.401	530.94
412.609	559.61
412.818	541.18
413.026	518.65
413.234	459.26
413.443	508.41
413.651	508.41
413.86	664.05
414.068	651.77
414.276	682.49
414.485	659.96
414.693	676.34
414.901	805.36
415.11	760.31
415.318	713.21
415.526	741.88
415.734	811.51
415.943	745.97
416.151	899.57
416.359	823.8
416.567	1008.11
416.776	952.82
416.984	1026.54
417.192	975.35
417.4	997.87
417.608	1114.61
417.817	1061.36
418.025	1212.91
418.233	1303.02
418.441	1214.96
418.649	1286.64
418.857	1411.56
419.065	1499.63
419.273	1434.09
419.481	1520.1
419.689	1481.19
419.897	1538.54
420.105	1573.35
420.313	1663.46
420.521	1745.38
420.729	1729
420.937	1747.43
421.145	1796.58
421.353	1941.99
421.561	2073.06
421.769	2097.63
421.977	2292.19
422.185	2171.36
422.393	2179.55
422.601	2421.21
422.809	2382.3
423.017	2370.01
423.224	2576.86
423.432	2611.67
423.64	2683.35
423.848	2951.63
424.056	2722.26
424.263	3004.88
424.471	3054.03
424.679	2953.68
424.887	3310.03
425.094	3279.31
425.302	3359.18
425.51	3391.95
425.718	3559.88
425.925	3719.62
426.133	3844.55
426.341	4008.39
426.548	4200.9
426.756	4106.69
426.964	4284.86
427.171	4485.56
427.379	4368.83
427.586	4622.78
427.794	4796.85
428.001	4952.5
428.209	5159.35
428.417	5122.48
428.624	5517.74
428.832	5433.77
429.039	5521.84
429.247	5278.13
429.454	5966.24
429.662	6506.91
429.869	5900.71
430.076	6357.41
430.284	6218.15
430.491	6492.57
430.699	6961.56
430.906	6693.27
431.114	6982.04
431.321	7170.45
431.528	7322
431.736	7901.58
431.943	8071.56
432.15	7743.88
432.358	7911.82
432.565	8487.29
432.772	8429.95
432.979	8868.22
433.187	8917.37
433.394	9183.6
433.601	9812.33
433.808	9750.89
434.016	9462.13
434.223	9959.78
434.43	10649.95
434.637	10520.93
434.844	10946.9
435.052	10928.47
435.259	11059.54
435.466	11231.57
435.673	11235.67
435.88	11694.41
436.087	12415.3
436.294	12366.15
436.501	12085.58
436.708	12310.85
436.915	12665.15
437.122	13216.05
437.329	13248.82
437.537	13701.42
437.743	13912.36
437.95	13988.14
438.157	14551.33
438.364	15022.36
438.571	15216.92
438.778	15206.68
438.985	16326.92
439.192	15886.61
439.399	16304.39
439.606	16032.01
439.813	17131.77
440.02	18071.79
440.227	17414.39
440.433	17484.02
440.64	17842.42
440.847	17858.8
441.054	18356.46
441.261	19661.01
441.467	19429.59
441.674	19759.31
441.881	20381.9
442.088	20316.36
442.294	19968.21
442.501	20963.52
442.708	21039.29
442.914	21887.15
443.121	22788.26
443.328	22151.34
443.534	23793.81
443.741	22904.99
443.948	22675.62
444.154	24526.99
444.361	24154.26
444.568	24565.9
444.774	24334.48
444.981	24719.49
445.187	25524.35
445.394	26523.76
445.6	26323.05
445.807	28962.89
446.013	27308.13
446.22	28020.82
446.426	29063.24
446.633	29245.51
446.839	30300.21
447.046	28747.85
447.252	30367.79
447.459	30685.23
447.665	30541.87
447.871	31545.37
448.078	33114.12
448.284	31359.01
448.491	32323.6
448.697	33632.25
448.903	33939.45
449.11	34363.38
449.316	33562.62
449.522	34336.76
449.728	35098.6
449.935	35276.77
450.141	35413.99
450.347	36274.13
450.553	34979.82
450.76	35342.31
450.966	36786.13
451.172	36507.6
451.378	37199.82
451.584	36751.31
451.791	37314.5
451.997	37566.4
452.203	38025.15
452.409	38260.66
452.615	37896.13
452.821	36560.85
453.027	35948.51
453.233	38084.54
453.44	36341.72
453.646	36898.76
453.852	37138.38
454.058	37689.28
454.264	36341.72
454.47	37400.52
454.676	36532.18
454.882	37695.42
455.088	34471.92
455.294	34914.28
455.5	35573.73
455.705	35844.06
455.911	34164.73
456.117	33679.36
456.323	33187.85
456.529	31346.72
456.735	33095.69
456.941	32247.83
457.147	31590.43
457.352	30593.07
457.558	30257.2
457.764	30474.29
457.97	29851.7
458.176	29087.81
458.381	29200.45
458.587	27713.63
458.793	27760.73
458.999	26581.1
459.204	28547.15
459.41	27635.8
459.616	25462.91
459.821	25825.4
460.027	25669.75
460.233	24907.91
460.438	24033.43
460.644	24223.89
460.85	22859.94
461.055	22649
461.261	22716.58
461.466	20859.07
461.672	20226.25
461.878	21868.72
462.083	20570.31
462.289	20082.89
462.494	20017.36
462.7	18770.15
462.905	18350.31
463.111	18878.69
463.316	19116.25
463.522	18602.21
463.727	18604.26
463.932	18579.68
464.138	18497.77
464.343	18383.08
464.549	17756.4
464.754	18571.49
464.959	18284.78
465.165	18499.81
465.37	17473.78
465.575	17015.04
465.781	17744.11
465.986	17881.33
466.191	17293.56
466.397	16795.9
466.602	15982.86
466.807	16593.15
467.012	16642.31
467.218	16546.05
467.423	16083.21
