Data from USB4F104151__121__14-18-53-501.txt Node

Date: Thu Mar 13 14:18:53 EDT 2025
User: louis
Spectrometer: USB4F10415
Trigger mode: 4
Integration Time (sec): 2.000000E-2
Scans to average: 1
Electric dark correction enabled: true
Nonlinearity correction enabled: false
Boxcar width: 0
XAxis mode: Wavelengths
Number of Pixels in Spectrum: 3648
>>>>>Begin Spectral Data<<<<<
178.204	-66.73
178.424	-66.73
178.644	-66.73
178.864	-165.03
179.084	-93.35
179.304	11.09
179.524	15.19
179.744	31.57
179.964	25.43
180.184	-25.77
180.404	9.05
180.624	-1.19
180.844	-25.77
181.064	-17.58
181.283	35.67
181.503	-48.3
181.723	-9.39
181.943	-40.11
182.163	52.05
182.383	60.24
182.602	-11.43
182.822	60.24
183.042	60.24
183.262	88.92
183.482	74.58
183.701	-44.2
183.921	72.53
184.141	7
184.361	33.62
184.58	74.58
184.8	4.95
185.02	31.57
185.239	47.96
185.459	47.96
185.679	54.1
185.898	31.57
186.118	15.19
186.338	-44.2
186.557	47.96
186.777	31.57
186.997	19.29
187.216	78.68
187.436	56.15
187.655	-17.58
187.875	-11.43
188.095	54.1
188.314	84.82
188.534	50
188.753	41.81
188.973	35.67
189.192	9.05
189.412	90.96
189.631	15.19
189.851	-5.29
190.07	82.77
190.29	-23.72
190.509	31.57
190.729	68.44
190.948	31.57
191.168	131.92
191.387	56.15
191.607	-13.48
191.826	121.68
192.045	19.29
192.265	19.29
192.484	105.3
192.704	148.31
192.923	-23.72
193.142	119.64
193.362	88.92
193.581	101.2
193.8	-15.53
194.02	131.92
194.239	-25.77
194.458	115.54
194.678	0.85
194.897	19.29
195.116	-33.96
195.335	-7.34
195.555	41.81
195.774	50
195.993	-19.63
196.212	88.92
196.432	19.29
196.651	-33.96
196.87	41.81
197.089	80.72
197.308	66.39
197.528	113.49
197.747	45.91
197.966	27.48
198.185	113.49
198.404	-13.48
198.623	39.76
198.842	19.29
199.062	64.34
199.281	56.15
199.5	39.76
199.719	84.82
199.938	2.9
200.157	76.63
200.376	84.82
200.595	101.2
200.814	-5.29
201.033	15.19
201.252	72.53
201.471	31.57
201.69	72.53
201.909	17.24
202.128	52.05
202.347	88.92
202.566	4.95
202.785	-13.48
203.004	7
203.223	80.72
203.442	64.34
203.661	23.38
203.879	7
204.098	23.38
204.317	66.39
204.536	-31.91
204.755	17.24
204.974	90.96
205.193	76.63
205.411	64.34
205.63	31.57
205.849	86.87
206.068	15.19
206.287	66.39
206.505	41.81
206.724	27.48
206.943	-1.19
207.162	25.43
207.381	-21.67
207.599	41.81
207.818	50
208.037	31.57
208.255	35.67
208.474	76.63
208.693	84.82
208.911	9.05
209.13	60.24
209.349	78.68
209.567	58.2
209.786	58.2
210.005	60.24
210.223	-56.49
210.442	-58.54
210.661	86.87
210.879	-5.29
211.098	41.81
211.316	13.14
211.535	72.53
211.753	41.81
211.972	-17.58
212.191	97.11
212.409	113.49
212.628	47.96
212.846	-17.58
213.065	9.05
213.283	70.48
213.502	33.62
213.72	11.09
213.938	64.34
214.157	7
214.375	90.96
214.594	-38.06
214.812	35.67
215.031	31.57
215.249	4.95
215.467	43.86
215.686	25.43
215.904	17.24
216.122	7
216.341	-3.24
216.559	56.15
216.778	56.15
216.996	50
217.214	47.96
217.432	9.05
217.651	17.24
217.869	15.19
218.087	4.95
218.306	72.53
218.524	41.81
218.742	15.19
218.96	56.15
219.179	-15.53
219.397	47.96
219.615	60.24
219.833	31.57
220.051	19.29
220.27	74.58
220.488	60.24
220.706	47.96
220.924	-1.19
221.142	-17.58
221.36	74.58
221.578	15.19
221.796	15.19
222.015	52.05
222.233	-91.31
222.451	90.96
222.669	31.57
222.887	68.44
223.105	27.48
223.323	64.34
223.541	-50.35
223.759	-3.24
223.977	31.57
224.195	52.05
224.413	7
224.631	64.34
224.849	0.85
225.067	76.63
225.285	72.53
225.503	-1.19
225.721	-7.34
225.939	23.38
226.157	39.76
226.375	76.63
226.592	7
226.81	23.38
227.028	35.67
227.246	93.01
227.464	23.38
227.682	68.44
227.9	90.96
228.117	25.43
228.335	50
228.553	82.77
228.771	7
228.989	15.19
229.206	7
229.424	31.57
229.642	-25.77
229.86	-17.58
230.077	19.29
230.295	70.48
230.513	29.52
230.731	68.44
230.948	56.15
231.166	43.86
231.384	4.95
231.601	80.72
231.819	86.87
232.037	15.19
232.254	-3.24
232.472	-36.01
232.689	-1.19
232.907	66.39
233.125	39.76
233.342	99.16
233.56	7
233.777	39.76
233.995	15.19
234.213	64.34
234.43	41.81
234.648	47.96
234.865	27.48
235.083	56.15
235.3	33.62
235.518	4.95
235.735	76.63
235.953	19.29
236.17	47.96
236.388	-17.58
236.605	27.48
236.822	105.3
237.04	47.96
237.257	90.96
237.475	-33.96
237.692	23.38
237.909	115.54
238.127	56.15
238.344	27.48
238.562	76.63
238.779	-99.5
238.996	21.33
239.214	78.68
239.431	31.57
239.648	7
239.865	9.05
240.083	66.39
240.3	39.76
240.517	-33.96
240.735	47.96
240.952	33.62
241.169	15.19
241.386	-15.53
241.603	31.57
241.821	-40.11
242.038	-25.77
242.255	56.15
242.472	15.19
242.689	33.62
242.907	84.82
243.124	2.9
243.341	21.33
243.558	-7.34
243.775	-42.15
243.992	-11.43
244.209	78.68
244.426	62.29
244.643	66.39
244.86	9.05
245.078	119.64
245.295	64.34
245.512	78.68
245.729	39.76
245.946	117.59
246.163	47.96
246.38	50
246.597	50
246.814	68.44
247.031	-1.19
247.248	23.38
247.464	47.96
247.681	37.72
247.898	-13.48
248.115	76.63
248.332	23.38
248.549	113.49
248.766	64.34
248.983	29.52
249.2	56.15
249.417	52.05
249.633	45.91
249.85	29.52
250.067	11.09
250.284	33.62
250.501	72.53
250.717	39.76
250.934	-56.49
251.151	47.96
251.368	15.19
251.585	76.63
251.801	-1.19
252.018	4.95
252.235	11.09
252.451	21.33
252.668	-42.15
252.885	189.27
253.102	82.77
253.318	101.2
253.535	23.38
253.752	-38.06
253.968	39.76
254.185	-5.29
254.401	45.91
254.618	97.11
254.835	-38.06
255.051	95.06
255.268	84.82
255.484	90.96
255.701	21.33
255.917	39.76
256.134	41.81
256.351	43.86
256.567	41.81
256.784	33.62
257	17.24
257.217	23.38
257.433	33.62
257.65	119.64
257.866	60.24
258.082	43.86
258.299	-29.87
258.515	52.05
258.732	-33.96
258.948	35.67
259.165	52.05
259.381	9.05
259.597	2.9
259.814	47.96
260.03	11.09
260.246	-5.29
260.463	29.52
260.679	58.2
260.895	4.95
261.112	43.86
261.328	64.34
261.544	19.29
261.761	78.68
261.977	101.2
262.193	-5.29
262.409	33.62
262.626	60.24
262.842	52.05
263.058	-42.15
263.274	-1.19
263.49	-42.15
263.707	15.19
263.923	21.33
264.139	19.29
264.355	97.11
264.571	64.34
264.787	21.33
265.004	-7.34
265.22	47.96
265.436	7
265.652	11.09
265.868	43.86
266.084	23.38
266.3	66.39
266.516	-7.34
266.732	27.48
266.948	11.09
267.164	23.38
267.38	78.68
267.596	9.05
267.812	84.82
268.028	123.73
268.244	-38.06
268.46	64.34
268.676	33.62
268.892	45.91
269.108	39.76
269.324	41.81
269.54	29.52
269.756	9.05
269.972	0.85
270.188	25.43
270.403	13.14
270.619	4.95
270.835	88.92
271.051	2.9
271.267	52.05
271.483	15.19
271.698	2.9
271.914	45.91
272.13	-1.19
272.346	17.24
272.562	90.96
272.777	121.68
272.993	74.58
273.209	-3.24
273.425	-23.72
273.64	-17.58
273.856	115.54
274.072	41.81
274.287	39.76
274.503	47.96
274.719	68.44
274.934	43.86
275.15	-31.91
275.366	2.9
275.581	17.24
275.797	-9.39
276.012	29.52
276.228	90.96
276.444	2.9
276.659	39.76
276.875	39.76
277.09	39.76
277.306	2.9
277.521	82.77
277.737	15.19
277.952	9.05
278.168	-3.24
278.383	23.38
278.599	88.92
278.814	113.49
279.03	2.9
279.245	66.39
279.461	47.96
279.676	-9.39
279.892	7
280.107	47.96
280.322	-13.48
280.538	90.96
280.753	-25.77
280.969	56.15
281.184	-29.87
281.399	47.96
281.615	72.53
281.83	97.11
282.045	-33.96
282.26	-5.29
282.476	-17.58
282.691	72.53
282.906	-7.34
283.122	-29.87
283.337	23.38
283.552	125.78
283.767	80.72
283.983	39.76
284.198	23.38
284.413	37.72
284.628	13.14
284.843	129.88
285.058	27.48
285.274	80.72
285.489	-23.72
285.704	60.24
285.919	-17.58
286.134	-17.58
286.349	39.76
286.564	138.07
286.779	2.9
286.995	99.16
287.21	-1.19
287.425	41.81
287.64	2.9
287.855	131.92
288.07	-23.72
288.285	62.29
288.5	82.77
288.715	-17.58
288.93	64.34
289.145	-58.54
289.36	39.76
289.575	31.57
289.79	25.43
290.004	-1.19
290.219	56.15
290.434	9.05
290.649	50
290.864	76.63
291.079	35.67
291.294	29.52
291.509	-5.29
291.724	33.62
291.938	15.19
292.153	31.57
292.368	23.38
292.583	-23.72
292.798	62.29
293.012	105.3
293.227	41.81
293.442	-54.44
293.657	80.72
293.871	27.48
294.086	58.2
294.301	47.96
294.516	11.09
294.73	64.34
294.945	-17.58
295.16	93.01
295.374	56.15
295.589	133.97
295.804	-7.34
296.018	17.24
296.233	80.72
296.447	64.34
296.662	-29.87
296.877	80.72
297.091	19.29
297.306	31.57
297.52	56.15
297.735	66.39
297.949	66.39
298.164	56.15
298.378	-25.77
298.593	-9.39
298.807	41.81
299.022	-15.53
299.236	4.95
299.451	17.24
299.665	39.76
299.88	7
300.094	2.9
300.309	-31.91
300.523	-3.24
300.737	33.62
300.952	35.67
301.166	72.53
301.381	9.05
301.595	-1.19
301.809	-7.34
302.024	15.19
302.238	76.63
302.452	-27.82
302.667	37.72
302.881	78.68
303.095	97.11
303.309	58.2
303.524	-9.39
303.738	-29.87
303.952	-27.82
304.166	58.2
304.381	-9.39
304.595	80.72
304.809	-50.35
305.023	9.05
305.237	-23.72
305.452	15.19
305.666	-21.67
305.88	78.68
306.094	4.95
306.308	101.2
306.522	25.43
306.736	62.29
306.95	113.49
307.164	15.19
307.379	31.57
307.593	58.2
307.807	-5.29
308.021	80.72
308.235	39.76
308.449	-29.87
308.663	-29.87
308.877	82.77
309.091	4.95
309.305	80.72
309.519	31.57
309.733	107.35
309.947	0.85
310.161	84.82
310.374	68.44
310.588	101.2
310.802	-9.39
311.016	4.95
311.23	33.62
311.444	66.39
311.658	-9.39
311.872	-7.34
312.085	88.92
312.299	99.16
312.513	80.72
312.727	4.95
312.941	-27.82
313.154	88.92
313.368	17.24
313.582	72.53
313.796	76.63
314.009	7
314.223	58.2
314.437	58.2
314.651	25.43
314.864	64.34
315.078	50
315.292	58.2
315.505	-3.24
315.719	-17.58
315.933	97.11
316.146	39.76
316.36	-13.48
316.573	80.72
316.787	107.35
317.001	125.78
317.214	33.62
317.428	70.48
317.641	11.09
317.855	-17.58
318.068	-1.19
318.282	58.2
318.495	64.34
318.709	64.34
318.922	41.81
319.136	70.48
319.349	47.96
319.563	-31.91
319.776	88.92
319.99	-29.87
320.203	88.92
320.417	56.15
320.63	21.33
320.843	50
321.057	23.38
321.27	-1.19
321.483	37.72
321.697	56.15
321.91	64.34
322.124	39.76
322.337	60.24
322.55	33.62
322.763	45.91
322.977	31.57
323.19	88.92
323.403	35.67
323.617	56.15
323.83	62.29
324.043	39.76
324.256	31.57
324.469	23.38
324.683	31.57
324.896	56.15
325.109	19.29
325.322	66.39
325.535	66.39
325.748	-11.43
325.962	33.62
326.175	80.72
326.388	33.62
326.601	93.01
326.814	-17.58
327.027	64.34
327.24	72.53
327.453	-27.82
327.666	72.53
327.879	68.44
328.092	70.48
328.305	99.16
328.518	25.43
328.731	-15.53
328.944	33.62
329.157	-46.25
329.37	9.05
329.583	47.96
329.796	105.3
330.009	39.76
330.222	105.3
330.435	60.24
330.648	58.2
330.861	13.14
331.073	15.19
331.286	13.14
331.499	97.11
331.712	23.38
331.925	35.67
332.138	72.53
332.35	31.57
332.563	-25.77
332.776	66.39
332.989	39.76
333.202	47.96
333.414	23.38
333.627	76.63
333.84	31.57
334.053	109.4
334.265	-1.19
334.478	113.49
334.691	66.39
334.903	-42.15
335.116	101.2
335.329	78.68
335.541	-5.29
335.754	115.54
335.966	21.33
336.179	19.29
336.392	47.96
336.604	41.81
336.817	39.76
337.029	9.05
337.242	33.62
337.454	111.44
337.667	43.86
337.88	109.4
338.092	41.81
338.305	105.3
338.517	-11.43
338.729	7
338.942	-42.15
339.154	-48.3
339.367	9.05
339.579	37.72
339.792	74.58
340.004	19.29
340.217	15.19
340.429	-25.77
340.641	31.57
340.854	-17.58
341.066	76.63
341.278	148.31
341.491	17.24
341.703	68.44
341.915	0.85
342.128	90.96
342.34	15.19
342.552	-13.48
342.764	64.34
342.977	33.62
343.189	-11.43
343.401	64.34
343.613	-17.58
343.826	66.39
344.038	56.15
344.25	7
344.462	47.96
344.674	23.38
344.886	111.44
345.099	27.48
345.311	52.05
345.523	52.05
345.735	58.2
345.947	56.15
346.159	9.05
346.371	125.78
346.583	7
346.795	146.26
347.007	31.57
347.219	52.05
347.431	-1.19
347.643	97.11
347.855	15.19
348.067	-1.19
348.279	33.62
348.491	9.05
348.703	-1.19
348.915	21.33
349.127	-36.01
349.339	50
349.551	93.01
349.763	80.72
349.975	35.67
350.187	33.62
350.399	7
350.61	56.15
350.822	52.05
351.034	50
351.246	-29.87
351.458	52.05
351.669	41.81
351.881	-1.19
352.093	-38.06
352.305	52.05
352.517	25.43
352.728	70.48
352.94	84.82
353.152	80.72
353.363	23.38
353.575	66.39
353.787	113.49
353.999	70.48
354.21	117.59
354.422	11.09
354.633	64.34
354.845	43.86
355.057	58.2
355.268	39.76
355.48	33.62
355.692	23.38
355.903	56.15
356.115	17.24
356.326	-31.91
356.538	-13.48
356.749	68.44
356.961	138.07
357.172	13.14
357.384	19.29
357.595	64.34
357.807	17.24
358.018	-17.58
358.23	39.76
358.441	93.01
358.653	72.53
358.864	-21.67
359.075	-5.29
359.287	97.11
359.498	47.96
359.709	-27.82
359.921	35.67
360.132	15.19
360.344	-19.63
360.555	2.9
360.766	25.43
360.977	37.72
361.189	72.53
361.4	41.81
361.611	107.35
361.823	50
362.034	31.57
362.245	23.38
362.456	-7.34
362.667	76.63
362.879	41.81
363.09	97.11
363.301	109.4
363.512	25.43
363.723	-25.77
363.935	80.72
364.146	58.2
364.357	35.67
364.568	56.15
364.779	56.15
364.99	29.52
365.201	52.05
365.412	123.73
365.623	-40.11
365.834	99.16
366.045	39.76
366.256	50
366.467	25.43
366.678	41.81
366.889	4.95
367.1	138.07
367.311	76.63
367.522	62.29
367.733	11.09
367.944	4.95
368.155	58.2
368.366	127.83
368.577	88.92
368.788	33.62
368.999	-11.43
369.209	25.43
369.42	150.36
369.631	119.64
369.842	54.1
370.053	39.76
370.264	68.44
370.474	62.29
370.685	76.63
370.896	7
371.107	43.86
371.317	58.2
371.528	-5.29
371.739	37.72
371.95	-23.72
372.16	88.92
372.371	41.81
372.582	60.24
372.792	7
373.003	50
373.214	11.09
373.424	47.96
373.635	-3.24
373.846	13.14
374.056	58.2
374.267	52.05
374.477	66.39
374.688	31.57
374.898	7
375.109	41.81
375.319	29.52
375.53	146.26
375.74	-1.19
375.951	64.34
376.161	0.85
376.372	-7.34
376.582	31.57
376.793	43.86
377.003	60.24
377.214	72.53
377.424	39.76
377.635	60.24
377.845	66.39
378.055	125.78
378.266	23.38
378.476	66.39
378.686	56.15
378.897	58.2
379.107	72.53
379.317	54.1
379.528	86.87
379.738	31.57
379.948	-13.48
380.158	103.25
380.369	101.2
380.579	25.43
380.789	62.29
380.999	52.05
381.21	58.2
381.42	39.76
381.63	19.29
381.84	105.3
382.05	23.38
382.261	35.67
382.471	7
382.681	11.09
382.891	56.15
383.101	64.34
383.311	52.05
383.521	41.81
383.731	7
383.941	17.24
384.151	39.76
384.361	-7.34
384.571	41.81
384.781	52.05
384.991	78.68
385.201	123.73
385.411	72.53
385.621	17.24
385.831	119.64
386.041	9.05
386.251	19.29
386.461	58.2
386.671	-1.19
386.881	27.48
387.091	25.43
387.301	82.77
387.511	58.2
387.72	82.77
387.93	60.24
388.14	13.14
388.35	35.67
388.56	74.58
388.769	64.34
388.979	47.96
389.189	25.43
389.399	97.11
389.609	97.11
389.818	-21.67
390.028	35.67
390.238	9.05
390.447	58.2
390.657	80.72
390.867	-19.63
391.076	-50.35
391.286	78.68
391.496	47.96
391.705	78.68
391.915	64.34
392.125	58.2
392.334	41.81
392.544	129.88
392.753	64.34
392.963	25.43
393.172	74.58
393.382	39.76
393.591	99.16
393.801	-58.54
394.01	170.83
394.22	72.53
394.429	-5.29
394.639	105.3
394.848	47.96
395.058	88.92
395.267	19.29
395.477	111.44
395.686	52.05
395.895	68.44
396.105	179.03
396.314	84.82
396.524	37.72
396.733	90.96
396.942	131.92
397.152	105.3
397.361	97.11
397.57	68.44
397.78	88.92
397.989	66.39
398.198	76.63
398.407	72.53
398.617	80.72
398.826	72.53
399.035	56.15
399.244	101.2
399.453	109.4
399.663	25.43
399.872	88.92
400.081	19.29
400.29	93.01
400.499	4.95
400.708	74.58
400.917	41.81
401.127	133.97
401.336	39.76
401.545	162.64
401.754	88.92
401.963	148.31
402.172	86.87
402.381	72.53
402.59	76.63
402.799	107.35
403.008	109.4
403.217	133.97
403.426	131.92
403.635	74.58
403.844	74.58
404.053	45.91
404.262	115.54
404.471	158.55
404.68	115.54
404.888	131.92
405.097	80.72
405.306	201.55
405.515	170.83
405.724	72.53
405.933	183.12
406.142	88.92
406.35	140.12
406.559	195.41
406.768	115.54
406.977	146.26
407.185	164.69
407.394	154.45
407.603	170.83
407.812	183.12
408.02	230.23
408.229	88.92
408.438	154.45
408.646	189.27
408.855	154.45
409.064	187.22
409.272	144.21
409.481	242.51
409.69	179.03
409.898	228.18
410.107	219.99
410.315	287.57
410.524	195.41
410.733	277.33
410.941	248.66
411.15	211.79
411.358	312.14
411.567	248.66
411.775	359.25
411.984	353.1
412.192	320.34
412.401	295.76
412.609	396.11
412.818	357.2
413.026	369.49
413.234	326.48
413.443	416.59
413.651	435.02
413.86	457.55
414.068	441.17
414.276	500.56
414.485	490.32
414.693	484.17
414.901	529.23
415.11	539.47
415.318	580.43
415.526	545.61
415.734	637.77
415.943	596.81
416.151	662.35
416.359	656.2
416.567	594.76
416.776	691.02
416.984	783.18
417.192	762.7
417.4	756.55
417.608	734.03
417.817	826.18
418.025	781.13
418.233	961.35
418.441	828.23
418.649	885.58
418.857	949.06
419.065	973.64
419.273	1014.6
419.481	1016.65
419.689	1055.56
419.897	1119.04
420.105	1061.7
420.313	1239.87
420.521	1311.55
420.729	1184.58
420.937	1295.17
421.145	1358.66
421.353	1448.77
421.561	1483.58
421.769	1530.69
421.977	1452.86
422.185	1469.25
422.393	1712.96
422.601	1704.76
422.809	1667.9
423.017	1633.08
423.224	1741.63
423.432	1803.07
423.64	1917.75
423.848	2054.97
424.056	2075.45
424.263	2167.6
424.471	2214.71
424.679	2179.89
424.887	2263.86
425.094	2329.39
425.302	2325.3
425.51	2485.04
425.718	2595.63
425.925	2628.4
426.133	2657.07
426.341	2747.18
426.548	2974.5
426.756	2958.12
426.964	2919.21
427.171	3142.44
427.379	3132.2
427.586	3132.2
427.794	3390.24
428.001	3451.68
428.209	3701.53
428.417	3658.53
428.624	3709.72
428.832	3898.14
429.039	3838.75
429.247	3810.08
429.454	4279.06
429.662	4518.67
429.869	4158.23
430.076	4553.49
430.284	4320.02
430.491	4438.8
430.699	4770.57
430.906	4881.16
431.114	4905.74
431.321	5040.9
431.528	5176.07
431.736	5587.71
431.943	5708.54
432.15	5661.44
432.358	5675.77
432.565	6054.65
432.772	5831.42
432.979	6044.41
433.187	6337.27
433.394	6253.3
433.601	6890.22
433.808	7011.05
434.016	6847.21
434.223	7090.92
434.43	7477.99
434.637	7299.81
434.844	7580.39
435.052	8133.34
435.259	7928.54
435.466	8100.57
435.673	7654.11
435.88	8381.14
436.087	8641.23
436.294	8745.68
436.501	8721.1
436.708	8633.04
436.915	8870.61
437.122	9536.2
437.329	9398.98
437.537	9788.1
437.743	9921.21
437.95	9730.75
438.157	10336.95
438.364	10568.37
438.571	10627.76
438.778	10758.83
438.985	11797.15
439.192	11233.96
439.399	11606.69
439.606	11152.04
439.813	11811.49
440.02	12642.96
440.227	12532.37
440.433	12475.03
440.64	12630.68
440.847	12661.4
441.054	13165.2
441.261	13845.12
441.467	13625.99
441.674	13789.83
441.881	14422.65
442.088	14426.75
442.294	14076.54
442.501	14586.49
442.708	14770.8
442.914	15522.41
443.121	16048.74
443.328	15723.11
443.534	16679.51
443.741	16267.87
443.948	16128.61
444.154	17273.42
444.361	16779.86
444.568	17263.18
444.774	17441.36
444.981	17361.48
445.187	18002.5
445.394	18762.3
445.6	18522.68
445.807	20257.31
446.013	19466.8
446.22	20023.84
446.426	20709.91
446.633	20754.97
446.839	21330.45
447.046	20591.13
447.252	21731.85
447.459	21457.42
447.665	21664.27
447.871	22788.6
448.078	23519.73
448.284	22544.89
448.491	23036.41
448.697	23943.66
448.903	24314.34
449.11	24166.88
449.316	24175.08
449.522	24599.01
449.728	25268.69
449.935	25348.56
450.141	25045.46
450.347	25821.64
450.553	24932.82
450.76	25457.1
450.966	26319.3
451.172	25954.76
451.378	26606.02
451.584	26221
451.791	26988.99
451.997	26948.03
452.203	27036.09
452.409	27136.44
452.615	27126.2
452.821	26337.73
453.027	25620.94
453.233	27367.86
453.44	26034.63
453.646	26448.32
453.852	26542.53
454.058	27136.44
454.264	26153.41
454.47	26890.68
454.676	26157.51
454.882	26997.18
455.088	24623.58
455.294	25065.94
455.5	25479.63
455.705	25475.54
455.911	24943.06
456.117	24263.14
456.323	23906.79
456.529	22536.7
456.735	23769.58
456.941	23165.43
457.147	22852.09
457.352	22084.1
457.558	22118.92
457.764	21920.26
457.97	21508.62
458.176	20838.94
458.381	21129.75
458.587	20023.84
458.793	20339.23
458.999	18815.54
459.204	20627.99
459.41	19817
459.616	18461.24
459.821	18758.2
460.027	18356.8
460.233	18233.92
460.438	17582.67
460.644	17590.86
460.85	16603.74
461.055	16278.11
461.261	16228.96
461.466	15170.16
461.672	14592.63
461.878	15805.03
462.083	14903.92
462.289	14379.64
462.494	14269.05
462.7	13648.52
462.905	13165.2
463.111	13806.21
463.316	13824.64
463.522	13630.09
463.727	13343.37
463.932	13605.51
464.138	13386.38
464.343	13431.43
464.549	12995.22
464.754	13591.17
464.959	13374.09
465.165	13310.6
465.37	12696.21
465.575	12405.4
465.781	12675.73
465.986	12849.81
466.191	12475.03
466.397	12173.98
466.602	11786.91
466.807	11770.53
467.012	11985.57
467.218	11960.99
467.423	11741.86
467.628	11838.11
467.833	12450.46
468.038	11913.89
468.244	11410.09
468.449	12184.22
468.654	11762.34
468.859	11565.73
469.064	11352.74
469.269	11078.32
