Data from USB4F104151__136__14-19-11-382.txt Node

Date: Thu Mar 13 14:19:11 EDT 2025
User: louis
Spectrometer: USB4F10415
Trigger mode: 4
Integration Time (sec): 2.000000E-2
Scans to average: 1
Electric dark correction enabled: true
Nonlinearity correction enabled: false
Boxcar width: 0
XAxis mode: Wavelengths
Number of Pixels in Spectrum: 3648
>>>>>Begin Spectral Data<<<<<
178.204	-104.62
178.424	-104.62
178.644	-104.62
178.864	-102.57
179.084	-69.8
179.304	-41.13
179.524	61.27
179.744	5.97
179.964	34.64
180.184	20.31
180.404	-6.31
180.624	-67.75
180.844	42.84
181.064	14.17
181.283	-28.84
181.503	-4.27
181.723	-30.89
181.943	-14.51
182.163	87.89
182.383	-51.37
182.602	26.45
182.822	44.88
183.042	18.26
183.262	20.31
183.482	-24.75
183.701	20.31
183.921	106.32
184.141	-34.99
184.361	108.37
184.58	28.5
184.8	83.8
185.02	61.27
185.239	30.55
185.459	46.93
185.679	12.12
185.898	-92.33
186.118	30.55
186.338	-6.31
186.557	1.88
186.777	36.69
186.997	-55.47
187.216	28.5
187.436	12.12
187.655	24.4
187.875	128.85
188.095	20.31
188.314	53.08
188.534	75.6
188.753	-14.51
188.973	5.97
189.192	85.84
189.412	-10.41
189.631	-34.99
189.851	-12.46
190.07	14.17
190.29	-22.7
190.509	135
190.729	5.97
190.948	55.12
191.168	149.33
191.387	75.6
191.607	12.12
191.826	132.95
192.045	69.46
192.265	32.6
192.484	71.51
192.704	14.17
192.923	-22.7
193.142	51.03
193.362	73.56
193.581	10.07
193.8	-45.23
194.02	108.37
194.239	1.88
194.458	34.64
194.678	55.12
194.897	44.88
195.116	32.6
195.335	12.12
195.555	51.03
195.774	34.64
195.993	38.74
196.212	-28.84
196.432	14.17
196.651	44.88
196.87	34.64
197.089	69.46
197.308	36.69
197.528	18.26
197.747	30.55
197.966	-53.42
198.185	69.46
198.404	1.88
198.623	3.93
198.842	65.36
199.062	-2.22
199.281	44.88
199.5	-8.36
199.719	79.7
199.938	65.36
200.157	106.32
200.376	-34.99
200.595	83.8
200.814	42.84
201.033	26.45
201.252	57.17
201.471	-0.17
201.69	1.88
201.909	51.03
202.128	26.45
202.347	110.42
202.566	126.8
202.785	16.21
203.004	16.21
203.223	69.46
203.442	36.69
203.661	20.31
203.879	75.6
204.098	75.6
204.317	-20.65
204.536	91.99
204.755	110.42
204.974	48.98
205.193	22.36
205.411	77.65
205.63	-20.65
205.849	110.42
206.068	22.36
206.287	18.26
206.505	-16.55
206.724	51.03
206.943	-43.18
207.162	51.03
207.381	-2.22
207.599	59.22
207.818	-49.32
208.037	26.45
208.255	18.26
208.474	30.55
208.693	38.74
208.911	83.8
209.13	85.84
209.349	38.74
209.567	26.45
209.786	28.5
210.005	42.84
210.223	-6.31
210.442	-45.23
210.661	18.26
210.879	22.36
211.098	112.47
211.316	-4.27
211.535	53.08
211.753	38.74
211.972	-39.08
212.191	12.12
212.409	65.36
212.628	18.26
212.846	3.93
213.065	30.55
213.283	104.28
213.502	48.98
213.72	57.17
213.938	-18.6
214.157	-20.65
214.375	36.69
214.594	18.26
214.812	89.94
215.031	61.27
215.249	38.74
215.467	38.74
215.686	-34.99
215.904	10.07
216.122	30.55
216.341	55.12
216.559	51.03
216.778	79.7
216.996	63.32
217.214	71.51
217.432	34.64
217.651	36.69
217.869	-6.31
218.087	53.08
218.306	-26.79
218.524	-26.79
218.742	-6.31
218.96	-6.31
219.179	14.17
219.397	61.27
219.615	126.8
219.833	-8.36
220.051	55.12
220.27	59.22
220.488	34.64
220.706	36.69
220.924	-30.89
221.142	22.36
221.36	20.31
221.578	36.69
221.796	12.12
222.015	20.31
222.233	-16.55
222.451	44.88
222.669	14.17
222.887	28.5
223.105	30.55
223.323	12.12
223.541	34.64
223.759	126.8
223.977	20.31
224.195	18.26
224.413	59.22
224.631	-2.22
224.849	30.55
225.067	18.26
225.285	16.21
225.503	-53.42
225.721	-49.32
225.939	10.07
226.157	10.07
226.375	108.37
226.592	75.6
226.81	36.69
227.028	5.97
227.246	61.27
227.464	51.03
227.682	65.36
227.9	28.5
228.117	67.41
228.335	-20.65
228.553	26.45
228.771	3.93
228.989	30.55
229.206	42.84
229.424	16.21
229.642	12.12
229.86	-43.18
230.077	-57.51
230.295	28.5
230.513	104.28
230.731	38.74
230.948	34.64
231.166	87.89
231.384	-26.79
231.601	3.93
231.819	63.32
232.037	12.12
232.254	-14.51
232.472	-39.08
232.689	38.74
232.907	89.94
233.125	73.56
233.342	53.08
233.56	-14.51
233.777	18.26
233.995	42.84
234.213	61.27
234.43	63.32
234.648	75.6
234.865	79.7
235.083	22.36
235.3	57.17
235.518	57.17
235.735	83.8
235.953	46.93
236.17	28.5
236.388	20.31
236.605	-22.7
236.822	59.22
237.04	-2.22
237.257	104.28
237.475	59.22
237.692	28.5
237.909	22.36
238.127	14.17
238.344	18.26
238.562	3.93
238.779	-37.03
238.996	10.07
239.214	91.99
239.431	63.32
239.648	87.89
239.865	75.6
240.083	51.03
240.3	-10.41
240.517	59.22
240.735	71.51
240.952	59.22
241.169	55.12
241.386	-20.65
241.603	-6.31
241.821	53.08
242.038	89.94
242.255	-6.31
242.472	32.6
242.689	30.55
242.907	108.37
243.124	46.93
243.341	34.64
243.558	-2.22
243.775	20.31
243.992	-28.84
244.209	8.02
244.426	61.27
244.643	75.6
244.86	34.64
245.078	26.45
245.295	73.56
245.512	24.4
245.729	-51.37
245.946	34.64
246.163	16.21
246.38	-6.31
246.597	5.97
246.814	67.41
247.031	128.85
247.248	53.08
247.464	10.07
247.681	-39.08
247.898	53.08
248.115	24.4
248.332	3.93
248.549	-2.22
248.766	79.7
248.983	102.23
249.2	79.7
249.417	-37.03
249.633	-30.89
249.85	91.99
250.067	32.6
250.284	59.22
250.501	5.97
250.717	102.23
250.934	40.79
251.151	-14.51
251.368	-18.6
251.585	130.9
251.801	34.64
252.018	44.88
252.235	42.84
252.451	-22.7
252.668	44.88
252.885	71.51
253.102	75.6
253.318	53.08
253.535	1.88
253.752	-22.7
253.968	-22.7
254.185	-26.79
254.401	53.08
254.618	51.03
254.835	3.93
255.051	67.41
255.268	57.17
255.484	128.85
255.701	26.45
255.917	61.27
256.134	-67.75
256.351	128.85
256.567	-16.55
256.784	-12.46
257	-26.79
257.217	46.93
257.433	38.74
257.65	75.6
257.866	30.55
258.082	71.51
258.299	22.36
258.515	67.41
258.732	112.47
258.948	26.45
259.165	40.79
259.381	59.22
259.597	102.23
259.814	36.69
260.03	-57.51
260.246	26.45
260.463	-6.31
260.679	87.89
260.895	-30.89
261.112	10.07
261.328	14.17
261.544	-10.41
261.761	73.56
261.977	75.6
262.193	1.88
262.409	85.84
262.626	26.45
262.842	14.17
263.058	22.36
263.274	30.55
263.49	-22.7
263.707	1.88
263.923	55.12
264.139	-94.38
264.355	-28.84
264.571	-8.36
264.787	69.46
265.004	34.64
265.22	-37.03
265.436	-6.31
265.652	18.26
265.868	18.26
266.084	-0.17
266.3	26.45
266.516	-28.84
266.732	55.12
266.948	18.26
267.164	65.36
267.38	53.08
267.596	71.51
267.812	87.89
268.028	53.08
268.244	-10.41
268.46	-6.31
268.676	30.55
268.892	44.88
269.108	67.41
269.324	71.51
269.54	14.17
269.756	26.45
269.972	22.36
270.188	22.36
270.403	34.64
270.619	71.51
270.835	42.84
271.051	57.17
271.267	75.6
271.483	22.36
271.698	-0.17
271.914	51.03
272.13	30.55
272.346	18.26
272.562	79.7
272.777	44.88
272.993	30.55
273.209	28.5
273.425	-0.17
273.64	75.6
273.856	51.03
274.072	55.12
274.287	-16.55
274.503	46.93
274.719	-39.08
274.934	34.64
275.15	-2.22
275.366	-34.99
275.581	26.45
275.797	44.88
276.012	-28.84
276.228	26.45
276.444	46.93
276.659	53.08
276.875	5.97
277.09	-22.7
277.306	-14.51
277.521	59.22
277.737	26.45
277.952	110.42
278.168	61.27
278.383	67.41
278.599	-39.08
278.814	10.07
279.03	53.08
279.245	69.46
279.461	116.56
279.676	83.8
279.892	42.84
280.107	79.7
280.322	-26.79
280.538	51.03
280.753	-12.46
280.969	71.51
281.184	-4.27
281.399	141.14
281.615	20.31
281.83	-45.23
282.045	22.36
282.26	18.26
282.476	20.31
282.691	-6.31
282.906	51.03
283.122	28.5
283.337	-39.08
283.552	34.64
283.767	1.88
283.983	51.03
284.198	46.93
284.413	65.36
284.628	30.55
284.843	-22.7
285.058	-4.27
285.274	75.6
285.489	-63.66
285.704	106.32
285.919	30.55
286.134	34.64
286.349	-45.23
286.564	69.46
286.779	38.74
286.995	69.46
287.21	36.69
287.425	108.37
287.64	-6.31
287.855	36.69
288.07	-39.08
288.285	26.45
288.5	77.65
288.715	28.5
288.93	1.88
289.145	26.45
289.36	59.22
289.575	3.93
289.79	48.98
290.004	20.31
290.219	48.98
290.434	26.45
290.649	-61.61
290.864	8.02
291.079	63.32
291.294	18.26
291.509	98.13
291.724	44.88
291.938	67.41
292.153	48.98
292.368	14.17
292.583	-2.22
292.798	44.88
293.012	22.36
293.227	42.84
293.442	32.6
293.657	53.08
293.871	26.45
294.086	57.17
294.301	75.6
294.516	34.64
294.73	63.32
294.945	71.51
295.16	18.26
295.374	38.74
295.589	73.56
295.804	32.6
296.018	36.69
296.233	3.93
296.447	42.84
296.662	122.71
296.877	32.6
297.091	102.23
297.306	30.55
297.52	30.55
297.735	63.32
297.949	75.6
298.164	34.64
298.378	36.69
298.593	-37.03
298.807	-14.51
299.022	46.93
299.236	91.99
299.451	59.22
299.665	-43.18
299.88	-2.22
300.094	48.98
300.309	28.5
300.523	38.74
300.737	18.26
300.952	10.07
301.166	42.84
301.381	91.99
301.595	44.88
301.809	-14.51
302.024	67.41
302.238	53.08
302.452	30.55
302.667	10.07
302.881	126.8
303.095	10.07
303.309	53.08
303.524	30.55
303.738	-4.27
303.952	40.79
304.166	108.37
304.381	-14.51
304.595	12.12
304.809	34.64
305.023	94.04
305.237	28.5
305.452	46.93
305.666	26.45
305.88	34.64
306.094	20.31
306.308	77.65
306.522	-26.79
306.736	10.07
306.95	-20.65
307.164	18.26
307.379	91.99
307.593	100.18
307.807	81.75
308.021	3.93
308.235	83.8
308.449	51.03
308.663	85.84
308.877	36.69
309.091	48.98
309.305	112.47
309.519	14.17
309.733	124.76
309.947	-32.94
310.161	67.41
310.374	12.12
310.588	61.27
310.802	48.98
311.016	73.56
311.23	1.88
311.444	38.74
311.658	34.64
311.872	36.69
312.085	22.36
312.299	59.22
312.513	18.26
312.727	1.88
312.941	10.07
313.154	71.51
313.368	18.26
313.582	61.27
313.796	-20.65
314.009	-2.22
314.223	12.12
314.437	-6.31
314.651	69.46
314.864	36.69
315.078	-32.94
315.292	71.51
315.505	53.08
315.719	44.88
315.933	22.36
316.146	-6.31
316.36	-2.22
316.573	26.45
316.787	14.17
317.001	20.31
317.214	26.45
317.428	34.64
317.641	16.21
317.855	28.5
318.068	38.74
318.282	-12.46
318.495	89.94
318.709	53.08
318.922	-75.95
319.136	67.41
319.349	46.93
319.563	67.41
319.776	91.99
319.99	26.45
320.203	18.26
320.417	108.37
320.63	57.17
320.843	44.88
321.057	126.8
321.27	-2.22
321.483	100.18
321.697	102.23
321.91	-6.31
322.124	34.64
322.337	5.97
322.55	63.32
322.763	51.03
322.977	-10.41
323.19	5.97
323.403	61.27
323.617	53.08
323.83	94.04
324.043	-10.41
324.256	36.69
324.469	26.45
324.683	89.94
324.896	-4.27
325.109	46.93
325.322	10.07
325.535	77.65
325.748	30.55
325.962	85.84
326.175	77.65
326.388	16.21
326.601	-0.17
326.814	67.41
327.027	108.37
327.24	32.6
327.453	53.08
327.666	116.56
327.879	143.19
328.092	132.95
328.305	40.79
328.518	5.97
328.731	18.26
328.944	61.27
329.157	30.55
329.37	55.12
329.583	65.36
329.796	59.22
330.009	-2.22
330.222	22.36
330.435	81.75
330.648	67.41
330.861	75.6
331.073	75.6
331.286	44.88
331.499	77.65
331.712	79.7
331.925	30.55
332.138	61.27
332.35	71.51
332.563	-2.22
332.776	75.6
332.989	-2.22
333.202	38.74
333.414	65.36
333.627	91.99
333.84	-12.46
334.053	42.84
334.265	94.04
334.478	34.64
334.691	26.45
334.903	10.07
335.116	22.36
335.329	34.64
335.541	20.31
335.754	149.33
335.966	59.22
336.179	85.84
336.392	42.84
336.604	46.93
336.817	10.07
337.029	57.17
337.242	20.31
337.454	77.65
337.667	38.74
337.88	106.32
338.092	26.45
338.305	51.03
338.517	-55.47
338.729	48.98
338.942	44.88
339.154	26.45
339.367	48.98
339.579	12.12
339.792	3.93
340.004	75.6
340.217	-14.51
340.429	40.79
340.641	108.37
340.854	51.03
341.066	5.97
341.278	83.8
341.491	110.42
341.703	116.56
341.915	-37.03
342.128	30.55
342.34	96.08
342.552	28.5
342.764	59.22
342.977	89.94
343.189	137.04
343.401	42.84
343.613	55.12
343.826	83.8
344.038	3.93
344.25	100.18
344.462	71.51
344.674	63.32
344.886	22.36
345.099	36.69
345.311	69.46
345.523	42.84
345.735	-20.65
345.947	51.03
346.159	61.27
346.371	-28.84
346.583	-14.51
346.795	55.12
347.007	63.32
347.219	40.79
347.431	51.03
347.643	59.22
347.855	12.12
348.067	118.61
348.279	12.12
348.491	145.24
348.703	71.51
348.915	91.99
349.127	59.22
349.339	63.32
349.551	67.41
349.763	67.41
349.975	10.07
350.187	63.32
350.399	-2.22
350.61	112.47
350.822	55.12
351.034	59.22
351.246	26.45
351.458	83.8
351.669	67.41
351.881	59.22
352.093	5.97
352.305	24.4
352.517	85.84
352.728	59.22
352.94	89.94
353.152	73.56
353.363	-51.37
353.575	69.46
353.787	85.84
353.999	42.84
354.21	71.51
354.422	1.88
354.633	-12.46
354.845	-14.51
355.057	61.27
355.268	42.84
355.48	26.45
355.692	89.94
355.903	100.18
356.115	40.79
356.326	-6.31
356.538	112.47
356.749	28.5
356.961	61.27
357.172	67.41
357.384	51.03
357.595	48.98
357.807	104.28
358.018	-14.51
358.23	-10.41
358.441	91.99
358.653	108.37
358.864	-6.31
359.075	36.69
359.287	51.03
359.498	75.6
359.709	51.03
359.921	65.36
360.132	18.26
360.344	83.8
360.555	20.31
360.766	1.88
360.977	14.17
361.189	44.88
361.4	32.6
361.611	96.08
361.823	87.89
362.034	-10.41
362.245	22.36
362.456	-4.27
362.667	69.46
362.879	30.55
363.09	61.27
363.301	26.45
363.512	69.46
363.723	-6.31
363.935	30.55
364.146	67.41
364.357	96.08
364.568	-2.22
364.779	3.93
364.99	53.08
365.201	44.88
365.412	10.07
365.623	20.31
365.834	44.88
366.045	12.12
366.256	36.69
366.467	94.04
366.678	75.6
366.889	3.93
367.1	26.45
367.311	51.03
367.522	1.88
367.733	20.31
367.944	51.03
368.155	48.98
368.366	28.5
368.577	114.52
368.788	36.69
368.999	5.97
369.209	1.88
369.42	61.27
369.631	-37.03
369.842	59.22
370.053	53.08
370.264	34.64
370.474	91.99
370.685	126.8
370.896	-26.79
371.107	85.84
371.317	42.84
371.528	120.66
371.739	48.98
371.95	24.4
372.16	69.46
372.371	1.88
372.582	-0.17
372.792	10.07
373.003	114.52
373.214	73.56
373.424	-16.55
373.635	44.88
373.846	38.74
374.056	53.08
374.267	126.8
374.477	67.41
374.688	69.46
374.898	57.17
375.109	28.5
375.319	-30.89
375.53	139.09
375.74	83.8
375.951	18.26
376.161	38.74
376.372	26.45
376.582	30.55
376.793	81.75
377.003	-20.65
377.214	20.31
377.424	5.97
377.635	-22.7
377.845	40.79
378.055	14.17
378.266	38.74
378.476	69.46
378.686	55.12
378.897	20.31
379.107	44.88
379.317	18.26
379.528	100.18
379.738	18.26
379.948	42.84
380.158	67.41
380.369	51.03
380.579	10.07
380.789	-14.51
380.999	124.76
381.21	100.18
381.42	67.41
381.63	100.18
381.84	65.36
382.05	126.8
382.261	104.28
382.471	5.97
382.681	59.22
382.891	126.8
383.101	24.4
383.311	63.32
383.521	-24.75
383.731	69.46
383.941	26.45
384.151	112.47
384.361	120.66
384.571	83.8
384.781	53.08
384.991	61.27
385.201	100.18
385.411	116.56
385.621	34.64
385.831	5.97
386.041	71.51
386.251	-28.84
386.461	104.28
386.671	51.03
386.881	51.03
387.091	22.36
387.301	124.76
387.511	48.98
387.72	83.8
387.93	85.84
388.14	51.03
388.35	5.97
388.56	42.84
388.769	87.89
388.979	83.8
389.189	69.46
389.399	126.8
389.609	-0.17
389.818	44.88
390.028	18.26
390.238	67.41
390.447	75.6
390.657	34.64
390.867	71.51
391.076	32.6
391.286	-4.27
391.496	116.56
391.705	75.6
391.915	102.23
392.125	51.03
392.334	22.36
392.544	116.56
392.753	79.7
392.963	36.69
393.172	61.27
393.382	8.02
393.591	81.75
393.801	51.03
394.01	126.8
394.22	100.18
394.429	81.75
394.639	24.4
394.848	77.65
395.058	55.12
395.267	26.45
395.477	98.13
395.686	118.61
395.895	137.04
396.105	124.76
396.314	32.6
396.524	69.46
396.733	69.46
396.942	165.71
397.152	67.41
397.361	59.22
397.57	85.84
397.78	96.08
397.989	42.84
398.198	130.9
398.407	96.08
398.617	63.32
398.826	98.13
399.035	83.8
399.244	71.51
399.453	112.47
399.663	73.56
399.872	77.65
400.081	100.18
400.29	28.5
400.499	20.31
400.708	137.04
400.917	112.47
401.127	96.08
401.336	102.23
401.545	124.76
401.754	83.8
401.963	135
402.172	69.46
402.381	128.85
402.59	63.32
402.799	137.04
403.008	69.46
403.217	79.7
403.426	184.15
403.635	94.04
403.844	149.33
404.053	100.18
404.262	149.33
404.471	108.37
404.68	114.52
404.888	161.62
405.097	173.91
405.306	141.14
405.515	91.99
405.724	169.81
405.933	126.8
406.142	155.47
406.35	67.41
406.559	225.11
406.768	165.71
406.977	218.96
407.185	165.71
407.394	157.52
407.603	141.14
407.812	223.06
408.02	227.15
408.229	239.44
408.438	137.04
408.646	178
408.855	186.19
409.064	184.15
409.272	169.81
409.481	325.46
409.69	243.54
409.898	296.78
410.107	212.82
410.315	292.69
410.524	266.07
410.733	317.26
410.941	300.88
411.15	366.42
411.358	282.45
411.567	364.37
411.775	276.31
411.984	341.84
412.192	407.38
412.401	458.57
412.609	425.81
412.818	528.21
413.026	347.98
413.234	380.75
413.443	464.72
413.651	436.05
413.86	446.29
414.068	497.49
414.276	526.16
414.485	470.86
414.693	520.01
414.901	577.36
415.11	624.46
415.318	583.5
415.526	593.74
415.734	624.46
415.943	689.99
416.151	689.99
416.359	644.94
416.567	689.99
416.776	749.39
416.984	730.95
417.192	890.7
417.4	788.3
417.608	718.67
417.817	796.49
418.025	851.78
418.233	931.66
418.441	945.99
418.649	1013.57
418.857	1025.86
419.065	1118.02
419.273	1013.57
419.481	1083.2
419.689	1216.32
419.897	1220.42
420.105	1154.88
420.313	1304.39
420.521	1283.91
420.729	1302.34
420.937	1417.02
421.145	1406.78
421.353	1562.43
421.561	1541.95
421.769	1648.44
421.977	1713.98
422.185	1627.96
422.393	1808.19
422.601	1912.63
422.809	1888.06
423.017	1886.01
423.224	1873.72
423.432	1978.17
423.64	2002.74
423.848	2221.88
424.056	2131.76
424.263	2344.75
424.471	2250.55
424.679	2469.68
424.887	2463.54
425.094	2567.98
425.302	2682.67
425.51	2674.48
425.718	2844.46
425.925	2836.27
426.133	2856.75
426.341	3196.71
426.548	3163.94
426.756	3233.57
426.964	3176.23
427.171	3421.99
427.379	3483.42
427.586	3634.97
427.794	3563.29
428.001	3884.83
428.209	3962.65
428.417	4030.23
428.624	4081.43
428.832	4245.27
429.039	4237.08
429.247	4142.87
429.454	4710.16
429.662	4921.1
429.869	4642.57
430.076	4818.7
430.284	4744.97
430.491	4966.15
430.699	5207.81
430.906	5322.5
431.114	5361.41
431.321	5590.78
431.528	5478.15
431.736	6035.19
431.943	6276.85
432.15	6113.02
432.358	6070.01
432.565	6412.02
432.772	6524.66
432.979	6751.98
433.187	6893.29
433.394	7003.88
433.601	7194.34
433.808	7296.74
434.016	7460.58
434.223	7653.09
434.43	8230.62
434.637	7870.17
434.844	8652.5
435.052	8703.7
435.259	8744.66
435.466	8668.88
435.673	8552.15
435.88	9078.47
436.087	9434.82
436.294	9533.12
436.501	9373.38
436.708	9615.04
436.915	9897.66
437.122	10397.37
437.329	10161.85
437.537	10544.82
437.743	10659.51
437.95	10800.82
438.157	11294.38
438.364	11499.17
438.571	11548.33
438.778	11779.75
438.985	12744.34
439.192	12056.22
439.399	12660.37
439.606	12445.34
439.813	13088.4
440.02	13876.87
440.227	13575.81
440.433	13354.63
440.64	13782.66
440.847	13893.25
441.054	14225.02
441.261	15058.54
441.467	14892.66
441.674	14980.72
441.881	15767.14
442.088	15607.4
442.294	15498.86
442.501	16004.71
442.708	16303.71
442.914	16713.3
443.121	17387.08
443.328	17077.84
443.534	18257.47
443.741	17919.56
443.948	17638.98
444.154	19062.32
444.361	18488.89
444.568	18837.05
444.774	18720.31
444.981	19025.46
445.187	19822.12
445.394	20270.62
445.6	20170.27
445.807	22152.71
446.013	21108.24
446.22	21431.82
446.426	22015.49
446.633	22375.94
446.839	23084.53
447.046	22242.82
447.252	23270.9
447.459	23496.17
447.665	23348.72
447.871	24458.72
448.078	26004.94
448.284	24180.2
448.491	25079.25
448.697	26222.02
448.903	26465.73
449.11	26645.95
449.316	25880.01
449.522	26768.83
449.728	27200.95
449.935	27403.7
450.141	27334.07
450.347	28013.99
450.553	27237.81
450.76	27387.32
450.966	28745.12
451.172	28065.19
451.378	28695.97
451.584	28523.94
451.791	28992.92
451.997	29072.79
452.203	29353.37
452.409	29431.19
452.615	29490.58
452.821	27983.27
453.027	27907.5
453.233	29564.31
453.44	28190.12
453.646	28771.74
453.852	28898.72
454.058	29326.74
454.264	27985.32
454.47	29062.55
454.676	28450.21
454.882	29611.41
455.088	26756.54
455.294	27553.2
455.5	27764.14
455.705	27960.75
455.911	26738.11
456.117	26521.02
456.323	25949.64
456.529	24626.65
456.735	25744.84
456.941	25230.8
457.147	24884.7
457.352	24202.72
457.558	23592.43
457.764	23803.37
457.97	23420.4
458.176	22728.19
458.381	23285.23
458.587	21599.76
458.793	21995.01
458.999	20899.35
459.204	22169.09
459.41	21743.11
459.616	20123.17
459.821	20061.73
460.027	20125.22
460.233	19459.63
460.438	18800.18
460.644	18910.77
460.85	18005.57
461.055	17849.92
461.261	17788.49
461.466	16600.66
461.672	15910.5
461.878	17251.92
462.083	15832.68
462.289	15427.18
462.494	15332.97
462.7	14642.81
462.905	14634.61
463.111	14919.28
463.316	14794.36
463.522	14532.22
463.727	14331.51
463.932	14386.81
464.138	14323.32
464.343	14290.56
464.549	14083.71
464.754	14696.05
464.959	14304.89
465.165	14296.7
465.37	13835.91
465.575	13274.76
465.781	13782.66
465.986	13776.52
466.191	13325.96
466.397	13100.69
466.602	12557.97
466.807	12797.59
467.012	12906.13
467.218	12793.49
467.423	12478.1
467.628	12592.79
