Data from USB4F104151__47__14-16-49-125.txt Node

Date: Thu Mar 13 14:16:49 EDT 2025
User: louis
Spectrometer: USB4F10415
Trigger mode: 4
Integration Time (sec): 2.000000E-2
Scans to average: 1
Electric dark correction enabled: true
Nonlinearity correction enabled: false
Boxcar width: 0
XAxis mode: Wavelengths
Number of Pixels in Spectrum: 3648
>>>>>Begin Spectral Data<<<<<
178.204	-82.77
178.424	-82.77
178.644	-82.77
178.864	-103.25
179.084	-101.2
179.304	36.01
179.524	9.39
179.744	31.91
179.964	68.78
180.184	-70.48
180.404	11.43
180.624	-43.86
180.844	40.11
181.064	-31.57
181.283	-43.86
181.503	-43.86
181.723	36.01
181.943	15.53
182.163	76.97
182.383	40.11
182.602	38.06
182.822	48.3
183.042	40.11
183.262	-17.24
183.482	87.21
183.701	76.97
183.921	60.59
184.141	7.34
184.361	103.59
184.58	27.82
184.8	56.49
185.02	-19.29
185.239	46.25
185.459	74.92
185.679	119.98
185.898	-33.62
186.118	99.5
186.338	76.97
186.557	150.7
186.777	-27.48
186.997	68.78
187.216	-37.72
187.436	83.11
187.655	25.77
187.875	56.49
188.095	27.82
188.314	70.83
188.534	93.35
188.753	76.97
188.973	3.24
189.192	-35.67
189.412	46.25
189.631	44.2
189.851	60.59
190.07	19.63
190.29	85.16
190.509	11.43
190.729	60.59
190.948	81.07
191.168	105.64
191.387	64.68
191.607	23.72
191.826	81.07
192.045	-2.9
192.265	62.63
192.484	60.59
192.704	-17.24
192.923	-2.9
193.142	97.45
193.362	19.63
193.581	64.68
193.8	115.88
194.02	60.59
194.239	126.12
194.458	42.15
194.678	46.25
194.897	58.54
195.116	44.2
195.335	9.39
195.555	81.07
195.774	68.78
195.993	79.02
196.212	21.67
196.432	11.43
196.651	36.01
196.87	-11.09
197.089	117.93
197.308	99.5
197.528	91.31
197.747	21.67
197.966	27.82
198.185	93.35
198.404	-9.05
198.623	5.29
198.842	152.74
199.062	48.3
199.281	11.43
199.5	-9.05
199.719	85.16
199.938	38.06
200.157	117.93
200.376	40.11
200.595	76.97
200.814	60.59
201.033	76.97
201.252	-11.09
201.471	36.01
201.69	81.07
201.909	-0.85
202.128	44.2
202.347	38.06
202.566	-47.96
202.785	48.3
203.004	93.35
203.223	40.11
203.442	64.68
203.661	23.72
203.879	27.82
204.098	76.97
204.317	68.78
204.536	33.96
204.755	44.2
204.974	52.39
205.193	27.82
205.411	119.98
205.63	66.73
205.849	83.11
206.068	27.82
206.287	-13.14
206.505	83.11
206.724	60.59
206.943	29.87
207.162	42.15
207.381	72.87
207.599	27.82
207.818	44.2
208.037	85.16
208.255	19.63
208.474	76.97
208.693	44.2
208.911	44.2
209.13	27.82
209.349	56.49
209.567	93.35
209.786	101.55
210.005	95.4
210.223	50.35
210.442	40.11
210.661	9.39
210.879	113.83
211.098	21.67
211.316	46.25
211.535	89.26
211.753	-0.85
211.972	27.82
212.191	60.59
212.409	-9.05
212.628	81.07
212.846	19.63
213.065	9.39
213.283	93.35
213.502	17.58
213.72	99.5
213.938	54.44
214.157	27.82
214.375	93.35
214.594	-21.33
214.812	40.11
215.031	33.96
215.249	62.63
215.467	93.35
215.686	44.2
215.904	27.82
216.122	97.45
216.341	85.16
216.559	44.2
216.778	126.12
216.996	60.59
217.214	38.06
217.432	-70.48
217.651	11.43
217.869	-13.14
218.087	70.83
218.306	91.31
218.524	31.91
218.742	101.55
218.96	101.55
219.179	64.68
219.397	7.34
219.615	74.92
219.833	33.96
220.051	36.01
220.27	38.06
220.488	52.39
220.706	15.53
220.924	9.39
221.142	105.64
221.36	-0.85
221.578	87.21
221.796	62.63
222.015	5.29
222.233	13.48
222.451	27.82
222.669	-15.19
222.887	87.21
223.105	46.25
223.323	93.35
223.541	13.48
223.759	27.82
223.977	5.29
224.195	136.36
224.413	79.02
224.631	103.59
224.849	46.25
225.067	105.64
225.285	46.25
225.503	44.2
225.721	54.44
225.939	76.97
226.157	76.97
226.375	64.68
226.592	11.43
226.81	62.63
227.028	52.39
227.246	62.63
227.464	52.39
227.682	52.39
227.9	23.72
228.117	3.24
228.335	72.87
228.553	44.2
228.771	27.82
228.989	85.16
229.206	79.02
229.424	62.63
229.642	33.96
229.86	66.73
230.077	95.4
230.295	85.16
230.513	95.4
230.731	60.59
230.948	126.12
231.166	111.78
231.384	11.43
231.601	93.35
231.819	144.55
232.037	70.83
232.254	93.35
232.472	21.67
232.689	70.83
232.907	72.87
233.125	76.97
233.342	15.53
233.56	36.01
233.777	36.01
233.995	76.97
234.213	91.31
234.43	58.54
234.648	58.54
234.865	58.54
235.083	52.39
235.3	72.87
235.518	44.2
235.735	64.68
235.953	44.2
236.17	-23.38
236.388	19.63
236.605	68.78
236.822	23.72
237.04	105.64
237.257	36.01
237.475	64.68
237.692	5.29
237.909	76.97
238.127	31.91
238.344	81.07
238.562	126.12
238.779	-45.91
238.996	38.06
239.214	9.39
239.431	42.15
239.648	29.87
239.865	136.36
240.083	93.35
240.3	76.97
240.517	101.55
240.735	66.73
240.952	68.78
241.169	31.91
241.386	87.21
241.603	64.68
241.821	19.63
242.038	117.93
242.255	23.72
242.472	-0.85
242.689	85.16
242.907	87.21
243.124	101.55
243.341	15.53
243.558	60.59
243.775	-17.24
243.992	21.67
244.209	5.29
244.426	150.7
244.643	79.02
244.86	36.01
245.078	134.31
245.295	122.02
245.512	68.78
245.729	-7
245.946	52.39
246.163	105.64
246.38	5.29
246.597	11.43
246.814	29.87
247.031	56.49
247.248	85.16
247.464	105.64
247.681	134.31
247.898	11.43
248.115	70.83
248.332	68.78
248.549	107.69
248.766	122.02
248.983	62.63
249.2	44.2
249.417	-2.9
249.633	9.39
249.85	-13.14
250.067	60.59
250.284	72.87
250.501	7.34
250.717	126.12
250.934	-33.62
251.151	79.02
251.368	11.43
251.585	-13.14
251.801	33.96
252.018	36.01
252.235	93.35
252.451	23.72
252.668	81.07
252.885	48.3
253.102	36.01
253.318	7.34
253.535	15.53
253.752	-23.38
253.968	7.34
254.185	3.24
254.401	62.63
254.618	27.82
254.835	-2.9
255.051	40.11
255.268	11.43
255.484	101.55
255.701	-0.85
255.917	68.78
256.134	-19.29
256.351	62.63
256.567	-0.85
256.784	52.39
257	-39.76
257.217	85.16
257.433	68.78
257.65	46.25
257.866	-21.33
258.082	52.39
258.299	-62.29
258.515	138.41
258.732	25.77
258.948	36.01
259.165	7.34
259.381	13.48
259.597	38.06
259.814	70.83
260.03	48.3
260.246	44.2
260.463	138.41
260.679	70.83
260.895	31.91
261.112	27.82
261.328	38.06
261.544	60.59
261.761	56.49
261.977	70.83
262.193	7.34
262.409	19.63
262.626	70.83
262.842	103.59
263.058	-21.33
263.274	56.49
263.49	62.63
263.707	54.44
263.923	93.35
264.139	-31.57
264.355	21.67
264.571	76.97
264.787	3.24
265.004	140.46
265.22	66.73
265.436	64.68
265.652	15.53
265.868	81.07
266.084	-13.14
266.3	13.48
266.516	29.87
266.732	46.25
266.948	46.25
267.164	50.35
267.38	52.39
267.596	60.59
267.812	117.93
268.028	150.7
268.244	27.82
268.46	68.78
268.676	38.06
268.892	119.98
269.108	3.24
269.324	36.01
269.54	31.91
269.756	60.59
269.972	27.82
270.188	79.02
270.403	-45.91
270.619	54.44
270.835	128.17
271.051	109.74
271.267	76.97
271.483	15.53
271.698	-17.24
271.914	7.34
272.13	72.87
272.346	76.97
272.562	50.35
272.777	31.91
272.993	19.63
273.209	68.78
273.425	29.87
273.64	19.63
273.856	91.31
274.072	11.43
274.287	113.83
274.503	3.24
274.719	-31.57
274.934	79.02
275.15	7.34
275.366	38.06
275.581	111.78
275.797	-60.24
276.012	-52.05
276.228	93.35
276.444	13.48
276.659	81.07
276.875	-25.43
277.09	122.02
277.306	85.16
277.521	89.26
277.737	52.39
277.952	150.7
278.168	46.25
278.383	36.01
278.599	68.78
278.814	3.24
279.03	33.96
279.245	136.36
279.461	64.68
279.676	97.45
279.892	15.53
280.107	13.48
280.322	-54.1
280.538	122.02
280.753	130.22
280.969	93.35
281.184	48.3
281.399	33.96
281.615	64.68
281.83	134.31
282.045	17.58
282.26	11.43
282.476	87.21
282.691	101.55
282.906	19.63
283.122	27.82
283.337	-11.09
283.552	19.63
283.767	27.82
283.983	79.02
284.198	87.21
284.413	36.01
284.628	-19.29
284.843	70.83
285.058	152.74
285.274	-33.62
285.489	11.43
285.704	52.39
285.919	36.01
286.134	99.5
286.349	56.49
286.564	85.16
286.779	19.63
286.995	70.83
287.21	21.67
287.425	52.39
287.64	-43.86
287.855	81.07
288.07	46.25
288.285	68.78
288.5	33.96
288.715	142.5
288.93	126.12
289.145	19.63
289.36	60.59
289.575	-7
289.79	111.78
290.004	19.63
290.219	19.63
290.434	66.73
290.649	60.59
290.864	66.73
291.079	-35.67
291.294	70.83
291.509	46.25
291.724	3.24
291.938	36.01
292.153	76.97
292.368	5.29
292.583	36.01
292.798	54.44
293.012	76.97
293.227	60.59
293.442	15.53
293.657	58.54
293.871	60.59
294.086	31.91
294.301	68.78
294.516	62.63
294.73	36.01
294.945	40.11
295.16	-4.95
295.374	119.98
295.589	95.4
295.804	33.96
296.018	3.24
296.233	66.73
296.447	-4.95
296.662	91.31
296.877	99.5
297.091	87.21
297.306	107.69
297.52	5.29
297.735	52.39
297.949	54.44
298.164	15.53
298.378	52.39
298.593	42.15
298.807	19.63
299.022	79.02
299.236	66.73
299.451	64.68
299.665	5.29
299.88	11.43
300.094	87.21
300.309	36.01
300.523	68.78
300.737	21.67
300.952	79.02
301.166	72.87
301.381	85.16
301.595	-0.85
301.809	-21.33
302.024	36.01
302.238	64.68
302.452	87.21
302.667	101.55
302.881	60.59
303.095	83.11
303.309	60.59
303.524	68.78
303.738	79.02
303.952	-11.09
304.166	44.2
304.381	13.48
304.595	60.59
304.809	31.91
305.023	60.59
305.237	27.82
305.452	124.07
305.666	158.89
305.88	79.02
306.094	50.35
306.308	62.63
306.522	29.87
306.736	36.01
306.95	46.25
307.164	74.92
307.379	11.43
307.593	150.7
307.807	101.55
308.021	33.96
308.235	46.25
308.449	25.77
308.663	93.35
308.877	111.78
309.091	52.39
309.305	31.91
309.519	38.06
309.733	62.63
309.947	58.54
310.161	85.16
310.374	19.63
310.588	3.24
310.802	74.92
311.016	81.07
311.23	74.92
311.444	40.11
311.658	72.87
311.872	74.92
312.085	33.96
312.299	132.26
312.513	162.98
312.727	48.3
312.941	36.01
313.154	97.45
313.368	29.87
313.582	11.43
313.796	36.01
314.009	44.2
314.223	74.92
314.437	36.01
314.651	19.63
314.864	29.87
315.078	36.01
315.292	76.97
315.505	50.35
315.719	44.2
315.933	68.78
316.146	38.06
316.36	19.63
316.573	115.88
316.787	44.2
317.001	-7
317.214	40.11
317.428	-27.48
317.641	117.93
317.855	64.68
318.068	76.97
318.282	21.67
318.495	85.16
318.709	97.45
318.922	-27.48
319.136	83.11
319.349	113.83
319.563	64.68
319.776	93.35
319.99	76.97
320.203	21.67
320.417	38.06
320.63	21.67
320.843	70.83
321.057	83.11
321.27	103.59
321.483	54.44
321.697	54.44
321.91	21.67
322.124	91.31
322.337	48.3
322.55	36.01
322.763	5.29
322.977	46.25
323.19	68.78
323.403	74.92
323.617	113.83
323.83	103.59
324.043	27.82
324.256	36.01
324.469	97.45
324.683	158.89
324.896	27.82
325.109	76.97
325.322	-9.05
325.535	99.5
325.748	76.97
325.962	29.87
326.175	17.58
326.388	101.55
326.601	72.87
326.814	5.29
327.027	31.91
327.24	97.45
327.453	-21.33
327.666	122.02
327.879	56.49
328.092	62.63
328.305	83.11
328.518	9.39
328.731	36.01
328.944	44.2
329.157	38.06
329.37	17.58
329.583	56.49
329.796	85.16
330.009	109.74
330.222	124.07
330.435	99.5
330.648	93.35
330.861	48.3
331.073	25.77
331.286	25.77
331.499	156.84
331.712	93.35
331.925	29.87
332.138	36.01
332.35	136.36
332.563	56.49
332.776	60.59
332.989	54.44
333.202	117.93
333.414	36.01
333.627	68.78
333.84	-15.19
334.053	38.06
334.265	99.5
334.478	64.68
334.691	52.39
334.903	85.16
335.116	60.59
335.329	21.67
335.541	42.15
335.754	83.11
335.966	52.39
336.179	3.24
336.392	76.97
336.604	64.68
336.817	68.78
337.029	119.98
337.242	66.73
337.454	72.87
337.667	60.59
337.88	122.02
338.092	140.46
338.305	79.02
338.517	62.63
338.729	81.07
338.942	72.87
339.154	79.02
339.367	36.01
339.579	130.22
339.792	101.55
340.004	115.88
340.217	33.96
340.429	44.2
340.641	27.82
340.854	27.82
341.066	85.16
341.278	5.29
341.491	142.5
341.703	68.78
341.915	44.2
342.128	89.26
342.34	31.91
342.552	107.69
342.764	68.78
342.977	62.63
343.189	152.74
343.401	27.82
343.613	42.15
343.826	74.92
344.038	3.24
344.25	52.39
344.462	72.87
344.674	27.82
344.886	130.22
345.099	117.93
345.311	68.78
345.523	52.39
345.735	60.59
345.947	132.26
346.159	13.48
346.371	-7
346.583	66.73
346.795	83.11
347.007	48.3
347.219	68.78
347.431	33.96
347.643	64.68
347.855	74.92
348.067	95.4
348.279	113.83
348.491	66.73
348.703	70.83
348.915	5.29
349.127	42.15
349.339	76.97
349.551	40.11
349.763	126.12
349.975	56.49
350.187	105.64
350.399	87.21
350.61	21.67
350.822	70.83
351.034	64.68
351.246	36.01
351.458	-4.95
351.669	115.88
351.881	95.4
352.093	128.17
352.305	83.11
352.517	38.06
352.728	83.11
352.94	23.72
353.152	105.64
353.363	27.82
353.575	38.06
353.787	117.93
353.999	122.02
354.21	68.78
354.422	38.06
354.633	70.83
354.845	70.83
355.057	64.68
355.268	56.49
355.48	-19.29
355.692	85.16
355.903	11.43
356.115	54.44
356.326	83.11
356.538	111.78
356.749	83.11
356.961	99.5
357.172	36.01
357.384	-37.72
357.595	44.2
357.807	5.29
358.018	29.87
358.23	83.11
358.441	87.21
358.653	160.94
358.864	97.45
359.075	27.82
359.287	62.63
359.498	85.16
359.709	109.74
359.921	38.06
360.132	-15.19
360.344	93.35
360.555	1.19
360.766	36.01
360.977	54.44
361.189	142.5
361.4	-29.52
361.611	87.21
361.823	56.49
362.034	134.31
362.245	68.78
362.456	119.98
362.667	62.63
362.879	119.98
363.09	76.97
363.301	48.3
363.512	17.58
363.723	81.07
363.935	70.83
364.146	93.35
364.357	81.07
364.568	52.39
364.779	72.87
364.99	99.5
365.201	38.06
365.412	64.68
365.623	68.78
365.834	107.69
366.045	23.72
366.256	111.78
366.467	31.91
366.678	136.36
366.889	60.59
367.1	89.26
367.311	54.44
367.522	50.35
367.733	144.55
367.944	122.02
368.155	134.31
368.366	101.55
368.577	138.41
368.788	148.65
368.999	74.92
369.209	138.41
369.42	156.84
369.631	85.16
369.842	58.54
370.053	60.59
370.264	48.3
370.474	44.2
370.685	-7
370.896	85.16
371.107	50.35
371.317	134.31
371.528	36.01
371.739	109.74
371.95	64.68
372.16	81.07
372.371	27.82
372.582	44.2
372.792	68.78
373.003	62.63
373.214	87.21
373.424	95.4
373.635	56.49
373.846	111.78
374.056	60.59
374.267	70.83
374.477	142.5
374.688	124.07
374.898	50.35
375.109	85.16
375.319	56.49
375.53	146.6
375.74	79.02
375.951	31.91
376.161	95.4
376.372	93.35
376.582	17.58
376.793	134.31
377.003	85.16
377.214	117.93
377.424	3.24
377.635	68.78
377.845	76.97
378.055	85.16
378.266	1.19
378.476	109.74
378.686	64.68
378.897	105.64
379.107	58.54
379.317	21.67
379.528	101.55
379.738	136.36
379.948	-7
380.158	101.55
380.369	15.53
380.579	79.02
380.789	44.2
380.999	187.56
381.21	93.35
381.42	76.97
381.63	19.63
381.84	91.31
382.05	81.07
382.261	85.16
382.471	64.68
382.681	44.2
382.891	109.74
383.101	99.5
383.311	29.87
383.521	113.83
383.731	156.84
383.941	97.45
384.151	89.26
384.361	27.82
384.571	74.92
384.781	115.88
384.991	93.35
385.201	160.94
385.411	48.3
385.621	105.64
385.831	109.74
386.041	101.55
386.251	79.02
386.461	109.74
386.671	138.41
386.881	146.6
387.091	85.16
387.301	142.5
387.511	44.2
387.72	60.59
387.93	70.83
388.14	126.12
388.35	7.34
388.56	150.7
388.769	136.36
388.979	101.55
389.189	56.49
389.399	72.87
389.609	85.16
389.818	132.26
390.028	81.07
390.238	134.31
390.447	85.16
390.657	103.59
390.867	56.49
391.076	44.2
391.286	56.49
391.496	124.07
391.705	85.16
391.915	152.74
392.125	150.7
392.334	119.98
392.544	93.35
392.753	68.78
392.963	52.39
393.172	81.07
393.382	109.74
393.591	142.5
393.801	72.87
394.01	93.35
394.22	105.64
394.429	134.31
394.639	119.98
394.848	132.26
395.058	162.98
395.267	150.7
395.477	146.6
395.686	109.74
395.895	162.98
396.105	185.51
396.314	144.55
396.524	117.93
396.733	126.12
396.942	119.98
397.152	109.74
397.361	113.83
397.57	85.16
397.78	191.66
397.989	54.44
398.198	109.74
398.407	169.13
398.617	109.74
398.826	113.83
399.035	199.85
399.244	126.12
399.453	187.56
399.663	152.74
399.872	146.6
400.081	175.27
400.29	160.94
400.499	183.46
400.708	54.44
400.917	93.35
401.127	119.98
401.336	113.83
401.545	169.13
401.754	115.88
401.963	171.18
402.172	197.8
402.381	191.66
402.59	175.27
402.799	175.27
403.008	167.08
403.217	113.83
403.426	134.31
403.635	150.7
403.844	205.99
404.053	134.31
404.262	191.66
404.471	216.23
404.68	242.85
404.888	122.02
405.097	201.9
405.306	208.04
405.515	191.66
405.724	193.7
405.933	167.08
406.142	203.94
406.35	257.19
406.559	285.86
406.768	292.01
406.977	208.04
407.185	175.27
407.394	322.73
407.603	314.53
407.812	220.33
408.02	236.71
408.229	302.25
408.438	330.92
408.646	330.92
408.855	326.82
409.064	281.77
409.272	300.2
409.481	427.17
409.69	410.79
409.898	404.64
410.107	445.6
410.315	382.12
410.524	285.86
410.733	486.56
410.941	421.03
411.15	472.23
411.358	504.99
411.567	443.56
411.775	556.19
411.984	527.52
412.192	535.71
412.401	521.38
412.609	576.67
412.818	668.83
413.026	580.77
413.234	597.15
413.443	646.3
413.651	642.21
413.86	674.98
414.068	760.99
414.276	806.05
414.485	760.99
414.693	885.92
414.901	857.25
415.11	867.49
415.318	830.62
415.526	949.4
415.734	865.44
415.943	1000.6
416.151	1051.8
416.359	1000.6
416.567	1055.9
416.776	1127.58
416.984	1229.98
417.192	1117.34
417.4	1207.45
417.608	1195.16
417.817	1303.7
418.025	1322.13
418.233	1414.29
418.441	1457.3
418.649	1445.01
418.857	1545.36
419.065	1565.84
419.273	1553.55
419.481	1588.37
419.689	1823.89
419.897	1879.18
420.105	1830.03
420.313	1848.46
420.521	1991.82
420.729	1946.76
420.937	2004.11
421.145	2165.9
421.353	2315.4
421.561	2370.69
421.769	2374.79
421.977	2428.04
422.185	2534.53
422.393	2655.36
422.601	2718.85
422.809	2784.38
423.017	2847.87
423.224	2960.51
423.432	3118.2
423.64	3146.87
423.848	3366.01
424.056	3185.79
424.263	3411.06
424.471	3476.6
424.679	3560.56
424.887	3667.06
425.094	3851.38
425.302	3837.04
425.51	3861.62
425.718	4160.62
425.925	4277.35
426.133	4371.56
426.341	4508.77
426.548	4787.3
426.756	4783.2
426.964	4844.64
427.171	5094.49
427.379	5170.27
427.586	5428.31
427.794	5420.12
428.001	5719.12
428.209	5909.58
428.417	5844.05
428.624	6343.75
428.832	6167.63
429.039	6210.64
429.247	6243.4
429.454	6829.12
429.662	7255.1
429.869	6753.35
430.076	7187.52
430.284	6827.07
430.491	7457.85
430.699	7791.67
430.906	7787.57
431.114	8070.19
431.321	8041.52
431.528	8285.23
431.736	8961.06
431.943	9147.42
432.15	8981.54
432.358	9040.93
432.565	9667.61
432.772	9571.35
432.979	10130.45
433.187	10226.7
433.394	10284.05
433.601	10998.79
433.808	10886.15
434.016	11013.12
434.223	11383.8
434.43	11987.96
434.637	11840.5
434.844	12504.04
435.052	12899.3
435.259	12733.42
435.466	12747.75
435.673	12815.34
435.88	13794.26
436.087	14365.65
436.294	14164.95
436.501	14060.5
436.708	14166.99
436.915	14691.27
437.122	15285.19
437.329	15455.17
437.537	15674.3
437.743	15799.23
437.95	15858.62
438.157	16741.29
438.364	17152.93
438.571	17292.19
438.778	17486.75
438.985	19131.27
439.192	18369.43
439.399	18779.02
439.606	18357.14
439.813	19508.1
440.02	20683.63
440.227	20042.62
440.433	20061.05
440.64	20599.66
440.847	20624.24
441.054	21154.66
441.261	22188.89
441.467	22137.69
441.674	22444.88
441.881	23493.44
442.088	23016.27
442.294	23110.47
442.501	23716.67
442.708	24298.3
442.914	25117.48
443.121	25932.57
443.328	25639.72
443.534	27267.85
443.741	26346.26
443.948	25987.87
444.154	27929.34
444.361	27839.23
444.568	28134.14
444.774	28130.05
444.981	28062.46
445.187	29137.65
445.394	30087.9
445.6	29926.11
445.807	32496.31
446.013	31040.21
446.22	32096.96
446.426	33313.45
446.633	33673.9
446.839	34251.42
447.046	33213.1
447.252	34689.69
447.459	34992.79
447.665	34665.11
447.871	36358.78
448.078	37896.81
448.284	36100.74
448.491	36885.11
448.697	38328.93
448.903	39363.15
449.11	39422.55
449.316	38455.9
449.522	39101.01
449.728	40170.05
449.935	40657.47
450.141	40577.6
450.347	41581.1
450.553	40157.77
450.76	40589.89
450.966	42406.44
451.172	41554.48
451.378	42322.47
451.584	41916.97
451.791	42762.78
451.997	42586.66
452.203	43434.52
452.409	43411.99
452.615	42930.72
452.821	41472.56
453.027	40985.15
453.233	43233.81
453.44	41497.14
453.646	42072.62
453.852	42293.8
454.058	42856.99
454.264	41878.06
454.47	42457.63
454.676	41323.06
454.882	42541.6
455.088	38988.38
455.294	39830.09
455.5	40598.08
455.705	40759.87
455.911	38746.72
456.117	38842.97
456.323	37896.81
456.529	36094.6
456.735	37642.86
456.941	36663.93
457.147	36184.71
457.352	34794.14
457.558	34470.56
457.764	34736.79
457.97	33954.47
458.176	33231.54
458.381	32944.82
458.587	31552.2
458.793	31689.42
458.999	29909.73
459.204	32201.41
459.41	31075.02
459.616	29108.97
459.821	29446.89
460.027	29270.76
460.233	28715.76
460.438	27374.34
460.644	27685.64
460.85	26090.27
461.055	25760.55
461.261	25824.03
461.466	23798.59
461.672	23202.63
461.878	24728.37
462.083	23268.17
462.289	22723.41
462.494	22440.79
462.7	21414.76
462.905	21181.29
463.111	21777.25
463.316	21627.74
463.522	21080.94
463.727	21244.77
463.932	21177.19
464.138	21175.14
464.343	21093.22
464.549	20683.63
464.754	20796.27
464.959	21056.36
465.165	20757.36
465.37	20067.19
465.575	19358.6
465.781	20388.72
465.986	20212.6
466.191	19639.17
466.397	18877.32
466.602	18279.32
