Data from USB4F104151__281__14-23-27-383.txt Node

Date: Thu Mar 13 14:23:27 EDT 2025
User: louis
Spectrometer: USB4F10415
Trigger mode: 4
Integration Time (sec): 2.000000E-2
Scans to average: 1
Electric dark correction enabled: true
Nonlinearity correction enabled: false
Boxcar width: 0
XAxis mode: Wavelengths
Number of Pixels in Spectrum: 3648
>>>>>Begin Spectral Data<<<<<
178.204	-136.53
178.424	-136.53
178.644	-136.53
178.864	-120.15
179.084	-118.1
179.304	-105.81
179.524	-32.08
179.744	-13.65
179.964	8.87
180.184	10.92
180.404	41.64
180.624	17.07
180.844	25.26
181.064	-1.37
181.283	35.5
181.503	-3.41
181.723	17.07
181.943	-11.61
182.163	72.36
182.383	29.35
182.602	-9.56
182.822	62.12
183.042	62.12
183.262	8.87
183.482	-56.66
183.701	-38.23
183.921	66.22
184.141	6.83
184.361	60.07
184.58	41.64
184.8	37.55
185.02	10.92
185.239	37.55
185.459	-17.75
185.679	51.88
185.898	49.83
186.118	41.64
186.338	129.7
186.557	68.27
186.777	-13.65
186.997	12.97
187.216	2.73
187.436	31.4
187.655	58.03
187.875	25.26
188.095	19.11
188.314	41.64
188.534	17.07
188.753	107.18
188.973	19.11
189.192	10.92
189.412	6.83
189.631	33.45
189.851	25.26
190.07	58.03
190.29	58.03
190.509	33.45
190.729	-27.99
190.948	49.83
191.168	164.52
191.387	70.31
191.607	-15.7
191.826	-5.46
192.045	37.55
192.265	66.22
192.484	51.88
192.704	19.11
192.923	0.68
193.142	107.18
193.362	-32.08
193.581	17.07
193.8	45.74
194.02	35.5
194.239	33.45
194.458	107.18
194.678	66.22
194.897	-5.46
195.116	25.26
195.335	53.93
195.555	47.79
195.774	10.92
195.993	43.69
196.212	86.7
196.432	53.93
196.651	33.45
196.87	78.51
197.089	90.79
197.308	94.89
197.528	80.55
197.747	-46.42
197.966	-13.65
198.185	74.41
198.404	78.51
198.623	8.87
198.842	115.37
199.062	19.11
199.281	119.46
199.5	74.41
199.719	39.59
199.938	70.31
200.157	41.64
200.376	-19.8
200.595	58.03
200.814	8.87
201.033	17.07
201.252	66.22
201.471	43.69
201.69	41.64
201.909	84.65
202.128	119.46
202.347	49.83
202.566	12.97
202.785	-3.41
203.004	80.55
203.223	41.64
203.442	45.74
203.661	43.69
203.879	119.46
204.098	15.02
204.317	-15.7
204.536	60.07
204.755	17.07
204.974	43.69
205.193	10.92
205.411	152.23
205.63	35.5
205.849	49.83
206.068	53.93
206.287	17.07
206.505	41.64
206.724	10.92
206.943	-7.51
207.162	41.64
207.381	0.68
207.599	43.69
207.818	78.51
208.037	70.31
208.255	21.16
208.474	43.69
208.693	107.18
208.911	107.18
209.13	80.55
209.349	84.65
209.567	80.55
209.786	51.88
210.005	25.26
210.223	39.59
210.442	8.87
210.661	25.26
210.879	-5.46
211.098	2.73
211.316	55.98
211.535	-27.99
211.753	51.88
211.972	29.35
212.191	82.6
212.409	-13.65
212.628	23.21
212.846	25.26
213.065	94.89
213.283	58.03
213.502	29.35
213.72	21.16
213.938	41.64
214.157	58.03
214.375	39.59
214.594	-48.47
214.812	35.5
215.031	68.27
215.249	76.46
215.467	-13.65
215.686	23.21
215.904	119.46
216.122	78.51
216.341	33.45
216.559	-19.8
216.778	8.87
216.996	96.94
217.214	-7.51
217.432	66.22
217.651	10.92
217.869	45.74
218.087	49.83
218.306	17.07
218.524	10.92
218.742	43.69
218.96	76.46
219.179	17.07
219.397	41.64
219.615	82.6
219.833	19.11
220.051	0.68
220.27	19.11
220.488	43.69
220.706	62.12
220.924	41.64
221.142	94.89
221.36	74.41
221.578	76.46
221.796	23.21
222.015	35.5
222.233	49.83
222.451	139.94
222.669	19.11
222.887	60.07
223.105	53.93
223.323	90.79
223.541	4.78
223.759	8.87
223.977	25.26
224.195	66.22
224.413	92.84
224.631	49.83
224.849	-5.46
225.067	68.27
225.285	82.6
225.503	115.37
225.721	35.5
225.939	-3.41
226.157	41.64
226.375	123.56
226.592	23.21
226.81	19.11
227.028	109.22
227.246	182.95
227.464	17.07
227.682	49.83
227.9	66.22
228.117	58.03
228.335	60.07
228.553	-7.51
228.771	74.41
228.989	8.87
229.206	-5.46
229.424	-25.94
229.642	-15.7
229.86	-15.7
230.077	33.45
230.295	-9.56
230.513	55.98
230.731	111.27
230.948	53.93
231.166	92.84
231.384	94.89
231.601	82.6
231.819	98.99
232.037	-21.85
232.254	-5.46
232.472	58.03
232.689	49.83
232.907	107.18
233.125	107.18
233.342	17.07
233.56	88.75
233.777	58.03
233.995	92.84
234.213	82.6
234.43	37.55
234.648	51.88
234.865	27.31
235.083	25.26
235.3	103.08
235.518	10.92
235.735	49.83
235.953	45.74
236.17	0.68
236.388	37.55
236.605	0.68
236.822	55.98
237.04	0.68
237.257	39.59
237.475	-11.61
237.692	76.46
237.909	-46.42
238.127	19.11
238.344	12.97
238.562	43.69
238.779	-23.89
238.996	43.69
239.214	25.26
239.431	-7.51
239.648	80.55
239.865	51.88
240.083	49.83
240.3	74.41
240.517	39.59
240.735	33.45
240.952	51.88
241.169	109.22
241.386	115.37
241.603	113.32
241.821	6.83
242.038	21.16
242.255	98.99
242.472	8.87
242.689	72.36
242.907	74.41
243.124	62.12
243.341	37.55
243.558	-30.04
243.775	-7.51
243.992	-56.66
244.209	-7.51
244.426	19.11
244.643	53.93
244.86	86.7
245.078	84.65
245.295	131.75
245.512	37.55
245.729	82.6
245.946	8.87
246.163	-7.51
246.38	2.73
246.597	101.03
246.814	58.03
247.031	-32.08
247.248	45.74
247.464	27.31
247.681	70.31
247.898	2.73
248.115	139.94
248.332	-3.41
248.549	66.22
248.766	146.09
248.983	92.84
249.2	66.22
249.417	-36.18
249.633	41.64
249.85	86.7
250.067	2.73
250.284	62.12
250.501	74.41
250.717	74.41
250.934	68.27
251.151	-9.56
251.368	70.31
251.585	49.83
251.801	37.55
252.018	-5.46
252.235	70.31
252.451	76.46
252.668	17.07
252.885	60.07
253.102	74.41
253.318	41.64
253.535	53.93
253.752	25.26
253.968	-15.7
254.185	17.07
254.401	-44.37
254.618	-5.46
254.835	51.88
255.051	43.69
255.268	25.26
255.484	66.22
255.701	17.07
255.917	125.61
256.134	-15.7
256.351	49.83
256.567	49.83
256.784	84.65
257	19.11
257.217	60.07
257.433	51.88
257.65	21.16
257.866	74.41
258.082	25.26
258.299	66.22
258.515	15.02
258.732	47.79
258.948	2.73
259.165	31.4
259.381	4.78
259.597	62.12
259.814	70.31
260.03	-7.51
260.246	8.87
260.463	19.11
260.679	74.41
260.895	8.87
261.112	103.08
261.328	68.27
261.544	43.69
261.761	68.27
261.977	43.69
262.193	19.11
262.409	60.07
262.626	82.6
262.842	55.98
263.058	21.16
263.274	-5.46
263.49	80.55
263.707	51.88
263.923	41.64
264.139	8.87
264.355	121.51
264.571	53.93
264.787	0.68
265.004	68.27
265.22	8.87
265.436	49.83
265.652	10.92
265.868	25.26
266.084	55.98
266.3	27.31
266.516	21.16
266.732	-15.7
266.948	-1.37
267.164	103.08
267.38	49.83
267.596	-44.37
267.812	-5.46
268.028	62.12
268.244	8.87
268.46	92.84
268.676	37.55
268.892	41.64
269.108	-7.51
269.324	8.87
269.54	-5.46
269.756	84.65
269.972	-7.51
270.188	49.83
270.403	10.92
270.619	49.83
270.835	109.22
271.051	25.26
271.267	49.83
271.483	66.22
271.698	74.41
271.914	-23.89
272.13	31.4
272.346	-7.51
272.562	10.92
272.777	129.7
272.993	6.83
273.209	31.4
273.425	98.99
273.64	-7.51
273.856	94.89
274.072	-9.56
274.287	-19.8
274.503	37.55
274.719	58.03
274.934	43.69
275.15	-9.56
275.366	45.74
275.581	-13.65
275.797	133.8
276.012	29.35
276.228	-38.23
276.444	4.78
276.659	51.88
276.875	0.68
277.09	27.31
277.306	84.65
277.521	15.02
277.737	66.22
277.952	49.83
278.168	-1.37
278.383	31.4
278.599	62.12
278.814	58.03
279.03	27.31
279.245	33.45
279.461	10.92
279.676	33.45
279.892	70.31
280.107	4.78
280.322	2.73
280.538	78.51
280.753	25.26
280.969	70.31
281.184	49.83
281.399	107.18
281.615	19.11
281.83	49.83
282.045	-42.32
282.26	-1.37
282.476	2.73
282.691	127.66
282.906	23.21
283.122	0.68
283.337	29.35
283.552	58.03
283.767	35.5
283.983	111.27
284.198	-5.46
284.413	62.12
284.628	17.07
284.843	68.27
285.058	107.18
285.274	94.89
285.489	8.87
285.704	78.51
285.919	6.83
286.134	-7.51
286.349	80.55
286.564	45.74
286.779	64.17
286.995	90.79
287.21	21.16
287.425	78.51
287.64	-38.23
287.855	84.65
288.07	17.07
288.285	92.84
288.5	82.6
288.715	78.51
288.93	-7.51
289.145	-3.41
289.36	53.93
289.575	60.07
289.79	33.45
290.004	88.75
290.219	41.64
290.434	19.11
290.649	-27.99
290.864	-11.61
291.079	-1.37
291.294	80.55
291.509	66.22
291.724	0.68
291.938	25.26
292.153	92.84
292.368	74.41
292.583	119.46
292.798	88.75
293.012	35.5
293.227	-32.08
293.442	86.7
293.657	90.79
293.871	76.46
294.086	35.5
294.301	8.87
294.516	41.64
294.73	17.07
294.945	94.89
295.16	-19.8
295.374	70.31
295.589	12.97
295.804	21.16
296.018	70.31
296.233	115.37
296.447	49.83
296.662	45.74
296.877	53.93
297.091	80.55
297.306	111.27
297.52	-25.94
297.735	45.74
297.949	70.31
298.164	96.94
298.378	84.65
298.593	10.92
298.807	-3.41
299.022	41.64
299.236	41.64
299.451	39.59
299.665	17.07
299.88	66.22
300.094	60.07
300.309	17.07
300.523	27.31
300.737	29.35
300.952	27.31
301.166	101.03
301.381	-21.85
301.595	68.27
301.809	33.45
302.024	72.36
302.238	33.45
302.452	68.27
302.667	43.69
302.881	107.18
303.095	25.26
303.309	0.68
303.524	49.83
303.738	82.6
303.952	41.64
304.166	92.84
304.381	53.93
304.595	98.99
304.809	10.92
305.023	-32.08
305.237	41.64
305.452	-11.61
305.666	55.98
305.88	58.03
306.094	29.35
306.308	41.64
306.522	78.51
306.736	41.64
306.95	-1.37
307.164	25.26
307.379	107.18
307.593	109.22
307.807	94.89
308.021	49.83
308.235	-34.13
308.449	15.02
308.663	-71
308.877	49.83
309.091	51.88
309.305	55.98
309.519	66.22
309.733	0.68
309.947	6.83
310.161	82.6
310.374	41.64
310.588	58.03
310.802	-5.46
311.016	101.03
311.23	74.41
311.444	6.83
311.658	33.45
311.872	41.64
312.085	37.55
312.299	60.07
312.513	144.04
312.727	66.22
312.941	45.74
313.154	66.22
313.368	51.88
313.582	105.13
313.796	33.45
314.009	-7.51
314.223	49.83
314.437	29.35
314.651	107.18
314.864	74.41
315.078	17.07
315.292	35.5
315.505	66.22
315.719	66.22
315.933	4.78
316.146	-5.46
316.36	68.27
316.573	72.36
316.787	21.16
317.001	107.18
317.214	35.5
317.428	60.07
317.641	-27.99
317.855	101.03
318.068	37.55
318.282	90.79
318.495	29.35
318.709	53.93
318.922	53.93
319.136	51.88
319.349	29.35
319.563	4.78
319.776	76.46
319.99	78.51
320.203	6.83
320.417	-23.89
320.63	2.73
320.843	74.41
321.057	47.79
321.27	58.03
321.483	98.99
321.697	76.46
321.91	60.07
322.124	98.99
322.337	72.36
322.55	82.6
322.763	-5.46
322.977	72.36
323.19	21.16
323.403	-13.65
323.617	76.46
323.83	98.99
324.043	-9.56
324.256	17.07
324.469	76.46
324.683	109.22
324.896	8.87
325.109	107.18
325.322	37.55
325.535	144.04
325.748	21.16
325.962	92.84
326.175	-19.8
326.388	86.7
326.601	43.69
326.814	72.36
327.027	17.07
327.24	49.83
327.453	-103.76
327.666	131.75
327.879	49.83
328.092	49.83
328.305	107.18
328.518	45.74
328.731	84.65
328.944	49.83
329.157	35.5
329.37	49.83
329.583	98.99
329.796	66.22
330.009	23.21
330.222	101.03
330.435	43.69
330.648	33.45
330.861	45.74
331.073	25.26
331.286	27.31
331.499	125.61
331.712	-19.8
331.925	27.31
332.138	107.18
332.35	90.79
332.563	39.59
332.776	41.64
332.989	-11.61
333.202	88.75
333.414	109.22
333.627	0.68
333.84	0.68
334.053	51.88
334.265	-17.75
334.478	51.88
334.691	45.74
334.903	4.78
335.116	31.4
335.329	64.17
335.541	113.32
335.754	123.56
335.966	-23.89
336.179	2.73
336.392	41.64
336.604	74.41
336.817	78.51
337.029	84.65
337.242	84.65
337.454	105.13
337.667	33.45
337.88	82.6
338.092	31.4
338.305	33.45
338.517	43.69
338.729	70.31
338.942	92.84
339.154	35.5
339.367	55.98
339.579	105.13
339.792	-15.7
340.004	-5.46
340.217	10.92
340.429	123.56
340.641	74.41
340.854	74.41
341.066	41.64
341.278	29.35
341.491	66.22
341.703	86.7
341.915	53.93
342.128	55.98
342.34	45.74
342.552	4.78
342.764	-32.08
342.977	82.6
343.189	58.03
343.401	66.22
343.613	25.26
343.826	43.69
344.038	-13.65
344.25	107.18
344.462	49.83
344.674	135.85
344.886	-5.46
345.099	53.93
345.311	25.26
345.523	53.93
345.735	-46.42
345.947	-7.51
346.159	45.74
346.371	23.21
346.583	2.73
346.795	60.07
347.007	111.27
347.219	64.17
347.431	29.35
347.643	35.5
347.855	17.07
348.067	90.79
348.279	-21.85
348.491	74.41
348.703	92.84
348.915	15.02
349.127	45.74
349.339	53.93
349.551	109.22
349.763	51.88
349.975	-15.7
350.187	78.51
350.399	51.88
350.61	-15.7
350.822	80.55
351.034	70.31
351.246	58.03
351.458	29.35
351.669	80.55
351.881	98.99
352.093	-5.46
352.305	66.22
352.517	45.74
352.728	103.08
352.94	74.41
353.152	111.27
353.363	41.64
353.575	17.07
353.787	74.41
353.999	76.46
354.21	90.79
354.422	-11.61
354.633	27.31
354.845	66.22
355.057	66.22
355.268	33.45
355.48	82.6
355.692	92.84
355.903	25.26
356.115	21.16
356.326	8.87
356.538	45.74
356.749	60.07
356.961	123.56
357.172	123.56
357.384	-19.8
357.595	66.22
357.807	-32.08
358.018	60.07
358.23	43.69
358.441	111.27
358.653	105.13
358.864	45.74
359.075	29.35
359.287	41.64
359.498	84.65
359.709	74.41
359.921	98.99
360.132	51.88
360.344	51.88
360.555	70.31
360.766	10.92
360.977	53.93
361.189	66.22
361.4	55.98
361.611	41.64
361.823	101.03
362.034	82.6
362.245	25.26
362.456	82.6
362.667	82.6
362.879	78.51
363.09	29.35
363.301	94.89
363.512	74.41
363.723	156.33
363.935	98.99
364.146	86.7
364.357	76.46
364.568	74.41
364.779	25.26
364.99	21.16
365.201	8.87
365.412	74.41
365.623	45.74
365.834	144.04
366.045	45.74
366.256	84.65
366.467	41.64
366.678	17.07
366.889	64.17
367.1	17.07
367.311	103.08
367.522	-5.46
367.733	92.84
367.944	60.07
368.155	115.37
368.366	156.33
368.577	10.92
368.788	33.45
368.999	17.07
369.209	123.56
369.42	144.04
369.631	84.65
369.842	49.83
370.053	-46.42
370.264	123.56
370.474	33.45
370.685	53.93
370.896	41.64
371.107	74.41
371.317	123.56
371.528	141.99
371.739	96.94
371.95	43.69
372.16	92.84
372.371	-40.28
372.582	68.27
372.792	96.94
373.003	-15.7
373.214	43.69
373.424	58.03
373.635	-7.51
373.846	107.18
374.056	17.07
374.267	121.51
374.477	70.31
374.688	88.75
374.898	74.41
375.109	51.88
375.319	23.21
375.53	84.65
375.74	70.31
375.951	41.64
376.161	115.37
376.372	94.89
376.582	25.26
376.793	78.51
377.003	115.37
377.214	4.78
377.424	45.74
377.635	21.16
377.845	78.51
378.055	127.66
378.266	19.11
378.476	62.12
378.686	103.08
378.897	74.41
379.107	90.79
379.317	92.84
379.528	-40.28
379.738	68.27
379.948	92.84
380.158	195.24
380.369	98.99
380.579	29.35
380.789	51.88
380.999	92.84
381.21	-5.46
381.42	60.07
381.63	29.35
381.84	78.51
382.05	25.26
382.261	58.03
382.471	35.5
382.681	90.79
382.891	133.8
383.101	60.07
383.311	37.55
383.521	-3.41
383.731	60.07
383.941	92.84
384.151	90.79
384.361	15.02
384.571	25.26
384.781	41.64
384.991	115.37
385.201	43.69
385.411	76.46
385.621	41.64
385.831	74.41
386.041	92.84
386.251	45.74
386.461	45.74
386.671	68.27
386.881	80.55
387.091	25.26
387.301	123.56
387.511	76.46
387.72	27.31
387.93	101.03
388.14	43.69
388.35	25.26
388.56	131.75
388.769	115.37
388.979	33.45
389.189	25.26
389.399	74.41
389.609	103.08
389.818	64.17
390.028	86.7
390.238	27.31
390.447	49.83
390.657	125.61
390.867	107.18
391.076	64.17
391.286	-32.08
391.496	129.7
391.705	60.07
391.915	137.9
392.125	152.23
392.334	90.79
392.544	33.45
392.753	133.8
392.963	53.93
393.172	123.56
393.382	98.99
393.591	144.04
393.801	107.18
394.01	117.42
394.22	66.22
394.429	105.13
394.639	123.56
394.848	107.18
395.058	117.42
395.267	146.09
395.477	115.37
395.686	144.04
395.895	158.38
396.105	107.18
396.314	123.56
396.524	41.64
396.733	121.51
396.942	148.14
397.152	98.99
397.361	117.42
397.57	146.09
397.78	111.27
397.989	109.22
398.198	176.81
398.407	74.41
398.617	111.27
398.826	86.7
399.035	60.07
399.244	109.22
399.453	121.51
399.663	139.94
399.872	131.75
400.081	82.6
400.29	115.37
400.499	41.64
400.708	148.14
400.917	141.99
401.127	115.37
401.336	107.18
401.545	260.77
401.754	86.7
401.963	164.52
402.172	158.38
402.381	168.62
402.59	166.57
402.799	234.15
403.008	66.22
403.217	228.01
403.426	201.38
403.635	156.33
403.844	148.14
404.053	174.76
404.262	215.72
404.471	234.15
404.68	207.53
404.888	207.53
405.097	90.79
405.306	238.25
405.515	168.62
405.724	246.44
405.933	217.77
406.142	182.95
406.35	205.48
406.559	185
406.768	232.1
406.977	260.77
407.185	203.43
407.394	271.01
407.603	170.66
407.812	318.12
408.02	309.93
408.229	244.39
408.438	262.82
408.646	230.06
408.855	246.44
409.064	336.55
409.272	373.41
409.481	357.03
409.69	397.99
409.898	354.98
410.107	371.36
410.315	377.51
410.524	322.21
410.733	434.85
410.941	336.55
411.15	514.72
411.358	510.63
411.567	479.91
411.775	484
411.984	461.48
412.192	518.82
412.401	492.2
412.609	524.96
412.818	600.74
413.026	582.31
413.234	565.92
413.443	570.02
413.651	629.41
413.86	627.36
414.068	696.99
414.276	707.23
414.485	733.86
414.693	758.43
414.901	805.53
415.11	803.49
415.318	762.53
415.526	895.64
415.734	889.5
415.943	1012.38
416.151	934.56
416.359	975.52
416.567	991.9
416.776	1069.72
416.984	1073.82
417.192	1182.36
417.4	1073.82
417.608	1125.02
417.817	1217.18
418.025	1192.6
418.233	1340.05
418.441	1280.66
418.649	1387.16
418.857	1421.97
419.065	1462.93
419.273	1366.68
419.481	1493.65
419.689	1630.87
419.897	1647.25
420.105	1634.96
420.313	1714.83
420.521	1868.43
420.729	1876.62
420.937	1933.97
421.145	1974.92
421.353	2099.85
421.561	2220.68
421.769	2282.12
421.977	2294.41
422.185	2232.97
422.393	2417.29
422.601	2615.94
422.809	2515.59
423.017	2699.91
423.224	2767.49
423.432	2736.77
423.64	2830.98
423.848	3166.84
424.056	3023.48
424.263	3246.71
424.471	3359.35
424.679	3220.09
424.887	3564.15
425.094	3555.96
425.302	3639.92
425.51	3777.14
425.718	3875.44
425.925	3820.14
426.133	4002.41
426.341	4321.9
426.548	4448.87
426.756	4465.25
426.964	4473.45
427.171	4827.74
427.379	4835.94
427.586	5012.06
427.794	5112.41
428.001	5309.02
428.209	5620.31
428.417	5466.71
428.624	5685.84
428.832	5927.5
429.039	5825.11
429.247	5917.26
429.454	6349.39
429.662	6699.59
429.869	6316.62
430.076	6752.84
430.284	6611.53
430.491	6922.82
430.699	7391.8
430.906	7363.13
431.114	7344.7
431.321	7631.41
431.528	7911.99
431.736	8241.71
431.943	8759.84
432.15	8364.59
432.358	8659.49
432.565	9155.1
432.772	9011.75
432.979	9331.23
433.187	9632.28
433.394	9327.13
433.601	10379.79
433.808	10232.33
434.016	10199.57
434.223	10592.78
434.43	11407.87
434.637	11059.71
434.844	11713.02
435.052	11911.67
435.259	11821.56
435.466	12028.4
435.673	11991.54
435.88	12558.83
436.087	13208.03
436.294	13267.42
436.501	12960.23
436.708	13130.21
436.915	13617.63
437.122	14293.46
437.329	14332.37
437.537	14623.18
437.743	15131.08
437.95	14934.47
438.157	15499.71
438.364	16101.81
438.571	16019.89
438.778	16150.96
438.985	17650.08
439.192	16896.42
439.399	17344.93
439.606	17127.85
439.813	18112.92
440.02	19014.02
440.227	18811.28
440.433	18571.66
440.64	19347.84
440.847	19370.37
441.054	19673.47
441.261	21021.03
441.467	20672.88
441.674	20849
441.881	21784.93
442.088	21825.89
442.294	21631.33
442.501	22059.35
442.708	22528.34
442.914	23345.48
443.121	24164.67
443.328	23599.43
443.534	25348.39
443.741	24424.76
443.948	24140.09
444.154	26243.35
444.361	25700.64
444.568	25985.31
444.774	25944.35
444.981	26159.39
445.187	26933.52
445.394	28211.45
445.6	27885.83
445.807	30435.55
446.013	29214.96
446.22	29925.6
446.426	30714.07
446.633	31301.84
446.839	32305.34
447.046	30820.56
447.252	32569.53
447.459	32372.92
447.665	32184.51
447.871	33689.77
448.078	35436.69
448.284	33646.76
448.491	34521.24
448.697	35582.09
448.903	36507.77
449.11	36690.04
449.316	35887.24
449.522	36606.08
449.728	37331.06
449.935	37601.39
450.141	37775.47
450.347	38443.1
450.553	37775.47
450.76	38172.77
450.966	39362.64
451.172	38967.38
451.378	39458.9
451.584	38987.86
451.791	39886.92
451.997	39839.82
452.203	40560.7
452.409	40499.26
452.615	40568.9
452.821	38821.98
453.027	38436.96
453.233	40482.88
453.44	38991.96
453.646	39497.81
453.852	39796.81
454.058	40411.2
454.264	39080.02
454.47	39704.65
454.676	39012.44
454.882	40368.19
455.088	36530.3
455.294	37754.99
455.5	37691.5
455.705	38467.68
455.911	36552.83
456.117	36264.07
456.323	35469.45
456.529	33597.61
456.735	35416.21
456.941	34345.12
457.147	33880.23
457.352	32759.99
457.558	32729.27
457.764	32667.83
457.97	31865.03
458.176	31518.92
458.381	31486.15
458.587	29718.76
458.793	29962.47
458.999	28188.92
459.204	30331.1
459.41	29737.19
459.616	27390.22
459.821	27801.86
460.027	27588.87
460.233	27443.46
460.438	25905.44
460.644	25590.05
460.85	24695.09
461.055	24543.54
461.261	24535.35
461.466	22341.97
461.672	21832.03
461.878	23439.68
462.083	21981.53
462.289	21582.18
462.494	21514.59
462.7	20324.72
462.905	19960.19
463.111	20793.71
463.316	20660.59
463.522	19945.85
463.727	20124.02
463.932	19804.54
464.138	19951.99
464.343	19906.94
464.549	19392.9
464.754	19898.75
464.959	19687.81
465.165	19620.22
465.37	19151.24
465.575	18358.67
465.781	19341.7
465.986	19302.79
466.191	18596.24
466.397	18110.87
466.602	17437.09
466.807	18090.39
