Data from USB4F104151__57__14-17-05-959.txt Node

Date: Thu Mar 13 14:17:05 EDT 2025
User: louis
Spectrometer: USB4F10415
Trigger mode: 4
Integration Time (sec): 2.000000E-2
Scans to average: 1
Electric dark correction enabled: true
Nonlinearity correction enabled: false
Boxcar width: 0
XAxis mode: Wavelengths
Number of Pixels in Spectrum: 3648
>>>>>Begin Spectral Data<<<<<
178.204	-152.4
178.424	-152.4
178.644	-152.4
178.864	-115.54
179.084	-123.73
179.304	-29.52
179.524	-13.14
179.744	29.87
179.964	-4.95
180.184	-21.33
180.404	11.43
180.624	60.59
180.844	46.25
181.064	5.29
181.283	-21.33
181.503	-86.87
181.723	23.72
181.943	-37.72
182.163	48.3
182.383	27.82
182.602	36.01
182.822	44.2
183.042	5.29
183.262	-21.33
183.482	-25.43
183.701	-4.95
183.921	-66.39
184.141	-17.24
184.361	5.29
184.58	-11.09
184.8	23.72
185.02	50.35
185.239	93.35
185.459	19.63
185.679	36.01
185.898	54.44
186.118	93.35
186.338	25.77
186.557	122.02
186.777	-45.91
186.997	-21.33
187.216	-2.9
187.436	-4.95
187.655	-2.9
187.875	62.63
188.095	-7
188.314	17.58
188.534	-41.81
188.753	38.06
188.973	-66.39
189.192	72.87
189.412	29.87
189.631	19.63
189.851	44.2
190.07	89.26
190.29	-9.05
190.509	-19.29
190.729	76.97
190.948	52.39
191.168	81.07
191.387	27.82
191.607	44.2
191.826	21.67
192.045	-66.39
192.265	21.67
192.484	-21.33
192.704	13.48
192.923	-43.86
193.142	60.59
193.362	-21.33
193.581	-23.38
193.8	54.44
194.02	23.72
194.239	27.82
194.458	93.35
194.678	-11.09
194.897	23.72
195.116	-11.09
195.335	-15.19
195.555	40.11
195.774	19.63
195.993	29.87
196.212	36.01
196.432	-4.95
196.651	76.97
196.87	-25.43
197.089	103.59
197.308	5.29
197.528	44.2
197.747	-29.52
197.966	21.67
198.185	54.44
198.404	-25.43
198.623	7.34
198.842	40.11
199.062	74.92
199.281	95.4
199.5	-70.48
199.719	70.83
199.938	21.67
200.157	62.63
200.376	66.73
200.595	19.63
200.814	-45.91
201.033	1.19
201.252	13.48
201.471	-9.05
201.69	-13.14
201.909	29.87
202.128	-2.9
202.347	68.78
202.566	70.83
202.785	-13.14
203.004	-70.48
203.223	46.25
203.442	-7
203.661	62.63
203.879	130.22
204.098	36.01
204.317	5.29
204.536	-27.48
204.755	5.29
204.974	25.77
205.193	68.78
205.411	46.25
205.63	-68.44
205.849	15.53
206.068	33.96
206.287	-4.95
206.505	15.53
206.724	17.58
206.943	95.4
207.162	97.45
207.381	27.82
207.599	13.48
207.818	36.01
208.037	68.78
208.255	107.69
208.474	66.73
208.693	83.11
208.911	-13.14
209.13	7.34
209.349	79.02
209.567	7.34
209.786	48.3
210.005	68.78
210.223	40.11
210.442	-103.25
210.661	72.87
210.879	31.91
211.098	15.53
211.316	25.77
211.535	-0.85
211.753	64.68
211.972	72.87
212.191	13.48
212.409	27.82
212.628	58.54
212.846	-39.76
213.065	81.07
213.283	38.06
213.502	74.92
213.72	-45.91
213.938	-9.05
214.157	3.24
214.375	-74.58
214.594	11.43
214.812	21.67
215.031	11.43
215.249	38.06
215.467	54.44
215.686	-9.05
215.904	7.34
216.122	3.24
216.341	62.63
216.559	-27.48
216.778	111.78
216.996	48.3
217.214	7.34
217.432	15.53
217.651	31.91
217.869	-17.24
218.087	70.83
218.306	-50
218.524	33.96
218.742	-29.52
218.96	87.21
219.179	56.49
219.397	-4.95
219.615	52.39
219.833	54.44
220.051	-35.67
220.27	54.44
220.488	38.06
220.706	105.64
220.924	44.2
221.142	-45.91
221.36	19.63
221.578	83.11
221.796	33.96
222.015	-39.76
222.233	-7
222.451	44.2
222.669	-29.52
222.887	70.83
223.105	-37.72
223.323	44.2
223.541	23.72
223.759	21.67
223.977	25.77
224.195	62.63
224.413	52.39
224.631	19.63
224.849	36.01
225.067	87.21
225.285	13.48
225.503	-2.9
225.721	-29.52
225.939	103.59
226.157	-21.33
226.375	101.55
226.592	40.11
226.81	40.11
227.028	52.39
227.246	60.59
227.464	25.77
227.682	25.77
227.9	27.82
228.117	11.43
228.335	93.35
228.553	19.63
228.771	19.63
228.989	50.35
229.206	64.68
229.424	-9.05
229.642	40.11
229.86	3.24
230.077	33.96
230.295	9.39
230.513	-11.09
230.731	-13.14
230.948	15.53
231.166	91.31
231.384	-17.24
231.601	-35.67
231.819	-29.52
232.037	-13.14
232.254	-54.1
232.472	140.46
232.689	-27.48
232.907	93.35
233.125	23.72
233.342	19.63
233.56	38.06
233.777	-0.85
233.995	36.01
234.213	15.53
234.43	-13.14
234.648	44.2
234.865	21.67
235.083	103.59
235.3	58.54
235.518	21.67
235.735	93.35
235.953	44.2
236.17	-13.14
236.388	40.11
236.605	27.82
236.822	101.55
237.04	23.72
237.257	64.68
237.475	19.63
237.692	38.06
237.909	9.39
238.127	-11.09
238.344	-19.29
238.562	52.39
238.779	19.63
238.996	40.11
239.214	70.83
239.431	54.44
239.648	54.44
239.865	19.63
240.083	-13.14
240.3	44.2
240.517	-4.95
240.735	85.16
240.952	40.11
241.169	19.63
241.386	19.63
241.603	-9.05
241.821	5.29
242.038	62.63
242.255	23.72
242.472	-11.09
242.689	50.35
242.907	27.82
243.124	68.78
243.341	101.55
243.558	13.48
243.775	-17.24
243.992	-17.24
244.209	-11.09
244.426	87.21
244.643	68.78
244.86	-52.05
245.078	68.78
245.295	56.49
245.512	21.67
245.729	46.25
245.946	-9.05
246.163	-19.29
246.38	19.63
246.597	25.77
246.814	19.63
247.031	-19.29
247.248	62.63
247.464	60.59
247.681	11.43
247.898	36.01
248.115	11.43
248.332	-29.52
248.549	54.44
248.766	44.2
248.983	23.72
249.2	68.78
249.417	-43.86
249.633	31.91
249.85	19.63
250.067	-15.19
250.284	44.2
250.501	52.39
250.717	95.4
250.934	31.91
251.151	60.59
251.368	70.83
251.585	46.25
251.801	33.96
252.018	9.39
252.235	58.54
252.451	-21.33
252.668	-35.67
252.885	76.97
253.102	74.92
253.318	21.67
253.535	5.29
253.752	19.63
253.968	-21.33
254.185	27.82
254.401	-50
254.618	23.72
254.835	-15.19
255.051	19.63
255.268	5.29
255.484	48.3
255.701	11.43
255.917	15.53
256.134	-21.33
256.351	38.06
256.567	-29.52
256.784	9.39
257	-11.09
257.217	50.35
257.433	25.77
257.65	23.72
257.866	17.58
258.082	13.48
258.299	68.78
258.515	68.78
258.732	40.11
258.948	-29.52
259.165	44.2
259.381	44.2
259.597	7.34
259.814	17.58
260.03	-0.85
260.246	62.63
260.463	-29.52
260.679	64.68
260.895	87.21
261.112	44.2
261.328	13.48
261.544	21.67
261.761	72.87
261.977	33.96
262.193	33.96
262.409	31.91
262.626	81.07
262.842	56.49
263.058	-27.48
263.274	91.31
263.49	-7
263.707	117.93
263.923	-0.85
264.139	29.87
264.355	27.82
264.571	29.87
264.787	50.35
265.004	107.69
265.22	-9.05
265.436	76.97
265.652	19.63
265.868	5.29
266.084	-4.95
266.3	64.68
266.516	23.72
266.732	64.68
266.948	81.07
267.164	-0.85
267.38	81.07
267.596	23.72
267.812	31.91
268.028	62.63
268.244	-62.29
268.46	-13.14
268.676	-0.85
268.892	44.2
269.108	-23.38
269.324	7.34
269.54	40.11
269.756	5.29
269.972	17.58
270.188	19.63
270.403	89.26
270.619	-4.95
270.835	101.55
271.051	44.2
271.267	-13.14
271.483	27.82
271.698	15.53
271.914	-7
272.13	23.72
272.346	44.2
272.562	83.11
272.777	93.35
272.993	13.48
273.209	-11.09
273.425	-33.62
273.64	33.96
273.856	33.96
274.072	-21.33
274.287	29.87
274.503	27.82
274.719	165.03
274.934	-25.43
275.15	-13.14
275.366	1.19
275.581	48.3
275.797	85.16
276.012	40.11
276.228	56.49
276.444	38.06
276.659	52.39
276.875	33.96
277.09	5.29
277.306	48.3
277.521	-15.19
277.737	29.87
277.952	-2.9
278.168	5.29
278.383	56.49
278.599	19.63
278.814	52.39
279.03	3.24
279.245	48.3
279.461	44.2
279.676	95.4
279.892	44.2
280.107	-0.85
280.322	68.78
280.538	5.29
280.753	62.63
280.969	38.06
281.184	-0.85
281.399	-4.95
281.615	-7
281.83	3.24
282.045	7.34
282.26	-52.05
282.476	13.48
282.691	85.16
282.906	36.01
283.122	29.87
283.337	54.44
283.552	-41.81
283.767	-0.85
283.983	-9.05
284.198	-9.05
284.413	-4.95
284.628	42.15
284.843	38.06
285.058	70.83
285.274	48.3
285.489	-23.38
285.704	52.39
285.919	-7
286.134	-9.05
286.349	25.77
286.564	-33.62
286.779	54.44
286.995	68.78
287.21	33.96
287.425	79.02
287.64	70.83
287.855	21.67
288.07	-17.24
288.285	21.67
288.5	46.25
288.715	66.73
288.93	7.34
289.145	44.2
289.36	23.72
289.575	70.83
289.79	23.72
290.004	27.82
290.219	87.21
290.434	19.63
290.649	134.31
290.864	60.59
291.079	-4.95
291.294	54.44
291.509	27.82
291.724	-25.43
291.938	36.01
292.153	-4.95
292.368	27.82
292.583	36.01
292.798	44.2
293.012	85.16
293.227	-9.05
293.442	5.29
293.657	-21.33
293.871	101.55
294.086	-4.95
294.301	15.53
294.516	87.21
294.73	-9.05
294.945	-2.9
295.16	-9.05
295.374	85.16
295.589	-19.29
295.804	27.82
296.018	29.87
296.233	23.72
296.447	56.49
296.662	-0.85
296.877	56.49
297.091	72.87
297.306	146.6
297.52	33.96
297.735	54.44
297.949	54.44
298.164	-60.24
298.378	15.53
298.593	3.24
298.807	-4.95
299.022	-0.85
299.236	27.82
299.451	74.92
299.665	-21.33
299.88	60.59
300.094	19.63
300.309	81.07
300.523	19.63
300.737	74.92
300.952	3.24
301.166	-37.72
301.381	19.63
301.595	44.2
301.809	70.83
302.024	-19.29
302.238	-13.14
302.452	-62.29
302.667	-29.52
302.881	136.36
303.095	50.35
303.309	-4.95
303.524	68.78
303.738	-17.24
303.952	-35.67
304.166	101.55
304.381	9.39
304.595	122.02
304.809	19.63
305.023	-0.85
305.237	-7
305.452	-39.76
305.666	36.01
305.88	52.39
306.094	11.43
306.308	81.07
306.522	85.16
306.736	25.77
306.95	68.78
307.164	54.44
307.379	-9.05
307.593	79.02
307.807	44.2
308.021	40.11
308.235	44.2
308.449	-13.14
308.663	42.15
308.877	91.31
309.091	60.59
309.305	36.01
309.519	-35.67
309.733	70.83
309.947	-9.05
310.161	46.25
310.374	76.97
310.588	56.49
310.802	1.19
311.016	11.43
311.23	3.24
311.444	7.34
311.658	3.24
311.872	64.68
312.085	66.73
312.299	56.49
312.513	-4.95
312.727	50.35
312.941	-41.81
313.154	109.74
313.368	-15.19
313.582	46.25
313.796	46.25
314.009	-37.72
314.223	128.17
314.437	-54.1
314.651	46.25
314.864	19.63
315.078	-35.67
315.292	-27.48
315.505	40.11
315.719	95.4
315.933	-50
316.146	19.63
316.36	1.19
316.573	-2.9
316.787	3.24
317.001	89.26
317.214	44.2
317.428	89.26
317.641	5.29
317.855	25.77
318.068	62.63
318.282	81.07
318.495	17.58
318.709	19.63
318.922	15.53
319.136	1.19
319.349	95.4
319.563	-19.29
319.776	97.45
319.99	-27.48
320.203	5.29
320.417	128.17
320.63	68.78
320.843	111.78
321.057	40.11
321.27	46.25
321.483	13.48
321.697	-4.95
321.91	46.25
322.124	27.82
322.337	52.39
322.55	36.01
322.763	52.39
322.977	38.06
323.19	54.44
323.403	-4.95
323.617	54.44
323.83	54.44
324.043	7.34
324.256	76.97
324.469	23.72
324.683	15.53
324.896	40.11
325.109	60.59
325.322	-7
325.535	103.59
325.748	54.44
325.962	-13.14
326.175	107.69
326.388	93.35
326.601	-17.24
326.814	68.78
327.027	81.07
327.24	81.07
327.453	-13.14
327.666	56.49
327.879	-70.48
328.092	85.16
328.305	3.24
328.518	62.63
328.731	-29.52
328.944	44.2
329.157	27.82
329.37	72.87
329.583	17.58
329.796	72.87
330.009	-45.91
330.222	44.2
330.435	-43.86
330.648	27.82
330.861	11.43
331.073	23.72
331.286	54.44
331.499	85.16
331.712	70.83
331.925	64.68
332.138	40.11
332.35	76.97
332.563	7.34
332.776	89.26
332.989	-2.9
333.202	-21.33
333.414	60.59
333.627	-27.48
333.84	79.02
334.053	21.67
334.265	13.48
334.478	3.24
334.691	38.06
334.903	36.01
335.116	5.29
335.329	-4.95
335.541	117.93
335.754	23.72
335.966	31.91
336.179	13.48
336.392	66.73
336.604	40.11
336.817	60.59
337.029	23.72
337.242	58.54
337.454	-4.95
337.667	40.11
337.88	122.02
338.092	11.43
338.305	81.07
338.517	44.2
338.729	79.02
338.942	58.54
339.154	-0.85
339.367	-37.72
339.579	60.59
339.792	11.43
340.004	44.2
340.217	21.67
340.429	-7
340.641	7.34
340.854	62.63
341.066	15.53
341.278	171.18
341.491	81.07
341.703	3.24
341.915	-19.29
342.128	19.63
342.34	95.4
342.552	21.67
342.764	-13.14
342.977	-9.05
343.189	70.83
343.401	3.24
343.613	-19.29
343.826	52.39
344.038	44.2
344.25	62.63
344.462	46.25
344.674	-0.85
344.886	44.2
345.099	93.35
345.311	44.2
345.523	85.16
345.735	27.82
345.947	85.16
346.159	15.53
346.371	3.24
346.583	-21.33
346.795	126.12
347.007	5.29
347.219	38.06
347.431	11.43
347.643	68.78
347.855	48.3
348.067	111.78
348.279	27.82
348.491	58.54
348.703	11.43
348.915	36.01
349.127	11.43
349.339	46.25
349.551	70.83
349.763	29.87
349.975	54.44
350.187	44.2
350.399	-68.44
350.61	11.43
350.822	-2.9
351.034	44.2
351.246	31.91
351.458	19.63
351.669	-4.95
351.881	21.67
352.093	52.39
352.305	-19.29
352.517	29.87
352.728	70.83
352.94	17.58
353.152	132.26
353.363	-13.14
353.575	-21.33
353.787	36.01
353.999	83.11
354.21	128.17
354.422	7.34
354.633	33.96
354.845	40.11
355.057	7.34
355.268	15.53
355.48	46.25
355.692	-21.33
355.903	-11.09
356.115	-11.09
356.326	-60.24
356.538	5.29
356.749	113.83
356.961	74.92
357.172	13.48
357.384	-21.33
357.595	158.89
357.807	-11.09
358.018	7.34
358.23	101.55
358.441	91.31
358.653	60.59
358.864	-17.24
359.075	60.59
359.287	31.91
359.498	89.26
359.709	40.11
359.921	25.77
360.132	27.82
360.344	46.25
360.555	13.48
360.766	1.19
360.977	-43.86
361.189	85.16
361.4	48.3
361.611	56.49
361.823	81.07
362.034	44.2
362.245	-2.9
362.456	93.35
362.667	36.01
362.879	33.96
363.09	83.11
363.301	64.68
363.512	119.98
363.723	91.31
363.935	1.19
364.146	74.92
364.357	70.83
364.568	60.59
364.779	38.06
364.99	40.11
365.201	27.82
365.412	76.97
365.623	27.82
365.834	60.59
366.045	50.35
366.256	36.01
366.467	48.3
366.678	44.2
366.889	25.77
367.1	136.36
367.311	-11.09
367.522	111.78
367.733	154.79
367.944	122.02
368.155	23.72
368.366	62.63
368.577	-11.09
368.788	19.63
368.999	-41.81
369.209	29.87
369.42	126.12
369.631	89.26
369.842	93.35
370.053	7.34
370.264	36.01
370.474	-11.09
370.685	85.16
370.896	42.15
371.107	111.78
371.317	40.11
371.528	-4.95
371.739	76.97
371.95	60.59
372.16	13.48
372.371	23.72
372.582	36.01
372.792	62.63
373.003	21.67
373.214	-25.43
373.424	134.31
373.635	42.15
373.846	68.78
374.056	33.96
374.267	105.64
374.477	70.83
374.688	-9.05
374.898	48.3
375.109	19.63
375.319	-78.68
375.53	11.43
375.74	130.22
375.951	36.01
376.161	-17.24
376.372	-4.95
376.582	11.43
376.793	81.07
377.003	36.01
377.214	95.4
377.424	40.11
377.635	79.02
377.845	-29.52
378.055	76.97
378.266	11.43
378.476	103.59
378.686	36.01
378.897	95.4
379.107	87.21
379.317	62.63
379.528	-37.72
379.738	68.78
379.948	-13.14
380.158	31.91
380.369	56.49
380.579	58.54
380.789	13.48
380.999	130.22
381.21	48.3
381.42	126.12
381.63	40.11
381.84	76.97
382.05	76.97
382.261	29.87
382.471	85.16
382.681	-4.95
382.891	58.54
383.101	60.59
383.311	27.82
383.521	3.24
383.731	31.91
383.941	113.83
384.151	87.21
384.361	15.53
384.571	111.78
384.781	72.87
384.991	68.78
385.201	97.45
385.411	103.59
385.621	27.82
385.831	117.93
386.041	85.16
386.251	89.26
386.461	21.67
386.671	48.3
386.881	56.49
387.091	44.2
387.301	62.63
387.511	-13.14
387.72	95.4
387.93	52.39
388.14	33.96
388.35	11.43
388.56	79.02
388.769	87.21
388.979	72.87
389.189	29.87
389.399	68.78
389.609	126.12
389.818	85.16
390.028	58.54
390.238	27.82
390.447	15.53
390.657	68.78
390.867	81.07
391.076	-21.33
391.286	68.78
391.496	48.3
391.705	83.11
391.915	119.98
392.125	93.35
392.334	70.83
392.544	44.2
392.753	101.55
392.963	64.68
393.172	76.97
393.382	101.55
393.591	136.36
393.801	21.67
394.01	124.07
394.22	128.17
394.429	87.21
394.639	99.5
394.848	111.78
395.058	36.01
395.267	21.67
395.477	72.87
395.686	101.55
395.895	29.87
396.105	171.18
396.314	105.64
396.524	101.55
396.733	97.45
396.942	101.55
397.152	111.78
397.361	79.02
397.57	109.74
397.78	93.35
397.989	103.59
398.198	109.74
398.407	152.74
398.617	146.6
398.826	111.78
399.035	105.64
399.244	117.93
399.453	111.78
399.663	89.26
399.872	76.97
400.081	29.87
400.29	169.13
400.499	142.5
400.708	201.9
400.917	93.35
401.127	187.56
401.336	107.69
401.545	136.36
401.754	103.59
401.963	101.55
402.172	146.6
402.381	126.12
402.59	40.11
402.799	48.3
403.008	230.57
403.217	134.31
403.426	140.46
403.635	119.98
403.844	150.7
404.053	142.5
404.262	117.93
404.471	205.99
404.68	105.64
404.888	216.23
405.097	208.04
405.306	140.46
405.515	177.32
405.724	183.46
405.933	210.09
406.142	152.74
406.35	232.62
406.559	193.7
406.768	160.94
406.977	230.57
407.185	134.31
407.394	240.81
407.603	158.89
407.812	220.33
408.02	273.57
408.229	220.33
408.438	224.42
408.646	267.43
408.855	285.86
409.064	380.07
409.272	212.14
409.481	371.88
409.69	300.2
409.898	318.63
410.107	330.92
410.315	367.78
410.524	404.64
410.733	337.06
410.941	304.29
411.15	398.5
411.358	439.46
411.567	457.89
411.775	488.61
411.984	435.36
412.192	490.66
412.401	484.52
412.609	523.43
412.818	527.52
413.026	554.15
413.234	640.16
413.443	658.59
413.651	658.59
413.86	617.63
414.068	789.66
414.276	724.13
414.485	658.59
414.693	750.75
414.901	760.99
415.11	756.9
415.318	691.36
415.526	801.95
415.734	826.53
415.943	875.68
416.151	1010.84
416.359	980.12
416.567	982.17
416.776	1045.66
416.984	1109.15
417.192	1072.28
417.4	1158.3
417.608	1100.95
417.817	1152.15
418.025	1215.64
418.233	1379.48
418.441	1252.5
418.649	1352.85
418.857	1414.29
419.065	1543.32
419.273	1502.36
419.481	1383.57
419.689	1670.29
419.897	1676.43
420.105	1735.82
420.313	1715.34
420.521	1825.93
420.729	1920.14
420.937	1930.38
421.145	2010.25
421.353	2104.46
421.561	2286.73
421.769	2190.47
421.977	2317.45
422.185	2249.86
422.393	2380.93
422.601	2395.27
422.809	2575.49
423.017	2518.15
423.224	2651.27
423.432	2735.23
423.64	2864.25
423.848	3222.65
424.056	2972.8
424.263	3220.6
424.471	3279.99
424.679	3210.36
424.887	3470.45
425.094	3509.37
425.302	3533.94
425.51	3783.79
425.718	3832.94
425.925	3968.11
426.133	4156.52
426.341	4365.42
426.548	4537.45
426.756	4467.81
426.964	4443.24
427.171	4832.35
427.379	4838.5
427.586	5092.44
427.794	5168.22
428.001	5346.39
428.209	5712.98
428.417	5448.79
428.624	5954.64
428.832	5930.06
429.039	5807.19
429.247	5901.39
429.454	6384.71
429.662	6802.5
429.869	6370.38
430.076	6712.39
430.284	6552.65
430.491	6972.48
430.699	7273.53
430.906	7228.48
431.114	7361.59
431.321	7572.54
431.528	7885.87
431.736	8125.49
431.943	8739.88
432.15	8432.68
432.358	8584.23
432.565	8985.63
432.772	9032.74
432.979	9370.65
433.187	9683.99
433.394	9618.46
433.601	10275.85
433.808	10384.4
434.016	10230.8
434.223	10722.31
434.43	11351.04
434.637	11006.98
434.844	11660.28
435.052	11899.89
435.259	11899.89
435.466	12119.03
435.673	11924.47
435.88	12733.42
436.087	13284.32
436.294	13208.55
436.501	12948.45
436.708	13204.45
436.915	13849.56
437.122	14341.07
437.329	14390.22
437.537	14869.45
437.743	15000.52
437.95	14793.67
438.157	15633.34
438.364	16360.37
438.571	16206.77
438.778	16391.09
438.985	18029.46
439.192	17056.68
439.399	17591.2
439.606	17202.08
439.813	18281.36
440.02	19561.34
440.227	18848.65
440.433	18781.07
440.64	19344.26
440.847	19389.31
441.054	19831.68
441.261	21183.34
441.467	20644.72
441.674	21056.36
441.881	21826.4
442.088	22088.54
442.294	21683.04
442.501	22274.9
442.708	22975.31
442.914	23472.96
443.121	24533.81
443.328	24001.34
443.534	25602.85
443.741	24742.71
443.948	24576.82
444.154	26129.18
444.361	25973.53
444.568	26336.02
444.774	26161.95
444.981	26399.51
445.187	27452.17
445.394	28406.52
445.6	28132.09
445.807	30583.51
446.013	29516.52
446.22	29784.8
446.426	31105.74
446.633	31070.93
446.839	32846.52
447.046	31240.91
447.252	32654.01
447.459	33049.27
447.665	32764.6
447.871	34142.88
448.078	35467.92
448.284	33667.75
448.491	35109.52
448.697	36248.19
448.903	36717.18
449.11	36938.36
449.316	36385.41
449.522	36878.97
449.728	38023.78
449.935	37997.16
450.141	38042.21
450.347	38748.76
450.553	37763.69
450.76	38574.69
450.966	39928.39
451.172	39332.43
451.378	40165.96
451.584	39258.71
451.791	40733.25
451.997	40278.6
452.203	41003.58
452.409	40622.65
452.615	40606.27
452.821	38666.84
453.027	38713.95
453.233	40804.92
453.44	39113.3
453.646	39412.31
453.852	39819.85
454.058	40487.49
454.264	38650.46
454.47	40196.68
454.676	39334.48
454.882	40458.82
455.088	36852.34
455.294	37270.13
455.5	38173.28
455.705	38597.21
455.911	37192.31
456.117	36192.9
456.323	35760.78
456.529	33903.27
456.735	35398.29
456.941	34357.92
457.147	34271.9
457.352	33196.72
457.558	32416.44
457.764	32682.68
457.97	31707.85
458.176	31525.58
458.381	31476.43
458.587	29829.86
458.793	30104.29
458.999	28275.45
459.204	30374.62
459.41	29453.03
459.616	27497.22
459.821	27714.31
460.027	27831.04
460.233	27210.51
460.438	25467.69
460.644	26102.56
460.85	24857.39
461.055	24382.26
461.261	24441.65
461.466	22362.97
461.672	21650.27
461.878	23526.21
462.083	21836.64
462.289	21465.96
462.494	21232.49
462.7	20413.3
462.905	19835.77
463.111	20511.6
463.316	20437.87
463.522	20358
463.727	19950.46
463.932	20153.21
464.138	19792.76
464.343	20018.04
464.549	19094.41
464.754	19839.87
464.959	19635.07
465.165	19424.13
465.37	18930.57
465.575	18387.86
465.781	19227.53
465.986	19024.78
466.191	18568.08
466.397	18037.66
466.602	17378.21
466.807	18088.85
467.012	18082.71
