Data from USB4F104151__195__14-20-25-708.txt Node

Date: Thu Mar 13 14:20:25 EDT 2025
User: louis
Spectrometer: USB4F10415
Trigger mode: 4
Integration Time (sec): 2.000000E-2
Scans to average: 1
Electric dark correction enabled: true
Nonlinearity correction enabled: false
Boxcar width: 0
XAxis mode: Wavelengths
Number of Pixels in Spectrum: 3648
>>>>>Begin Spectral Data<<<<<
178.204	-105.3
178.424	-105.3
178.644	-105.3
178.864	-80.72
179.084	-133.97
179.304	13.48
179.524	-7
179.744	-23.38
179.964	-13.14
180.184	83.11
180.404	-2.9
180.624	21.67
180.844	1.19
181.064	-13.14
181.283	3.24
181.503	-113.49
181.723	50.35
181.943	-72.53
182.163	44.2
182.383	-76.63
182.602	36.01
182.822	42.15
183.042	-15.19
183.262	-43.86
183.482	-23.38
183.701	-29.52
183.921	-15.19
184.141	-11.09
184.361	27.82
184.58	-17.24
184.8	-2.9
185.02	29.87
185.239	31.91
185.459	60.59
185.679	42.15
185.898	-21.33
186.118	44.2
186.338	-0.85
186.557	89.26
186.777	-11.09
186.997	3.24
187.216	-9.05
187.436	99.5
187.655	42.15
187.875	-23.38
188.095	33.96
188.314	17.58
188.534	9.39
188.753	-72.53
188.973	76.97
189.192	36.01
189.412	42.15
189.631	66.73
189.851	21.67
190.07	66.73
190.29	44.2
190.509	17.58
190.729	1.19
190.948	107.69
191.168	111.78
191.387	23.72
191.607	-66.39
191.826	1.19
192.045	-70.48
192.265	-7
192.484	79.02
192.704	-19.29
192.923	15.53
193.142	117.93
193.362	25.77
193.581	33.96
193.8	9.39
194.02	42.15
194.239	25.77
194.458	13.48
194.678	-31.57
194.897	29.87
195.116	33.96
195.335	1.19
195.555	17.58
195.774	-64.34
195.993	29.87
196.212	3.24
196.432	-45.91
196.651	54.44
196.87	-2.9
197.089	58.54
197.308	-4.95
197.528	-7
197.747	-4.95
197.966	83.11
198.185	11.43
198.404	60.59
198.623	60.59
198.842	44.2
199.062	25.77
199.281	5.29
199.5	-25.43
199.719	68.78
199.938	42.15
200.157	29.87
200.376	-27.48
200.595	42.15
200.814	3.24
201.033	-13.14
201.252	46.25
201.471	46.25
201.69	-0.85
201.909	-7
202.128	42.15
202.347	66.73
202.566	42.15
202.785	1.19
203.004	17.58
203.223	107.69
203.442	-7
203.661	1.19
203.879	-7
204.098	44.2
204.317	-29.52
204.536	83.11
204.755	11.43
204.974	50.35
205.193	54.44
205.411	31.91
205.63	31.91
205.849	-29.52
206.068	5.29
206.287	58.54
206.505	36.01
206.724	-23.38
206.943	25.77
207.162	3.24
207.381	93.35
207.599	-33.62
207.818	58.54
208.037	60.59
208.255	31.91
208.474	21.67
208.693	-13.14
208.911	58.54
209.13	-7
209.349	-7
209.567	50.35
209.786	95.4
210.005	36.01
210.223	-15.19
210.442	-60.24
210.661	19.63
210.879	31.91
211.098	25.77
211.316	76.97
211.535	25.77
211.753	9.39
211.972	38.06
212.191	-88.92
212.409	42.15
212.628	46.25
212.846	52.39
213.065	25.77
213.283	68.78
213.502	-60.24
213.72	62.63
213.938	56.49
214.157	1.19
214.375	66.73
214.594	36.01
214.812	42.15
215.031	52.39
215.249	83.11
215.467	9.39
215.686	17.58
215.904	5.29
216.122	13.48
216.341	38.06
216.559	50.35
216.778	38.06
216.996	19.63
217.214	38.06
217.432	-68.44
217.651	13.48
217.869	3.24
218.087	21.67
218.306	17.58
218.524	46.25
218.742	17.58
218.96	44.2
219.179	-35.67
219.397	-45.91
219.615	72.87
219.833	-72.53
220.051	1.19
220.27	76.97
220.488	52.39
220.706	21.67
220.924	-2.9
221.142	-19.29
221.36	9.39
221.578	64.68
221.796	-25.43
222.015	33.96
222.233	62.63
222.451	11.43
222.669	-54.1
222.887	91.31
223.105	19.63
223.323	17.58
223.541	40.11
223.759	-7
223.977	13.48
224.195	54.44
224.413	74.92
224.631	19.63
224.849	1.19
225.067	99.5
225.285	25.77
225.503	23.72
225.721	-43.86
225.939	-19.29
226.157	44.2
226.375	101.55
226.592	-15.19
226.81	52.39
227.028	66.73
227.246	23.72
227.464	9.39
227.682	33.96
227.9	38.06
228.117	54.44
228.335	13.48
228.553	-2.9
228.771	9.39
228.989	42.15
229.206	-27.48
229.424	-19.29
229.642	5.29
229.86	46.25
230.077	105.64
230.295	-19.29
230.513	56.49
230.731	66.73
230.948	27.82
231.166	33.96
231.384	-13.14
231.601	-15.19
231.819	74.92
232.037	-23.38
232.254	-21.33
232.472	-4.95
232.689	-45.91
232.907	66.73
233.125	46.25
233.342	-31.57
233.56	83.11
233.777	9.39
233.995	9.39
234.213	76.97
234.43	93.35
234.648	21.67
234.865	25.77
235.083	-15.19
235.3	7.34
235.518	-39.76
235.735	119.98
235.953	33.96
236.17	25.77
236.388	5.29
236.605	54.44
236.822	-21.33
237.04	33.96
237.257	-4.95
237.475	1.19
237.692	97.45
237.909	89.26
238.127	11.43
238.344	33.96
238.562	5.29
238.779	17.58
238.996	-13.14
239.214	64.68
239.431	68.78
239.648	33.96
239.865	68.78
240.083	29.87
240.3	-0.85
240.517	13.48
240.735	42.15
240.952	74.92
241.169	101.55
241.386	3.24
241.603	-31.57
241.821	50.35
242.038	50.35
242.255	58.54
242.472	-23.38
242.689	44.2
242.907	-19.29
243.124	38.06
243.341	-27.48
243.558	-62.29
243.775	-15.19
243.992	-11.09
244.209	70.83
244.426	31.91
244.643	-11.09
244.86	3.24
245.078	68.78
245.295	13.48
245.512	-23.38
245.729	5.29
245.946	81.07
246.163	-19.29
246.38	68.78
246.597	7.34
246.814	31.91
247.031	38.06
247.248	-62.29
247.464	68.78
247.681	11.43
247.898	-56.15
248.115	17.58
248.332	-62.29
248.549	27.82
248.766	9.39
248.983	19.63
249.2	1.19
249.417	58.54
249.633	29.87
249.85	-21.33
250.067	-29.52
250.284	25.77
250.501	60.59
250.717	27.82
250.934	-64.34
251.151	44.2
251.368	-47.96
251.585	1.19
251.801	44.2
252.018	-95.06
252.235	19.63
252.451	5.29
252.668	58.54
252.885	58.54
253.102	-31.57
253.318	21.67
253.535	70.83
253.752	-31.57
253.968	46.25
254.185	-31.57
254.401	-29.52
254.618	-7
254.835	-0.85
255.051	40.11
255.268	91.31
255.484	33.96
255.701	89.26
255.917	74.92
256.134	-15.19
256.351	-23.38
256.567	-47.96
256.784	79.02
257	-7
257.217	42.15
257.433	21.67
257.65	42.15
257.866	48.3
258.082	11.43
258.299	25.77
258.515	17.58
258.732	72.87
258.948	-31.57
259.165	-60.24
259.381	21.67
259.597	-7
259.814	38.06
260.03	-4.95
260.246	-7
260.463	25.77
260.679	29.87
260.895	-9.05
261.112	-19.29
261.328	5.29
261.544	50.35
261.761	60.59
261.977	-7
262.193	-29.52
262.409	-11.09
262.626	9.39
262.842	44.2
263.058	-11.09
263.274	70.83
263.49	-56.15
263.707	3.24
263.923	-4.95
264.139	9.39
264.355	33.96
264.571	-2.9
264.787	52.39
265.004	1.19
265.22	42.15
265.436	68.78
265.652	62.63
265.868	17.58
266.084	-50
266.3	76.97
266.516	-11.09
266.732	50.35
266.948	-11.09
267.164	36.01
267.38	70.83
267.596	46.25
267.812	50.35
268.028	1.19
268.244	19.63
268.46	-15.19
268.676	54.44
268.892	29.87
269.108	-4.95
269.324	74.92
269.54	17.58
269.756	-70.48
269.972	15.53
270.188	25.77
270.403	17.58
270.619	-33.62
270.835	66.73
271.051	-39.76
271.267	-43.86
271.483	-2.9
271.698	70.83
271.914	36.01
272.13	-11.09
272.346	42.15
272.562	46.25
272.777	36.01
272.993	9.39
273.209	46.25
273.425	83.11
273.64	-27.48
273.856	17.58
274.072	-17.24
274.287	33.96
274.503	58.54
274.719	50.35
274.934	40.11
275.15	44.2
275.366	-31.57
275.581	-19.29
275.797	-23.38
276.012	-13.14
276.228	-23.38
276.444	-15.19
276.659	23.72
276.875	33.96
277.09	13.48
277.306	-27.48
277.521	33.96
277.737	-52.05
277.952	-31.57
278.168	36.01
278.383	74.92
278.599	60.59
278.814	54.44
279.03	-45.91
279.245	91.31
279.461	97.45
279.676	44.2
279.892	52.39
280.107	58.54
280.322	-23.38
280.538	81.07
280.753	48.3
280.969	95.4
281.184	25.77
281.399	66.73
281.615	-25.43
281.83	91.31
282.045	-13.14
282.26	27.82
282.476	-11.09
282.691	-29.52
282.906	48.3
283.122	66.73
283.337	-21.33
283.552	42.15
283.767	-13.14
283.983	99.5
284.198	-4.95
284.413	93.35
284.628	25.77
284.843	50.35
285.058	19.63
285.274	-52.05
285.489	1.19
285.704	44.2
285.919	50.35
286.134	40.11
286.349	1.19
286.564	44.2
286.779	74.92
286.995	62.63
287.21	48.3
287.425	38.06
287.64	66.73
287.855	85.16
288.07	-39.76
288.285	-9.05
288.5	-27.48
288.715	107.69
288.93	36.01
289.145	-19.29
289.36	21.67
289.575	15.53
289.79	42.15
290.004	50.35
290.219	19.63
290.434	21.67
290.649	9.39
290.864	1.19
291.079	36.01
291.294	15.53
291.509	-13.14
291.724	-15.19
291.938	25.77
292.153	46.25
292.368	-37.72
292.583	27.82
292.798	3.24
293.012	3.24
293.227	-17.24
293.442	-4.95
293.657	58.54
293.871	27.82
294.086	17.58
294.301	70.83
294.516	13.48
294.73	74.92
294.945	-37.72
295.16	15.53
295.374	1.19
295.589	101.55
295.804	-0.85
296.018	-54.1
296.233	93.35
296.447	56.49
296.662	-25.43
296.877	-7
297.091	50.35
297.306	17.58
297.52	-15.19
297.735	58.54
297.949	33.96
298.164	36.01
298.378	-27.48
298.593	-60.24
298.807	19.63
299.022	-15.19
299.236	132.26
299.451	-31.57
299.665	13.48
299.88	27.82
300.094	9.39
300.309	9.39
300.523	72.87
300.737	50.35
300.952	58.54
301.166	3.24
301.381	17.58
301.595	-27.48
301.809	11.43
302.024	36.01
302.238	31.91
302.452	9.39
302.667	25.77
302.881	58.54
303.095	21.67
303.309	72.87
303.524	1.19
303.738	25.77
303.952	60.59
304.166	33.96
304.381	-11.09
304.595	42.15
304.809	27.82
305.023	70.83
305.237	19.63
305.452	40.11
305.666	122.02
305.88	66.73
306.094	25.77
306.308	-64.34
306.522	58.54
306.736	33.96
306.95	-50
307.164	17.58
307.379	60.59
307.593	27.82
307.807	1.19
308.021	5.29
308.235	83.11
308.449	-9.05
308.663	58.54
308.877	91.31
309.091	-37.72
309.305	27.82
309.519	-11.09
309.733	109.74
309.947	5.29
310.161	52.39
310.374	17.58
310.588	-7
310.802	21.67
311.016	-23.38
311.23	81.07
311.444	50.35
311.658	3.24
311.872	81.07
312.085	50.35
312.299	93.35
312.513	42.15
312.727	58.54
312.941	21.67
313.154	-64.34
313.368	-21.33
313.582	5.29
313.796	68.78
314.009	31.91
314.223	58.54
314.437	7.34
314.651	103.59
314.864	109.74
315.078	-33.62
315.292	-15.19
315.505	81.07
315.719	13.48
315.933	-17.24
316.146	7.34
316.36	-41.81
316.573	74.92
316.787	46.25
317.001	93.35
317.214	46.25
317.428	-21.33
317.641	-54.1
317.855	-15.19
318.068	-2.9
318.282	13.48
318.495	17.58
318.709	17.58
318.922	-0.85
319.136	76.97
319.349	70.83
319.563	66.73
319.776	83.11
319.99	70.83
320.203	21.67
320.417	50.35
320.63	83.11
320.843	122.02
321.057	74.92
321.27	5.29
321.483	9.39
321.697	60.59
321.91	9.39
322.124	9.39
322.337	11.43
322.55	9.39
322.763	117.93
322.977	52.39
323.19	19.63
323.403	46.25
323.617	27.82
323.83	-7
324.043	-23.38
324.256	-7
324.469	19.63
324.683	52.39
324.896	-11.09
325.109	-29.52
325.322	3.24
325.535	136.36
325.748	15.53
325.962	9.39
326.175	60.59
326.388	36.01
326.601	46.25
326.814	42.15
327.027	48.3
327.24	70.83
327.453	-39.76
327.666	33.96
327.879	29.87
328.092	13.48
328.305	-56.15
328.518	44.2
328.731	50.35
328.944	44.2
329.157	36.01
329.37	-25.43
329.583	21.67
329.796	38.06
330.009	29.87
330.222	107.69
330.435	46.25
330.648	27.82
330.861	-80.72
331.073	46.25
331.286	74.92
331.499	44.2
331.712	-19.29
331.925	81.07
332.138	-7
332.35	38.06
332.563	60.59
332.776	25.77
332.989	31.91
333.202	-25.43
333.414	-37.72
333.627	103.59
333.84	89.26
334.053	-21.33
334.265	-35.67
334.478	74.92
334.691	111.78
334.903	3.24
335.116	31.91
335.329	-15.19
335.541	11.43
335.754	50.35
335.966	42.15
336.179	101.55
336.392	11.43
336.604	25.77
336.817	9.39
337.029	119.98
337.242	40.11
337.454	9.39
337.667	17.58
337.88	44.2
338.092	29.87
338.305	17.58
338.517	-4.95
338.729	13.48
338.942	58.54
339.154	3.24
339.367	44.2
339.579	-15.19
339.792	-11.09
340.004	99.5
340.217	93.35
340.429	76.97
340.641	27.82
340.854	9.39
341.066	13.48
341.278	79.02
341.491	66.73
341.703	25.77
341.915	-4.95
342.128	29.87
342.34	70.83
342.552	-52.05
342.764	-43.86
342.977	46.25
343.189	66.73
343.401	-11.09
343.613	50.35
343.826	36.01
344.038	-31.57
344.25	-4.95
344.462	33.96
344.674	42.15
344.886	109.74
345.099	1.19
345.311	42.15
345.523	40.11
345.735	3.24
345.947	79.02
346.159	33.96
346.371	-15.19
346.583	52.39
346.795	60.59
347.007	17.58
347.219	52.39
347.431	1.19
347.643	36.01
347.855	17.58
348.067	3.24
348.279	-70.48
348.491	-31.57
348.703	87.21
348.915	58.54
349.127	29.87
349.339	54.44
349.551	13.48
349.763	83.11
349.975	33.96
350.187	87.21
350.399	50.35
350.61	19.63
350.822	-23.38
351.034	79.02
351.246	17.58
351.458	58.54
351.669	124.07
351.881	-19.29
352.093	58.54
352.305	3.24
352.517	-33.62
352.728	48.3
352.94	5.29
353.152	-72.53
353.363	1.19
353.575	13.48
353.787	64.68
353.999	29.87
354.21	25.77
354.422	-2.9
354.633	1.19
354.845	70.83
355.057	33.96
355.268	1.19
355.48	79.02
355.692	-2.9
355.903	17.58
356.115	48.3
356.326	-45.91
356.538	72.87
356.749	-17.24
356.961	111.78
357.172	58.54
357.384	70.83
357.595	117.93
357.807	79.02
358.018	-7
358.23	25.77
358.441	64.68
358.653	21.67
358.864	19.63
359.075	44.2
359.287	1.19
359.498	89.26
359.709	9.39
359.921	31.91
360.132	1.19
360.344	38.06
360.555	11.43
360.766	46.25
360.977	38.06
361.189	74.92
361.4	48.3
361.611	64.68
361.823	60.59
362.034	36.01
362.245	-54.1
362.456	-4.95
362.667	1.19
362.879	13.48
363.09	19.63
363.301	54.44
363.512	-2.9
363.723	95.4
363.935	3.24
364.146	40.11
364.357	29.87
364.568	38.06
364.779	-52.05
364.99	85.16
365.201	-47.96
365.412	17.58
365.623	19.63
365.834	36.01
366.045	3.24
366.256	9.39
366.467	13.48
366.678	-13.14
366.889	-43.86
367.1	7.34
367.311	99.5
367.522	25.77
367.733	79.02
367.944	50.35
368.155	21.67
368.366	-11.09
368.577	5.29
368.788	152.74
368.999	-27.48
369.209	52.39
369.42	70.83
369.631	99.5
369.842	7.34
370.053	19.63
370.264	44.2
370.474	48.3
370.685	87.21
370.896	3.24
371.107	21.67
371.317	5.29
371.528	-31.57
371.739	58.54
371.95	48.3
372.16	99.5
372.371	9.39
372.582	52.39
372.792	33.96
373.003	27.82
373.214	-41.81
373.424	38.06
373.635	19.63
373.846	46.25
374.056	25.77
374.267	72.87
374.477	50.35
374.688	31.91
374.898	9.39
375.109	-4.95
375.319	85.16
375.53	48.3
375.74	52.39
375.951	91.31
376.161	58.54
376.372	97.45
376.582	27.82
376.793	44.2
377.003	-41.81
377.214	-21.33
377.424	56.49
377.635	9.39
377.845	68.78
378.055	68.78
378.266	-13.14
378.476	54.44
378.686	44.2
378.897	50.35
379.107	66.73
379.317	70.83
379.528	-23.38
379.738	33.96
379.948	21.67
380.158	91.31
380.369	19.63
380.579	27.82
380.789	21.67
380.999	9.39
381.21	66.73
381.42	72.87
381.63	68.78
381.84	19.63
382.05	66.73
382.261	87.21
382.471	76.97
382.681	89.26
382.891	81.07
383.101	19.63
383.311	46.25
383.521	-21.33
383.731	7.34
383.941	58.54
384.151	1.19
384.361	31.91
384.571	23.72
384.781	31.91
384.991	101.55
385.201	140.46
385.411	132.26
385.621	-7
385.831	50.35
386.041	107.69
386.251	-15.19
386.461	23.72
386.671	13.48
386.881	115.88
387.091	48.3
387.301	50.35
387.511	36.01
387.72	60.59
387.93	58.54
388.14	-23.38
388.35	-13.14
388.56	11.43
388.769	13.48
388.979	29.87
389.189	-13.14
389.399	9.39
389.609	68.78
389.818	68.78
390.028	11.43
390.238	58.54
390.447	66.73
390.657	58.54
390.867	66.73
391.076	101.55
391.286	68.78
391.496	3.24
391.705	29.87
391.915	109.74
392.125	87.21
392.334	74.92
392.544	66.73
392.753	91.31
392.963	21.67
393.172	93.35
393.382	130.22
393.591	76.97
393.801	87.21
394.01	115.88
394.22	17.58
394.429	72.87
394.639	97.45
394.848	44.2
395.058	109.74
395.267	-2.9
395.477	113.83
395.686	74.92
395.895	144.55
396.105	183.46
396.314	74.92
396.524	70.83
396.733	38.06
396.942	173.22
397.152	46.25
397.361	128.17
397.57	142.5
397.78	76.97
397.989	70.83
398.198	103.59
398.407	72.87
398.617	95.4
398.826	115.88
399.035	72.87
399.244	177.32
399.453	109.74
399.663	85.16
399.872	70.83
400.081	95.4
400.29	144.55
400.499	-2.9
400.708	128.17
400.917	95.4
401.127	58.54
401.336	52.39
401.545	93.35
401.754	197.8
401.963	126.12
402.172	79.02
402.381	140.46
402.59	70.83
402.799	83.11
403.008	115.88
403.217	124.07
403.426	83.11
403.635	111.78
403.844	83.11
404.053	156.84
404.262	74.92
404.471	99.5
404.68	156.84
404.888	175.27
405.097	136.36
405.306	124.07
405.515	189.61
405.724	181.42
405.933	150.7
406.142	162.98
406.35	218.28
406.559	140.46
406.768	156.84
406.977	249
407.185	263.33
407.394	201.9
407.603	175.27
407.812	251.05
408.02	222.38
408.229	185.51
408.438	201.9
408.646	142.5
408.855	249
409.064	271.53
409.272	314.53
409.481	279.72
409.69	222.38
409.898	177.32
410.107	244.9
410.315	312.49
410.524	378.02
410.733	306.34
410.941	316.58
411.15	380.07
411.358	314.53
411.567	443.56
411.775	384.16
411.984	378.02
412.192	386.21
412.401	455.84
412.609	517.28
412.818	533.67
413.026	449.7
413.234	414.88
413.443	494.76
413.651	537.76
413.86	517.28
414.068	562.34
414.276	631.97
414.485	625.83
414.693	644.26
414.901	672.93
415.11	701.6
415.318	705.7
415.526	758.94
415.734	732.32
415.943	758.94
416.151	804
416.359	828.57
416.567	806.05
416.776	795.81
416.984	910.49
417.192	1000.6
417.4	1039.51
417.608	978.08
417.817	1059.99
418.025	1066.14
418.233	1162.39
418.441	1172.63
418.649	1168.54
418.857	1197.21
419.065	1307.8
419.273	1260.7
419.481	1320.09
419.689	1414.29
419.897	1469.59
420.105	1524.88
420.313	1528.98
420.521	1651.86
420.729	1574.03
420.937	1668.24
421.145	1725.58
421.353	1754.26
421.561	1870.99
421.769	1928.33
421.977	2034.83
422.185	1995.92
422.393	2165.9
422.601	2223.24
422.809	2225.29
423.017	2202.76
423.224	2362.5
423.432	2540.68
423.64	2503.81
423.848	2641.03
424.056	2548.87
424.263	2780.29
424.471	2872.45
424.679	2811.01
424.887	3001.47
425.094	3087.48
425.302	3155.07
425.51	3228.79
425.718	3202.17
425.925	3372.15
426.133	3427.45
426.341	3658.87
426.548	3679.35
426.756	3798.13
426.964	3834.99
427.171	4181.1
427.379	4211.82
427.586	4306.02
427.794	4385.9
428.001	4547.69
428.209	4844.64
428.417	4877.41
428.624	5203.04
428.832	5178.46
429.039	4983.9
429.247	5063.77
429.454	5420.12
429.662	5866.58
429.869	5379.16
430.076	5907.54
430.284	5723.22
430.491	5930.06
430.699	6173.77
430.906	6327.37
431.114	6278.22
431.321	6583.37
431.528	6724.68
431.736	7132.22
431.943	7525.43
432.15	7164.99
432.358	7410.75
432.565	7812.15
432.772	7525.43
432.979	8068.14
433.187	8367.15
433.394	8307.76
433.601	9014.31
433.808	8805.41
434.016	8860.71
434.223	9276.45
434.43	9735.19
434.637	9554.97
434.844	10183.7
435.052	10396.68
435.259	10257.42
435.466	10390.54
435.673	10204.17
435.88	11064.32
436.087	11416.57
436.294	11426.81
436.501	11262.97
436.708	11383.8
436.915	11729.91
437.122	12327.92
437.329	12276.72
437.537	12803.05
437.743	12911.59
437.95	12796.9
438.157	13480.92
438.364	13855.7
438.571	14037.97
438.778	14146.51
438.985	15420.35
439.192	14461.9
439.399	15311.81
439.606	14812.1
439.813	15672.25
440.02	16442.29
440.227	16247.73
440.433	16118.71
440.64	16733.1
440.847	16432.05
441.054	17105.83
441.261	18281.36
441.467	17742.75
441.674	18197.4
441.881	18738.06
442.088	18535.31
442.294	18643.85
442.501	19039.11
442.708	19295.11
442.914	20153.21
443.121	20935.53
443.328	20562.8
443.534	22154.07
443.741	21402.47
443.948	20863.85
444.154	22590.29
444.361	22297.43
444.568	22817.61
444.774	22524.75
444.981	22598.48
445.187	23661.38
445.394	24574.77
445.6	24128.31
445.807	26422.04
446.013	25396.01
446.22	25744.16
446.426	26766.1
446.633	26964.75
446.839	28060.41
447.046	27013.9
447.252	28572.41
447.459	27996.93
447.665	28316.41
447.871	29397.74
448.078	30386.91
448.284	29092.59
448.491	30024.42
448.697	30876.37
448.903	31611.59
449.11	31892.16
449.316	31165.14
449.522	31867.59
449.728	32705.21
449.935	32760.5
450.141	32682.68
450.347	33663.66
450.553	32430.78
450.76	33026.74
450.966	33874.6
451.172	33841.83
451.378	34740.89
451.584	33944.23
451.791	34658.97
451.997	34423.45
452.203	35240.59
452.409	35021.46
452.615	35089.04
452.821	33768.1
453.027	33413.8
453.233	35136.15
453.44	33663.66
453.646	34081.44
453.852	34366.11
454.058	34738.84
454.264	33917.61
454.47	34634.39
454.676	33585.83
454.882	35095.19
455.088	31802.05
455.294	32178.88
455.5	32604.86
455.705	33079.99
455.911	31677.13
456.117	31056.59
456.323	30888.66
456.529	29199.09
456.735	30466.78
456.941	29565.67
457.147	29178.61
457.352	28406.52
457.558	28019.46
457.764	28275.45
457.97	27626.25
458.176	26868.5
458.381	27245.32
458.587	25742.11
458.793	25611.04
458.999	24437.56
459.204	26182.43
459.41	25183.02
459.616	23870.27
459.821	23595.84
460.027	23839.55
460.233	23262.02
460.438	22315.86
460.644	22377.3
460.85	21252.97
461.055	20882.28
461.261	21115.75
461.466	19219.33
461.672	18869.13
461.878	20040.57
462.083	18627.47
462.289	18512.78
462.494	18486.16
462.7	17722.27
462.905	17015.72
463.111	17574.81
463.316	17451.94
463.522	17134.5
463.727	17109.93
463.932	17384.35
464.138	17064.87
464.343	17007.53
464.549	16341.94
464.754	17185.7
464.959	16825.26
465.165	16917.42
465.37	16249.78
465.575	15772.6
465.781	16331.7
465.986	16589.74
466.191	15936.44
466.397	15643.58
466.602	14738.38
466.807	15289.28
467.012	15459.26
467.218	15348.67
467.423	15027.14
467.628	15242.18
467.833	15786.94
468.038	15465.41
468.244	14844.87
