Data from USB4F104151__152__14-19-29-108.txt Node

Date: Thu Mar 13 14:19:29 EDT 2025
User: louis
Spectrometer: USB4F10415
Trigger mode: 4
Integration Time (sec): 2.000000E-2
Scans to average: 1
Electric dark correction enabled: true
Nonlinearity correction enabled: false
Boxcar width: 0
XAxis mode: Wavelengths
Number of Pixels in Spectrum: 3648
>>>>>Begin Spectral Data<<<<<
178.204	-127.14
178.424	-127.14
178.644	-127.14
178.864	-104.62
179.084	-71.85
179.304	-0.17
179.524	-12.46
179.744	-92.33
179.964	46.93
180.184	63.32
180.404	-47.27
180.624	-57.51
180.844	48.98
181.064	3.93
181.283	53.08
181.503	-45.23
181.723	38.74
181.943	30.55
182.163	44.88
182.383	22.36
182.602	71.51
182.822	77.65
183.042	22.36
183.262	-45.23
183.482	-39.08
183.701	-4.27
183.921	8.02
184.141	-6.31
184.361	38.74
184.58	-18.6
184.8	-77.99
185.02	-8.36
185.239	36.69
185.459	-22.7
185.679	53.08
185.898	-41.13
186.118	-4.27
186.338	36.69
186.557	36.69
186.777	38.74
186.997	30.55
187.216	57.17
187.436	65.36
187.655	5.97
187.875	53.08
188.095	12.12
188.314	73.56
188.534	-6.31
188.753	-2.22
188.973	112.47
189.192	122.71
189.412	-12.46
189.631	28.5
189.851	20.31
190.07	65.36
190.29	-16.55
190.509	-49.32
190.729	77.65
190.948	20.31
191.168	77.65
191.387	98.13
191.607	-51.37
191.826	36.69
192.045	18.26
192.265	46.93
192.484	106.32
192.704	30.55
192.923	26.45
193.142	120.66
193.362	12.12
193.581	-8.36
193.8	61.27
194.02	8.02
194.239	3.93
194.458	20.31
194.678	-20.65
194.897	61.27
195.116	32.6
195.335	79.7
195.555	16.21
195.774	79.7
195.993	-18.6
196.212	63.32
196.432	57.17
196.651	65.36
196.87	3.93
197.089	100.18
197.308	-26.79
197.528	-26.79
197.747	-12.46
197.966	26.45
198.185	65.36
198.404	116.56
198.623	63.32
198.842	44.88
199.062	69.46
199.281	61.27
199.5	22.36
199.719	1.88
199.938	79.7
200.157	53.08
200.376	5.97
200.595	65.36
200.814	48.98
201.033	40.79
201.252	20.31
201.471	51.03
201.69	-26.79
201.909	61.27
202.128	-0.17
202.347	28.5
202.566	-34.99
202.785	98.13
203.004	1.88
203.223	83.8
203.442	-61.61
203.661	-4.27
203.879	65.36
204.098	38.74
204.317	61.27
204.536	44.88
204.755	3.93
204.974	53.08
205.193	63.32
205.411	77.65
205.63	-2.22
205.849	55.12
206.068	53.08
206.287	18.26
206.505	34.64
206.724	69.46
206.943	-10.41
207.162	94.04
207.381	24.4
207.599	-34.99
207.818	28.5
208.037	34.64
208.255	-12.46
208.474	46.93
208.693	30.55
208.911	-12.46
209.13	85.84
209.349	20.31
209.567	44.88
209.786	69.46
210.005	40.79
210.223	34.64
210.442	38.74
210.661	61.27
210.879	-45.23
211.098	-47.27
211.316	42.84
211.535	36.69
211.753	-10.41
211.972	3.93
212.191	20.31
212.409	69.46
212.628	10.07
212.846	-8.36
213.065	-24.75
213.283	65.36
213.502	26.45
213.72	26.45
213.938	26.45
214.157	-10.41
214.375	67.41
214.594	36.69
214.812	57.17
215.031	16.21
215.249	38.74
215.467	55.12
215.686	-0.17
215.904	79.7
216.122	89.94
216.341	12.12
216.559	-10.41
216.778	28.5
216.996	-18.6
217.214	-18.6
217.432	12.12
217.651	-61.61
217.869	59.22
218.087	40.79
218.306	65.36
218.524	106.32
218.742	20.31
218.96	106.32
219.179	16.21
219.397	87.89
219.615	94.04
219.833	28.5
220.051	-88.23
220.27	94.04
220.488	40.79
220.706	28.5
220.924	-4.27
221.142	28.5
221.36	96.08
221.578	-37.03
221.796	57.17
222.015	42.84
222.233	85.84
222.451	59.22
222.669	30.55
222.887	61.27
223.105	44.88
223.323	61.27
223.541	3.93
223.759	22.36
223.977	20.31
224.195	36.69
224.413	24.4
224.631	20.31
224.849	63.32
225.067	130.9
225.285	-10.41
225.503	69.46
225.721	3.93
225.939	79.7
226.157	38.74
226.375	94.04
226.592	10.07
226.81	81.75
227.028	22.36
227.246	65.36
227.464	44.88
227.682	71.51
227.9	57.17
228.117	40.79
228.335	85.84
228.553	77.65
228.771	36.69
228.989	110.42
229.206	77.65
229.424	20.31
229.642	18.26
229.86	73.56
230.077	-18.6
230.295	48.98
230.513	44.88
230.731	24.4
230.948	65.36
231.166	55.12
231.384	-10.41
231.601	28.5
231.819	46.93
232.037	-32.94
232.254	59.22
232.472	79.7
232.689	-47.27
232.907	12.12
233.125	14.17
233.342	-39.08
233.56	20.31
233.777	20.31
233.995	36.69
234.213	30.55
234.43	71.51
234.648	36.69
234.865	24.4
235.083	-51.37
235.3	77.65
235.518	89.94
235.735	102.23
235.953	-20.65
236.17	102.23
236.388	53.08
236.605	8.02
236.822	145.24
237.04	44.88
237.257	20.31
237.475	-53.42
237.692	100.18
237.909	-26.79
238.127	20.31
238.344	32.6
238.562	77.65
238.779	44.88
238.996	-0.17
239.214	87.89
239.431	14.17
239.648	57.17
239.865	30.55
240.083	40.79
240.3	16.21
240.517	-0.17
240.735	53.08
240.952	-2.22
241.169	94.04
241.386	3.93
241.603	147.28
241.821	10.07
242.038	73.56
242.255	75.6
242.472	32.6
242.689	46.93
242.907	59.22
243.124	-10.41
243.341	63.32
243.558	22.36
243.775	32.6
243.992	65.36
244.209	48.98
244.426	73.56
244.643	-2.22
244.86	-4.27
245.078	124.76
245.295	-12.46
245.512	-12.46
245.729	46.93
245.946	102.23
246.163	79.7
246.38	12.12
246.597	57.17
246.814	38.74
247.031	28.5
247.248	104.28
247.464	-8.36
247.681	12.12
247.898	81.75
248.115	87.89
248.332	38.74
248.549	46.93
248.766	10.07
248.983	20.31
249.2	61.27
249.417	65.36
249.633	48.98
249.85	36.69
250.067	-28.84
250.284	57.17
250.501	110.42
250.717	79.7
250.934	-28.84
251.151	20.31
251.368	63.32
251.585	44.88
251.801	79.7
252.018	81.75
252.235	14.17
252.451	-30.89
252.668	67.41
252.885	89.94
253.102	44.88
253.318	36.69
253.535	55.12
253.752	53.08
253.968	-26.79
254.185	-26.79
254.401	77.65
254.618	85.84
254.835	53.08
255.051	55.12
255.268	-8.36
255.484	53.08
255.701	44.88
255.917	96.08
256.134	44.88
256.351	38.74
256.567	85.84
256.784	53.08
257	-8.36
257.217	55.12
257.433	-4.27
257.65	34.64
257.866	63.32
258.082	-18.6
258.299	-18.6
258.515	8.02
258.732	48.98
258.948	-20.65
259.165	-28.84
259.381	-0.17
259.597	53.08
259.814	14.17
260.03	98.13
260.246	69.46
260.463	20.31
260.679	-0.17
260.895	12.12
261.112	77.65
261.328	-8.36
261.544	69.46
261.761	118.61
261.977	-28.84
262.193	20.31
262.409	-8.36
262.626	-22.7
262.842	-8.36
263.058	98.13
263.274	145.24
263.49	85.84
263.707	61.27
263.923	-63.66
264.139	28.5
264.355	-8.36
264.571	30.55
264.787	-18.6
265.004	-24.75
265.22	36.69
265.436	28.5
265.652	-34.99
265.868	20.31
266.084	-14.51
266.3	14.17
266.516	44.88
266.732	102.23
266.948	61.27
267.164	28.5
267.38	-41.13
267.596	75.6
267.812	96.08
268.028	12.12
268.244	-61.61
268.46	-0.17
268.676	73.56
268.892	65.36
269.108	-18.6
269.324	30.55
269.54	-10.41
269.756	94.04
269.972	26.45
270.188	61.27
270.403	-45.23
270.619	85.84
270.835	122.71
271.051	77.65
271.267	63.32
271.483	48.98
271.698	-8.36
271.914	3.93
272.13	-32.94
272.346	28.5
272.562	3.93
272.777	36.69
272.993	48.98
273.209	24.4
273.425	116.56
273.64	12.12
273.856	57.17
274.072	16.21
274.287	71.51
274.503	3.93
274.719	22.36
274.934	38.74
275.15	-53.42
275.366	85.84
275.581	34.64
275.797	-2.22
276.012	40.79
276.228	-4.27
276.444	14.17
276.659	81.75
276.875	-16.55
277.09	65.36
277.306	34.64
277.521	102.23
277.737	12.12
277.952	100.18
278.168	22.36
278.383	-6.31
278.599	75.6
278.814	73.56
279.03	63.32
279.245	53.08
279.461	-37.03
279.676	46.93
279.892	8.02
280.107	28.5
280.322	18.26
280.538	36.69
280.753	-4.27
280.969	59.22
281.184	-26.79
281.399	61.27
281.615	16.21
281.83	91.99
282.045	-4.27
282.26	-20.65
282.476	-10.41
282.691	67.41
282.906	-2.22
283.122	24.4
283.337	-22.7
283.552	98.13
283.767	89.94
283.983	104.28
284.198	-18.6
284.413	14.17
284.628	-34.99
284.843	3.93
285.058	122.71
285.274	36.69
285.489	106.32
285.704	36.69
285.919	5.97
286.134	53.08
286.349	122.71
286.564	65.36
286.779	34.64
286.995	38.74
287.21	38.74
287.425	87.89
287.64	20.31
287.855	18.26
288.07	-41.13
288.285	65.36
288.5	57.17
288.715	-12.46
288.93	-2.22
289.145	12.12
289.36	67.41
289.575	22.36
289.79	-8.36
290.004	55.12
290.219	155.47
290.434	20.31
290.649	-37.03
290.864	40.79
291.079	10.07
291.294	40.79
291.509	-0.17
291.724	57.17
291.938	57.17
292.153	122.71
292.368	61.27
292.583	40.79
292.798	28.5
293.012	44.88
293.227	85.84
293.442	53.08
293.657	108.37
293.871	32.6
294.086	-41.13
294.301	12.12
294.516	36.69
294.73	-4.27
294.945	28.5
295.16	44.88
295.374	85.84
295.589	69.46
295.804	3.93
296.018	46.93
296.233	106.32
296.447	12.12
296.662	44.88
296.877	110.42
297.091	94.04
297.306	36.69
297.52	-24.75
297.735	46.93
297.949	-26.79
298.164	112.47
298.378	51.03
298.593	-18.6
298.807	3.93
299.022	44.88
299.236	77.65
299.451	32.6
299.665	46.93
299.88	-59.56
300.094	61.27
300.309	3.93
300.523	63.32
300.737	73.56
300.952	3.93
301.166	63.32
301.381	36.69
301.595	57.17
301.809	10.07
302.024	77.65
302.238	46.93
302.452	85.84
302.667	44.88
302.881	48.98
303.095	-34.99
303.309	42.84
303.524	-37.03
303.738	5.97
303.952	128.85
304.166	-4.27
304.381	3.93
304.595	75.6
304.809	55.12
305.023	-2.22
305.237	69.46
305.452	67.41
305.666	20.31
305.88	57.17
306.094	42.84
306.308	55.12
306.522	46.93
306.736	71.51
306.95	79.7
307.164	126.8
307.379	30.55
307.593	12.12
307.807	83.8
308.021	79.7
308.235	38.74
308.449	69.46
308.663	-26.79
308.877	81.75
309.091	79.7
309.305	44.88
309.519	20.31
309.733	55.12
309.947	36.69
310.161	61.27
310.374	42.84
310.588	87.89
310.802	-14.51
311.016	57.17
311.23	-28.84
311.444	-0.17
311.658	91.99
311.872	46.93
312.085	110.42
312.299	-10.41
312.513	36.69
312.727	28.5
312.941	-45.23
313.154	48.98
313.368	-26.79
313.582	22.36
313.796	20.31
314.009	-18.6
314.223	94.04
314.437	63.32
314.651	38.74
314.864	1.88
315.078	16.21
315.292	73.56
315.505	81.75
315.719	44.88
315.933	3.93
316.146	46.93
316.36	-53.42
316.573	22.36
316.787	34.64
317.001	8.02
317.214	-14.51
317.428	42.84
317.641	14.17
317.855	51.03
318.068	34.64
318.282	96.08
318.495	69.46
318.709	69.46
318.922	12.12
319.136	61.27
319.349	46.93
319.563	108.37
319.776	16.21
319.99	55.12
320.203	71.51
320.417	53.08
320.63	30.55
320.843	98.13
321.057	57.17
321.27	14.17
321.483	57.17
321.697	24.4
321.91	87.89
322.124	126.8
322.337	-12.46
322.55	40.79
322.763	75.6
322.977	-41.13
323.19	53.08
323.403	61.27
323.617	55.12
323.83	32.6
324.043	-2.22
324.256	40.79
324.469	-90.28
324.683	106.32
324.896	22.36
325.109	36.69
325.322	-12.46
325.535	-2.22
325.748	79.7
325.962	40.79
326.175	48.98
326.388	85.84
326.601	96.08
326.814	-24.75
327.027	-18.6
327.24	96.08
327.453	38.74
327.666	85.84
327.879	40.79
328.092	34.64
328.305	69.46
328.518	53.08
328.731	46.93
328.944	20.31
329.157	91.99
329.37	67.41
329.583	108.37
329.796	89.94
330.009	22.36
330.222	71.51
330.435	46.93
330.648	40.79
330.861	30.55
331.073	126.8
331.286	32.6
331.499	44.88
331.712	40.79
331.925	26.45
332.138	63.32
332.35	48.98
332.563	53.08
332.776	24.4
332.989	26.45
333.202	16.21
333.414	61.27
333.627	30.55
333.84	-16.55
334.053	145.24
334.265	-2.22
334.478	44.88
334.691	53.08
334.903	12.12
335.116	44.88
335.329	-51.37
335.541	61.27
335.754	26.45
335.966	81.75
336.179	79.7
336.392	-26.79
336.604	81.75
336.817	3.93
337.029	10.07
337.242	-16.55
337.454	14.17
337.667	40.79
337.88	128.85
338.092	32.6
338.305	104.28
338.517	20.31
338.729	67.41
338.942	61.27
339.154	61.27
339.367	32.6
339.579	77.65
339.792	22.36
340.004	94.04
340.217	65.36
340.429	61.27
340.641	5.97
340.854	14.17
341.066	61.27
341.278	73.56
341.491	106.32
341.703	30.55
341.915	46.93
342.128	87.89
342.34	71.51
342.552	-2.22
342.764	94.04
342.977	20.31
343.189	46.93
343.401	122.71
343.613	22.36
343.826	139.09
344.038	42.84
344.25	77.65
344.462	14.17
344.674	83.8
344.886	-18.6
345.099	14.17
345.311	22.36
345.523	-20.65
345.735	-18.6
345.947	102.23
346.159	89.94
346.371	28.5
346.583	18.26
346.795	120.66
347.007	36.69
347.219	44.88
347.431	3.93
347.643	61.27
347.855	71.51
348.067	87.89
348.279	32.6
348.491	46.93
348.703	22.36
348.915	-20.65
349.127	57.17
349.339	104.28
349.551	53.08
349.763	89.94
349.975	48.98
350.187	112.47
350.399	26.45
350.61	118.61
350.822	40.79
351.034	112.47
351.246	-0.17
351.458	30.55
351.669	55.12
351.881	151.38
352.093	77.65
352.305	63.32
352.517	48.98
352.728	73.56
352.94	-12.46
353.152	61.27
353.363	-6.31
353.575	-24.75
353.787	20.31
353.999	44.88
354.21	63.32
354.422	102.23
354.633	48.98
354.845	-43.18
355.057	16.21
355.268	71.51
355.48	96.08
355.692	89.94
355.903	77.65
356.115	5.97
356.326	61.27
356.538	61.27
356.749	91.99
356.961	102.23
357.172	110.42
357.384	-12.46
357.595	102.23
357.807	69.46
358.018	16.21
358.23	102.23
358.441	89.94
358.653	75.6
358.864	-24.75
359.075	-22.7
359.287	30.55
359.498	81.75
359.709	46.93
359.921	18.26
360.132	40.79
360.344	71.51
360.555	30.55
360.766	69.46
360.977	-2.22
361.189	108.37
361.4	-18.6
361.611	89.94
361.823	81.75
362.034	69.46
362.245	-22.7
362.456	38.74
362.667	-43.18
362.879	22.36
363.09	34.64
363.301	61.27
363.512	81.75
363.723	-16.55
363.935	63.32
364.146	112.47
364.357	91.99
364.568	63.32
364.779	-16.55
364.99	32.6
365.201	30.55
365.412	46.93
365.623	12.12
365.834	77.65
366.045	-26.79
366.256	61.27
366.467	63.32
366.678	94.04
366.889	20.31
367.1	65.36
367.311	71.51
367.522	48.98
367.733	-12.46
367.944	110.42
368.155	79.7
368.366	63.32
368.577	94.04
368.788	12.12
368.999	36.69
369.209	40.79
369.42	112.47
369.631	122.71
369.842	38.74
370.053	65.36
370.264	104.28
370.474	-51.37
370.685	55.12
370.896	30.55
371.107	48.98
371.317	120.66
371.528	38.74
371.739	24.4
371.95	63.32
372.16	53.08
372.371	67.41
372.582	57.17
372.792	16.21
373.003	3.93
373.214	85.84
373.424	77.65
373.635	12.12
373.846	61.27
374.056	-14.51
374.267	40.79
374.477	77.65
374.688	36.69
374.898	81.75
375.109	38.74
375.319	77.65
375.53	36.69
375.74	-0.17
375.951	12.12
376.161	48.98
376.372	102.23
376.582	51.03
376.793	44.88
377.003	3.93
377.214	85.84
377.424	79.7
377.635	28.5
377.845	137.04
378.055	14.17
378.266	32.6
378.476	69.46
378.686	53.08
378.897	40.79
379.107	44.88
379.317	24.4
379.528	94.04
379.738	36.69
379.948	63.32
380.158	110.42
380.369	55.12
380.579	46.93
380.789	69.46
380.999	71.51
381.21	102.23
381.42	98.13
381.63	61.27
381.84	81.75
382.05	59.22
382.261	91.99
382.471	26.45
382.681	63.32
382.891	79.7
383.101	79.7
383.311	24.4
383.521	8.02
383.731	98.13
383.941	40.79
384.151	126.8
384.361	112.47
384.571	40.79
384.781	61.27
384.991	171.86
385.201	104.28
385.411	118.61
385.621	102.23
385.831	36.69
386.041	-12.46
386.251	69.46
386.461	122.71
386.671	5.97
386.881	61.27
387.091	55.12
387.301	55.12
387.511	94.04
387.72	61.27
387.93	57.17
388.14	69.46
388.35	79.7
388.56	12.12
388.769	57.17
388.979	87.89
389.189	110.42
389.399	79.7
389.609	94.04
389.818	175.95
390.028	36.69
390.238	114.52
390.447	30.55
390.657	61.27
390.867	67.41
391.076	46.93
391.286	28.5
391.496	122.71
391.705	44.88
391.915	26.45
392.125	141.14
392.334	69.46
392.544	192.34
392.753	77.65
392.963	83.8
393.172	53.08
393.382	71.51
393.591	14.17
393.801	53.08
394.01	44.88
394.22	69.46
394.429	69.46
394.639	77.65
394.848	94.04
395.058	22.36
395.267	94.04
395.477	63.32
395.686	178
395.895	186.19
396.105	126.8
396.314	141.14
396.524	130.9
396.733	40.79
396.942	122.71
397.152	102.23
397.361	102.23
397.57	63.32
397.78	167.76
397.989	147.28
398.198	110.42
398.407	67.41
398.617	73.56
398.826	171.86
399.035	137.04
399.244	147.28
399.453	79.7
399.663	141.14
399.872	114.52
400.081	102.23
400.29	126.8
400.499	116.56
400.708	175.95
400.917	110.42
401.127	110.42
401.336	32.6
401.545	218.96
401.754	169.81
401.963	184.15
402.172	159.57
402.381	126.8
402.59	94.04
402.799	106.32
403.008	135
403.217	182.1
403.426	139.09
403.635	180.05
403.844	81.75
404.053	169.81
404.262	48.98
404.471	249.68
404.68	233.3
404.888	169.81
405.097	206.67
405.306	175.95
405.515	208.72
405.724	151.38
405.933	192.34
406.142	214.87
406.35	212.82
406.559	135
406.768	196.43
406.977	196.43
407.185	239.44
407.394	241.49
407.603	202.58
407.812	198.48
408.02	327.5
408.229	261.97
408.438	298.83
408.646	313.17
408.855	259.92
409.064	251.73
409.272	218.96
409.481	319.31
409.69	323.41
409.898	360.27
410.107	397.14
410.315	419.66
410.524	358.22
410.733	352.08
410.941	464.72
411.15	421.71
411.358	470.86
411.567	524.11
411.775	546.64
411.984	472.91
412.192	599.88
412.401	520.01
412.609	565.07
412.818	624.46
413.026	683.85
413.234	608.08
413.443	696.14
413.651	560.97
413.86	659.28
414.068	737.1
414.276	782.15
414.485	722.76
414.693	851.78
414.901	937.8
415.11	819.02
415.318	792.39
415.526	948.04
415.734	888.65
415.943	929.61
416.151	1003.33
416.359	1032.01
416.567	1005.38
416.776	1036.1
416.984	1044.29
417.192	1156.93
417.4	1183.56
417.608	1212.23
417.817	1238.85
418.025	1351.49
418.233	1404.74
418.441	1314.63
418.649	1535.81
418.857	1589.05
419.065	1503.04
419.273	1492.8
419.481	1634.11
419.689	1744.7
419.897	1867.58
420.105	1761.08
420.313	1873.72
420.521	1945.4
420.729	2043.7
420.937	1969.98
421.145	2049.85
421.353	2232.12
421.561	2264.88
421.769	2299.7
421.977	2420.53
422.185	2553.65
422.393	2567.98
422.601	2666.28
422.809	2649.9
423.017	2670.38
423.224	2793.26
423.432	2998.06
423.64	3002.15
423.848	3204.9
424.056	3280.68
424.263	3358.5
424.471	3421.99
424.679	3370.79
424.887	3659.55
425.094	3673.89
425.302	3661.6
425.51	3970.84
425.718	4083.48
425.925	4085.53
426.133	4306.71
426.341	4329.24
426.548	4665.1
426.756	4710.16
426.964	4771.6
427.171	5060.36
427.379	5111.56
427.586	5158.66
427.794	5216.01
428.001	5682.94
428.209	5904.12
428.417	5799.68
428.624	5971.71
428.832	6260.47
429.039	6252.28
429.247	6070.01
429.454	6618.86
429.662	7206.63
429.869	6659.82
430.076	7118.57
430.284	6924.01
430.491	7290.6
430.699	7630.56
430.906	7673.57
431.114	7655.14
431.321	8003.29
431.528	8089.31
431.736	8771.28
431.943	9266.89
432.15	8799.95
432.358	8896.21
432.565	9324.23
432.772	9483.97
432.979	9899.71
433.187	10143.42
433.394	10022.59
433.601	10628.79
433.808	10968.75
434.016	10725.04
434.223	11237.03
434.43	11847.33
434.637	11407.02
434.844	12246.68
435.052	12422.81
435.259	12347.03
435.466	12848.79
435.673	12512.92
435.88	13188.75
436.087	13987.46
436.294	14134.91
436.501	13741.7
436.708	13923.97
436.915	14423.67
437.122	14794.36
437.329	14863.99
437.537	15523.43
437.743	15734.37
437.95	15425.13
438.157	16412.25
438.364	16967.25
438.571	16608.86
438.778	16916.05
438.985	18734.65
439.192	18052.67
439.399	18300.48
439.606	18058.82
439.813	18845.24
440.02	19834.41
440.227	19760.68
440.433	19590.7
440.64	20264.48
440.847	19990.05
441.054	20602.39
441.261	22083.08
441.467	21603.85
441.674	22187.52
441.881	22877.69
442.088	22631.93
442.294	22455.81
442.501	23070.2
442.708	23834.09
442.914	24514.02
443.121	25562.58
443.328	24929.75
443.534	26451.39
443.741	25789.9
443.948	25310.68
444.154	27524.53
444.361	27221.43
444.568	27164.09
444.774	27329.97
444.981	27733.42
445.187	28450.21
445.394	29283.73
445.6	29214.1
445.807	32025.96
446.013	30762.37
446.22	31329.66
446.426	32542.05
446.633	32449.89
446.839	33391.96
447.046	32111.98
447.252	34106.7
447.459	33934.67
447.665	34055.5
447.871	35267.9
448.078	36971.81
448.284	35183.93
448.491	36177.2
448.697	37635.35
448.903	38065.42
449.11	37895.44
449.316	37512.47
449.522	38083.86
449.728	39243.01
449.935	39625.98
450.141	39507.19
450.347	40512.75
450.553	39453.95
450.76	39623.93
450.966	40715.5
451.172	40166.64
451.378	41479.39
451.584	40752.36
451.791	41755.86
451.997	41557.21
452.203	42069.2
452.409	42075.35
452.615	41919.7
452.821	40316.14
453.027	40103.15
453.233	42212.56
453.44	40373.49
453.646	41026.79
453.852	40854.76
454.058	41835.73
454.264	40453.36
454.47	41555.16
454.676	40301.81
454.882	41796.82
455.088	38257.93
455.294	38755.59
455.5	39562.49
455.705	39759.09
455.911	38171.92
456.117	37377.31
456.323	36928.8
456.529	34796.87
456.735	36621.61
456.941	35636.53
457.147	35061.05
457.352	34084.17
457.558	33502.55
457.764	33713.49
457.97	32974.17
458.176	32327.02
458.381	32540
458.587	30797.18
458.793	30942.59
458.999	29322.65
459.204	31358.33
459.41	30522.76
459.616	28233.13
459.821	28487.07
460.027	28343.72
460.233	27725.23
460.438	26416.58
460.644	26648
460.85	25726.41
461.055	25228.76
461.261	25023.96
461.466	23346.67
461.672	22439.42
461.878	23854.57
462.083	22498.81
462.289	22109.7
462.494	21825.03
462.7	20809.24
462.905	20418.08
463.111	21239.31
463.316	21120.53
463.522	20616.73
463.727	20723.23
463.932	20719.13
464.138	20530.72
464.343	20475.42
464.549	19781.16
464.754	20723.23
464.959	20344.35
465.165	20149.79
465.37	19602.99
465.575	18888.25
465.781	19820.07
465.986	19738.15
466.191	18990.64
466.397	18787.89
466.602	17567.31
466.807	18560.57
