Data from USB4F104151__62__14-17-11-497.txt Node

Date: Thu Mar 13 14:17:11 EDT 2025
User: louis
Spectrometer: USB4F10415
Trigger mode: 4
Integration Time (sec): 2.000000E-2
Scans to average: 1
Electric dark correction enabled: true
Nonlinearity correction enabled: false
Boxcar width: 0
XAxis mode: Wavelengths
Number of Pixels in Spectrum: 3648
>>>>>Begin Spectral Data<<<<<
178.204	-74.41
178.424	-74.41
178.644	-74.41
178.864	-62.12
179.084	-103.08
179.304	1.37
179.524	-0.68
179.744	42.32
179.964	-10.92
180.184	-39.59
180.404	64.85
180.624	-15.02
180.844	3.41
181.064	-6.83
181.283	-17.07
181.503	-10.92
181.723	-10.92
181.943	-27.31
182.163	42.32
182.383	-51.88
182.602	46.42
182.822	17.75
183.042	-0.68
183.262	32.08
183.482	36.18
183.701	68.95
183.921	36.18
184.141	1.37
184.361	11.61
184.58	19.8
184.8	-12.97
185.02	-23.21
185.239	77.14
185.459	62.8
185.679	38.23
185.898	-49.83
186.118	-2.73
186.338	-58.03
186.557	5.46
186.777	-47.79
186.997	68.95
187.216	-15.02
187.436	116.05
187.655	91.48
187.875	25.94
188.095	30.04
188.314	50.52
188.534	36.18
188.753	50.52
188.973	5.46
189.192	79.19
189.412	-4.78
189.631	60.76
189.851	58.71
190.07	99.67
190.29	3.41
190.509	34.13
190.729	40.28
190.948	19.8
191.168	159.06
191.387	58.71
191.607	-47.79
191.826	-0.68
192.045	19.8
192.265	83.28
192.484	50.52
192.704	83.28
192.923	-35.5
193.142	75.09
193.362	21.85
193.581	77.14
193.8	44.37
194.02	34.13
194.239	-0.68
194.458	-23.21
194.678	66.9
194.897	9.56
195.116	44.37
195.335	25.94
195.555	3.41
195.774	56.66
195.993	11.61
196.212	30.04
196.432	-2.73
196.651	25.94
196.87	15.7
197.089	91.48
197.308	-12.97
197.528	77.14
197.747	-55.98
197.966	-17.07
198.185	64.85
198.404	15.7
198.623	64.85
198.842	68.95
199.062	91.48
199.281	122.2
199.5	-39.59
199.719	-6.83
199.938	103.76
200.157	11.61
200.376	-0.68
200.595	42.32
200.814	126.29
201.033	-31.4
201.252	54.61
201.471	62.8
201.69	68.95
201.909	58.71
202.128	17.75
202.347	109.91
202.566	1.37
202.785	34.13
203.004	13.65
203.223	103.76
203.442	27.99
203.661	-6.83
203.879	42.32
204.098	75.09
204.317	-15.02
204.536	42.32
204.755	11.61
204.974	-6.83
205.193	50.52
205.411	68.95
205.63	124.24
205.849	52.56
206.068	34.13
206.287	50.52
206.505	9.56
206.724	34.13
206.943	-12.97
207.162	-2.73
207.381	-6.83
207.599	38.23
207.818	25.94
208.037	-21.16
208.255	-51.88
208.474	25.94
208.693	-27.31
208.911	25.94
209.13	91.48
209.349	50.52
209.567	38.23
209.786	54.61
210.005	83.28
210.223	1.37
210.442	-4.78
210.661	-19.11
210.879	-2.73
211.098	-19.11
211.316	-10.92
211.535	60.76
211.753	21.85
211.972	77.14
212.191	-41.64
212.409	42.32
212.628	38.23
212.846	62.8
213.065	-8.87
213.283	71
213.502	42.32
213.72	-4.78
213.938	-29.35
214.157	-35.5
214.375	3.41
214.594	21.85
214.812	3.41
215.031	17.75
215.249	11.61
215.467	-12.97
215.686	81.24
215.904	17.75
216.122	36.18
216.341	91.48
216.559	42.32
216.778	23.89
216.996	68.95
217.214	32.08
217.432	36.18
217.651	60.76
217.869	-15.02
218.087	27.99
218.306	134.48
218.524	17.75
218.742	-21.16
218.96	-35.5
219.179	46.42
219.397	21.85
219.615	52.56
219.833	-15.02
220.051	-29.35
220.27	36.18
220.488	116.05
220.706	58.71
220.924	-31.4
221.142	-23.21
221.36	66.9
221.578	32.08
221.796	25.94
222.015	17.75
222.233	-27.31
222.451	107.86
222.669	-21.16
222.887	171.35
223.105	-55.98
223.323	-23.21
223.541	50.52
223.759	1.37
223.977	-21.16
224.195	101.72
224.413	36.18
224.631	66.9
224.849	-6.83
225.067	21.85
225.285	68.95
225.503	75.09
225.721	11.61
225.939	30.04
226.157	136.53
226.375	50.52
226.592	60.76
226.81	34.13
227.028	34.13
227.246	42.32
227.464	27.99
227.682	68.95
227.9	58.71
228.117	58.71
228.335	58.71
228.553	23.89
228.771	27.99
228.989	30.04
229.206	54.61
229.424	25.94
229.642	99.67
229.86	-31.4
230.077	89.43
230.295	107.86
230.513	32.08
230.731	5.46
230.948	34.13
231.166	30.04
231.384	71
231.601	-10.92
231.819	48.47
232.037	68.95
232.254	-31.4
232.472	44.37
232.689	17.75
232.907	-15.02
233.125	68.95
233.342	60.76
233.56	21.85
233.777	3.41
233.995	62.8
234.213	32.08
234.43	5.46
234.648	40.28
234.865	-31.4
235.083	38.23
235.3	140.63
235.518	19.8
235.735	19.8
235.953	36.18
236.17	17.75
236.388	87.38
236.605	17.75
236.822	89.43
237.04	85.33
237.257	54.61
237.475	-39.59
237.692	107.86
237.909	36.18
238.127	-10.92
238.344	44.37
238.562	27.99
238.779	50.52
238.996	-21.16
239.214	-4.78
239.431	140.63
239.648	25.94
239.865	30.04
240.083	27.99
240.3	-23.21
240.517	44.37
240.735	44.37
240.952	71
241.169	27.99
241.386	46.42
241.603	17.75
241.821	32.08
242.038	25.94
242.255	-39.59
242.472	-21.16
242.689	46.42
242.907	13.65
243.124	9.56
243.341	99.67
243.558	44.37
243.775	77.14
243.992	1.37
244.209	21.85
244.426	66.9
244.643	9.56
244.86	19.8
245.078	17.75
245.295	21.85
245.512	114
245.729	11.61
245.946	109.91
246.163	-6.83
246.38	11.61
246.597	9.56
246.814	50.52
247.031	52.56
247.248	17.75
247.464	64.85
247.681	-6.83
247.898	50.52
248.115	17.75
248.332	3.41
248.549	83.28
248.766	-31.4
248.983	66.9
249.2	19.8
249.417	34.13
249.633	42.32
249.85	-15.02
250.067	-2.73
250.284	54.61
250.501	71
250.717	91.48
250.934	-88.75
251.151	46.42
251.368	111.96
251.585	54.61
251.801	42.32
252.018	-12.97
252.235	13.65
252.451	81.24
252.668	62.8
252.885	62.8
253.102	40.28
253.318	30.04
253.535	44.37
253.752	46.42
253.968	-4.78
254.185	36.18
254.401	-64.17
254.618	-6.83
254.835	40.28
255.051	120.15
255.268	85.33
255.484	19.8
255.701	-43.69
255.917	32.08
256.134	54.61
256.351	-15.02
256.567	56.66
256.784	40.28
257	81.24
257.217	46.42
257.433	-2.73
257.65	79.19
257.866	40.28
258.082	13.65
258.299	-6.83
258.515	40.28
258.732	27.99
258.948	50.52
259.165	107.86
259.381	9.56
259.597	85.33
259.814	9.56
260.03	-51.88
260.246	42.32
260.463	-2.73
260.679	62.8
260.895	-39.59
261.112	13.65
261.328	5.46
261.544	17.75
261.761	23.89
261.977	-15.02
262.193	25.94
262.409	-4.78
262.626	103.76
262.842	-21.16
263.058	40.28
263.274	50.52
263.49	-19.11
263.707	42.32
263.923	3.41
264.139	9.56
264.355	42.32
264.571	36.18
264.787	68.95
265.004	38.23
265.22	17.75
265.436	3.41
265.652	-2.73
265.868	36.18
266.084	-37.55
266.3	50.52
266.516	40.28
266.732	38.23
266.948	13.65
267.164	19.8
267.38	17.75
267.596	-29.35
267.812	68.95
268.028	50.52
268.244	-15.02
268.46	46.42
268.676	-72.36
268.892	17.75
269.108	9.56
269.324	15.7
269.54	-74.41
269.756	-39.59
269.972	56.66
270.188	109.91
270.403	1.37
270.619	9.56
270.835	34.13
271.051	42.32
271.267	-45.74
271.483	91.48
271.698	40.28
271.914	11.61
272.13	27.99
272.346	40.28
272.562	-27.31
272.777	107.86
272.993	-12.97
273.209	15.7
273.425	52.56
273.64	50.52
273.856	32.08
274.072	19.8
274.287	9.56
274.503	19.8
274.719	68.95
274.934	34.13
275.15	-53.93
275.366	3.41
275.581	-33.45
275.797	-29.35
276.012	11.61
276.228	75.09
276.444	36.18
276.659	126.29
276.875	-4.78
277.09	62.8
277.306	19.8
277.521	77.14
277.737	-12.97
277.952	21.85
278.168	-19.11
278.383	42.32
278.599	13.65
278.814	34.13
279.03	101.72
279.245	32.08
279.461	44.37
279.676	3.41
279.892	3.41
280.107	46.42
280.322	-8.87
280.538	25.94
280.753	19.8
280.969	-37.55
281.184	25.94
281.399	34.13
281.615	71
281.83	25.94
282.045	-21.16
282.26	-31.4
282.476	17.75
282.691	52.56
282.906	38.23
283.122	50.52
283.337	58.71
283.552	38.23
283.767	-6.83
283.983	30.04
284.198	17.75
284.413	13.65
284.628	-4.78
284.843	-6.83
285.058	66.9
285.274	-15.02
285.489	1.37
285.704	25.94
285.919	36.18
286.134	66.9
286.349	81.24
286.564	77.14
286.779	77.14
286.995	30.04
287.21	-80.55
287.425	25.94
287.64	-39.59
287.855	56.66
288.07	5.46
288.285	52.56
288.5	21.85
288.715	3.41
288.93	-15.02
289.145	7.51
289.36	99.67
289.575	-2.73
289.79	58.71
290.004	85.33
290.219	-8.87
290.434	19.8
290.649	17.75
290.864	44.37
291.079	-64.17
291.294	-0.68
291.509	36.18
291.724	107.86
291.938	13.65
292.153	99.67
292.368	-12.97
292.583	62.8
292.798	-6.83
293.012	17.75
293.227	-17.07
293.442	48.47
293.657	66.9
293.871	71
294.086	-55.98
294.301	126.29
294.516	19.8
294.73	19.8
294.945	54.61
295.16	36.18
295.374	-15.02
295.589	25.94
295.804	54.61
296.018	62.8
296.233	-23.21
296.447	-29.35
296.662	-4.78
296.877	19.8
297.091	1.37
297.306	77.14
297.52	36.18
297.735	50.52
297.949	44.37
298.164	-19.11
298.378	42.32
298.593	-15.02
298.807	1.37
299.022	42.32
299.236	42.32
299.451	66.9
299.665	42.32
299.88	9.56
300.094	5.46
300.309	-23.21
300.523	-10.92
300.737	-53.93
300.952	-70.31
301.166	36.18
301.381	40.28
301.595	-12.97
301.809	50.52
302.024	5.46
302.238	32.08
302.452	83.28
302.667	58.71
302.881	58.71
303.095	30.04
303.309	91.48
303.524	-29.35
303.738	85.33
303.952	-66.22
304.166	38.23
304.381	-12.97
304.595	163.15
304.809	-17.07
305.023	68.95
305.237	83.28
305.452	42.32
305.666	27.99
305.88	-2.73
306.094	27.99
306.308	30.04
306.522	40.28
306.736	13.65
306.95	25.94
307.164	1.37
307.379	79.19
307.593	17.75
307.807	40.28
308.021	73.04
308.235	54.61
308.449	13.65
308.663	52.56
308.877	34.13
309.091	7.51
309.305	34.13
309.519	17.75
309.733	13.65
309.947	58.71
310.161	52.56
310.374	3.41
310.588	91.48
310.802	36.18
311.016	1.37
311.23	52.56
311.444	5.46
311.658	-17.07
311.872	38.23
312.085	52.56
312.299	25.94
312.513	116.05
312.727	60.76
312.941	30.04
313.154	109.91
313.368	48.47
313.582	144.72
313.796	62.8
314.009	-15.02
314.223	42.32
314.437	-39.59
314.651	25.94
314.864	-41.64
315.078	-4.78
315.292	107.86
315.505	-51.88
315.719	36.18
315.933	9.56
316.146	38.23
316.36	32.08
316.573	54.61
316.787	75.09
317.001	25.94
317.214	21.85
317.428	-2.73
317.641	-23.21
317.855	30.04
318.068	62.8
318.282	83.28
318.495	126.29
318.709	-29.35
318.922	52.56
319.136	91.48
319.349	75.09
319.563	66.9
319.776	124.24
319.99	107.86
320.203	136.53
320.417	54.61
320.63	64.85
320.843	79.19
321.057	95.57
321.27	62.8
321.483	44.37
321.697	66.9
321.91	36.18
322.124	71
322.337	21.85
322.55	46.42
322.763	58.71
322.977	77.14
323.19	9.56
323.403	44.37
323.617	25.94
323.83	27.99
324.043	30.04
324.256	52.56
324.469	36.18
324.683	95.57
324.896	11.61
325.109	54.61
325.322	34.13
325.535	66.9
325.748	23.89
325.962	44.37
326.175	-39.59
326.388	7.51
326.601	62.8
326.814	111.96
327.027	27.99
327.24	58.71
327.453	-53.93
327.666	25.94
327.879	87.38
328.092	73.04
328.305	27.99
328.518	17.75
328.731	58.71
328.944	75.09
329.157	83.28
329.37	83.28
329.583	124.24
329.796	30.04
330.009	34.13
330.222	34.13
330.435	75.09
330.648	42.32
330.861	1.37
331.073	50.52
331.286	77.14
331.499	50.52
331.712	48.47
331.925	44.37
332.138	17.75
332.35	73.04
332.563	9.56
332.776	116.05
332.989	-4.78
333.202	17.75
333.414	73.04
333.627	56.66
333.84	38.23
334.053	52.56
334.265	-53.93
334.478	-62.12
334.691	58.71
334.903	60.76
335.116	-12.97
335.329	79.19
335.541	19.8
335.754	13.65
335.966	54.61
336.179	71
336.392	-21.16
336.604	-0.68
336.817	111.96
337.029	38.23
337.242	-4.78
337.454	71
337.667	77.14
337.88	-6.83
338.092	44.37
338.305	36.18
338.517	52.56
338.729	-0.68
338.942	25.94
339.154	-4.78
339.367	36.18
339.579	50.52
339.792	36.18
340.004	66.9
340.217	62.8
340.429	30.04
340.641	77.14
340.854	-62.12
341.066	114
341.278	54.61
341.491	140.63
341.703	77.14
341.915	15.7
342.128	75.09
342.34	64.85
342.552	48.47
342.764	-15.02
342.977	25.94
343.189	62.8
343.401	32.08
343.613	-8.87
343.826	-37.55
344.038	-6.83
344.25	42.32
344.462	1.37
344.674	42.32
344.886	40.28
345.099	19.8
345.311	75.09
345.523	27.99
345.735	-39.59
345.947	83.28
346.159	7.51
346.371	-6.83
346.583	66.9
346.795	95.57
347.007	58.71
347.219	95.57
347.431	46.42
347.643	101.72
347.855	27.99
348.067	79.19
348.279	-15.02
348.491	9.56
348.703	25.94
348.915	-2.73
349.127	1.37
349.339	50.52
349.551	19.8
349.763	34.13
349.975	5.46
350.187	27.99
350.399	50.52
350.61	54.61
350.822	13.65
351.034	95.57
351.246	15.7
351.458	118.1
351.669	79.19
351.881	87.38
352.093	58.71
352.305	85.33
352.517	-17.07
352.728	60.76
352.94	52.56
353.152	-19.11
353.363	58.71
353.575	75.09
353.787	91.48
353.999	36.18
354.21	46.42
354.422	111.96
354.633	58.71
354.845	32.08
355.057	19.8
355.268	-19.11
355.48	87.38
355.692	23.89
355.903	15.7
356.115	38.23
356.326	9.56
356.538	50.52
356.749	-4.78
356.961	144.72
357.172	-15.02
357.384	38.23
357.595	13.65
357.807	42.32
358.018	9.56
358.23	27.99
358.441	101.72
358.653	95.57
358.864	140.63
359.075	83.28
359.287	30.04
359.498	191.83
359.709	48.47
359.921	15.7
360.132	5.46
360.344	114
360.555	21.85
360.766	101.72
360.977	99.67
361.189	91.48
361.4	124.24
361.611	91.48
361.823	85.33
362.034	87.38
362.245	9.56
362.456	50.52
362.667	27.99
362.879	58.71
363.09	111.96
363.301	103.76
363.512	5.46
363.723	-23.21
363.935	25.94
364.146	79.19
364.357	-4.78
364.568	66.9
364.779	13.65
364.99	38.23
365.201	36.18
365.412	116.05
365.623	3.41
365.834	44.37
366.045	15.7
366.256	64.85
366.467	206.16
366.678	25.94
366.889	25.94
367.1	52.56
367.311	42.32
367.522	36.18
367.733	30.04
367.944	103.76
368.155	-8.87
368.366	56.66
368.577	11.61
368.788	25.94
368.999	9.56
369.209	99.67
369.42	50.52
369.631	93.52
369.842	58.71
370.053	27.99
370.264	111.96
370.474	27.99
370.685	107.86
370.896	1.37
371.107	50.52
371.317	1.37
371.528	85.33
371.739	32.08
371.95	36.18
372.16	66.9
372.371	5.46
372.582	73.04
372.792	142.68
373.003	58.71
373.214	60.76
373.424	73.04
373.635	42.32
373.846	38.23
374.056	25.94
374.267	66.9
374.477	54.61
374.688	46.42
374.898	91.48
375.109	54.61
375.319	58.71
375.53	58.71
375.74	44.37
375.951	-23.21
376.161	42.32
376.372	44.37
376.582	66.9
376.793	118.1
377.003	34.13
377.214	34.13
377.424	64.85
377.635	105.81
377.845	30.04
378.055	34.13
378.266	-4.78
378.476	95.57
378.686	93.52
378.897	99.67
379.107	-12.97
379.317	13.65
379.528	68.95
379.738	44.37
379.948	60.76
380.158	46.42
380.369	-15.02
380.579	48.47
380.789	3.41
380.999	42.32
381.21	15.7
381.42	126.29
381.63	5.46
381.84	58.71
382.05	34.13
382.261	105.81
382.471	46.42
382.681	9.56
382.891	60.76
383.101	73.04
383.311	44.37
383.521	30.04
383.731	54.61
383.941	68.95
384.151	60.76
384.361	62.8
384.571	19.8
384.781	66.9
384.991	124.24
385.201	116.05
385.411	91.48
385.621	75.09
385.831	85.33
386.041	83.28
386.251	-29.35
386.461	75.09
386.671	5.46
386.881	48.47
387.091	34.13
387.301	83.28
387.511	52.56
387.72	85.33
387.93	114
388.14	134.48
388.35	46.42
388.56	87.38
388.769	32.08
388.979	32.08
389.189	62.8
389.399	-27.31
389.609	30.04
389.818	50.52
390.028	87.38
390.238	42.32
390.447	27.99
390.657	42.32
390.867	-2.73
391.076	23.89
391.286	99.67
391.496	99.67
391.705	73.04
391.915	140.63
392.125	68.95
392.334	-10.92
392.544	19.8
392.753	111.96
392.963	-10.92
393.172	85.33
393.382	23.89
393.591	75.09
393.801	134.48
394.01	62.8
394.22	140.63
394.429	66.9
394.639	83.28
394.848	103.76
395.058	42.32
395.267	122.2
395.477	77.14
395.686	42.32
395.895	50.52
396.105	99.67
396.314	73.04
396.524	64.85
396.733	75.09
396.942	66.9
397.152	118.1
397.361	177.49
397.57	109.91
397.78	68.95
397.989	124.24
398.198	144.72
398.407	50.52
398.617	58.71
398.826	107.86
399.035	42.32
399.244	75.09
399.453	114
399.663	79.19
399.872	99.67
400.081	38.23
400.29	107.86
400.499	136.53
400.708	111.96
400.917	77.14
401.127	103.76
401.336	97.62
401.545	144.72
401.754	128.34
401.963	128.34
402.172	83.28
402.381	103.76
402.59	128.34
402.799	146.77
403.008	144.72
403.217	124.24
403.426	148.82
403.635	134.48
403.844	58.71
404.053	185.68
404.262	116.05
404.471	163.15
404.68	93.52
404.888	132.44
405.097	95.57
405.306	189.78
405.515	150.87
405.724	124.24
405.933	197.97
406.142	148.82
406.35	197.97
406.559	191.83
406.768	222.55
406.977	124.24
407.185	193.87
407.394	173.39
407.603	165.2
407.812	214.35
408.02	249.17
408.229	245.07
408.438	218.45
408.646	195.92
408.855	294.22
409.064	271.7
409.272	275.79
409.481	279.89
409.69	326.99
409.898	245.07
410.107	251.22
410.315	337.23
410.524	355.66
410.733	372.05
410.941	324.94
411.15	296.27
411.358	353.62
411.567	525.65
411.775	460.11
411.984	425.29
412.192	419.15
412.401	343.38
412.609	410.96
412.818	460.11
413.026	437.58
413.234	568.65
413.443	443.73
413.651	492.88
413.86	603.47
414.068	669
414.276	574.8
414.485	664.91
414.693	724.3
414.901	669
415.11	681.29
415.318	714.06
415.526	746.83
415.734	746.83
415.943	761.16
416.151	830.79
416.359	798.03
416.567	886.09
416.776	824.65
416.984	910.66
417.192	988.49
417.4	965.96
417.608	925
417.817	1043.78
418.025	1037.64
418.233	1160.52
418.441	1060.17
418.649	1244.48
418.857	1279.3
419.065	1373.5
419.273	1260.87
419.481	1357.12
419.689	1373.5
419.897	1490.24
420.105	1471.81
420.313	1486.14
420.521	1500.48
420.729	1574.21
420.937	1635.64
421.145	1762.62
421.353	1811.77
421.561	1895.74
421.769	1914.17
421.977	2065.72
422.185	2049.33
422.393	2176.31
422.601	2280.75
422.809	2196.79
423.017	2151.73
423.224	2483.5
423.432	2413.87
423.64	2393.39
423.848	2757.93
424.056	2549.04
424.263	2841.9
424.471	2770.22
424.679	2815.27
424.887	2905.39
425.094	3030.31
425.302	3097.89
425.51	3196.2
425.718	3204.39
425.925	3390.75
426.133	3530.02
426.341	3648.8
426.548	3798.3
426.756	3689.76
426.964	3855.64
427.171	4166.93
427.379	4234.52
427.586	4248.85
427.794	4459.79
428.001	4629.77
428.209	4766.99
428.417	4691.21
428.624	4994.31
428.832	4949.26
429.039	4934.92
429.247	5002.51
429.454	5532.93
429.662	6016.25
429.869	5549.31
430.076	5936.38
430.284	5793.02
430.491	5997.82
430.699	6149.37
430.906	6296.82
431.114	6407.41
431.321	6786.29
431.528	6839.53
431.736	7066.86
431.943	7439.59
432.15	7183.59
432.358	7292.13
432.565	7677.15
432.772	7687.39
432.979	8211.67
433.187	8469.72
433.394	8373.46
433.601	8907.98
433.808	9051.34
434.016	8807.63
434.223	9206.98
434.43	9749.7
434.637	9555.14
434.844	10187.96
435.052	10370.23
435.259	10101.95
435.466	10427.57
435.673	10421.43
435.88	11062.44
436.087	11535.53
436.294	11480.23
436.501	11429.03
436.708	11568.29
436.915	12051.61
437.122	12332.19
437.329	12567.7
437.537	12823.7
437.743	12985.49
437.95	12913.81
438.157	13491.34
438.364	13737.09
438.571	13976.7
438.778	13884.55
438.985	15369.32
439.192	14625.91
439.399	15121.52
439.606	14707.83
439.813	15821.92
440.02	16815.19
440.227	16360.54
440.433	16247.9
440.64	16622.68
440.847	16688.21
441.054	16989.27
441.261	18138.18
441.467	17785.93
441.674	18056.26
441.881	18877.49
442.088	18859.06
442.294	18914.36
442.501	19301.42
442.708	19579.95
442.914	20433.95
443.121	21388.3
443.328	20759.58
443.534	22154.24
443.741	21767.18
443.948	21091.35
444.154	22715.39
444.361	22594.56
444.568	22731.77
444.774	22692.86
444.981	22807.55
445.187	23743.47
445.394	25002.97
445.6	24579.04
445.807	26676.16
446.013	25539.54
446.22	25695.18
446.426	26864.57
446.633	27399.09
446.839	28263.33
447.046	27132.86
447.252	28611.49
447.459	28484.51
447.665	28380.07
447.871	29696.91
448.078	31038.33
448.284	29330.33
448.491	30817.15
448.697	31404.92
448.903	32127.85
449.11	32195.43
449.316	31826.8
449.522	32406.37
449.728	32693.09
449.935	33676.12
450.141	32918.37
450.347	33801.04
450.553	32932.7
450.76	33690.45
450.966	34718.53
451.172	33891.15
451.378	34915.14
451.584	34304.84
451.791	35146.56
451.997	35015.49
452.203	35300.15
452.409	35855.15
452.615	35611.45
452.821	34327.37
453.027	33739.6
453.233	35474.23
453.44	34118.48
453.646	34331.47
453.852	34816.83
454.058	35478.33
454.264	34118.48
454.47	34835.27
454.676	34083.66
454.882	35486.52
455.088	32236.39
455.294	32793.44
455.5	33188.7
455.705	33526.61
455.911	31988.59
456.117	31812.46
456.323	31402.87
456.529	29424.53
456.735	31132.54
456.941	30049.16
457.147	29625.23
457.352	28783.52
457.558	28445.6
457.764	28511.14
457.97	28382.12
458.176	27433.91
458.381	27358.13
458.587	26291.14
458.793	25932.75
458.999	24663
459.204	26461.12
459.41	25385.94
459.616	24089.57
459.821	24116.2
460.027	24093.67
460.233	23673.84
460.438	22332.42
460.644	22580.22
460.85	21496.85
461.055	21093.4
461.261	20941.85
461.466	19663.91
461.672	19063.86
461.878	20452.38
462.083	19254.32
462.289	18687.03
462.494	18555.96
462.7	17804.36
462.905	17181.78
463.111	17605.7
463.316	17847.36
463.522	17417.29
463.727	17466.44
463.932	17341.52
464.138	17194.06
464.343	17476.68
464.549	16905.3
464.754	17222.73
464.959	17394.76
465.165	17298.51
465.37	16356.44
465.575	15963.23
465.781	16483.42
465.986	16700.5
466.191	16163.93
466.397	15633.51
466.602	15025.26
466.807	15486.06
467.012	15578.22
467.218	15289.45
467.423	15357.03
467.628	15381.61
467.833	15952.99
