Data from USB4F104151__151__14-19-28-648.txt Node

Date: Thu Mar 13 14:19:28 EDT 2025
User: louis
Spectrometer: USB4F10415
Trigger mode: 4
Integration Time (sec): 2.000000E-2
Scans to average: 1
Electric dark correction enabled: true
Nonlinearity correction enabled: false
Boxcar width: 0
XAxis mode: Wavelengths
Number of Pixels in Spectrum: 3648
>>>>>Begin Spectral Data<<<<<
178.204	-102.57
178.424	-102.57
178.644	-102.57
178.864	-188.58
179.084	-129.19
179.304	26.45
179.524	59.22
179.744	22.36
179.964	10.07
180.184	-12.46
180.404	-20.65
180.624	-106.67
180.844	-32.94
181.064	55.12
181.283	-16.55
181.503	-28.84
181.723	44.88
181.943	-57.51
182.163	69.46
182.383	3.93
182.602	-12.46
182.822	83.8
183.042	14.17
183.262	16.21
183.482	-41.13
183.701	40.79
183.921	20.31
184.141	8.02
184.361	100.18
184.58	16.21
184.8	-8.36
185.02	81.75
185.239	59.22
185.459	32.6
185.679	40.79
185.898	-71.85
186.118	-28.84
186.338	38.74
186.557	24.4
186.777	10.07
186.997	26.45
187.216	-0.17
187.436	40.79
187.655	65.36
187.875	20.31
188.095	42.84
188.314	36.69
188.534	71.51
188.753	22.36
188.973	-4.27
189.192	-22.7
189.412	30.55
189.631	-12.46
189.851	57.17
190.07	3.93
190.29	5.97
190.509	51.03
190.729	-0.17
190.948	48.98
191.168	151.38
191.387	30.55
191.607	-49.32
191.826	-16.55
192.045	-37.03
192.265	3.93
192.484	87.89
192.704	32.6
192.923	12.12
193.142	36.69
193.362	24.4
193.581	48.98
193.8	94.04
194.02	-6.31
194.239	-22.7
194.458	24.4
194.678	-24.75
194.897	42.84
195.116	8.02
195.335	22.36
195.555	65.36
195.774	46.93
195.993	8.02
196.212	10.07
196.432	89.94
196.651	5.97
196.87	-2.22
197.089	130.9
197.308	59.22
197.528	24.4
197.747	10.07
197.966	46.93
198.185	18.26
198.404	-32.94
198.623	22.36
198.842	106.32
199.062	53.08
199.281	57.17
199.5	-4.27
199.719	59.22
199.938	-20.65
200.157	98.13
200.376	89.94
200.595	24.4
200.814	1.88
201.033	53.08
201.252	32.6
201.471	116.56
201.69	32.6
201.909	96.08
202.128	30.55
202.347	20.31
202.566	10.07
202.785	-8.36
203.004	-47.27
203.223	102.23
203.442	-6.31
203.661	18.26
203.879	36.69
204.098	48.98
204.317	-8.36
204.536	65.36
204.755	10.07
204.974	42.84
205.193	71.51
205.411	108.37
205.63	-6.31
205.849	-16.55
206.068	-12.46
206.287	-14.51
206.505	-24.75
206.724	32.6
206.943	-28.84
207.162	-8.36
207.381	-26.79
207.599	61.27
207.818	38.74
208.037	1.88
208.255	-57.51
208.474	71.51
208.693	24.4
208.911	44.88
209.13	10.07
209.349	63.32
209.567	40.79
209.786	42.84
210.005	-32.94
210.223	8.02
210.442	-2.22
210.661	34.64
210.879	-0.17
211.098	-20.65
211.316	-26.79
211.535	26.45
211.753	-28.84
211.972	8.02
212.191	-18.6
212.409	67.41
212.628	57.17
212.846	8.02
213.065	73.56
213.283	89.94
213.502	10.07
213.72	18.26
213.938	26.45
214.157	30.55
214.375	57.17
214.594	87.89
214.812	-49.32
215.031	-14.51
215.249	57.17
215.467	51.03
215.686	40.79
215.904	114.52
216.122	32.6
216.341	61.27
216.559	51.03
216.778	24.4
216.996	100.18
217.214	42.84
217.432	20.31
217.651	-24.75
217.869	3.93
218.087	26.45
218.306	20.31
218.524	53.08
218.742	79.7
218.96	26.45
219.179	32.6
219.397	34.64
219.615	-2.22
219.833	48.98
220.051	30.55
220.27	8.02
220.488	40.79
220.706	28.5
220.924	14.17
221.142	48.98
221.36	89.94
221.578	44.88
221.796	22.36
222.015	-16.55
222.233	42.84
222.451	63.32
222.669	-41.13
222.887	114.52
223.105	-6.31
223.323	83.8
223.541	40.79
223.759	1.88
223.977	71.51
224.195	42.84
224.413	-14.51
224.631	44.88
224.849	36.69
225.067	73.56
225.285	3.93
225.503	38.74
225.721	48.98
225.939	65.36
226.157	16.21
226.375	188.24
226.592	-12.46
226.81	-12.46
227.028	-6.31
227.246	81.75
227.464	-43.18
227.682	-0.17
227.9	108.37
228.117	24.4
228.335	12.12
228.553	18.26
228.771	57.17
228.989	24.4
229.206	32.6
229.424	3.93
229.642	-28.84
229.86	-41.13
230.077	69.46
230.295	28.5
230.513	48.98
230.731	65.36
230.948	-6.31
231.166	32.6
231.384	51.03
231.601	-6.31
231.819	-28.84
232.037	65.36
232.254	-0.17
232.472	18.26
232.689	83.8
232.907	85.84
233.125	51.03
233.342	-22.7
233.56	16.21
233.777	36.69
233.995	-22.7
234.213	69.46
234.43	89.94
234.648	10.07
234.865	34.64
235.083	73.56
235.3	-49.32
235.518	10.07
235.735	40.79
235.953	59.22
236.17	81.75
236.388	36.69
236.605	-55.47
236.822	75.6
237.04	-37.03
237.257	55.12
237.475	34.64
237.692	18.26
237.909	26.45
238.127	32.6
238.344	8.02
238.562	63.32
238.779	44.88
238.996	1.88
239.214	71.51
239.431	-16.55
239.648	-49.32
239.865	12.12
240.083	46.93
240.3	32.6
240.517	-0.17
240.735	69.46
240.952	44.88
241.169	18.26
241.386	46.93
241.603	36.69
241.821	-10.41
242.038	102.23
242.255	-12.46
242.472	-37.03
242.689	91.99
242.907	65.36
243.124	53.08
243.341	26.45
243.558	63.32
243.775	-41.13
243.992	-47.27
244.209	55.12
244.426	114.52
244.643	26.45
244.86	59.22
245.078	18.26
245.295	48.98
245.512	5.97
245.729	-14.51
245.946	42.84
246.163	32.6
246.38	98.13
246.597	-24.75
246.814	3.93
247.031	3.93
247.248	34.64
247.464	3.93
247.681	12.12
247.898	12.12
248.115	98.13
248.332	24.4
248.549	40.79
248.766	-0.17
248.983	-8.36
249.2	40.79
249.417	65.36
249.633	55.12
249.85	-2.22
250.067	5.97
250.284	-16.55
250.501	77.65
250.717	100.18
250.934	-53.42
251.151	98.13
251.368	18.26
251.585	-30.89
251.801	20.31
252.018	75.6
252.235	44.88
252.451	-6.31
252.668	57.17
252.885	51.03
253.102	16.21
253.318	32.6
253.535	-4.27
253.752	40.79
253.968	-8.36
254.185	-24.75
254.401	-0.17
254.618	83.8
254.835	8.02
255.051	-8.36
255.268	32.6
255.484	65.36
255.701	118.61
255.917	85.84
256.134	-41.13
256.351	112.47
256.567	-6.31
256.784	36.69
257	57.17
257.217	61.27
257.433	59.22
257.65	108.37
257.866	114.52
258.082	-67.75
258.299	-8.36
258.515	57.17
258.732	18.26
258.948	-12.46
259.165	69.46
259.381	10.07
259.597	-22.7
259.814	83.8
260.03	1.88
260.246	79.7
260.463	28.5
260.679	-12.46
260.895	1.88
261.112	65.36
261.328	-22.7
261.544	-12.46
261.761	-14.51
261.977	73.56
262.193	-39.08
262.409	100.18
262.626	-24.75
262.842	51.03
263.058	-63.66
263.274	48.98
263.49	48.98
263.707	10.07
263.923	59.22
264.139	-16.55
264.355	55.12
264.571	81.75
264.787	143.19
265.004	157.52
265.22	10.07
265.436	8.02
265.652	-8.36
265.868	-4.27
266.084	53.08
266.3	36.69
266.516	14.17
266.732	-14.51
266.948	57.17
267.164	36.69
267.38	40.79
267.596	126.8
267.812	32.6
268.028	57.17
268.244	28.5
268.46	20.31
268.676	-4.27
268.892	-16.55
269.108	-51.37
269.324	-16.55
269.54	26.45
269.756	81.75
269.972	32.6
270.188	-0.17
270.403	83.8
270.619	26.45
270.835	98.13
271.051	75.6
271.267	32.6
271.483	8.02
271.698	-8.36
271.914	67.41
272.13	1.88
272.346	57.17
272.562	16.21
272.777	48.98
272.993	51.03
273.209	40.79
273.425	59.22
273.64	3.93
273.856	24.4
274.072	-6.31
274.287	67.41
274.503	51.03
274.719	30.55
274.934	-39.08
275.15	-59.56
275.366	48.98
275.581	42.84
275.797	59.22
276.012	73.56
276.228	71.51
276.444	-0.17
276.659	53.08
276.875	83.8
277.09	12.12
277.306	28.5
277.521	53.08
277.737	-0.17
277.952	59.22
278.168	18.26
278.383	61.27
278.599	-4.27
278.814	-0.17
279.03	28.5
279.245	94.04
279.461	40.79
279.676	-16.55
279.892	10.07
280.107	12.12
280.322	-12.46
280.538	18.26
280.753	12.12
280.969	20.31
281.184	32.6
281.399	36.69
281.615	40.79
281.83	26.45
282.045	18.26
282.26	20.31
282.476	3.93
282.691	48.98
282.906	81.75
283.122	-28.84
283.337	-28.84
283.552	57.17
283.767	24.4
283.983	26.45
284.198	87.89
284.413	24.4
284.628	51.03
284.843	-12.46
285.058	10.07
285.274	89.94
285.489	-8.36
285.704	10.07
285.919	40.79
286.134	-22.7
286.349	5.97
286.564	57.17
286.779	71.51
286.995	59.22
287.21	116.56
287.425	32.6
287.64	32.6
287.855	-20.65
288.07	12.12
288.285	59.22
288.5	-30.89
288.715	16.21
288.93	100.18
289.145	12.12
289.36	63.32
289.575	53.08
289.79	44.88
290.004	57.17
290.219	73.56
290.434	-0.17
290.649	8.02
290.864	8.02
291.079	8.02
291.294	42.84
291.509	106.32
291.724	34.64
291.938	22.36
292.153	-6.31
292.368	-4.27
292.583	57.17
292.798	61.27
293.012	18.26
293.227	-16.55
293.442	-2.22
293.657	32.6
293.871	53.08
294.086	18.26
294.301	81.75
294.516	40.79
294.73	8.02
294.945	-6.31
295.16	10.07
295.374	65.36
295.589	51.03
295.804	1.88
296.018	16.21
296.233	40.79
296.447	42.84
296.662	75.6
296.877	28.5
297.091	44.88
297.306	-39.08
297.52	40.79
297.735	10.07
297.949	36.69
298.164	32.6
298.378	3.93
298.593	26.45
298.807	-0.17
299.022	-37.03
299.236	77.65
299.451	57.17
299.665	57.17
299.88	55.12
300.094	24.4
300.309	59.22
300.523	-8.36
300.737	20.31
300.952	24.4
301.166	91.99
301.381	3.93
301.595	1.88
301.809	26.45
302.024	8.02
302.238	8.02
302.452	10.07
302.667	40.79
302.881	36.69
303.095	40.79
303.309	67.41
303.524	73.56
303.738	73.56
303.952	61.27
304.166	20.31
304.381	-16.55
304.595	57.17
304.809	-47.27
305.023	16.21
305.237	51.03
305.452	-32.94
305.666	3.93
305.88	89.94
306.094	36.69
306.308	81.75
306.522	3.93
306.736	36.69
306.95	102.23
307.164	132.95
307.379	32.6
307.593	73.56
307.807	51.03
308.021	51.03
308.235	48.98
308.449	18.26
308.663	-30.89
308.877	122.71
309.091	10.07
309.305	32.6
309.519	-53.42
309.733	71.51
309.947	55.12
310.161	57.17
310.374	36.69
310.588	100.18
310.802	-41.13
311.016	8.02
311.23	16.21
311.444	-32.94
311.658	10.07
311.872	91.99
312.085	51.03
312.299	139.09
312.513	61.27
312.727	44.88
312.941	24.4
313.154	57.17
313.368	-16.55
313.582	48.98
313.796	8.02
314.009	53.08
314.223	67.41
314.437	32.6
314.651	1.88
314.864	-26.79
315.078	42.84
315.292	-20.65
315.505	16.21
315.719	26.45
315.933	48.98
316.146	32.6
316.36	-4.27
316.573	77.65
316.787	48.98
317.001	114.52
317.214	-14.51
317.428	10.07
317.641	-16.55
317.855	51.03
318.068	-18.6
318.282	32.6
318.495	65.36
318.709	75.6
318.922	34.64
319.136	79.7
319.349	87.89
319.563	20.31
319.776	24.4
319.99	-6.31
320.203	28.5
320.417	51.03
320.63	63.32
320.843	67.41
321.057	46.93
321.27	-8.36
321.483	10.07
321.697	59.22
321.91	48.98
322.124	34.64
322.337	-4.27
322.55	-28.84
322.763	53.08
322.977	-43.18
323.19	73.56
323.403	-16.55
323.617	61.27
323.83	38.74
324.043	57.17
324.256	-28.84
324.469	12.12
324.683	102.23
324.896	36.69
325.109	-0.17
325.322	-0.17
325.535	30.55
325.748	53.08
325.962	-32.94
326.175	53.08
326.388	18.26
326.601	89.94
326.814	57.17
327.027	-12.46
327.24	40.79
327.453	-22.7
327.666	-39.08
327.879	-22.7
328.092	22.36
328.305	57.17
328.518	-6.31
328.731	-12.46
328.944	10.07
329.157	57.17
329.37	-39.08
329.583	12.12
329.796	135
330.009	-16.55
330.222	59.22
330.435	26.45
330.648	53.08
330.861	85.84
331.073	108.37
331.286	10.07
331.499	26.45
331.712	40.79
331.925	91.99
332.138	51.03
332.35	100.18
332.563	-2.22
332.776	40.79
332.989	-32.94
333.202	18.26
333.414	-2.22
333.627	36.69
333.84	10.07
334.053	-22.7
334.265	16.21
334.478	81.75
334.691	-6.31
334.903	65.36
335.116	1.88
335.329	73.56
335.541	44.88
335.754	128.85
335.966	32.6
336.179	73.56
336.392	-6.31
336.604	114.52
336.817	-12.46
337.029	20.31
337.242	57.17
337.454	67.41
337.667	-4.27
337.88	114.52
338.092	65.36
338.305	69.46
338.517	46.93
338.729	28.5
338.942	83.8
339.154	73.56
339.367	59.22
339.579	69.46
339.792	20.31
340.004	8.02
340.217	-0.17
340.429	83.8
340.641	-6.31
340.854	89.94
341.066	10.07
341.278	12.12
341.491	130.9
341.703	12.12
341.915	26.45
342.128	14.17
342.34	24.4
342.552	-16.55
342.764	-30.89
342.977	-0.17
343.189	20.31
343.401	10.07
343.613	32.6
343.826	-30.89
344.038	55.12
344.25	-18.6
344.462	-8.36
344.674	130.9
344.886	20.31
345.099	36.69
345.311	128.85
345.523	-41.13
345.735	44.88
345.947	77.65
346.159	75.6
346.371	130.9
346.583	-22.7
346.795	132.95
347.007	14.17
347.219	59.22
347.431	16.21
347.643	188.24
347.855	-32.94
348.067	106.32
348.279	10.07
348.491	59.22
348.703	32.6
348.915	81.75
349.127	8.02
349.339	89.94
349.551	87.89
349.763	89.94
349.975	28.5
350.187	34.64
350.399	91.99
350.61	16.21
350.822	-49.32
351.034	18.26
351.246	128.85
351.458	94.04
351.669	65.36
351.881	36.69
352.093	59.22
352.305	24.4
352.517	69.46
352.728	89.94
352.94	-14.51
353.152	59.22
353.363	-16.55
353.575	118.61
353.787	98.13
353.999	65.36
354.21	46.93
354.422	48.98
354.633	89.94
354.845	16.21
355.057	40.79
355.268	-0.17
355.48	65.36
355.692	24.4
355.903	83.8
356.115	98.13
356.326	53.08
356.538	44.88
356.749	73.56
356.961	87.89
357.172	18.26
357.384	-39.08
357.595	118.61
357.807	10.07
358.018	57.17
358.23	48.98
358.441	147.28
358.653	40.79
358.864	59.22
359.075	48.98
359.287	36.69
359.498	110.42
359.709	75.6
359.921	48.98
360.132	-4.27
360.344	147.28
360.555	89.94
360.766	42.84
360.977	48.98
361.189	26.45
361.4	5.97
361.611	53.08
361.823	22.36
362.034	48.98
362.245	-16.55
362.456	-16.55
362.667	73.56
362.879	40.79
363.09	53.08
363.301	79.7
363.512	-6.31
363.723	12.12
363.935	1.88
364.146	73.56
364.357	34.64
364.568	67.41
364.779	3.93
364.99	73.56
365.201	-32.94
365.412	106.32
365.623	24.4
365.834	40.79
366.045	-12.46
366.256	38.74
366.467	89.94
366.678	32.6
366.889	102.23
367.1	34.64
367.311	94.04
367.522	42.84
367.733	16.21
367.944	57.17
368.155	44.88
368.366	112.47
368.577	42.84
368.788	73.56
368.999	-24.75
369.209	24.4
369.42	122.71
369.631	114.52
369.842	40.79
370.053	-6.31
370.264	100.18
370.474	65.36
370.685	5.97
370.896	32.6
371.107	61.27
371.317	22.36
371.528	10.07
371.739	77.65
371.95	126.8
372.16	61.27
372.371	73.56
372.582	100.18
372.792	104.28
373.003	63.32
373.214	-8.36
373.424	48.98
373.635	-8.36
373.846	104.28
374.056	57.17
374.267	26.45
374.477	24.4
374.688	18.26
374.898	53.08
375.109	147.28
375.319	96.08
375.53	44.88
375.74	20.31
375.951	96.08
376.161	28.5
376.372	120.66
376.582	26.45
376.793	57.17
377.003	-24.75
377.214	55.12
377.424	10.07
377.635	83.8
377.845	34.64
378.055	24.4
378.266	57.17
378.476	57.17
378.686	73.56
378.897	57.17
379.107	34.64
379.317	65.36
379.528	132.95
379.738	135
379.948	34.64
380.158	96.08
380.369	48.98
380.579	108.37
380.789	18.26
380.999	81.75
381.21	48.98
381.42	114.52
381.63	1.88
381.84	32.6
382.05	32.6
382.261	28.5
382.471	44.88
382.681	65.36
382.891	130.9
383.101	122.71
383.311	-8.36
383.521	28.5
383.731	53.08
383.941	48.98
384.151	-16.55
384.361	69.46
384.571	44.88
384.781	147.28
384.991	51.03
385.201	106.32
385.411	63.32
385.621	10.07
385.831	122.71
386.041	106.32
386.251	102.23
386.461	65.36
386.671	34.64
386.881	61.27
387.091	85.84
387.301	73.56
387.511	51.03
387.72	48.98
387.93	-0.17
388.14	-22.7
388.35	108.37
388.56	91.99
388.769	161.62
388.979	104.28
389.189	16.21
389.399	12.12
389.609	94.04
389.818	57.17
390.028	110.42
390.238	102.23
390.447	3.93
390.657	89.94
390.867	77.65
391.076	79.7
391.286	-4.27
391.496	87.89
391.705	-12.46
391.915	81.75
392.125	67.41
392.334	94.04
392.544	157.52
392.753	94.04
392.963	114.52
393.172	135
393.382	51.03
393.591	42.84
393.801	59.22
394.01	130.9
394.22	130.9
394.429	65.36
394.639	98.13
394.848	112.47
395.058	40.79
395.267	108.37
395.477	147.28
395.686	91.99
395.895	98.13
396.105	175.95
396.314	91.99
396.524	163.67
396.733	53.08
396.942	167.76
397.152	161.62
397.361	89.94
397.57	79.7
397.78	57.17
397.989	147.28
398.198	130.9
398.407	55.12
398.617	114.52
398.826	139.09
399.035	130.9
399.244	89.94
399.453	106.32
399.663	81.75
399.872	67.41
400.081	71.51
400.29	186.19
400.499	40.79
400.708	147.28
400.917	171.86
401.127	116.56
401.336	118.61
401.545	128.85
401.754	196.43
401.963	188.24
402.172	130.9
402.381	147.28
402.59	104.28
402.799	122.71
403.008	141.14
403.217	135
403.426	143.19
403.635	198.48
403.844	216.91
404.053	221.01
404.262	169.81
404.471	114.52
404.68	225.11
404.888	186.19
405.097	167.76
405.306	223.06
405.515	137.04
405.724	153.43
405.933	190.29
406.142	192.34
406.35	180.05
406.559	284.5
406.768	249.68
406.977	188.24
407.185	264.02
407.394	237.39
407.603	237.39
407.812	290.64
408.02	192.34
408.229	261.97
408.438	280.4
408.646	319.31
408.855	309.07
409.064	282.45
409.272	321.36
409.481	380.75
409.69	296.78
409.898	319.31
410.107	309.07
410.315	311.12
410.524	354.13
410.733	384.85
410.941	403.28
411.15	407.38
411.358	485.2
411.567	454.48
411.775	458.57
411.984	450.38
412.192	526.16
412.401	520.01
412.609	499.53
412.818	522.06
413.026	544.59
413.234	577.36
413.443	632.65
413.651	569.16
413.86	728.91
414.068	728.91
414.276	765.77
414.485	689.99
414.693	802.63
414.901	812.87
415.11	851.78
415.318	810.82
415.526	776.01
415.734	976.71
415.943	958.28
416.151	909.13
416.359	900.94
416.567	1040.2
416.776	1146.69
416.984	1105.73
417.192	1181.51
417.4	1214.27
417.608	1220.42
417.817	1318.72
418.025	1302.34
418.233	1404.74
418.441	1400.64
418.649	1363.78
418.857	1523.52
419.065	1445.7
419.273	1468.22
419.481	1662.78
419.689	1752.89
419.897	1787.71
420.105	1877.82
420.313	1888.06
420.521	1974.07
420.729	1969.98
420.937	1937.21
421.145	2187.06
421.353	2234.16
421.561	2213.68
421.769	2352.95
421.977	2527.02
422.185	2449.2
422.393	2598.7
422.601	2697
422.809	2780.97
423.017	2682.67
423.224	2846.51
423.432	2893.61
423.64	2926.38
423.848	3172.13
424.056	3178.28
424.263	3264.29
424.471	3440.42
424.679	3481.38
424.887	3643.17
425.094	3862.3
425.302	3819.29
425.51	3921.69
425.718	4046.62
425.925	4071.19
426.133	4200.21
426.341	4448.02
426.548	4448.02
426.756	4695.82
426.964	4683.53
427.171	5023.5
427.379	5166.85
427.586	5275.4
427.794	5334.79
428.001	5435.14
428.209	5766.91
428.417	5666.56
428.624	6113.02
428.832	6250.23
429.039	6057.72
429.247	6160.12
429.454	6711.02
429.662	6991.59
429.869	6522.61
430.076	7241.45
430.284	6864.62
430.491	7134.95
430.699	7761.63
430.906	7472.87
431.114	7810.78
431.321	7913.18
431.528	8275.67
431.736	8822.48
431.943	9115.34
432.15	8648.4
432.358	8828.62
432.565	9436.87
432.772	9281.22
432.979	9920.19
433.187	10026.68
433.394	10219.19
433.601	10829.49
433.808	10849.97
434.016	10763.95
434.223	11273.9
434.43	11855.52
434.637	11732.64
434.844	12478.1
435.052	12646.04
435.259	12465.82
435.466	12703.38
435.673	12615.32
435.88	13362.83
436.087	13786.75
436.294	13952.64
436.501	13524.61
436.708	13930.11
436.915	14675.57
437.122	15021.68
437.329	15068.78
437.537	15423.08
437.743	15824.48
437.95	15756.9
438.157	16635.48
438.364	16946.77
438.571	16965.2
438.778	17059.41
438.985	18622.01
439.192	17833.54
439.399	18312.77
439.606	17958.47
439.813	18959.92
440.02	20295.2
440.227	19725.86
440.433	19910.18
440.64	20391.45
440.847	20020.77
441.054	20364.83
441.261	21954.05
441.467	21487.12
441.674	22175.23
441.881	23055.86
442.088	22730.23
442.294	22384.13
442.501	23504.37
442.708	23528.94
442.914	24401.38
443.121	25992.65
443.328	24860.12
443.534	26918.33
443.741	26115.53
443.948	25832.91
444.154	27379.12
444.361	27012.54
444.568	27184.57
444.774	27594.16
444.981	27602.35
445.187	28450.21
445.394	29388.18
445.6	29246.87
445.807	31968.62
446.013	30590.34
446.22	31147.39
446.426	32292.2
446.633	32439.65
446.839	33748.31
447.046	32185.71
447.252	34288.97
447.459	34084.17
447.665	34129.23
447.871	35695.92
448.078	36705.57
448.284	35198.27
448.491	36345.13
448.697	37397.79
448.903	38290.7
449.11	38337.8
449.316	37731.61
449.522	38354.19
449.728	39816.44
449.935	39855.35
450.141	39550.2
450.347	40371.44
450.553	39337.21
450.76	39576.83
450.966	41299.17
451.172	40385.77
451.378	41157.86
451.584	40709.35
451.791	42157.27
451.997	41178.34
452.203	42274
452.409	42114.26
452.615	41645.27
452.821	40170.74
453.027	40080.63
453.233	41981.14
453.44	40494.32
453.646	40887.53
453.852	41311.45
454.058	41684.19
454.264	40246.51
454.47	41647.32
454.676	40094.96
454.882	41366.75
455.088	37952.79
455.294	38968.58
455.5	39486.71
455.705	39761.14
455.911	38317.32
456.117	37625.11
456.323	36807.97
456.529	35155.26
456.735	36455.72
456.941	35945.78
457.147	35153.21
457.352	33783.12
457.558	33932.62
457.764	34037.07
457.97	32994.65
458.176	32517.48
458.381	32290.15
458.587	30838.14
458.793	30989.69
458.999	29291.93
459.204	31567.22
459.41	30293.38
459.616	28384.68
459.821	28489.12
460.027	28472.74
460.233	27921.84
460.438	26629.57
460.644	26588.61
460.85	25621.97
461.055	25011.67
461.261	25288.15
461.466	23236.08
461.672	22523.39
461.878	24212.96
462.083	22388.22
462.289	22115.84
462.494	22142.47
462.7	20909.59
462.905	20653.59
463.111	21147.15
463.316	21509.65
463.522	20651.55
463.727	20893.21
463.932	20665.88
464.138	20375.07
464.343	20407.84
464.549	19836.45
464.754	20610.59
464.959	20370.97
465.165	20319.78
465.37	19611.18
465.575	19023.41
465.781	19531.31
465.986	19779.11
466.191	19047.99
466.397	18368.06
466.602	17937.99
466.807	18640.44
467.012	18912.82
