Data from USB4F104151__64__14-17-12-437.txt Node

Date: Thu Mar 13 14:17:12 EDT 2025
User: louis
Spectrometer: USB4F10415
Trigger mode: 4
Integration Time (sec): 2.000000E-2
Scans to average: 1
Electric dark correction enabled: true
Nonlinearity correction enabled: false
Boxcar width: 0
XAxis mode: Wavelengths
Number of Pixels in Spectrum: 3648
>>>>>Begin Spectral Data<<<<<
178.204	-124.76
178.424	-124.76
178.644	-124.76
178.864	-167.76
179.084	-135
179.304	45.23
179.524	22.7
179.744	6.31
179.964	14.51
180.184	43.18
180.404	45.23
180.624	4.27
180.844	-57.17
181.064	-87.89
181.283	-16.21
181.503	0.17
181.723	-20.31
181.943	-32.6
182.163	67.75
182.383	61.61
182.602	77.99
182.822	8.36
183.042	4.27
183.262	-12.12
183.482	-3.93
183.701	12.46
183.921	77.99
184.141	-57.17
184.361	71.85
184.58	6.31
184.8	86.19
185.02	-3.93
185.239	55.47
185.459	45.23
185.679	94.38
185.898	-53.08
186.118	53.42
186.338	10.41
186.557	43.18
186.777	-46.93
186.997	24.75
187.216	0.17
187.436	-12.12
187.655	-28.5
187.875	110.76
188.095	-28.5
188.314	65.71
188.534	-18.26
188.753	55.47
188.973	16.55
189.192	69.8
189.412	90.28
189.631	49.32
189.851	-8.02
190.07	63.66
190.29	-59.22
190.509	98.47
190.729	0.17
190.948	22.7
191.168	82.09
191.387	65.71
191.607	-18.26
191.826	37.03
192.045	-3.93
192.265	37.03
192.484	6.31
192.704	4.27
192.923	20.65
193.142	63.66
193.362	16.55
193.581	63.66
193.8	6.31
194.02	86.19
194.239	-38.74
194.458	53.42
194.678	-3.93
194.897	26.79
195.116	63.66
195.335	22.7
195.555	61.61
195.774	8.36
195.993	32.94
196.212	49.32
196.432	37.03
196.651	-28.5
196.87	71.85
197.089	123.05
197.308	20.65
197.528	12.46
197.747	-3.93
197.966	41.13
198.185	80.04
198.404	-36.69
198.623	-12.12
198.842	4.27
199.062	28.84
199.281	4.27
199.5	20.65
199.719	77.99
199.938	28.84
200.157	104.62
200.376	-3.93
200.595	-3.93
200.814	104.62
201.033	-20.31
201.252	-20.31
201.471	20.65
201.69	-22.36
201.909	12.46
202.128	-8.02
202.347	28.84
202.566	43.18
202.785	0.17
203.004	18.6
203.223	80.04
203.442	51.37
203.661	4.27
203.879	80.04
204.098	-28.5
204.317	-20.31
204.536	20.65
204.755	0.17
204.974	69.8
205.193	6.31
205.411	45.23
205.63	8.36
205.849	61.61
206.068	-32.6
206.287	24.75
206.505	-18.26
206.724	14.51
206.943	53.42
207.162	12.46
207.381	127.14
207.599	22.7
207.818	-44.88
208.037	34.99
208.255	6.31
208.474	98.47
208.693	12.46
208.911	-24.4
209.13	16.55
209.349	69.8
209.567	82.09
209.786	108.71
210.005	57.51
210.223	80.04
210.442	45.23
210.661	41.13
210.879	49.32
211.098	10.41
211.316	30.89
211.535	4.27
211.753	24.75
211.972	53.42
212.191	69.8
212.409	32.94
212.628	37.03
212.846	6.31
213.065	37.03
213.283	77.99
213.502	-20.31
213.72	-75.6
213.938	-14.17
214.157	45.23
214.375	28.84
214.594	-32.6
214.812	53.42
215.031	32.94
215.249	-18.26
215.467	-53.08
215.686	16.55
215.904	65.71
216.122	6.31
216.341	45.23
216.559	45.23
216.778	69.8
216.996	10.41
217.214	-30.55
217.432	37.03
217.651	-26.45
217.869	0.17
218.087	49.32
218.306	-5.97
218.524	80.04
218.742	-18.26
218.96	37.03
219.179	-65.36
219.397	116.9
219.615	67.75
219.833	14.51
220.051	-12.12
220.27	20.65
220.488	41.13
220.706	69.8
220.924	-16.21
221.142	30.89
221.36	53.42
221.578	96.43
221.796	14.51
222.015	-34.64
222.233	53.42
222.451	71.85
222.669	18.6
222.887	61.61
223.105	-8.02
223.323	-3.93
223.541	-28.5
223.759	14.51
223.977	12.46
224.195	37.03
224.413	-44.88
224.631	-3.93
224.849	-77.65
225.067	77.99
225.285	32.94
225.503	-24.4
225.721	-38.74
225.939	12.46
226.157	49.32
226.375	73.9
226.592	2.22
226.81	-20.31
227.028	61.61
227.246	37.03
227.464	-12.12
227.682	14.51
227.9	61.61
228.117	61.61
228.335	28.84
228.553	135.34
228.771	-28.5
228.989	26.79
229.206	-10.07
229.424	12.46
229.642	-34.64
229.86	26.79
230.077	-26.45
230.295	-1.88
230.513	53.42
230.731	30.89
230.948	2.22
231.166	20.65
231.384	-48.98
231.601	30.89
231.819	22.7
232.037	22.7
232.254	-12.12
232.472	49.32
232.689	65.71
232.907	47.27
233.125	-26.45
233.342	65.71
233.56	-5.97
233.777	26.79
233.995	49.32
234.213	59.56
234.43	22.7
234.648	28.84
234.865	22.7
235.083	55.47
235.3	20.65
235.518	47.27
235.735	73.9
235.953	53.42
236.17	32.94
236.388	30.89
236.605	28.84
236.822	10.41
237.04	-89.94
237.257	-38.74
237.475	-8.02
237.692	51.37
237.909	4.27
238.127	-12.12
238.344	51.37
238.562	-20.31
238.779	16.55
238.996	98.47
239.214	57.51
239.431	43.18
239.648	30.89
239.865	53.42
240.083	24.75
240.3	96.43
240.517	-3.93
240.735	12.46
240.952	-1.88
241.169	69.8
241.386	57.51
241.603	22.7
241.821	-40.79
242.038	37.03
242.255	63.66
242.472	14.51
242.689	4.27
242.907	49.32
243.124	20.65
243.341	65.71
243.558	-73.56
243.775	8.36
243.992	-34.64
244.209	63.66
244.426	0.17
244.643	92.33
244.86	28.84
245.078	55.47
245.295	55.47
245.512	28.84
245.729	-18.26
245.946	61.61
246.163	24.75
246.38	69.8
246.597	8.36
246.814	28.84
247.031	47.27
247.248	69.8
247.464	16.55
247.681	6.31
247.898	20.65
248.115	2.22
248.332	-8.02
248.549	-24.4
248.766	41.13
248.983	26.79
249.2	45.23
249.417	37.03
249.633	53.42
249.85	55.47
250.067	37.03
250.284	-28.5
250.501	30.89
250.717	30.89
250.934	53.42
251.151	-12.12
251.368	37.03
251.585	47.27
251.801	53.42
252.018	-10.07
252.235	-3.93
252.451	-94.04
252.668	-1.88
252.885	71.85
253.102	47.27
253.318	-3.93
253.535	-28.5
253.752	18.6
253.968	6.31
254.185	-53.08
254.401	47.27
254.618	4.27
254.835	8.36
255.051	63.66
255.268	75.95
255.484	57.51
255.701	-53.08
255.917	45.23
256.134	-3.93
256.351	47.27
256.567	-40.79
256.784	37.03
257	30.89
257.217	57.51
257.433	-8.02
257.65	10.41
257.866	4.27
258.082	-61.27
258.299	-5.97
258.515	80.04
258.732	-18.26
258.948	-38.74
259.165	45.23
259.381	-22.36
259.597	4.27
259.814	22.7
260.03	14.51
260.246	77.99
260.463	67.75
260.679	96.43
260.895	4.27
261.112	47.27
261.328	-16.21
261.544	24.75
261.761	55.47
261.977	-22.36
262.193	8.36
262.409	37.03
262.626	37.03
262.842	6.31
263.058	-20.31
263.274	49.32
263.49	14.51
263.707	14.51
263.923	102.57
264.139	4.27
264.355	51.37
264.571	80.04
264.787	22.7
265.004	30.89
265.22	28.84
265.436	14.51
265.652	-1.88
265.868	96.43
266.084	14.51
266.3	102.57
266.516	24.75
266.732	28.84
266.948	53.42
267.164	61.61
267.38	77.99
267.596	-42.84
267.812	90.28
268.028	12.46
268.244	8.36
268.46	90.28
268.676	6.31
268.892	63.66
269.108	-1.88
269.324	28.84
269.54	-44.88
269.756	18.6
269.972	-69.46
270.188	57.51
270.403	-8.02
270.619	0.17
270.835	88.23
271.051	-1.88
271.267	-36.69
271.483	-3.93
271.698	10.41
271.914	24.75
272.13	14.51
272.346	86.19
272.562	30.89
272.777	129.19
272.993	14.51
273.209	14.51
273.425	118.95
273.64	32.94
273.856	37.03
274.072	20.65
274.287	37.03
274.503	45.23
274.719	8.36
274.934	-18.26
275.15	-8.02
275.366	32.94
275.581	-18.26
275.797	12.46
276.012	63.66
276.228	-38.74
276.444	37.03
276.659	-12.12
276.875	-16.21
277.09	61.61
277.306	37.03
277.521	-34.64
277.737	65.71
277.952	63.66
278.168	24.75
278.383	47.27
278.599	86.19
278.814	37.03
279.03	24.75
279.245	22.7
279.461	57.51
279.676	61.61
279.892	-28.5
280.107	94.38
280.322	-71.51
280.538	-20.31
280.753	-10.07
280.969	-22.36
281.184	20.65
281.399	-10.07
281.615	18.6
281.83	-24.4
282.045	-85.84
282.26	47.27
282.476	61.61
282.691	43.18
282.906	28.84
283.122	-10.07
283.337	-1.88
283.552	-20.31
283.767	2.22
283.983	12.46
284.198	10.41
284.413	14.51
284.628	-48.98
284.843	-38.74
285.058	121
285.274	104.62
285.489	32.94
285.704	12.46
285.919	-26.45
286.134	86.19
286.349	18.6
286.564	8.36
286.779	37.03
286.995	88.23
287.21	6.31
287.425	20.65
287.64	30.89
287.855	-28.5
288.07	22.7
288.285	55.47
288.5	6.31
288.715	73.9
288.93	37.03
289.145	77.99
289.36	-8.02
289.575	37.03
289.79	43.18
290.004	16.55
290.219	-40.79
290.434	51.37
290.649	18.6
290.864	45.23
291.079	-32.6
291.294	14.51
291.509	-3.93
291.724	28.84
291.938	-28.5
292.153	20.65
292.368	80.04
292.583	-28.5
292.798	6.31
293.012	26.79
293.227	-5.97
293.442	86.19
293.657	37.03
293.871	12.46
294.086	-5.97
294.301	71.85
294.516	51.37
294.73	77.99
294.945	-1.88
295.16	8.36
295.374	16.55
295.589	86.19
295.804	-8.02
296.018	69.8
296.233	102.57
296.447	16.55
296.662	86.19
296.877	98.47
297.091	53.42
297.306	55.47
297.52	-20.31
297.735	-8.02
297.949	30.89
298.164	73.9
298.378	-28.5
298.593	-1.88
298.807	28.84
299.022	37.03
299.236	34.99
299.451	-10.07
299.665	-30.55
299.88	41.13
300.094	14.51
300.309	71.85
300.523	82.09
300.737	14.51
300.952	8.36
301.166	-28.5
301.381	4.27
301.595	37.03
301.809	53.42
302.024	37.03
302.238	-12.12
302.452	94.38
302.667	53.42
302.881	45.23
303.095	14.51
303.309	61.61
303.524	43.18
303.738	32.94
303.952	-1.88
304.166	37.03
304.381	37.03
304.595	45.23
304.809	69.8
305.023	6.31
305.237	20.65
305.452	65.71
305.666	39.08
305.88	94.38
306.094	6.31
306.308	24.75
306.522	22.7
306.736	-22.36
306.95	61.61
307.164	55.47
307.379	20.65
307.593	121
307.807	-30.55
308.021	-28.5
308.235	20.65
308.449	39.08
308.663	-8.02
308.877	86.19
309.091	53.42
309.305	53.42
309.519	12.46
309.733	41.13
309.947	-51.03
310.161	94.38
310.374	41.13
310.588	-16.21
310.802	-8.02
311.016	4.27
311.23	104.62
311.444	53.42
311.658	-12.12
311.872	12.46
312.085	90.28
312.299	59.56
312.513	16.55
312.727	57.51
312.941	6.31
313.154	2.22
313.368	24.75
313.582	69.8
313.796	77.99
314.009	28.84
314.223	94.38
314.437	47.27
314.651	123.05
314.864	37.03
315.078	90.28
315.292	14.51
315.505	45.23
315.719	57.51
315.933	24.75
316.146	34.99
316.36	-30.55
316.573	51.37
316.787	63.66
317.001	12.46
317.214	-14.17
317.428	73.9
317.641	-3.93
317.855	22.7
318.068	-3.93
318.282	63.66
318.495	57.51
318.709	69.8
318.922	14.51
319.136	61.61
319.349	28.84
319.563	65.71
319.776	30.89
319.99	69.8
320.203	-51.03
320.417	22.7
320.63	14.51
320.843	53.42
321.057	14.51
321.27	65.71
321.483	61.61
321.697	77.99
321.91	80.04
322.124	47.27
322.337	-20.31
322.55	-10.07
322.763	24.75
322.977	24.75
323.19	51.37
323.403	57.51
323.617	77.99
323.83	127.14
324.043	-3.93
324.256	61.61
324.469	8.36
324.683	4.27
324.896	-10.07
325.109	45.23
325.322	-14.17
325.535	65.71
325.748	-20.31
325.962	2.22
326.175	-3.93
326.388	39.08
326.601	-1.88
326.814	67.75
327.027	53.42
327.24	82.09
327.453	-3.93
327.666	86.19
327.879	6.31
328.092	-16.21
328.305	28.84
328.518	-1.88
328.731	20.65
328.944	6.31
329.157	49.32
329.37	24.75
329.583	32.94
329.796	80.04
330.009	18.6
330.222	90.28
330.435	20.65
330.648	22.7
330.861	22.7
331.073	63.66
331.286	125.1
331.499	84.14
331.712	28.84
331.925	2.22
332.138	71.85
332.35	112.81
332.563	-81.75
332.776	77.99
332.989	57.51
333.202	51.37
333.414	4.27
333.627	24.75
333.84	57.51
334.053	45.23
334.265	45.23
334.478	32.94
334.691	67.75
334.903	22.7
335.116	-3.93
335.329	110.76
335.541	102.57
335.754	82.09
335.966	47.27
336.179	-40.79
336.392	6.31
336.604	6.31
336.817	30.89
337.029	63.66
337.242	47.27
337.454	45.23
337.667	16.55
337.88	-14.17
338.092	18.6
338.305	61.61
338.517	39.08
338.729	61.61
338.942	86.19
339.154	-16.21
339.367	-18.26
339.579	53.42
339.792	12.46
340.004	80.04
340.217	34.99
340.429	-12.12
340.641	10.41
340.854	22.7
341.066	12.46
341.278	94.38
341.491	86.19
341.703	-24.4
341.915	22.7
342.128	45.23
342.34	28.84
342.552	69.8
342.764	4.27
342.977	61.61
343.189	90.28
343.401	41.13
343.613	-1.88
343.826	22.7
344.038	32.94
344.25	14.51
344.462	32.94
344.674	-16.21
344.886	-22.36
345.099	34.99
345.311	-3.93
345.523	39.08
345.735	-42.84
345.947	32.94
346.159	57.51
346.371	88.23
346.583	32.94
346.795	104.62
347.007	-20.31
347.219	61.61
347.431	20.65
347.643	39.08
347.855	-28.5
348.067	45.23
348.279	-61.27
348.491	20.65
348.703	53.42
348.915	37.03
349.127	20.65
349.339	-5.97
349.551	12.46
349.763	43.18
349.975	-16.21
350.187	123.05
350.399	94.38
350.61	77.99
350.822	-3.93
351.034	41.13
351.246	-10.07
351.458	82.09
351.669	71.85
351.881	55.47
352.093	65.71
352.305	55.47
352.517	84.14
352.728	82.09
352.94	22.7
353.152	86.19
353.363	-61.27
353.575	45.23
353.787	67.75
353.999	55.47
354.21	47.27
354.422	55.47
354.633	16.55
354.845	133.29
355.057	-42.84
355.268	14.51
355.48	55.47
355.692	55.47
355.903	18.6
356.115	14.51
356.326	20.65
356.538	63.66
356.749	47.27
356.961	98.47
357.172	43.18
357.384	69.8
357.595	77.99
357.807	-3.93
358.018	14.51
358.23	53.42
358.441	127.14
358.653	96.43
358.864	39.08
359.075	34.99
359.287	37.03
359.498	170.15
359.709	90.28
359.921	30.89
360.132	39.08
360.344	10.41
360.555	92.33
360.766	75.95
360.977	30.89
361.189	37.03
361.4	-3.93
361.611	104.62
361.823	80.04
362.034	127.14
362.245	-12.12
362.456	96.43
362.667	123.05
362.879	0.17
363.09	16.55
363.301	16.55
363.512	49.32
363.723	77.99
363.935	57.51
364.146	75.95
364.357	22.7
364.568	-18.26
364.779	8.36
364.99	77.99
365.201	0.17
365.412	49.32
365.623	-44.88
365.834	75.95
366.045	71.85
366.256	12.46
366.467	104.62
366.678	4.27
366.889	26.79
367.1	12.46
367.311	26.79
367.522	0.17
367.733	-20.31
367.944	88.23
368.155	39.08
368.366	37.03
368.577	6.31
368.788	118.95
368.999	28.84
369.209	14.51
369.42	41.13
369.631	153.77
369.842	88.23
370.053	39.08
370.264	39.08
370.474	-10.07
370.685	-12.12
370.896	41.13
371.107	92.33
371.317	41.13
371.528	20.65
371.739	43.18
371.95	-10.07
372.16	102.57
372.371	-3.93
372.582	30.89
372.792	37.03
373.003	63.66
373.214	49.32
373.424	61.61
373.635	47.27
373.846	75.95
374.056	-28.5
374.267	127.14
374.477	84.14
374.688	28.84
374.898	37.03
375.109	14.51
375.319	57.51
375.53	59.56
375.74	65.71
375.951	159.91
376.161	18.6
376.372	61.61
376.582	129.19
376.793	20.65
377.003	6.31
377.214	71.85
377.424	47.27
377.635	-3.93
377.845	49.32
378.055	65.71
378.266	49.32
378.476	14.51
378.686	-28.5
378.897	-22.36
379.107	98.47
379.317	22.7
379.528	32.94
379.738	88.23
379.948	90.28
380.158	121
380.369	94.38
380.579	69.8
380.789	104.62
380.999	-61.27
381.21	73.9
381.42	106.67
381.63	-3.93
381.84	104.62
382.05	108.71
382.261	-28.5
382.471	53.42
382.681	55.47
382.891	137.38
383.101	61.61
383.311	20.65
383.521	47.27
383.731	53.42
383.941	39.08
384.151	63.66
384.361	20.65
384.571	82.09
384.781	112.81
384.991	121
385.201	67.75
385.411	86.19
385.621	6.31
385.831	49.32
386.041	8.36
386.251	86.19
386.461	57.51
386.671	20.65
386.881	45.23
387.091	-1.88
387.301	-3.93
387.511	4.27
387.72	110.76
387.93	73.9
388.14	-42.84
388.35	20.65
388.56	112.81
388.769	90.28
388.979	63.66
389.189	77.99
389.399	12.46
389.609	41.13
389.818	75.95
390.028	37.03
390.238	61.61
390.447	45.23
390.657	55.47
390.867	94.38
391.076	-12.12
391.286	98.47
391.496	4.27
391.705	94.38
391.915	59.56
392.125	12.46
392.334	61.61
392.544	94.38
392.753	98.47
392.963	37.03
393.172	12.46
393.382	53.42
393.591	82.09
393.801	37.03
394.01	102.57
394.22	63.66
394.429	47.27
394.639	4.27
394.848	73.9
395.058	43.18
395.267	47.27
395.477	73.9
395.686	69.8
395.895	121
396.105	129.19
396.314	86.19
396.524	98.47
396.733	116.9
396.942	71.85
397.152	110.76
397.361	135.34
397.57	102.57
397.78	80.04
397.989	147.62
398.198	143.53
398.407	82.09
398.617	82.09
398.826	41.13
399.035	123.05
399.244	168.1
399.453	135.34
399.663	121
399.872	118.95
400.081	170.15
400.29	151.72
400.499	20.65
400.708	147.62
400.917	151.72
401.127	90.28
401.336	143.53
401.545	129.19
401.754	164.01
401.963	110.76
402.172	92.33
402.381	106.67
402.59	135.34
402.799	90.28
403.008	127.14
403.217	37.03
403.426	139.43
403.635	100.52
403.844	110.76
404.053	131.24
404.262	151.72
404.471	174.25
404.68	147.62
404.888	114.86
405.097	65.71
405.306	102.57
405.515	127.14
405.724	127.14
405.933	168.1
406.142	139.43
406.35	225.45
406.559	211.11
406.768	176.3
406.977	213.16
407.185	108.71
407.394	219.3
407.603	190.63
407.812	178.34
408.02	262.31
408.229	196.78
408.438	168.1
408.646	237.74
408.855	235.69
409.064	209.06
409.272	239.78
409.481	266.41
409.69	293.03
409.898	313.51
410.107	243.88
410.315	311.46
410.524	307.37
410.733	282.79
410.941	348.33
411.15	352.42
411.358	407.72
411.567	401.57
411.775	364.71
411.984	432.29
412.192	366.76
412.401	446.63
412.609	430.24
412.818	487.59
413.026	446.63
413.234	481.44
413.443	491.68
413.651	565.41
413.86	512.16
414.068	528.55
414.276	635.04
414.485	561.31
414.693	680.1
414.901	716.96
415.11	778.4
415.318	749.73
415.526	843.93
415.734	833.69
415.943	745.63
416.151	833.69
416.359	807.07
416.567	841.89
416.776	919.71
416.984	925.85
417.192	1028.25
417.4	893.09
417.608	1015.96
417.817	987.29
418.025	1036.44
418.233	1089.69
418.441	1118.36
418.649	1200.28
418.857	1280.15
419.065	1304.73
419.273	1196.18
419.481	1380.5
419.689	1333.4
419.897	1374.36
420.105	1439.89
420.313	1513.62
420.521	1566.87
420.729	1630.35
420.937	1732.75
421.145	1620.11
421.353	1857.68
421.561	1880.21
421.769	2015.37
421.977	2070.67
422.185	1955.98
422.393	1976.46
422.601	2275.46
422.809	2322.57
423.017	2216.07
423.224	2306.18
423.432	2502.79
423.64	2486.4
423.848	2650.24
424.056	2578.56
424.263	2816.13
424.471	2816.13
424.679	2891.9
424.887	2957.44
425.094	3145.85
425.302	3031.16
425.51	3235.96
425.718	3197.05
425.925	3477.62
426.133	3561.59
426.341	3580.02
426.548	3846.26
426.756	3971.18
426.964	3858.54
427.171	4126.83
427.379	4208.75
427.586	4296.81
427.794	4290.67
428.001	4532.33
428.209	4747.36
428.417	4714.59
428.624	4989.02
428.832	5058.65
429.039	4970.59
429.247	5066.85
429.454	5539.93
429.662	5877.84
429.869	5437.53
430.076	5787.73
430.284	5716.05
430.491	6082.64
430.699	6295.63
430.906	6344.78
431.114	6451.27
431.321	6828.1
431.528	6828.1
431.736	7157.82
431.943	7395.39
432.15	7389.24
432.358	7303.23
432.565	7874.61
432.772	7696.44
432.979	8163.37
433.187	8456.23
433.394	8251.44
433.601	8976.42
433.808	8896.55
434.016	8745
434.223	9130.02
434.43	9887.76
434.637	9592.86
434.844	10260.49
435.052	10536.97
435.259	10536.97
435.466	10590.22
435.673	10217.49
435.88	11022.34
436.087	11454.46
436.294	11513.85
436.501	11177.98
436.708	11452.41
436.915	12034.04
437.122	12361.71
437.329	12455.92
437.537	12810.22
437.743	13139.94
437.95	13068.26
438.157	13588.44
438.364	14018.52
438.571	14055.38
438.778	13975.51
438.985	15300.55
439.192	14907.34
439.399	15079.36
439.606	14657.48
439.813	15816.63
440.02	16805.8
440.227	16383.92
440.433	16156.6
440.64	16668.59
440.847	16639.92
441.054	17254.31
441.261	18202.52
441.467	17878.94
441.674	18235.28
441.881	19013.51
442.088	19048.33
442.294	18829.2
442.501	19134.34
442.708	19437.44
442.914	20275.06
443.121	21368.68
443.328	20658.03
443.534	21899.1
443.741	21335.91
443.948	20989.8
444.154	22689.62
444.361	22832.97
444.568	22656.85
444.774	22650.71
444.981	22849.36
445.187	23707.46
445.394	24366.9
445.6	24133.43
445.807	26025.76
446.013	25671.46
446.22	25691.94
446.426	27244.3
446.633	27447.05
446.839	28362.49
447.046	26892.05
447.252	28552.95
447.459	28223.23
447.665	28292.86
447.871	29757.16
448.078	31223.5
448.284	29089.52
448.491	30213.85
448.697	31395.53
448.903	32319.17
449.11	32059.07
449.316	31446.73
449.522	31966.91
449.728	32814.77
449.935	33234.61
450.141	33164.98
450.347	33578.67
450.553	33132.21
450.76	33566.38
450.966	34621.08
451.172	33816.23
451.378	34709.15
451.584	34008.74
451.791	35239.57
451.997	34983.57
452.203	35602.06
452.409	35681.93
452.615	35012.24
452.821	34021.03
453.027	33935.01
453.233	35665.55
453.44	33957.54
453.646	34256.54
453.852	34762.39
454.058	35120.79
454.264	34404
454.47	35174.03
454.676	33840.81
454.882	35090.07
455.088	32052.93
455.294	32624.31
455.5	33232.56
455.705	33590.95
455.911	32161.47
456.117	31702.73
456.323	30983.89
456.529	29613.8
456.735	30947.03
456.941	30066.4
457.147	29644.52
457.352	28978.93
457.558	28104.45
457.764	28516.09
457.97	27907.84
458.176	27287.31
458.381	27334.41
458.587	26154.78
458.793	25749.28
458.999	24563.51
459.204	26386.2
459.41	25759.52
459.616	24018.75
459.821	23848.77
460.027	24368.95
460.233	23500.61
460.438	22581.07
460.644	22529.87
460.85	21710.69
461.055	21172.07
461.261	21362.53
461.466	19613.57
461.672	18939.79
461.878	20354.93
462.083	19212.17
462.289	18825.1
462.494	18462.61
462.7	17876.89
462.905	17196.96
463.111	17690.52
463.316	17766.3
463.522	17477.54
463.727	17446.82
463.932	17348.51
464.138	17258.4
464.343	17313.7
464.549	16762.79
464.754	17475.49
464.959	17041.32
465.165	16994.22
465.37	16308.15
465.575	15773.63
465.781	16611.25
465.986	16330.67
466.191	15988.66
466.397	15765.43
466.602	14970.82
466.807	15577.02
467.012	15777.72
467.218	15634.36
467.423	15429.57
467.628	15364.03
