Data from USB4F104151__230__14-21-50-218.txt Node

Date: Thu Mar 13 14:21:50 EDT 2025
User: louis
Spectrometer: USB4F10415
Trigger mode: 4
Integration Time (sec): 2.000000E-2
Scans to average: 1
Electric dark correction enabled: true
Nonlinearity correction enabled: false
Boxcar width: 0
XAxis mode: Wavelengths
Number of Pixels in Spectrum: 3648
>>>>>Begin Spectral Data<<<<<
178.204	-125.44
178.424	-125.44
178.644	-125.44
178.864	-84.48
179.084	-88.57
179.304	-43.52
179.524	-10.75
179.744	50.69
179.964	-2.56
180.184	-8.7
180.404	44.54
180.624	38.4
180.844	-66.05
181.064	-18.94
181.283	-18.94
181.503	-29.18
181.723	65.02
181.943	-6.66
182.163	112.13
182.383	-27.14
182.602	5.63
182.822	38.4
183.042	46.59
183.262	73.21
183.482	7.68
183.701	50.69
183.921	65.02
184.141	26.11
184.361	101.89
184.58	46.59
184.8	56.83
185.02	77.31
185.239	65.02
185.459	5.63
185.679	-25.09
185.898	-64
186.118	26.11
186.338	67.07
186.557	13.82
186.777	32.26
186.997	-43.52
187.216	-16.9
187.436	58.88
187.655	22.02
187.875	-37.38
188.095	38.4
188.314	48.64
188.534	67.07
188.753	32.26
188.973	-10.75
189.192	116.22
189.412	15.87
189.631	87.55
189.851	32.26
190.07	42.5
190.29	13.82
190.509	-16.9
190.729	54.78
190.948	9.73
191.168	69.12
191.387	54.78
191.607	-41.47
191.826	54.78
192.045	110.08
192.265	50.69
192.484	32.26
192.704	48.64
192.923	13.82
193.142	85.5
193.362	-39.42
193.581	58.88
193.8	36.35
194.02	24.06
194.239	13.82
194.458	13.82
194.678	-2.56
194.897	22.02
195.116	54.78
195.335	-33.28
195.555	79.36
195.774	17.92
195.993	75.26
196.212	-2.56
196.432	17.92
196.651	54.78
196.87	32.26
197.089	73.21
197.308	114.17
197.528	69.12
197.747	-37.38
197.966	71.17
198.185	34.3
198.404	-51.71
198.623	17.92
198.842	89.6
199.062	42.5
199.281	48.64
199.5	-16.9
199.719	46.59
199.938	46.59
200.157	48.64
200.376	38.4
200.595	46.59
200.814	13.82
201.033	83.45
201.252	-4.61
201.471	79.36
201.69	-0.51
201.909	30.21
202.128	48.64
202.347	-10.75
202.566	-18.94
202.785	-8.7
203.004	-2.56
203.223	71.17
203.442	11.78
203.661	30.21
203.879	62.98
204.098	62.98
204.317	-68.09
204.536	26.11
204.755	89.6
204.974	17.92
205.193	24.06
205.411	112.13
205.63	30.21
205.849	26.11
206.068	15.87
206.287	-31.23
206.505	75.26
206.724	22.02
206.943	24.06
207.162	-39.42
207.381	26.11
207.599	24.06
207.818	85.5
208.037	40.45
208.255	-59.9
208.474	103.93
208.693	58.88
208.911	-0.51
209.13	32.26
209.349	112.13
209.567	54.78
209.786	128.51
210.005	50.69
210.223	54.78
210.442	-2.56
210.661	56.83
210.879	40.45
211.098	-37.38
211.316	9.73
211.535	48.64
211.753	-14.85
211.972	-4.61
212.191	-41.47
212.409	56.83
212.628	-31.23
212.846	15.87
213.065	-29.18
213.283	81.41
213.502	26.11
213.72	38.4
213.938	48.64
214.157	38.4
214.375	-8.7
214.594	73.21
214.812	40.45
215.031	46.59
215.249	38.4
215.467	7.68
215.686	83.45
215.904	54.78
216.122	17.92
216.341	7.68
216.559	87.55
216.778	22.02
216.996	87.55
217.214	-0.51
217.432	-51.71
217.651	5.63
217.869	75.26
218.087	62.98
218.306	26.11
218.524	50.69
218.742	54.78
218.96	-2.56
219.179	7.68
219.397	34.3
219.615	42.5
219.833	62.98
220.051	-45.57
220.27	65.02
220.488	95.74
220.706	93.69
220.924	56.83
221.142	9.73
221.36	28.16
221.578	71.17
221.796	83.45
222.015	69.12
222.233	32.26
222.451	97.79
222.669	36.35
222.887	87.55
223.105	13.82
223.323	22.02
223.541	-76.29
223.759	71.17
223.977	79.36
224.195	112.13
224.413	-0.51
224.631	65.02
224.849	46.59
225.067	79.36
225.285	13.82
225.503	62.98
225.721	-12.8
225.939	-10.75
226.157	73.21
226.375	122.37
226.592	-41.47
226.81	97.79
227.028	120.32
227.246	42.5
227.464	73.21
227.682	103.93
227.9	67.07
228.117	9.73
228.335	-2.56
228.553	30.21
228.771	32.26
228.989	85.5
229.206	28.16
229.424	5.63
229.642	46.59
229.86	30.21
230.077	46.59
230.295	24.06
230.513	46.59
230.731	95.74
230.948	40.45
231.166	11.78
231.384	-18.94
231.601	56.83
231.819	36.35
232.037	65.02
232.254	-16.9
232.472	65.02
232.689	9.73
232.907	30.21
233.125	-2.56
233.342	15.87
233.56	-31.23
233.777	-0.51
233.995	44.54
234.213	81.41
234.43	85.5
234.648	9.73
234.865	81.41
235.083	28.16
235.3	77.31
235.518	38.4
235.735	116.22
235.953	73.21
236.17	-10.75
236.388	52.74
236.605	-31.23
236.822	46.59
237.04	73.21
237.257	73.21
237.475	7.68
237.692	83.45
237.909	32.26
238.127	-10.75
238.344	52.74
238.562	95.74
238.779	7.68
238.996	17.92
239.214	46.59
239.431	22.02
239.648	38.4
239.865	58.88
240.083	87.55
240.3	38.4
240.517	93.69
240.735	93.69
240.952	65.02
241.169	95.74
241.386	120.32
241.603	-43.52
241.821	-10.75
242.038	114.17
242.255	75.26
242.472	46.59
242.689	44.54
242.907	108.03
243.124	40.45
243.341	48.64
243.558	169.47
243.775	85.5
243.992	5.63
244.209	24.06
244.426	36.35
244.643	120.32
244.86	62.98
245.078	58.88
245.295	1.54
245.512	95.74
245.729	-10.75
245.946	114.17
246.163	71.17
246.38	-10.75
246.597	40.45
246.814	38.4
247.031	56.83
247.248	75.26
247.464	3.58
247.681	48.64
247.898	56.83
248.115	62.98
248.332	67.07
248.549	73.21
248.766	108.03
248.983	95.74
249.2	5.63
249.417	13.82
249.633	24.06
249.85	79.36
250.067	-4.61
250.284	73.21
250.501	60.93
250.717	81.41
250.934	-39.42
251.151	3.58
251.368	-2.56
251.585	17.92
251.801	19.97
252.018	-10.75
252.235	87.55
252.451	48.64
252.668	-14.85
252.885	50.69
253.102	95.74
253.318	26.11
253.535	-29.18
253.752	69.12
253.968	5.63
254.185	13.82
254.401	34.3
254.618	38.4
254.835	38.4
255.051	124.41
255.268	5.63
255.484	112.13
255.701	-6.66
255.917	81.41
256.134	24.06
256.351	50.69
256.567	13.82
256.784	50.69
257	-23.04
257.217	60.93
257.433	62.98
257.65	30.21
257.866	67.07
258.082	1.54
258.299	3.58
258.515	30.21
258.732	75.26
258.948	38.4
259.165	-51.71
259.381	54.78
259.597	122.37
259.814	-41.47
260.03	-31.23
260.246	38.4
260.463	40.45
260.679	87.55
260.895	-27.14
261.112	50.69
261.328	48.64
261.544	32.26
261.761	91.65
261.977	28.16
262.193	26.11
262.409	56.83
262.626	108.03
262.842	32.26
263.058	7.68
263.274	58.88
263.49	28.16
263.707	148.99
263.923	71.17
264.139	13.82
264.355	38.4
264.571	71.17
264.787	67.07
265.004	5.63
265.22	-23.04
265.436	1.54
265.652	-0.51
265.868	52.74
266.084	34.3
266.3	-18.94
266.516	11.78
266.732	73.21
266.948	-4.61
267.164	116.22
267.38	34.3
267.596	50.69
267.812	54.78
268.028	65.02
268.244	-0.51
268.46	62.98
268.676	13.82
268.892	-18.94
269.108	30.21
269.324	-0.51
269.54	34.3
269.756	50.69
269.972	-20.99
270.188	17.92
270.403	-16.9
270.619	9.73
270.835	42.5
271.051	99.84
271.267	3.58
271.483	32.26
271.698	19.97
271.914	91.65
272.13	22.02
272.346	58.88
272.562	-74.24
272.777	15.87
272.993	52.74
273.209	-55.81
273.425	116.22
273.64	5.63
273.856	85.5
274.072	81.41
274.287	54.78
274.503	71.17
274.719	7.68
274.934	28.16
275.15	-10.75
275.366	-27.14
275.581	42.5
275.797	24.06
276.012	3.58
276.228	-18.94
276.444	58.88
276.659	85.5
276.875	26.11
277.09	71.17
277.306	58.88
277.521	58.88
277.737	65.02
277.952	30.21
278.168	71.17
278.383	87.55
278.599	101.89
278.814	24.06
279.03	56.83
279.245	30.21
279.461	15.87
279.676	-10.75
279.892	9.73
280.107	73.21
280.322	-31.23
280.538	11.78
280.753	36.35
280.969	30.21
281.184	7.68
281.399	112.13
281.615	62.98
281.83	9.73
282.045	-6.66
282.26	-0.51
282.476	73.21
282.691	71.17
282.906	144.89
283.122	97.79
283.337	65.02
283.552	54.78
283.767	-4.61
283.983	60.93
284.198	-2.56
284.413	87.55
284.628	9.73
284.843	65.02
285.058	163.33
285.274	50.69
285.489	-25.09
285.704	114.17
285.919	22.02
286.134	-14.85
286.349	97.79
286.564	60.93
286.779	118.27
286.995	48.64
287.21	40.45
287.425	38.4
287.64	-4.61
287.855	71.17
288.07	58.88
288.285	99.84
288.5	71.17
288.715	24.06
288.93	89.6
289.145	54.78
289.36	-4.61
289.575	-2.56
289.79	73.21
290.004	-0.51
290.219	87.55
290.434	15.87
290.649	38.4
290.864	42.5
291.079	-41.47
291.294	15.87
291.509	52.74
291.724	62.98
291.938	-23.04
292.153	46.59
292.368	54.78
292.583	91.65
292.798	120.32
293.012	46.59
293.227	13.82
293.442	-27.14
293.657	79.36
293.871	73.21
294.086	13.82
294.301	42.5
294.516	130.56
294.73	75.26
294.945	17.92
295.16	54.78
295.374	87.55
295.589	85.5
295.804	30.21
296.018	-4.61
296.233	65.02
296.447	46.59
296.662	-39.42
296.877	62.98
297.091	52.74
297.306	62.98
297.52	58.88
297.735	-33.28
297.949	58.88
298.164	-25.09
298.378	71.17
298.593	87.55
298.807	22.02
299.022	32.26
299.236	65.02
299.451	69.12
299.665	9.73
299.88	26.11
300.094	-6.66
300.309	22.02
300.523	54.78
300.737	-29.18
300.952	30.21
301.166	54.78
301.381	34.3
301.595	48.64
301.809	19.97
302.024	56.83
302.238	30.21
302.452	114.17
302.667	32.26
302.881	118.27
303.095	30.21
303.309	-2.56
303.524	79.36
303.738	13.82
303.952	-31.23
304.166	40.45
304.381	-4.61
304.595	46.59
304.809	5.63
305.023	52.74
305.237	24.06
305.452	65.02
305.666	-20.99
305.88	120.32
306.094	26.11
306.308	32.26
306.522	69.12
306.736	73.21
306.95	-2.56
307.164	22.02
307.379	13.82
307.593	79.36
307.807	-4.61
308.021	22.02
308.235	65.02
308.449	-0.51
308.663	87.55
308.877	140.8
309.091	87.55
309.305	54.78
309.519	22.02
309.733	79.36
309.947	7.68
310.161	122.37
310.374	54.78
310.588	124.41
310.802	-23.04
311.016	-10.75
311.23	71.17
311.444	26.11
311.658	7.68
311.872	108.03
312.085	48.64
312.299	22.02
312.513	79.36
312.727	38.4
312.941	48.64
313.154	71.17
313.368	-43.52
313.582	40.45
313.796	128.51
314.009	15.87
314.223	30.21
314.437	32.26
314.651	17.92
314.864	71.17
315.078	5.63
315.292	79.36
315.505	-25.09
315.719	5.63
315.933	-8.7
316.146	54.78
316.36	7.68
316.573	65.02
316.787	5.63
317.001	7.68
317.214	1.54
317.428	71.17
317.641	28.16
317.855	50.69
318.068	24.06
318.282	54.78
318.495	120.32
318.709	77.31
318.922	-51.71
319.136	65.02
319.349	69.12
319.563	58.88
319.776	75.26
319.99	26.11
320.203	71.17
320.417	5.63
320.63	24.06
320.843	153.09
321.057	79.36
321.27	87.55
321.483	32.26
321.697	30.21
321.91	19.97
322.124	116.22
322.337	105.98
322.55	95.74
322.763	62.98
322.977	3.58
323.19	-10.75
323.403	13.82
323.617	46.59
323.83	89.6
324.043	13.82
324.256	15.87
324.469	-6.66
324.683	1.54
324.896	38.4
325.109	58.88
325.322	-35.33
325.535	19.97
325.748	38.4
325.962	56.83
326.175	-4.61
326.388	50.69
326.601	87.55
326.814	101.89
327.027	40.45
327.24	116.22
327.453	-35.33
327.666	93.69
327.879	42.5
328.092	71.17
328.305	46.59
328.518	30.21
328.731	17.92
328.944	5.63
329.157	48.64
329.37	81.41
329.583	38.4
329.796	62.98
330.009	30.21
330.222	42.5
330.435	17.92
330.648	73.21
330.861	32.26
331.073	54.78
331.286	5.63
331.499	48.64
331.712	7.68
331.925	13.82
332.138	-31.23
332.35	89.6
332.563	46.59
332.776	32.26
332.989	54.78
333.202	62.98
333.414	42.5
333.627	87.55
333.84	83.45
334.053	9.73
334.265	69.12
334.478	71.17
334.691	-49.66
334.903	40.45
335.116	42.5
335.329	60.93
335.541	50.69
335.754	42.5
335.966	1.54
336.179	15.87
336.392	-23.04
336.604	62.98
336.817	89.6
337.029	89.6
337.242	24.06
337.454	54.78
337.667	24.06
337.88	126.46
338.092	15.87
338.305	110.08
338.517	56.83
338.729	-29.18
338.942	46.59
339.154	-35.33
339.367	-51.71
339.579	38.4
339.792	103.93
340.004	32.26
340.217	50.69
340.429	38.4
340.641	-2.56
340.854	116.22
341.066	13.82
341.278	73.21
341.491	87.55
341.703	93.69
341.915	7.68
342.128	65.02
342.34	40.45
342.552	5.63
342.764	15.87
342.977	97.79
343.189	22.02
343.401	44.54
343.613	-8.7
343.826	38.4
344.038	30.21
344.25	24.06
344.462	-25.09
344.674	30.21
344.886	71.17
345.099	120.32
345.311	46.59
345.523	54.78
345.735	44.54
345.947	54.78
346.159	-27.14
346.371	-2.56
346.583	52.74
346.795	134.65
347.007	42.5
347.219	91.65
347.431	24.06
347.643	122.37
347.855	13.82
348.067	122.37
348.279	30.21
348.491	-10.75
348.703	13.82
348.915	50.69
349.127	54.78
349.339	89.6
349.551	71.17
349.763	95.74
349.975	60.93
350.187	-2.56
350.399	32.26
350.61	42.5
350.822	3.58
351.034	134.65
351.246	-10.75
351.458	87.55
351.669	65.02
351.881	38.4
352.093	71.17
352.305	58.88
352.517	71.17
352.728	46.59
352.94	-0.51
353.152	69.12
353.363	56.83
353.575	56.83
353.787	56.83
353.999	122.37
354.21	54.78
354.422	50.69
354.633	87.55
354.845	-43.52
355.057	-6.66
355.268	99.84
355.48	77.31
355.692	54.78
355.903	105.98
356.115	46.59
356.326	79.36
356.538	71.17
356.749	42.5
356.961	87.55
357.172	9.73
357.384	40.45
357.595	67.07
357.807	62.98
358.018	-10.75
358.23	54.78
358.441	65.02
358.653	95.74
358.864	22.02
359.075	-51.71
359.287	36.35
359.498	40.45
359.709	60.93
359.921	22.02
360.132	52.74
360.344	95.74
360.555	26.11
360.766	67.07
360.977	34.3
361.189	17.92
361.4	42.5
361.611	79.36
361.823	77.31
362.034	95.74
362.245	15.87
362.456	-10.75
362.667	75.26
362.879	52.74
363.09	28.16
363.301	28.16
363.512	30.21
363.723	79.36
363.935	-18.94
364.146	81.41
364.357	17.92
364.568	19.97
364.779	91.65
364.99	67.07
365.201	1.54
365.412	52.74
365.623	22.02
365.834	30.21
366.045	46.59
366.256	62.98
366.467	67.07
366.678	44.54
366.889	132.61
367.1	17.92
367.311	71.17
367.522	-41.47
367.733	54.78
367.944	7.68
368.155	46.59
368.366	54.78
368.577	77.31
368.788	87.55
368.999	28.16
369.209	56.83
369.42	85.5
369.631	79.36
369.842	42.5
370.053	85.5
370.264	87.55
370.474	38.4
370.685	124.41
370.896	5.63
371.107	112.13
371.317	95.74
371.528	-10.75
371.739	58.88
371.95	99.84
372.16	65.02
372.371	-29.18
372.582	24.06
372.792	48.64
373.003	71.17
373.214	75.26
373.424	79.36
373.635	11.78
373.846	73.21
374.056	38.4
374.267	144.89
374.477	46.59
374.688	75.26
374.898	-16.9
375.109	83.45
375.319	71.17
375.53	99.84
375.74	105.98
375.951	-10.75
376.161	32.26
376.372	124.41
376.582	56.83
376.793	62.98
377.003	97.79
377.214	52.74
377.424	24.06
377.635	54.78
377.845	-8.7
378.055	83.45
378.266	71.17
378.476	54.78
378.686	103.93
378.897	58.88
379.107	7.68
379.317	87.55
379.528	65.02
379.738	103.93
379.948	13.82
380.158	-2.56
380.369	79.36
380.579	81.41
380.789	65.02
380.999	-14.85
381.21	67.07
381.42	87.55
381.63	62.98
381.84	38.4
382.05	77.31
382.261	116.22
382.471	56.83
382.681	26.11
382.891	126.46
383.101	89.6
383.311	73.21
383.521	73.21
383.731	79.36
383.941	105.98
384.151	112.13
384.361	122.37
384.571	75.26
384.781	99.84
384.991	140.8
385.201	99.84
385.411	105.98
385.621	56.83
385.831	56.83
386.041	122.37
386.251	24.06
386.461	24.06
386.671	71.17
386.881	24.06
387.091	67.07
387.301	28.16
387.511	-8.7
387.72	87.55
387.93	58.88
388.14	56.83
388.35	48.64
388.56	48.64
388.769	67.07
388.979	81.41
389.189	62.98
389.399	-2.56
389.609	87.55
389.818	81.41
390.028	101.89
390.238	91.65
390.447	91.65
390.657	67.07
390.867	38.4
391.076	5.63
391.286	81.41
391.496	32.26
391.705	124.41
391.915	79.36
392.125	89.6
392.334	71.17
392.544	226.81
392.753	85.5
392.963	60.93
393.172	17.92
393.382	-0.51
393.591	42.5
393.801	26.11
394.01	122.37
394.22	30.21
394.429	126.46
394.639	95.74
394.848	138.75
395.058	110.08
395.267	97.79
395.477	48.64
395.686	83.45
395.895	69.12
396.105	136.7
396.314	148.99
396.524	93.69
396.733	38.4
396.942	173.57
397.152	95.74
397.361	138.75
397.57	128.51
397.78	50.69
397.989	169.47
398.198	155.13
398.407	112.13
398.617	153.09
398.826	112.13
399.035	46.59
399.244	116.22
399.453	85.5
399.663	83.45
399.872	99.84
400.081	87.55
400.29	155.13
400.499	99.84
400.708	153.09
400.917	89.6
401.127	58.88
401.336	120.32
401.545	173.57
401.754	30.21
401.963	103.93
402.172	110.08
402.381	144.89
402.59	126.46
402.799	48.64
403.008	165.37
403.217	128.51
403.426	99.84
403.635	222.72
403.844	67.07
404.053	120.32
404.262	118.27
404.471	185.85
404.68	138.75
404.888	151.04
405.097	136.7
405.306	136.7
405.515	165.37
405.724	210.43
405.933	132.61
406.142	202.24
406.35	181.76
406.559	202.24
406.768	218.62
406.977	194.05
407.185	228.86
407.394	206.33
407.603	282.11
407.812	249.34
408.02	300.54
408.229	243.2
408.438	243.2
408.646	286.2
408.855	267.77
409.064	329.21
409.272	333.31
409.481	337.4
409.69	308.73
409.898	261.63
410.107	302.59
410.315	337.4
410.524	341.5
410.733	327.16
410.941	327.16
411.15	390.65
411.358	491
411.567	415.23
411.775	353.79
411.984	462.33
412.192	499.19
412.401	458.23
412.609	452.09
412.818	585.21
413.026	517.62
413.234	515.58
413.443	517.62
413.651	603.64
413.86	501.24
414.068	587.26
414.276	652.79
414.485	599.54
414.693	685.56
414.901	792.05
415.11	706.04
415.318	685.56
415.526	792.05
415.734	769.52
415.943	841.2
416.151	912.88
416.359	919.03
416.567	966.13
416.776	869.87
416.984	1050.1
417.192	1041.9
417.4	1025.52
417.608	994.8
417.817	1015.28
418.025	1082.86
418.233	1218.03
418.441	1197.55
418.649	1226.22
418.857	1250.8
419.065	1277.42
419.273	1254.89
419.481	1340.91
419.689	1414.63
419.897	1422.83
420.105	1500.65
420.313	1562.09
420.521	1562.09
420.729	1668.58
420.937	1590.76
421.145	1730.02
421.353	1889.76
421.561	1789.41
421.769	2004.45
421.977	2024.93
422.185	1965.54
422.393	2246.11
422.601	2276.83
422.809	2317.79
423.017	2350.56
423.224	2387.42
423.432	2420.19
423.64	2442.71
423.848	2749.91
424.056	2606.55
424.263	3032.53
424.471	2801.11
424.679	2917.84
424.887	3069.39
425.094	3216.85
425.302	3179.98
425.51	3208.66
425.718	3450.32
425.925	3507.66
426.133	3470.8
426.341	3612.1
426.548	3974.6
426.756	3982.79
426.964	3919.3
427.171	4171.2
427.379	4265.41
427.586	4332.99
427.794	4670.9
428.001	4728.25
428.209	4890.04
428.417	4928.95
428.624	5176.75
428.832	5230
429.039	5252.53
429.247	5293.49
429.454	5711.27
429.662	5993.89
429.869	5563.82
430.076	6077.86
430.284	5842.34
430.491	6104.48
430.699	6428.06
430.906	6454.69
431.114	6628.76
431.321	6757.78
431.528	6944.15
431.736	7374.22
431.943	7816.58
432.15	7333.26
432.358	7581.07
432.565	8000.9
432.772	7937.41
432.979	8349.06
433.187	8310.15
433.394	8525.18
433.601	8885.62
433.808	8979.83
434.016	8955.26
434.223	9360.75
434.43	9954.66
434.637	9844.07
434.844	10218.85
435.052	10601.82
435.259	10562.91
435.466	10728.8
435.673	10483.04
435.88	10995.03
436.087	11744.59
436.294	11664.72
436.501	11486.54
436.708	11744.59
436.915	12197.19
437.122	12488
437.329	12819.77
437.537	13008.19
437.743	13518.13
437.95	13204.79
438.157	13823.28
438.364	14247.21
438.571	14232.87
438.778	14021.93
438.985	15656.21
439.192	15105.31
439.399	15506.71
439.606	15203.61
439.813	16155.91
440.02	17061.12
440.227	16663.81
440.433	16694.53
440.64	17212.67
440.847	16887.04
441.054	17345.78
441.261	18461.93
441.467	18210.03
441.674	18642.15
441.881	19571.93
442.088	19463.38
442.294	18928.86
442.501	19674.32
442.708	19795.15
442.914	20729.03
443.121	21449.91
443.328	21003.46
443.534	22574.25
443.741	22189.23
443.948	21124.29
444.154	23332
444.361	22957.22
444.568	23059.62
444.774	23098.53
444.981	23452.83
445.187	24220.81
445.394	24921.22
445.6	24935.56
445.807	27300.96
446.013	25902.2
446.22	26336.37
446.426	27253.86
446.633	27907.16
446.839	28691.53
447.046	27737.18
447.252	29133.89
447.459	28931.14
447.665	28970.05
447.871	30536.75
448.078	31566.88
448.284	29699.13
448.491	30655.53
448.697	31804.44
448.903	32670.73
449.11	32695.31
449.316	32240.66
449.522	32744.46
449.728	33537.02
449.935	33795.07
450.141	33719.29
450.347	34352.12
450.553	33119.24
450.76	33928.19
450.966	35083.24
451.172	34651.12
451.378	35300.33
451.584	34866.16
451.791	35539.94
451.997	35740.64
452.203	35918.81
452.409	35957.72
452.615	35992.54
452.821	34589.68
453.027	34395.12
453.233	36021.21
453.44	34860.01
453.646	34970.6
453.852	35369.96
454.058	35904.48
454.264	34561.01
454.47	35587.04
454.676	34200.57
454.882	35750.88
455.088	32455.7
455.294	33565.7
455.5	33838.08
455.705	34026.49
455.911	32932.87
456.117	31843.35
456.323	31503.39
456.529	30188.6
456.735	31400.99
456.941	30448.69
457.147	30137.4
457.352	29568.06
457.558	28748.87
457.764	29443.13
457.97	28486.73
458.176	27892.82
458.381	27962.45
458.587	26377.33
458.793	26250.35
458.999	25224.32
459.204	27122.79
459.41	25994.36
459.616	24528.01
459.821	24523.91
460.027	24564.87
460.233	23907.48
460.438	22926.5
460.644	23002.27
460.85	21818.55
461.055	21623.99
461.261	21503.16
461.466	20079.82
461.672	19510.49
461.878	20901.06
462.083	19365.08
462.289	19037.41
462.494	19000.54
462.7	18011.37
462.905	17534.2
463.111	18087.15
463.316	18468.07
463.522	18050.28
463.727	17765.62
463.932	17863.92
464.138	17630.45
464.343	17655.03
464.549	17001.72
464.754	17597.68
464.959	17753.33
465.165	17601.78
465.37	16651.52
465.575	16092.43
465.781	17081.6
465.986	17222.91
466.191	16262.41
466.397	16233.74
466.602	15486.23
466.807	15947.02
467.012	16080.14
467.218	16010.51
467.423	15471.89
467.628	15766.8
