Data from USB4F104151__14__14-16-04-481.txt Node

Date: Thu Mar 13 14:16:04 EDT 2025
User: louis
Spectrometer: USB4F10415
Trigger mode: 4
Integration Time (sec): 2.000000E-2
Scans to average: 1
Electric dark correction enabled: true
Nonlinearity correction enabled: false
Boxcar width: 0
XAxis mode: Wavelengths
Number of Pixels in Spectrum: 3648
>>>>>Begin Spectral Data<<<<<
178.204	-50.18
178.424	-50.18
178.644	-50.18
178.864	-72.7
179.084	-54.27
179.304	35.84
179.524	-27.65
179.744	46.08
179.964	89.09
180.184	-5.12
180.404	-7.17
180.624	50.18
180.844	-82.94
181.064	-56.32
181.283	-13.31
181.503	-21.5
181.723	-7.17
181.943	-62.46
182.163	58.37
182.383	68.61
182.602	89.09
182.822	-23.55
183.042	41.98
183.262	-9.22
183.482	74.75
183.701	23.55
183.921	33.79
184.141	-29.7
184.361	-21.5
184.58	50.18
184.8	103.42
185.02	31.74
185.239	44.03
185.459	13.31
185.679	17.41
185.898	44.03
186.118	64.51
186.338	17.41
186.557	23.55
186.777	19.46
186.997	136.19
187.216	17.41
187.436	35.84
187.655	7.17
187.875	50.18
188.095	-39.94
188.314	89.09
188.534	91.13
188.753	-23.55
188.973	60.42
189.192	39.94
189.412	29.7
189.631	50.18
189.851	80.89
190.07	39.94
190.29	3.07
190.509	17.41
190.729	11.26
190.948	23.55
191.168	142.33
191.387	99.33
191.607	-66.56
191.826	37.89
192.045	-39.94
192.265	-1.02
192.484	64.51
192.704	125.95
192.923	-31.74
193.142	80.89
193.362	7.17
193.581	48.13
193.8	33.79
194.02	25.6
194.239	33.79
194.458	11.26
194.678	23.55
194.897	37.89
195.116	68.61
195.335	33.79
195.555	68.61
195.774	39.94
195.993	11.26
196.212	-1.02
196.432	15.36
196.651	23.55
196.87	41.98
197.089	66.56
197.308	58.37
197.528	7.17
197.747	-7.17
197.966	82.94
198.185	82.94
198.404	115.71
198.623	7.17
198.842	-21.5
199.062	33.79
199.281	97.28
199.5	56.32
199.719	60.42
199.938	39.94
200.157	105.47
200.376	99.33
200.595	89.09
200.814	70.65
201.033	52.22
201.252	107.52
201.471	23.55
201.69	-1.02
201.909	7.17
202.128	35.84
202.347	66.56
202.566	25.6
202.785	-46.08
203.004	-17.41
203.223	31.74
203.442	39.94
203.661	1.02
203.879	23.55
204.098	-7.17
204.317	58.37
204.536	56.32
204.755	-41.98
204.974	60.42
205.193	78.85
205.411	68.61
205.63	99.33
205.849	-33.79
206.068	33.79
206.287	-1.02
206.505	31.74
206.724	56.32
206.943	39.94
207.162	48.13
207.381	11.26
207.599	-9.22
207.818	33.79
208.037	-13.31
208.255	60.42
208.474	48.13
208.693	27.65
208.911	15.36
209.13	31.74
209.349	-1.02
209.567	7.17
209.786	50.18
210.005	-29.7
210.223	64.51
210.442	9.22
210.661	58.37
210.879	56.32
211.098	27.65
211.316	3.07
211.535	41.98
211.753	39.94
211.972	37.89
212.191	-39.94
212.409	44.03
212.628	-13.31
212.846	56.32
213.065	46.08
213.283	56.32
213.502	1.02
213.72	31.74
213.938	109.57
214.157	13.31
214.375	35.84
214.594	125.95
214.812	82.94
215.031	84.99
215.249	84.99
215.467	80.89
215.686	-7.17
215.904	37.89
216.122	93.18
216.341	84.99
216.559	31.74
216.778	1.02
216.996	9.22
217.214	37.89
217.432	13.31
217.651	80.89
217.869	39.94
218.087	46.08
218.306	33.79
218.524	41.98
218.742	97.28
218.96	60.42
219.179	87.04
219.397	-21.5
219.615	50.18
219.833	140.29
220.051	-21.5
220.27	64.51
220.488	7.17
220.706	41.98
220.924	29.7
221.142	39.94
221.36	13.31
221.578	39.94
221.796	31.74
222.015	48.13
222.233	41.98
222.451	89.09
222.669	44.03
222.887	25.6
223.105	23.55
223.323	39.94
223.541	7.17
223.759	3.07
223.977	117.76
224.195	74.75
224.413	58.37
224.631	48.13
224.849	44.03
225.067	41.98
225.285	66.56
225.503	52.22
225.721	-7.17
225.939	33.79
226.157	-66.56
226.375	105.47
226.592	11.26
226.81	17.41
227.028	72.7
227.246	72.7
227.464	121.85
227.682	46.08
227.9	44.03
228.117	25.6
228.335	39.94
228.553	74.75
228.771	-23.55
228.989	-52.22
229.206	64.51
229.424	68.61
229.642	44.03
229.86	-29.7
230.077	27.65
230.295	68.61
230.513	46.08
230.731	121.85
230.948	9.22
231.166	89.09
231.384	103.42
231.601	-7.17
231.819	33.79
232.037	-62.46
232.254	-21.5
232.472	9.22
232.689	58.37
232.907	-1.02
233.125	66.56
233.342	-46.08
233.56	-11.26
233.777	7.17
233.995	44.03
234.213	105.47
234.43	68.61
234.648	50.18
234.865	76.8
235.083	64.51
235.3	70.65
235.518	58.37
235.735	125.95
235.953	50.18
236.17	54.27
236.388	64.51
236.605	64.51
236.822	54.27
237.04	31.74
237.257	48.13
237.475	-25.6
237.692	-9.22
237.909	97.28
238.127	-66.56
238.344	46.08
238.562	17.41
238.779	7.17
238.996	-9.22
239.214	84.99
239.431	50.18
239.648	-58.37
239.865	41.98
240.083	80.89
240.3	15.36
240.517	1.02
240.735	33.79
240.952	48.13
241.169	74.75
241.386	25.6
241.603	17.41
241.821	31.74
242.038	25.6
242.255	44.03
242.472	48.13
242.689	17.41
242.907	66.56
243.124	9.22
243.341	39.94
243.558	-7.17
243.775	80.89
243.992	17.41
244.209	95.23
244.426	76.8
244.643	56.32
244.86	-27.65
245.078	58.37
245.295	60.42
245.512	72.7
245.729	11.26
245.946	48.13
246.163	58.37
246.38	-17.41
246.597	52.22
246.814	9.22
247.031	60.42
247.248	3.07
247.464	3.07
247.681	19.46
247.898	17.41
248.115	132.09
248.332	-17.41
248.549	48.13
248.766	72.7
248.983	115.71
249.2	-9.22
249.417	25.6
249.633	97.28
249.85	33.79
250.067	19.46
250.284	1.02
250.501	109.57
250.717	-11.26
250.934	-54.27
251.151	5.12
251.368	33.79
251.585	93.18
251.801	-31.74
252.018	64.51
252.235	19.46
252.451	23.55
252.668	82.94
252.885	25.6
253.102	76.8
253.318	25.6
253.535	25.6
253.752	-1.02
253.968	31.74
254.185	-11.26
254.401	-25.6
254.618	64.51
254.835	17.41
255.051	7.17
255.268	119.81
255.484	89.09
255.701	72.7
255.917	27.65
256.134	48.13
256.351	25.6
256.567	7.17
256.784	89.09
257	-50.18
257.217	52.22
257.433	91.13
257.65	97.28
257.866	87.04
258.082	-41.98
258.299	-62.46
258.515	56.32
258.732	50.18
258.948	-11.26
259.165	11.26
259.381	1.02
259.597	74.75
259.814	-3.07
260.03	23.55
260.246	130.05
260.463	56.32
260.679	80.89
260.895	11.26
261.112	72.7
261.328	27.65
261.544	48.13
261.761	80.89
261.977	11.26
262.193	31.74
262.409	-9.22
262.626	25.6
262.842	27.65
263.058	33.79
263.274	105.47
263.49	-21.5
263.707	84.99
263.923	95.23
264.139	5.12
264.355	23.55
264.571	113.66
264.787	7.17
265.004	68.61
265.22	35.84
265.436	31.74
265.652	27.65
265.868	95.23
266.084	1.02
266.3	19.46
266.516	29.7
266.732	39.94
266.948	29.7
267.164	23.55
267.38	56.32
267.596	-25.6
267.812	101.37
268.028	107.52
268.244	58.37
268.46	78.85
268.676	119.81
268.892	66.56
269.108	-7.17
269.324	72.7
269.54	11.26
269.756	41.98
269.972	-37.89
270.188	11.26
270.403	-37.89
270.619	84.99
270.835	76.8
271.051	31.74
271.267	-29.7
271.483	44.03
271.698	25.6
271.914	58.37
272.13	-25.6
272.346	52.22
272.562	-5.12
272.777	25.6
272.993	-15.36
273.209	35.84
273.425	-25.6
273.64	-7.17
273.856	33.79
274.072	87.04
274.287	-50.18
274.503	52.22
274.719	-25.6
274.934	56.32
275.15	31.74
275.366	41.98
275.581	13.31
275.797	52.22
276.012	-17.41
276.228	-35.84
276.444	115.71
276.659	15.36
276.875	13.31
277.09	15.36
277.306	3.07
277.521	46.08
277.737	41.98
277.952	138.24
278.168	48.13
278.383	121.85
278.599	27.65
278.814	25.6
279.03	89.09
279.245	76.8
279.461	97.28
279.676	89.09
279.892	37.89
280.107	-54.27
280.322	-44.03
280.538	3.07
280.753	31.74
280.969	89.09
281.184	15.36
281.399	54.27
281.615	64.51
281.83	33.79
282.045	37.89
282.26	39.94
282.476	19.46
282.691	64.51
282.906	39.94
283.122	80.89
283.337	13.31
283.552	39.94
283.767	41.98
283.983	19.46
284.198	19.46
284.413	31.74
284.628	21.5
284.843	91.13
285.058	39.94
285.274	121.85
285.489	-13.31
285.704	76.8
285.919	50.18
286.134	58.37
286.349	15.36
286.564	82.94
286.779	58.37
286.995	13.31
287.21	9.22
287.425	25.6
287.64	15.36
287.855	15.36
288.07	41.98
288.285	82.94
288.5	76.8
288.715	80.89
288.93	41.98
289.145	-9.22
289.36	48.13
289.575	74.75
289.79	41.98
290.004	35.84
290.219	7.17
290.434	-5.12
290.649	23.55
290.864	-41.98
291.079	60.42
291.294	5.12
291.509	19.46
291.724	23.55
291.938	-15.36
292.153	80.89
292.368	46.08
292.583	39.94
292.798	111.61
293.012	58.37
293.227	58.37
293.442	-58.37
293.657	80.89
293.871	64.51
294.086	103.42
294.301	50.18
294.516	54.27
294.73	97.28
294.945	31.74
295.16	105.47
295.374	56.32
295.589	25.6
295.804	-5.12
296.018	9.22
296.233	101.37
296.447	154.62
296.662	19.46
296.877	123.9
297.091	101.37
297.306	48.13
297.52	23.55
297.735	70.65
297.949	62.46
298.164	13.31
298.378	48.13
298.593	23.55
298.807	74.75
299.022	82.94
299.236	56.32
299.451	76.8
299.665	39.94
299.88	70.65
300.094	93.18
300.309	101.37
300.523	23.55
300.737	33.79
300.952	148.48
301.166	84.99
301.381	-9.22
301.595	64.51
301.809	1.02
302.024	66.56
302.238	82.94
302.452	101.37
302.667	37.89
302.881	9.22
303.095	80.89
303.309	39.94
303.524	48.13
303.738	48.13
303.952	-17.41
304.166	25.6
304.381	-15.36
304.595	74.75
304.809	-1.02
305.023	46.08
305.237	5.12
305.452	44.03
305.666	64.51
305.88	48.13
306.094	39.94
306.308	23.55
306.522	39.94
306.736	117.76
306.95	123.9
307.164	39.94
307.379	-31.74
307.593	35.84
307.807	17.41
308.021	115.71
308.235	44.03
308.449	11.26
308.663	21.5
308.877	82.94
309.091	44.03
309.305	156.67
309.519	-33.79
309.733	52.22
309.947	15.36
310.161	91.13
310.374	111.61
310.588	39.94
310.802	72.7
311.016	31.74
311.23	7.17
311.444	-62.46
311.658	19.46
311.872	91.13
312.085	31.74
312.299	123.9
312.513	39.94
312.727	58.37
312.941	74.75
313.154	17.41
313.368	80.89
313.582	72.7
313.796	7.17
314.009	80.89
314.223	84.99
314.437	107.52
314.651	89.09
314.864	-9.22
315.078	74.75
315.292	3.07
315.505	64.51
315.719	66.56
315.933	107.52
316.146	33.79
316.36	39.94
316.573	89.09
316.787	1.02
317.001	-3.07
317.214	56.32
317.428	15.36
317.641	41.98
317.855	56.32
318.068	62.46
318.282	-7.17
318.495	115.71
318.709	89.09
318.922	44.03
319.136	62.46
319.349	84.99
319.563	23.55
319.776	66.56
319.99	-31.74
320.203	56.32
320.417	121.85
320.63	89.09
320.843	64.51
321.057	66.56
321.27	3.07
321.483	64.51
321.697	48.13
321.91	-17.41
322.124	21.5
322.337	-29.7
322.55	-5.12
322.763	15.36
322.977	15.36
323.19	58.37
323.403	68.61
323.617	66.56
323.83	89.09
324.043	35.84
324.256	25.6
324.469	25.6
324.683	68.61
324.896	50.18
325.109	68.61
325.322	44.03
325.535	58.37
325.748	72.7
325.962	74.75
326.175	52.22
326.388	89.09
326.601	107.52
326.814	62.46
327.027	-9.22
327.24	78.85
327.453	21.5
327.666	64.51
327.879	72.7
328.092	50.18
328.305	60.42
328.518	50.18
328.731	70.65
328.944	23.55
329.157	1.02
329.37	105.47
329.583	130.05
329.796	74.75
330.009	-31.74
330.222	60.42
330.435	132.09
330.648	27.65
330.861	70.65
331.073	19.46
331.286	66.56
331.499	101.37
331.712	29.7
331.925	56.32
332.138	-11.26
332.35	74.75
332.563	58.37
332.776	93.18
332.989	48.13
333.202	107.52
333.414	15.36
333.627	15.36
333.84	97.28
334.053	-27.65
334.265	29.7
334.478	-50.18
334.691	52.22
334.903	3.07
335.116	72.7
335.329	64.51
335.541	74.75
335.754	105.47
335.966	-46.08
336.179	130.05
336.392	62.46
336.604	-37.89
336.817	7.17
337.029	27.65
337.242	130.05
337.454	46.08
337.667	25.6
337.88	115.71
338.092	27.65
338.305	56.32
338.517	35.84
338.729	78.85
338.942	82.94
339.154	27.65
339.367	3.07
339.579	35.84
339.792	74.75
340.004	48.13
340.217	56.32
340.429	41.98
340.641	37.89
340.854	23.55
341.066	64.51
341.278	76.8
341.491	162.81
341.703	-15.36
341.915	101.37
342.128	3.07
342.34	72.7
342.552	50.18
342.764	80.89
342.977	64.51
343.189	44.03
343.401	23.55
343.613	19.46
343.826	-9.22
344.038	35.84
344.25	52.22
344.462	46.08
344.674	76.8
344.886	9.22
345.099	109.57
345.311	35.84
345.523	46.08
345.735	60.42
345.947	134.14
346.159	56.32
346.371	130.05
346.583	29.7
346.795	113.66
347.007	97.28
347.219	7.17
347.431	15.36
347.643	64.51
347.855	-1.02
348.067	60.42
348.279	87.04
348.491	138.24
348.703	91.13
348.915	48.13
349.127	89.09
349.339	50.18
349.551	11.26
349.763	80.89
349.975	52.22
350.187	140.29
350.399	80.89
350.61	84.99
350.822	66.56
351.034	19.46
351.246	89.09
351.458	68.61
351.669	89.09
351.881	117.76
352.093	44.03
352.305	56.32
352.517	62.46
352.728	89.09
352.94	101.37
353.152	72.7
353.363	52.22
353.575	150.53
353.787	74.75
353.999	56.32
354.21	19.46
354.422	48.13
354.633	105.47
354.845	41.98
355.057	148.48
355.268	105.47
355.48	78.85
355.692	-15.36
355.903	31.74
356.115	25.6
356.326	13.31
356.538	164.86
356.749	76.8
356.961	78.85
357.172	-13.31
357.384	23.55
357.595	138.24
357.807	72.7
358.018	56.32
358.23	-1.02
358.441	-13.31
358.653	148.48
358.864	-1.02
359.075	115.71
359.287	46.08
359.498	109.57
359.709	48.13
359.921	44.03
360.132	68.61
360.344	1.02
360.555	35.84
360.766	72.7
360.977	48.13
361.189	66.56
361.4	97.28
361.611	5.12
361.823	66.56
362.034	68.61
362.245	31.74
362.456	48.13
362.667	72.7
362.879	23.55
363.09	64.51
363.301	56.32
363.512	50.18
363.723	52.22
363.935	48.13
364.146	48.13
364.357	35.84
364.568	93.18
364.779	15.36
364.99	84.99
365.201	17.41
365.412	136.19
365.623	31.74
365.834	58.37
366.045	-21.5
366.256	39.94
366.467	97.28
366.678	7.17
366.889	66.56
367.1	80.89
367.311	35.84
367.522	56.32
367.733	3.07
367.944	103.42
368.155	113.66
368.366	25.6
368.577	46.08
368.788	48.13
368.999	-23.55
369.209	48.13
369.42	109.57
369.631	89.09
369.842	78.85
370.053	15.36
370.264	5.12
370.474	39.94
370.685	39.94
370.896	82.94
371.107	56.32
371.317	113.66
371.528	44.03
371.739	109.57
371.95	-1.02
372.16	158.72
372.371	27.65
372.582	19.46
372.792	48.13
373.003	35.84
373.214	29.7
373.424	64.51
373.635	56.32
373.846	128
374.056	-37.89
374.267	-11.26
374.477	-25.6
374.688	121.85
374.898	-31.74
375.109	50.18
375.319	58.37
375.53	68.61
375.74	105.47
375.951	97.28
376.161	87.04
376.372	33.79
376.582	41.98
376.793	113.66
377.003	72.7
377.214	-23.55
377.424	99.33
377.635	89.09
377.845	-7.17
378.055	84.99
378.266	82.94
378.476	128
378.686	64.51
378.897	138.24
379.107	76.8
379.317	105.47
379.528	80.89
379.738	80.89
379.948	39.94
380.158	66.56
380.369	64.51
380.579	142.33
380.789	-29.7
380.999	138.24
381.21	35.84
381.42	123.9
381.63	11.26
381.84	68.61
382.05	80.89
382.261	123.9
382.471	9.22
382.681	93.18
382.891	134.14
383.101	72.7
383.311	-25.6
383.521	84.99
383.731	97.28
383.941	52.22
384.151	33.79
384.361	54.27
384.571	80.89
384.781	80.89
384.991	70.65
385.201	123.9
385.411	171.01
385.621	109.57
385.831	56.32
386.041	82.94
386.251	50.18
386.461	72.7
386.671	97.28
386.881	74.75
387.091	52.22
387.301	89.09
387.511	64.51
387.72	72.7
387.93	74.75
388.14	-25.6
388.35	5.12
388.56	130.05
388.769	27.65
388.979	35.84
389.189	68.61
389.399	84.99
389.609	74.75
389.818	130.05
390.028	60.42
390.238	41.98
390.447	-17.41
390.657	56.32
390.867	87.04
391.076	187.39
391.286	27.65
391.496	84.99
391.705	58.37
391.915	146.43
392.125	181.25
392.334	113.66
392.544	146.43
392.753	52.22
392.963	46.08
393.172	82.94
393.382	84.99
393.591	101.37
393.801	84.99
394.01	97.28
394.22	89.09
394.429	39.94
394.639	31.74
394.848	101.37
395.058	89.09
395.267	109.57
395.477	89.09
395.686	146.43
395.895	187.39
396.105	205.82
396.314	31.74
396.524	39.94
396.733	113.66
396.942	121.85
397.152	128
397.361	91.13
397.57	130.05
397.78	130.05
397.989	162.81
398.198	199.68
398.407	74.75
398.617	111.61
398.826	173.05
399.035	89.09
399.244	80.89
399.453	91.13
399.663	101.37
399.872	146.43
400.081	97.28
400.29	144.38
400.499	162.81
400.708	150.53
400.917	156.67
401.127	187.39
401.336	130.05
401.545	134.14
401.754	146.43
401.963	171.01
402.172	156.67
402.381	84.99
402.59	128
402.799	138.24
403.008	142.33
403.217	168.96
403.426	115.71
403.635	179.2
403.844	216.06
404.053	158.72
404.262	117.76
404.471	191.49
404.68	211.96
404.888	130.05
405.097	160.77
405.306	216.06
405.515	177.15
405.724	197.63
405.933	211.96
406.142	191.49
406.35	232.44
406.559	228.35
406.768	271.36
406.977	293.88
407.185	254.97
407.394	224.25
407.603	257.02
407.812	261.12
408.02	242.68
408.229	228.35
408.438	310.27
408.646	234.49
408.855	257.02
409.064	359.42
409.272	320.51
409.481	271.36
409.69	383.99
409.898	326.65
410.107	343.03
410.315	500.73
410.524	433.15
410.733	547.83
410.941	394.23
411.15	478.2
411.358	457.72
411.567	502.78
411.775	553.98
411.984	523.26
412.192	562.17
412.401	576.5
412.609	633.85
412.818	670.71
413.026	611.32
413.234	662.52
413.443	592.89
413.651	707.57
413.86	740.34
414.068	736.24
414.276	834.55
414.485	678.9
414.693	924.66
414.901	842.74
415.11	959.47
415.318	900.08
415.526	973.81
415.734	1047.54
415.943	1014.77
416.151	1068.02
416.359	1080.3
416.567	1041.39
416.776	1178.61
416.984	1211.37
417.192	1194.99
417.4	1268.72
417.608	1244.14
417.817	1303.53
418.025	1426.41
418.233	1459.18
418.441	1412.07
418.649	1479.66
418.857	1571.82
419.065	1612.78
419.273	1547.24
419.481	1702.89
419.689	1827.81
419.897	1870.82
420.105	1948.64
420.313	1958.88
420.521	2010.08
420.729	2014.18
420.937	2124.77
421.145	2210.78
421.353	2243.55
421.561	2530.27
421.769	2472.92
421.977	2579.42
422.185	2603.99
422.393	2702.29
422.601	2837.46
422.809	2935.76
423.017	2839.51
423.224	2964.43
423.432	3070.93
423.64	3130.32
423.848	3376.08
424.056	3326.93
424.263	3654.6
424.471	3572.68
424.679	3689.42
424.887	3873.73
425.094	4109.25
425.302	3988.42
425.51	4389.82
425.718	4252.61
425.925	4330.43
426.133	4467.64
426.341	4676.54
426.548	4701.11
426.756	4850.61
426.964	5053.36
427.171	5184.43
427.379	5458.86
427.586	5473.2
427.794	5794.73
428.001	5979.04
428.209	6269.86
428.417	6087.59
428.624	6372.25
428.832	6732.7
429.039	6749.08
429.247	6421.41
429.454	7314.32
429.662	7545.74
429.869	7076.76
430.076	7750.54
430.284	7222.16
430.491	7732.11
430.699	8180.61
430.906	8182.66
431.114	8190.85
431.321	8588.16
431.528	8969.08
431.736	9153.4
431.943	9816.94
432.15	9372.53
432.358	9640.81
432.565	10144.61
432.772	9958.25
432.979	10388.32
433.187	10785.63
433.394	10738.52
433.601	11541.33
433.808	11721.55
434.016	11230.04
434.223	12079.94
434.43	12680
434.637	12315.46
434.844	13275.96
435.052	13278.01
435.259	13474.61
435.466	13585.2
435.673	13253.43
435.88	14066.47
436.087	14799.65
436.294	14816.03
436.501	14627.62
436.708	14799.65
436.915	15401.75
437.122	15956.75
437.329	16132.87
437.537	16399.11
437.743	17052.41
437.95	16515.84
438.157	17631.99
438.364	18270.95
438.571	18105.07
438.778	18459.37
438.985	19598.04
439.192	18928.35
439.399	19804.88
439.606	19092.19
439.813	20318.92
440.02	21607.09
440.227	21297.85
440.433	20966.08
440.64	21607.09
440.847	21650.1
441.054	22061.74
441.261	23483.03
441.467	23208.61
441.674	23569.05
441.881	24593.03
442.088	24558.22
442.294	24418.96
442.501	24685.19
442.708	25395.84
442.914	26387.05
443.121	27284.06
443.328	26493.55
443.534	28508.75
443.741	28035.67
443.948	26958.44
444.154	29370.94
444.361	29252.16
444.568	29436.48
444.774	29264.45
444.981	29819.45
445.187	30755.37
445.394	31666.72
445.6	31525.41
445.807	34290.16
446.013	33036.81
446.22	33600
446.426	34828.78
446.633	34867.69
446.839	36202.97
447.046	34957.8
447.252	36465.11
447.459	36532.69
447.665	36678.1
447.871	37921.21
448.078	39764.39
448.284	37677.51
448.491	38838.7
448.697	40028.57
448.903	41122.19
449.11	41554.31
449.316	40739.22
449.522	41331.08
449.728	42336.63
449.935	42561.91
450.141	42383.74
450.347	43409.77
450.553	42357.11
450.76	42678.64
450.966	44042.59
451.172	43643.24
451.378	44654.93
451.584	43716.96
451.791	44882.26
451.997	44474.71
452.203	45445.45
452.409	45637.96
452.615	45193.55
452.821	43446.63
453.027	43073.9
453.233	45510.99
453.44	43469.16
453.646	43970.91
453.852	44493.15
454.058	44822.87
454.264	43733.35
454.47	44857.68
454.676	43112.81
454.882	45031.76
455.088	41144.72
455.294	41730.44
455.5	42455.42
455.705	42727.8
455.911	41136.52
456.117	40530.33
456.323	39651.75
456.529	38001.08
456.735	39045.55
456.941	38439.35
457.147	37902.78
457.352	36407.76
457.558	36256.21
457.764	36598.23
457.97	35961.31
458.176	34851.31
458.381	34836.97
458.587	33106.44
458.793	33575.42
458.999	31834.65
459.204	34118.14
459.41	32811.53
459.616	30579.25
459.821	30827.05
460.027	30677.55
460.233	30214.71
460.438	28750.41
460.644	29102.66
460.85	27566.68
461.055	27136.61
461.261	27032.16
461.466	25055.87
461.672	24122
461.878	26174.06
462.083	24386.19
462.289	23767.7
462.494	23794.32
462.7	22209.2
462.905	21957.3
463.111	22594.22
463.316	22950.56
463.522	22276.78
463.727	22500.01
463.932	22559.4
464.138	22100.65
464.343	22370.99
464.549	21727.92
464.754	21916.34
464.959	22125.23
465.165	21748.4
465.37	20968.13
465.575	20273.87
465.781	21113.53
465.986	21480.12
466.191	20351.69
466.397	20380.36
466.602	19094.24
466.807	20026.06
467.012	20175.56
