Data from USB4F104151__173__14-19-58-138.txt Node

Date: Thu Mar 13 14:19:58 EDT 2025
User: louis
Spectrometer: USB4F10415
Trigger mode: 4
Integration Time (sec): 2.000000E-2
Scans to average: 1
Electric dark correction enabled: true
Nonlinearity correction enabled: false
Boxcar width: 0
XAxis mode: Wavelengths
Number of Pixels in Spectrum: 3648
>>>>>Begin Spectral Data<<<<<
178.204	-94.21
178.424	-94.21
178.644	-94.21
178.864	-88.06
179.084	-139.26
179.304	6.14
179.524	-6.14
179.744	16.38
179.964	38.91
180.184	-0
180.404	24.58
180.624	-28.67
180.844	28.67
181.064	-2.05
181.283	-49.15
181.503	-28.67
181.723	-0
181.943	-94.21
182.163	20.48
182.383	-18.43
182.602	51.2
182.822	38.91
183.042	-53.25
183.262	45.06
183.482	-18.43
183.701	63.49
183.921	22.53
184.141	-18.43
184.361	-12.29
184.58	8.19
184.8	-53.25
185.02	-0
185.239	55.3
185.459	-30.72
185.679	28.67
185.898	-28.67
186.118	40.96
186.338	40.96
186.557	53.25
186.777	-12.29
186.997	-18.43
187.216	20.48
187.436	14.34
187.655	38.91
187.875	-6.14
188.095	-2.05
188.314	43.01
188.534	36.86
188.753	36.86
188.973	38.91
189.192	55.3
189.412	-16.38
189.631	65.53
189.851	12.29
190.07	98.3
190.29	-8.19
190.509	-24.58
190.729	-53.25
190.948	-20.48
191.168	65.53
191.387	53.25
191.607	-55.3
191.826	-34.82
192.045	-8.19
192.265	38.91
192.484	4.1
192.704	38.91
192.923	-16.38
193.142	71.68
193.362	57.34
193.581	92.16
193.8	30.72
194.02	36.86
194.239	-28.67
194.458	81.92
194.678	59.39
194.897	28.67
195.116	40.96
195.335	69.63
195.555	108.54
195.774	-65.54
195.993	69.63
196.212	53.25
196.432	-40.96
196.651	20.48
196.87	-20.48
197.089	94.21
197.308	-26.62
197.528	28.67
197.747	-4.1
197.966	26.62
198.185	22.53
198.404	28.67
198.623	-2.05
198.842	26.62
199.062	71.68
199.281	12.29
199.5	45.06
199.719	14.34
199.938	12.29
200.157	71.68
200.376	102.4
200.595	-0
200.814	63.49
201.033	22.53
201.252	102.4
201.471	22.53
201.69	53.25
201.909	-8.19
202.128	-8.19
202.347	38.91
202.566	12.29
202.785	-4.1
203.004	6.14
203.223	88.06
203.442	69.63
203.661	55.3
203.879	28.67
204.098	51.2
204.317	20.48
204.536	94.21
204.755	4.1
204.974	81.92
205.193	55.3
205.411	81.92
205.63	79.87
205.849	69.63
206.068	8.19
206.287	53.25
206.505	88.06
206.724	32.77
206.943	4.1
207.162	53.25
207.381	47.1
207.599	-26.62
207.818	43.01
208.037	-28.67
208.255	-0
208.474	8.19
208.693	32.77
208.911	57.34
209.13	94.21
209.349	86.01
209.567	12.29
209.786	-47.1
210.005	-40.96
210.223	38.91
210.442	-45.06
210.661	-18.43
210.879	32.77
211.098	-43.01
211.316	20.48
211.535	65.53
211.753	8.19
211.972	12.29
212.191	36.86
212.409	69.63
212.628	10.24
212.846	-12.29
213.065	77.82
213.283	110.59
213.502	16.38
213.72	-4.1
213.938	36.86
214.157	-14.34
214.375	69.63
214.594	20.48
214.812	-12.29
215.031	-22.53
215.249	-34.82
215.467	90.11
215.686	69.63
215.904	51.2
216.122	-10.24
216.341	69.63
216.559	22.53
216.778	57.34
216.996	81.92
217.214	34.82
217.432	30.72
217.651	-4.1
217.869	-10.24
218.087	49.15
218.306	28.67
218.524	57.34
218.742	28.67
218.96	-20.48
219.179	14.34
219.397	124.93
219.615	94.21
219.833	12.29
220.051	36.86
220.27	4.1
220.488	-16.38
220.706	40.96
220.924	4.1
221.142	-10.24
221.36	61.44
221.578	20.48
221.796	47.1
222.015	-45.06
222.233	12.29
222.451	-18.43
222.669	28.67
222.887	69.63
223.105	30.72
223.323	32.77
223.541	18.43
223.759	-6.14
223.977	57.34
224.195	55.3
224.413	67.58
224.631	-4.1
224.849	16.38
225.067	133.12
225.285	16.38
225.503	-16.38
225.721	-65.54
225.939	-10.24
226.157	12.29
226.375	86.01
226.592	36.86
226.81	4.1
227.028	65.53
227.246	63.49
227.464	59.39
227.682	49.15
227.9	16.38
228.117	53.25
228.335	-10.24
228.553	81.92
228.771	-20.48
228.989	55.3
229.206	-26.62
229.424	12.29
229.642	38.91
229.86	-26.62
230.077	20.48
230.295	53.25
230.513	73.73
230.731	77.82
230.948	47.1
231.166	34.82
231.384	4.1
231.601	61.44
231.819	45.06
232.037	53.25
232.254	-26.62
232.472	28.67
232.689	51.2
232.907	14.34
233.125	-12.29
233.342	6.14
233.56	20.48
233.777	83.97
233.995	30.72
234.213	47.1
234.43	53.25
234.648	40.96
234.865	16.38
235.083	96.25
235.3	22.53
235.518	79.87
235.735	34.82
235.953	59.39
236.17	12.29
236.388	-4.1
236.605	-12.29
236.822	28.67
237.04	-40.96
237.257	18.43
237.475	36.86
237.692	4.1
237.909	24.58
238.127	28.67
238.344	-28.67
238.562	65.53
238.779	18.43
238.996	-0
239.214	-53.25
239.431	12.29
239.648	-12.29
239.865	14.34
240.083	79.87
240.3	4.1
240.517	-61.44
240.735	16.38
240.952	88.06
241.169	135.17
241.386	12.29
241.603	-34.82
241.821	24.58
242.038	51.2
242.255	32.77
242.472	14.34
242.689	77.82
242.907	108.54
243.124	-4.1
243.341	77.82
243.558	6.14
243.775	-28.67
243.992	102.4
244.209	47.1
244.426	122.88
244.643	63.49
244.86	81.92
245.078	14.34
245.295	14.34
245.512	12.29
245.729	8.19
245.946	81.92
246.163	86.01
246.38	12.29
246.597	16.38
246.814	-45.06
247.031	77.82
247.248	20.48
247.464	8.19
247.681	-12.29
247.898	-0
248.115	47.1
248.332	32.77
248.549	40.96
248.766	57.34
248.983	24.58
249.2	34.82
249.417	4.1
249.633	8.19
249.85	22.53
250.067	-8.19
250.284	-10.24
250.501	67.58
250.717	53.25
250.934	-10.24
251.151	22.53
251.368	-18.43
251.585	28.67
251.801	118.78
252.018	49.15
252.235	30.72
252.451	45.06
252.668	75.77
252.885	-12.29
253.102	102.4
253.318	47.1
253.535	38.91
253.752	65.53
253.968	22.53
254.185	28.67
254.401	22.53
254.618	83.97
254.835	77.82
255.051	49.15
255.268	61.44
255.484	53.25
255.701	22.53
255.917	61.44
256.134	-12.29
256.351	55.3
256.567	-16.38
256.784	61.44
257	4.1
257.217	94.21
257.433	36.86
257.65	22.53
257.866	-36.86
258.082	-18.43
258.299	8.19
258.515	20.48
258.732	-12.29
258.948	36.86
259.165	14.34
259.381	28.67
259.597	38.91
259.814	40.96
260.03	24.58
260.246	4.1
260.463	61.44
260.679	-34.82
260.895	51.2
261.112	49.15
261.328	43.01
261.544	-36.86
261.761	81.92
261.977	-90.11
262.193	12.29
262.409	30.72
262.626	49.15
262.842	8.19
263.058	-12.29
263.274	51.2
263.49	40.96
263.707	12.29
263.923	55.3
264.139	118.78
264.355	86.01
264.571	24.58
264.787	-30.72
265.004	67.58
265.22	4.1
265.436	-6.14
265.652	-65.54
265.868	4.1
266.084	-24.58
266.3	-20.48
266.516	-16.38
266.732	63.49
266.948	12.29
267.164	59.39
267.38	26.62
267.596	24.58
267.812	6.14
268.028	75.77
268.244	49.15
268.46	-26.62
268.676	-30.72
268.892	-0
269.108	-16.38
269.324	-22.53
269.54	-12.29
269.756	86.01
269.972	-12.29
270.188	-4.1
270.403	26.62
270.619	28.67
270.835	-34.82
271.051	16.38
271.267	14.34
271.483	36.86
271.698	14.34
271.914	28.67
272.13	45.06
272.346	69.63
272.562	12.29
272.777	-14.34
272.993	22.53
273.209	53.25
273.425	-34.82
273.64	32.77
273.856	38.91
274.072	-0
274.287	-2.05
274.503	40.96
274.719	40.96
274.934	-0
275.15	-86.01
275.366	65.53
275.581	32.77
275.797	20.48
276.012	43.01
276.228	86.01
276.444	57.34
276.659	73.73
276.875	49.15
277.09	-8.19
277.306	69.63
277.521	45.06
277.737	-2.05
277.952	69.63
278.168	98.3
278.383	45.06
278.599	47.1
278.814	63.49
279.03	51.2
279.245	53.25
279.461	40.96
279.676	-28.67
279.892	86.01
280.107	22.53
280.322	-69.63
280.538	-24.58
280.753	-4.1
280.969	12.29
281.184	-6.14
281.399	75.77
281.615	61.44
281.83	28.67
282.045	-40.96
282.26	94.21
282.476	-12.29
282.691	106.49
282.906	24.58
283.122	24.58
283.337	34.82
283.552	55.3
283.767	-6.14
283.983	40.96
284.198	-22.53
284.413	-12.29
284.628	10.24
284.843	71.68
285.058	16.38
285.274	20.48
285.489	-24.58
285.704	-36.86
285.919	12.29
286.134	22.53
286.349	45.06
286.564	65.53
286.779	90.11
286.995	16.38
287.21	-16.38
287.425	26.62
287.64	-4.1
287.855	63.49
288.07	-16.38
288.285	61.44
288.5	57.34
288.715	36.86
288.93	71.68
289.145	96.25
289.36	-12.29
289.575	-0
289.79	49.15
290.004	14.34
290.219	83.97
290.434	-16.38
290.649	53.25
290.864	12.29
291.079	36.86
291.294	28.67
291.509	32.77
291.724	45.06
291.938	-4.1
292.153	6.14
292.368	16.38
292.583	45.06
292.798	86.01
293.012	-26.62
293.227	61.44
293.442	36.86
293.657	12.29
293.871	57.34
294.086	86.01
294.301	55.3
294.516	2.05
294.73	20.48
294.945	61.44
295.16	-4.1
295.374	63.49
295.589	4.1
295.804	-10.24
296.018	38.91
296.233	16.38
296.447	20.48
296.662	-12.29
296.877	34.82
297.091	45.06
297.306	-4.1
297.52	6.14
297.735	38.91
297.949	34.82
298.164	22.53
298.378	22.53
298.593	4.1
298.807	36.86
299.022	20.48
299.236	14.34
299.451	73.73
299.665	-12.29
299.88	53.25
300.094	43.01
300.309	6.14
300.523	4.1
300.737	-6.14
300.952	32.77
301.166	47.1
301.381	-61.44
301.595	-10.24
301.809	-8.19
302.024	-26.62
302.238	36.86
302.452	40.96
302.667	110.59
302.881	22.53
303.095	4.1
303.309	24.58
303.524	-40.96
303.738	32.77
303.952	30.72
304.166	-0
304.381	-10.24
304.595	4.1
304.809	8.19
305.023	36.86
305.237	24.58
305.452	-34.82
305.666	61.44
305.88	12.29
306.094	73.73
306.308	24.58
306.522	34.82
306.736	90.11
306.95	47.1
307.164	77.82
307.379	14.34
307.593	22.53
307.807	133.12
308.021	51.2
308.235	40.96
308.449	-28.67
308.663	6.14
308.877	100.35
309.091	53.25
309.305	14.34
309.519	4.1
309.733	43.01
309.947	-28.67
310.161	100.35
310.374	-75.77
310.588	71.68
310.802	-6.14
311.016	61.44
311.23	32.77
311.444	120.83
311.658	6.14
311.872	71.68
312.085	53.25
312.299	30.72
312.513	18.43
312.727	20.48
312.941	-18.43
313.154	53.25
313.368	-4.1
313.582	77.82
313.796	14.34
314.009	-43.01
314.223	77.82
314.437	-36.86
314.651	100.35
314.864	53.25
315.078	36.86
315.292	-16.38
315.505	-22.53
315.719	-2.05
315.933	69.63
316.146	-18.43
316.36	-36.86
316.573	77.82
316.787	22.53
317.001	24.58
317.214	-8.19
317.428	30.72
317.641	36.86
317.855	63.49
318.068	28.67
318.282	110.59
318.495	90.11
318.709	-34.82
318.922	-4.1
319.136	102.4
319.349	63.49
319.563	-4.1
319.776	63.49
319.99	49.15
320.203	22.53
320.417	12.29
320.63	45.06
320.843	20.48
321.057	65.53
321.27	110.59
321.483	133.12
321.697	53.25
321.91	30.72
322.124	65.53
322.337	106.49
322.55	18.43
322.763	45.06
322.977	18.43
323.19	28.67
323.403	28.67
323.617	-0
323.83	-10.24
324.043	28.67
324.256	81.92
324.469	30.72
324.683	-16.38
324.896	14.34
325.109	55.3
325.322	-18.43
325.535	90.11
325.748	92.16
325.962	55.3
326.175	36.86
326.388	102.4
326.601	69.63
326.814	12.29
327.027	-30.72
327.24	73.73
327.453	45.06
327.666	86.01
327.879	38.91
328.092	110.59
328.305	40.96
328.518	24.58
328.731	20.48
328.944	-67.58
329.157	-4.1
329.37	65.53
329.583	86.01
329.796	90.11
330.009	12.29
330.222	20.48
330.435	2.05
330.648	61.44
330.861	20.48
331.073	61.44
331.286	110.59
331.499	38.91
331.712	-4.1
331.925	55.3
332.138	36.86
332.35	36.86
332.563	2.05
332.776	90.11
332.989	-57.34
333.202	12.29
333.414	-16.38
333.627	77.82
333.84	-20.48
334.053	36.86
334.265	-14.34
334.478	57.34
334.691	90.11
334.903	73.73
335.116	-8.19
335.329	86.01
335.541	63.49
335.754	30.72
335.966	20.48
336.179	8.19
336.392	45.06
336.604	53.25
336.817	22.53
337.029	36.86
337.242	-32.77
337.454	45.06
337.667	71.68
337.88	40.96
338.092	63.49
338.305	45.06
338.517	45.06
338.729	8.19
338.942	45.06
339.154	-0
339.367	36.86
339.579	69.63
339.792	36.86
340.004	65.53
340.217	28.67
340.429	4.1
340.641	94.21
340.854	32.77
341.066	32.77
341.278	49.15
341.491	94.21
341.703	69.63
341.915	86.01
342.128	30.72
342.34	18.43
342.552	86.01
342.764	22.53
342.977	6.14
343.189	53.25
343.401	16.38
343.613	-14.34
343.826	47.1
344.038	6.14
344.25	-36.86
344.462	69.63
344.674	71.68
344.886	24.58
345.099	118.78
345.311	28.67
345.523	32.77
345.735	69.63
345.947	129.02
346.159	36.86
346.371	40.96
346.583	-18.43
346.795	45.06
347.007	-8.19
347.219	-12.29
347.431	16.38
347.643	96.25
347.855	49.15
348.067	34.82
348.279	-4.1
348.491	96.25
348.703	6.14
348.915	30.72
349.127	86.01
349.339	8.19
349.551	-12.29
349.763	28.67
349.975	14.34
350.187	118.78
350.399	61.44
350.61	-10.24
350.822	-16.38
351.034	47.1
351.246	45.06
351.458	65.53
351.669	4.1
351.881	73.73
352.093	47.1
352.305	77.82
352.517	98.3
352.728	102.4
352.94	20.48
353.152	69.63
353.363	75.77
353.575	28.67
353.787	61.44
353.999	71.68
354.21	110.59
354.422	-36.86
354.633	-28.67
354.845	-12.29
355.057	45.06
355.268	30.72
355.48	38.91
355.692	73.73
355.903	45.06
356.115	26.62
356.326	-20.48
356.538	79.87
356.749	114.69
356.961	30.72
357.172	59.39
357.384	-8.19
357.595	53.25
357.807	45.06
358.018	12.29
358.23	106.49
358.441	55.3
358.653	51.2
358.864	2.05
359.075	77.82
359.287	4.1
359.498	51.2
359.709	40.96
359.921	36.86
360.132	143.36
360.344	92.16
360.555	-4.1
360.766	81.92
360.977	110.59
361.189	94.21
361.4	63.49
361.611	73.73
361.823	151.55
362.034	77.82
362.245	49.15
362.456	112.64
362.667	102.4
362.879	38.91
363.09	69.63
363.301	75.77
363.512	28.67
363.723	-28.67
363.935	63.49
364.146	20.48
364.357	141.31
364.568	34.82
364.779	8.19
364.99	159.74
365.201	12.29
365.412	36.86
365.623	53.25
365.834	94.21
366.045	79.87
366.256	6.14
366.467	53.25
366.678	28.67
366.889	94.21
367.1	98.3
367.311	57.34
367.522	55.3
367.733	69.63
367.944	61.44
368.155	28.67
368.366	53.25
368.577	20.48
368.788	79.87
368.999	28.67
369.209	71.68
369.42	61.44
369.631	118.78
369.842	36.86
370.053	77.82
370.264	47.1
370.474	4.1
370.685	28.67
370.896	61.44
371.107	45.06
371.317	65.53
371.528	-6.14
371.739	102.4
371.95	104.45
372.16	32.77
372.371	4.1
372.582	110.59
372.792	30.72
373.003	47.1
373.214	-14.34
373.424	63.49
373.635	32.77
373.846	28.67
374.056	40.96
374.267	104.45
374.477	22.53
374.688	-53.25
374.898	20.48
375.109	77.82
375.319	24.58
375.53	45.06
375.74	122.88
375.951	69.63
376.161	61.44
376.372	63.49
376.582	-32.77
376.793	36.86
377.003	51.2
377.214	8.19
377.424	55.3
377.635	4.1
377.845	-4.1
378.055	59.39
378.266	12.29
378.476	-12.29
378.686	20.48
378.897	104.45
379.107	63.49
379.317	88.06
379.528	-18.43
379.738	75.77
379.948	-2.05
380.158	55.3
380.369	67.58
380.579	32.77
380.789	131.07
380.999	49.15
381.21	61.44
381.42	102.4
381.63	16.38
381.84	86.01
382.05	45.06
382.261	18.43
382.471	61.44
382.681	94.21
382.891	86.01
383.101	-10.24
383.311	24.58
383.521	61.44
383.731	45.06
383.941	79.87
384.151	40.96
384.361	12.29
384.571	47.1
384.781	67.58
384.991	104.45
385.201	94.21
385.411	88.06
385.621	67.58
385.831	16.38
386.041	36.86
386.251	43.01
386.461	75.77
386.671	63.49
386.881	81.92
387.091	86.01
387.301	86.01
387.511	-8.19
387.72	8.19
387.93	55.3
388.14	28.67
388.35	73.73
388.56	14.34
388.769	69.63
388.979	-4.1
389.189	45.06
389.399	40.96
389.609	61.44
389.818	55.3
390.028	59.39
390.238	108.54
390.447	51.2
390.657	53.25
390.867	71.68
391.076	61.44
391.286	45.06
391.496	32.77
391.705	126.97
391.915	102.4
392.125	110.59
392.334	61.44
392.544	57.34
392.753	28.67
392.963	-36.86
393.172	-30.72
393.382	53.25
393.591	159.74
393.801	112.64
394.01	36.86
394.22	100.35
394.429	98.3
394.639	40.96
394.848	77.82
395.058	71.68
395.267	-18.43
395.477	83.97
395.686	55.3
395.895	90.11
396.105	86.01
396.314	135.17
396.524	61.44
396.733	69.63
396.942	182.27
397.152	53.25
397.361	69.63
397.57	55.3
397.78	75.77
397.989	124.93
398.198	204.8
398.407	24.58
398.617	108.54
398.826	108.54
399.035	118.78
399.244	139.26
399.453	122.88
399.663	153.6
399.872	94.21
400.081	45.06
400.29	167.93
400.499	131.07
400.708	159.74
400.917	47.1
401.127	126.97
401.336	30.72
401.545	155.65
401.754	159.74
401.963	145.41
402.172	122.88
402.381	112.64
402.59	71.68
402.799	112.64
403.008	106.49
403.217	120.83
403.426	112.64
403.635	88.06
403.844	167.93
404.053	131.07
404.262	112.64
404.471	167.93
404.68	159.74
404.888	151.55
405.097	131.07
405.306	245.76
405.515	200.7
405.724	233.47
405.933	135.17
406.142	176.13
406.35	112.64
406.559	126.97
406.768	180.22
406.977	237.56
407.185	143.36
407.394	192.51
407.603	200.7
407.812	276.48
408.02	223.23
408.229	235.52
408.438	217.08
408.646	217.08
408.855	323.58
409.064	260.09
409.272	251.9
409.481	288.76
409.69	368.63
409.898	323.58
410.107	301.05
410.315	307.2
410.524	319.48
410.733	440.31
410.941	382.97
411.15	358.39
411.358	501.75
411.567	462.84
411.775	382.97
411.984	425.98
412.192	491.51
412.401	425.98
412.609	497.66
412.818	536.57
413.026	511.99
413.234	552.95
413.443	573.43
413.651	495.61
413.86	591.86
414.068	602.1
414.276	647.16
414.485	571.38
414.693	598.01
414.901	718.84
415.11	696.31
415.318	700.41
415.526	770.04
415.734	757.75
415.943	888.82
416.151	935.92
416.359	874.48
416.567	841.72
416.776	937.97
416.984	882.67
417.192	1069.04
417.4	1048.56
417.608	976.88
417.817	1062.9
418.025	1216.49
418.233	1179.63
418.441	1175.53
418.649	1257.45
418.857	1292.27
419.065	1320.94
419.273	1413.1
419.481	1411.05
419.689	1396.71
419.897	1472.49
420.105	1540.07
420.313	1636.33
420.521	1654.76
420.729	1691.62
420.937	1761.25
421.145	1796.07
421.353	1945.57
421.561	1890.28
421.769	1925.09
421.977	2037.73
422.185	2101.22
422.393	2244.57
422.601	2258.91
422.809	2404.32
423.017	2418.65
423.224	2441.18
423.432	2564.06
423.64	2693.08
423.848	2762.71
424.056	2693.08
424.263	2799.57
424.471	2807.77
424.679	3002.32
424.887	3053.52
425.094	3182.54
425.302	3211.21
425.51	3348.43
425.718	3608.52
425.925	3395.53
426.133	3561.42
426.341	3766.21
426.548	3928
426.756	3971.01
426.964	4173.76
427.171	4245.44
427.379	4200.38
427.586	4413.37
427.794	4446.14
428.001	4849.59
428.209	5021.62
428.417	4919.22
428.624	5224.37
428.832	5406.64
429.039	5267.38
429.247	5148.59
429.454	5578.67
429.662	6109.09
429.869	5771.18
430.076	6354.85
430.284	5982.12
430.491	6119.33
430.699	6496.16
430.906	6592.41
431.114	6608.8
431.321	6782.87
431.528	7010.2
431.736	7374.74
431.943	7892.87
432.15	7583.63
432.358	7659.4
432.565	8052.61
432.772	7915.4
432.979	8445.82
433.187	8523.65
433.394	8634.24
433.601	9219.96
433.808	9207.67
434.016	9125.75
434.223	9369.46
434.43	10227.56
434.637	9998.18
434.844	10450.78
435.052	10880.86
435.259	10628.96
435.466	10692.44
435.673	10536.8
435.88	11269.97
436.087	11999.05
436.294	11964.23
436.501	11566.93
436.708	11919.18
436.915	12470.08
437.122	12853.05
437.329	12826.43
437.537	13225.78
437.743	13629.23
437.95	13242.17
438.157	14079.79
438.364	14487.33
438.571	14350.12
438.778	14501.67
438.985	15920.91
439.192	15060.76
439.399	15912.72
439.606	15286.04
439.813	16297.74
440.02	17286.9
440.227	17071.87
440.433	16750.34
440.64	17479.41
440.847	17118.97
441.054	17641.2
441.261	18804.45
441.467	18749.15
441.674	18919.14
441.881	19439.32
442.088	19255
442.294	19123.93
442.501	19797.71
442.708	20229.84
442.914	20899.52
443.121	21755.57
443.328	21188.28
443.534	22752.93
443.741	21833.39
443.948	21860.02
444.154	23420.57
444.361	23166.62
444.568	23625.37
444.774	23373.47
444.981	24092.3
445.187	24442.51
445.394	25355.9
445.6	25075.33
445.807	27680.35
446.013	26242.67
446.22	26732.14
446.426	27666.01
446.633	27965.01
446.839	28929.61
447.046	27651.67
447.252	29097.54
447.459	29349.44
447.665	29060.68
447.871	30477.87
448.078	31579.68
448.284	30359.09
448.491	31039.01
448.697	32296.47
448.903	32730.64
449.11	33005.06
449.316	32534.03
449.522	32927.24
449.728	33918.46
449.935	33955.32
450.141	33594.88
450.347	34805.23
450.553	33730.05
450.76	34104.82
450.966	35122.66
451.172	34747.89
451.378	35882.46
451.584	35147.24
451.791	36091.35
451.997	35569.12
452.203	36400.6
452.409	36216.28
452.615	36496.85
452.821	34645.49
453.027	34739.69
453.233	36396.5
453.44	34901.48
453.646	35253.73
453.852	35216.87
454.058	36408.79
454.264	34567.66
454.47	35704.29
454.676	34770.41
454.882	36298.2
455.088	33134.09
455.294	33637.89
455.5	33873.4
455.705	34604.53
455.911	33197.57
456.117	32073.24
456.323	31823.39
456.529	30275.12
456.735	31739.42
456.941	30909.99
457.147	30205.49
457.352	29457.98
457.558	29034.05
457.764	29251.14
457.97	28640.84
458.176	28151.38
458.381	28153.43
458.587	26857.06
458.793	26809.96
458.999	25239.17
459.204	27377.25
459.41	26287.73
459.616	24575.62
459.821	24647.3
460.027	24581.77
460.233	24116.88
460.438	23002.78
460.644	23395.99
460.85	22030
461.055	21769.91
461.261	21806.77
461.466	20086.48
461.672	19396.31
461.878	20809.41
462.083	19494.61
462.289	19050.21
462.494	19125.98
462.7	18255.59
462.905	17512.18
463.111	18003.69
463.316	18357.99
463.522	17846
463.727	17993.45
463.932	17725.17
464.138	17571.57
464.343	17778.42
464.549	17020.67
464.754	17612.53
464.959	17807.09
465.165	17592.05
465.37	16975.61
465.575	16424.71
465.781	17092.35
465.986	17243.9
466.191	16574.21
466.397	16062.22
466.602	15404.82
466.807	16004.88
467.012	16062.22
467.218	15783.7
467.423	15734.54
467.628	15892.24
467.833	16596.74
