Data from USB4F104151__282__14-23-27-883.txt Node

Date: Thu Mar 13 14:23:27 EDT 2025
User: louis
Spectrometer: USB4F10415
Trigger mode: 4
Integration Time (sec): 2.000000E-2
Scans to average: 1
Electric dark correction enabled: true
Nonlinearity correction enabled: false
Boxcar width: 0
XAxis mode: Wavelengths
Number of Pixels in Spectrum: 3648
>>>>>Begin Spectral Data<<<<<
178.204	-127.14
178.424	-127.14
178.644	-127.14
178.864	-143.53
179.084	-121
179.304	-69.8
179.524	8.02
179.744	-22.7
179.964	36.69
180.184	-16.55
180.404	3.93
180.624	-28.84
180.844	12.12
181.064	-24.75
181.283	98.13
181.503	3.93
181.723	-0.17
181.943	-24.75
182.163	124.76
182.383	46.93
182.602	-30.89
182.822	65.36
183.042	-12.46
183.262	-16.55
183.482	83.8
183.701	18.26
183.921	73.56
184.141	14.17
184.361	48.98
184.58	55.12
184.8	-16.55
185.02	22.36
185.239	36.69
185.459	32.6
185.679	48.98
185.898	-0.17
186.118	57.17
186.338	26.45
186.557	36.69
186.777	-39.08
186.997	40.79
187.216	22.36
187.436	73.56
187.655	-32.94
187.875	73.56
188.095	53.08
188.314	28.5
188.534	147.28
188.753	24.4
188.973	151.38
189.192	1.88
189.412	26.45
189.631	38.74
189.851	16.21
190.07	63.32
190.29	-24.75
190.509	53.08
190.729	26.45
190.948	98.13
191.168	186.19
191.387	-8.36
191.607	14.17
191.826	51.03
192.045	12.12
192.265	102.23
192.484	10.07
192.704	42.84
192.923	-14.51
193.142	91.99
193.362	-16.55
193.581	122.71
193.8	32.6
194.02	1.88
194.239	10.07
194.458	36.69
194.678	8.02
194.897	77.65
195.116	51.03
195.335	16.21
195.555	44.88
195.774	-14.51
195.993	-6.31
196.212	24.4
196.432	55.12
196.651	-24.75
196.87	20.31
197.089	65.36
197.308	-8.36
197.528	69.46
197.747	-4.27
197.966	22.36
198.185	53.08
198.404	20.31
198.623	10.07
198.842	85.84
199.062	40.79
199.281	73.56
199.5	40.79
199.719	48.98
199.938	30.55
200.157	59.22
200.376	75.6
200.595	118.61
200.814	-2.22
201.033	-0.17
201.252	139.09
201.471	12.12
201.69	98.13
201.909	28.5
202.128	40.79
202.347	-16.55
202.566	-55.47
202.785	10.07
203.004	-6.31
203.223	91.99
203.442	-22.7
203.661	-0.17
203.879	22.36
204.098	57.17
204.317	42.84
204.536	26.45
204.755	110.42
204.974	53.08
205.193	30.55
205.411	40.79
205.63	16.21
205.849	118.61
206.068	48.98
206.287	-39.08
206.505	40.79
206.724	18.26
206.943	51.03
207.162	34.64
207.381	38.74
207.599	24.4
207.818	53.08
208.037	32.6
208.255	51.03
208.474	10.07
208.693	42.84
208.911	73.56
209.13	46.93
209.349	83.8
209.567	116.56
209.786	77.65
210.005	-0.17
210.223	-34.99
210.442	16.21
210.661	16.21
210.879	-14.51
211.098	73.56
211.316	108.37
211.535	118.61
211.753	-32.94
211.972	106.32
212.191	36.69
212.409	24.4
212.628	10.07
212.846	24.4
213.065	77.65
213.283	67.41
213.502	-6.31
213.72	48.98
213.938	71.51
214.157	48.98
214.375	116.56
214.594	-10.41
214.812	114.52
215.031	-12.46
215.249	8.02
215.467	91.99
215.686	22.36
215.904	55.12
216.122	-22.7
216.341	147.28
216.559	44.88
216.778	48.98
216.996	-0.17
217.214	14.17
217.432	32.6
217.651	10.07
217.869	48.98
218.087	122.71
218.306	36.69
218.524	102.23
218.742	-43.18
218.96	85.84
219.179	-39.08
219.397	-37.03
219.615	114.52
219.833	36.69
220.051	-37.03
220.27	32.6
220.488	57.17
220.706	59.22
220.924	-14.51
221.142	20.31
221.36	-49.32
221.578	40.79
221.796	44.88
222.015	141.14
222.233	-8.36
222.451	98.13
222.669	-20.65
222.887	-24.75
223.105	-49.32
223.323	3.93
223.541	14.17
223.759	73.56
223.977	14.17
224.195	24.4
224.413	-6.31
224.631	48.98
224.849	3.93
225.067	108.37
225.285	36.69
225.503	32.6
225.721	-2.22
225.939	-22.7
226.157	44.88
226.375	182.1
226.592	24.4
226.81	118.61
227.028	155.47
227.246	102.23
227.464	65.36
227.682	22.36
227.9	143.19
228.117	-49.32
228.335	89.94
228.553	30.55
228.771	22.36
228.989	61.27
229.206	75.6
229.424	-0.17
229.642	-12.46
229.86	44.88
230.077	81.75
230.295	12.12
230.513	34.64
230.731	81.75
230.948	81.75
231.166	30.55
231.384	30.55
231.601	12.12
231.819	32.6
232.037	65.36
232.254	10.07
232.472	55.12
232.689	-32.94
232.907	34.64
233.125	-6.31
233.342	51.03
233.56	28.5
233.777	81.75
233.995	18.26
234.213	30.55
234.43	-14.51
234.648	147.28
234.865	-16.55
235.083	71.51
235.3	75.6
235.518	-6.31
235.735	12.12
235.953	65.36
236.17	59.22
236.388	53.08
236.605	42.84
236.822	77.65
237.04	3.93
237.257	-4.27
237.475	10.07
237.692	8.02
237.909	46.93
238.127	55.12
238.344	77.65
238.562	81.75
238.779	59.22
238.996	-45.23
239.214	14.17
239.431	53.08
239.648	-10.41
239.865	85.84
240.083	14.17
240.3	-6.31
240.517	65.36
240.735	-0.17
240.952	67.41
241.169	69.46
241.386	69.46
241.603	3.93
241.821	79.7
242.038	18.26
242.255	26.45
242.472	-8.36
242.689	44.88
242.907	73.56
243.124	81.75
243.341	-28.84
243.558	40.79
243.775	42.84
243.992	77.65
244.209	24.4
244.426	128.85
244.643	71.51
244.86	65.36
245.078	-22.7
245.295	75.6
245.512	34.64
245.729	61.27
245.946	61.27
246.163	44.88
246.38	44.88
246.597	40.79
246.814	40.79
247.031	36.69
247.248	-37.03
247.464	26.45
247.681	10.07
247.898	16.21
248.115	-0.17
248.332	-30.89
248.549	106.32
248.766	114.52
248.983	61.27
249.2	-28.84
249.417	57.17
249.633	3.93
249.85	32.6
250.067	40.79
250.284	32.6
250.501	32.6
250.717	48.98
250.934	-8.36
251.151	77.65
251.368	3.93
251.585	46.93
251.801	24.4
252.018	-22.7
252.235	104.28
252.451	-55.47
252.668	44.88
252.885	-16.55
253.102	-0.17
253.318	32.6
253.535	46.93
253.752	42.84
253.968	-32.94
254.185	81.75
254.401	-6.31
254.618	98.13
254.835	24.4
255.051	141.14
255.268	79.7
255.484	106.32
255.701	53.08
255.917	98.13
256.134	32.6
256.351	57.17
256.567	-37.03
256.784	32.6
257	10.07
257.217	81.75
257.433	81.75
257.65	59.22
257.866	130.9
258.082	100.18
258.299	57.17
258.515	57.17
258.732	8.02
258.948	28.5
259.165	118.61
259.381	-0.17
259.597	96.08
259.814	-6.31
260.03	48.98
260.246	77.65
260.463	106.32
260.679	124.76
260.895	42.84
261.112	114.52
261.328	-45.23
261.544	48.98
261.761	73.56
261.977	55.12
262.193	28.5
262.409	51.03
262.626	40.79
262.842	94.04
263.058	12.12
263.274	57.17
263.49	63.32
263.707	32.6
263.923	67.41
264.139	-4.27
264.355	16.21
264.571	94.04
264.787	28.5
265.004	48.98
265.22	106.32
265.436	32.6
265.652	-18.6
265.868	89.94
266.084	40.79
266.3	53.08
266.516	-22.7
266.732	53.08
266.948	40.79
267.164	77.65
267.38	59.22
267.596	3.93
267.812	98.13
268.028	51.03
268.244	-0.17
268.46	-37.03
268.676	-22.7
268.892	75.6
269.108	40.79
269.324	44.88
269.54	-30.89
269.756	32.6
269.972	-32.94
270.188	108.37
270.403	-63.66
270.619	34.64
270.835	81.75
271.051	-0.17
271.267	40.79
271.483	69.46
271.698	91.99
271.914	8.02
272.13	34.64
272.346	-41.13
272.562	42.84
272.777	18.26
272.993	42.84
273.209	81.75
273.425	57.17
273.64	91.99
273.856	32.6
274.072	40.79
274.287	16.21
274.503	18.26
274.719	67.41
274.934	85.84
275.15	16.21
275.366	1.88
275.581	122.71
275.797	48.98
276.012	20.31
276.228	46.93
276.444	73.56
276.659	57.17
276.875	5.97
277.09	16.21
277.306	32.6
277.521	-26.79
277.737	20.31
277.952	61.27
278.168	1.88
278.383	34.64
278.599	73.56
278.814	69.46
279.03	32.6
279.245	100.18
279.461	57.17
279.676	48.98
279.892	-16.55
280.107	89.94
280.322	28.5
280.538	59.22
280.753	57.17
280.969	98.13
281.184	77.65
281.399	48.98
281.615	8.02
281.83	91.99
282.045	26.45
282.26	-16.55
282.476	59.22
282.691	59.22
282.906	57.17
283.122	14.17
283.337	8.02
283.552	83.8
283.767	48.98
283.983	98.13
284.198	67.41
284.413	48.98
284.628	-61.61
284.843	26.45
285.058	53.08
285.274	20.31
285.489	-28.84
285.704	53.08
285.919	53.08
286.134	53.08
286.349	8.02
286.564	10.07
286.779	-2.22
286.995	1.88
287.21	24.4
287.425	22.36
287.64	-16.55
287.855	-0.17
288.07	-24.75
288.285	75.6
288.5	48.98
288.715	53.08
288.93	57.17
289.145	36.69
289.36	85.84
289.575	57.17
289.79	1.88
290.004	65.36
290.219	83.8
290.434	139.09
290.649	-4.27
290.864	53.08
291.079	65.36
291.294	26.45
291.509	48.98
291.724	57.17
291.938	32.6
292.153	40.79
292.368	3.93
292.583	34.64
292.798	59.22
293.012	40.79
293.227	40.79
293.442	73.56
293.657	83.8
293.871	114.52
294.086	18.26
294.301	16.21
294.516	-16.55
294.73	65.36
294.945	36.69
295.16	8.02
295.374	75.6
295.589	10.07
295.804	5.97
296.018	112.47
296.233	24.4
296.447	10.07
296.662	34.64
296.877	51.03
297.091	44.88
297.306	32.6
297.52	44.88
297.735	106.32
297.949	91.99
298.164	30.55
298.378	-8.36
298.593	-0.17
298.807	40.79
299.022	75.6
299.236	100.18
299.451	77.65
299.665	36.69
299.88	-39.08
300.094	106.32
300.309	12.12
300.523	40.79
300.737	16.21
300.952	14.17
301.166	32.6
301.381	10.07
301.595	32.6
301.809	40.79
302.024	149.33
302.238	130.9
302.452	85.84
302.667	1.88
302.881	126.8
303.095	91.99
303.309	75.6
303.524	65.36
303.738	8.02
303.952	8.02
304.166	108.37
304.381	-16.55
304.595	77.65
304.809	59.22
305.023	65.36
305.237	40.79
305.452	-6.31
305.666	114.52
305.88	83.8
306.094	44.88
306.308	55.12
306.522	120.66
306.736	79.7
306.95	36.69
307.164	-28.84
307.379	-49.32
307.593	30.55
307.807	48.98
308.021	71.51
308.235	75.6
308.449	-6.31
308.663	53.08
308.877	51.03
309.091	110.42
309.305	81.75
309.519	26.45
309.733	89.94
309.947	42.84
310.161	108.37
310.374	59.22
310.588	18.26
310.802	-22.7
311.016	40.79
311.23	18.26
311.444	46.93
311.658	32.6
311.872	79.7
312.085	71.51
312.299	36.69
312.513	-4.27
312.727	-6.31
312.941	-34.99
313.154	-16.55
313.368	10.07
313.582	48.98
313.796	-30.89
314.009	89.94
314.223	44.88
314.437	106.32
314.651	73.56
314.864	16.21
315.078	81.75
315.292	46.93
315.505	18.26
315.719	75.6
315.933	38.74
316.146	12.12
316.36	55.12
316.573	8.02
316.787	73.56
317.001	57.17
317.214	55.12
317.428	42.84
317.641	34.64
317.855	57.17
318.068	69.46
318.282	-16.55
318.495	132.95
318.709	77.65
318.922	26.45
319.136	110.42
319.349	59.22
319.563	32.6
319.776	16.21
319.99	1.88
320.203	57.17
320.417	1.88
320.63	32.6
320.843	44.88
321.057	61.27
321.27	24.4
321.483	36.69
321.697	155.47
321.91	26.45
322.124	112.47
322.337	10.07
322.55	18.26
322.763	-10.41
322.977	18.26
323.19	-57.51
323.403	42.84
323.617	46.93
323.83	122.71
324.043	-20.65
324.256	40.79
324.469	-39.08
324.683	85.84
324.896	32.6
325.109	1.88
325.322	-4.27
325.535	75.6
325.748	12.12
325.962	73.56
326.175	-22.7
326.388	61.27
326.601	71.51
326.814	61.27
327.027	83.8
327.24	114.52
327.453	28.5
327.666	-28.84
327.879	-24.75
328.092	57.17
328.305	-0.17
328.518	8.02
328.731	-41.13
328.944	44.88
329.157	48.98
329.37	36.69
329.583	63.32
329.796	71.51
330.009	61.27
330.222	124.76
330.435	128.85
330.648	61.27
330.861	10.07
331.073	59.22
331.286	8.02
331.499	77.65
331.712	10.07
331.925	-14.51
332.138	5.97
332.35	51.03
332.563	91.99
332.776	81.75
332.989	48.98
333.202	12.12
333.414	-41.13
333.627	81.75
333.84	65.36
334.053	59.22
334.265	5.97
334.478	69.46
334.691	61.27
334.903	28.5
335.116	75.6
335.329	24.4
335.541	16.21
335.754	3.93
335.966	71.51
336.179	-37.03
336.392	94.04
336.604	12.12
336.817	55.12
337.029	57.17
337.242	42.84
337.454	53.08
337.667	28.5
337.88	65.36
338.092	100.18
338.305	-20.65
338.517	-30.89
338.729	48.98
338.942	57.17
339.154	75.6
339.367	18.26
339.579	91.99
339.792	89.94
340.004	124.76
340.217	77.65
340.429	73.56
340.641	48.98
340.854	24.4
341.066	89.94
341.278	114.52
341.491	188.24
341.703	40.79
341.915	53.08
342.128	139.09
342.34	94.04
342.552	48.98
342.764	1.88
342.977	16.21
343.189	44.88
343.401	89.94
343.613	16.21
343.826	73.56
344.038	159.57
344.25	-10.41
344.462	48.98
344.674	32.6
344.886	53.08
345.099	77.65
345.311	44.88
345.523	48.98
345.735	16.21
345.947	46.93
346.159	51.03
346.371	85.84
346.583	77.65
346.795	114.52
347.007	57.17
347.219	69.46
347.431	44.88
347.643	65.36
347.855	10.07
348.067	96.08
348.279	-6.31
348.491	55.12
348.703	89.94
348.915	16.21
349.127	53.08
349.339	73.56
349.551	44.88
349.763	91.99
349.975	24.4
350.187	159.57
350.399	79.7
350.61	85.84
350.822	12.12
351.034	114.52
351.246	-16.55
351.458	51.03
351.669	65.36
351.881	44.88
352.093	-20.65
352.305	34.64
352.517	10.07
352.728	73.56
352.94	36.69
353.152	40.79
353.363	42.84
353.575	53.08
353.787	79.7
353.999	143.19
354.21	126.8
354.422	75.6
354.633	32.6
354.845	71.51
355.057	53.08
355.268	59.22
355.48	28.5
355.692	-32.94
355.903	40.79
356.115	57.17
356.326	67.41
356.538	135
356.749	34.64
356.961	42.84
357.172	-12.46
357.384	73.56
357.595	110.42
357.807	44.88
358.018	79.7
358.23	81.75
358.441	73.56
358.653	89.94
358.864	-14.51
359.075	122.71
359.287	34.64
359.498	69.46
359.709	61.27
359.921	34.64
360.132	59.22
360.344	63.32
360.555	91.99
360.766	75.6
360.977	32.6
361.189	32.6
361.4	40.79
361.611	61.27
361.823	110.42
362.034	122.71
362.245	48.98
362.456	48.98
362.667	-4.27
362.879	81.75
363.09	-12.46
363.301	57.17
363.512	24.4
363.723	73.56
363.935	51.03
364.146	32.6
364.357	-8.36
364.568	81.75
364.779	-4.27
364.99	57.17
365.201	77.65
365.412	94.04
365.623	34.64
365.834	69.46
366.045	110.42
366.256	26.45
366.467	114.52
366.678	65.36
366.889	-43.18
367.1	40.79
367.311	75.6
367.522	16.21
367.733	16.21
367.944	155.47
368.155	-6.31
368.366	18.26
368.577	-8.36
368.788	28.5
368.999	3.93
369.209	18.26
369.42	94.04
369.631	94.04
369.842	59.22
370.053	-37.03
370.264	71.51
370.474	42.84
370.685	12.12
370.896	46.93
371.107	75.6
371.317	77.65
371.528	51.03
371.739	157.52
371.95	48.98
372.16	130.9
372.371	8.02
372.582	32.6
372.792	89.94
373.003	106.32
373.214	89.94
373.424	8.02
373.635	22.36
373.846	102.23
374.056	26.45
374.267	-16.55
374.477	83.8
374.688	8.02
374.898	67.41
375.109	67.41
375.319	57.17
375.53	104.28
375.74	20.31
375.951	16.21
376.161	53.08
376.372	46.93
376.582	5.97
376.793	48.98
377.003	22.36
377.214	40.79
377.424	16.21
377.635	61.27
377.845	59.22
378.055	87.89
378.266	94.04
378.476	83.8
378.686	3.93
378.897	40.79
379.107	55.12
379.317	3.93
379.528	44.88
379.738	122.71
379.948	48.98
380.158	59.22
380.369	69.46
380.579	67.41
380.789	1.88
380.999	116.56
381.21	91.99
381.42	180.05
381.63	53.08
381.84	73.56
382.05	89.94
382.261	8.02
382.471	91.99
382.681	32.6
382.891	118.61
383.101	98.13
383.311	36.69
383.521	83.8
383.731	108.37
383.941	30.55
384.151	81.75
384.361	8.02
384.571	85.84
384.781	118.61
384.991	114.52
385.201	83.8
385.411	26.45
385.621	112.47
385.831	22.36
386.041	100.18
386.251	48.98
386.461	59.22
386.671	53.08
386.881	89.94
387.091	48.98
387.301	79.7
387.511	122.71
387.72	40.79
387.93	38.74
388.14	89.94
388.35	83.8
388.56	83.8
388.769	110.42
388.979	110.42
389.189	53.08
389.399	48.98
389.609	34.64
389.818	126.8
390.028	89.94
390.238	51.03
390.447	46.93
390.657	167.76
390.867	57.17
391.076	81.75
391.286	81.75
391.496	83.8
391.705	75.6
391.915	89.94
392.125	53.08
392.334	155.47
392.544	28.5
392.753	59.22
392.963	53.08
393.172	89.94
393.382	57.17
393.591	57.17
393.801	65.36
394.01	91.99
394.22	61.27
394.429	85.84
394.639	83.8
394.848	75.6
395.058	124.76
395.267	61.27
395.477	114.52
395.686	141.14
395.895	198.48
396.105	110.42
396.314	122.71
396.524	69.46
396.733	63.32
396.942	218.96
397.152	106.32
397.361	175.95
397.57	98.13
397.78	122.71
397.989	130.9
398.198	165.71
398.407	65.36
398.617	1.88
398.826	75.6
399.035	130.9
399.244	165.71
399.453	130.9
399.663	141.14
399.872	130.9
400.081	44.88
400.29	114.52
400.499	79.7
400.708	149.33
400.917	46.93
401.127	108.37
401.336	122.71
401.545	130.9
401.754	229.2
401.963	122.71
402.172	57.17
402.381	165.71
402.59	122.71
402.799	180.05
403.008	85.84
403.217	141.14
403.426	167.76
403.635	69.46
403.844	188.24
404.053	106.32
404.262	141.14
404.471	243.54
404.68	182.1
404.888	184.15
405.097	198.48
405.306	108.37
405.515	145.24
405.724	245.59
405.933	239.44
406.142	233.3
406.35	255.83
406.559	208.72
406.768	235.35
406.977	294.74
407.185	253.78
407.394	237.39
407.603	155.47
407.812	200.53
408.02	233.3
408.229	198.48
408.438	229.2
408.646	249.68
408.855	290.64
409.064	216.91
409.272	350.03
409.481	442.19
409.69	384.85
409.898	360.27
410.107	380.75
410.315	368.46
410.524	397.14
410.733	440.14
410.941	376.66
411.15	395.09
411.358	438.09
411.567	491.34
411.775	487.25
411.984	444.24
412.192	431.95
412.401	450.38
412.609	493.39
412.818	520.01
413.026	550.73
413.234	579.4
413.443	624.46
413.651	573.26
413.86	673.61
414.068	679.75
414.276	712.52
414.485	773.96
414.693	835.4
414.901	778.06
415.11	864.07
415.318	853.83
415.526	872.26
415.734	853.83
415.943	927.56
416.151	1044.29
416.359	954.18
416.567	1040.2
416.776	1070.92
416.984	1056.58
417.192	1158.98
417.4	1097.54
417.608	1146.69
417.817	1179.46
418.025	1337.15
418.233	1302.34
418.441	1271.62
418.649	1304.39
418.857	1498.94
419.065	1597.24
419.273	1486.65
419.481	1564.48
419.689	1509.18
419.897	1795.9
420.105	1752.89
420.313	1861.43
420.521	1795.9
420.729	1845.05
420.937	1916.73
421.145	2088.76
421.353	2096.95
421.561	2228.02
421.769	2185.01
421.977	2295.6
422.185	2295.6
422.393	2477.87
422.601	2678.57
422.809	2486.06
423.017	2572.08
423.224	2666.28
423.432	2887.47
423.64	2801.45
423.848	3131.17
424.056	3016.49
424.263	3114.79
424.471	3256.1
424.679	3176.23
424.887	3415.84
425.094	3508
425.302	3589.92
425.51	3698.46
425.718	3841.82
425.925	3768.09
426.133	4022.04
426.341	4284.18
426.548	4341.52
426.756	4394.77
426.964	4570.9
427.171	4474.64
427.379	4917
427.586	4945.67
427.794	5154.57
428.001	5267.2
428.209	5545.73
428.417	5506.82
428.624	5836.54
428.832	5773.05
429.039	5701.37
429.247	5676.8
429.454	6487.79
429.662	6792.94
429.869	6354.68
430.076	6895.34
430.284	6725.36
430.491	6878.96
430.699	7409.38
430.906	7290.6
431.114	7331.56
431.321	7562.98
431.528	7825.12
431.736	8126.17
431.943	8623.83
432.15	8228.57
432.358	8654.55
432.565	8986.32
432.772	8916.69
432.979	9158.35
433.187	9535.17
433.394	9469.64
433.601	10331.83
433.808	10354.36
434.016	10049.21
434.223	10452.66
434.43	11165.35
434.637	10952.37
434.844	11529.89
435.052	12002.97
435.259	11876
435.466	11976.35
435.673	11714.21
435.88	12533.4
436.087	13160.08
436.294	13303.43
436.501	12936.85
436.708	13256.33
436.915	13706.88
437.122	14116.48
437.329	14136.96
437.537	14827.12
437.743	14941.81
437.95	14616.18
438.157	15302.25
438.364	16250.46
438.571	15928.93
438.778	16129.63
438.985	17692.23
439.192	17088.08
439.399	17202.77
439.606	16936.53
439.813	17903.17
440.02	19383.85
440.227	18566.71
440.433	18517.56
440.64	19338.8
440.847	19033.65
441.054	19607.08
441.261	20930.07
441.467	20268.58
441.674	21196.31
441.881	21792.26
442.088	21843.46
442.294	21458.45
442.501	21984.77
442.708	22148.61
442.914	23389.68
443.121	24292.83
443.328	23434.74
443.534	25120.21
443.741	24583.65
443.948	24090.09
444.154	26006.98
444.361	25701.84
444.568	25859.53
444.774	26103.24
444.981	26062.28
445.187	26842.56
445.394	28003.75
445.6	27454.9
445.807	30502.28
446.013	28702.11
446.22	29468.05
446.426	30569.86
446.633	31380.85
446.839	31915.37
447.046	30885.25
447.252	32187.75
447.459	32441.7
447.665	32267.62
447.871	33811.79
448.078	35009.86
448.284	33600.85
448.491	34352.46
448.697	35536.18
448.903	36054.32
449.11	36781.35
449.316	35536.18
449.522	36416.81
449.728	37500.19
449.935	37858.58
450.141	37721.37
450.347	38464.78
450.553	37379.35
450.76	37766.42
450.966	38606.09
451.172	38653.19
451.378	39343.36
451.584	38776.07
451.791	39542.01
451.997	39683.32
452.203	40275.18
452.409	40574.19
452.615	40051.95
452.821	38855.94
453.027	38374.67
453.233	40221.94
453.44	38614.28
453.646	39306.49
453.852	39130.37
454.058	40334.57
454.264	38778.12
454.47	39711.99
454.676	38599.94
454.882	39941.36
455.088	36816.16
455.294	37260.57
455.5	37649.69
455.705	38417.68
455.911	36746.53
456.117	35968.3
456.323	35663.16
456.529	33508.69
456.735	35022.14
456.941	34223.44
457.147	33840.46
457.352	32929.12
457.558	32826.72
457.764	32515.43
457.97	31810.93
458.176	31079.8
458.381	31257.98
458.587	29748.62
458.793	29574.55
458.999	28396.96
459.204	30295.43
459.41	29044.12
459.616	27645.36
459.821	27835.82
460.027	27243.96
460.233	27024.82
460.438	25480.66
460.644	25869.77
460.85	24428
461.055	24290.79
461.261	24274.4
461.466	22484.48
461.672	21765.64
461.878	23186.93
462.083	21917.19
462.289	21448.21
462.494	21392.91
462.7	20340.25
462.905	19842.6
463.111	20493.85
463.316	20706.84
463.522	20020.77
463.727	20155.94
463.932	19858.98
464.138	19934.76
464.343	19799.59
464.549	19271.22
464.754	19729.96
464.959	19543.6
465.165	19402.29
465.37	18894.39
465.575	18376.25
465.781	19189.3
465.986	19254.83
466.191	18652.73
466.397	18116.16
466.602	17233.49
466.807	17696.33
467.012	17976.9
467.218	17702.47
467.423	17405.52
