Data from USB4F104151__228__14-21-49-238.txt Node

Date: Thu Mar 13 14:21:49 EDT 2025
User: louis
Spectrometer: USB4F10415
Trigger mode: 4
Integration Time (sec): 2.000000E-2
Scans to average: 1
Electric dark correction enabled: true
Nonlinearity correction enabled: false
Boxcar width: 0
XAxis mode: Wavelengths
Number of Pixels in Spectrum: 3648
>>>>>Begin Spectral Data<<<<<
178.204	-84.48
178.424	-84.48
178.644	-84.48
178.864	-137.73
179.084	-162.3
179.304	26.11
179.524	-45.57
179.744	-10.75
179.964	42.5
180.184	-29.18
180.404	50.69
180.624	26.11
180.844	3.58
181.064	-51.71
181.283	48.64
181.503	-88.57
181.723	28.16
181.943	-31.23
182.163	79.36
182.383	19.97
182.602	-2.56
182.822	67.07
183.042	26.11
183.262	-45.57
183.482	-29.18
183.701	13.82
183.921	11.78
184.141	44.54
184.361	9.73
184.58	54.78
184.8	28.16
185.02	-45.57
185.239	58.88
185.459	30.21
185.679	1.54
185.898	-4.61
186.118	91.65
186.338	19.97
186.557	3.58
186.777	-23.04
186.997	1.54
187.216	-23.04
187.436	30.21
187.655	44.54
187.875	83.45
188.095	9.73
188.314	-27.14
188.534	79.36
188.753	17.92
188.973	40.45
189.192	46.59
189.412	7.68
189.631	-14.85
189.851	-18.94
190.07	62.98
190.29	-59.9
190.509	22.02
190.729	85.5
190.948	79.36
191.168	93.69
191.387	75.26
191.607	73.21
191.826	71.17
192.045	13.82
192.265	-10.75
192.484	-23.04
192.704	89.6
192.923	-41.47
193.142	3.58
193.362	40.45
193.581	52.74
193.8	-14.85
194.02	81.41
194.239	60.93
194.458	40.45
194.678	-53.76
194.897	44.54
195.116	-33.28
195.335	-4.61
195.555	26.11
195.774	58.88
195.993	26.11
196.212	69.12
196.432	-4.61
196.651	26.11
196.87	-31.23
197.089	44.54
197.308	-18.94
197.528	58.88
197.747	-20.99
197.966	44.54
198.185	52.74
198.404	-6.66
198.623	116.22
198.842	62.98
199.062	62.98
199.281	60.93
199.5	1.54
199.719	52.74
199.938	9.73
200.157	67.07
200.376	1.54
200.595	34.3
200.814	17.92
201.033	44.54
201.252	42.5
201.471	1.54
201.69	26.11
201.909	17.92
202.128	24.06
202.347	3.58
202.566	3.58
202.785	-45.57
203.004	3.58
203.223	-10.75
203.442	67.07
203.661	17.92
203.879	58.88
204.098	62.98
204.317	124.41
204.536	19.97
204.755	-25.09
204.974	30.21
205.193	26.11
205.411	9.73
205.63	48.64
205.849	52.74
206.068	3.58
206.287	-41.47
206.505	15.87
206.724	-2.56
206.943	-6.66
207.162	17.92
207.381	-0.51
207.599	-2.56
207.818	-35.33
208.037	-41.47
208.255	-2.56
208.474	-37.38
208.693	17.92
208.911	34.3
209.13	42.5
209.349	1.54
209.567	138.75
209.786	56.83
210.005	-2.56
210.223	50.69
210.442	-10.75
210.661	62.98
210.879	17.92
211.098	19.97
211.316	79.36
211.535	-2.56
211.753	-55.81
211.972	-6.66
212.191	-27.14
212.409	-23.04
212.628	30.21
212.846	3.58
213.065	3.58
213.283	124.41
213.502	17.92
213.72	-14.85
213.938	58.88
214.157	-61.95
214.375	-14.85
214.594	-6.66
214.812	-27.14
215.031	-2.56
215.249	-2.56
215.467	69.12
215.686	99.84
215.904	19.97
216.122	9.73
216.341	103.93
216.559	-8.7
216.778	26.11
216.996	9.73
217.214	42.5
217.432	-55.81
217.651	36.35
217.869	17.92
218.087	1.54
218.306	1.54
218.524	13.82
218.742	-14.85
218.96	56.83
219.179	-10.75
219.397	34.3
219.615	32.26
219.833	85.5
220.051	-6.66
220.27	58.88
220.488	13.82
220.706	46.59
220.924	-61.95
221.142	34.3
221.36	-18.94
221.578	79.36
221.796	36.35
222.015	60.93
222.233	42.5
222.451	93.69
222.669	-6.66
222.887	34.3
223.105	9.73
223.323	67.07
223.541	-14.85
223.759	44.54
223.977	34.3
224.195	-12.8
224.413	85.5
224.631	83.45
224.849	19.97
225.067	48.64
225.285	-2.56
225.503	42.5
225.721	-76.29
225.939	50.69
226.157	1.54
226.375	144.89
226.592	-12.8
226.81	26.11
227.028	116.22
227.246	52.74
227.464	26.11
227.682	67.07
227.9	87.55
228.117	-2.56
228.335	17.92
228.553	60.93
228.771	9.73
228.989	1.54
229.206	50.69
229.424	-45.57
229.642	-4.61
229.86	-6.66
230.077	9.73
230.295	-6.66
230.513	22.02
230.731	65.02
230.948	26.11
231.166	42.5
231.384	-14.85
231.601	1.54
231.819	60.93
232.037	60.93
232.254	-51.71
232.472	-6.66
232.689	9.73
232.907	83.45
233.125	93.69
233.342	36.35
233.56	-23.04
233.777	-6.66
233.995	83.45
234.213	52.74
234.43	19.97
234.648	30.21
234.865	5.63
235.083	46.59
235.3	13.82
235.518	7.68
235.735	17.92
235.953	46.59
236.17	38.4
236.388	34.3
236.605	17.92
236.822	15.87
237.04	13.82
237.257	5.63
237.475	22.02
237.692	85.5
237.909	44.54
238.127	-12.8
238.344	48.64
238.562	19.97
238.779	-25.09
238.996	38.4
239.214	-0.51
239.431	-2.56
239.648	9.73
239.865	19.97
240.083	103.93
240.3	67.07
240.517	75.26
240.735	-31.23
240.952	-2.56
241.169	-14.85
241.386	-29.18
241.603	58.88
241.821	9.73
242.038	13.82
242.255	-6.66
242.472	-39.42
242.689	9.73
242.907	30.21
243.124	91.65
243.341	19.97
243.558	-20.99
243.775	7.68
243.992	26.11
244.209	58.88
244.426	40.45
244.643	54.78
244.86	50.69
245.078	-14.85
245.295	58.88
245.512	101.89
245.729	-31.23
245.946	28.16
246.163	26.11
246.38	-23.04
246.597	36.35
246.814	38.4
247.031	17.92
247.248	9.73
247.464	50.69
247.681	36.35
247.898	19.97
248.115	34.3
248.332	5.63
248.549	97.79
248.766	60.93
248.983	56.83
249.2	24.06
249.417	28.16
249.633	26.11
249.85	58.88
250.067	-14.85
250.284	26.11
250.501	71.17
250.717	15.87
250.934	44.54
251.151	79.36
251.368	5.63
251.585	52.74
251.801	-4.61
252.018	11.78
252.235	79.36
252.451	40.45
252.668	22.02
252.885	42.5
253.102	-20.99
253.318	17.92
253.535	-18.94
253.752	-35.33
253.968	30.21
254.185	-16.9
254.401	62.98
254.618	-0.51
254.835	-12.8
255.051	1.54
255.268	69.12
255.484	71.17
255.701	62.98
255.917	99.84
256.134	9.73
256.351	26.11
256.567	30.21
256.784	36.35
257	-10.75
257.217	83.45
257.433	11.78
257.65	77.31
257.866	79.36
258.082	-14.85
258.299	-23.04
258.515	38.4
258.732	-23.04
258.948	69.12
259.165	-18.94
259.381	-4.61
259.597	17.92
259.814	-43.52
260.03	3.58
260.246	13.82
260.463	67.07
260.679	-23.04
260.895	13.82
261.112	62.98
261.328	-23.04
261.544	-2.56
261.761	75.26
261.977	-20.99
262.193	36.35
262.409	28.16
262.626	79.36
262.842	-2.56
263.058	-0.51
263.274	1.54
263.49	42.5
263.707	9.73
263.923	-6.66
264.139	50.69
264.355	13.82
264.571	-20.99
264.787	32.26
265.004	62.98
265.22	9.73
265.436	-45.57
265.652	9.73
265.868	79.36
266.084	-55.81
266.3	46.59
266.516	32.26
266.732	48.64
266.948	-10.75
267.164	5.63
267.38	1.54
267.596	-35.33
267.812	54.78
268.028	62.98
268.244	-6.66
268.46	9.73
268.676	-20.99
268.892	22.02
269.108	7.68
269.324	-2.56
269.54	28.16
269.756	17.92
269.972	5.63
270.188	62.98
270.403	-16.9
270.619	58.88
270.835	73.21
271.051	30.21
271.267	-2.56
271.483	3.58
271.698	87.55
271.914	52.74
272.13	-10.75
272.346	-51.71
272.562	9.73
272.777	1.54
272.993	-12.8
273.209	11.78
273.425	-2.56
273.64	-6.66
273.856	89.6
274.072	50.69
274.287	-39.42
274.503	116.22
274.719	-14.85
274.934	30.21
275.15	13.82
275.366	44.54
275.581	-45.57
275.797	15.87
276.012	-35.33
276.228	9.73
276.444	9.73
276.659	105.98
276.875	1.54
277.09	13.82
277.306	17.92
277.521	3.58
277.737	3.58
277.952	34.3
278.168	40.45
278.383	105.98
278.599	79.36
278.814	75.26
279.03	-14.85
279.245	60.93
279.461	42.5
279.676	3.58
279.892	-39.42
280.107	19.97
280.322	-51.71
280.538	42.5
280.753	34.3
280.969	22.02
281.184	-35.33
281.399	32.26
281.615	3.58
281.83	44.54
282.045	32.26
282.26	36.35
282.476	26.11
282.691	91.65
282.906	15.87
283.122	26.11
283.337	-2.56
283.552	69.12
283.767	-39.42
283.983	71.17
284.198	-27.14
284.413	5.63
284.628	19.97
284.843	-27.14
285.058	30.21
285.274	77.31
285.489	48.64
285.704	-8.7
285.919	-2.56
286.134	71.17
286.349	32.26
286.564	36.35
286.779	1.54
286.995	30.21
287.21	5.63
287.425	22.02
287.64	-2.56
287.855	5.63
288.07	-35.33
288.285	83.45
288.5	-70.14
288.715	105.98
288.93	52.74
289.145	62.98
289.36	38.4
289.575	9.73
289.79	79.36
290.004	54.78
290.219	52.74
290.434	1.54
290.649	36.35
290.864	85.5
291.079	-25.09
291.294	69.12
291.509	30.21
291.724	19.97
291.938	40.45
292.153	56.83
292.368	-80.38
292.583	9.73
292.798	-6.66
293.012	9.73
293.227	73.21
293.442	19.97
293.657	130.56
293.871	58.88
294.086	60.93
294.301	58.88
294.516	69.12
294.73	1.54
294.945	40.45
295.16	58.88
295.374	108.03
295.589	95.74
295.804	-6.66
296.018	60.93
296.233	65.02
296.447	7.68
296.662	-70.14
296.877	69.12
297.091	46.59
297.306	99.84
297.52	83.45
297.735	3.58
297.949	79.36
298.164	-23.04
298.378	46.59
298.593	3.58
298.807	30.21
299.022	-14.85
299.236	38.4
299.451	38.4
299.665	36.35
299.88	69.12
300.094	11.78
300.309	75.26
300.523	124.41
300.737	15.87
300.952	60.93
301.166	97.79
301.381	-18.94
301.595	89.6
301.809	42.5
302.024	-51.71
302.238	-35.33
302.452	26.11
302.667	28.16
302.881	67.07
303.095	26.11
303.309	26.11
303.524	-51.71
303.738	65.02
303.952	13.82
304.166	52.74
304.381	19.97
304.595	118.27
304.809	-20.99
305.023	3.58
305.237	9.73
305.452	-20.99
305.666	67.07
305.88	79.36
306.094	42.5
306.308	67.07
306.522	58.88
306.736	26.11
306.95	22.02
307.164	17.92
307.379	38.4
307.593	-12.8
307.807	89.6
308.021	54.78
308.235	-8.7
308.449	-20.99
308.663	-10.75
308.877	42.5
309.091	-8.7
309.305	13.82
309.519	-57.86
309.733	67.07
309.947	3.58
310.161	36.35
310.374	54.78
310.588	77.31
310.802	-4.61
311.016	26.11
311.23	-20.99
311.444	77.31
311.658	52.74
311.872	26.11
312.085	46.59
312.299	-23.04
312.513	81.41
312.727	52.74
312.941	-14.85
313.154	1.54
313.368	5.63
313.582	67.07
313.796	75.26
314.009	62.98
314.223	181.76
314.437	11.78
314.651	-61.95
314.864	-14.85
315.078	3.58
315.292	67.07
315.505	85.5
315.719	-8.7
315.933	34.3
316.146	-10.75
316.36	-23.04
316.573	34.3
316.787	58.88
317.001	50.69
317.214	-0.51
317.428	1.54
317.641	3.58
317.855	99.84
318.068	77.31
318.282	159.23
318.495	75.26
318.709	58.88
318.922	26.11
319.136	108.03
319.349	5.63
319.563	19.97
319.776	116.22
319.99	83.45
320.203	42.5
320.417	26.11
320.63	40.45
320.843	93.69
321.057	58.88
321.27	67.07
321.483	69.12
321.697	116.22
321.91	-14.85
322.124	52.74
322.337	30.21
322.55	42.5
322.763	54.78
322.977	83.45
323.19	-45.57
323.403	44.54
323.617	42.5
323.83	99.84
324.043	-61.95
324.256	89.6
324.469	-14.85
324.683	3.58
324.896	3.58
325.109	101.89
325.322	-23.04
325.535	42.5
325.748	52.74
325.962	-16.9
326.175	38.4
326.388	-37.38
326.601	17.92
326.814	50.69
327.027	-47.62
327.24	54.78
327.453	71.17
327.666	89.6
327.879	26.11
328.092	-35.33
328.305	67.07
328.518	17.92
328.731	-64
328.944	30.21
329.157	40.45
329.37	40.45
329.583	112.13
329.796	42.5
330.009	108.03
330.222	95.74
330.435	5.63
330.648	26.11
330.861	5.63
331.073	42.5
331.286	-4.61
331.499	103.93
331.712	1.54
331.925	24.06
332.138	34.3
332.35	75.26
332.563	9.73
332.776	146.94
332.989	42.5
333.202	112.13
333.414	-14.85
333.627	11.78
333.84	54.78
334.053	30.21
334.265	7.68
334.478	71.17
334.691	71.17
334.903	13.82
335.116	17.92
335.329	-39.42
335.541	13.82
335.754	77.31
335.966	26.11
336.179	-4.61
336.392	60.93
336.604	44.54
336.817	34.3
337.029	-20.99
337.242	28.16
337.454	95.74
337.667	50.69
337.88	77.31
338.092	58.88
338.305	9.73
338.517	44.54
338.729	-6.66
338.942	116.22
339.154	58.88
339.367	50.69
339.579	99.84
339.792	93.69
340.004	44.54
340.217	-25.09
340.429	62.98
340.641	-37.38
340.854	46.59
341.066	56.83
341.278	83.45
341.491	5.63
341.703	34.3
341.915	71.17
342.128	71.17
342.34	101.89
342.552	52.74
342.764	34.3
342.977	1.54
343.189	54.78
343.401	30.21
343.613	83.45
343.826	85.5
344.038	34.3
344.25	69.12
344.462	26.11
344.674	99.84
344.886	-6.66
345.099	50.69
345.311	1.54
345.523	38.4
345.735	26.11
345.947	138.75
346.159	-35.33
346.371	28.16
346.583	13.82
346.795	142.85
347.007	-4.61
347.219	77.31
347.431	62.98
347.643	52.74
347.855	-20.99
348.067	69.12
348.279	32.26
348.491	44.54
348.703	67.07
348.915	-39.42
349.127	56.83
349.339	42.5
349.551	32.26
349.763	58.88
349.975	110.08
350.187	38.4
350.399	5.63
350.61	19.97
350.822	116.22
351.034	-12.8
351.246	40.45
351.458	114.17
351.669	46.59
351.881	42.5
352.093	54.78
352.305	79.36
352.517	58.88
352.728	99.84
352.94	24.06
353.152	42.5
353.363	17.92
353.575	110.08
353.787	17.92
353.999	62.98
354.21	108.03
354.422	118.27
354.633	42.5
354.845	67.07
355.057	22.02
355.268	50.69
355.48	50.69
355.692	22.02
355.903	34.3
356.115	118.27
356.326	22.02
356.538	26.11
356.749	40.45
356.961	44.54
357.172	44.54
357.384	60.93
357.595	116.22
357.807	110.08
358.018	54.78
358.23	-31.23
358.441	75.26
358.653	95.74
358.864	71.17
359.075	58.88
359.287	9.73
359.498	95.74
359.709	11.78
359.921	110.08
360.132	17.92
360.344	26.11
360.555	17.92
360.766	99.84
360.977	22.02
361.189	79.36
361.4	32.26
361.611	140.8
361.823	122.37
362.034	67.07
362.245	42.5
362.456	22.02
362.667	46.59
362.879	58.88
363.09	26.11
363.301	71.17
363.512	28.16
363.723	62.98
363.935	32.26
364.146	56.83
364.357	67.07
364.568	77.31
364.779	28.16
364.99	71.17
365.201	48.64
365.412	95.74
365.623	1.54
365.834	73.21
366.045	95.74
366.256	83.45
366.467	122.37
366.678	5.63
366.889	71.17
367.1	30.21
367.311	38.4
367.522	-10.75
367.733	48.64
367.944	34.3
368.155	99.84
368.366	42.5
368.577	128.51
368.788	52.74
368.999	17.92
369.209	114.17
369.42	79.36
369.631	83.45
369.842	30.21
370.053	17.92
370.264	42.5
370.474	69.12
370.685	44.54
370.896	-12.8
371.107	91.65
371.317	26.11
371.528	26.11
371.739	28.16
371.95	73.21
372.16	67.07
372.371	-78.33
372.582	58.88
372.792	62.98
373.003	-27.14
373.214	3.58
373.424	75.26
373.635	-8.7
373.846	77.31
374.056	17.92
374.267	89.6
374.477	69.12
374.688	-6.66
374.898	9.73
375.109	-4.61
375.319	50.69
375.53	58.88
375.74	91.65
375.951	-55.81
376.161	3.58
376.372	50.69
376.582	30.21
376.793	99.84
377.003	26.11
377.214	1.54
377.424	97.79
377.635	87.55
377.845	46.59
378.055	5.63
378.266	-18.94
378.476	34.3
378.686	91.65
378.897	50.69
379.107	-10.75
379.317	83.45
379.528	17.92
379.738	30.21
379.948	17.92
380.158	34.3
380.369	-6.66
380.579	58.88
380.789	101.89
380.999	67.07
381.21	108.03
381.42	144.89
381.63	28.16
381.84	42.5
382.05	67.07
382.261	30.21
382.471	60.93
382.681	44.54
382.891	67.07
383.101	75.26
383.311	62.98
383.521	69.12
383.731	7.68
383.941	62.98
384.151	3.58
384.361	34.3
384.571	60.93
384.781	77.31
384.991	48.64
385.201	101.89
385.411	48.64
385.621	75.26
385.831	79.36
386.041	85.5
386.251	112.13
386.461	34.3
386.671	99.84
386.881	85.5
387.091	50.69
387.301	93.69
387.511	-23.04
387.72	91.65
387.93	99.84
388.14	46.59
388.35	30.21
388.56	75.26
388.769	36.35
388.979	140.8
389.189	3.58
389.399	136.7
389.609	19.97
389.818	38.4
390.028	22.02
390.238	42.5
390.447	75.26
390.657	50.69
390.867	46.59
391.076	67.07
391.286	38.4
391.496	58.88
391.705	-6.66
391.915	101.89
392.125	108.03
392.334	77.31
392.544	110.08
392.753	-6.66
392.963	40.45
393.172	87.55
393.382	-16.9
393.591	99.84
393.801	60.93
394.01	89.6
394.22	-6.66
394.429	22.02
394.639	5.63
394.848	159.23
395.058	85.5
395.267	38.4
395.477	83.45
395.686	69.12
395.895	73.21
396.105	89.6
396.314	38.4
396.524	108.03
396.733	46.59
396.942	34.3
397.152	134.65
397.361	148.99
397.57	19.97
397.78	60.93
397.989	89.6
398.198	120.32
398.407	46.59
398.617	120.32
398.826	83.45
399.035	69.12
399.244	116.22
399.453	99.84
399.663	81.41
399.872	136.7
400.081	157.18
400.29	132.61
400.499	67.07
400.708	157.18
400.917	81.41
401.127	140.8
401.336	120.32
401.545	132.61
401.754	155.13
401.963	101.89
402.172	60.93
402.381	122.37
402.59	62.98
402.799	93.69
403.008	124.41
403.217	134.65
403.426	132.61
403.635	140.8
403.844	105.98
404.053	175.61
404.262	138.75
404.471	179.71
404.68	138.75
404.888	103.93
405.097	185.85
405.306	130.56
405.515	65.02
405.724	114.17
405.933	192
406.142	226.81
406.35	183.81
406.559	185.85
406.768	204.28
406.977	239.1
407.185	210.43
407.394	237.05
407.603	118.27
407.812	208.38
408.02	226.81
408.229	261.63
408.438	202.24
408.646	153.09
408.855	241.15
409.064	304.64
409.272	292.35
409.481	280.06
409.69	269.82
409.898	280.06
410.107	312.83
410.315	321.02
410.524	300.54
410.733	366.07
410.941	321.02
411.15	353.79
411.358	445.95
411.567	458.23
411.775	372.22
411.984	370.17
412.192	484.86
412.401	433.66
412.609	558.58
412.818	413.18
413.026	517.62
413.234	499.19
413.443	503.29
413.651	503.29
413.86	574.97
414.068	560.63
414.276	615.93
414.485	620.02
414.693	620.02
414.901	689.65
415.11	611.83
415.318	703.99
415.526	802.29
415.734	820.72
415.943	820.72
416.151	853.49
416.359	833.01
416.567	855.54
416.776	923.12
416.984	970.23
417.192	935.41
417.4	947.7
417.608	982.51
417.817	1037.81
418.025	1152.49
418.233	1154.54
418.441	1078.77
418.649	1132.01
418.857	1189.36
419.065	1336.81
419.273	1271.28
419.481	1377.77
419.689	1400.3
419.897	1424.87
420.105	1459.69
420.313	1541.61
420.521	1609.19
420.729	1656.29
420.937	1656.29
421.145	1795.56
421.353	1826.28
421.561	1893.86
421.769	2008.55
421.977	2010.59
422.185	2029.03
422.393	2174.43
422.601	2377.18
422.809	2323.93
423.017	2276.83
423.224	2360.8
423.432	2532.83
423.64	2381.28
423.848	2817.49
424.056	2676.18
424.263	2846.16
424.471	2680.28
424.679	3001.81
424.887	3102.16
425.094	3229.13
425.302	3204.56
425.51	3335.63
425.718	3337.68
425.925	3397.07
426.133	3405.26
426.341	3749.32
426.548	3823.05
426.756	3866.05
426.964	3902.92
427.171	4212.16
427.379	4425.15
427.586	4330.94
427.794	4535.74
428.001	4767.16
428.209	5025.2
428.417	4773.3
428.624	5252.53
428.832	5326.25
429.039	5199.28
429.247	5086.64
429.454	5645.74
429.662	5860.77
429.869	5719.46
430.076	6071.72
430.284	5991.84
430.491	6129.06
430.699	6319.52
430.906	6456.73
431.114	6454.69
431.321	6735.26
431.528	6983.06
431.736	7333.26
431.943	7640.46
432.15	7542.16
432.358	7638.41
432.565	8013.19
432.772	7878.02
432.979	8316.29
433.187	8564.09
433.394	8537.47
433.601	9198.96
433.808	9037.17
434.016	8932.73
434.223	9426.29
434.43	10179.94
434.637	9905.51
434.844	10540.38
435.052	10638.69
435.259	10505.57
435.466	10480.99
435.673	10493.28
435.88	11150.68
436.087	11908.43
436.294	11595.09
436.501	11441.49
436.708	11889.99
436.915	12080.46
437.122	12657.98
437.329	12653.89
437.537	12735.81
437.743	13120.82
437.95	13129.02
438.157	14011.69
438.364	14322.98
438.571	14261.54
438.778	14533.92
438.985	15664.4
439.192	14894.36
439.399	15586.58
439.606	15144.22
439.813	16098.57
440.02	17163.51
440.227	16504.07
440.433	16506.12
440.64	16991.48
440.847	17128.7
441.054	17388.79
441.261	18709.73
441.467	18468.07
441.674	18697.44
441.881	19451.1
442.088	19150.04
442.294	19217.63
442.501	20036.81
442.708	20135.12
442.914	20600.01
443.121	21818.55
443.328	21236.92
443.534	22494.38
443.741	21890.23
443.948	21650.61
444.154	23047.33
444.361	23211.17
444.568	23219.36
444.774	23239.84
444.981	23631
445.187	24171.66
445.394	25021.57
445.6	24749.19
445.807	27272.29
446.013	26090.61
446.22	26508.4
446.426	27034.72
446.633	27882.58
446.839	28722.25
447.046	27610.2
447.252	29187.14
447.459	29037.64
447.665	28961.86
447.871	30088.24
448.078	31261.73
448.284	30022.71
448.491	30575.66
448.697	31937.56
448.903	32766.99
449.11	32635.92
449.316	32183.32
449.522	32623.63
449.728	33840.12
449.935	33467.39
450.141	33547.26
450.347	34757.61
450.553	33688.57
450.76	33784.83
450.966	35349.48
451.172	34796.53
451.378	35566.56
451.584	34898.92
451.791	35582.95
451.997	35353.57
452.203	36013.02
452.409	36361.17
452.615	35986.39
452.821	34618.35
453.027	34249.72
453.233	35836.89
453.44	34540.53
453.646	34986.99
453.852	35316.71
454.058	35871.71
454.264	34733.04
454.47	35517.41
454.676	34853.87
454.882	35728.35
455.088	32941.07
455.294	33340.42
455.5	33887.23
455.705	34114.55
455.911	32621.58
456.117	32138.26
456.323	31673.37
456.529	30223.41
456.735	31294.5
456.941	30497.84
457.147	30125.11
457.352	29275.2
457.558	28972.1
457.764	29033.54
457.97	28496.97
458.176	28011.6
458.381	27991.12
458.587	26467.44
458.793	26518.64
458.999	25236.61
459.204	26956.9
459.41	26020.98
459.616	24470.67
459.821	24403.08
460.027	24321.16
460.233	24016.02
460.438	22906.02
460.644	22989.99
460.85	21980.34
461.055	21669.05
461.261	21349.56
461.466	20131.02
461.672	19496.15
461.878	20937.92
462.083	19586.26
462.289	19340.5
462.494	18953.44
462.7	18144.49
462.905	18103.53
463.111	18345.19
463.316	18250.99
463.522	17812.72
463.727	18107.63
463.932	17917.17
464.138	17542.39
464.343	17917.17
464.549	17317.11
464.754	17827.06
464.959	17755.38
465.165	17493.24
465.37	16715.01
465.575	16291.08
465.781	17063.16
465.986	16958.72
466.191	16358.66
466.397	16211.21
466.602	15115.55
466.807	16119.05
467.012	16108.81
467.218	16092.43
467.423	15904.01
467.628	15715.6
467.833	16510.21
468.038	15746.32
