Data from USB4F104151__222__14-21-21-888.txt Node

Date: Thu Mar 13 14:21:21 EDT 2025
User: louis
Spectrometer: USB4F10415
Trigger mode: 4
Integration Time (sec): 2.000000E-2
Scans to average: 1
Electric dark correction enabled: true
Nonlinearity correction enabled: false
Boxcar width: 0
XAxis mode: Wavelengths
Number of Pixels in Spectrum: 3648
>>>>>Begin Spectral Data<<<<<
178.204	-55.81
178.424	-55.81
178.644	-55.81
178.864	-168.45
179.084	-119.29
179.304	-12.8
179.524	-31.23
179.744	36.35
179.964	13.82
180.184	-61.95
180.404	-39.42
180.624	15.87
180.844	1.54
181.064	-0.51
181.283	1.54
181.503	5.63
181.723	71.17
181.943	-111.1
182.163	-12.8
182.383	52.74
182.602	101.89
182.822	38.4
183.042	48.64
183.262	3.58
183.482	-20.99
183.701	-43.52
183.921	-16.9
184.141	-55.81
184.361	42.5
184.58	44.54
184.8	75.26
185.02	3.58
185.239	87.55
185.459	103.93
185.679	50.69
185.898	-6.66
186.118	42.5
186.338	58.88
186.557	34.3
186.777	28.16
186.997	75.26
187.216	-8.7
187.436	91.65
187.655	40.45
187.875	-10.75
188.095	3.58
188.314	50.69
188.534	19.97
188.753	-0.51
188.973	60.93
189.192	38.4
189.412	44.54
189.631	34.3
189.851	38.4
190.07	60.93
190.29	22.02
190.509	30.21
190.729	-6.66
190.948	77.31
191.168	108.03
191.387	-6.66
191.607	9.73
191.826	-47.62
192.045	60.93
192.265	-0.51
192.484	-37.38
192.704	19.97
192.923	-29.18
193.142	71.17
193.362	42.5
193.581	19.97
193.8	40.45
194.02	-0.51
194.239	5.63
194.458	85.5
194.678	5.63
194.897	11.78
195.116	38.4
195.335	5.63
195.555	58.88
195.774	1.54
195.993	-4.61
196.212	13.82
196.432	-47.62
196.651	9.73
196.87	5.63
197.089	99.84
197.308	46.59
197.528	99.84
197.747	-29.18
197.966	-10.75
198.185	97.79
198.404	30.21
198.623	58.88
198.842	58.88
199.062	-14.85
199.281	69.12
199.5	-14.85
199.719	26.11
199.938	81.41
200.157	56.83
200.376	95.74
200.595	65.02
200.814	99.84
201.033	11.78
201.252	56.83
201.471	-6.66
201.69	58.88
201.909	93.69
202.128	50.69
202.347	-12.8
202.566	60.93
202.785	30.21
203.004	34.3
203.223	103.93
203.442	50.69
203.661	-20.99
203.879	17.92
204.098	30.21
204.317	-39.42
204.536	-0.51
204.755	28.16
204.974	-51.71
205.193	-4.61
205.411	124.41
205.63	3.58
205.849	38.4
206.068	85.5
206.287	36.35
206.505	-31.23
206.724	-10.75
206.943	-29.18
207.162	85.5
207.381	-14.85
207.599	52.74
207.818	1.54
208.037	-70.14
208.255	-27.14
208.474	-0.51
208.693	32.26
208.911	9.73
209.13	-27.14
209.349	-23.04
209.567	28.16
209.786	95.74
210.005	17.92
210.223	1.54
210.442	79.36
210.661	-35.33
210.879	-35.33
211.098	112.13
211.316	13.82
211.535	60.93
211.753	17.92
211.972	-35.33
212.191	-2.56
212.409	75.26
212.628	62.98
212.846	50.69
213.065	77.31
213.283	26.11
213.502	48.64
213.72	-6.66
213.938	124.41
214.157	38.4
214.375	1.54
214.594	54.78
214.812	38.4
215.031	28.16
215.249	-12.8
215.467	-55.81
215.686	75.26
215.904	71.17
216.122	34.3
216.341	56.83
216.559	-2.56
216.778	46.59
216.996	34.3
217.214	3.58
217.432	32.26
217.651	-12.8
217.869	44.54
218.087	24.06
218.306	42.5
218.524	3.58
218.742	-27.14
218.96	75.26
219.179	-0.51
219.397	58.88
219.615	110.08
219.833	17.92
220.051	34.3
220.27	50.69
220.488	26.11
220.706	44.54
220.924	48.64
221.142	30.21
221.36	42.5
221.578	-14.85
221.796	-2.56
222.015	32.26
222.233	67.07
222.451	60.93
222.669	-49.66
222.887	38.4
223.105	-4.61
223.323	3.58
223.541	-6.66
223.759	19.97
223.977	26.11
224.195	65.02
224.413	77.31
224.631	7.68
224.849	-6.66
225.067	60.93
225.285	-14.85
225.503	52.74
225.721	9.73
225.939	26.11
226.157	46.59
226.375	93.69
226.592	-16.9
226.81	-25.09
227.028	9.73
227.246	58.88
227.464	1.54
227.682	5.63
227.9	99.84
228.117	5.63
228.335	-2.56
228.553	11.78
228.771	19.97
228.989	9.73
229.206	36.35
229.424	17.92
229.642	9.73
229.86	-23.04
230.077	67.07
230.295	13.82
230.513	62.98
230.731	79.36
230.948	56.83
231.166	42.5
231.384	1.54
231.601	24.06
231.819	62.98
232.037	91.65
232.254	-27.14
232.472	26.11
232.689	9.73
232.907	50.69
233.125	77.31
233.342	-14.85
233.56	50.69
233.777	34.3
233.995	-23.04
234.213	46.59
234.43	36.35
234.648	62.98
234.865	5.63
235.083	42.5
235.3	40.45
235.518	101.89
235.735	83.45
235.953	60.93
236.17	3.58
236.388	17.92
236.605	-51.71
236.822	50.69
237.04	-2.56
237.257	54.78
237.475	-35.33
237.692	58.88
237.909	126.46
238.127	-0.51
238.344	58.88
238.562	65.02
238.779	62.98
238.996	9.73
239.214	48.64
239.431	32.26
239.648	-6.66
239.865	67.07
240.083	85.5
240.3	3.58
240.517	9.73
240.735	79.36
240.952	60.93
241.169	83.45
241.386	36.35
241.603	58.88
241.821	7.68
242.038	71.17
242.255	28.16
242.472	-23.04
242.689	-14.85
242.907	75.26
243.124	7.68
243.341	26.11
243.558	-41.47
243.775	52.74
243.992	9.73
244.209	71.17
244.426	17.92
244.643	83.45
244.86	38.4
245.078	42.5
245.295	26.11
245.512	34.3
245.729	-39.42
245.946	-10.75
246.163	-6.66
246.38	-29.18
246.597	28.16
246.814	-20.99
247.031	38.4
247.248	-4.61
247.464	46.59
247.681	17.92
247.898	26.11
248.115	28.16
248.332	28.16
248.549	134.65
248.766	95.74
248.983	46.59
249.2	15.87
249.417	7.68
249.633	42.5
249.85	83.45
250.067	24.06
250.284	-6.66
250.501	42.5
250.717	69.12
250.934	9.73
251.151	-35.33
251.368	28.16
251.585	46.59
251.801	19.97
252.018	-37.38
252.235	-20.99
252.451	28.16
252.668	5.63
252.885	34.3
253.102	1.54
253.318	50.69
253.535	-12.8
253.752	-6.66
253.968	-23.04
254.185	5.63
254.401	11.78
254.618	44.54
254.835	-25.09
255.051	91.65
255.268	19.97
255.484	42.5
255.701	28.16
255.917	69.12
256.134	5.63
256.351	-14.85
256.567	-31.23
256.784	9.73
257	48.64
257.217	-12.8
257.433	60.93
257.65	-59.9
257.866	28.16
258.082	3.58
258.299	26.11
258.515	-12.8
258.732	-2.56
258.948	11.78
259.165	36.35
259.381	-31.23
259.597	36.35
259.814	95.74
260.03	38.4
260.246	-37.38
260.463	85.5
260.679	22.02
260.895	17.92
261.112	60.93
261.328	67.07
261.544	-10.75
261.761	99.84
261.977	-18.94
262.193	-31.23
262.409	79.36
262.626	69.12
262.842	13.82
263.058	48.64
263.274	42.5
263.49	-12.8
263.707	58.88
263.923	34.3
264.139	3.58
264.355	48.64
264.571	108.03
264.787	22.02
265.004	46.59
265.22	-14.85
265.436	13.82
265.652	1.54
265.868	46.59
266.084	24.06
266.3	50.69
266.516	7.68
266.732	140.8
266.948	30.21
267.164	34.3
267.38	28.16
267.596	54.78
267.812	110.08
268.028	17.92
268.244	19.97
268.46	79.36
268.676	34.3
268.892	30.21
269.108	9.73
269.324	24.06
269.54	-45.57
269.756	85.5
269.972	-29.18
270.188	28.16
270.403	110.08
270.619	32.26
270.835	77.31
271.051	-23.04
271.267	32.26
271.483	34.3
271.698	30.21
271.914	140.8
272.13	28.16
272.346	-20.99
272.562	1.54
272.777	52.74
272.993	-6.66
273.209	38.4
273.425	-18.94
273.64	58.88
273.856	34.3
274.072	26.11
274.287	11.78
274.503	56.83
274.719	11.78
274.934	24.06
275.15	-33.28
275.366	99.84
275.581	-10.75
275.797	50.69
276.012	19.97
276.228	60.93
276.444	9.73
276.659	108.03
276.875	44.54
277.09	1.54
277.306	-47.62
277.521	67.07
277.737	52.74
277.952	9.73
278.168	-23.04
278.383	22.02
278.599	22.02
278.814	42.5
279.03	1.54
279.245	44.54
279.461	58.88
279.676	42.5
279.892	9.73
280.107	44.54
280.322	26.11
280.538	9.73
280.753	-23.04
280.969	-12.8
281.184	-33.28
281.399	54.78
281.615	48.64
281.83	73.21
282.045	34.3
282.26	3.58
282.476	-20.99
282.691	52.74
282.906	50.69
283.122	42.5
283.337	-6.66
283.552	-2.56
283.767	-31.23
283.983	110.08
284.198	-27.14
284.413	42.5
284.628	-20.99
284.843	-51.71
285.058	52.74
285.274	60.93
285.489	-35.33
285.704	-14.85
285.919	34.3
286.134	91.65
286.349	-25.09
286.564	-12.8
286.779	48.64
286.995	46.59
287.21	-27.14
287.425	42.5
287.64	19.97
287.855	46.59
288.07	32.26
288.285	99.84
288.5	24.06
288.715	9.73
288.93	26.11
289.145	-29.18
289.36	42.5
289.575	67.07
289.79	-61.95
290.004	17.92
290.219	65.02
290.434	40.45
290.649	5.63
290.864	13.82
291.079	11.78
291.294	24.06
291.509	44.54
291.724	-6.66
291.938	-18.94
292.153	46.59
292.368	110.08
292.583	-6.66
292.798	17.92
293.012	30.21
293.227	42.5
293.442	26.11
293.657	60.93
293.871	34.3
294.086	22.02
294.301	103.93
294.516	-10.75
294.73	-14.85
294.945	-25.09
295.16	42.5
295.374	46.59
295.589	75.26
295.804	13.82
296.018	42.5
296.233	75.26
296.447	50.69
296.662	34.3
296.877	105.98
297.091	-6.66
297.306	5.63
297.52	48.64
297.735	71.17
297.949	30.21
298.164	77.31
298.378	-80.38
298.593	-16.9
298.807	40.45
299.022	3.58
299.236	67.07
299.451	60.93
299.665	79.36
299.88	-2.56
300.094	9.73
300.309	50.69
300.523	52.74
300.737	50.69
300.952	-12.8
301.166	13.82
301.381	3.58
301.595	11.78
301.809	17.92
302.024	-14.85
302.238	1.54
302.452	114.17
302.667	-37.38
302.881	44.54
303.095	-49.66
303.309	69.12
303.524	11.78
303.738	24.06
303.952	-31.23
304.166	58.88
304.381	-59.9
304.595	110.08
304.809	-59.9
305.023	99.84
305.237	30.21
305.452	5.63
305.666	24.06
305.88	-31.23
306.094	110.08
306.308	36.35
306.522	60.93
306.736	81.41
306.95	52.74
307.164	42.5
307.379	26.11
307.593	48.64
307.807	50.69
308.021	34.3
308.235	75.26
308.449	9.73
308.663	-31.23
308.877	52.74
309.091	-12.8
309.305	110.08
309.519	-27.14
309.733	1.54
309.947	-53.76
310.161	11.78
310.374	-8.7
310.588	71.17
310.802	-27.14
311.016	11.78
311.23	5.63
311.444	-23.04
311.658	17.92
311.872	93.69
312.085	-14.85
312.299	42.5
312.513	75.26
312.727	5.63
312.941	-29.18
313.154	17.92
313.368	26.11
313.582	-45.57
313.796	19.97
314.009	17.92
314.223	-33.28
314.437	34.3
314.651	65.02
314.864	65.02
315.078	-59.9
315.292	-35.33
315.505	-31.23
315.719	65.02
315.933	42.5
316.146	17.92
316.36	22.02
316.573	83.45
316.787	-6.66
317.001	24.06
317.214	40.45
317.428	5.63
317.641	56.83
317.855	85.5
318.068	-10.75
318.282	9.73
318.495	62.98
318.709	75.26
318.922	44.54
319.136	87.55
319.349	50.69
319.563	-6.66
319.776	95.74
319.99	22.02
320.203	60.93
320.417	58.88
320.63	60.93
320.843	71.17
321.057	42.5
321.27	38.4
321.483	60.93
321.697	36.35
321.91	42.5
322.124	30.21
322.337	85.5
322.55	13.82
322.763	71.17
322.977	34.3
323.19	34.3
323.403	-39.42
323.617	-16.9
323.83	67.07
324.043	38.4
324.256	46.59
324.469	-39.42
324.683	-33.28
324.896	46.59
325.109	95.74
325.322	42.5
325.535	32.26
325.748	62.98
325.962	44.54
326.175	-23.04
326.388	50.69
326.601	44.54
326.814	48.64
327.027	13.82
327.24	65.02
327.453	5.63
327.666	50.69
327.879	83.45
328.092	42.5
328.305	22.02
328.518	54.78
328.731	-4.61
328.944	97.79
329.157	50.69
329.37	81.41
329.583	28.16
329.796	110.08
330.009	52.74
330.222	75.26
330.435	34.3
330.648	1.54
330.861	32.26
331.073	83.45
331.286	42.5
331.499	5.63
331.712	-20.99
331.925	30.21
332.138	9.73
332.35	17.92
332.563	67.07
332.776	11.78
332.989	17.92
333.202	9.73
333.414	22.02
333.627	-2.56
333.84	44.54
334.053	26.11
334.265	-59.9
334.478	42.5
334.691	22.02
334.903	-10.75
335.116	24.06
335.329	9.73
335.541	103.93
335.754	46.59
335.966	11.78
336.179	50.69
336.392	5.63
336.604	83.45
336.817	40.45
337.029	50.69
337.242	-59.9
337.454	97.79
337.667	83.45
337.88	52.74
338.092	42.5
338.305	118.27
338.517	13.82
338.729	95.74
338.942	-14.85
339.154	-2.56
339.367	9.73
339.579	30.21
339.792	1.54
340.004	60.93
340.217	69.12
340.429	87.55
340.641	-39.42
340.854	19.97
341.066	30.21
341.278	75.26
341.491	67.07
341.703	-16.9
341.915	7.68
342.128	50.69
342.34	87.55
342.552	9.73
342.764	22.02
342.977	44.54
343.189	32.26
343.401	58.88
343.613	-35.33
343.826	3.58
344.038	-4.61
344.25	38.4
344.462	3.58
344.674	42.5
344.886	36.35
345.099	52.74
345.311	42.5
345.523	-2.56
345.735	30.21
345.947	67.07
346.159	83.45
346.371	52.74
346.583	99.84
346.795	79.36
347.007	-8.7
347.219	42.5
347.431	9.73
347.643	79.36
347.855	-12.8
348.067	142.85
348.279	24.06
348.491	36.35
348.703	9.73
348.915	-45.57
349.127	3.58
349.339	42.5
349.551	1.54
349.763	101.89
349.975	19.97
350.187	-2.56
350.399	46.59
350.61	77.31
350.822	-0.51
351.034	93.69
351.246	34.3
351.458	85.5
351.669	52.74
351.881	79.36
352.093	71.17
352.305	140.8
352.517	28.16
352.728	46.59
352.94	-47.62
353.152	69.12
353.363	17.92
353.575	36.35
353.787	114.17
353.999	54.78
354.21	128.51
354.422	34.3
354.633	36.35
354.845	-18.94
355.057	50.69
355.268	52.74
355.48	99.84
355.692	-10.75
355.903	1.54
356.115	87.55
356.326	83.45
356.538	60.93
356.749	-43.52
356.961	140.8
357.172	71.17
357.384	34.3
357.595	30.21
357.807	9.73
358.018	-2.56
358.23	9.73
358.441	112.13
358.653	26.11
358.864	42.5
359.075	-4.61
359.287	83.45
359.498	69.12
359.709	-20.99
359.921	26.11
360.132	67.07
360.344	118.27
360.555	26.11
360.766	15.87
360.977	36.35
361.189	11.78
361.4	42.5
361.611	54.78
361.823	46.59
362.034	108.03
362.245	58.88
362.456	116.22
362.667	71.17
362.879	28.16
363.09	65.02
363.301	50.69
363.512	-6.66
363.723	34.3
363.935	-6.66
364.146	69.12
364.357	9.73
364.568	110.08
364.779	-20.99
364.99	101.89
365.201	-6.66
365.412	116.22
365.623	-10.75
365.834	60.93
366.045	54.78
366.256	73.21
366.467	-20.99
366.678	71.17
366.889	95.74
367.1	7.68
367.311	42.5
367.522	15.87
367.733	19.97
367.944	60.93
368.155	-14.85
368.366	13.82
368.577	46.59
368.788	73.21
368.999	85.5
369.209	85.5
369.42	83.45
369.631	60.93
369.842	91.65
370.053	28.16
370.264	91.65
370.474	69.12
370.685	60.93
370.896	34.3
371.107	46.59
371.317	-12.8
371.528	9.73
371.739	93.69
371.95	42.5
372.16	58.88
372.371	54.78
372.582	26.11
372.792	173.57
373.003	93.69
373.214	71.17
373.424	52.74
373.635	62.98
373.846	114.17
374.056	85.5
374.267	67.07
374.477	58.88
374.688	13.82
374.898	38.4
375.109	52.74
375.319	60.93
375.53	77.31
375.74	-18.94
375.951	85.5
376.161	13.82
376.372	62.98
376.582	101.89
376.793	46.59
377.003	32.26
377.214	-4.61
377.424	134.65
377.635	44.54
377.845	34.3
378.055	-4.61
378.266	-6.66
378.476	28.16
378.686	99.84
378.897	58.88
379.107	81.41
379.317	83.45
379.528	1.54
379.738	91.65
379.948	-25.09
380.158	62.98
380.369	48.64
380.579	13.82
380.789	30.21
380.999	52.74
381.21	77.31
381.42	136.7
381.63	-49.66
381.84	-27.14
382.05	116.22
382.261	71.17
382.471	46.59
382.681	1.54
382.891	69.12
383.101	79.36
383.311	19.97
383.521	28.16
383.731	120.32
383.941	-20.99
384.151	110.08
384.361	83.45
384.571	67.07
384.781	97.79
384.991	46.59
385.201	83.45
385.411	116.22
385.621	75.26
385.831	46.59
386.041	93.69
386.251	40.45
386.461	95.74
386.671	17.92
386.881	42.5
387.091	46.59
387.301	69.12
387.511	38.4
387.72	-0.51
387.93	46.59
388.14	50.69
388.35	50.69
388.56	108.03
388.769	71.17
388.979	-14.85
389.189	32.26
389.399	73.21
389.609	42.5
389.818	91.65
390.028	34.3
390.238	58.88
390.447	46.59
390.657	93.69
390.867	56.83
391.076	91.65
391.286	50.69
391.496	91.65
391.705	67.07
391.915	17.92
392.125	67.07
392.334	44.54
392.544	105.98
392.753	71.17
392.963	69.12
393.172	77.31
393.382	-2.56
393.591	126.46
393.801	122.37
394.01	3.58
394.22	-12.8
394.429	-109.05
394.639	54.78
394.848	60.93
395.058	30.21
395.267	79.36
395.477	85.5
395.686	108.03
395.895	75.26
396.105	89.6
396.314	62.98
396.524	103.93
396.733	114.17
396.942	167.42
397.152	134.65
397.361	165.37
397.57	163.33
397.78	93.69
397.989	173.57
398.198	67.07
398.407	69.12
398.617	169.47
398.826	95.74
399.035	19.97
399.244	85.5
399.453	87.55
399.663	95.74
399.872	34.3
400.081	232.96
400.29	83.45
400.499	19.97
400.708	173.57
400.917	67.07
401.127	112.13
401.336	91.65
401.545	173.57
401.754	142.85
401.963	153.09
402.172	126.46
402.381	99.84
402.59	140.8
402.799	165.37
403.008	175.61
403.217	151.04
403.426	91.65
403.635	101.89
403.844	87.55
404.053	148.99
404.262	169.47
404.471	165.37
404.68	144.89
404.888	93.69
405.097	142.85
405.306	214.52
405.515	175.61
405.724	161.28
405.933	159.23
406.142	206.33
406.35	210.43
406.559	226.81
406.768	271.87
406.977	116.22
407.185	263.68
407.394	312.83
407.603	222.72
407.812	278.01
408.02	232.96
408.229	280.06
408.438	232.96
408.646	263.68
408.855	232.96
409.064	251.39
409.272	306.68
409.481	366.07
409.69	261.63
409.898	298.49
410.107	347.64
410.315	296.44
410.524	321.02
410.733	409.08
410.941	445.95
411.15	404.99
411.358	343.55
411.567	493.05
411.775	466.42
411.984	577.02
412.192	517.62
412.401	550.39
412.609	611.83
412.818	585.21
413.026	595.45
413.234	624.12
413.443	626.17
413.651	577.02
413.86	712.18
414.068	611.83
414.276	703.99
414.485	632.31
414.693	732.66
414.901	886.26
415.11	763.38
415.318	845.3
415.526	849.4
415.734	873.97
415.943	968.18
416.151	861.68
416.359	894.45
416.567	1068.53
416.776	1021.42
416.984	1099.25
417.192	1224.17
417.4	1091.06
417.608	1086.96
417.817	1185.26
418.025	1220.08
418.233	1361.39
418.441	1269.23
418.649	1369.58
418.857	1410.54
419.065	1517.03
419.273	1463.79
419.481	1537.51
419.689	1727.97
419.897	1775.08
420.105	1654.25
420.313	1758.69
420.521	1844.71
420.729	1768.93
420.937	1869.28
421.145	2002.4
421.353	2065.89
421.561	2258.4
421.769	2250.21
421.977	2280.93
422.185	2268.64
422.393	2356.7
422.601	2649.56
422.809	2465.24
423.017	2622.94
423.224	2536.92
423.432	2762.2
423.64	2860.5
423.848	3036.63
424.056	3024.34
424.263	3229.13
424.471	3145.17
424.679	3253.71
424.887	3468.75
425.094	3476.94
425.302	3622.34
425.51	3706.31
425.718	3935.68
425.925	3851.72
426.133	3909.06
426.341	4218.3
426.548	4595.13
426.756	4404.67
426.964	4400.57
427.171	4705.72
427.379	4877.75
427.586	5021.11
427.794	5221.81
428.001	5264.82
428.209	5584.3
428.417	5500.33
428.624	5830.06
428.832	5836.2
429.039	5694.89
429.247	5801.38
429.454	6342.05
429.662	6671.77
429.869	6428.06
430.076	6811.03
430.284	6606.24
430.491	6948.25
430.699	7421.33
430.906	7247.25
431.114	7312.78
431.321	7583.12
431.528	7832.97
431.736	8203.65
431.943	8656.25
432.15	8504.7
432.358	8478.08
432.565	9006.45
432.772	8826.23
432.979	9508.21
433.187	9520.49
433.394	9565.55
433.601	10095.97
433.808	10464.61
434.016	10274.15
434.223	10800.48
434.43	11500.88
434.637	10995.03
434.844	12019.02
435.052	12055.88
435.259	12002.63
435.466	11945.29
435.673	12084.55
435.88	12676.41
436.087	13483.31
436.294	13391.16
436.501	13063.48
436.708	13258.04
436.915	13526.32
437.122	14548.26
437.329	14322.98
437.537	14613.79
437.743	14953.76
437.95	14841.12
438.157	15680.78
438.364	16301.32
438.571	16319.75
438.778	16280.84
438.985	17812.72
439.192	16971.01
439.399	17646.83
439.606	17151.23
439.813	18265.32
440.02	19604.69
440.227	18715.87
440.433	18666.72
440.64	19244.25
440.847	19315.93
441.054	19573.97
441.261	20718.79
441.467	20665.54
441.674	21193.92
441.881	21505.21
442.088	21771.44
442.294	21568.69
442.501	22152.37
442.708	22736.04
442.914	23608.47
443.121	24630.41
443.328	24009.87
443.534	25203.84
443.741	24861.83
443.948	24202.38
444.154	26244.21
444.361	25994.36
444.568	26244.21
444.774	25840.76
444.981	26317.93
445.187	26954.85
445.394	28419.15
445.6	28046.42
445.807	30587.95
446.013	29307.97
446.22	30133.3
446.426	31126.57
446.633	31306.79
446.839	32300.05
447.046	30979.11
447.252	32586.77
447.459	32508.94
447.665	32594.96
447.871	33963
448.078	35308.52
448.284	33717.25
448.491	34839.53
448.697	36084.7
448.903	36658.13
449.11	36860.88
449.316	36416.47
449.522	36821.97
449.728	37903.29
449.935	38144.95
450.141	38224.82
450.347	38906.8
450.553	37878.72
450.76	38204.35
450.966	39467.94
451.172	39287.72
451.378	40039.33
451.584	39033.77
451.791	40190.87
451.997	39973.79
452.203	40907.66
452.409	40770.45
452.615	40407.96
452.821	39033.77
453.027	38894.51
453.233	40506.26
453.44	39111.6
453.646	39455.65
453.852	39513
454.058	40094.62
454.264	39199.66
454.47	40102.81
454.676	38630.32
454.882	39820.19
455.088	37075.91
455.294	37315.53
455.5	38167.48
455.705	38515.64
455.911	36864.97
456.117	35984.35
456.323	35603.42
456.529	33969.15
456.735	35113.96
456.941	34518
457.147	33833.98
457.352	33166.34
457.558	32627.73
457.764	32625.68
457.97	31826.97
458.176	31454.24
458.381	31509.54
458.587	30018.61
458.793	29639.74
458.999	28124.24
459.204	30561.33
459.41	29258.82
459.616	27618.39
459.821	27663.45
460.027	27368.54
460.233	26991.72
460.438	25920.63
460.644	25695.35
460.85	24599.69
461.055	24579.21
461.261	24269.97
461.466	22502.57
461.672	21929.14
461.878	23102.62
462.083	21791.92
462.289	21394.62
462.494	20950.21
462.7	20264.14
462.905	19811.54
463.111	20378.83
463.316	20593.86
463.522	19825.87
463.727	20270.28
463.932	19954.9
464.138	19764.43
464.343	20079.82
464.549	19207.39
464.754	19981.52
464.959	19733.71
465.165	19657.94
465.37	19008.73
465.575	18638.05
465.781	19150.04
465.986	19244.25
466.191	18404.58
466.397	18158.83
466.602	17429.75
466.807	18021.61
467.012	17708.27
467.218	17818.86
467.423	17671.41
467.628	17718.51
467.833	18715.87
468.038	17794.29
