Data from USB4F104151__146__14-19-23-230.txt Node

Date: Thu Mar 13 14:19:23 EDT 2025
User: louis
Spectrometer: USB4F10415
Trigger mode: 4
Integration Time (sec): 2.000000E-2
Scans to average: 1
Electric dark correction enabled: true
Nonlinearity correction enabled: false
Boxcar width: 0
XAxis mode: Wavelengths
Number of Pixels in Spectrum: 3648
>>>>>Begin Spectral Data<<<<<
178.204	-117.59
178.424	-117.59
178.644	-117.59
178.864	-193.36
179.084	-56.15
179.304	-0.85
179.524	48.3
179.744	7.34
179.964	1.19
180.184	-9.05
180.404	11.43
180.624	-17.24
180.844	-23.38
181.064	-31.57
181.283	-29.52
181.503	11.43
181.723	31.91
181.943	-29.52
182.163	48.3
182.383	-11.09
182.602	50.35
182.822	17.58
183.042	11.43
183.262	17.58
183.482	25.77
183.701	7.34
183.921	64.68
184.141	33.96
184.361	99.5
184.58	50.35
184.8	40.11
185.02	15.53
185.239	31.91
185.459	48.3
185.679	70.83
185.898	-56.15
186.118	91.31
186.338	-29.52
186.557	21.67
186.777	-29.52
186.997	42.15
187.216	29.87
187.436	70.83
187.655	95.4
187.875	64.68
188.095	31.91
188.314	27.82
188.534	25.77
188.753	81.07
188.973	101.55
189.192	74.92
189.412	66.73
189.631	42.15
189.851	-19.29
190.07	44.2
190.29	-11.09
190.509	23.72
190.729	33.96
190.948	85.16
191.168	122.02
191.387	81.07
191.607	21.67
191.826	58.54
192.045	81.07
192.265	3.24
192.484	107.69
192.704	13.48
192.923	-15.19
193.142	89.26
193.362	33.96
193.581	115.88
193.8	60.59
194.02	74.92
194.239	13.48
194.458	25.77
194.678	-37.72
194.897	11.43
195.116	3.24
195.335	23.72
195.555	152.74
195.774	-2.9
195.993	15.53
196.212	23.72
196.432	25.77
196.651	146.6
196.87	-33.62
197.089	99.5
197.308	56.49
197.528	101.55
197.747	-13.14
197.966	-23.38
198.185	91.31
198.404	40.11
198.623	25.77
198.842	91.31
199.062	54.44
199.281	72.87
199.5	-9.05
199.719	-2.9
199.938	29.87
200.157	91.31
200.376	52.39
200.595	99.5
200.814	-9.05
201.033	1.19
201.252	83.11
201.471	48.3
201.69	72.87
201.909	44.2
202.128	81.07
202.347	48.3
202.566	58.54
202.785	48.3
203.004	9.39
203.223	64.68
203.442	40.11
203.661	-35.67
203.879	36.01
204.098	72.87
204.317	17.58
204.536	38.06
204.755	72.87
204.974	74.92
205.193	68.78
205.411	122.02
205.63	19.63
205.849	23.72
206.068	25.77
206.287	58.54
206.505	42.15
206.724	107.69
206.943	52.39
207.162	44.2
207.381	109.74
207.599	-52.05
207.818	-41.81
208.037	9.39
208.255	42.15
208.474	23.72
208.693	7.34
208.911	9.39
209.13	99.5
209.349	70.83
209.567	36.01
209.786	48.3
210.005	74.92
210.223	17.58
210.442	36.01
210.661	3.24
210.879	93.35
211.098	44.2
211.316	68.78
211.535	15.53
211.753	29.87
211.972	66.73
212.191	31.91
212.409	48.3
212.628	-9.05
212.846	31.91
213.065	11.43
213.283	85.16
213.502	7.34
213.72	99.5
213.938	48.3
214.157	33.96
214.375	-17.24
214.594	64.68
214.812	19.63
215.031	85.16
215.249	60.59
215.467	-9.05
215.686	15.53
215.904	17.58
216.122	62.63
216.341	1.19
216.559	89.26
216.778	1.19
216.996	70.83
217.214	17.58
217.432	87.21
217.651	15.53
217.869	-23.38
218.087	72.87
218.306	7.34
218.524	46.25
218.742	1.19
218.96	54.44
219.179	40.11
219.397	-35.67
219.615	17.58
219.833	64.68
220.051	64.68
220.27	31.91
220.488	144.55
220.706	15.53
220.924	31.91
221.142	62.63
221.36	-58.2
221.578	60.59
221.796	29.87
222.015	42.15
222.233	25.77
222.451	36.01
222.669	-27.48
222.887	52.39
223.105	72.87
223.323	105.64
223.541	50.35
223.759	58.54
223.977	52.39
224.195	81.07
224.413	107.69
224.631	3.24
224.849	-39.76
225.067	130.22
225.285	21.67
225.503	-25.43
225.721	40.11
225.939	36.01
226.157	109.74
226.375	91.31
226.592	25.77
226.81	50.35
227.028	44.2
227.246	1.19
227.464	42.15
227.682	7.34
227.9	52.39
228.117	36.01
228.335	23.72
228.553	42.15
228.771	74.92
228.989	-25.43
229.206	66.73
229.424	62.63
229.642	1.19
229.86	23.72
230.077	38.06
230.295	31.91
230.513	72.87
230.731	56.49
230.948	81.07
231.166	36.01
231.384	93.35
231.601	1.19
231.819	81.07
232.037	56.49
232.254	3.24
232.472	-33.62
232.689	31.91
232.907	42.15
233.125	40.11
233.342	68.78
233.56	81.07
233.777	81.07
233.995	64.68
234.213	89.26
234.43	44.2
234.648	15.53
234.865	-4.95
235.083	113.83
235.3	-47.96
235.518	11.43
235.735	76.97
235.953	25.77
236.17	31.91
236.388	48.3
236.605	15.53
236.822	136.36
237.04	72.87
237.257	81.07
237.475	-0.85
237.692	68.78
237.909	-17.24
238.127	9.39
238.344	7.34
238.562	29.87
238.779	13.48
238.996	23.72
239.214	31.91
239.431	21.67
239.648	-11.09
239.865	7.34
240.083	74.92
240.3	64.68
240.517	27.82
240.735	52.39
240.952	23.72
241.169	15.53
241.386	11.43
241.603	-17.24
241.821	25.77
242.038	-25.43
242.255	101.55
242.472	13.48
242.689	66.73
242.907	52.39
243.124	83.11
243.341	31.91
243.558	-41.81
243.775	-37.72
243.992	72.87
244.209	81.07
244.426	117.93
244.643	56.49
244.86	81.07
245.078	58.54
245.295	7.34
245.512	68.78
245.729	15.53
245.946	56.49
246.163	27.82
246.38	72.87
246.597	-0.85
246.814	64.68
247.031	81.07
247.248	113.83
247.464	115.88
247.681	56.49
247.898	7.34
248.115	23.72
248.332	-7
248.549	64.68
248.766	81.07
248.983	97.45
249.2	93.35
249.417	56.49
249.633	33.96
249.85	150.7
250.067	89.26
250.284	113.83
250.501	1.19
250.717	19.63
250.934	-39.76
251.151	1.19
251.368	95.4
251.585	72.87
251.801	-15.19
252.018	56.49
252.235	72.87
252.451	25.77
252.668	76.97
252.885	66.73
253.102	31.91
253.318	64.68
253.535	68.78
253.752	19.63
253.968	9.39
254.185	27.82
254.401	54.44
254.618	33.96
254.835	56.49
255.051	138.41
255.268	15.53
255.484	68.78
255.701	81.07
255.917	56.49
256.134	-31.57
256.351	-0.85
256.567	-17.24
256.784	17.58
257	-4.95
257.217	-41.81
257.433	29.87
257.65	81.07
257.866	70.83
258.082	-7
258.299	17.58
258.515	42.15
258.732	91.31
258.948	-17.24
259.165	44.2
259.381	11.43
259.597	56.49
259.814	81.07
260.03	23.72
260.246	105.64
260.463	66.73
260.679	42.15
260.895	107.69
261.112	91.31
261.328	38.06
261.544	25.77
261.761	105.64
261.977	87.21
262.193	40.11
262.409	64.68
262.626	40.11
262.842	93.35
263.058	109.74
263.274	36.01
263.49	-9.05
263.707	126.12
263.923	25.77
264.139	-23.38
264.355	7.34
264.571	62.63
264.787	33.96
265.004	122.02
265.22	64.68
265.436	15.53
265.652	15.53
265.868	138.41
266.084	64.68
266.3	40.11
266.516	1.19
266.732	-21.33
266.948	101.55
267.164	25.77
267.38	109.74
267.596	113.83
267.812	105.64
268.028	64.68
268.244	31.91
268.46	36.01
268.676	3.24
268.892	11.43
269.108	5.29
269.324	21.67
269.54	-25.43
269.756	66.73
269.972	7.34
270.188	31.91
270.403	91.31
270.619	64.68
270.835	-4.95
271.051	23.72
271.267	-41.81
271.483	-9.05
271.698	-0.85
271.914	9.39
272.13	56.49
272.346	-23.38
272.562	54.44
272.777	89.26
272.993	87.21
273.209	-4.95
273.425	60.59
273.64	48.3
273.856	1.19
274.072	54.44
274.287	-37.72
274.503	97.45
274.719	33.96
274.934	58.54
275.15	1.19
275.366	83.11
275.581	36.01
275.797	101.55
276.012	25.77
276.228	72.87
276.444	42.15
276.659	76.97
276.875	-33.62
277.09	68.78
277.306	105.64
277.521	-9.05
277.737	-54.1
277.952	89.26
278.168	58.54
278.383	56.49
278.599	-0.85
278.814	91.31
279.03	7.34
279.245	15.53
279.461	44.2
279.676	76.97
279.892	-25.43
280.107	64.68
280.322	95.4
280.538	-13.14
280.753	-33.62
280.969	97.45
281.184	5.29
281.399	64.68
281.615	64.68
281.83	105.64
282.045	25.77
282.26	-25.43
282.476	105.64
282.691	64.68
282.906	3.24
283.122	-0.85
283.337	33.96
283.552	31.91
283.767	27.82
283.983	113.83
284.198	54.44
284.413	79.02
284.628	54.44
284.843	36.01
285.058	60.59
285.274	31.91
285.489	-11.09
285.704	50.35
285.919	64.68
286.134	56.49
286.349	64.68
286.564	31.91
286.779	72.87
286.995	91.31
287.21	29.87
287.425	107.69
287.64	81.07
287.855	83.11
288.07	72.87
288.285	42.15
288.5	146.6
288.715	60.59
288.93	-54.1
289.145	27.82
289.36	126.12
289.575	109.74
289.79	146.6
290.004	17.58
290.219	44.2
290.434	44.2
290.649	19.63
290.864	31.91
291.079	1.19
291.294	31.91
291.509	44.2
291.724	97.45
291.938	23.72
292.153	15.53
292.368	25.77
292.583	50.35
292.798	87.21
293.012	101.55
293.227	76.97
293.442	17.58
293.657	48.3
293.871	64.68
294.086	48.3
294.301	48.3
294.516	7.34
294.73	74.92
294.945	31.91
295.16	50.35
295.374	19.63
295.589	60.59
295.804	40.11
296.018	72.87
296.233	56.49
296.447	81.07
296.662	-0.85
296.877	97.45
297.091	31.91
297.306	85.16
297.52	130.22
297.735	-9.05
297.949	33.96
298.164	76.97
298.378	68.78
298.593	31.91
298.807	38.06
299.022	48.3
299.236	72.87
299.451	-17.24
299.665	-33.62
299.88	11.43
300.094	113.83
300.309	33.96
300.523	72.87
300.737	52.39
300.952	31.91
301.166	113.83
301.381	7.34
301.595	68.78
301.809	50.35
302.024	38.06
302.238	107.69
302.452	58.54
302.667	15.53
302.881	9.39
303.095	50.35
303.309	91.31
303.524	-39.76
303.738	91.31
303.952	72.87
304.166	83.11
304.381	23.72
304.595	64.68
304.809	-2.9
305.023	52.39
305.237	25.77
305.452	72.87
305.666	7.34
305.88	81.07
306.094	89.26
306.308	105.64
306.522	72.87
306.736	-0.85
306.95	27.82
307.164	15.53
307.379	81.07
307.593	105.64
307.807	89.26
308.021	76.97
308.235	25.77
308.449	19.63
308.663	23.72
308.877	119.98
309.091	48.3
309.305	74.92
309.519	-9.05
309.733	-4.95
309.947	-15.19
310.161	-7
310.374	-9.05
310.588	183.46
310.802	15.53
311.016	60.59
311.23	62.63
311.444	29.87
311.658	25.77
311.872	91.31
312.085	50.35
312.299	101.55
312.513	72.87
312.727	113.83
312.941	-66.39
313.154	-23.38
313.368	33.96
313.582	33.96
313.796	5.29
314.009	72.87
314.223	42.15
314.437	60.59
314.651	56.49
314.864	64.68
315.078	17.58
315.292	23.72
315.505	99.5
315.719	81.07
315.933	130.22
316.146	64.68
316.36	85.16
316.573	-23.38
316.787	31.91
317.001	93.35
317.214	7.34
317.428	113.83
317.641	-54.1
317.855	31.91
318.068	124.07
318.282	91.31
318.495	83.11
318.709	79.02
318.922	64.68
319.136	97.45
319.349	81.07
319.563	64.68
319.776	60.59
319.99	-0.85
320.203	56.49
320.417	21.67
320.63	40.11
320.843	154.79
321.057	105.64
321.27	17.58
321.483	101.55
321.697	17.58
321.91	122.02
322.124	97.45
322.337	7.34
322.55	-9.05
322.763	21.67
322.977	173.22
323.19	17.58
323.403	89.26
323.617	60.59
323.83	72.87
324.043	27.82
324.256	56.49
324.469	3.24
324.683	31.91
324.896	-9.05
325.109	81.07
325.322	-56.15
325.535	60.59
325.748	58.54
325.962	91.31
326.175	81.07
326.388	72.87
326.601	101.55
326.814	113.83
327.027	40.11
327.24	113.83
327.453	-11.09
327.666	85.16
327.879	9.39
328.092	87.21
328.305	89.26
328.518	66.73
328.731	76.97
328.944	-15.19
329.157	79.02
329.37	-11.09
329.583	81.07
329.796	74.92
330.009	89.26
330.222	97.45
330.435	93.35
330.648	79.02
330.861	36.01
331.073	15.53
331.286	68.78
331.499	66.73
331.712	42.15
331.925	-9.05
332.138	25.77
332.35	74.92
332.563	-0.85
332.776	31.91
332.989	52.39
333.202	56.49
333.414	70.83
333.627	-4.95
333.84	-47.96
334.053	62.63
334.265	9.39
334.478	27.82
334.691	33.96
334.903	27.82
335.116	72.87
335.329	17.58
335.541	85.16
335.754	101.55
335.966	101.55
336.179	7.34
336.392	29.87
336.604	50.35
336.817	52.39
337.029	33.96
337.242	40.11
337.454	36.01
337.667	-37.72
337.88	64.68
338.092	103.59
338.305	56.49
338.517	48.3
338.729	72.87
338.942	17.58
339.154	31.91
339.367	15.53
339.579	13.48
339.792	52.39
340.004	36.01
340.217	50.35
340.429	64.68
340.641	95.4
340.854	44.2
341.066	19.63
341.278	56.49
341.491	124.07
341.703	87.21
341.915	31.91
342.128	36.01
342.34	91.31
342.552	31.91
342.764	40.11
342.977	-4.95
343.189	85.16
343.401	58.54
343.613	25.77
343.826	7.34
344.038	-88.92
344.25	17.58
344.462	1.19
344.674	48.3
344.886	31.91
345.099	85.16
345.311	25.77
345.523	83.11
345.735	-27.48
345.947	56.49
346.159	9.39
346.371	46.25
346.583	42.15
346.795	44.2
347.007	36.01
347.219	74.92
347.431	40.11
347.643	76.97
347.855	23.72
348.067	50.35
348.279	-4.95
348.491	50.35
348.703	23.72
348.915	27.82
349.127	-4.95
349.339	17.58
349.551	-41.81
349.763	19.63
349.975	74.92
350.187	115.88
350.399	162.98
350.61	81.07
350.822	-43.86
351.034	9.39
351.246	74.92
351.458	48.3
351.669	42.15
351.881	105.64
352.093	132.26
352.305	58.54
352.517	19.63
352.728	40.11
352.94	81.07
353.152	48.3
353.363	44.2
353.575	72.87
353.787	81.07
353.999	122.02
354.21	97.45
354.422	64.68
354.633	60.59
354.845	126.12
355.057	-41.81
355.268	-23.38
355.48	27.82
355.692	62.63
355.903	83.11
356.115	64.68
356.326	23.72
356.538	42.15
356.749	17.58
356.961	81.07
357.172	-4.95
357.384	1.19
357.595	148.65
357.807	56.49
358.018	-7
358.23	58.54
358.441	128.17
358.653	165.03
358.864	40.11
359.075	60.59
359.287	40.11
359.498	89.26
359.709	23.72
359.921	31.91
360.132	36.01
360.344	-23.38
360.555	11.43
360.766	50.35
360.977	113.83
361.189	68.78
361.4	19.63
361.611	46.25
361.823	44.2
362.034	3.24
362.245	31.91
362.456	15.53
362.667	31.91
362.879	70.83
363.09	-33.62
363.301	107.69
363.512	72.87
363.723	56.49
363.935	66.73
364.146	60.59
364.357	107.69
364.568	62.63
364.779	25.77
364.99	56.49
365.201	-31.57
365.412	115.88
365.623	7.34
365.834	33.96
366.045	68.78
366.256	76.97
366.467	-0.85
366.678	56.49
366.889	40.11
367.1	56.49
367.311	134.31
367.522	103.59
367.733	115.88
367.944	1.19
368.155	105.64
368.366	128.17
368.577	160.94
368.788	64.68
368.999	-15.19
369.209	64.68
369.42	81.07
369.631	146.6
369.842	56.49
370.053	52.39
370.264	56.49
370.474	56.49
370.685	95.4
370.896	1.19
371.107	171.18
371.317	15.53
371.528	33.96
371.739	91.31
371.95	122.02
372.16	58.54
372.371	3.24
372.582	52.39
372.792	-4.95
373.003	29.87
373.214	132.26
373.424	113.83
373.635	7.34
373.846	171.18
374.056	64.68
374.267	-31.57
374.477	-25.43
374.688	70.83
374.898	56.49
375.109	40.11
375.319	40.11
375.53	58.54
375.74	97.45
375.951	64.68
376.161	115.88
376.372	146.6
376.582	40.11
376.793	97.45
377.003	87.21
377.214	138.41
377.424	40.11
377.635	-0.85
377.845	17.58
378.055	97.45
378.266	36.01
378.476	101.55
378.686	81.07
378.897	117.93
379.107	11.43
379.317	72.87
379.528	56.49
379.738	21.67
379.948	3.24
380.158	44.2
380.369	13.48
380.579	81.07
380.789	7.34
380.999	122.02
381.21	87.21
381.42	97.45
381.63	17.58
381.84	72.87
382.05	81.07
382.261	42.15
382.471	48.3
382.681	33.96
382.891	111.78
383.101	64.68
383.311	38.06
383.521	60.59
383.731	146.6
383.941	60.59
384.151	46.25
384.361	113.83
384.571	105.64
384.781	56.49
384.991	97.45
385.201	85.16
385.411	83.11
385.621	50.35
385.831	25.77
386.041	97.45
386.251	-7
386.461	115.88
386.671	-9.05
386.881	79.02
387.091	13.48
387.301	146.6
387.511	109.74
387.72	33.96
387.93	60.59
388.14	81.07
388.35	97.45
388.56	93.35
388.769	115.88
388.979	87.21
389.189	29.87
389.399	64.68
389.609	31.91
389.818	83.11
390.028	107.69
390.238	97.45
390.447	-7
390.657	64.68
390.867	91.31
391.076	81.07
391.286	124.07
391.496	19.63
391.705	89.26
391.915	97.45
392.125	115.88
392.334	89.26
392.544	113.83
392.753	89.26
392.963	72.87
393.172	142.5
393.382	105.64
393.591	115.88
393.801	72.87
394.01	117.93
394.22	68.78
394.429	64.68
394.639	93.35
394.848	122.02
395.058	99.5
395.267	126.12
395.477	99.5
395.686	85.16
395.895	210.09
396.105	122.02
396.314	134.31
396.524	48.3
396.733	91.31
396.942	171.18
397.152	115.88
397.361	124.07
397.57	70.83
397.78	103.59
397.989	66.73
398.198	113.83
398.407	93.35
398.617	162.98
398.826	130.22
399.035	130.22
399.244	58.54
399.453	113.83
399.663	89.26
399.872	105.64
400.081	19.63
400.29	146.6
400.499	23.72
400.708	187.56
400.917	101.55
401.127	124.07
401.336	130.22
401.545	105.64
401.754	154.79
401.963	146.6
402.172	122.02
402.381	122.02
402.59	134.31
402.799	115.88
403.008	146.6
403.217	93.35
403.426	97.45
403.635	216.23
403.844	62.63
404.053	136.36
404.262	89.26
404.471	203.94
404.68	173.22
404.888	140.46
405.097	126.12
405.306	199.85
405.515	205.99
405.724	117.93
405.933	238.76
406.142	214.18
406.35	310.44
406.559	165.03
406.768	287.91
406.977	220.33
407.185	228.52
407.394	253.09
407.603	175.27
407.812	255.14
408.02	279.72
408.229	308.39
408.438	265.38
408.646	263.33
408.855	253.09
409.064	289.96
409.272	246.95
409.481	375.97
409.69	310.44
409.898	261.29
410.107	312.49
410.315	367.78
410.524	386.21
410.733	380.07
410.941	373.92
411.15	414.88
411.358	451.75
411.567	433.32
411.775	355.49
411.984	414.88
412.192	468.13
412.401	425.12
412.609	591.01
412.818	529.57
413.026	552.1
413.234	552.1
413.443	527.52
413.651	662.69
413.86	560.29
414.068	631.97
414.276	658.59
414.485	726.18
414.693	636.06
414.901	765.09
415.11	730.27
415.318	705.7
415.526	728.22
415.734	763.04
415.943	785.57
416.151	826.53
416.359	861.34
416.567	896.16
416.776	978.08
416.984	1008.8
417.192	1037.47
417.4	965.79
417.608	1027.23
417.817	1051.8
418.025	1139.87
418.233	1158.3
418.441	1154.2
418.649	1311.89
418.857	1299.61
419.065	1354.9
419.273	1301.65
419.481	1496.21
419.689	1539.22
419.897	1602.71
420.105	1506.45
420.313	1561.75
420.521	1674.39
420.729	1660.05
420.937	1705.1
421.145	1850.51
421.353	1911.95
421.561	2024.59
421.769	2018.44
421.977	2086.03
422.185	2161.8
422.393	2180.23
422.601	2376.84
422.809	2268.3
423.017	2401.41
423.224	2530.44
423.432	2571.4
423.64	2477.19
423.848	2774.14
424.056	2688.13
424.263	2958.46
424.471	2907.26
424.679	2901.12
424.887	3138.68
425.094	3353.72
425.302	3202.17
425.51	3316.86
425.718	3499.13
425.925	3538.04
426.133	3603.57
426.341	3787.89
426.548	3900.53
426.756	4086.89
426.964	4086.89
427.171	4189.29
427.379	4482.15
427.586	4578.4
427.794	4486.25
428.001	4820.07
428.209	5104.73
428.417	4949.09
428.624	5252.19
428.832	5192.8
429.039	5289.05
429.247	5327.96
429.454	5667.92
429.662	6061.13
429.869	5868.63
430.076	5975.12
430.284	5921.87
430.491	6104.14
430.699	6440.01
430.906	6603.85
431.114	6609.99
431.321	6653
431.528	7029.82
431.736	7425.08
431.943	7756.85
432.15	7631.93
432.358	7763
432.565	8094.77
432.772	8088.62
432.979	8324.14
433.187	8553.51
433.394	8741.93
433.601	9329.69
433.808	9311.26
434.016	9174.05
434.223	9688.09
434.43	10191.89
434.637	9903.12
434.844	10624.01
435.052	10925.06
435.259	10746.89
435.466	10742.79
435.673	10740.74
435.88	11523.07
436.087	11873.27
436.294	11916.28
436.501	11619.32
436.708	11840.5
436.915	12286.96
437.122	12991.46
437.329	12708.84
437.537	13239.26
437.743	13435.87
437.95	13356
438.157	14013.4
438.364	14232.53
438.571	14504.91
438.778	14437.33
438.985	16018.36
439.192	15082.44
439.399	15807.42
439.606	15465.41
439.813	16137.14
440.02	17066.92
440.227	17173.41
440.433	16530.35
440.64	17290.15
440.847	17118.12
441.054	17449.89
441.261	18754.44
441.467	18367.38
441.674	18828.17
441.881	19655.55
442.088	19528.58
442.294	19186.57
442.501	19760
442.708	20093.82
442.914	21066.6
443.121	21685.09
443.328	21474.15
443.534	22889.29
443.741	22027.1
443.948	21863.26
444.154	22940.49
444.361	23350.09
444.568	23391.05
444.774	23292.74
444.981	23685.95
445.187	24034.11
445.394	25236.27
445.6	25156.39
445.807	27419.4
446.013	26004.25
446.22	26829.59
446.426	27896.58
446.633	28089.09
446.839	28668.66
447.046	27456.26
447.252	29426.41
447.459	29401.83
447.665	29127.41
447.871	30319.32
448.078	31361.74
448.284	30221.02
448.491	30763.73
448.697	32578.23
448.903	32664.25
449.11	32539.32
449.316	32187.07
449.522	32955.06
449.728	33696.42
449.935	33737.38
450.141	33942.18
450.347	34681.5
450.553	33800.87
450.76	33940.13
450.966	35318.42
451.172	34478.75
451.378	35707.53
451.584	34792.09
451.791	35527.31
451.997	36004.49
452.203	36438.65
452.409	36506.24
452.615	35785.35
452.821	34984.6
453.027	34579.1
453.233	36098.69
453.44	34671.26
453.646	35590.8
453.852	35191.44
454.058	36059.78
454.264	34976.4
454.47	35893.89
454.676	34601.63
454.882	36102.79
455.088	32678.58
455.294	33192.62
455.5	33604.27
455.705	34001.57
455.911	32852.66
456.117	32357.05
456.323	31572.68
456.529	29952.74
456.735	31673.03
456.941	30755.54
457.147	30374.62
457.352	29307.63
457.558	29008.62
457.764	29252.33
457.97	28316.41
458.176	28005.12
458.381	28041.98
458.587	26522.39
458.793	26553.11
458.999	25551.65
459.204	27302.67
459.41	26319.64
459.616	24253.24
459.821	24636.21
460.027	24478.52
460.233	23921.47
460.438	22834
460.644	22866.77
460.85	22211.42
461.055	21687.14
461.261	21607.26
461.466	19977.08
461.672	19424.13
461.878	20865.9
462.083	19852.16
462.289	19311.49
462.494	18811.79
462.7	18107.29
462.905	17488.8
463.111	18461.58
463.316	18385.81
463.522	17728.41
463.727	17933.21
463.932	17968.02
464.138	17652.64
464.343	17750.94
464.549	17103.78
464.754	17750.94
464.959	17822.62
465.165	17517.47
465.37	16778.15
465.575	16413.62
465.781	16782.25
465.986	17046.44
466.191	16311.22
466.397	15999.93
466.602	15406.02
466.807	15958.97
467.012	16151.48
467.218	15690.68
