Data from USB4F104151__277__14-23-20-608.txt Node

Date: Thu Mar 13 14:23:20 EDT 2025
User: louis
Spectrometer: USB4F10415
Trigger mode: 4
Integration Time (sec): 2.000000E-2
Scans to average: 1
Electric dark correction enabled: true
Nonlinearity correction enabled: false
Boxcar width: 0
XAxis mode: Wavelengths
Number of Pixels in Spectrum: 3648
>>>>>Begin Spectral Data<<<<<
178.204	-175.95
178.424	-175.95
178.644	-175.95
178.864	-163.67
179.084	-163.67
179.304	18.6
179.524	65.71
179.744	-12.12
179.964	-1.88
180.184	47.27
180.404	-59.22
180.624	-63.32
180.844	4.27
181.064	-14.17
181.283	24.75
181.503	-14.17
181.723	4.27
181.943	-55.12
182.163	12.46
182.383	-42.84
182.602	10.41
182.822	28.84
183.042	-18.26
183.262	45.23
183.482	22.7
183.701	12.46
183.921	22.7
184.141	-102.23
184.361	112.81
184.58	41.13
184.8	-14.17
185.02	16.55
185.239	-18.26
185.459	-20.31
185.679	2.22
185.898	-12.12
186.118	26.79
186.338	-42.84
186.557	26.79
186.777	-30.55
186.997	-46.93
187.216	4.27
187.436	37.03
187.655	22.7
187.875	-22.36
188.095	59.56
188.314	63.66
188.534	39.08
188.753	-14.17
188.973	14.51
189.192	-20.31
189.412	-20.31
189.631	4.27
189.851	12.46
190.07	26.79
190.29	-10.07
190.509	-42.84
190.729	-32.6
190.948	84.14
191.168	57.51
191.387	47.27
191.607	-42.84
191.826	12.46
192.045	34.99
192.265	-8.02
192.484	45.23
192.704	34.99
192.923	-98.13
193.142	-5.97
193.362	96.43
193.581	8.36
193.8	-12.12
194.02	53.42
194.239	16.55
194.458	18.6
194.678	10.41
194.897	34.99
195.116	59.56
195.335	-20.31
195.555	2.22
195.774	-20.31
195.993	-12.12
196.212	18.6
196.432	-63.32
196.651	20.65
196.87	-18.26
197.089	94.38
197.308	43.18
197.528	2.22
197.747	-44.88
197.966	53.42
198.185	16.55
198.404	2.22
198.623	92.33
198.842	39.08
199.062	59.56
199.281	53.42
199.5	-38.74
199.719	47.27
199.938	-10.07
200.157	-22.36
200.376	-26.45
200.595	28.84
200.814	-5.97
201.033	-12.12
201.252	-10.07
201.471	26.79
201.69	-10.07
201.909	53.42
202.128	-10.07
202.347	-3.93
202.566	-34.64
202.785	-28.5
203.004	-20.31
203.223	84.14
203.442	24.75
203.661	49.32
203.879	77.99
204.098	-36.69
204.317	-5.97
204.536	77.99
204.755	-55.12
204.974	30.89
205.193	-53.08
205.411	77.99
205.63	2.22
205.849	14.51
206.068	22.7
206.287	-28.5
206.505	51.37
206.724	51.37
206.943	-22.36
207.162	4.27
207.381	-3.93
207.599	67.75
207.818	-26.45
208.037	-28.5
208.255	-22.36
208.474	57.51
208.693	-28.5
208.911	55.47
209.13	6.31
209.349	28.84
209.567	-5.97
209.786	-5.97
210.005	10.41
210.223	-1.88
210.442	-36.69
210.661	30.89
210.879	30.89
211.098	65.71
211.316	100.52
211.535	14.51
211.753	16.55
211.972	63.66
212.191	-10.07
212.409	2.22
212.628	8.36
212.846	-59.22
213.065	-38.74
213.283	-28.5
213.502	-34.64
213.72	-44.88
213.938	14.51
214.157	12.46
214.375	47.27
214.594	34.99
214.812	0.17
215.031	24.75
215.249	73.9
215.467	-5.97
215.686	2.22
215.904	75.95
216.122	-30.55
216.341	-51.03
216.559	43.18
216.778	102.57
216.996	12.46
217.214	14.51
217.432	-18.26
217.651	-5.97
217.869	16.55
218.087	-30.55
218.306	10.41
218.524	-22.36
218.742	6.31
218.96	43.18
219.179	-12.12
219.397	12.46
219.615	59.56
219.833	75.95
220.051	-42.84
220.27	-12.12
220.488	47.27
220.706	-71.51
220.924	10.41
221.142	28.84
221.36	-44.88
221.578	47.27
221.796	45.23
222.015	-5.97
222.233	-26.45
222.451	-14.17
222.669	-3.93
222.887	26.79
223.105	-30.55
223.323	59.56
223.541	-42.84
223.759	39.08
223.977	4.27
224.195	67.75
224.413	65.71
224.631	63.66
224.849	67.75
225.067	104.62
225.285	-30.55
225.503	61.61
225.721	2.22
225.939	71.85
226.157	53.42
226.375	51.37
226.592	75.95
226.81	77.99
227.028	-55.12
227.246	6.31
227.464	-30.55
227.682	49.32
227.9	26.79
228.117	-63.32
228.335	-28.5
228.553	77.99
228.771	69.8
228.989	30.89
229.206	51.37
229.424	-22.36
229.642	41.13
229.86	-16.21
230.077	-1.88
230.295	28.84
230.513	49.32
230.731	45.23
230.948	2.22
231.166	67.75
231.384	-51.03
231.601	84.14
231.819	2.22
232.037	22.7
232.254	43.18
232.472	-46.93
232.689	2.22
232.907	55.47
233.125	-63.32
233.342	88.23
233.56	-5.97
233.777	-28.5
233.995	-8.02
234.213	30.89
234.43	14.51
234.648	43.18
234.865	12.46
235.083	-40.79
235.3	-85.84
235.518	63.66
235.735	75.95
235.953	30.89
236.17	75.95
236.388	10.41
236.605	43.18
236.822	-34.64
237.04	6.31
237.257	-3.93
237.475	-26.45
237.692	28.84
237.909	0.17
238.127	-10.07
238.344	26.79
238.562	55.47
238.779	0.17
238.996	-65.36
239.214	75.95
239.431	-32.6
239.648	8.36
239.865	26.79
240.083	43.18
240.3	-3.93
240.517	-12.12
240.735	49.32
240.952	41.13
241.169	28.84
241.386	43.18
241.603	18.6
241.821	37.03
242.038	14.51
242.255	-12.12
242.472	-5.97
242.689	18.6
242.907	77.99
243.124	45.23
243.341	12.46
243.558	-32.6
243.775	53.42
243.992	-3.93
244.209	22.7
244.426	51.37
244.643	28.84
244.86	-63.32
245.078	-22.36
245.295	-36.69
245.512	18.6
245.729	-5.97
245.946	37.03
246.163	-32.6
246.38	43.18
246.597	63.66
246.814	-22.36
247.031	55.47
247.248	4.27
247.464	43.18
247.681	71.85
247.898	26.79
248.115	8.36
248.332	18.6
248.549	71.85
248.766	84.14
248.983	51.37
249.2	43.18
249.417	-18.26
249.633	12.46
249.85	84.14
250.067	-12.12
250.284	-55.12
250.501	41.13
250.717	51.37
250.934	-22.36
251.151	12.46
251.368	37.03
251.585	49.32
251.801	-30.55
252.018	20.65
252.235	28.84
252.451	47.27
252.668	-36.69
252.885	12.46
253.102	-16.21
253.318	37.03
253.535	55.47
253.752	30.89
253.968	39.08
254.185	28.84
254.401	-26.45
254.618	-51.03
254.835	157.86
255.051	12.46
255.268	49.32
255.484	-1.88
255.701	32.94
255.917	-26.45
256.134	-12.12
256.351	69.8
256.567	26.79
256.784	2.22
257	-22.36
257.217	34.99
257.433	18.6
257.65	53.42
257.866	34.99
258.082	-61.27
258.299	-28.5
258.515	30.89
258.732	-14.17
258.948	-38.74
259.165	20.65
259.381	12.46
259.597	-14.17
259.814	0.17
260.03	34.99
260.246	-1.88
260.463	92.33
260.679	-26.45
260.895	102.57
261.112	20.65
261.328	-51.03
261.544	47.27
261.761	6.31
261.977	-20.31
262.193	6.31
262.409	20.65
262.626	65.71
262.842	28.84
263.058	-69.46
263.274	-28.5
263.49	-44.88
263.707	-12.12
263.923	-22.36
264.139	34.99
264.355	8.36
264.571	102.57
264.787	-1.88
265.004	77.99
265.22	30.89
265.436	-10.07
265.652	41.13
265.868	18.6
266.084	18.6
266.3	-5.97
266.516	-18.26
266.732	37.03
266.948	-16.21
267.164	-30.55
267.38	18.6
267.596	43.18
267.812	71.85
268.028	8.36
268.244	-3.93
268.46	39.08
268.676	26.79
268.892	47.27
269.108	80.04
269.324	-42.84
269.54	-48.98
269.756	30.89
269.972	-30.55
270.188	-51.03
270.403	32.94
270.619	0.17
270.835	-12.12
271.051	34.99
271.267	-3.93
271.483	84.14
271.698	22.7
271.914	41.13
272.13	-71.51
272.346	37.03
272.562	-22.36
272.777	-30.55
272.993	-1.88
273.209	22.7
273.425	-3.93
273.64	-5.97
273.856	63.66
274.072	-14.17
274.287	-16.21
274.503	-8.02
274.719	-16.21
274.934	-12.12
275.15	45.23
275.366	2.22
275.581	18.6
275.797	12.46
276.012	-12.12
276.228	-38.74
276.444	75.95
276.659	-5.97
276.875	-22.36
277.09	-96.08
277.306	-5.97
277.521	-5.97
277.737	12.46
277.952	39.08
278.168	63.66
278.383	-18.26
278.599	-10.07
278.814	51.37
279.03	-10.07
279.245	26.79
279.461	43.18
279.676	-20.31
279.892	-22.36
280.107	20.65
280.322	-20.31
280.538	59.56
280.753	-38.74
280.969	22.7
281.184	-30.55
281.399	59.56
281.615	-32.6
281.83	-38.74
282.045	-34.64
282.26	32.94
282.476	59.56
282.691	37.03
282.906	16.55
283.122	10.41
283.337	24.75
283.552	32.94
283.767	2.22
283.983	32.94
284.198	37.03
284.413	20.65
284.628	-36.69
284.843	-12.12
285.058	-12.12
285.274	6.31
285.489	14.51
285.704	63.66
285.919	-81.75
286.134	26.79
286.349	59.56
286.564	-91.99
286.779	-3.93
286.995	2.22
287.21	-73.56
287.425	53.42
287.64	10.41
287.855	2.22
288.07	-1.88
288.285	-22.36
288.5	47.27
288.715	71.85
288.93	-5.97
289.145	28.84
289.36	12.46
289.575	-48.98
289.79	-5.97
290.004	61.61
290.219	10.41
290.434	12.46
290.649	-53.08
290.864	-55.12
291.079	-46.93
291.294	37.03
291.509	-28.5
291.724	14.51
291.938	32.94
292.153	53.42
292.368	-22.36
292.583	84.14
292.798	-3.93
293.012	67.75
293.227	41.13
293.442	14.51
293.657	80.04
293.871	65.71
294.086	32.94
294.301	-3.93
294.516	-5.97
294.73	75.95
294.945	-30.55
295.16	-12.12
295.374	34.99
295.589	116.9
295.804	14.51
296.018	8.36
296.233	59.56
296.447	-8.02
296.662	-14.17
296.877	6.31
297.091	-59.22
297.306	-10.07
297.52	-5.97
297.735	32.94
297.949	10.41
298.164	2.22
298.378	53.42
298.593	-14.17
298.807	26.79
299.022	-20.31
299.236	6.31
299.451	-10.07
299.665	-14.17
299.88	12.46
300.094	-3.93
300.309	45.23
300.523	-1.88
300.737	8.36
300.952	-16.21
301.166	-10.07
301.381	0.17
301.595	20.65
301.809	22.7
302.024	77.99
302.238	-3.93
302.452	26.79
302.667	20.65
302.881	20.65
303.095	-53.08
303.309	-30.55
303.524	-63.32
303.738	73.9
303.952	-42.84
304.166	-26.45
304.381	6.31
304.595	61.61
304.809	8.36
305.023	41.13
305.237	69.8
305.452	4.27
305.666	-28.5
305.88	-24.4
306.094	51.37
306.308	59.56
306.522	65.71
306.736	61.61
306.95	34.99
307.164	75.95
307.379	-10.07
307.593	26.79
307.807	30.89
308.021	37.03
308.235	18.6
308.449	-1.88
308.663	-8.02
308.877	34.99
309.091	12.46
309.305	34.99
309.519	-20.31
309.733	22.7
309.947	-48.98
310.161	51.37
310.374	8.36
310.588	49.32
310.802	4.27
311.016	8.36
311.23	-16.21
311.444	-38.74
311.658	18.6
311.872	28.84
312.085	75.95
312.299	100.52
312.513	80.04
312.727	2.22
312.941	26.79
313.154	-12.12
313.368	61.61
313.582	75.95
313.796	0.17
314.009	69.8
314.223	80.04
314.437	-20.31
314.651	45.23
314.864	55.47
315.078	-10.07
315.292	12.46
315.505	18.6
315.719	16.55
315.933	39.08
316.146	30.89
316.36	47.27
316.573	53.42
316.787	75.95
317.001	20.65
317.214	14.51
317.428	45.23
317.641	4.27
317.855	14.51
318.068	63.66
318.282	-34.64
318.495	53.42
318.709	10.41
318.922	-3.93
319.136	51.37
319.349	20.65
319.563	6.31
319.776	-14.17
319.99	-28.5
320.203	26.79
320.417	43.18
320.63	-14.17
320.843	45.23
321.057	-42.84
321.27	-5.97
321.483	-34.64
321.697	53.42
321.91	39.08
322.124	-5.97
322.337	37.03
322.55	20.65
322.763	4.27
322.977	4.27
323.19	55.47
323.403	6.31
323.617	-55.12
323.83	82.09
324.043	-30.55
324.256	26.79
324.469	-30.55
324.683	75.95
324.896	-69.46
325.109	14.51
325.322	-26.45
325.535	84.14
325.748	53.42
325.962	28.84
326.175	12.46
326.388	86.19
326.601	43.18
326.814	65.71
327.027	18.6
327.24	61.61
327.453	-46.93
327.666	53.42
327.879	20.65
328.092	8.36
328.305	-3.93
328.518	26.79
328.731	-67.41
328.944	53.42
329.157	-26.45
329.37	-3.93
329.583	129.19
329.796	34.99
330.009	-36.69
330.222	53.42
330.435	45.23
330.648	2.22
330.861	-18.26
331.073	37.03
331.286	67.75
331.499	-53.08
331.712	18.6
331.925	45.23
332.138	57.51
332.35	43.18
332.563	67.75
332.776	26.79
332.989	-10.07
333.202	-22.36
333.414	4.27
333.627	129.19
333.84	-48.98
334.053	20.65
334.265	-28.5
334.478	80.04
334.691	2.22
334.903	53.42
335.116	-38.74
335.329	43.18
335.541	32.94
335.754	51.37
335.966	22.7
336.179	-1.88
336.392	22.7
336.604	28.84
336.817	4.27
337.029	47.27
337.242	67.75
337.454	20.65
337.667	59.56
337.88	116.9
338.092	41.13
338.305	53.42
338.517	102.57
338.729	55.47
338.942	51.37
339.154	-30.55
339.367	30.89
339.579	51.37
339.792	26.79
340.004	77.99
340.217	51.37
340.429	18.6
340.641	-14.17
340.854	100.52
341.066	24.75
341.278	102.57
341.491	108.71
341.703	-10.07
341.915	32.94
342.128	61.61
342.34	-14.17
342.552	-28.5
342.764	2.22
342.977	-1.88
343.189	-55.12
343.401	45.23
343.613	-20.31
343.826	43.18
344.038	14.51
344.25	84.14
344.462	59.56
344.674	37.03
344.886	18.6
345.099	26.79
345.311	-32.6
345.523	-22.36
345.735	-14.17
345.947	34.99
346.159	39.08
346.371	-3.93
346.583	37.03
346.795	59.56
347.007	67.75
347.219	-1.88
347.431	57.51
347.643	41.13
347.855	-14.17
348.067	88.23
348.279	18.6
348.491	34.99
348.703	116.9
348.915	49.32
349.127	47.27
349.339	-22.36
349.551	-38.74
349.763	2.22
349.975	34.99
350.187	4.27
350.399	43.18
350.61	67.75
350.822	-5.97
351.034	39.08
351.246	22.7
351.458	18.6
351.669	37.03
351.881	-26.45
352.093	-22.36
352.305	63.66
352.517	18.6
352.728	82.09
352.94	51.37
353.152	69.8
353.363	-26.45
353.575	53.42
353.787	43.18
353.999	14.51
354.21	75.95
354.422	-46.93
354.633	26.79
354.845	67.75
355.057	-79.7
355.268	53.42
355.48	-38.74
355.692	67.75
355.903	12.46
356.115	-20.31
356.326	-12.12
356.538	94.38
356.749	41.13
356.961	-12.12
357.172	-14.17
357.384	18.6
357.595	26.79
357.807	39.08
358.018	100.52
358.23	-34.64
358.441	90.28
358.653	47.27
358.864	2.22
359.075	110.76
359.287	86.19
359.498	6.31
359.709	43.18
359.921	34.99
360.132	59.56
360.344	20.65
360.555	37.03
360.766	133.29
360.977	55.47
361.189	59.56
361.4	51.37
361.611	67.75
361.823	88.23
362.034	43.18
362.245	-10.07
362.456	47.27
362.667	-48.98
362.879	-20.31
363.09	-5.97
363.301	10.41
363.512	-10.07
363.723	34.99
363.935	-28.5
364.146	22.7
364.357	12.46
364.568	67.75
364.779	-38.74
364.99	84.14
365.201	-22.36
365.412	51.37
365.623	18.6
365.834	151.72
366.045	53.42
366.256	118.95
366.467	59.56
366.678	-67.41
366.889	71.85
367.1	-18.26
367.311	37.03
367.522	34.99
367.733	51.37
367.944	20.65
368.155	-22.36
368.366	49.32
368.577	137.38
368.788	43.18
368.999	-46.93
369.209	51.37
369.42	80.04
369.631	145.58
369.842	12.46
370.053	37.03
370.264	-14.17
370.474	24.75
370.685	67.75
370.896	67.75
371.107	71.85
371.317	43.18
371.528	-14.17
371.739	24.75
371.95	-42.84
372.16	26.79
372.371	-26.45
372.582	34.99
372.792	57.51
373.003	75.95
373.214	28.84
373.424	-18.26
373.635	77.99
373.846	30.89
374.056	-10.07
374.267	-3.93
374.477	100.52
374.688	-67.41
374.898	24.75
375.109	37.03
375.319	34.99
375.53	59.56
375.74	84.14
375.951	75.95
376.161	-34.64
376.372	43.18
376.582	18.6
376.793	53.42
377.003	0.17
377.214	75.95
377.424	28.84
377.635	20.65
377.845	47.27
378.055	88.23
378.266	-30.55
378.476	43.18
378.686	75.95
378.897	10.41
379.107	98.47
379.317	4.27
379.528	43.18
379.738	94.38
379.948	22.7
380.158	28.84
380.369	82.09
380.579	24.75
380.789	30.89
380.999	47.27
381.21	20.65
381.42	80.04
381.63	26.79
381.84	34.99
382.05	37.03
382.261	53.42
382.471	-26.45
382.681	96.43
382.891	96.43
383.101	75.95
383.311	22.7
383.521	43.18
383.731	4.27
383.941	123.05
384.151	47.27
384.361	43.18
384.571	26.79
384.781	84.14
384.991	96.43
385.201	92.33
385.411	39.08
385.621	28.84
385.831	53.42
386.041	73.9
386.251	-5.97
386.461	77.99
386.671	18.6
386.881	10.41
387.091	30.89
387.301	18.6
387.511	28.84
387.72	86.19
387.93	82.09
388.14	75.95
388.35	22.7
388.56	26.79
388.769	82.09
388.979	51.37
389.189	-36.69
389.399	102.57
389.609	92.33
389.818	14.51
390.028	-5.97
390.238	30.89
390.447	-12.12
390.657	39.08
390.867	0.17
391.076	96.43
391.286	67.75
391.496	77.99
391.705	59.56
391.915	75.95
392.125	75.95
392.334	139.43
392.544	26.79
392.753	2.22
392.963	-28.5
393.172	41.13
393.382	39.08
393.591	63.66
393.801	14.51
394.01	127.14
394.22	32.94
394.429	8.36
394.639	-18.26
394.848	92.33
395.058	94.38
395.267	26.79
395.477	65.71
395.686	32.94
395.895	45.23
396.105	100.52
396.314	41.13
396.524	51.37
396.733	43.18
396.942	170.15
397.152	94.38
397.361	116.9
397.57	63.66
397.78	51.37
397.989	112.81
398.198	106.67
398.407	10.41
398.617	133.29
398.826	84.14
399.035	32.94
399.244	98.47
399.453	92.33
399.663	100.52
399.872	133.29
400.081	-10.07
400.29	174.25
400.499	63.66
400.708	114.86
400.917	104.62
401.127	67.75
401.336	63.66
401.545	118.95
401.754	55.47
401.963	67.75
402.172	65.71
402.381	69.8
402.59	102.57
402.799	143.53
403.008	102.57
403.217	151.72
403.426	77.99
403.635	92.33
403.844	96.43
404.053	121
404.262	157.86
404.471	139.43
404.68	135.34
404.888	190.63
405.097	157.86
405.306	192.68
405.515	151.72
405.724	118.95
405.933	194.73
406.142	176.3
406.35	108.71
406.559	166.06
406.768	219.3
406.977	258.21
407.185	151.72
407.394	192.68
407.603	121
407.812	190.63
408.02	149.67
408.229	182.44
408.438	207.02
408.646	184.49
408.855	170.15
409.064	243.88
409.272	284.84
409.481	258.21
409.69	219.3
409.898	305.32
410.107	319.65
410.315	321.7
410.524	315.56
410.733	370.85
410.941	309.41
411.15	348.33
411.358	391.33
411.567	381.09
411.775	387.24
411.984	403.62
412.192	497.83
412.401	471.2
412.609	432.29
412.818	546.98
413.026	499.88
413.234	503.97
413.443	516.26
413.651	549.03
413.86	573.6
414.068	612.51
414.276	571.55
414.485	645.28
414.693	657.57
414.901	673.95
415.11	741.54
415.318	673.95
415.526	817.31
415.734	768.16
415.943	823.45
416.151	813.21
416.359	735.39
416.567	858.27
416.776	856.22
416.984	966.81
417.192	1089.69
417.4	1034.39
417.608	993.44
417.817	1052.83
418.025	1161.37
418.233	1233.05
418.441	1132.7
418.649	1253.53
418.857	1286.3
419.065	1259.67
419.273	1173.66
419.481	1337.49
419.689	1443.99
419.897	1540.24
420.105	1550.48
420.313	1624.21
420.521	1601.68
420.729	1708.18
420.937	1755.28
421.145	1812.62
421.353	1806.48
421.561	1982.6
421.769	2019.47
421.977	2115.72
422.185	2066.57
422.393	2156.68
422.601	2271.37
422.809	2369.67
423.017	2394.25
423.224	2527.36
423.432	2459.78
423.64	2558.08
423.848	2752.64
424.056	2721.92
424.263	2910.33
424.471	2967.68
424.679	2924.67
424.887	3207.29
425.094	3291.26
425.302	3238.01
425.51	3252.35
425.718	3393.65
425.925	3438.71
426.133	3592.31
426.341	3870.83
426.548	4069.48
426.756	4061.29
426.964	4092.01
427.171	4286.57
427.379	4466.79
427.586	4481.13
427.794	4747.36
428.001	4706.4
428.209	4962.4
428.417	4929.63
428.624	5304.41
428.832	5261.4
429.039	5245.02
429.247	5281.88
429.454	5802.07
429.662	6088.78
429.869	5533.78
430.076	6215.76
430.284	5978.19
430.491	6244.43
430.699	6580.29
430.906	6527.05
431.114	6656.07
431.321	6967.36
431.528	7139.39
431.736	7422.01
431.943	7575.61
432.15	7483.45
432.358	7895.09
432.565	8228.91
432.772	8087.6
432.979	8335.4
433.187	8706.09
433.394	8554.54
433.601	9226.27
433.808	9365.53
434.016	9297.95
434.223	9680.92
434.43	10260.49
434.637	9979.92
434.844	10545.16
435.052	10926.08
435.259	10702.86
435.466	10770.44
435.673	10905.6
435.88	11364.35
436.087	12068.85
436.294	12009.46
436.501	11632.63
436.708	12013.56
436.915	12425.2
437.122	12941.29
437.329	12709.86
437.537	13334.5
437.743	13606.88
437.95	13422.56
438.157	14135.25
438.364	14555.08
438.571	14467.02
438.778	14634.96
438.985	15904.7
439.192	15380.42
439.399	16009.14
439.606	15468.48
439.813	16521.13
440.02	17395.62
440.227	17100.71
440.433	16738.22
440.64	17078.18
440.847	17366.95
441.054	17807.26
441.261	18956.17
441.467	18644.88
441.674	18941.83
441.881	19859.32
442.088	19699.58
442.294	19478.4
442.501	20041.59
442.708	20346.74
442.914	21133.16
443.121	22056.79
443.328	21305.19
443.534	23035.72
443.741	22194.01
443.948	21946.2
444.154	23977.79
444.361	23531.33
444.568	23650.11
444.774	23826.24
444.981	23596.87
445.187	24305.46
445.394	25663.27
445.6	25190.19
445.807	27911.94
446.013	26539.8
446.22	27117.32
446.426	27862.79
446.633	28344.06
446.839	29208.3
447.046	28120.83
447.252	29621.99
447.459	29624.04
447.665	29552.36
447.871	30930.64
448.078	32337.6
448.284	30428.89
448.491	31350.48
448.697	32929.46
448.903	33201.84
449.11	33437.36
449.316	32771.77
449.522	33283.76
449.728	33947.3
449.935	34408.09
450.141	34494.11
450.347	35270.29
450.553	33959.59
450.76	34889.37
450.966	35700.36
451.172	35399.31
451.378	36304.51
451.584	35688.07
451.791	36411.01
451.997	36163.2
452.203	37031.54
452.409	37049.97
452.615	37316.21
452.821	35778.18
453.027	35258
453.233	37365.36
453.44	35378.83
453.646	36107.91
453.852	36273.79
454.058	36990.58
454.264	35724.94
454.47	36669.05
454.676	35360.4
454.882	36976.25
455.088	33740.46
455.294	34191.01
455.5	34418.33
455.705	35106.45
455.911	33631.91
456.117	32734.9
456.323	32849.59
456.529	31071.95
456.735	32200.38
456.941	31477.45
457.147	31086.29
457.352	30289.63
457.558	29781.73
457.764	29992.67
457.97	29411.05
458.176	28729.08
458.381	28849.91
458.587	27348.75
458.793	27461.38
458.999	26103.58
459.204	28040.96
459.41	27008.78
459.616	25687.84
459.821	25433.89
460.027	25261.87
460.233	24827.7
460.438	23652.16
460.644	23633.73
460.85	22724.43
461.055	22337.37
461.261	22355.8
461.466	20934.51
461.672	20035.45
461.878	21538.66
462.083	20121.46
462.289	19679.1
462.494	19507.07
462.7	19025.8
462.905	18093.97
463.111	18909.07
463.316	18870.15
463.522	18319.25
463.727	18585.49
463.932	18524.05
464.138	18192.28
464.343	18309.01
464.549	17713.05
464.754	18290.58
464.959	18460.56
465.165	18134.93
465.37	17426.34
465.575	16889.77
465.781	17579.93
465.986	17784.73
466.191	17192.87
