Data from USB4F104151__199__14-20-31-415.txt Node

Date: Thu Mar 13 14:20:31 EDT 2025
User: louis
Spectrometer: USB4F10415
Trigger mode: 4
Integration Time (sec): 2.000000E-2
Scans to average: 1
Electric dark correction enabled: true
Nonlinearity correction enabled: false
Boxcar width: 0
XAxis mode: Wavelengths
Number of Pixels in Spectrum: 3648
>>>>>Begin Spectral Data<<<<<
178.204	-138.07
178.424	-138.07
178.644	-138.07
178.864	-58.2
179.084	-45.91
179.304	-31.57
179.524	-4.95
179.744	64.68
179.964	38.06
180.184	-13.14
180.404	15.53
180.624	-13.14
180.844	-37.72
181.064	-9.05
181.283	42.15
181.503	7.34
181.723	-58.2
181.943	15.53
182.163	48.3
182.383	-64.34
182.602	83.11
182.822	56.49
183.042	165.03
183.262	23.72
183.482	40.11
183.701	66.73
183.921	33.96
184.141	64.68
184.361	70.83
184.58	15.53
184.8	3.24
185.02	23.72
185.239	50.35
185.459	3.24
185.679	64.68
185.898	-9.05
186.118	56.49
186.338	54.44
186.557	7.34
186.777	3.24
186.997	11.43
187.216	81.07
187.436	48.3
187.655	-0.85
187.875	70.83
188.095	-15.19
188.314	29.87
188.534	81.07
188.753	31.91
188.973	74.92
189.192	15.53
189.412	23.72
189.631	83.11
189.851	25.77
190.07	136.36
190.29	93.35
190.509	29.87
190.729	15.53
190.948	48.3
191.168	115.88
191.387	130.22
191.607	-45.91
191.826	85.16
192.045	-70.48
192.265	64.68
192.484	72.87
192.704	-54.1
192.923	-33.62
193.142	44.2
193.362	27.82
193.581	66.73
193.8	52.39
194.02	58.54
194.239	-37.72
194.458	113.83
194.678	79.02
194.897	72.87
195.116	-9.05
195.335	13.48
195.555	-25.43
195.774	42.15
195.993	-4.95
196.212	95.4
196.432	-17.24
196.651	58.54
196.87	54.44
197.089	58.54
197.308	101.55
197.528	31.91
197.747	23.72
197.966	-11.09
198.185	44.2
198.404	40.11
198.623	31.91
198.842	103.59
199.062	99.5
199.281	105.64
199.5	15.53
199.719	11.43
199.938	19.63
200.157	93.35
200.376	52.39
200.595	165.03
200.814	91.31
201.033	76.97
201.252	117.93
201.471	130.22
201.69	156.84
201.909	62.63
202.128	85.16
202.347	58.54
202.566	29.87
202.785	15.53
203.004	17.58
203.223	111.78
203.442	72.87
203.661	3.24
203.879	21.67
204.098	-15.19
204.317	-11.09
204.536	91.31
204.755	40.11
204.974	97.45
205.193	-9.05
205.411	50.35
205.63	3.24
205.849	105.64
206.068	81.07
206.287	74.92
206.505	74.92
206.724	31.91
206.943	17.58
207.162	-11.09
207.381	7.34
207.599	9.39
207.818	9.39
208.037	7.34
208.255	17.58
208.474	60.59
208.693	48.3
208.911	-29.52
209.13	89.26
209.349	99.5
209.567	52.39
209.786	11.43
210.005	15.53
210.223	-33.62
210.442	33.96
210.661	-9.05
210.879	56.49
211.098	44.2
211.316	36.01
211.535	50.35
211.753	64.68
211.972	25.77
212.191	7.34
212.409	7.34
212.628	62.63
212.846	25.77
213.065	97.45
213.283	105.64
213.502	-7
213.72	23.72
213.938	89.26
214.157	7.34
214.375	79.02
214.594	-25.43
214.812	-4.95
215.031	40.11
215.249	13.48
215.467	-17.24
215.686	76.97
215.904	42.15
216.122	62.63
216.341	97.45
216.559	138.41
216.778	-15.19
216.996	72.87
217.214	-9.05
217.432	31.91
217.651	-23.38
217.869	19.63
218.087	72.87
218.306	38.06
218.524	3.24
218.742	3.24
218.96	85.16
219.179	-33.62
219.397	7.34
219.615	40.11
219.833	-25.43
220.051	81.07
220.27	81.07
220.488	81.07
220.706	52.39
220.924	-25.43
221.142	74.92
221.36	31.91
221.578	9.39
221.796	-2.9
222.015	7.34
222.233	111.78
222.451	40.11
222.669	19.63
222.887	72.87
223.105	13.48
223.323	48.3
223.541	-15.19
223.759	97.45
223.977	-15.19
224.195	105.64
224.413	107.69
224.631	-2.9
224.849	27.82
225.067	48.3
225.285	3.24
225.503	101.55
225.721	-60.24
225.939	40.11
226.157	68.78
226.375	72.87
226.592	103.59
226.81	40.11
227.028	48.3
227.246	105.64
227.464	-2.9
227.682	48.3
227.9	54.44
228.117	42.15
228.335	23.72
228.553	56.49
228.771	50.35
228.989	83.11
229.206	56.49
229.424	36.01
229.642	-19.29
229.86	9.39
230.077	50.35
230.295	40.11
230.513	56.49
230.731	25.77
230.948	70.83
231.166	58.54
231.384	-37.72
231.601	-9.05
231.819	64.68
232.037	27.82
232.254	-9.05
232.472	-4.95
232.689	64.68
232.907	56.49
233.125	9.39
233.342	23.72
233.56	66.73
233.777	-19.29
233.995	46.25
234.213	79.02
234.43	-37.72
234.648	9.39
234.865	64.68
235.083	50.35
235.3	40.11
235.518	72.87
235.735	109.74
235.953	11.43
236.17	74.92
236.388	9.39
236.605	83.11
236.822	134.31
237.04	76.97
237.257	19.63
237.475	40.11
237.692	85.16
237.909	36.01
238.127	50.35
238.344	-58.2
238.562	58.54
238.779	93.35
238.996	119.98
239.214	81.07
239.431	72.87
239.648	52.39
239.865	31.91
240.083	-2.9
240.3	-0.85
240.517	-9.05
240.735	48.3
240.952	165.03
241.169	15.53
241.386	103.59
241.603	64.68
241.821	15.53
242.038	72.87
242.255	83.11
242.472	-2.9
242.689	7.34
242.907	56.49
243.124	1.19
243.341	-9.05
243.558	50.35
243.775	11.43
243.992	-11.09
244.209	74.92
244.426	27.82
244.643	64.68
244.86	44.2
245.078	79.02
245.295	85.16
245.512	-23.38
245.729	52.39
245.946	9.39
246.163	54.44
246.38	11.43
246.597	15.53
246.814	19.63
247.031	62.63
247.248	62.63
247.464	48.3
247.681	-19.29
247.898	7.34
248.115	48.3
248.332	-17.24
248.549	27.82
248.766	91.31
248.983	36.01
249.2	15.53
249.417	124.07
249.633	15.53
249.85	119.98
250.067	11.43
250.284	-50
250.501	33.96
250.717	107.69
250.934	-11.09
251.151	15.53
251.368	76.97
251.585	64.68
251.801	17.58
252.018	97.45
252.235	107.69
252.451	23.72
252.668	23.72
252.885	48.3
253.102	83.11
253.318	15.53
253.535	-7
253.752	23.72
253.968	31.91
254.185	33.96
254.401	54.44
254.618	31.91
254.835	44.2
255.051	66.73
255.268	-13.14
255.484	72.87
255.701	81.07
255.917	56.49
256.134	23.72
256.351	50.35
256.567	-9.05
256.784	9.39
257	17.58
257.217	40.11
257.433	7.34
257.65	54.44
257.866	3.24
258.082	33.96
258.299	5.29
258.515	50.35
258.732	-19.29
258.948	11.43
259.165	25.77
259.381	25.77
259.597	85.16
259.814	87.21
260.03	-33.62
260.246	-4.95
260.463	62.63
260.679	66.73
260.895	11.43
261.112	58.54
261.328	-17.24
261.544	-0.85
261.761	136.36
261.977	-17.24
262.193	-7
262.409	58.54
262.626	7.34
262.842	99.5
263.058	-50
263.274	66.73
263.49	68.78
263.707	68.78
263.923	72.87
264.139	40.11
264.355	52.39
264.571	-25.43
264.787	99.5
265.004	113.83
265.22	-4.95
265.436	97.45
265.652	11.43
265.868	60.59
266.084	-0.85
266.3	64.68
266.516	33.96
266.732	56.49
266.948	23.72
267.164	-7
267.38	29.87
267.596	48.3
267.812	115.88
268.028	46.25
268.244	31.91
268.46	64.68
268.676	-4.95
268.892	31.91
269.108	29.87
269.324	60.59
269.54	11.43
269.756	44.2
269.972	1.19
270.188	13.48
270.403	62.63
270.619	48.3
270.835	-37.72
271.051	64.68
271.267	13.48
271.483	58.54
271.698	13.48
271.914	48.3
272.13	44.2
272.346	66.73
272.562	83.11
272.777	105.64
272.993	40.11
273.209	23.72
273.425	11.43
273.64	36.01
273.856	79.02
274.072	-25.43
274.287	-17.24
274.503	97.45
274.719	48.3
274.934	70.83
275.15	29.87
275.366	142.5
275.581	-41.81
275.797	-0.85
276.012	40.11
276.228	-23.38
276.444	42.15
276.659	72.87
276.875	27.82
277.09	72.87
277.306	15.53
277.521	23.72
277.737	31.91
277.952	103.59
278.168	68.78
278.383	89.26
278.599	54.44
278.814	1.19
279.03	38.06
279.245	142.5
279.461	60.59
279.676	64.68
279.892	-9.05
280.107	1.19
280.322	7.34
280.538	33.96
280.753	27.82
280.969	46.25
281.184	79.02
281.399	105.64
281.615	44.2
281.83	72.87
282.045	-4.95
282.26	66.73
282.476	42.15
282.691	130.22
282.906	87.21
283.122	76.97
283.337	25.77
283.552	40.11
283.767	-15.19
283.983	89.26
284.198	64.68
284.413	-0.85
284.628	-58.2
284.843	68.78
285.058	46.25
285.274	70.83
285.489	-17.24
285.704	103.59
285.919	38.06
286.134	-19.29
286.349	15.53
286.564	109.74
286.779	-4.95
286.995	31.91
287.21	7.34
287.425	-0.85
287.64	-9.05
287.855	46.25
288.07	-17.24
288.285	74.92
288.5	58.54
288.715	107.69
288.93	52.39
289.145	-9.05
289.36	99.5
289.575	-0.85
289.79	62.63
290.004	48.3
290.219	105.64
290.434	19.63
290.649	60.59
290.864	11.43
291.079	36.01
291.294	72.87
291.509	44.2
291.724	17.58
291.938	-17.24
292.153	50.35
292.368	-0.85
292.583	23.72
292.798	62.63
293.012	83.11
293.227	46.25
293.442	31.91
293.657	48.3
293.871	70.83
294.086	44.2
294.301	83.11
294.516	9.39
294.73	46.25
294.945	-11.09
295.16	60.59
295.374	62.63
295.589	50.35
295.804	42.15
296.018	58.54
296.233	60.59
296.447	7.34
296.662	-2.9
296.877	124.07
297.091	142.5
297.306	15.53
297.52	79.02
297.735	-23.38
297.949	52.39
298.164	115.88
298.378	103.59
298.593	15.53
298.807	42.15
299.022	33.96
299.236	13.48
299.451	83.11
299.665	81.07
299.88	54.44
300.094	74.92
300.309	33.96
300.523	19.63
300.737	19.63
300.952	76.97
301.166	44.2
301.381	-29.52
301.595	15.53
301.809	66.73
302.024	66.73
302.238	23.72
302.452	52.39
302.667	40.11
302.881	60.59
303.095	140.46
303.309	-17.24
303.524	31.91
303.738	81.07
303.952	72.87
304.166	25.77
304.381	-123.73
304.595	89.26
304.809	3.24
305.023	66.73
305.237	-13.14
305.452	23.72
305.666	31.91
305.88	42.15
306.094	76.97
306.308	58.54
306.522	113.83
306.736	31.91
306.95	-29.52
307.164	72.87
307.379	52.39
307.593	66.73
307.807	150.7
308.021	97.45
308.235	44.2
308.449	56.49
308.663	52.39
308.877	66.73
309.091	115.88
309.305	38.06
309.519	62.63
309.733	9.39
309.947	9.39
310.161	50.35
310.374	3.24
310.588	56.49
310.802	-4.95
311.016	60.59
311.23	66.73
311.444	76.97
311.658	52.39
311.872	44.2
312.085	79.02
312.299	122.02
312.513	64.68
312.727	81.07
312.941	31.91
313.154	38.06
313.368	40.11
313.582	21.67
313.796	-58.2
314.009	91.31
314.223	42.15
314.437	122.02
314.651	76.97
314.864	81.07
315.078	66.73
315.292	38.06
315.505	-45.91
315.719	50.35
315.933	95.4
316.146	7.34
316.36	76.97
316.573	109.74
316.787	60.59
317.001	58.54
317.214	-29.52
317.428	40.11
317.641	7.34
317.855	50.35
318.068	17.58
318.282	74.92
318.495	105.64
318.709	68.78
318.922	103.59
319.136	48.3
319.349	29.87
319.563	68.78
319.776	72.87
319.99	-21.33
320.203	33.96
320.417	9.39
320.63	48.3
320.843	48.3
321.057	3.24
321.27	40.11
321.483	56.49
321.697	91.31
321.91	101.55
322.124	52.39
322.337	-0.85
322.55	33.96
322.763	25.77
322.977	15.53
323.19	-11.09
323.403	48.3
323.617	60.59
323.83	60.59
324.043	64.68
324.256	50.35
324.469	31.91
324.683	91.31
324.896	-41.81
325.109	107.69
325.322	27.82
325.535	-23.38
325.748	87.21
325.962	111.78
326.175	15.53
326.388	138.41
326.601	23.72
326.814	-9.05
327.027	58.54
327.24	11.43
327.453	56.49
327.666	87.21
327.879	74.92
328.092	74.92
328.305	66.73
328.518	1.19
328.731	25.77
328.944	66.73
329.157	93.35
329.37	134.31
329.583	72.87
329.796	101.55
330.009	64.68
330.222	36.01
330.435	74.92
330.648	50.35
330.861	54.44
331.073	87.21
331.286	117.93
331.499	27.82
331.712	11.43
331.925	91.31
332.138	60.59
332.35	66.73
332.563	11.43
332.776	97.45
332.989	50.35
333.202	97.45
333.414	70.83
333.627	48.3
333.84	36.01
334.053	60.59
334.265	58.54
334.478	33.96
334.691	23.72
334.903	33.96
335.116	-0.85
335.329	89.26
335.541	33.96
335.754	72.87
335.966	70.83
336.179	19.63
336.392	68.78
336.604	122.02
336.817	25.77
337.029	130.22
337.242	56.49
337.454	122.02
337.667	11.43
337.88	60.59
338.092	54.44
338.305	138.41
338.517	52.39
338.729	113.83
338.942	52.39
339.154	93.35
339.367	3.24
339.579	132.26
339.792	58.54
340.004	17.58
340.217	19.63
340.429	52.39
340.641	25.77
340.854	72.87
341.066	38.06
341.278	66.73
341.491	124.07
341.703	44.2
341.915	97.45
342.128	56.49
342.34	-31.57
342.552	-9.05
342.764	-2.9
342.977	62.63
343.189	115.88
343.401	79.02
343.613	89.26
343.826	27.82
344.038	25.77
344.25	115.88
344.462	23.72
344.674	60.59
344.886	66.73
345.099	105.64
345.311	27.82
345.523	97.45
345.735	72.87
345.947	-25.43
346.159	122.02
346.371	105.64
346.583	-9.05
346.795	74.92
347.007	7.34
347.219	7.34
347.431	33.96
347.643	122.02
347.855	40.11
348.067	36.01
348.279	60.59
348.491	60.59
348.703	144.55
348.915	23.72
349.127	36.01
349.339	58.54
349.551	31.91
349.763	-17.24
349.975	25.77
350.187	89.26
350.399	93.35
350.61	89.26
350.822	44.2
351.034	64.68
351.246	46.25
351.458	83.11
351.669	68.78
351.881	64.68
352.093	48.3
352.305	60.59
352.517	93.35
352.728	117.93
352.94	85.16
353.152	7.34
353.363	3.24
353.575	66.73
353.787	89.26
353.999	105.64
354.21	76.97
354.422	31.91
354.633	72.87
354.845	25.77
355.057	103.59
355.268	93.35
355.48	1.19
355.692	70.83
355.903	93.35
356.115	11.43
356.326	13.48
356.538	76.97
356.749	56.49
356.961	126.12
357.172	3.24
357.384	-13.14
357.595	7.34
357.807	76.97
358.018	64.68
358.23	72.87
358.441	126.12
358.653	33.96
358.864	5.29
359.075	52.39
359.287	60.59
359.498	109.74
359.709	25.77
359.921	50.35
360.132	48.3
360.344	89.26
360.555	130.22
360.766	119.98
360.977	-25.43
361.189	31.91
361.4	15.53
361.611	42.15
361.823	130.22
362.034	72.87
362.245	68.78
362.456	160.94
362.667	97.45
362.879	27.82
363.09	44.2
363.301	19.63
363.512	105.64
363.723	17.58
363.935	48.3
364.146	91.31
364.357	-11.09
364.568	115.88
364.779	72.87
364.99	91.31
365.201	76.97
365.412	60.59
365.623	36.01
365.834	97.45
366.045	60.59
366.256	31.91
366.467	44.2
366.678	23.72
366.889	44.2
367.1	113.83
367.311	140.46
367.522	23.72
367.733	58.54
367.944	76.97
368.155	113.83
368.366	109.74
368.577	74.92
368.788	97.45
368.999	58.54
369.209	25.77
369.42	142.5
369.631	138.41
369.842	99.5
370.053	31.91
370.264	31.91
370.474	27.82
370.685	138.41
370.896	66.73
371.107	101.55
371.317	138.41
371.528	52.39
371.739	148.65
371.95	58.54
372.16	31.91
372.371	36.01
372.582	48.3
372.792	-0.85
373.003	97.45
373.214	99.5
373.424	134.31
373.635	52.39
373.846	113.83
374.056	76.97
374.267	138.41
374.477	1.19
374.688	56.49
374.898	50.35
375.109	103.59
375.319	85.16
375.53	72.87
375.74	107.69
375.951	52.39
376.161	99.5
376.372	89.26
376.582	66.73
376.793	48.3
377.003	44.2
377.214	115.88
377.424	79.02
377.635	-17.24
377.845	23.72
378.055	138.41
378.266	44.2
378.476	101.55
378.686	99.5
378.897	21.67
379.107	138.41
379.317	105.64
379.528	31.91
379.738	68.78
379.948	-9.05
380.158	81.07
380.369	11.43
380.579	64.68
380.789	42.15
380.999	132.26
381.21	33.96
381.42	173.22
381.63	79.02
381.84	122.02
382.05	44.2
382.261	146.6
382.471	64.68
382.681	1.19
382.891	134.31
383.101	83.11
383.311	23.72
383.521	56.49
383.731	119.98
383.941	113.83
384.151	62.63
384.361	40.11
384.571	68.78
384.781	17.58
384.991	83.11
385.201	130.22
385.411	66.73
385.621	56.49
385.831	44.2
386.041	93.35
386.251	58.54
386.461	136.36
386.671	72.87
386.881	93.35
387.091	72.87
387.301	93.35
387.511	81.07
387.72	66.73
387.93	122.02
388.14	48.3
388.35	89.26
388.56	97.45
388.769	76.97
388.979	17.58
389.189	42.15
389.399	87.21
389.609	64.68
389.818	72.87
390.028	60.59
390.238	105.64
390.447	48.3
390.657	48.3
390.867	62.63
391.076	76.97
391.286	58.54
391.496	72.87
391.705	25.77
391.915	76.97
392.125	81.07
392.334	185.51
392.544	66.73
392.753	85.16
392.963	52.39
393.172	150.7
393.382	64.68
393.591	105.64
393.801	89.26
394.01	105.64
394.22	79.02
394.429	146.6
394.639	40.11
394.848	87.21
395.058	105.64
395.267	99.5
395.477	173.22
395.686	76.97
395.895	81.07
396.105	105.64
396.314	89.26
396.524	99.5
396.733	36.01
396.942	173.22
397.152	132.26
397.361	193.7
397.57	97.45
397.78	122.02
397.989	101.55
398.198	154.79
398.407	175.27
398.617	109.74
398.826	216.23
399.035	144.55
399.244	138.41
399.453	85.16
399.663	109.74
399.872	195.75
400.081	107.69
400.29	122.02
400.499	136.36
400.708	87.21
400.917	138.41
401.127	162.98
401.336	158.89
401.545	181.42
401.754	171.18
401.963	236.71
402.172	249
402.381	93.35
402.59	138.41
402.799	158.89
403.008	277.67
403.217	91.31
403.426	142.5
403.635	107.69
403.844	140.46
404.053	195.75
404.262	214.18
404.471	283.81
404.68	115.88
404.888	181.42
405.097	191.66
405.306	148.65
405.515	234.66
405.724	251.05
405.933	208.04
406.142	226.47
406.35	267.43
406.559	189.61
406.768	216.23
406.977	335.01
407.185	308.39
407.394	271.53
407.603	230.57
407.812	244.9
408.02	318.63
408.229	322.73
408.438	378.02
408.646	251.05
408.855	367.78
409.064	351.4
409.272	349.35
409.481	378.02
409.69	285.86
409.898	384.16
410.107	427.17
410.315	457.89
410.524	490.66
410.733	539.81
410.941	474.28
411.15	535.71
411.358	472.23
411.567	541.86
411.775	588.96
411.984	539.81
412.192	588.96
412.401	566.43
412.609	699.55
412.818	697.5
413.026	672.93
413.234	662.69
413.443	752.8
413.651	738.46
413.86	693.41
414.068	765.09
414.276	801.95
414.485	781.47
414.693	883.87
414.901	928.92
415.11	949.4
415.318	869.53
415.526	926.88
415.734	1078.43
415.943	996.51
416.151	1096.86
416.359	1105.05
416.567	1154.2
416.776	1146.01
416.984	1283.22
417.192	1361.05
417.4	1361.05
417.608	1213.59
417.817	1395.86
418.025	1404.05
418.233	1596.56
418.441	1518.74
418.649	1522.84
418.857	1612.95
419.065	1719.44
419.273	1670.29
419.481	1875.09
419.689	1940.62
419.897	1961.1
420.105	2002.06
420.313	1940.62
420.521	2204.81
420.729	2206.86
420.937	2278.54
421.145	2344.07
421.353	2423.94
421.561	2518.15
421.769	2696.32
421.977	2612.35
422.185	2620.55
422.393	2804.86
422.601	3003.52
422.809	2927.74
423.017	3042.43
423.224	3015.8
423.432	3202.17
423.64	3392.63
423.848	3501.17
424.056	3468.41
424.263	3812.46
424.471	3863.66
424.679	3892.34
424.887	4144.24
425.094	4119.66
425.302	4058.22
425.51	4246.63
425.718	4422.76
425.925	4435.05
426.133	4682.85
426.341	4947.04
426.548	5289.05
426.756	5143.64
426.964	5205.08
427.171	5407.83
427.379	5721.17
427.586	5684.31
427.794	5946.45
428.001	6231.12
428.209	6474.82
428.417	6210.64
428.624	6859.84
428.832	6650.95
429.039	6798.4
429.247	6868.03
429.454	7449.66
429.662	7855.15
429.869	7349.31
430.076	7945.27
430.284	7568.44
430.491	7875.63
430.699	8311.85
430.906	8373.29
431.114	8641.57
431.321	8870.95
431.528	8985.63
431.736	9557.02
431.943	10085.39
432.15	9858.07
432.358	9837.59
432.565	10486.79
432.772	10404.88
432.979	10906.63
433.187	11033.6
433.394	10980.36
433.601	11951.09
433.808	11721.72
434.016	11953.14
434.223	12336.11
434.43	13061.09
434.637	12970.98
434.844	13710.3
435.052	13743.06
435.259	13644.76
435.466	13976.53
435.673	13562.84
435.88	14640.08
436.087	15248.32
436.294	15297.47
436.501	15057.86
436.708	15320
436.915	15971.25
437.122	16776.11
437.329	16417.71
437.537	16792.49
437.743	17302.43
437.95	17197.99
438.157	18113.43
438.364	18629.52
438.571	18557.84
438.778	18580.37
438.985	20491.12
439.192	19493.76
439.399	20370.29
439.606	19915.64
439.813	21037.93
440.02	22244.18
440.227	22119.26
440.433	21439.33
440.64	22299.48
440.847	22295.38
441.054	22750.03
441.261	24230.71
441.467	23804.74
441.674	24636.21
441.881	25084.72
442.088	25228.07
442.294	25326.38
442.501	25643.81
442.708	26274.59
442.914	27450.12
443.121	28037.89
443.328	27462.41
443.534	29100.78
443.741	28474.1
443.948	28334.84
444.154	30214.88
444.361	30302.94
444.568	30374.62
444.774	29979.36
444.981	30657.24
445.187	31521.48
445.394	32676.54
445.6	32553.66
445.807	35574.41
446.013	34157.22
446.22	34362.01
446.426	35521.16
446.633	35973.77
446.839	37515.89
447.046	35824.26
447.252	37769.83
447.459	37712.49
447.665	37544.56
447.871	39400.02
448.078	40770.11
448.284	39035.48
448.491	40071.75
448.697	41472.56
448.903	42160.68
449.11	42584.61
449.316	41765.42
449.522	42359.33
449.728	43430.42
449.935	43813.39
450.141	44204.55
450.347	44626.43
450.553	43215.38
450.76	43909.64
450.966	44943.87
451.172	44714.5
451.378	45756.91
451.584	44874.24
451.791	46086.64
451.997	45844.98
452.203	46555.62
452.409	46479.85
452.615	46363.11
452.821	44597.76
453.027	44022.28
453.233	46846.43
453.44	45068.79
453.646	45244.92
453.852	46033.39
454.058	46297.58
454.264	45128.19
454.47	45849.07
454.676	44874.24
454.882	46045.68
455.088	41945.64
455.294	42883.61
455.5	43477.52
455.705	44071.43
455.911	42172.97
456.117	41572.91
456.323	40729.15
456.529	38771.29
456.735	40587.84
456.941	39490.13
457.147	39268.95
457.352	37646.96
457.558	37382.77
457.764	37458.54
457.97	36686.46
458.176	36188.8
458.381	35994.25
458.587	34341.53
458.793	34048.68
458.999	32492.22
459.204	34818.71
459.41	33911.46
459.616	31570.63
459.821	31814.34
460.027	31699.65
460.233	31095.5
460.438	29643.49
460.644	29987.55
460.85	28496.63
461.055	28097.28
461.261	27820.8
461.466	26176.28
461.672	25107.24
461.878	27249.42
462.083	24927.02
462.289	24740.66
462.494	24404.79
462.7	23184.2
462.905	22836.05
463.111	23667.52
463.316	23690.05
463.522	23010.12
463.727	23038.8
463.932	23321.41
464.138	22704.98
464.343	22915.92
464.549	22102.87
464.754	22944.59
464.959	23040.84
465.165	22391.64
465.37	21642.08
465.575	21134.18
465.781	22092.63
465.986	21984.09
466.191	21295.97
466.397	20853.61
466.602	19719.04
466.807	20355.96
