Data from USB4F104151__239__14-22-16-048.txt Node

Date: Thu Mar 13 14:22:16 EDT 2025
User: louis
Spectrometer: USB4F10415
Trigger mode: 4
Integration Time (sec): 2.000000E-2
Scans to average: 1
Electric dark correction enabled: true
Nonlinearity correction enabled: false
Boxcar width: 0
XAxis mode: Wavelengths
Number of Pixels in Spectrum: 3648
>>>>>Begin Spectral Data<<<<<
178.204	-132.78
178.424	-132.78
178.644	-132.78
178.864	-143.02
179.084	-134.82
179.304	-22.19
179.524	-5.8
179.744	41.3
179.964	-22.19
180.184	-11.95
180.404	6.49
180.624	4.44
180.844	65.88
181.064	-24.23
181.283	41.3
181.503	-91.82
181.723	18.77
181.943	-71.34
182.163	35.16
182.383	-26.28
182.602	31.06
182.822	31.06
183.042	-5.8
183.262	-32.43
183.482	-30.38
183.701	29.01
183.921	-28.33
184.141	76.12
184.361	131.41
184.58	6.49
184.8	-42.67
185.02	2.39
185.239	18.77
185.459	-3.75
185.679	-5.8
185.898	-61.1
186.118	22.87
186.338	-20.14
186.557	63.83
186.777	-81.58
186.997	14.68
187.216	49.49
187.436	47.44
187.655	-13.99
187.875	47.44
188.095	-61.1
188.314	-9.9
188.534	12.63
188.753	82.26
188.973	90.45
189.192	-22.19
189.412	-9.9
189.631	-11.95
189.851	39.25
190.07	55.64
190.29	18.77
190.509	55.64
190.729	14.68
190.948	69.97
191.168	112.98
191.387	39.25
191.607	-16.04
191.826	6.49
192.045	-9.9
192.265	-71.34
192.484	-1.71
192.704	0.34
192.923	-22.19
193.142	112.98
193.362	47.44
193.581	49.49
193.8	-13.99
194.02	67.92
194.239	76.12
194.458	63.83
194.678	-1.71
194.897	-11.95
195.116	76.12
195.335	22.87
195.555	18.77
195.774	26.96
195.993	8.53
196.212	65.88
196.432	10.58
196.651	39.25
196.87	67.92
197.089	84.31
197.308	84.31
197.528	26.96
197.747	-132.78
197.966	59.73
198.185	96.6
198.404	-1.71
198.623	6.49
198.842	-38.57
199.062	24.92
199.281	20.82
199.5	29.01
199.719	43.35
199.938	76.12
200.157	2.39
200.376	74.07
200.595	74.07
200.814	33.11
201.033	55.64
201.252	20.82
201.471	16.73
201.69	2.39
201.909	33.11
202.128	112.98
202.347	-1.71
202.566	-59.05
202.785	-50.86
203.004	-42.67
203.223	98.64
203.442	18.77
203.661	33.11
203.879	39.25
204.098	72.02
204.317	106.84
204.536	72.02
204.755	57.68
204.974	-44.71
205.193	26.96
205.411	117.08
205.63	-11.95
205.849	39.25
206.068	63.83
206.287	-18.09
206.505	-5.8
206.724	6.49
206.943	-3.75
207.162	12.63
207.381	26.96
207.599	0.34
207.818	-18.09
208.037	53.59
208.255	-50.86
208.474	74.07
208.693	57.68
208.911	6.49
209.13	12.63
209.349	24.92
209.567	49.49
209.786	63.83
210.005	0.34
210.223	24.92
210.442	-1.71
210.661	51.54
210.879	88.4
211.098	43.35
211.316	76.12
211.535	22.87
211.753	-34.47
211.972	92.5
212.191	-16.04
212.409	67.92
212.628	51.54
212.846	-18.09
213.065	-3.75
213.283	10.58
213.502	4.44
213.72	41.3
213.938	-11.95
214.157	-3.75
214.375	-9.9
214.594	41.3
214.812	-16.04
215.031	24.92
215.249	37.2
215.467	-16.04
215.686	80.21
215.904	53.59
216.122	31.06
216.341	51.54
216.559	-120.49
216.778	47.44
216.996	-7.85
217.214	53.59
217.432	-57
217.651	0.34
217.869	-5.8
218.087	63.83
218.306	12.63
218.524	51.54
218.742	10.58
218.96	49.49
219.179	22.87
219.397	16.73
219.615	33.11
219.833	22.87
220.051	6.49
220.27	2.39
220.488	67.92
220.706	55.64
220.924	39.25
221.142	61.78
221.36	18.77
221.578	-5.8
221.796	69.97
222.015	63.83
222.233	49.49
222.451	47.44
222.669	74.07
222.887	74.07
223.105	10.58
223.323	90.45
223.541	47.44
223.759	119.12
223.977	-50.86
224.195	100.69
224.413	-1.71
224.631	-22.19
224.849	-54.95
225.067	33.11
225.285	-40.62
225.503	-26.28
225.721	-26.28
225.939	76.12
226.157	16.73
226.375	112.98
226.592	8.53
226.81	100.69
227.028	33.11
227.246	57.68
227.464	104.79
227.682	39.25
227.9	20.82
228.117	80.21
228.335	88.4
228.553	57.68
228.771	24.92
228.989	31.06
229.206	16.73
229.424	-42.67
229.642	-24.23
229.86	4.44
230.077	-5.8
230.295	37.2
230.513	6.49
230.731	84.31
230.948	-28.33
231.166	94.55
231.384	33.11
231.601	41.3
231.819	49.49
232.037	6.49
232.254	22.87
232.472	43.35
232.689	-7.85
232.907	76.12
233.125	-11.95
233.342	47.44
233.56	-34.47
233.777	39.25
233.995	80.21
234.213	80.21
234.43	90.45
234.648	-16.04
234.865	-1.71
235.083	8.53
235.3	57.68
235.518	-18.09
235.735	98.64
235.953	88.4
236.17	35.16
236.388	14.68
236.605	22.87
236.822	65.88
237.04	69.97
237.257	-28.33
237.475	10.58
237.692	76.12
237.909	59.73
238.127	-9.9
238.344	26.96
238.562	41.3
238.779	49.49
238.996	-5.8
239.214	63.83
239.431	26.96
239.648	49.49
239.865	-26.28
240.083	-1.71
240.3	65.88
240.517	-13.99
240.735	-24.23
240.952	80.21
241.169	-18.09
241.386	72.02
241.603	16.73
241.821	43.35
242.038	96.6
242.255	6.49
242.472	-16.04
242.689	39.25
242.907	86.36
243.124	14.68
243.341	-22.19
243.558	-26.28
243.775	35.16
243.992	-30.38
244.209	80.21
244.426	67.92
244.643	170.32
244.86	22.87
245.078	-1.71
245.295	41.3
245.512	57.68
245.729	6.49
245.946	63.83
246.163	80.21
246.38	57.68
246.597	2.39
246.814	2.39
247.031	22.87
247.248	51.54
247.464	29.01
247.681	-1.71
247.898	74.07
248.115	63.83
248.332	10.58
248.549	6.49
248.766	88.4
248.983	37.2
249.2	39.25
249.417	63.83
249.633	55.64
249.85	96.6
250.067	-26.28
250.284	8.53
250.501	55.64
250.717	31.06
250.934	43.35
251.151	22.87
251.368	31.06
251.585	57.68
251.801	16.73
252.018	-20.14
252.235	10.58
252.451	10.58
252.668	-54.95
252.885	35.16
253.102	47.44
253.318	-18.09
253.535	47.44
253.752	22.87
253.968	-40.62
254.185	22.87
254.401	-9.9
254.618	0.34
254.835	59.73
255.051	55.64
255.268	-9.9
255.484	72.02
255.701	-40.62
255.917	-5.8
256.134	33.11
256.351	33.11
256.567	-24.23
256.784	41.3
257	49.49
257.217	41.3
257.433	35.16
257.65	92.5
257.866	47.44
258.082	24.92
258.299	6.49
258.515	72.02
258.732	72.02
258.948	51.54
259.165	39.25
259.381	-7.85
259.597	59.73
259.814	45.4
260.03	10.58
260.246	96.6
260.463	76.12
260.679	110.93
260.895	41.3
261.112	33.11
261.328	31.06
261.544	31.06
261.761	96.6
261.977	80.21
262.193	65.88
262.409	74.07
262.626	4.44
262.842	6.49
263.058	14.68
263.274	78.16
263.49	72.02
263.707	63.83
263.923	20.82
264.139	2.39
264.355	53.59
264.571	82.26
264.787	41.3
265.004	98.64
265.22	-46.76
265.436	-50.86
265.652	-42.67
265.868	82.26
266.084	31.06
266.3	31.06
266.516	6.49
266.732	121.17
266.948	-34.47
267.164	41.3
267.38	-9.9
267.596	57.68
267.812	55.64
268.028	14.68
268.244	57.68
268.46	-34.47
268.676	41.3
268.892	-9.9
269.108	-24.23
269.324	18.77
269.54	-48.81
269.756	39.25
269.972	10.58
270.188	86.36
270.403	-32.43
270.619	88.4
270.835	31.06
271.051	10.58
271.267	6.49
271.483	47.44
271.698	43.35
271.914	6.49
272.13	65.88
272.346	55.64
272.562	33.11
272.777	33.11
272.993	55.64
273.209	22.87
273.425	-9.9
273.64	49.49
273.856	76.12
274.072	6.49
274.287	-73.39
274.503	33.11
274.719	74.07
274.934	33.11
275.15	-75.43
275.366	16.73
275.581	-36.52
275.797	-34.47
276.012	-26.28
276.228	90.45
276.444	121.17
276.659	2.39
276.875	12.63
277.09	55.64
277.306	92.5
277.521	10.58
277.737	0.34
277.952	82.26
278.168	-1.71
278.383	-24.23
278.599	-24.23
278.814	112.98
279.03	-9.9
279.245	129.36
279.461	39.25
279.676	82.26
279.892	20.82
280.107	10.58
280.322	31.06
280.538	110.93
280.753	92.5
280.969	22.87
281.184	80.21
281.399	-1.71
281.615	20.82
281.83	10.58
282.045	63.83
282.26	14.68
282.476	8.53
282.691	78.16
282.906	41.3
283.122	35.16
283.337	6.49
283.552	92.5
283.767	37.2
283.983	59.73
284.198	39.25
284.413	10.58
284.628	45.4
284.843	16.73
285.058	55.64
285.274	2.39
285.489	67.92
285.704	14.68
285.919	86.36
286.134	47.44
286.349	-48.81
286.564	-5.8
286.779	51.54
286.995	24.92
287.21	10.58
287.425	72.02
287.64	-11.95
287.855	112.98
288.07	-26.28
288.285	14.68
288.5	61.78
288.715	10.58
288.93	-22.19
289.145	121.17
289.36	90.45
289.575	-11.95
289.79	84.31
290.004	31.06
290.219	33.11
290.434	51.54
290.649	-18.09
290.864	35.16
291.079	-28.33
291.294	72.02
291.509	51.54
291.724	102.74
291.938	100.69
292.153	22.87
292.368	31.06
292.583	29.01
292.798	47.44
293.012	6.49
293.227	63.83
293.442	18.77
293.657	88.4
293.871	133.46
294.086	51.54
294.301	98.64
294.516	86.36
294.73	4.44
294.945	-3.75
295.16	29.01
295.374	74.07
295.589	102.74
295.804	-18.09
296.018	-57
296.233	59.73
296.447	43.35
296.662	-40.62
296.877	49.49
297.091	45.4
297.306	31.06
297.52	14.68
297.735	-34.47
297.949	22.87
298.164	92.5
298.378	33.11
298.593	65.88
298.807	-1.71
299.022	123.22
299.236	33.11
299.451	61.78
299.665	0.34
299.88	-1.71
300.094	10.58
300.309	49.49
300.523	47.44
300.737	29.01
300.952	33.11
301.166	6.49
301.381	59.73
301.595	6.49
301.809	98.64
302.024	65.88
302.238	10.58
302.452	-26.28
302.667	55.64
302.881	98.64
303.095	31.06
303.309	26.96
303.524	59.73
303.738	2.39
303.952	22.87
304.166	37.2
304.381	-13.99
304.595	72.02
304.809	47.44
305.023	31.06
305.237	-5.8
305.452	112.98
305.666	110.93
305.88	90.45
306.094	43.35
306.308	117.08
306.522	-26.28
306.736	90.45
306.95	92.5
307.164	57.68
307.379	72.02
307.593	115.03
307.807	72.02
308.021	-7.85
308.235	39.25
308.449	8.53
308.663	94.55
308.877	92.5
309.091	47.44
309.305	108.88
309.519	26.96
309.733	67.92
309.947	-26.28
310.161	96.6
310.374	115.03
310.588	61.78
310.802	49.49
311.016	41.3
311.23	16.73
311.444	65.88
311.658	35.16
311.872	117.08
312.085	31.06
312.299	112.98
312.513	-57
312.727	31.06
312.941	55.64
313.154	53.59
313.368	47.44
313.582	100.69
313.796	14.68
314.009	88.4
314.223	88.4
314.437	43.35
314.651	45.4
314.864	26.96
315.078	-9.9
315.292	67.92
315.505	6.49
315.719	37.2
315.933	76.12
316.146	49.49
316.36	82.26
316.573	80.21
316.787	24.92
317.001	20.82
317.214	63.83
317.428	72.02
317.641	-32.43
317.855	0.34
318.068	37.2
318.282	92.5
318.495	49.49
318.709	69.97
318.922	90.45
319.136	123.22
319.349	100.69
319.563	55.64
319.776	31.06
319.99	49.49
320.203	98.64
320.417	16.73
320.63	125.27
320.843	18.77
321.057	33.11
321.27	-16.04
321.483	22.87
321.697	0.34
321.91	59.73
322.124	65.88
322.337	16.73
322.55	43.35
322.763	14.68
322.977	43.35
323.19	18.77
323.403	57.68
323.617	14.68
323.83	63.83
324.043	-11.95
324.256	90.45
324.469	4.44
324.683	-9.9
324.896	47.44
325.109	94.55
325.322	12.63
325.535	8.53
325.748	74.07
325.962	24.92
326.175	65.88
326.388	47.44
326.601	14.68
326.814	65.88
327.027	82.26
327.24	51.54
327.453	31.06
327.666	80.21
327.879	86.36
328.092	72.02
328.305	45.4
328.518	-9.9
328.731	-50.86
328.944	63.83
329.157	-9.9
329.37	82.26
329.583	211.28
329.796	57.68
330.009	53.59
330.222	59.73
330.435	65.88
330.648	72.02
330.861	22.87
331.073	47.44
331.286	24.92
331.499	47.44
331.712	6.49
331.925	-20.14
332.138	22.87
332.35	2.39
332.563	43.35
332.776	14.68
332.989	22.87
333.202	104.79
333.414	14.68
333.627	51.54
333.84	78.16
334.053	35.16
334.265	-16.04
334.478	18.77
334.691	55.64
334.903	-5.8
335.116	-16.04
335.329	88.4
335.541	47.44
335.754	8.53
335.966	102.74
336.179	76.12
336.392	45.4
336.604	49.49
336.817	41.3
337.029	16.73
337.242	43.35
337.454	145.75
337.667	-44.71
337.88	72.02
338.092	31.06
338.305	80.21
338.517	121.17
338.729	76.12
338.942	86.36
339.154	-1.71
339.367	88.4
339.579	63.83
339.792	63.83
340.004	123.22
340.217	-3.75
340.429	43.35
340.641	26.96
340.854	59.73
341.066	39.25
341.278	59.73
341.491	108.88
341.703	55.64
341.915	24.92
342.128	59.73
342.34	47.44
342.552	12.63
342.764	104.79
342.977	43.35
343.189	18.77
343.401	43.35
343.613	22.87
343.826	45.4
344.038	4.44
344.25	39.25
344.462	-57
344.674	139.6
344.886	86.36
345.099	31.06
345.311	80.21
345.523	55.64
345.735	-34.47
345.947	84.31
346.159	-7.85
346.371	55.64
346.583	45.4
346.795	39.25
347.007	88.4
347.219	63.83
347.431	8.53
347.643	82.26
347.855	63.83
348.067	131.41
348.279	14.68
348.491	35.16
348.703	69.97
348.915	20.82
349.127	33.11
349.339	35.16
349.551	29.01
349.763	117.08
349.975	-24.23
350.187	88.4
350.399	45.4
350.61	137.56
350.822	0.34
351.034	22.87
351.246	49.49
351.458	61.78
351.669	47.44
351.881	55.64
352.093	53.59
352.305	170.32
352.517	29.01
352.728	72.02
352.94	65.88
353.152	80.21
353.363	-26.28
353.575	31.06
353.787	121.17
353.999	143.7
354.21	129.36
354.422	-50.86
354.633	72.02
354.845	-3.75
355.057	41.3
355.268	117.08
355.48	92.5
355.692	6.49
355.903	67.92
356.115	20.82
356.326	47.44
356.538	51.54
356.749	43.35
356.961	104.79
357.172	74.07
357.384	49.49
357.595	90.45
357.807	61.78
358.018	0.34
358.23	57.68
358.441	129.36
358.653	80.21
358.864	57.68
359.075	90.45
359.287	76.12
359.498	41.3
359.709	43.35
359.921	78.16
360.132	65.88
360.344	55.64
360.555	-7.85
360.766	31.06
360.977	24.92
361.189	63.83
361.4	22.87
361.611	55.64
361.823	59.73
362.034	-9.9
362.245	-50.86
362.456	55.64
362.667	57.68
362.879	43.35
363.09	0.34
363.301	72.02
363.512	22.87
363.723	18.77
363.935	41.3
364.146	49.49
364.357	106.84
364.568	84.31
364.779	63.83
364.99	51.54
365.201	22.87
365.412	18.77
365.623	45.4
365.834	55.64
366.045	74.07
366.256	98.64
366.467	69.97
366.678	35.16
366.889	-9.9
367.1	121.17
367.311	59.73
367.522	10.58
367.733	33.11
367.944	137.56
368.155	63.83
368.366	74.07
368.577	67.92
368.788	55.64
368.999	16.73
369.209	76.12
369.42	188.75
369.631	29.01
369.842	80.21
370.053	82.26
370.264	104.79
370.474	35.16
370.685	57.68
370.896	72.02
371.107	90.45
371.317	94.55
371.528	14.68
371.739	57.68
371.95	33.11
372.16	84.31
372.371	86.36
372.582	63.83
372.792	139.6
373.003	55.64
373.214	94.55
373.424	63.83
373.635	29.01
373.846	190.8
374.056	47.44
374.267	39.25
374.477	117.08
374.688	90.45
374.898	45.4
375.109	43.35
375.319	92.5
375.53	131.41
375.74	55.64
375.951	0.34
376.161	0.34
376.372	84.31
376.582	12.63
376.793	96.6
377.003	18.77
377.214	76.12
377.424	155.99
377.635	53.59
377.845	39.25
378.055	90.45
378.266	20.82
378.476	59.73
378.686	65.88
378.897	123.22
379.107	106.84
379.317	41.3
379.528	33.11
379.738	147.8
379.948	-5.8
380.158	96.6
380.369	121.17
380.579	14.68
380.789	96.6
380.999	49.49
381.21	143.7
381.42	74.07
381.63	100.69
381.84	131.41
382.05	125.27
382.261	205.14
382.471	131.41
382.681	115.03
382.891	98.64
383.101	115.03
383.311	35.16
383.521	59.73
383.731	43.35
383.941	39.25
384.151	43.35
384.361	96.6
384.571	67.92
384.781	49.49
384.991	53.59
385.201	145.75
385.411	115.03
385.621	115.03
385.831	57.68
386.041	104.79
386.251	47.44
386.461	162.13
386.671	69.97
386.881	29.01
387.091	49.49
387.301	100.69
387.511	-1.71
387.72	110.93
387.93	65.88
388.14	78.16
388.35	22.87
388.56	137.56
388.769	49.49
388.979	65.88
389.189	8.53
389.399	14.68
389.609	61.78
389.818	90.45
390.028	2.39
390.238	115.03
390.447	41.3
390.657	92.5
390.867	53.59
391.076	80.21
391.286	47.44
391.496	153.94
391.705	33.11
391.915	106.84
392.125	112.98
392.334	59.73
392.544	104.79
392.753	55.64
392.963	61.78
393.172	141.65
393.382	80.21
393.591	115.03
393.801	104.79
394.01	98.64
394.22	47.44
394.429	72.02
394.639	82.26
394.848	112.98
395.058	80.21
395.267	100.69
395.477	80.21
395.686	76.12
395.895	108.88
396.105	164.18
396.314	135.51
396.524	104.79
396.733	102.74
396.942	125.27
397.152	96.6
397.361	98.64
397.57	121.17
397.78	51.54
397.989	176.47
398.198	149.84
398.407	112.98
398.617	108.88
398.826	149.84
399.035	104.79
399.244	221.52
399.453	137.56
399.663	84.31
399.872	108.88
400.081	127.32
400.29	137.56
400.499	129.36
400.708	192.85
400.917	158.03
401.127	108.88
401.336	141.65
401.545	227.67
401.754	239.95
401.963	98.64
402.172	139.6
402.381	145.75
402.59	121.17
402.799	100.69
403.008	174.42
403.217	155.99
403.426	158.03
403.635	205.14
403.844	192.85
404.053	190.8
404.262	215.38
404.471	178.51
404.68	254.29
404.888	158.03
405.097	139.6
405.306	110.93
405.515	205.14
405.724	254.29
405.933	254.29
406.142	303.44
406.35	325.97
406.559	305.49
406.768	330.06
406.977	309.58
407.185	213.33
407.394	272.72
407.603	268.63
407.812	418.13
408.02	252.24
408.229	301.39
408.438	280.91
408.646	301.39
408.855	379.22
409.064	362.83
409.272	344.4
409.481	467.28
409.69	424.27
409.898	371.02
410.107	491.85
410.315	430.41
410.524	477.52
410.733	512.33
410.941	481.61
411.15	555.34
411.358	557.39
411.567	631.12
411.775	557.39
411.984	631.12
412.192	612.68
412.401	620.88
412.609	612.68
412.818	762.19
413.026	753.99
413.234	756.04
413.443	723.27
413.651	688.46
413.86	815.43
414.068	999.75
414.276	940.36
414.485	1005.89
414.693	909.64
414.901	1032.52
415.11	1075.52
415.318	1093.96
415.526	1063.24
415.734	1202.5
415.943	1161.54
416.151	1294.66
416.359	1155.4
416.567	1212.74
416.776	1390.91
416.984	1317.19
417.192	1417.54
417.4	1427.78
417.608	1464.64
417.817	1528.13
418.025	1603.9
418.233	1767.74
418.441	1671.48
418.649	1868.09
418.857	1825.08
419.065	1931.58
419.273	1970.49
419.481	2023.73
419.689	2119.99
419.897	2259.25
420.105	2191.67
420.313	2410.8
420.521	2267.44
420.729	2480.43
420.937	2492.72
421.145	2619.69
421.353	2701.61
421.561	2869.55
421.769	2941.22
421.977	3053.86
422.185	3053.86
422.393	3156.26
422.601	3340.58
422.809	3455.26
423.017	3381.54
423.224	3506.46
423.432	3637.53
423.64	3660.06
423.848	4051.22
424.056	3897.63
424.263	4278.55
424.471	4329.75
424.679	4213.01
424.887	4495.63
425.094	4526.35
425.302	4636.94
425.51	4813.07
425.718	4931.85
425.925	5075.21
426.133	5210.37
426.341	5409.03
426.548	5964.03
426.756	5613.82
426.964	5748.99
427.171	6203.64
427.379	6306.04
427.586	6455.54
427.794	6553.84
428.001	6994.15
428.209	7196.9
428.417	7106.79
428.624	7536.87
428.832	7618.79
429.039	7444.71
429.247	7559.39
429.454	8181.98
429.662	8691.92
429.869	8192.22
430.076	8890.57
430.284	8579.28
430.491	9015.5
430.699	9449.67
430.906	9494.72
431.114	9472.2
431.321	10016.96
431.528	9990.33
431.736	10770.61
431.943	11223.21
432.15	11049.13
432.358	10963.12
432.565	11581.6
432.772	11706.53
432.979	12093.6
433.187	12568.73
433.394	12269.72
433.601	13430.92
433.808	13361.29
434.016	13404.3
434.223	13809.79
434.43	14571.64
434.637	14162.05
434.844	15032.43
435.052	15640.68
435.259	15595.62
435.466	15798.37
435.673	15353.96
435.88	16390.24
436.087	17201.23
436.294	17178.7
436.501	16840.79
436.708	17100.88
436.915	17725.51
437.122	18630.71
437.329	18356.29
437.537	19175.47
437.743	19746.86
437.95	19445.8
438.157	20150.31
438.364	20906.01
438.571	20938.77
438.778	21245.97
438.985	22890.49
439.192	21909.51
439.399	22812.67
439.606	22370.3
439.813	23554.03
440.02	24795.1
440.227	24313.83
440.433	24383.46
440.64	24649.69
440.847	24686.56
441.054	25479.12
441.261	27150.26
441.467	26998.71
441.674	27160.5
441.881	28411.81
442.088	28237.73
442.294	27801.52
442.501	28657.57
442.708	29253.53
442.914	30148.49
443.121	31336.31
443.328	30703.49
443.534	32810.85
443.741	31780.72
443.948	31180.67
444.154	33904.46
444.361	33609.56
444.568	34107.21
444.774	33845.07
444.981	34500.42
445.187	34989.89
445.394	36517.67
445.6	35796.79
445.807	39264
446.013	37949.2
446.22	38717.19
446.426	39945.97
446.633	40267.5
446.839	41742.04
447.046	39661.3
447.252	42104.53
447.459	42004.18
447.665	42034.9
447.871	43970.23
448.078	45731.48
448.284	43214.53
448.491	44715.69
448.697	46401.17
448.903	47072.9
449.11	47771.26
449.316	46386.83
449.522	47201.93
449.728	48371.32
449.935	48969.32
450.141	48529.01
450.347	50071.13
450.553	48199.29
450.76	49016.43
450.966	50853.45
451.172	49837.66
451.378	50908.75
451.584	50667.09
451.791	51246.66
451.997	51228.23
452.203	51838.53
452.409	52276.79
452.615	52162.11
452.821	49913.44
453.027	49651.3
453.233	52260.41
453.44	50095.7
453.646	51056.2
453.852	51127.88
454.058	51918.4
454.264	50245.21
454.47	51473.99
454.676	50140.76
454.882	52037.18
455.088	47242.88
455.294	48336.5
455.5	48885.36
455.705	49317.48
455.911	47206.02
456.117	46503.57
456.323	46282.39
456.529	43851.45
456.735	45715.1
456.941	44498.61
457.147	43843.26
457.352	42399.44
457.558	42284.75
457.764	42028.76
457.97	41248.48
458.176	40627.95
458.381	40783.59
458.587	38885.12
458.793	38352.65
458.999	36751.14
459.204	39202.56
459.41	38293.26
459.616	35542.84
459.821	35925.81
460.027	36067.12
460.233	35307.32
460.438	33146.72
460.644	33781.59
460.85	32274.28
461.055	31672.18
461.261	31725.43
461.466	29607.83
461.672	28268.45
461.878	30439.3
462.083	28438.44
462.289	28084.14
462.494	28037.03
462.7	26273.73
462.905	25962.44
463.111	26759.1
463.316	27039.67
463.522	26036.17
463.727	25872.33
463.932	26224.58
464.138	25817.04
464.343	26064.84
464.549	25178.07
464.754	25970.63
464.959	25616.33
465.165	25403.35
465.37	24666.08
465.575	23963.62
465.781	24831.96
465.986	25137.11
466.191	23863.27
466.397	23732.2
466.602	22622.2
466.807	23363.57
467.012	23496.69
