Data from USB4F104151__213__14-21-09-052.txt Node

Date: Thu Mar 13 14:21:09 EDT 2025
User: louis
Spectrometer: USB4F10415
Trigger mode: 4
Integration Time (sec): 2.000000E-2
Scans to average: 1
Electric dark correction enabled: true
Nonlinearity correction enabled: false
Boxcar width: 0
XAxis mode: Wavelengths
Number of Pixels in Spectrum: 3648
>>>>>Begin Spectral Data<<<<<
178.204	-141.31
178.424	-141.31
178.644	-141.31
178.864	-126.97
179.084	-106.49
179.304	-34.82
179.524	-14.34
179.744	12.29
179.964	14.34
180.184	61.44
180.404	22.53
180.624	-30.72
180.844	47.1
181.064	26.62
181.283	-90.11
181.503	-43.01
181.723	28.67
181.943	-8.19
182.163	141.31
182.383	-6.14
182.602	8.19
182.822	2.05
183.042	4.1
183.262	16.38
183.482	49.15
183.701	26.62
183.921	2.05
184.141	-14.34
184.361	18.43
184.58	-90.11
184.8	110.59
185.02	26.62
185.239	55.3
185.459	8.19
185.679	10.24
185.898	-47.1
186.118	32.77
186.338	32.77
186.557	40.96
186.777	-6.14
186.997	12.29
187.216	10.24
187.436	118.78
187.655	30.72
187.875	92.16
188.095	45.06
188.314	94.21
188.534	26.62
188.753	-24.58
188.973	38.91
189.192	63.49
189.412	-10.24
189.631	36.86
189.851	10.24
190.07	59.39
190.29	-81.92
190.509	94.21
190.729	14.34
190.948	-6.14
191.168	112.64
191.387	71.68
191.607	38.91
191.826	22.53
192.045	34.82
192.265	-4.1
192.484	83.97
192.704	67.58
192.923	-55.3
193.142	102.4
193.362	34.82
193.581	88.06
193.8	86.01
194.02	34.82
194.239	36.86
194.458	77.82
194.678	67.58
194.897	-0
195.116	-30.72
195.335	-18.43
195.555	12.29
195.774	75.77
195.993	8.19
196.212	-55.3
196.432	36.86
196.651	10.24
196.87	22.53
197.089	81.92
197.308	-4.1
197.528	-14.34
197.747	38.91
197.966	28.67
198.185	100.35
198.404	20.48
198.623	73.73
198.842	45.06
199.062	4.1
199.281	34.82
199.5	-30.72
199.719	14.34
199.938	4.1
200.157	30.72
200.376	12.29
200.595	22.53
200.814	-4.1
201.033	-30.72
201.252	32.77
201.471	-16.38
201.69	30.72
201.909	-6.14
202.128	43.01
202.347	10.24
202.566	-57.34
202.785	-53.25
203.004	-30.72
203.223	75.77
203.442	81.92
203.661	28.67
203.879	14.34
204.098	20.48
204.317	10.24
204.536	69.63
204.755	92.16
204.974	51.2
205.193	51.2
205.411	12.29
205.63	18.43
205.849	-36.86
206.068	24.58
206.287	59.39
206.505	-34.82
206.724	69.63
206.943	34.82
207.162	6.14
207.381	83.97
207.599	-2.05
207.818	10.24
208.037	59.39
208.255	47.1
208.474	61.44
208.693	22.53
208.911	6.14
209.13	92.16
209.349	22.53
209.567	49.15
209.786	51.2
210.005	43.01
210.223	18.43
210.442	-2.05
210.661	-30.72
210.879	-16.38
211.098	51.2
211.316	34.82
211.535	94.21
211.753	26.62
211.972	34.82
212.191	28.67
212.409	53.25
212.628	47.1
212.846	49.15
213.065	36.86
213.283	63.49
213.502	2.05
213.72	59.39
213.938	-26.62
214.157	32.77
214.375	-38.91
214.594	-36.86
214.812	-12.29
215.031	43.01
215.249	47.1
215.467	-0
215.686	38.91
215.904	28.67
216.122	-16.38
216.341	34.82
216.559	77.82
216.778	92.16
216.996	51.2
217.214	92.16
217.432	-40.96
217.651	26.62
217.869	22.53
218.087	53.25
218.306	83.97
218.524	92.16
218.742	2.05
218.96	104.45
219.179	43.01
219.397	-38.91
219.615	116.73
219.833	26.62
220.051	-38.91
220.27	67.58
220.488	55.3
220.706	24.58
220.924	53.25
221.142	-10.24
221.36	36.86
221.578	10.24
221.796	18.43
222.015	47.1
222.233	59.39
222.451	45.06
222.669	-6.14
222.887	53.25
223.105	59.39
223.323	2.05
223.541	55.3
223.759	-0
223.977	-34.82
224.195	26.62
224.413	75.77
224.631	28.67
224.849	43.01
225.067	43.01
225.285	26.62
225.503	108.54
225.721	75.77
225.939	63.49
226.157	28.67
226.375	77.82
226.592	45.06
226.81	-30.72
227.028	94.21
227.246	45.06
227.464	10.24
227.682	14.34
227.9	28.67
228.117	28.67
228.335	34.82
228.553	-4.1
228.771	10.24
228.989	34.82
229.206	18.43
229.424	22.53
229.642	-22.53
229.86	-34.82
230.077	61.44
230.295	47.1
230.513	40.96
230.731	59.39
230.948	30.72
231.166	4.1
231.384	26.62
231.601	59.39
231.819	8.19
232.037	69.63
232.254	-43.01
232.472	83.97
232.689	-14.34
232.907	47.1
233.125	30.72
233.342	-4.1
233.56	-43.01
233.777	36.86
233.995	10.24
234.213	12.29
234.43	28.67
234.648	57.34
234.865	28.67
235.083	81.92
235.3	43.01
235.518	43.01
235.735	36.86
235.953	34.82
236.17	61.44
236.388	34.82
236.605	22.53
236.822	45.06
237.04	36.86
237.257	94.21
237.475	45.06
237.692	55.3
237.909	18.43
238.127	12.29
238.344	-6.14
238.562	83.97
238.779	-18.43
238.996	-22.53
239.214	63.49
239.431	61.44
239.648	6.14
239.865	124.93
240.083	43.01
240.3	38.91
240.517	67.58
240.735	2.05
240.952	100.35
241.169	67.58
241.386	43.01
241.603	30.72
241.821	-2.05
242.038	75.77
242.255	-0
242.472	-12.29
242.689	69.63
242.907	47.1
243.124	16.38
243.341	-4.1
243.558	94.21
243.775	-47.1
243.992	-30.72
244.209	-24.58
244.426	124.93
244.643	43.01
244.86	28.67
245.078	43.01
245.295	43.01
245.512	22.53
245.729	92.16
245.946	6.14
246.163	67.58
246.38	53.25
246.597	4.1
246.814	-4.1
247.031	2.05
247.248	4.1
247.464	22.53
247.681	-4.1
247.898	43.01
248.115	2.05
248.332	-30.72
248.549	38.91
248.766	79.87
248.983	4.1
249.2	-20.48
249.417	79.87
249.633	4.1
249.85	157.69
250.067	-22.53
250.284	69.63
250.501	-43.01
250.717	36.86
250.934	-14.34
251.151	20.48
251.368	55.3
251.585	69.63
251.801	24.58
252.018	75.77
252.235	38.91
252.451	34.82
252.668	-10.24
252.885	86.01
253.102	71.68
253.318	32.77
253.535	4.1
253.752	67.58
253.968	16.38
254.185	92.16
254.401	40.96
254.618	-14.34
254.835	67.58
255.051	118.78
255.268	43.01
255.484	38.91
255.701	-36.86
255.917	67.58
256.134	55.3
256.351	38.91
256.567	40.96
256.784	59.39
257	-18.43
257.217	-14.34
257.433	34.82
257.65	100.35
257.866	47.1
258.082	10.24
258.299	-30.72
258.515	14.34
258.732	16.38
258.948	34.82
259.165	22.53
259.381	-34.82
259.597	83.97
259.814	14.34
260.03	69.63
260.246	53.25
260.463	69.63
260.679	18.43
260.895	-2.05
261.112	45.06
261.328	-12.29
261.544	10.24
261.761	63.49
261.977	-4.1
262.193	-30.72
262.409	63.49
262.626	22.53
262.842	47.1
263.058	-4.1
263.274	45.06
263.49	26.62
263.707	-63.49
263.923	53.25
264.139	-30.72
264.355	16.38
264.571	36.86
264.787	45.06
265.004	65.53
265.22	-32.77
265.436	-49.15
265.652	69.63
265.868	55.3
266.084	-20.48
266.3	83.97
266.516	2.05
266.732	26.62
266.948	-20.48
267.164	-30.72
267.38	18.43
267.596	55.3
267.812	45.06
268.028	36.86
268.244	61.44
268.46	51.2
268.676	38.91
268.892	-12.29
269.108	67.58
269.324	4.1
269.54	16.38
269.756	102.4
269.972	59.39
270.188	32.77
270.403	4.1
270.619	53.25
270.835	92.16
271.051	75.77
271.267	38.91
271.483	59.39
271.698	-20.48
271.914	-36.86
272.13	51.2
272.346	-10.24
272.562	47.1
272.777	49.15
272.993	-18.43
273.209	-4.1
273.425	51.2
273.64	28.67
273.856	63.49
274.072	28.67
274.287	-63.49
274.503	59.39
274.719	26.62
274.934	8.19
275.15	-14.34
275.366	-10.24
275.581	20.48
275.797	69.63
276.012	69.63
276.228	14.34
276.444	57.34
276.659	47.1
276.875	28.67
277.09	67.58
277.306	32.77
277.521	2.05
277.737	10.24
277.952	61.44
278.168	2.05
278.383	18.43
278.599	-36.86
278.814	94.21
279.03	-18.43
279.245	51.2
279.461	49.15
279.676	43.01
279.892	8.19
280.107	-8.19
280.322	-22.53
280.538	98.3
280.753	2.05
280.969	30.72
281.184	12.29
281.399	67.58
281.615	6.14
281.83	20.48
282.045	2.05
282.26	49.15
282.476	73.73
282.691	96.25
282.906	122.88
283.122	-6.14
283.337	16.38
283.552	71.68
283.767	-0
283.983	32.77
284.198	47.1
284.413	59.39
284.628	-36.86
284.843	83.97
285.058	6.14
285.274	-20.48
285.489	30.72
285.704	12.29
285.919	-2.05
286.134	14.34
286.349	55.3
286.564	67.58
286.779	67.58
286.995	18.43
287.21	24.58
287.425	24.58
287.64	75.77
287.855	92.16
288.07	4.1
288.285	-4.1
288.5	75.77
288.715	71.68
288.93	10.24
289.145	83.97
289.36	67.58
289.575	28.67
289.79	92.16
290.004	20.48
290.219	86.01
290.434	-10.24
290.649	28.67
290.864	-49.15
291.079	94.21
291.294	69.63
291.509	24.58
291.724	43.01
291.938	-36.86
292.153	6.14
292.368	36.86
292.583	45.06
292.798	143.36
293.012	18.43
293.227	8.19
293.442	34.82
293.657	-28.67
293.871	108.54
294.086	2.05
294.301	59.39
294.516	75.77
294.73	116.73
294.945	-36.86
295.16	61.44
295.374	67.58
295.589	2.05
295.804	43.01
296.018	55.3
296.233	12.29
296.447	2.05
296.662	34.82
296.877	22.53
297.091	61.44
297.306	83.97
297.52	-36.86
297.735	67.58
297.949	10.24
298.164	79.87
298.378	61.44
298.593	-38.91
298.807	53.25
299.022	67.58
299.236	108.54
299.451	34.82
299.665	59.39
299.88	34.82
300.094	43.01
300.309	43.01
300.523	43.01
300.737	32.77
300.952	34.82
301.166	61.44
301.381	2.05
301.595	65.53
301.809	22.53
302.024	83.97
302.238	8.19
302.452	86.01
302.667	12.29
302.881	106.49
303.095	51.2
303.309	108.54
303.524	-20.48
303.738	-22.53
303.952	-36.86
304.166	24.58
304.381	34.82
304.595	83.97
304.809	28.67
305.023	38.91
305.237	-30.72
305.452	67.58
305.666	77.82
305.88	59.39
306.094	51.2
306.308	77.82
306.522	65.53
306.736	65.53
306.95	-2.05
307.164	43.01
307.379	-2.05
307.593	49.15
307.807	51.2
308.021	26.62
308.235	75.77
308.449	10.24
308.663	59.39
308.877	94.21
309.091	61.44
309.305	45.06
309.519	-4.1
309.733	10.24
309.947	61.44
310.161	51.2
310.374	28.67
310.588	83.97
310.802	18.43
311.016	59.39
311.23	32.77
311.444	53.25
311.658	26.62
311.872	133.12
312.085	16.38
312.299	79.87
312.513	55.3
312.727	92.16
312.941	-16.38
313.154	-12.29
313.368	-2.05
313.582	43.01
313.796	65.53
314.009	151.55
314.223	116.73
314.437	-18.43
314.651	28.67
314.864	-28.67
315.078	-6.14
315.292	-63.49
315.505	26.62
315.719	92.16
315.933	28.67
316.146	14.34
316.36	32.77
316.573	98.3
316.787	67.58
317.001	2.05
317.214	-30.72
317.428	55.3
317.641	-43.01
317.855	24.58
318.068	-4.1
318.282	24.58
318.495	129.02
318.709	102.4
318.922	57.34
319.136	77.82
319.349	63.49
319.563	45.06
319.776	-22.53
319.99	61.44
320.203	22.53
320.417	59.39
320.63	4.1
320.843	55.3
321.057	40.96
321.27	104.45
321.483	12.29
321.697	94.21
321.91	4.1
322.124	71.68
322.337	65.53
322.55	90.11
322.763	40.96
322.977	-2.05
323.19	69.63
323.403	16.38
323.617	2.05
323.83	69.63
324.043	34.82
324.256	53.25
324.469	-24.58
324.683	71.68
324.896	67.58
325.109	49.15
325.322	-12.29
325.535	53.25
325.748	43.01
325.962	47.1
326.175	73.73
326.388	-18.43
326.601	-75.77
326.814	32.77
327.027	12.29
327.24	53.25
327.453	59.39
327.666	63.49
327.879	79.87
328.092	45.06
328.305	26.62
328.518	26.62
328.731	55.3
328.944	-20.48
329.157	-53.25
329.37	63.49
329.583	28.67
329.796	75.77
330.009	26.62
330.222	28.67
330.435	57.34
330.648	63.49
330.861	59.39
331.073	63.49
331.286	34.82
331.499	75.77
331.712	-38.91
331.925	38.91
332.138	75.77
332.35	55.3
332.563	-6.14
332.776	94.21
332.989	34.82
333.202	45.06
333.414	34.82
333.627	67.58
333.84	92.16
334.053	61.44
334.265	51.2
334.478	22.53
334.691	-24.58
334.903	10.24
335.116	-47.1
335.329	34.82
335.541	12.29
335.754	61.44
335.966	6.14
336.179	12.29
336.392	30.72
336.604	-8.19
336.817	36.86
337.029	73.73
337.242	-16.38
337.454	55.3
337.667	59.39
337.88	110.59
338.092	2.05
338.305	10.24
338.517	40.96
338.729	-30.72
338.942	6.14
339.154	4.1
339.367	51.2
339.579	92.16
339.792	-34.82
340.004	83.97
340.217	30.72
340.429	53.25
340.641	12.29
340.854	-6.14
341.066	55.3
341.278	40.96
341.491	110.59
341.703	38.91
341.915	-8.19
342.128	126.97
342.34	51.2
342.552	-22.53
342.764	4.1
342.977	94.21
343.189	55.3
343.401	67.58
343.613	67.58
343.826	59.39
344.038	-0
344.25	18.43
344.462	36.86
344.674	59.39
344.886	110.59
345.099	69.63
345.311	61.44
345.523	28.67
345.735	-57.34
345.947	30.72
346.159	38.91
346.371	47.1
346.583	-24.58
346.795	106.49
347.007	-2.05
347.219	45.06
347.431	-14.34
347.643	77.82
347.855	69.63
348.067	86.01
348.279	-14.34
348.491	6.14
348.703	2.05
348.915	43.01
349.127	55.3
349.339	67.58
349.551	47.1
349.763	55.3
349.975	71.68
350.187	110.59
350.399	67.58
350.61	59.39
350.822	20.48
351.034	61.44
351.246	4.1
351.458	34.82
351.669	24.58
351.881	96.25
352.093	71.68
352.305	90.11
352.517	61.44
352.728	79.87
352.94	96.25
353.152	86.01
353.363	4.1
353.575	22.53
353.787	83.97
353.999	65.53
354.21	118.78
354.422	-10.24
354.633	-12.29
354.845	-16.38
355.057	51.2
355.268	67.58
355.48	-18.43
355.692	36.86
355.903	88.06
356.115	30.72
356.326	-38.91
356.538	34.82
356.749	67.58
356.961	102.4
357.172	34.82
357.384	67.58
357.595	10.24
357.807	34.82
358.018	63.49
358.23	59.39
358.441	98.3
358.653	45.06
358.864	69.63
359.075	12.29
359.287	73.73
359.498	63.49
359.709	20.48
359.921	77.82
360.132	30.72
360.344	100.35
360.555	34.82
360.766	32.77
360.977	36.86
361.189	49.15
361.4	90.11
361.611	110.59
361.823	43.01
362.034	43.01
362.245	-6.14
362.456	30.72
362.667	63.49
362.879	43.01
363.09	92.16
363.301	59.39
363.512	10.24
363.723	-26.62
363.935	12.29
364.146	6.14
364.357	22.53
364.568	61.44
364.779	-47.1
364.99	110.59
365.201	28.67
365.412	75.77
365.623	40.96
365.834	20.48
366.045	57.34
366.256	73.73
366.467	69.63
366.678	22.53
366.889	-10.24
367.1	83.97
367.311	124.93
367.522	149.5
367.733	-4.1
367.944	18.43
368.155	-10.24
368.366	73.73
368.577	114.69
368.788	51.2
368.999	96.25
369.209	38.91
369.42	104.45
369.631	100.35
369.842	43.01
370.053	20.48
370.264	16.38
370.474	26.62
370.685	102.4
370.896	8.19
371.107	100.35
371.317	34.82
371.528	-26.62
371.739	137.21
371.95	53.25
372.16	59.39
372.371	-55.3
372.582	96.25
372.792	28.67
373.003	59.39
373.214	45.06
373.424	104.45
373.635	-22.53
373.846	53.25
374.056	53.25
374.267	14.34
374.477	59.39
374.688	59.39
374.898	38.91
375.109	98.3
375.319	34.82
375.53	36.86
375.74	36.86
375.951	34.82
376.161	2.05
376.372	10.24
376.582	26.62
376.793	43.01
377.003	38.91
377.214	61.44
377.424	69.63
377.635	75.77
377.845	20.48
378.055	83.97
378.266	59.39
378.476	86.01
378.686	61.44
378.897	61.44
379.107	40.96
379.317	14.34
379.528	32.77
379.738	75.77
379.948	4.1
380.158	129.02
380.369	38.91
380.579	12.29
380.789	32.77
380.999	104.45
381.21	38.91
381.42	94.21
381.63	-2.05
381.84	71.68
382.05	26.62
382.261	118.78
382.471	20.48
382.681	-0
382.891	110.59
383.101	79.87
383.311	53.25
383.521	102.4
383.731	59.39
383.941	51.2
384.151	32.77
384.361	38.91
384.571	43.01
384.781	43.01
384.991	165.89
385.201	137.21
385.411	12.29
385.621	77.82
385.831	10.24
386.041	51.2
386.251	112.64
386.461	51.2
386.671	26.62
386.881	43.01
387.091	98.3
387.301	135.17
387.511	79.87
387.72	92.16
387.93	88.06
388.14	32.77
388.35	51.2
388.56	100.35
388.769	83.97
388.979	83.97
389.189	-12.29
389.399	51.2
389.609	67.58
389.818	139.26
390.028	75.77
390.238	-4.1
390.447	75.77
390.657	126.97
390.867	75.77
391.076	32.77
391.286	96.25
391.496	92.16
391.705	59.39
391.915	118.78
392.125	126.97
392.334	28.67
392.544	38.91
392.753	63.49
392.963	34.82
393.172	79.87
393.382	67.58
393.591	51.2
393.801	65.53
394.01	161.79
394.22	57.34
394.429	102.4
394.639	59.39
394.848	102.4
395.058	73.73
395.267	26.62
395.477	102.4
395.686	-6.14
395.895	18.43
396.105	141.31
396.314	94.21
396.524	110.59
396.733	100.35
396.942	108.54
397.152	167.93
397.361	67.58
397.57	67.58
397.78	71.68
397.989	6.14
398.198	94.21
398.407	67.58
398.617	61.44
398.826	108.54
399.035	38.91
399.244	98.3
399.453	88.06
399.663	112.64
399.872	63.49
400.081	126.97
400.29	133.12
400.499	75.77
400.708	94.21
400.917	43.01
401.127	133.12
401.336	75.77
401.545	161.79
401.754	126.97
401.963	118.78
402.172	133.12
402.381	120.83
402.59	86.01
402.799	116.73
403.008	176.13
403.217	165.89
403.426	124.93
403.635	88.06
403.844	124.93
404.053	75.77
404.262	124.93
404.471	194.56
404.68	180.22
404.888	174.08
405.097	88.06
405.306	180.22
405.515	67.58
405.724	165.89
405.933	219.13
406.142	157.69
406.35	92.16
406.559	159.74
406.768	165.89
406.977	172.03
407.185	176.13
407.394	272.38
407.603	157.69
407.812	231.42
408.02	184.32
408.229	217.08
408.438	192.51
408.646	233.47
408.855	194.56
409.064	247.8
409.272	247.8
409.481	249.85
409.69	165.89
409.898	223.23
410.107	225.28
410.315	301.05
410.524	264.19
410.733	258.04
410.941	258.04
411.15	296.96
411.358	428.03
411.567	399.35
411.775	356.35
411.984	296.96
412.192	415.74
412.401	436.22
412.609	378.87
412.818	399.35
413.026	397.31
413.234	550.9
413.443	452.6
413.651	454.65
413.86	501.75
414.068	552.95
414.276	585.72
414.485	534.52
414.693	587.77
414.901	587.77
415.11	561.14
415.318	565.24
415.526	641.01
415.734	690.17
415.943	708.6
416.151	677.88
416.359	659.45
416.567	710.65
416.776	755.7
416.984	825.33
417.192	813.04
417.4	878.58
417.608	862.19
417.817	819.19
418.025	960.5
418.233	1105.9
418.441	909.3
418.649	985.07
418.857	1134.57
419.065	1077.23
419.273	1075.18
419.481	1163.25
419.689	1255.4
419.897	1331.18
420.105	1314.8
420.313	1339.37
420.521	1423.34
420.729	1476.59
420.937	1454.06
421.145	1519.59
421.353	1486.83
421.561	1746.92
421.769	1742.82
421.977	1820.64
422.185	1738.73
422.393	1914.85
422.601	1904.61
422.809	1939.43
423.017	1990.63
423.224	2160.61
423.432	2250.72
423.64	2109.41
423.848	2254.81
424.056	2295.77
424.263	2500.57
424.471	2463.71
424.679	2484.19
424.887	2592.73
425.094	2725.85
425.302	2650.07
425.51	2770.9
425.718	2891.73
425.925	2992.08
426.133	3047.38
426.341	3108.82
426.548	3272.65
426.756	3325.9
426.964	3336.14
427.171	3598.28
427.379	3747.78
427.586	3729.35
427.794	3917.76
428.001	3944.39
428.209	4450.24
428.417	4155.33
428.624	4362.17
428.832	4265.92
429.039	4466.62
429.247	4356.03
429.454	4876.21
429.662	5107.63
429.869	4890.55
430.076	5377.97
430.284	4966.32
430.491	5457.84
430.699	5459.88
430.906	5605.29
431.114	5742.5
431.321	5844.9
431.528	5941.16
431.736	6211.49
431.943	6680.47
432.15	6373.28
432.358	6342.56
432.565	6735.77
432.772	6682.52
432.979	7137.17
433.187	7399.31
433.394	7270.29
433.601	7792.52
433.808	7774.09
434.016	7735.18
434.223	7987.08
434.43	8605.56
434.637	8492.93
434.844	8927.1
435.052	9170.8
435.259	9072.5
435.466	9181.04
435.673	9166.71
435.88	9592.69
436.087	10149.73
436.294	10063.72
436.501	9922.41
436.708	9856.87
436.915	10524.51
437.122	10809.18
437.329	10823.51
437.537	11153.24
437.743	11515.73
437.95	11372.37
438.157	11841.36
438.364	12171.08
438.571	12177.22
438.778	12308.29
438.985	13483.83
439.192	13113.14
439.399	13385.52
439.606	12900.16
439.813	13840.17
440.02	14548.77
440.227	14391.08
440.433	14133.03
440.64	14661.41
440.847	14446.37
441.054	14747.42
441.261	15779.6
441.467	15658.77
441.674	16115.47
441.881	16568.07
442.088	16512.77
442.294	16340.74
442.501	16953.09
442.708	16975.61
442.914	17946.35
443.121	18413.29
443.328	18058.99
443.534	19273.43
443.741	18902.75
443.948	18384.62
444.154	19820.24
444.361	19891.92
444.568	19771.09
444.774	19803.86
444.981	19885.78
445.187	20731.59
445.394	21401.27
445.6	21108.41
445.807	23084.7
446.013	22333.1
446.22	22701.73
446.426	23350.94
446.633	23768.73
446.839	24651.4
447.046	23307.93
447.252	24653.45
447.459	24718.98
447.665	24864.39
447.871	25923.19
448.078	26801.77
448.284	25683.58
448.491	26541.67
448.697	27070.05
448.903	27782.74
449.11	28061.27
449.316	27268.7
449.522	27997.78
449.728	28646.99
449.935	28700.23
450.141	28589.64
450.347	29507.13
450.553	28556.88
450.76	29187.65
450.966	30131.76
451.172	29603.39
451.378	30475.82
451.584	29980.21
451.791	29998.65
451.997	30551.6
452.203	30711.34
452.409	31145.51
452.615	30965.29
452.821	29795.9
453.027	29650.49
453.233	30703.15
453.44	29554.24
453.646	30215.73
453.852	30127.67
454.058	30635.56
454.264	29644.35
454.47	30502.45
454.676	29621.82
454.882	30832.17
455.088	28286.54
455.294	28294.74
455.5	28913.22
455.705	29359.68
455.911	27829.85
456.117	27309.66
456.323	26934.89
456.529	25757.3
456.735	26691.18
456.941	26103.41
457.147	25740.92
457.352	24772.23
457.558	24673.93
457.764	24729.22
457.97	24286.86
458.176	24014.48
458.381	23688.85
458.587	22478.5
458.793	22632.1
458.999	21370.55
459.204	23023.26
459.41	22386.35
459.616	20831.94
459.821	20784.83
460.027	20735.68
460.233	20317.9
460.438	19408.6
460.644	19828.43
460.85	18730.72
461.055	18411.24
461.261	18370.28
461.466	17086.2
461.672	16586.5
461.878	17612.53
462.083	16541.44
462.289	16205.58
462.494	16115.47
462.7	15435.54
462.905	15009.56
463.111	15353.62
463.316	15507.22
463.522	15171.35
463.727	15095.58
463.932	15294.23
464.138	15015.71
464.343	14823.2
464.549	14630.69
464.754	15204.12
464.959	15263.51
465.165	14993.18
465.37	14143.27
465.575	13922.09
465.781	14419.75
465.986	14546.72
466.191	13963.05
466.397	13739.82
466.602	13219.64
466.807	13754.16
467.012	13512.5
467.218	13143.86
467.423	13248.31
467.628	13651.76
467.833	13952.81
468.038	13627.18
