Data from USB4F104151__240__14-22-16-588.txt Node

Date: Thu Mar 13 14:22:16 EDT 2025
User: louis
Spectrometer: USB4F10415
Trigger mode: 4
Integration Time (sec): 2.000000E-2
Scans to average: 1
Electric dark correction enabled: true
Nonlinearity correction enabled: false
Boxcar width: 0
XAxis mode: Wavelengths
Number of Pixels in Spectrum: 3648
>>>>>Begin Spectral Data<<<<<
178.204	-111.78
178.424	-111.78
178.644	-111.78
178.864	-158.89
179.084	-177.32
179.304	-48.3
179.524	11.09
179.744	9.05
179.964	25.43
180.184	2.9
180.404	25.43
180.624	-3.24
180.844	11.09
181.064	-52.39
181.283	27.48
181.503	-40.11
181.723	31.57
181.943	-74.92
182.163	43.86
182.383	-13.48
182.602	-40.11
182.822	66.39
183.042	2.9
183.262	19.29
183.482	21.33
183.701	21.33
183.921	41.81
184.141	-38.06
184.361	9.05
184.58	-31.91
184.8	19.29
185.02	50
185.239	84.82
185.459	-7.34
185.679	41.81
185.898	0.85
186.118	-23.72
186.338	17.24
186.557	41.81
186.777	-19.63
186.997	25.43
187.216	19.29
187.436	144.21
187.655	-1.19
187.875	-72.87
188.095	-13.48
188.314	37.72
188.534	119.64
188.753	-5.29
188.973	-60.59
189.192	17.24
189.412	19.29
189.631	23.38
189.851	7
190.07	41.81
190.29	-115.88
190.509	29.52
190.729	-48.3
190.948	123.73
191.168	90.96
191.387	107.35
191.607	-7.34
191.826	27.48
192.045	-38.06
192.265	-29.87
192.484	2.9
192.704	25.43
192.923	-56.49
193.142	-7.34
193.362	41.81
193.581	60.24
193.8	-40.11
194.02	68.44
194.239	-36.01
194.458	2.9
194.678	-21.67
194.897	52.05
195.116	-15.53
195.335	-62.63
195.555	-15.53
195.774	-29.87
195.993	17.24
196.212	84.82
196.432	-62.63
196.651	25.43
196.87	17.24
197.089	88.92
197.308	43.86
197.528	0.85
197.747	-56.49
197.966	-27.82
198.185	15.19
198.404	45.91
198.623	9.05
198.842	41.81
199.062	25.43
199.281	33.62
199.5	0.85
199.719	37.72
199.938	-54.44
200.157	41.81
200.376	-48.3
200.595	60.24
200.814	-15.53
201.033	-9.39
201.252	45.91
201.471	-11.43
201.69	86.87
201.909	4.95
202.128	-52.39
202.347	13.14
202.566	15.19
202.785	0.85
203.004	-17.58
203.223	39.76
203.442	-42.15
203.661	-48.3
203.879	-42.15
204.098	23.38
204.317	-54.44
204.536	66.39
204.755	-15.53
204.974	17.24
205.193	-40.11
205.411	82.77
205.63	-7.34
205.849	-31.91
206.068	0.85
206.287	23.38
206.505	-5.29
206.724	9.05
206.943	-87.21
207.162	-3.24
207.381	45.91
207.599	-5.29
207.818	13.14
208.037	-62.63
208.255	-31.91
208.474	-40.11
208.693	19.29
208.911	-5.29
209.13	58.2
209.349	-56.49
209.567	-31.91
209.786	27.48
210.005	-36.01
210.223	0.85
210.442	-54.44
210.661	-5.29
210.879	9.05
211.098	-52.39
211.316	97.11
211.535	2.9
211.753	-54.44
211.972	31.57
212.191	-76.97
212.409	-23.72
212.628	66.39
212.846	41.81
213.065	78.68
213.283	33.62
213.502	9.05
213.72	-27.82
213.938	-54.44
214.157	-36.01
214.375	-44.2
214.594	-56.49
214.812	62.29
215.031	-9.39
215.249	17.24
215.467	-1.19
215.686	25.43
215.904	-25.77
216.122	27.48
216.341	0.85
216.559	27.48
216.778	27.48
216.996	60.24
217.214	43.86
217.432	11.09
217.651	-38.06
217.869	29.52
218.087	-23.72
218.306	-7.34
218.524	-79.02
218.742	-19.63
218.96	62.29
219.179	45.91
219.397	45.91
219.615	33.62
219.833	50
220.051	-29.87
220.27	50
220.488	19.29
220.706	-15.53
220.924	-19.63
221.142	13.14
221.36	-52.39
221.578	-21.67
221.796	-27.82
222.015	2.9
222.233	11.09
222.451	50
222.669	-64.68
222.887	115.54
223.105	-56.49
223.323	43.86
223.541	-70.83
223.759	66.39
223.977	25.43
224.195	107.35
224.413	-9.39
224.631	37.72
224.849	13.14
225.067	31.57
225.285	9.05
225.503	-15.53
225.721	-60.59
225.939	9.05
226.157	111.44
226.375	101.2
226.592	-68.78
226.81	-15.53
227.028	-11.43
227.246	74.58
227.464	11.09
227.682	4.95
227.9	-11.43
228.117	70.48
228.335	-21.67
228.553	39.76
228.771	-7.34
228.989	0.85
229.206	11.09
229.424	4.95
229.642	11.09
229.86	33.62
230.077	-7.34
230.295	-7.34
230.513	23.38
230.731	-48.3
230.948	9.05
231.166	29.52
231.384	-23.72
231.601	-21.67
231.819	-7.34
232.037	9.05
232.254	35.67
232.472	-44.2
232.689	17.24
232.907	37.72
233.125	-29.87
233.342	41.81
233.56	50
233.777	60.24
233.995	-23.72
234.213	70.48
234.43	25.43
234.648	66.39
234.865	-25.77
235.083	17.24
235.3	-31.91
235.518	21.33
235.735	74.58
235.953	23.38
236.17	13.14
236.388	33.62
236.605	11.09
236.822	50
237.04	-1.19
237.257	-87.21
237.475	31.57
237.692	33.62
237.909	-21.67
238.127	17.24
238.344	17.24
238.562	15.19
238.779	-15.53
238.996	-44.2
239.214	-3.24
239.431	25.43
239.648	15.19
239.865	109.4
240.083	-1.19
240.3	41.81
240.517	-27.82
240.735	-13.48
240.952	13.14
241.169	17.24
241.386	17.24
241.603	-1.19
241.821	52.05
242.038	88.92
242.255	9.05
242.472	-9.39
242.689	4.95
242.907	15.19
243.124	84.82
243.341	-21.67
243.558	68.44
243.775	-54.44
243.992	-62.63
244.209	52.05
244.426	125.78
244.643	25.43
244.86	50
245.078	-11.43
245.295	35.67
245.512	50
245.729	-50.35
245.946	74.58
246.163	50
246.38	2.9
246.597	54.1
246.814	-5.29
247.031	54.1
247.248	-15.53
247.464	25.43
247.681	9.05
247.898	-5.29
248.115	33.62
248.332	-9.39
248.549	68.44
248.766	119.64
248.983	25.43
249.2	23.38
249.417	-56.49
249.633	33.62
249.85	52.05
250.067	-29.87
250.284	13.14
250.501	21.33
250.717	-76.97
250.934	7
251.151	60.24
251.368	-5.29
251.585	13.14
251.801	-40.11
252.018	0.85
252.235	68.44
252.451	-44.2
252.668	-23.72
252.885	4.95
253.102	2.9
253.318	50
253.535	-23.72
253.752	17.24
253.968	-7.34
254.185	-31.91
254.401	-56.49
254.618	27.48
254.835	-15.53
255.051	25.43
255.268	-15.53
255.484	-5.29
255.701	-3.24
255.917	7
256.134	-15.53
256.351	119.64
256.567	-54.44
256.784	74.58
257	-64.68
257.217	9.05
257.433	-21.67
257.65	-7.34
257.866	4.95
258.082	-13.48
258.299	68.44
258.515	41.81
258.732	-60.59
258.948	-27.82
259.165	-56.49
259.381	-76.97
259.597	37.72
259.814	2.9
260.03	-9.39
260.246	33.62
260.463	50
260.679	-1.19
260.895	-7.34
261.112	50
261.328	-74.92
261.544	31.57
261.761	52.05
261.977	66.39
262.193	-64.68
262.409	11.09
262.626	21.33
262.842	9.05
263.058	-31.91
263.274	19.29
263.49	29.52
263.707	80.72
263.923	58.2
264.139	-40.11
264.355	23.38
264.571	66.39
264.787	15.19
265.004	50
265.22	-3.24
265.436	-23.72
265.652	-3.24
265.868	78.68
266.084	-48.3
266.3	-23.72
266.516	11.09
266.732	-48.3
266.948	13.14
267.164	41.81
267.38	29.52
267.596	-31.91
267.812	33.62
268.028	54.1
268.244	-56.49
268.46	58.2
268.676	33.62
268.892	0.85
269.108	-19.63
269.324	-44.2
269.54	9.05
269.756	64.34
269.972	-25.77
270.188	25.43
270.403	-15.53
270.619	19.29
270.835	7
271.051	35.67
271.267	21.33
271.483	-17.58
271.698	17.24
271.914	7
272.13	39.76
272.346	9.05
272.562	17.24
272.777	90.96
272.993	-15.53
273.209	54.1
273.425	-11.43
273.64	-7.34
273.856	-21.67
274.072	17.24
274.287	-15.53
274.503	45.91
274.719	2.9
274.934	-27.82
275.15	-21.67
275.366	78.68
275.581	17.24
275.797	50
276.012	-101.55
276.228	70.48
276.444	11.09
276.659	25.43
276.875	-93.35
277.09	-79.02
277.306	-52.39
277.521	-13.48
277.737	-13.48
277.952	62.29
278.168	-11.43
278.383	60.24
278.599	60.24
278.814	-38.06
279.03	58.2
279.245	15.19
279.461	-29.87
279.676	9.05
279.892	33.62
280.107	11.09
280.322	27.48
280.538	25.43
280.753	25.43
280.969	50
281.184	70.48
281.399	43.86
281.615	43.86
281.83	21.33
282.045	-64.68
282.26	50
282.476	23.38
282.691	37.72
282.906	4.95
283.122	25.43
283.337	-7.34
283.552	68.44
283.767	66.39
283.983	58.2
284.198	27.48
284.413	19.29
284.628	0.85
284.843	2.9
285.058	-23.72
285.274	9.05
285.489	88.92
285.704	0.85
285.919	45.91
286.134	58.2
286.349	-23.72
286.564	-60.59
286.779	41.81
286.995	-15.53
287.21	39.76
287.425	33.62
287.64	17.24
287.855	13.14
288.07	-66.73
288.285	60.24
288.5	62.29
288.715	-40.11
288.93	21.33
289.145	-19.63
289.36	0.85
289.575	-21.67
289.79	-23.72
290.004	-54.44
290.219	66.39
290.434	41.81
290.649	-27.82
290.864	-31.91
291.079	50
291.294	41.81
291.509	82.77
291.724	-19.63
291.938	-7.34
292.153	13.14
292.368	37.72
292.583	25.43
292.798	70.48
293.012	45.91
293.227	103.25
293.442	-21.67
293.657	7
293.871	19.29
294.086	23.38
294.301	35.67
294.516	27.48
294.73	33.62
294.945	27.48
295.16	2.9
295.374	45.91
295.589	-46.25
295.804	31.57
296.018	17.24
296.233	-19.63
296.447	9.05
296.662	-1.19
296.877	50
297.091	64.34
297.306	35.67
297.52	-62.63
297.735	-38.06
297.949	19.29
298.164	19.29
298.378	-7.34
298.593	-11.43
298.807	-3.24
299.022	70.48
299.236	66.39
299.451	-13.48
299.665	101.2
299.88	17.24
300.094	-9.39
300.309	35.67
300.523	41.81
300.737	66.39
300.952	-46.25
301.166	29.52
301.381	-11.43
301.595	-7.34
301.809	0.85
302.024	-7.34
302.238	33.62
302.452	93.01
302.667	-3.24
302.881	-7.34
303.095	35.67
303.309	52.05
303.524	-54.44
303.738	-36.01
303.952	109.4
304.166	19.29
304.381	-11.43
304.595	78.68
304.809	33.62
305.023	27.48
305.237	11.09
305.452	-31.91
305.666	88.92
305.88	45.91
306.094	21.33
306.308	33.62
306.522	27.48
306.736	58.2
306.95	13.14
307.164	2.9
307.379	7
307.593	9.05
307.807	76.63
308.021	33.62
308.235	-70.83
308.449	-31.91
308.663	9.05
308.877	62.29
309.091	33.62
309.305	19.29
309.519	31.57
309.733	-7.34
309.947	-25.77
310.161	45.91
310.374	2.9
310.588	70.48
310.802	-13.48
311.016	0.85
311.23	43.86
311.444	41.81
311.658	66.39
311.872	21.33
312.085	50
312.299	41.81
312.513	60.24
312.727	62.29
312.941	25.43
313.154	2.9
313.368	15.19
313.582	23.38
313.796	68.44
314.009	54.1
314.223	11.09
314.437	35.67
314.651	82.77
314.864	43.86
315.078	-19.63
315.292	-72.87
315.505	9.05
315.719	33.62
315.933	21.33
316.146	13.14
316.36	58.2
316.573	74.58
316.787	99.16
317.001	78.68
317.214	0.85
317.428	-13.48
317.641	-48.3
317.855	25.43
318.068	-5.29
318.282	19.29
318.495	43.86
318.709	-38.06
318.922	-7.34
319.136	84.82
319.349	17.24
319.563	21.33
319.776	19.29
319.99	-27.82
320.203	80.72
320.417	25.43
320.63	109.4
320.843	123.73
321.057	39.76
321.27	68.44
321.483	54.1
321.697	-3.24
321.91	-13.48
322.124	-21.67
322.337	-3.24
322.55	58.2
322.763	-54.44
322.977	60.24
323.19	-23.72
323.403	0.85
323.617	78.68
323.83	72.53
324.043	50
324.256	19.29
324.469	56.15
324.683	99.16
324.896	52.05
325.109	37.72
325.322	29.52
325.535	29.52
325.748	2.9
325.962	50
326.175	-42.15
326.388	7
326.601	78.68
326.814	-11.43
327.027	68.44
327.24	50
327.453	35.67
327.666	-31.91
327.879	58.2
328.092	107.35
328.305	58.2
328.518	25.43
328.731	7
328.944	66.39
329.157	29.52
329.37	66.39
329.583	76.63
329.796	52.05
330.009	2.9
330.222	-15.53
330.435	54.1
330.648	66.39
330.861	-40.11
331.073	17.24
331.286	-7.34
331.499	35.67
331.712	41.81
331.925	2.9
332.138	50
332.35	37.72
332.563	-44.2
332.776	41.81
332.989	-38.06
333.202	62.29
333.414	-36.01
333.627	37.72
333.84	95.06
334.053	25.43
334.265	-38.06
334.478	13.14
334.691	4.95
334.903	7
335.116	21.33
335.329	35.67
335.541	25.43
335.754	50
335.966	-40.11
336.179	13.14
336.392	97.11
336.604	35.67
336.817	90.96
337.029	66.39
337.242	-27.82
337.454	39.76
337.667	50
337.88	93.01
338.092	41.81
338.305	19.29
338.517	-17.58
338.729	-25.77
338.942	58.2
339.154	11.09
339.367	-5.29
339.579	35.67
339.792	-23.72
340.004	13.14
340.217	-7.34
340.429	29.52
340.641	-42.15
340.854	50
341.066	29.52
341.278	33.62
341.491	13.14
341.703	70.48
341.915	68.44
342.128	52.05
342.34	99.16
342.552	-3.24
342.764	33.62
342.977	47.96
343.189	41.81
343.401	54.1
343.613	35.67
343.826	56.15
344.038	25.43
344.25	23.38
344.462	86.87
344.674	52.05
344.886	58.2
345.099	99.16
345.311	43.86
345.523	-15.53
345.735	-21.67
345.947	27.48
346.159	43.86
346.371	21.33
346.583	19.29
346.795	7
347.007	-46.25
347.219	0.85
347.431	-60.59
347.643	-19.63
347.855	-5.29
348.067	27.48
348.279	9.05
348.491	58.2
348.703	-48.3
348.915	11.09
349.127	-7.34
349.339	-19.63
349.551	-48.3
349.763	33.62
349.975	-19.63
350.187	9.05
350.399	76.63
350.61	-21.67
350.822	-11.43
351.034	74.58
351.246	-19.63
351.458	43.86
351.669	82.77
351.881	39.76
352.093	90.96
352.305	-27.82
352.517	0.85
352.728	101.2
352.94	52.05
353.152	56.15
353.363	-15.53
353.575	43.86
353.787	66.39
353.999	33.62
354.21	66.39
354.422	-15.53
354.633	-23.72
354.845	-36.01
355.057	109.4
355.268	25.43
355.48	-7.34
355.692	-40.11
355.903	-9.39
356.115	99.16
356.326	-15.53
356.538	56.15
356.749	2.9
356.961	107.35
357.172	-33.96
357.384	39.76
357.595	74.58
357.807	52.05
358.018	70.48
358.23	45.91
358.441	56.15
358.653	13.14
358.864	-44.2
359.075	47.96
359.287	33.62
359.498	-3.24
359.709	17.24
359.921	19.29
360.132	50
360.344	27.48
360.555	66.39
360.766	-17.58
360.977	37.72
361.189	25.43
361.4	62.29
361.611	50
361.823	74.58
362.034	-5.29
362.245	50
362.456	74.58
362.667	-11.43
362.879	47.96
363.09	45.91
363.301	115.54
363.512	41.81
363.723	4.95
363.935	9.05
364.146	123.73
364.357	-7.34
364.568	119.64
364.779	25.43
364.99	86.87
365.201	84.82
365.412	35.67
365.623	37.72
365.834	86.87
366.045	-93.35
366.256	15.19
366.467	50
366.678	-64.68
366.889	66.39
367.1	17.24
367.311	13.14
367.522	109.4
367.733	90.96
367.944	50
368.155	-29.87
368.366	82.77
368.577	25.43
368.788	35.67
368.999	50
369.209	-19.63
369.42	152.4
369.631	123.73
369.842	60.24
370.053	17.24
370.264	37.72
370.474	4.95
370.685	45.91
370.896	80.72
371.107	107.35
371.317	50
371.528	27.48
371.739	21.33
371.95	101.2
372.16	-21.67
372.371	0.85
372.582	4.95
372.792	41.81
373.003	-3.24
373.214	-23.72
373.424	93.01
373.635	0.85
373.846	37.72
374.056	9.05
374.267	43.86
374.477	66.39
374.688	68.44
374.898	45.91
375.109	29.52
375.319	-3.24
375.53	52.05
375.74	80.72
375.951	19.29
376.161	66.39
376.372	13.14
376.582	0.85
376.793	119.64
377.003	11.09
377.214	33.62
377.424	-15.53
377.635	82.77
377.845	19.29
378.055	115.54
378.266	-1.19
378.476	17.24
378.686	93.01
378.897	11.09
379.107	66.39
379.317	52.05
379.528	39.76
379.738	25.43
379.948	50
380.158	82.77
380.369	45.91
380.579	19.29
380.789	115.54
380.999	13.14
381.21	84.82
381.42	9.05
381.63	68.44
381.84	72.53
382.05	-3.24
382.261	99.16
382.471	9.05
382.681	9.05
382.891	37.72
383.101	82.77
383.311	-44.2
383.521	-36.01
383.731	58.2
383.941	84.82
384.151	4.95
384.361	31.57
384.571	21.33
384.781	-29.87
384.991	76.63
385.201	64.34
385.411	76.63
385.621	90.96
385.831	-13.48
386.041	60.24
386.251	-5.29
386.461	82.77
386.671	78.68
386.881	64.34
387.091	17.24
387.301	62.29
387.511	-36.01
387.72	90.96
387.93	101.2
388.14	-15.53
388.35	74.58
388.56	43.86
388.769	33.62
388.979	60.24
389.189	62.29
389.399	21.33
389.609	66.39
389.818	90.96
390.028	90.96
390.238	107.35
390.447	43.86
390.657	-31.91
390.867	64.34
391.076	60.24
391.286	2.9
391.496	99.16
391.705	0.85
391.915	107.35
392.125	176.98
392.334	66.39
392.544	78.68
392.753	107.35
392.963	115.54
393.172	50
393.382	17.24
393.591	166.74
393.801	43.86
394.01	152.4
394.22	156.5
394.429	189.27
394.639	123.73
394.848	50
395.058	179.03
395.267	90.96
395.477	60.24
395.686	140.12
395.895	115.54
396.105	107.35
396.314	131.92
396.524	84.82
396.733	140.12
396.942	111.44
397.152	164.69
397.361	156.5
397.57	125.78
397.78	156.5
397.989	107.35
398.198	185.17
398.407	115.54
398.617	54.1
398.826	13.14
399.035	189.27
399.244	56.15
399.453	56.15
399.663	115.54
399.872	107.35
400.081	166.74
400.29	99.16
400.499	66.39
400.708	156.5
400.917	168.79
401.127	107.35
401.336	90.96
401.545	168.79
401.754	125.78
401.963	125.78
402.172	70.48
402.381	189.27
402.59	199.51
402.799	148.31
403.008	154.45
403.217	181.07
403.426	168.79
403.635	181.07
403.844	199.51
404.053	222.03
404.262	150.36
404.471	234.32
404.68	150.36
404.888	156.5
405.097	142.16
405.306	199.51
405.515	205.65
405.724	230.23
405.933	281.43
406.142	242.51
406.35	219.99
406.559	234.32
406.768	222.03
406.977	402.26
407.185	226.13
407.394	262.99
407.603	281.43
407.812	250.71
408.02	361.3
408.229	338.77
408.438	295.76
408.646	238.42
408.855	344.91
409.064	349.01
409.272	326.48
409.481	412.5
409.69	387.92
409.898	385.87
410.107	463.69
410.315	422.73
410.524	500.56
410.733	463.69
410.941	416.59
411.15	463.69
411.358	525.13
411.567	594.76
411.775	592.72
411.984	512.85
412.192	697.16
412.401	582.48
412.609	650.06
412.818	666.44
413.026	709.45
413.234	758.6
413.443	824.14
413.651	805.71
413.86	813.9
414.068	803.66
414.276	918.34
414.485	883.53
414.693	887.62
414.901	951.11
415.11	1002.31
415.318	1012.55
415.526	1117
415.734	1098.56
415.943	1192.77
416.151	1221.44
416.359	1227.59
416.567	1264.45
416.776	1381.18
416.984	1379.14
417.192	1465.15
417.4	1461.06
417.608	1508.16
417.817	1487.68
418.025	1588.03
418.233	1649.47
418.441	1700.67
418.649	1780.54
418.857	1809.21
419.065	1909.56
419.273	1811.26
419.481	2018.1
419.689	2140.98
419.897	2249.52
420.105	2167.6
420.313	2274.1
420.521	2310.96
420.729	2382.64
420.937	2536.24
421.145	2646.83
421.353	2851.63
421.561	2753.32
421.769	2841.39
421.977	2954.02
422.185	3042.09
422.393	3187.49
422.601	3242.79
422.809	3291.94
423.017	3400.48
423.224	3429.15
423.432	3662.62
423.64	3621.66
423.848	4057.88
424.056	3910.43
424.263	4223.76
424.471	4205.33
424.679	4285.2
424.887	4596.5
425.094	4533.01
425.302	4694.8
425.51	4948.75
425.718	4965.13
425.925	5262.09
426.133	5346.05
426.341	5489.41
426.548	5778.17
426.756	5731.07
426.964	5655.3
427.171	6257.4
427.379	6400.76
427.586	6417.14
427.794	6669.04
428.001	6824.69
428.209	7332.58
428.417	7107.3
428.624	7631.58
428.832	7549.67
429.039	7600.87
429.247	7545.57
429.454	8342.23
429.662	8880.85
429.869	8155.86
430.076	8948.43
430.284	8610.51
430.491	8831.69
430.699	9585.35
430.906	9487.04
431.114	9632.45
431.321	10011.32
431.528	10023.61
431.736	10900.14
431.943	11137.71
432.15	10922.67
432.358	11078.32
432.565	11850.4
432.772	11492.01
432.979	12460.7
433.187	12618.39
433.394	12325.53
433.601	13451.91
433.808	13384.33
434.016	13466.25
434.223	14017.15
434.43	14901.87
434.637	14348.92
434.844	15344.24
435.052	15735.4
435.259	15465.07
435.466	15618.66
435.673	15346.28
435.88	16575.06
436.087	17226.32
436.294	17156.69
436.501	16998.99
436.708	17384.01
436.915	18074.18
437.122	18764.34
437.329	18625.08
437.537	19321.39
437.743	19370.54
437.95	19405.36
438.157	20537.88
438.364	21103.12
438.571	20881.94
438.778	21314.06
438.985	22868.47
439.192	22084.1
439.399	22850.04
439.606	22297.09
439.813	23775.72
440.02	24934.87
440.227	24535.52
440.433	24396.26
440.64	25037.27
440.847	24721.88
441.054	25706.96
441.261	26972.6
441.467	26831.29
441.674	27304.37
441.881	28649.89
442.088	28092.84
442.294	28191.14
442.501	28744.09
442.708	29338.01
442.914	30464.39
443.121	31830.38
443.328	30990.72
443.534	32862.56
443.741	32141.67
443.948	31652.21
444.154	33849.68
444.361	33780.05
444.568	33859.92
444.774	33851.73
444.981	34003.28
445.187	35281.21
445.394	36319.53
445.6	36065.58
445.807	39637.24
446.013	37691.67
446.22	38310.16
446.426	40085.75
446.633	40591.59
446.839	41640.15
447.046	40317.17
447.252	42150.1
447.459	42518.73
447.665	41842.9
447.871	43974.84
448.078	45852.83
448.284	43391.17
448.491	44607.66
448.697	46280.85
448.903	47550.59
449.11	47788.16
449.316	46489.74
449.522	47323.27
449.728	48767.09
449.935	48740.46
450.141	48932.97
450.347	50268.25
450.553	48197.75
450.76	49227.88
450.966	50796.62
451.172	50604.11
451.378	51435.59
451.584	50296.92
451.791	52254.78
451.997	51562.56
452.203	52432.95
452.409	52324.41
452.615	52246.58
452.821	50501.71
453.027	49604.7
453.233	52385.85
453.44	50804.81
453.646	50956.36
453.852	51030.09
454.058	52246.58
454.264	50430.04
454.47	51423.3
454.676	49913.95
454.882	51988.54
455.088	47757.44
455.294	48230.52
455.5	49281.13
455.705	49825.89
455.911	47538.3
456.117	46823.56
456.323	46614.67
456.529	43790.52
456.735	45930.65
456.941	44662.96
457.147	44372.14
457.352	43047.11
457.558	42375.37
457.764	42471.63
457.97	41562.33
458.176	40911.08
458.381	41167.07
458.587	38992.13
458.793	39061.76
458.999	36952.35
459.204	39696.63
459.41	38586.63
459.616	36284.72
459.821	36137.26
460.027	36051.25
460.233	35236.16
460.438	33581.4
460.644	34156.88
460.85	32293.22
461.055	31682.93
461.261	31848.82
461.466	29159.83
461.672	28318.12
461.878	30867.84
462.083	28946.84
462.289	28088.74
462.494	27894.19
462.7	26735.04
462.905	25946.57
463.111	26706.37
463.316	27005.37
463.522	26485.19
463.727	26476.99
463.932	26044.87
464.138	26044.87
464.343	25928.14
464.549	25348.56
464.754	26063.3
464.959	26159.56
465.165	25809.36
465.37	24834.52
465.575	24119.78
465.781	25217.49
465.986	24756.7
466.191	24279.52
466.397	23771.63
466.602	22575.61
466.807	23585.26
467.012	23626.22
467.218	23575.02
467.423	22841.85
467.628	23167.48
