Data from USB4F104151__71__14-17-23-613.txt Node

Date: Thu Mar 13 14:17:23 EDT 2025
User: louis
Spectrometer: USB4F10415
Trigger mode: 4
Integration Time (sec): 2.000000E-2
Scans to average: 1
Electric dark correction enabled: true
Nonlinearity correction enabled: false
Boxcar width: 0
XAxis mode: Wavelengths
Number of Pixels in Spectrum: 3648
>>>>>Begin Spectral Data<<<<<
178.204	-141.99
178.424	-141.99
178.644	-141.99
178.864	-70.31
179.084	-41.64
179.304	-39.59
179.524	-12.97
179.744	-19.11
179.964	27.99
180.184	-39.59
180.404	32.08
180.624	-0.68
180.844	3.41
181.064	-39.59
181.283	34.13
181.503	9.56
181.723	44.37
181.943	-37.55
182.163	15.7
182.383	66.9
182.602	87.38
182.822	44.37
183.042	36.18
183.262	58.71
183.482	40.28
183.701	-6.83
183.921	-4.78
184.141	9.56
184.361	27.99
184.58	44.37
184.8	103.76
185.02	-8.87
185.239	42.32
185.459	93.52
185.679	128.34
185.898	21.85
186.118	-27.31
186.338	-6.83
186.557	-10.92
186.777	1.37
186.997	19.8
187.216	91.48
187.436	-15.02
187.655	-6.83
187.875	50.52
188.095	77.14
188.314	62.8
188.534	105.81
188.753	-15.02
188.973	30.04
189.192	30.04
189.412	7.51
189.631	95.57
189.851	42.32
190.07	66.9
190.29	3.41
190.509	91.48
190.729	-15.02
190.948	150.87
191.168	126.29
191.387	107.86
191.607	-0.68
191.826	83.28
192.045	62.8
192.265	25.94
192.484	42.32
192.704	27.99
192.923	21.85
193.142	79.19
193.362	-0.68
193.581	134.48
193.8	68.95
194.02	79.19
194.239	91.48
194.458	-4.78
194.678	17.75
194.897	77.14
195.116	81.24
195.335	-15.02
195.555	48.47
195.774	38.23
195.993	101.72
196.212	34.13
196.432	-31.4
196.651	38.23
196.87	-39.59
197.089	75.09
197.308	-23.21
197.528	64.85
197.747	27.99
197.966	17.75
198.185	11.61
198.404	58.71
198.623	7.51
198.842	15.7
199.062	1.37
199.281	46.42
199.5	58.71
199.719	165.2
199.938	66.9
200.157	60.76
200.376	91.48
200.595	42.32
200.814	27.99
201.033	3.41
201.252	50.52
201.471	25.94
201.69	25.94
201.909	34.13
202.128	13.65
202.347	50.52
202.566	-23.21
202.785	-31.4
203.004	-21.16
203.223	97.62
203.442	-35.5
203.661	60.76
203.879	17.75
204.098	75.09
204.317	122.2
204.536	44.37
204.755	42.32
204.974	46.42
205.193	1.37
205.411	87.38
205.63	11.61
205.849	-4.78
206.068	77.14
206.287	52.56
206.505	79.19
206.724	85.33
206.943	48.47
207.162	77.14
207.381	66.9
207.599	36.18
207.818	58.71
208.037	36.18
208.255	-2.73
208.474	50.52
208.693	91.48
208.911	50.52
209.13	19.8
209.349	54.61
209.567	85.33
209.786	1.37
210.005	101.72
210.223	60.76
210.442	3.41
210.661	97.62
210.879	48.47
211.098	81.24
211.316	91.48
211.535	25.94
211.753	124.24
211.972	11.61
212.191	64.85
212.409	81.24
212.628	68.95
212.846	64.85
213.065	58.71
213.283	99.67
213.502	5.46
213.72	52.56
213.938	58.71
214.157	64.85
214.375	73.04
214.594	46.42
214.812	122.2
215.031	1.37
215.249	-68.27
215.467	25.94
215.686	21.85
215.904	91.48
216.122	58.71
216.341	157.01
216.559	36.18
216.778	56.66
216.996	23.89
217.214	42.32
217.432	42.32
217.651	-47.79
217.869	42.32
218.087	-21.16
218.306	32.08
218.524	25.94
218.742	89.43
218.96	21.85
219.179	109.91
219.397	15.7
219.615	91.48
219.833	38.23
220.051	42.32
220.27	27.99
220.488	93.52
220.706	126.29
220.924	25.94
221.142	111.96
221.36	5.46
221.578	150.87
221.796	3.41
222.015	38.23
222.233	126.29
222.451	68.95
222.669	66.9
222.887	60.76
223.105	27.99
223.323	-15.02
223.541	-35.5
223.759	58.71
223.977	73.04
224.195	66.9
224.413	36.18
224.631	68.95
224.849	54.61
225.067	109.91
225.285	19.8
225.503	99.67
225.721	48.47
225.939	7.51
226.157	-19.11
226.375	114
226.592	25.94
226.81	71
227.028	75.09
227.246	124.24
227.464	46.42
227.682	66.9
227.9	52.56
228.117	99.67
228.335	36.18
228.553	48.47
228.771	99.67
228.989	27.99
229.206	36.18
229.424	-10.92
229.642	71
229.86	52.56
230.077	101.72
230.295	11.61
230.513	75.09
230.731	32.08
230.948	109.91
231.166	132.44
231.384	25.94
231.601	25.94
231.819	34.13
232.037	68.95
232.254	38.23
232.472	128.34
232.689	-60.07
232.907	144.72
233.125	-15.02
233.342	13.65
233.56	48.47
233.777	42.32
233.995	-2.73
234.213	99.67
234.43	75.09
234.648	77.14
234.865	21.85
235.083	38.23
235.3	71
235.518	77.14
235.735	73.04
235.953	34.13
236.17	60.76
236.388	60.76
236.605	154.96
236.822	13.65
237.04	58.71
237.257	140.63
237.475	85.33
237.692	38.23
237.909	1.37
238.127	17.75
238.344	-2.73
238.562	79.19
238.779	75.09
238.996	32.08
239.214	62.8
239.431	114
239.648	56.66
239.865	17.75
240.083	42.32
240.3	99.67
240.517	62.8
240.735	-6.83
240.952	60.76
241.169	58.71
241.386	-15.02
241.603	136.53
241.821	40.28
242.038	50.52
242.255	85.33
242.472	-35.5
242.689	118.1
242.907	116.05
243.124	-55.98
243.341	103.76
243.558	21.85
243.775	17.75
243.992	34.13
244.209	71
244.426	87.38
244.643	44.37
244.86	54.61
245.078	46.42
245.295	87.38
245.512	107.86
245.729	50.52
245.946	161.11
246.163	42.32
246.38	66.9
246.597	93.52
246.814	58.71
247.031	109.91
247.248	30.04
247.464	42.32
247.681	21.85
247.898	118.1
248.115	44.37
248.332	13.65
248.549	111.96
248.766	128.34
248.983	52.56
249.2	56.66
249.417	17.75
249.633	58.71
249.85	79.19
250.067	-31.4
250.284	75.09
250.501	27.99
250.717	101.72
250.934	71
251.151	52.56
251.368	38.23
251.585	79.19
251.801	66.9
252.018	21.85
252.235	13.65
252.451	60.76
252.668	19.8
252.885	68.95
253.102	118.1
253.318	9.56
253.535	17.75
253.752	30.04
253.968	66.9
254.185	13.65
254.401	79.19
254.618	77.14
254.835	48.47
255.051	81.24
255.268	-6.83
255.484	-6.83
255.701	95.57
255.917	75.09
256.134	46.42
256.351	71
256.567	48.47
256.784	11.61
257	9.56
257.217	111.96
257.433	107.86
257.65	30.04
257.866	75.09
258.082	58.71
258.299	42.32
258.515	9.56
258.732	58.71
258.948	-21.16
259.165	56.66
259.381	21.85
259.597	58.71
259.814	5.46
260.03	111.96
260.246	38.23
260.463	75.09
260.679	11.61
260.895	27.99
261.112	44.37
261.328	-49.83
261.544	-6.83
261.761	46.42
261.977	42.32
262.193	99.67
262.409	99.67
262.626	99.67
262.842	132.44
263.058	-10.92
263.274	97.62
263.49	91.48
263.707	36.18
263.923	101.72
264.139	38.23
264.355	75.09
264.571	38.23
264.787	42.32
265.004	32.08
265.22	83.28
265.436	71
265.652	54.61
265.868	-17.07
266.084	66.9
266.3	15.7
266.516	21.85
266.732	140.63
266.948	140.63
267.164	17.75
267.38	77.14
267.596	128.34
267.812	157.01
268.028	99.67
268.244	25.94
268.46	44.37
268.676	60.76
268.892	19.8
269.108	11.61
269.324	-4.78
269.54	-58.03
269.756	42.32
269.972	79.19
270.188	77.14
270.403	40.28
270.619	142.68
270.835	9.56
271.051	25.94
271.267	-10.92
271.483	9.56
271.698	91.48
271.914	44.37
272.13	75.09
272.346	44.37
272.562	46.42
272.777	38.23
272.993	93.52
273.209	-2.73
273.425	58.71
273.64	46.42
273.856	83.28
274.072	19.8
274.287	36.18
274.503	81.24
274.719	40.28
274.934	44.37
275.15	75.09
275.366	3.41
275.581	50.52
275.797	17.75
276.012	19.8
276.228	25.94
276.444	48.47
276.659	85.33
276.875	19.8
277.09	62.8
277.306	50.52
277.521	99.67
277.737	58.71
277.952	95.57
278.168	-4.78
278.383	58.71
278.599	17.75
278.814	103.76
279.03	66.9
279.245	64.85
279.461	62.8
279.676	97.62
279.892	-0.68
280.107	58.71
280.322	46.42
280.538	105.81
280.753	38.23
280.969	-15.02
281.184	58.71
281.399	34.13
281.615	23.89
281.83	42.32
282.045	71
282.26	30.04
282.476	95.57
282.691	140.63
282.906	-35.5
283.122	30.04
283.337	66.9
283.552	34.13
283.767	75.09
283.983	-19.11
284.198	-19.11
284.413	13.65
284.628	21.85
284.843	60.76
285.058	68.95
285.274	75.09
285.489	19.8
285.704	46.42
285.919	89.43
286.134	25.94
286.349	95.57
286.564	95.57
286.779	46.42
286.995	34.13
287.21	-15.02
287.425	34.13
287.64	15.7
287.855	60.76
288.07	79.19
288.285	91.48
288.5	75.09
288.715	83.28
288.93	-2.73
289.145	50.52
289.36	1.37
289.575	-35.5
289.79	56.66
290.004	-47.79
290.219	77.14
290.434	-6.83
290.649	44.37
290.864	66.9
291.079	75.09
291.294	36.18
291.509	68.95
291.724	99.67
291.938	46.42
292.153	101.72
292.368	34.13
292.583	50.52
292.798	64.85
293.012	73.04
293.227	21.85
293.442	124.24
293.657	136.53
293.871	46.42
294.086	-10.92
294.301	73.04
294.516	64.85
294.73	1.37
294.945	-2.73
295.16	66.9
295.374	109.91
295.589	79.19
295.804	48.47
296.018	54.61
296.233	81.24
296.447	54.61
296.662	25.94
296.877	66.9
297.091	75.09
297.306	175.44
297.52	50.52
297.735	99.67
297.949	71
298.164	44.37
298.378	-19.11
298.593	-6.83
298.807	15.7
299.022	75.09
299.236	38.23
299.451	54.61
299.665	13.65
299.88	3.41
300.094	79.19
300.309	1.37
300.523	44.37
300.737	68.95
300.952	114
301.166	54.61
301.381	68.95
301.595	15.7
301.809	19.8
302.024	97.62
302.238	30.04
302.452	56.66
302.667	27.99
302.881	109.91
303.095	27.99
303.309	75.09
303.524	54.61
303.738	79.19
303.952	-2.73
304.166	38.23
304.381	54.61
304.595	99.67
304.809	50.52
305.023	93.52
305.237	42.32
305.452	66.9
305.666	-2.73
305.88	50.52
306.094	83.28
306.308	46.42
306.522	44.37
306.736	93.52
306.95	91.48
307.164	79.19
307.379	38.23
307.593	99.67
307.807	36.18
308.021	103.76
308.235	60.76
308.449	54.61
308.663	38.23
308.877	71
309.091	34.13
309.305	107.86
309.519	25.94
309.733	109.91
309.947	3.41
310.161	66.9
310.374	44.37
310.588	87.38
310.802	77.14
311.016	50.52
311.23	36.18
311.444	-39.59
311.658	25.94
311.872	21.85
312.085	109.91
312.299	64.85
312.513	66.9
312.727	30.04
312.941	9.56
313.154	56.66
313.368	124.24
313.582	30.04
313.796	46.42
314.009	66.9
314.223	3.41
314.437	54.61
314.651	34.13
314.864	109.91
315.078	30.04
315.292	17.75
315.505	81.24
315.719	68.95
315.933	-6.83
316.146	1.37
316.36	89.43
316.573	91.48
316.787	120.15
317.001	5.46
317.214	91.48
317.428	64.85
317.641	36.18
317.855	95.57
318.068	-6.83
318.282	105.81
318.495	75.09
318.709	52.56
318.922	21.85
319.136	134.48
319.349	81.24
319.563	34.13
319.776	50.52
319.99	5.46
320.203	42.32
320.417	66.9
320.63	38.23
320.843	132.44
321.057	36.18
321.27	36.18
321.483	60.76
321.697	105.81
321.91	62.8
322.124	79.19
322.337	93.52
322.55	60.76
322.763	148.82
322.977	87.38
323.19	99.67
323.403	161.11
323.617	93.52
323.83	68.95
324.043	109.91
324.256	60.76
324.469	85.33
324.683	75.09
324.896	42.32
325.109	66.9
325.322	21.85
325.535	89.43
325.748	87.38
325.962	87.38
326.175	42.32
326.388	75.09
326.601	40.28
326.814	42.32
327.027	60.76
327.24	71
327.453	25.94
327.666	15.7
327.879	71
328.092	25.94
328.305	99.67
328.518	60.76
328.731	52.56
328.944	46.42
329.157	11.61
329.37	136.53
329.583	71
329.796	116.05
330.009	-6.83
330.222	107.86
330.435	58.71
330.648	99.67
330.861	42.32
331.073	97.62
331.286	50.52
331.499	77.14
331.712	34.13
331.925	89.43
332.138	13.65
332.35	116.05
332.563	124.24
332.776	66.9
332.989	23.89
333.202	30.04
333.414	54.61
333.627	66.9
333.84	58.71
334.053	71
334.265	25.94
334.478	89.43
334.691	58.71
334.903	46.42
335.116	17.75
335.329	52.56
335.541	95.57
335.754	116.05
335.966	25.94
336.179	62.8
336.392	42.32
336.604	109.91
336.817	58.71
337.029	157.01
337.242	58.71
337.454	13.65
337.667	75.09
337.88	19.8
338.092	25.94
338.305	54.61
338.517	42.32
338.729	93.52
338.942	75.09
339.154	-15.02
339.367	48.47
339.579	64.85
339.792	5.46
340.004	75.09
340.217	38.23
340.429	73.04
340.641	75.09
340.854	62.8
341.066	99.67
341.278	71
341.491	66.9
341.703	52.56
341.915	101.72
342.128	66.9
342.34	9.56
342.552	17.75
342.764	75.09
342.977	68.95
343.189	66.9
343.401	95.57
343.613	-25.26
343.826	101.72
344.038	56.66
344.25	36.18
344.462	7.51
344.674	64.85
344.886	-15.02
345.099	111.96
345.311	83.28
345.523	103.76
345.735	42.32
345.947	68.95
346.159	169.3
346.371	50.52
346.583	7.51
346.795	83.28
347.007	21.85
347.219	85.33
347.431	93.52
347.643	109.91
347.855	21.85
348.067	163.15
348.279	83.28
348.491	36.18
348.703	32.08
348.915	11.61
349.127	-4.78
349.339	68.95
349.551	60.76
349.763	95.57
349.975	105.81
350.187	128.34
350.399	105.81
350.61	-31.4
350.822	54.61
351.034	111.96
351.246	64.85
351.458	79.19
351.669	52.56
351.881	99.67
352.093	68.95
352.305	71
352.517	13.65
352.728	85.33
352.94	85.33
353.152	66.9
353.363	-10.92
353.575	11.61
353.787	79.19
353.999	97.62
354.21	114
354.422	13.65
354.633	9.56
354.845	36.18
355.057	27.99
355.268	58.71
355.48	68.95
355.692	44.37
355.903	73.04
356.115	34.13
356.326	40.28
356.538	103.76
356.749	50.52
356.961	111.96
357.172	-23.21
357.384	68.95
357.595	136.53
357.807	66.9
358.018	60.76
358.23	38.23
358.441	23.89
358.653	17.75
358.864	34.13
359.075	101.72
359.287	128.34
359.498	42.32
359.709	11.61
359.921	103.76
360.132	34.13
360.344	50.52
360.555	42.32
360.766	11.61
360.977	17.75
361.189	120.15
361.4	-12.97
361.611	134.48
361.823	93.52
362.034	116.05
362.245	30.04
362.456	21.85
362.667	91.48
362.879	-15.02
363.09	99.67
363.301	23.89
363.512	66.9
363.723	89.43
363.935	13.65
364.146	50.52
364.357	34.13
364.568	34.13
364.779	85.33
364.99	128.34
365.201	60.76
365.412	30.04
365.623	71
365.834	107.86
366.045	64.85
366.256	105.81
366.467	71
366.678	89.43
366.889	83.28
367.1	44.37
367.311	136.53
367.522	71
367.733	105.81
367.944	50.52
368.155	68.95
368.366	126.29
368.577	44.37
368.788	87.38
368.999	58.71
369.209	60.76
369.42	75.09
369.631	157.01
369.842	140.63
370.053	75.09
370.264	68.95
370.474	46.42
370.685	9.56
370.896	36.18
371.107	9.56
371.317	58.71
371.528	122.2
371.739	97.62
371.95	56.66
372.16	77.14
372.371	58.71
372.582	95.57
372.792	132.44
373.003	91.48
373.214	81.24
373.424	52.56
373.635	-15.02
373.846	91.48
374.056	58.71
374.267	91.48
374.477	103.76
374.688	60.76
374.898	95.57
375.109	85.33
375.319	157.01
375.53	167.25
375.74	103.76
375.951	83.28
376.161	17.75
376.372	93.52
376.582	15.7
376.793	122.2
377.003	21.85
377.214	83.28
377.424	32.08
377.635	120.15
377.845	-0.68
378.055	95.57
378.266	9.56
378.476	36.18
378.686	66.9
378.897	50.52
379.107	75.09
379.317	120.15
379.528	62.8
379.738	97.62
379.948	-23.21
380.158	15.7
380.369	17.75
380.579	118.1
380.789	-12.97
380.999	95.57
381.21	124.24
381.42	195.92
381.63	91.48
381.84	85.33
382.05	107.86
382.261	120.15
382.471	42.32
382.681	93.52
382.891	142.68
383.101	81.24
383.311	71
383.521	75.09
383.731	52.56
383.941	136.53
384.151	32.08
384.361	52.56
384.571	-4.78
384.781	116.05
384.991	167.25
385.201	44.37
385.411	134.48
385.621	23.89
385.831	85.33
386.041	52.56
386.251	73.04
386.461	62.8
386.671	87.38
386.881	66.9
387.091	21.85
387.301	58.71
387.511	71
387.72	77.14
387.93	56.66
388.14	83.28
388.35	66.9
388.56	99.67
388.769	99.67
388.979	68.95
389.189	50.52
389.399	62.8
389.609	60.76
389.818	58.71
390.028	75.09
390.238	134.48
390.447	38.23
390.657	50.52
390.867	79.19
391.076	148.82
391.286	56.66
391.496	30.04
391.705	58.71
391.915	109.91
392.125	68.95
392.334	118.1
392.544	111.96
392.753	138.58
392.963	77.14
393.172	126.29
393.382	77.14
393.591	124.24
393.801	62.8
394.01	169.3
394.22	91.48
394.429	91.48
394.639	116.05
394.848	99.67
395.058	124.24
395.267	103.76
395.477	148.82
395.686	75.09
395.895	163.15
396.105	165.2
396.314	114
396.524	118.1
396.733	91.48
396.942	177.49
397.152	109.91
397.361	157.01
397.57	99.67
397.78	124.24
397.989	175.44
398.198	157.01
398.407	87.38
398.617	148.82
398.826	38.23
399.035	116.05
399.244	165.2
399.453	142.68
399.663	66.9
399.872	118.1
400.081	60.76
400.29	197.97
400.499	197.97
400.708	161.11
400.917	175.44
401.127	140.63
401.336	107.86
401.545	157.01
401.754	83.28
401.963	105.81
402.172	107.86
402.381	132.44
402.59	105.81
402.799	136.53
403.008	140.63
403.217	152.91
403.426	134.48
403.635	140.63
403.844	161.11
404.053	148.82
404.262	187.73
404.471	218.45
404.68	175.44
404.888	120.15
405.097	157.01
405.306	200.02
405.515	169.3
405.724	200.02
405.933	204.11
406.142	206.16
406.35	226.64
406.559	245.07
406.768	251.22
406.977	273.75
407.185	214.35
407.394	195.92
407.603	210.26
407.812	230.74
408.02	298.32
408.229	245.07
408.438	294.22
408.646	271.7
408.855	296.27
409.064	343.38
409.272	339.28
409.481	257.36
409.69	308.56
409.898	286.03
410.107	370
410.315	404.82
410.524	320.85
410.733	365.9
410.941	363.86
411.15	478.54
411.358	496.97
411.567	378.19
411.775	519.5
411.984	552.27
412.192	533.84
412.401	550.22
412.609	484.69
412.818	533.84
413.026	525.65
413.234	593.23
413.443	636.24
413.651	582.99
413.86	580.94
414.068	730.44
414.276	742.73
414.485	693.58
414.693	732.49
414.901	767.31
415.11	863.56
415.318	816.46
415.526	812.36
415.734	857.42
415.943	830.79
416.151	922.95
416.359	959.81
416.567	869.7
416.776	963.91
416.984	1039.69
417.192	1107.27
417.4	1041.73
417.608	1013.06
417.817	1131.84
418.025	1252.67
418.233	1320.26
418.441	1168.71
418.649	1338.69
418.857	1373.5
419.065	1420.61
419.273	1324.35
419.481	1461.57
419.689	1590.59
419.897	1645.88
420.105	1615.16
420.313	1729.85
420.521	1742.14
420.729	1721.66
420.937	1848.63
421.145	1957.18
421.353	1912.12
421.561	2121.01
421.769	2098.49
421.977	2286.9
422.185	2250.03
422.393	2311.47
422.601	2616.62
422.809	2387.25
423.017	2555.18
423.224	2606.38
423.432	2614.57
423.64	2655.53
423.848	3108.13
424.056	2805.03
424.263	3009.83
424.471	3099.94
424.679	3231.01
424.887	3435.81
425.094	3478.82
425.302	3458.34
425.51	3573.02
425.718	3583.26
425.925	3763.48
426.133	3863.83
426.341	4076.82
426.548	4248.85
426.756	4310.29
426.964	4275.48
427.171	4691.21
427.379	4732.17
427.586	4662.54
427.794	4924.68
428.001	5117.19
428.209	5285.12
428.417	5248.26
428.624	5766.4
428.832	5668.09
429.039	5520.64
429.247	5565.7
429.454	6161.66
429.662	6581.49
429.869	6155.51
430.076	6421.75
430.284	6270.2
430.491	6419.7
430.699	7060.71
430.906	7007.47
431.114	6931.69
431.321	7288.04
431.528	7486.69
431.736	7806.17
431.943	8152.28
432.15	8056.03
432.358	8056.03
432.565	8525.01
432.772	8725.71
432.979	8971.47
433.187	9034.96
433.394	9211.08
433.601	9942.21
433.808	9788.61
434.016	9782.46
434.223	10220.73
434.43	10740.91
434.637	10507.44
434.844	11158.7
435.052	11252.91
435.259	11246.76
435.466	11439.27
435.673	11388.07
435.88	12123.29
436.087	12661.91
436.294	12655.76
436.501	12434.58
436.708	12700.82
436.915	13137.04
437.122	13733
437.329	13634.69
437.537	14163.07
437.743	14322.81
437.95	14386.3
438.157	15127.66
438.364	15316.08
438.571	15252.59
438.778	15361.13
438.985	16688.21
439.192	16092.26
439.399	16743.51
439.606	16190.56
439.813	17349.71
440.02	18156.61
440.227	17982.53
440.433	17861.7
440.64	18166.85
440.847	18402.36
441.054	18893.88
441.261	20010.02
441.467	19463.21
441.674	20071.46
441.881	20694.04
442.088	20902.93
442.294	20436
442.501	21001.24
442.708	21611.53
442.914	22424.58
443.121	23127.03
443.328	22807.55
443.534	24288.23
443.741	23749.61
443.948	23428.08
444.154	25066.45
444.361	24691.68
444.568	25005.02
444.774	24953.82
444.981	25093.08
445.187	25744.33
445.394	26962.87
445.6	26895.29
445.807	29119.38
446.013	27845.55
446.22	28349.35
446.426	29791.12
446.633	29764.5
446.839	30948.22
447.046	29281.17
447.252	31036.28
447.459	31163.26
447.665	30864.25
447.871	32445.29
448.078	33960.78
448.284	32285.54
448.491	33002.33
448.697	34243.4
448.903	34855.75
449.11	34833.22
449.316	34466.63
449.522	35083.07
449.728	36018.99
449.935	35935.03
450.141	36305.71
450.347	37032.74
450.553	36062
450.76	36195.12
450.966	37589.78
451.172	37092.13
451.378	38044.43
451.584	37135.13
451.791	37976.85
451.997	37833.49
452.203	38624.01
452.409	38984.45
452.615	38408.97
452.821	37116.7
453.027	36600.61
453.233	38806.28
453.44	37153.57
453.646	37387.03
453.852	37716.76
454.058	38183.69
454.264	37096.22
454.47	37958.42
454.676	36793.12
454.882	38337.29
455.088	35091.26
455.294	35494.71
455.5	36141.87
455.705	36102.96
455.911	34880.32
456.117	34409.29
456.323	33715.03
456.529	32060.27
456.735	33512.28
456.941	32412.52
457.147	31982.45
457.352	30925.69
457.558	30616.45
457.764	30774.14
457.97	30327.69
458.176	29610.9
458.381	29854.61
458.587	28097.45
458.793	27947.95
458.999	26538.94
459.204	28599.2
459.41	27648.94
459.616	25942.99
459.821	26014.66
460.027	26186.69
460.233	25713.61
460.438	24331.23
460.644	24423.39
460.85	23442.42
461.055	22883.32
461.261	23084.02
461.466	21177.36
461.672	20636.7
461.878	21980.17
462.083	20470.81
462.289	20165.67
462.494	19891.24
462.7	19072.05
462.905	18603.07
463.111	19369.01
463.316	19493.93
463.522	19047.47
463.727	18936.88
463.932	19043.38
464.138	18572.35
464.343	18842.68
464.549	18412.6
464.754	18826.29
464.959	18965.56
465.165	18668.6
465.37	17857.6
465.575	17405
465.781	17996.87
465.986	18105.41
466.191	17458.25
466.397	17224.78
466.602	16323.68
466.807	16950.35
467.012	16995.41
467.218	16737.37
467.423	16809.04
467.628	16747.61
467.833	17546.31
