Data from USB4F104151__217__14-21-14-290.txt Node

Date: Thu Mar 13 14:21:14 EDT 2025
User: louis
Spectrometer: USB4F10415
Trigger mode: 4
Integration Time (sec): 2.000000E-2
Scans to average: 1
Electric dark correction enabled: true
Nonlinearity correction enabled: false
Boxcar width: 0
XAxis mode: Wavelengths
Number of Pixels in Spectrum: 3648
>>>>>Begin Spectral Data<<<<<
178.204	-79.02
178.424	-79.02
178.644	-79.02
178.864	-138.41
179.084	-158.89
179.304	39.76
179.524	-23.72
179.744	-3.24
179.964	-25.77
180.184	-9.39
180.404	19.29
180.624	23.38
180.844	33.62
181.064	-48.3
181.283	-36.01
181.503	27.48
181.723	2.9
181.943	-40.11
182.163	21.33
182.383	-1.19
182.602	35.67
182.822	56.15
183.042	-15.53
183.262	23.38
183.482	97.11
183.701	68.44
183.921	47.96
184.141	2.9
184.361	35.67
184.58	-17.58
184.8	23.38
185.02	11.09
185.239	11.09
185.459	64.34
185.679	-23.72
185.898	-19.63
186.118	64.34
186.338	15.19
186.557	-52.39
186.777	41.81
186.997	47.96
187.216	56.15
187.436	47.96
187.655	-13.48
187.875	64.34
188.095	-21.67
188.314	21.33
188.534	95.06
188.753	9.05
188.973	99.16
189.192	105.3
189.412	56.15
189.631	-7.34
189.851	72.53
190.07	39.76
190.29	27.48
190.509	60.24
190.729	23.38
190.948	93.01
191.168	154.45
191.387	43.86
191.607	72.53
191.826	52.05
192.045	41.81
192.265	90.96
192.484	66.39
192.704	70.48
192.923	-48.3
193.142	37.72
193.362	56.15
193.581	19.29
193.8	31.57
194.02	88.92
194.239	47.96
194.458	-21.67
194.678	99.16
194.897	9.05
195.116	7
195.335	64.34
195.555	2.9
195.774	47.96
195.993	50
196.212	97.11
196.432	113.49
196.651	2.9
196.87	47.96
197.089	80.72
197.308	82.77
197.528	105.3
197.747	-15.53
197.966	9.05
198.185	23.38
198.404	-74.92
198.623	11.09
198.842	-19.63
199.062	56.15
199.281	-23.72
199.5	-7.34
199.719	17.24
199.938	35.67
200.157	-1.19
200.376	27.48
200.595	56.15
200.814	80.72
201.033	-5.29
201.252	60.24
201.471	23.38
201.69	82.77
201.909	41.81
202.128	-13.48
202.347	160.59
202.566	-21.67
202.785	33.62
203.004	33.62
203.223	64.34
203.442	-19.63
203.661	125.78
203.879	39.76
204.098	113.49
204.317	23.38
204.536	17.24
204.755	29.52
204.974	80.72
205.193	66.39
205.411	54.1
205.63	4.95
205.849	43.86
206.068	-15.53
206.287	31.57
206.505	82.77
206.724	-5.29
206.943	64.34
207.162	-9.39
207.381	80.72
207.599	19.29
207.818	9.05
208.037	25.43
208.255	76.63
208.474	37.72
208.693	0.85
208.911	17.24
209.13	47.96
209.349	39.76
209.567	105.3
209.786	-7.34
210.005	-5.29
210.223	62.29
210.442	-9.39
210.661	35.67
210.879	62.29
211.098	9.05
211.316	43.86
211.535	31.57
211.753	19.29
211.972	72.53
212.191	70.48
212.409	-15.53
212.628	50
212.846	56.15
213.065	-21.67
213.283	15.19
213.502	21.33
213.72	54.1
213.938	15.19
214.157	27.48
214.375	66.39
214.594	27.48
214.812	101.2
215.031	-17.58
215.249	39.76
215.467	-1.19
215.686	4.95
215.904	-5.29
216.122	68.44
216.341	-3.24
216.559	23.38
216.778	109.4
216.996	101.2
217.214	50
217.432	7
217.651	9.05
217.869	-3.24
218.087	-7.34
218.306	-9.39
218.524	113.49
218.742	37.72
218.96	86.87
219.179	97.11
219.397	-1.19
219.615	33.62
219.833	17.24
220.051	31.57
220.27	2.9
220.488	41.81
220.706	60.24
220.924	-17.58
221.142	105.3
221.36	0.85
221.578	88.92
221.796	43.86
222.015	39.76
222.233	17.24
222.451	39.76
222.669	29.52
222.887	50
223.105	11.09
223.323	-1.19
223.541	78.68
223.759	47.96
223.977	97.11
224.195	68.44
224.413	76.63
224.631	15.19
224.849	52.05
225.067	58.2
225.285	23.38
225.503	33.62
225.721	-25.77
225.939	31.57
226.157	-19.63
226.375	99.16
226.592	78.68
226.81	90.96
227.028	31.57
227.246	99.16
227.464	41.81
227.682	47.96
227.9	64.34
228.117	39.76
228.335	39.76
228.553	23.38
228.771	37.72
228.989	-29.87
229.206	41.81
229.424	66.39
229.642	52.05
229.86	99.16
230.077	11.09
230.295	37.72
230.513	72.53
230.731	58.2
230.948	70.48
231.166	23.38
231.384	-25.77
231.601	47.96
231.819	25.43
232.037	33.62
232.254	2.9
232.472	52.05
232.689	2.9
232.907	47.96
233.125	60.24
233.342	2.9
233.56	43.86
233.777	19.29
233.995	17.24
234.213	107.35
234.43	31.57
234.648	-1.19
234.865	39.76
235.083	-1.19
235.3	15.19
235.518	84.82
235.735	-5.29
235.953	146.26
236.17	31.57
236.388	47.96
236.605	54.1
236.822	88.92
237.04	80.72
237.257	187.22
237.475	39.76
237.692	72.53
237.909	52.05
238.127	29.52
238.344	50
238.562	86.87
238.779	-1.19
238.996	-15.53
239.214	-9.39
239.431	84.82
239.648	17.24
239.865	17.24
240.083	17.24
240.3	31.57
240.517	11.09
240.735	109.4
240.952	56.15
241.169	97.11
241.386	58.2
241.603	50
241.821	50
242.038	41.81
242.255	121.68
242.472	33.62
242.689	31.57
242.907	-3.24
243.124	0.85
243.341	54.1
243.558	-1.19
243.775	17.24
243.992	-17.58
244.209	-38.06
244.426	82.77
244.643	97.11
244.86	-66.73
245.078	66.39
245.295	58.2
245.512	39.76
245.729	58.2
245.946	43.86
246.163	-42.15
246.38	66.39
246.597	56.15
246.814	47.96
247.031	43.86
247.248	74.58
247.464	21.33
247.681	15.19
247.898	97.11
248.115	72.53
248.332	45.91
248.549	64.34
248.766	84.82
248.983	95.06
249.2	66.39
249.417	52.05
249.633	47.96
249.85	64.34
250.067	19.29
250.284	56.15
250.501	72.53
250.717	80.72
250.934	-38.06
251.151	-15.53
251.368	-1.19
251.585	41.81
251.801	146.26
252.018	7
252.235	39.76
252.451	-5.29
252.668	50
252.885	88.92
253.102	-25.77
253.318	52.05
253.535	52.05
253.752	99.16
253.968	-9.39
254.185	-38.06
254.401	88.92
254.618	39.76
254.835	47.96
255.051	64.34
255.268	52.05
255.484	58.2
255.701	41.81
255.917	90.96
256.134	21.33
256.351	45.91
256.567	-3.24
256.784	11.09
257	23.38
257.217	29.52
257.433	72.53
257.65	47.96
257.866	84.82
258.082	11.09
258.299	7
258.515	23.38
258.732	23.38
258.948	64.34
259.165	11.09
259.381	31.57
259.597	-19.63
259.814	33.62
260.03	23.38
260.246	9.05
260.463	0.85
260.679	39.76
260.895	43.86
261.112	43.86
261.328	78.68
261.544	-9.39
261.761	195.41
261.977	50
262.193	-21.67
262.409	25.43
262.626	31.57
262.842	-29.87
263.058	-27.82
263.274	129.88
263.49	47.96
263.707	43.86
263.923	99.16
264.139	64.34
264.355	39.76
264.571	97.11
264.787	58.2
265.004	80.72
265.22	64.34
265.436	23.38
265.652	23.38
265.868	33.62
266.084	15.19
266.3	72.53
266.516	11.09
266.732	27.48
266.948	76.63
267.164	-25.77
267.38	86.87
267.596	47.96
267.812	101.2
268.028	80.72
268.244	21.33
268.46	64.34
268.676	37.72
268.892	88.92
269.108	23.38
269.324	-23.72
269.54	15.19
269.756	123.73
269.972	35.67
270.188	-1.19
270.403	37.72
270.619	4.95
270.835	74.58
271.051	-31.91
271.267	37.72
271.483	17.24
271.698	39.76
271.914	41.81
272.13	-31.91
272.346	76.63
272.562	11.09
272.777	25.43
272.993	78.68
273.209	103.25
273.425	64.34
273.64	64.34
273.856	60.24
274.072	31.57
274.287	47.96
274.503	60.24
274.719	17.24
274.934	-1.19
275.15	-9.39
275.366	-21.67
275.581	50
275.797	72.53
276.012	33.62
276.228	88.92
276.444	109.4
276.659	93.01
276.875	-52.39
277.09	54.1
277.306	39.76
277.521	109.4
277.737	95.06
277.952	129.88
278.168	-23.72
278.383	0.85
278.599	-42.15
278.814	138.07
279.03	47.96
279.245	64.34
279.461	72.53
279.676	33.62
279.892	23.38
280.107	11.09
280.322	7
280.538	-9.39
280.753	70.48
280.969	-25.77
281.184	72.53
281.399	107.35
281.615	-17.58
281.83	-9.39
282.045	-33.96
282.26	72.53
282.476	21.33
282.691	17.24
282.906	-13.48
283.122	0.85
283.337	-7.34
283.552	47.96
283.767	80.72
283.983	41.81
284.198	23.38
284.413	47.96
284.628	74.58
284.843	80.72
285.058	7
285.274	9.05
285.489	-9.39
285.704	131.92
285.919	50
286.134	-7.34
286.349	39.76
286.564	35.67
286.779	84.82
286.995	58.2
287.21	15.19
287.425	86.87
287.64	37.72
287.855	0.85
288.07	56.15
288.285	156.5
288.5	86.87
288.715	74.58
288.93	-5.29
289.145	7
289.36	107.35
289.575	50
289.79	17.24
290.004	33.62
290.219	43.86
290.434	47.96
290.649	-66.73
290.864	39.76
291.079	64.34
291.294	31.57
291.509	109.4
291.724	15.19
291.938	-33.96
292.153	23.38
292.368	72.53
292.583	35.67
292.798	41.81
293.012	50
293.227	19.29
293.442	47.96
293.657	0.85
293.871	129.88
294.086	7
294.301	93.01
294.516	17.24
294.73	9.05
294.945	-9.39
295.16	43.86
295.374	80.72
295.589	90.96
295.804	23.38
296.018	56.15
296.233	60.24
296.447	47.96
296.662	70.48
296.877	45.91
297.091	58.2
297.306	58.2
297.52	0.85
297.735	15.19
297.949	64.34
298.164	13.14
298.378	17.24
298.593	-15.53
298.807	13.14
299.022	56.15
299.236	11.09
299.451	-5.29
299.665	60.24
299.88	23.38
300.094	56.15
300.309	107.35
300.523	56.15
300.737	35.67
300.952	121.68
301.166	33.62
301.381	113.49
301.595	43.86
301.809	72.53
302.024	60.24
302.238	27.48
302.452	47.96
302.667	-31.91
302.881	-23.72
303.095	113.49
303.309	121.68
303.524	39.76
303.738	-23.72
303.952	7
304.166	17.24
304.381	-46.25
304.595	90.96
304.809	56.15
305.023	93.01
305.237	66.39
305.452	23.38
305.666	23.38
305.88	33.62
306.094	64.34
306.308	56.15
306.522	50
306.736	29.52
306.95	15.19
307.164	2.9
307.379	-3.24
307.593	88.92
307.807	64.34
308.021	74.58
308.235	11.09
308.449	15.19
308.663	56.15
308.877	80.72
309.091	-5.29
309.305	58.2
309.519	-31.91
309.733	27.48
309.947	-38.06
310.161	33.62
310.374	-3.24
310.588	43.86
310.802	-50.35
311.016	39.76
311.23	15.19
311.444	4.95
311.658	99.16
311.872	47.96
312.085	101.2
312.299	43.86
312.513	64.34
312.727	4.95
312.941	0.85
313.154	7
313.368	13.14
313.582	84.82
313.796	95.06
314.009	33.62
314.223	97.11
314.437	58.2
314.651	101.2
314.864	-17.58
315.078	2.9
315.292	27.48
315.505	-1.19
315.719	72.53
315.933	23.38
316.146	88.92
316.36	25.43
316.573	113.49
316.787	88.92
317.001	68.44
317.214	31.57
317.428	-17.58
317.641	19.29
317.855	43.86
318.068	97.11
318.282	101.2
318.495	80.72
318.709	64.34
318.922	2.9
319.136	66.39
319.349	50
319.563	-1.19
319.776	64.34
319.99	2.9
320.203	-52.39
320.417	25.43
320.63	25.43
320.843	115.54
321.057	72.53
321.27	27.48
321.483	23.38
321.697	43.86
321.91	50
322.124	74.58
322.337	25.43
322.55	99.16
322.763	97.11
322.977	66.39
323.19	60.24
323.403	31.57
323.617	15.19
323.83	43.86
324.043	-25.77
324.256	15.19
324.469	41.81
324.683	76.63
324.896	23.38
325.109	62.29
325.322	45.91
325.535	129.88
325.748	29.52
325.962	117.59
326.175	41.81
326.388	170.83
326.601	140.12
326.814	66.39
327.027	23.38
327.24	105.3
327.453	64.34
327.666	111.44
327.879	72.53
328.092	39.76
328.305	-11.43
328.518	82.77
328.731	76.63
328.944	21.33
329.157	60.24
329.37	19.29
329.583	72.53
329.796	179.03
330.009	-25.77
330.222	25.43
330.435	31.57
330.648	23.38
330.861	47.96
331.073	31.57
331.286	33.62
331.499	45.91
331.712	2.9
331.925	-1.19
332.138	58.2
332.35	129.88
332.563	31.57
332.776	107.35
332.989	17.24
333.202	4.95
333.414	80.72
333.627	121.68
333.84	13.14
334.053	125.78
334.265	9.05
334.478	68.44
334.691	50
334.903	15.19
335.116	-1.19
335.329	82.77
335.541	105.3
335.754	154.45
335.966	56.15
336.179	76.63
336.392	101.2
336.604	25.43
336.817	-25.77
337.029	7
337.242	62.29
337.454	43.86
337.667	-5.29
337.88	47.96
338.092	107.35
338.305	29.52
338.517	56.15
338.729	72.53
338.942	41.81
339.154	-1.19
339.367	99.16
339.579	113.49
339.792	2.9
340.004	117.59
340.217	72.53
340.429	47.96
340.641	31.57
340.854	11.09
341.066	41.81
341.278	99.16
341.491	64.34
341.703	25.43
341.915	50
342.128	97.11
342.34	70.48
342.552	86.87
342.764	23.38
342.977	39.76
343.189	-36.01
343.401	101.2
343.613	-19.63
343.826	35.67
344.038	88.92
344.25	109.4
344.462	41.81
344.674	72.53
344.886	27.48
345.099	80.72
345.311	66.39
345.523	9.05
345.735	21.33
345.947	162.64
346.159	-17.58
346.371	97.11
346.583	68.44
346.795	136.02
347.007	60.24
347.219	39.76
347.431	-5.29
347.643	66.39
347.855	60.24
348.067	142.16
348.279	31.57
348.491	82.77
348.703	0.85
348.915	17.24
349.127	35.67
349.339	148.31
349.551	29.52
349.763	41.81
349.975	17.24
350.187	15.19
350.399	52.05
350.61	131.92
350.822	95.06
351.034	11.09
351.246	84.82
351.458	80.72
351.669	54.1
351.881	97.11
352.093	64.34
352.305	47.96
352.517	105.3
352.728	142.16
352.94	62.29
353.152	90.96
353.363	50
353.575	23.38
353.787	158.55
353.999	47.96
354.21	121.68
354.422	33.62
354.633	17.24
354.845	35.67
355.057	-33.96
355.268	56.15
355.48	23.38
355.692	4.95
355.903	23.38
356.115	13.14
356.326	31.57
356.538	84.82
356.749	56.15
356.961	80.72
357.172	15.19
357.384	9.05
357.595	27.48
357.807	66.39
358.018	68.44
358.23	127.83
358.441	27.48
358.653	97.11
358.864	74.58
359.075	23.38
359.287	138.07
359.498	64.34
359.709	121.68
359.921	17.24
360.132	105.3
360.344	15.19
360.555	64.34
360.766	76.63
360.977	72.53
361.189	117.59
361.4	88.92
361.611	41.81
361.823	41.81
362.034	84.82
362.245	39.76
362.456	78.68
362.667	136.02
362.879	23.38
363.09	148.31
363.301	-21.67
363.512	39.76
363.723	23.38
363.935	58.2
364.146	31.57
364.357	23.38
364.568	82.77
364.779	39.76
364.99	56.15
365.201	136.02
365.412	80.72
365.623	31.57
365.834	25.43
366.045	82.77
366.256	60.24
366.467	80.72
366.678	113.49
366.889	4.95
367.1	56.15
367.311	27.48
367.522	50
367.733	74.58
367.944	82.77
368.155	21.33
368.366	33.62
368.577	88.92
368.788	52.05
368.999	64.34
369.209	125.78
369.42	117.59
369.631	138.07
369.842	111.44
370.053	50
370.264	123.73
370.474	52.05
370.685	62.29
370.896	97.11
371.107	50
371.317	50
371.528	23.38
371.739	76.63
371.95	41.81
372.16	80.72
372.371	62.29
372.582	56.15
372.792	105.3
373.003	129.88
373.214	72.53
373.424	105.3
373.635	66.39
373.846	80.72
374.056	37.72
374.267	72.53
374.477	56.15
374.688	93.01
374.898	33.62
375.109	82.77
375.319	25.43
375.53	76.63
375.74	54.1
375.951	56.15
376.161	64.34
376.372	84.82
376.582	27.48
376.793	74.58
377.003	-17.58
377.214	66.39
377.424	54.1
377.635	15.19
377.845	17.24
378.055	95.06
378.266	93.01
378.476	0.85
378.686	50
378.897	113.49
379.107	19.29
379.317	-5.29
379.528	43.86
379.738	27.48
379.948	99.16
380.158	82.77
380.369	109.4
380.579	82.77
380.789	35.67
380.999	80.72
381.21	113.49
381.42	125.78
381.63	58.2
381.84	103.25
382.05	47.96
382.261	68.44
382.471	60.24
382.681	-3.24
382.891	103.25
383.101	107.35
383.311	97.11
383.521	105.3
383.731	52.05
383.941	103.25
384.151	45.91
384.361	7
384.571	111.44
384.781	15.19
384.991	0.85
385.201	119.64
385.411	117.59
385.621	123.73
385.831	31.57
386.041	33.62
386.251	131.92
386.461	43.86
386.671	88.92
386.881	82.77
387.091	78.68
387.301	64.34
387.511	39.76
387.72	47.96
387.93	107.35
388.14	66.39
388.35	76.63
388.56	162.64
388.769	136.02
388.979	88.92
389.189	15.19
389.399	82.77
389.609	86.87
389.818	60.24
390.028	-5.29
390.238	72.53
390.447	60.24
390.657	105.3
390.867	41.81
391.076	97.11
391.286	64.34
391.496	66.39
391.705	78.68
391.915	80.72
392.125	109.4
392.334	64.34
392.544	121.68
392.753	121.68
392.963	113.49
393.172	72.53
393.382	105.3
393.591	207.7
393.801	125.78
394.01	179.03
394.22	29.52
394.429	31.57
394.639	105.3
394.848	99.16
395.058	93.01
395.267	113.49
395.477	154.45
395.686	121.68
395.895	90.96
396.105	131.92
396.314	148.31
396.524	72.53
396.733	97.11
396.942	138.07
397.152	142.16
397.361	133.97
397.57	93.01
397.78	123.73
397.989	43.86
398.198	123.73
398.407	101.2
398.617	205.65
398.826	109.4
399.035	105.3
399.244	84.82
399.453	74.58
399.663	142.16
399.872	170.83
400.081	97.11
400.29	140.12
400.499	45.91
400.708	136.02
400.917	203.6
401.127	105.3
401.336	148.31
401.545	195.41
401.754	187.22
401.963	107.35
402.172	164.69
402.381	113.49
402.59	133.97
402.799	146.26
403.008	201.55
403.217	162.64
403.426	219.99
403.635	199.51
403.844	140.12
404.053	185.17
404.262	150.36
404.471	181.07
404.68	150.36
404.888	185.17
405.097	195.41
405.306	166.74
405.515	187.22
405.724	213.84
405.933	154.45
406.142	174.93
406.35	310.1
406.559	179.03
406.768	133.97
406.977	238.42
407.185	254.8
407.394	252.75
407.603	228.18
407.812	265.04
408.02	334.67
408.229	224.08
408.438	289.62
408.646	293.71
408.855	240.47
409.064	330.58
409.272	303.95
409.481	418.64
409.69	248.66
409.898	371.54
410.107	318.29
410.315	381.78
410.524	396.11
410.733	310.1
410.941	412.5
411.15	506.7
411.358	502.61
411.567	502.61
411.775	559.95
411.984	478.03
412.192	537.42
412.401	467.79
412.609	551.76
412.818	588.62
413.026	648.01
413.234	633.68
413.443	629.58
413.651	670.54
413.86	588.62
414.068	678.73
414.276	744.27
414.485	672.59
414.693	678.73
414.901	850.76
415.11	779.08
415.318	932.68
415.526	887.62
415.734	924.49
415.943	928.58
416.151	994.12
416.359	949.06
416.567	1039.17
416.776	1069.89
416.984	1149.76
417.192	1049.41
417.4	1258.31
417.608	1104.71
417.817	1200.96
418.025	1383.23
418.233	1424.19
418.441	1334.08
418.649	1403.71
418.857	1602.36
419.065	1538.88
419.273	1532.73
419.481	1592.13
419.689	1702.72
419.897	1768.25
420.105	1841.98
420.313	1915.7
420.521	1893.18
420.729	2014.01
420.937	1999.67
421.145	2095.93
421.353	2218.8
421.561	2327.35
421.769	2306.87
421.977	2450.22
422.185	2372.4
422.393	2636.59
422.601	2829.1
422.809	2720.56
423.017	2669.36
423.224	2868.01
423.432	2894.63
423.64	3048.23
423.848	3242.79
424.056	3128.1
424.263	3400.48
424.471	3336.99
424.679	3459.87
424.887	3762.97
425.094	3711.77
425.302	3783.45
425.51	3945.24
425.718	4053.78
425.925	3937.05
426.133	4174.61
426.341	4432.66
426.548	4637.45
426.756	4616.97
426.964	4594.45
427.171	4911.88
427.379	5038.86
427.586	4981.51
427.794	5315.33
428.001	5348.1
428.209	5856
428.417	5778.17
428.624	6150.9
428.832	6122.23
429.039	5980.92
429.247	6003.45
429.454	6669.04
429.662	7045.87
429.869	6599.41
430.076	7088.87
430.284	6947.56
430.491	7217.9
430.699	7598.82
430.906	7613.15
431.114	7699.17
431.321	7865.05
431.528	7951.07
431.736	8674
431.943	8968.91
432.15	8659.67
432.358	8985.29
432.565	9413.32
432.772	9503.43
432.979	9898.69
433.187	10109.63
433.394	10134.2
433.601	10517.17
433.808	10812.08
434.016	10764.98
434.223	11164.33
434.43	11709.09
434.637	11451.05
434.844	12434.07
435.052	12442.26
435.259	12520.09
435.466	12597.91
435.673	12231.32
435.88	13243.02
436.087	13990.53
436.294	13838.98
436.501	13435.53
436.708	14008.96
436.915	14404.22
437.122	14928.5
437.329	14899.83
437.537	15530.6
437.743	15700.58
437.95	15567.46
438.157	16347.74
438.364	16589.4
438.571	16777.81
438.778	16804.44
438.985	18342.46
439.192	17687.11
439.399	18496.06
439.606	18065.99
439.813	18924.08
440.02	20161.06
440.227	19554.86
440.433	19550.76
440.64	20142.63
440.847	19962.4
441.054	20576.8
441.261	22002.18
441.467	21674.51
441.674	21922.31
441.881	22721.02
442.088	22665.72
442.294	22501.89
442.501	23269.87
442.708	23527.92
442.914	24494.56
443.121	25471.44
443.328	25061.85
443.534	26495.43
443.741	25811.4
443.948	25442.77
444.154	27390.39
444.361	27128.25
444.568	27331
444.774	27206.07
444.981	27609.52
445.187	28125.61
445.394	29587.86
445.6	29104.54
445.807	32086.38
446.013	30198.15
446.22	31172.99
446.426	32602.47
446.633	32956.77
446.839	33720.66
447.046	32334.18
447.252	34015.57
447.459	33941.84
447.665	33800.53
447.871	35461.43
448.078	37357.85
448.284	34992.45
448.491	36344.11
448.697	37320.99
448.903	38197.52
449.11	38523.15
449.316	37908.75
449.522	38357.26
449.728	39614.71
449.935	39655.67
450.141	39600.38
450.347	40198.38
450.553	39223.55
450.76	39633.14
450.966	41195.74
451.172	40759.53
451.378	41474.27
451.584	40917.22
451.791	41912.53
451.997	41926.87
452.203	42225.87
452.409	42756.3
452.615	42098.9
452.821	40624.36
453.027	39946.48
453.233	42483.92
453.44	40741.1
453.646	41378.01
453.852	41294.05
454.058	42051.8
454.264	40829.16
454.47	41650.39
454.676	40251.63
454.882	41566.43
455.088	38031.63
455.294	38877.44
455.5	39827.7
455.705	39899.38
455.911	38293.77
456.117	37619.99
456.323	36886.82
456.529	35195.2
456.735	36626.73
456.941	35703.09
457.147	35291.45
457.352	34156.88
457.558	33612.12
457.764	34326.86
457.97	33229.15
458.176	32657.76
458.381	32887.14
458.587	30888.32
458.793	30669.19
458.999	29239.7
459.204	31340.92
459.41	30585.22
459.616	28676.51
459.821	28901.79
460.027	28787.1
460.233	27961.77
460.438	26829.24
460.644	27097.53
460.85	25782.73
461.055	25493.97
461.261	25422.29
461.466	23405.04
461.672	22776.31
461.878	24451.55
462.083	23026.17
462.289	22391.3
462.494	22168.07
462.7	21463.57
462.905	20761.11
463.111	21316.11
463.316	21551.63
463.522	20996.63
463.727	21090.84
463.932	21031.44
464.138	20916.76
464.343	20967.96
464.549	20300.32
464.754	21006.87
464.959	21064.21
465.165	20615.71
465.37	19751.46
465.575	19065.39
465.781	19958.31
465.986	20298.27
466.191	19262
466.397	19106.35
466.602	18127.42
466.807	18424.38
467.012	18850.36
467.218	18711.1
467.423	18405.95
467.628	18717.24
467.833	19284.53
468.038	18729.53
468.244	18123.33
