Data from USB4F104151__116__14-18-34-467.txt Node

Date: Thu Mar 13 14:18:34 EDT 2025
User: louis
Spectrometer: USB4F10415
Trigger mode: 4
Integration Time (sec): 2.000000E-2
Scans to average: 1
Electric dark correction enabled: true
Nonlinearity correction enabled: false
Boxcar width: 0
XAxis mode: Wavelengths
Number of Pixels in Spectrum: 3648
>>>>>Begin Spectral Data<<<<<
178.204	-138.24
178.424	-138.24
178.644	-138.24
178.864	-154.62
179.084	-119.81
179.304	-72.7
179.524	-13.31
179.744	-35.84
179.964	5.12
180.184	-13.31
180.404	50.18
180.624	-29.7
180.844	3.07
181.064	5.12
181.283	66.56
181.503	-27.65
181.723	62.46
181.943	-25.6
182.163	27.65
182.383	-23.55
182.602	74.75
182.822	-9.22
183.042	44.03
183.262	-33.79
183.482	64.51
183.701	46.08
183.921	-70.65
184.141	15.36
184.361	35.84
184.58	-37.89
184.8	-33.79
185.02	25.6
185.239	37.89
185.459	-29.7
185.679	50.18
185.898	-37.89
186.118	11.26
186.338	7.17
186.557	29.7
186.777	-17.41
186.997	-41.98
187.216	-17.41
187.436	107.52
187.655	113.66
187.875	5.12
188.095	25.6
188.314	113.66
188.534	35.84
188.753	91.13
188.973	-17.41
189.192	-5.12
189.412	-44.03
189.631	7.17
189.851	-103.42
190.07	121.85
190.29	64.51
190.509	9.22
190.729	9.22
190.948	87.04
191.168	144.38
191.387	9.22
191.607	-3.07
191.826	17.41
192.045	-74.75
192.265	-33.79
192.484	-70.65
192.704	23.55
192.923	25.6
193.142	121.85
193.362	35.84
193.581	15.36
193.8	44.03
194.02	27.65
194.239	11.26
194.458	17.41
194.678	27.65
194.897	82.94
195.116	27.65
195.335	11.26
195.555	17.41
195.774	17.41
195.993	-9.22
196.212	1.02
196.432	-80.89
196.651	-50.18
196.87	-29.7
197.089	68.61
197.308	15.36
197.528	3.07
197.747	-7.17
197.966	-41.98
198.185	158.72
198.404	89.09
198.623	17.41
198.842	48.13
199.062	3.07
199.281	74.75
199.5	-9.22
199.719	-5.12
199.938	31.74
200.157	74.75
200.376	52.22
200.595	50.18
200.814	72.7
201.033	-3.07
201.252	52.22
201.471	7.17
201.69	39.94
201.909	21.5
202.128	17.41
202.347	113.66
202.566	-1.02
202.785	5.12
203.004	-99.33
203.223	56.32
203.442	39.94
203.661	64.51
203.879	97.28
204.098	80.89
204.317	-9.22
204.536	64.51
204.755	-1.02
204.974	72.7
205.193	68.61
205.411	125.95
205.63	25.6
205.849	31.74
206.068	35.84
206.287	-39.94
206.505	50.18
206.724	-33.79
206.943	31.74
207.162	31.74
207.381	-1.02
207.599	-50.18
207.818	-44.03
208.037	15.36
208.255	29.7
208.474	62.46
208.693	107.52
208.911	1.02
209.13	39.94
209.349	-46.08
209.567	-23.55
209.786	64.51
210.005	27.65
210.223	1.02
210.442	52.22
210.661	66.56
210.879	39.94
211.098	58.37
211.316	56.32
211.535	9.22
211.753	-21.5
211.972	-9.22
212.191	-25.6
212.409	13.31
212.628	-41.98
212.846	39.94
213.065	62.46
213.283	39.94
213.502	-7.17
213.72	58.37
213.938	76.8
214.157	74.75
214.375	56.32
214.594	23.55
214.812	72.7
215.031	-50.18
215.249	64.51
215.467	7.17
215.686	60.42
215.904	35.84
216.122	3.07
216.341	66.56
216.559	105.47
216.778	9.22
216.996	48.13
217.214	-7.17
217.432	41.98
217.651	-21.5
217.869	-74.75
218.087	23.55
218.306	-21.5
218.524	33.79
218.742	-1.02
218.96	58.37
219.179	-50.18
219.397	76.8
219.615	97.28
219.833	19.46
220.051	39.94
220.27	48.13
220.488	97.28
220.706	-25.6
220.924	44.03
221.142	-27.65
221.36	70.65
221.578	76.8
221.796	46.08
222.015	39.94
222.233	33.79
222.451	74.75
222.669	23.55
222.887	50.18
223.105	11.26
223.323	29.7
223.541	1.02
223.759	31.74
223.977	-9.22
224.195	89.09
224.413	-11.26
224.631	25.6
224.849	-29.7
225.067	105.47
225.285	5.12
225.503	33.79
225.721	17.41
225.939	-58.37
226.157	80.89
226.375	107.52
226.592	31.74
226.81	-3.07
227.028	48.13
227.246	72.7
227.464	9.22
227.682	56.32
227.9	52.22
228.117	-19.46
228.335	1.02
228.553	60.42
228.771	58.37
228.989	74.75
229.206	84.99
229.424	-58.37
229.642	-41.98
229.86	-9.22
230.077	-17.41
230.295	52.22
230.513	25.6
230.731	23.55
230.948	-1.02
231.166	76.8
231.384	64.51
231.601	3.07
231.819	91.13
232.037	3.07
232.254	-7.17
232.472	-19.46
232.689	23.55
232.907	111.61
233.125	31.74
233.342	7.17
233.56	66.56
233.777	-91.13
233.995	-5.12
234.213	23.55
234.43	-13.31
234.648	-7.17
234.865	1.02
235.083	99.33
235.3	44.03
235.518	5.12
235.735	31.74
235.953	23.55
236.17	-21.5
236.388	-21.5
236.605	-1.02
236.822	31.74
237.04	64.51
237.257	23.55
237.475	-13.31
237.692	33.79
237.909	101.37
238.127	62.46
238.344	52.22
238.562	13.31
238.779	19.46
238.996	-37.89
239.214	76.8
239.431	44.03
239.648	-33.79
239.865	97.28
240.083	80.89
240.3	56.32
240.517	56.32
240.735	-33.79
240.952	35.84
241.169	27.65
241.386	19.46
241.603	48.13
241.821	-56.32
242.038	56.32
242.255	39.94
242.472	-23.55
242.689	7.17
242.907	87.04
243.124	33.79
243.341	31.74
243.558	-37.89
243.775	-35.84
243.992	93.18
244.209	72.7
244.426	70.65
244.643	48.13
244.86	-33.79
245.078	64.51
245.295	15.36
245.512	-33.79
245.729	-25.6
245.946	-11.26
246.163	93.18
246.38	23.55
246.597	31.74
246.814	60.42
247.031	21.5
247.248	-11.26
247.464	21.5
247.681	80.89
247.898	76.8
248.115	74.75
248.332	1.02
248.549	7.17
248.766	58.37
248.983	66.56
249.2	70.65
249.417	39.94
249.633	82.94
249.85	35.84
250.067	74.75
250.284	-41.98
250.501	56.32
250.717	9.22
250.934	-3.07
251.151	-11.26
251.368	5.12
251.585	58.37
251.801	23.55
252.018	17.41
252.235	41.98
252.451	-48.13
252.668	-1.02
252.885	23.55
253.102	44.03
253.318	-1.02
253.535	56.32
253.752	33.79
253.968	15.36
254.185	-31.74
254.401	-11.26
254.618	-60.42
254.835	-31.74
255.051	99.33
255.268	37.89
255.484	50.18
255.701	44.03
255.917	15.36
256.134	15.36
256.351	41.98
256.567	17.41
256.784	1.02
257	-9.22
257.217	19.46
257.433	31.74
257.65	25.6
257.866	99.33
258.082	9.22
258.299	7.17
258.515	25.6
258.732	48.13
258.948	-13.31
259.165	-21.5
259.381	56.32
259.597	3.07
259.814	64.51
260.03	-5.12
260.246	58.37
260.463	27.65
260.679	50.18
260.895	7.17
261.112	64.51
261.328	39.94
261.544	64.51
261.761	72.7
261.977	-1.02
262.193	31.74
262.409	27.65
262.626	23.55
262.842	58.37
263.058	52.22
263.274	-3.07
263.49	-1.02
263.707	25.6
263.923	52.22
264.139	23.55
264.355	23.55
264.571	89.09
264.787	9.22
265.004	113.66
265.22	-11.26
265.436	-64.51
265.652	58.37
265.868	60.42
266.084	76.8
266.3	72.7
266.516	-9.22
266.732	56.32
266.948	-5.12
267.164	9.22
267.38	52.22
267.596	72.7
267.812	109.57
268.028	3.07
268.244	17.41
268.46	52.22
268.676	-17.41
268.892	60.42
269.108	15.36
269.324	46.08
269.54	31.74
269.756	64.51
269.972	-25.6
270.188	33.79
270.403	-27.65
270.619	-9.22
270.835	66.56
271.051	27.65
271.267	72.7
271.483	-9.22
271.698	15.36
271.914	89.09
272.13	17.41
272.346	7.17
272.562	-5.12
272.777	76.8
272.993	17.41
273.209	3.07
273.425	68.61
273.64	-19.46
273.856	50.18
274.072	-7.17
274.287	-80.89
274.503	3.07
274.719	78.85
274.934	-13.31
275.15	-60.42
275.366	41.98
275.581	-37.89
275.797	29.7
276.012	-17.41
276.228	9.22
276.444	29.7
276.659	-21.5
276.875	1.02
277.09	25.6
277.306	25.6
277.521	23.55
277.737	-7.17
277.952	-1.02
278.168	60.42
278.383	-13.31
278.599	-66.56
278.814	17.41
279.03	-17.41
279.245	31.74
279.461	-1.02
279.676	21.5
279.892	-31.74
280.107	39.94
280.322	-60.42
280.538	1.02
280.753	-5.12
280.969	19.46
281.184	5.12
281.399	1.02
281.615	-1.02
281.83	17.41
282.045	-91.13
282.26	11.26
282.476	72.7
282.691	105.47
282.906	56.32
283.122	-70.65
283.337	31.74
283.552	64.51
283.767	-5.12
283.983	23.55
284.198	-21.5
284.413	-21.5
284.628	-54.27
284.843	113.66
285.058	7.17
285.274	-1.02
285.489	25.6
285.704	64.51
285.919	-1.02
286.134	-7.17
286.349	68.61
286.564	27.65
286.779	62.46
286.995	17.41
287.21	-9.22
287.425	3.07
287.64	3.07
287.855	87.04
288.07	9.22
288.285	46.08
288.5	27.65
288.715	97.28
288.93	27.65
289.145	23.55
289.36	29.7
289.575	-66.56
289.79	64.51
290.004	50.18
290.219	70.65
290.434	48.13
290.649	7.17
290.864	74.75
291.079	7.17
291.294	56.32
291.509	-17.41
291.724	-1.02
291.938	3.07
292.153	23.55
292.368	82.94
292.583	48.13
292.798	1.02
293.012	13.31
293.227	39.94
293.442	3.07
293.657	39.94
293.871	60.42
294.086	142.33
294.301	123.9
294.516	46.08
294.73	7.17
294.945	23.55
295.16	-29.7
295.374	64.51
295.589	62.46
295.804	52.22
296.018	-62.46
296.233	11.26
296.447	101.37
296.662	-29.7
296.877	164.86
297.091	50.18
297.306	-13.31
297.52	48.13
297.735	48.13
297.949	27.65
298.164	17.41
298.378	33.79
298.593	19.46
298.807	54.27
299.022	1.02
299.236	50.18
299.451	-25.6
299.665	-39.94
299.88	27.65
300.094	62.46
300.309	17.41
300.523	-1.02
300.737	50.18
300.952	78.85
301.166	-5.12
301.381	15.36
301.595	46.08
301.809	64.51
302.024	52.22
302.238	-13.31
302.452	93.18
302.667	66.56
302.881	107.52
303.095	27.65
303.309	58.37
303.524	-29.7
303.738	62.46
303.952	82.94
304.166	31.74
304.381	-50.18
304.595	66.56
304.809	-15.36
305.023	17.41
305.237	1.02
305.452	15.36
305.666	41.98
305.88	56.32
306.094	56.32
306.308	-25.6
306.522	-54.27
306.736	39.94
306.95	-9.22
307.164	-33.79
307.379	25.6
307.593	60.42
307.807	87.04
308.021	-1.02
308.235	3.07
308.449	48.13
308.663	39.94
308.877	111.61
309.091	-25.6
309.305	15.36
309.519	39.94
309.733	91.13
309.947	-15.36
310.161	-1.02
310.374	31.74
310.588	52.22
310.802	-54.27
311.016	35.84
311.23	87.04
311.444	7.17
311.658	19.46
311.872	-15.36
312.085	1.02
312.299	-89.09
312.513	-41.98
312.727	-19.46
312.941	-48.13
313.154	11.26
313.368	37.89
313.582	44.03
313.796	15.36
314.009	19.46
314.223	-25.6
314.437	19.46
314.651	-27.65
314.864	31.74
315.078	21.5
315.292	31.74
315.505	17.41
315.719	64.51
315.933	60.42
316.146	64.51
316.36	-9.22
316.573	44.03
316.787	-11.26
317.001	66.56
317.214	27.65
317.428	103.42
317.641	-74.75
317.855	1.02
318.068	13.31
318.282	-7.17
318.495	29.7
318.709	101.37
318.922	60.42
319.136	136.19
319.349	46.08
319.563	33.79
319.776	-17.41
319.99	-1.02
320.203	-11.26
320.417	-23.55
320.63	1.02
320.843	93.18
321.057	3.07
321.27	17.41
321.483	11.26
321.697	17.41
321.91	68.61
322.124	11.26
322.337	-19.46
322.55	-15.36
322.763	17.41
322.977	15.36
323.19	84.99
323.403	11.26
323.617	39.94
323.83	97.28
324.043	50.18
324.256	11.26
324.469	-35.84
324.683	154.62
324.896	-17.41
325.109	1.02
325.322	50.18
325.535	64.51
325.748	93.18
325.962	13.31
326.175	39.94
326.388	52.22
326.601	44.03
326.814	78.85
327.027	-41.98
327.24	50.18
327.453	15.36
327.666	76.8
327.879	64.51
328.092	48.13
328.305	13.31
328.518	23.55
328.731	15.36
328.944	17.41
329.157	62.46
329.37	54.27
329.583	48.13
329.796	44.03
330.009	-31.74
330.222	58.37
330.435	31.74
330.648	89.09
330.861	17.41
331.073	130.05
331.286	27.65
331.499	39.94
331.712	50.18
331.925	27.65
332.138	46.08
332.35	76.8
332.563	-60.42
332.776	93.18
332.989	76.8
333.202	68.61
333.414	72.7
333.627	17.41
333.84	48.13
334.053	19.46
334.265	44.03
334.478	11.26
334.691	54.27
334.903	19.46
335.116	33.79
335.329	7.17
335.541	56.32
335.754	17.41
335.966	-50.18
336.179	31.74
336.392	1.02
336.604	-5.12
336.817	33.79
337.029	74.75
337.242	-46.08
337.454	35.84
337.667	44.03
337.88	-21.5
338.092	76.8
338.305	74.75
338.517	-5.12
338.729	3.07
338.942	23.55
339.154	-13.31
339.367	17.41
339.579	-17.41
339.792	3.07
340.004	19.46
340.217	70.65
340.429	-17.41
340.641	111.61
340.854	27.65
341.066	7.17
341.278	27.65
341.491	64.51
341.703	33.79
341.915	13.31
342.128	62.46
342.34	39.94
342.552	105.47
342.764	66.56
342.977	56.32
343.189	39.94
343.401	76.8
343.613	1.02
343.826	56.32
344.038	54.27
344.25	25.6
344.462	-5.12
344.674	121.85
344.886	11.26
345.099	11.26
345.311	33.79
345.523	23.55
345.735	-41.98
345.947	17.41
346.159	3.07
346.371	35.84
346.583	33.79
346.795	64.51
347.007	39.94
347.219	54.27
347.431	3.07
347.643	138.24
347.855	19.46
348.067	72.7
348.279	68.61
348.491	56.32
348.703	25.6
348.915	-17.41
349.127	-80.89
349.339	56.32
349.551	21.5
349.763	84.99
349.975	101.37
350.187	11.26
350.399	11.26
350.61	54.27
350.822	84.99
351.034	48.13
351.246	35.84
351.458	89.09
351.669	31.74
351.881	72.7
352.093	44.03
352.305	19.46
352.517	46.08
352.728	109.57
352.94	19.46
353.152	113.66
353.363	62.46
353.575	101.37
353.787	48.13
353.999	41.98
354.21	62.46
354.422	17.41
354.633	15.36
354.845	33.79
355.057	52.22
355.268	97.28
355.48	-39.94
355.692	115.71
355.903	60.42
356.115	76.8
356.326	-44.03
356.538	89.09
356.749	-5.12
356.961	17.41
357.172	15.36
357.384	60.42
357.595	52.22
357.807	117.76
358.018	-17.41
358.23	39.94
358.441	78.85
358.653	-1.02
358.864	-13.31
359.075	27.65
359.287	89.09
359.498	39.94
359.709	1.02
359.921	-48.13
360.132	109.57
360.344	52.22
360.555	11.26
360.766	91.13
360.977	23.55
361.189	54.27
361.4	82.94
361.611	48.13
361.823	56.32
362.034	72.7
362.245	-9.22
362.456	56.32
362.667	25.6
362.879	56.32
363.09	95.23
363.301	25.6
363.512	19.46
363.723	56.32
363.935	35.84
364.146	58.37
364.357	15.36
364.568	1.02
364.779	1.02
364.99	52.22
365.201	13.31
365.412	64.51
365.623	60.42
365.834	7.17
366.045	-15.36
366.256	1.02
366.467	68.61
366.678	101.37
366.889	-9.22
367.1	41.98
367.311	52.22
367.522	84.99
367.733	27.65
367.944	1.02
368.155	23.55
368.366	48.13
368.577	-21.5
368.788	68.61
368.999	-15.36
369.209	33.79
369.42	93.18
369.631	97.28
369.842	95.23
370.053	7.17
370.264	76.8
370.474	-70.65
370.685	21.5
370.896	64.51
371.107	-7.17
371.317	39.94
371.528	31.74
371.739	46.08
371.95	1.02
372.16	9.22
372.371	58.37
372.582	5.12
372.792	7.17
373.003	91.13
373.214	72.7
373.424	87.04
373.635	-33.79
373.846	27.65
374.056	35.84
374.267	99.33
374.477	31.74
374.688	56.32
374.898	15.36
375.109	97.28
375.319	-9.22
375.53	56.32
375.74	41.98
375.951	52.22
376.161	64.51
376.372	21.5
376.582	103.42
376.793	23.55
377.003	97.28
377.214	9.22
377.424	48.13
377.635	44.03
377.845	15.36
378.055	89.09
378.266	56.32
378.476	84.99
378.686	19.46
378.897	44.03
379.107	-5.12
379.317	-15.36
379.528	76.8
379.738	78.85
379.948	15.36
380.158	97.28
380.369	9.22
380.579	13.31
380.789	84.99
380.999	87.04
381.21	80.89
381.42	64.51
381.63	-9.22
381.84	80.89
382.05	27.65
382.261	15.36
382.471	41.98
382.681	-29.7
382.891	54.27
383.101	76.8
383.311	19.46
383.521	58.37
383.731	23.55
383.941	-1.02
384.151	52.22
384.361	48.13
384.571	58.37
384.781	60.42
384.991	37.89
385.201	56.32
385.411	82.94
385.621	39.94
385.831	72.7
386.041	48.13
386.251	21.5
386.461	109.57
386.671	7.17
386.881	101.37
387.091	99.33
387.301	84.99
387.511	-23.55
387.72	97.28
387.93	80.89
388.14	-15.36
388.35	-9.22
388.56	7.17
388.769	31.74
388.979	44.03
389.189	52.22
389.399	72.7
389.609	72.7
389.818	109.57
390.028	41.98
390.238	64.51
390.447	76.8
390.657	113.66
390.867	-1.02
391.076	62.46
391.286	39.94
391.496	64.51
391.705	19.46
391.915	39.94
392.125	31.74
392.334	113.66
392.544	87.04
392.753	60.42
392.963	130.05
393.172	44.03
393.382	60.42
393.591	64.51
393.801	35.84
394.01	99.33
394.22	121.85
394.429	35.84
394.639	91.13
394.848	91.13
395.058	66.56
395.267	82.94
395.477	74.75
395.686	107.52
395.895	134.14
396.105	97.28
396.314	68.61
396.524	31.74
396.733	91.13
396.942	101.37
397.152	130.05
397.361	89.09
397.57	48.13
397.78	64.51
397.989	52.22
398.198	115.71
398.407	13.31
398.617	140.29
398.826	11.26
399.035	82.94
399.244	31.74
399.453	158.72
399.663	27.65
399.872	93.18
400.081	39.94
400.29	156.67
400.499	21.5
400.708	121.85
400.917	48.13
401.127	146.43
401.336	66.56
401.545	76.8
401.754	128
401.963	146.43
402.172	25.6
402.381	56.32
402.59	121.85
402.799	109.57
403.008	80.89
403.217	113.66
403.426	158.72
403.635	99.33
403.844	68.61
404.053	56.32
404.262	87.04
404.471	166.91
404.68	154.62
404.888	99.33
405.097	72.7
405.306	117.76
405.515	173.05
405.724	84.99
405.933	173.05
406.142	181.25
406.35	173.05
406.559	130.05
406.768	35.84
406.977	111.61
407.185	99.33
407.394	177.15
407.603	105.47
407.812	166.91
408.02	193.53
408.229	138.24
408.438	140.29
408.646	158.72
408.855	156.67
409.064	214.01
409.272	142.33
409.481	271.36
409.69	195.58
409.898	207.87
410.107	181.25
410.315	211.96
410.524	187.39
410.733	195.58
410.941	297.98
411.15	250.88
411.358	269.31
411.567	254.97
411.775	242.68
411.984	328.7
412.192	398.33
412.401	359.42
412.609	353.27
412.818	361.47
413.026	396.28
413.234	457.72
413.443	416.76
413.651	400.38
413.86	465.91
414.068	441.34
414.276	398.33
414.485	525.3
414.693	492.54
414.901	543.74
415.11	574.46
415.318	556.02
415.526	539.64
415.734	529.4
415.943	599.03
416.151	578.55
416.359	576.5
416.567	629.75
416.776	685.05
416.984	691.19
417.192	777.2
417.4	717.81
417.608	750.58
417.817	740.34
418.025	805.88
418.233	844.79
418.441	764.92
418.649	855.03
418.857	908.27
419.065	908.27
419.273	885.75
419.481	1072.11
419.689	1014.77
419.897	1119.21
420.105	1123.31
420.313	1197.04
420.521	1141.74
420.729	1184.75
420.937	1203.18
421.145	1315.82
421.353	1315.82
421.561	1467.37
421.769	1393.64
421.977	1514.47
422.185	1493.99
422.393	1604.58
422.601	1694.69
422.809	1614.82
423.017	1661.93
423.224	1778.66
423.432	1790.95
423.64	1833.96
423.848	1883.11
424.056	1858.53
424.263	1981.41
424.471	2014.18
424.679	2151.39
424.887	2085.86
425.094	2229.21
425.302	2151.39
425.51	2276.32
425.718	2417.63
425.925	2464.73
426.133	2546.65
426.341	2628.57
426.548	2851.8
426.756	2716.63
426.964	2921.43
427.171	2943.96
427.379	2919.38
427.586	3103.7
427.794	3144.66
428.001	3359.69
428.209	3468.24
428.417	3414.99
428.624	3652.55
428.832	3627.98
429.039	3603.4
429.247	3724.23
429.454	4103.11
429.662	4271.04
429.869	3982.28
430.076	4189.12
430.284	4225.98
430.491	4455.36
430.699	4752.31
430.906	4557.75
431.114	4774.84
431.321	4791.22
431.528	4983.73
431.736	5260.21
431.943	5391.28
432.15	5413.81
432.358	5493.68
432.565	5634.99
432.772	5577.64
432.979	5970.85
433.187	6239.14
433.394	6046.63
433.601	6515.61
433.808	6431.65
434.016	6462.37
434.223	6751.13
434.43	7207.83
434.637	6908.82
434.844	7490.45
435.052	7670.67
435.259	7469.97
435.466	7568.27
435.673	7379.86
435.88	7924.62
436.087	8291.2
436.294	8334.21
436.501	8246.15
436.708	8364.93
436.915	8704.89
437.122	8944.5
437.329	9012.09
437.537	9263.99
437.743	9519.98
437.95	9415.54
438.157	9945.96
438.364	10158.95
438.571	10265.44
438.778	10361.7
438.985	11344.72
439.192	10836.83
439.399	11004.76
439.606	10838.87
439.813	11352.91
440.02	12174.15
440.227	12002.12
440.433	11907.91
440.64	12143.43
440.847	12104.52
441.054	12417.86
441.261	13355.83
441.467	13163.32
441.674	13527.86
441.881	13798.19
442.088	13642.54
442.294	13527.86
442.501	14043.95
442.708	14461.73
442.914	14758.69
443.121	15483.67
443.328	14900
443.534	16091.91
443.741	15522.58
443.948	15379.22
444.154	16399.11
444.361	16646.91
444.568	16642.82
444.774	16390.92
444.981	16794.37
445.187	16997.12
445.394	18064.11
445.6	17492.73
445.807	19458.78
446.013	18334.44
446.22	18756.32
446.426	19641.04
446.633	19946.19
446.839	20406.98
447.046	19432.15
447.252	20980.42
447.459	20708.04
447.665	20546.25
447.871	21467.83
448.078	22452.91
448.284	21506.74
448.491	21996.21
448.697	23009.95
448.903	23206.56
449.11	23335.58
449.316	23065.25
449.522	23485.08
449.728	23982.74
449.935	24124.05
450.141	23970.45
450.347	24650.38
450.553	24154.77
450.76	24355.47
450.966	25008.77
451.172	24771.21
451.378	25674.36
451.584	25016.96
451.791	25680.5
451.997	25850.49
452.203	25922.16
452.409	25944.69
452.615	25787
452.821	24846.98
453.027	24722.05
453.233	25997.94
453.44	24863.36
453.646	25295.49
453.852	25490.04
454.058	25752.18
454.264	25057.92
454.47	25752.18
454.676	25090.69
454.882	25934.45
455.088	23480.99
455.294	23839.38
455.5	24386.19
455.705	24826.5
455.911	23585.43
456.117	23231.13
456.323	22745.76
456.529	21689.01
456.735	22545.06
456.941	21842.61
457.147	21652.15
457.352	21121.73
457.558	20914.88
457.764	20794.05
457.97	20458.18
458.176	19917.52
458.381	20075.21
458.587	19106.52
458.793	19055.33
458.999	18246.38
459.204	19595.99
459.41	18852.58
459.616	17687.28
459.821	17746.67
460.027	17396.47
460.233	17490.68
460.438	16460.55
460.644	16950.01
460.85	15981.32
461.055	15907.6
461.261	15778.58
461.466	14428.96
461.672	13753.13
461.878	15170.33
462.083	14043.95
462.289	13589.3
462.494	13814.57
462.7	12938.04
462.905	12614.46
463.111	13304.63
463.316	13155.13
463.522	13001.53
463.727	12921.66
463.932	12753.73
464.138	12720.96
464.343	12794.68
464.549	12305.22
464.754	12829.5
464.959	12481.35
465.165	12481.35
465.37	12176.2
465.575	11823.95
465.781	12229.45
465.986	12276.55
466.191	12002.12
466.397	11537.23
466.602	11086.68
466.807	11588.43
467.012	11322.2
467.218	11451.22
467.423	11277.14
467.628	11389.78
467.833	12024.65
468.038	11197.27
