Data from USB4F104151__291__14-23-47-336.txt Node

Date: Thu Mar 13 14:23:47 EDT 2025
User: louis
Spectrometer: USB4F10415
Trigger mode: 4
Integration Time (sec): 2.000000E-2
Scans to average: 1
Electric dark correction enabled: true
Nonlinearity correction enabled: false
Boxcar width: 0
XAxis mode: Wavelengths
Number of Pixels in Spectrum: 3648
>>>>>Begin Spectral Data<<<<<
178.204	-13.48
178.424	-13.48
178.644	-13.48
178.864	-115.88
179.084	-97.45
179.304	-23.72
179.524	7
179.744	-7.34
179.964	109.4
180.184	-38.06
180.404	80.72
180.624	-9.39
180.844	11.09
181.064	-70.83
181.283	-23.72
181.503	-56.49
181.723	21.33
181.943	47.96
182.163	72.53
182.383	54.1
182.602	58.2
182.822	19.29
183.042	23.38
183.262	29.52
183.482	39.76
183.701	41.81
183.921	64.34
184.141	19.29
184.361	56.15
184.58	17.24
184.8	50
185.02	-9.39
185.239	9.05
185.459	7
185.679	56.15
185.898	-72.87
186.118	70.48
186.338	-17.58
186.557	29.52
186.777	-13.48
186.997	82.77
187.216	39.76
187.436	97.11
187.655	31.57
187.875	7
188.095	-42.15
188.314	93.01
188.534	39.76
188.753	54.1
188.973	62.29
189.192	15.19
189.412	99.16
189.631	80.72
189.851	68.44
190.07	-1.19
190.29	27.48
190.509	70.48
190.729	109.4
190.948	19.29
191.168	203.6
191.387	7
191.607	39.76
191.826	-21.67
192.045	33.62
192.265	7
192.484	50
192.704	64.34
192.923	-7.34
193.142	131.92
193.362	-33.96
193.581	174.93
193.8	39.76
194.02	88.92
194.239	-23.72
194.458	90.96
194.678	-44.2
194.897	-40.11
195.116	27.48
195.335	-1.19
195.555	86.87
195.774	107.35
195.993	80.72
196.212	-54.44
196.432	17.24
196.651	19.29
196.87	41.81
197.089	58.2
197.308	37.72
197.528	70.48
197.747	4.95
197.966	146.26
198.185	72.53
198.404	-25.77
198.623	17.24
198.842	23.38
199.062	58.2
199.281	97.11
199.5	-25.77
199.719	90.96
199.938	90.96
200.157	84.82
200.376	74.58
200.595	-1.19
200.814	27.48
201.033	88.92
201.252	27.48
201.471	99.16
201.69	56.15
201.909	66.39
202.128	68.44
202.347	74.58
202.566	66.39
202.785	-1.19
203.004	-17.58
203.223	74.58
203.442	39.76
203.661	80.72
203.879	-7.34
204.098	66.39
204.317	-17.58
204.536	97.11
204.755	56.15
204.974	60.24
205.193	11.09
205.411	47.96
205.63	72.53
205.849	31.57
206.068	90.96
206.287	62.29
206.505	80.72
206.724	23.38
206.943	-17.58
207.162	31.57
207.381	66.39
207.599	0.85
207.818	-38.06
208.037	76.63
208.255	33.62
208.474	56.15
208.693	7
208.911	15.19
209.13	39.76
209.349	70.48
209.567	140.12
209.786	56.15
210.005	31.57
210.223	-25.77
210.442	-9.39
210.661	82.77
210.879	72.53
211.098	33.62
211.316	-9.39
211.535	21.33
211.753	21.33
211.972	2.9
212.191	56.15
212.409	52.05
212.628	50
212.846	60.24
213.065	27.48
213.283	56.15
213.502	37.72
213.72	-5.29
213.938	39.76
214.157	43.86
214.375	74.58
214.594	-31.91
214.812	41.81
215.031	27.48
215.249	-15.53
215.467	64.34
215.686	95.06
215.904	50
216.122	0.85
216.341	103.25
216.559	54.1
216.778	74.58
216.996	37.72
217.214	78.68
217.432	33.62
217.651	31.57
217.869	52.05
218.087	9.05
218.306	33.62
218.524	109.4
218.742	17.24
218.96	33.62
219.179	60.24
219.397	21.33
219.615	52.05
219.833	-13.48
220.051	43.86
220.27	72.53
220.488	115.54
220.706	37.72
220.924	-17.58
221.142	58.2
221.36	9.05
221.578	50
221.796	21.33
222.015	58.2
222.233	107.35
222.451	90.96
222.669	-42.15
222.887	58.2
223.105	56.15
223.323	52.05
223.541	43.86
223.759	41.81
223.977	-48.3
224.195	84.82
224.413	25.43
224.631	25.43
224.849	37.72
225.067	156.5
225.285	31.57
225.503	0.85
225.721	-9.39
225.939	47.96
226.157	7
226.375	121.68
226.592	50
226.81	19.29
227.028	33.62
227.246	58.2
227.464	31.57
227.682	-5.29
227.9	15.19
228.117	82.77
228.335	60.24
228.553	-15.53
228.771	62.29
228.989	105.3
229.206	-25.77
229.424	58.2
229.642	0.85
229.86	31.57
230.077	74.58
230.295	17.24
230.513	56.15
230.731	64.34
230.948	39.76
231.166	76.63
231.384	33.62
231.601	47.96
231.819	47.96
232.037	43.86
232.254	27.48
232.472	56.15
232.689	39.76
232.907	58.2
233.125	74.58
233.342	39.76
233.56	50
233.777	56.15
233.995	27.48
234.213	170.83
234.43	9.05
234.648	-19.63
234.865	-33.96
235.083	97.11
235.3	74.58
235.518	39.76
235.735	121.68
235.953	19.29
236.17	21.33
236.388	58.2
236.605	70.48
236.822	88.92
237.04	129.88
237.257	27.48
237.475	-62.63
237.692	47.96
237.909	41.81
238.127	45.91
238.344	82.77
238.562	78.68
238.779	39.76
238.996	-3.24
239.214	15.19
239.431	56.15
239.648	-29.87
239.865	111.44
240.083	23.38
240.3	27.48
240.517	52.05
240.735	19.29
240.952	72.53
241.169	-5.29
241.386	9.05
241.603	31.57
241.821	9.05
242.038	82.77
242.255	56.15
242.472	37.72
242.689	-25.77
242.907	64.34
243.124	-15.53
243.341	-36.01
243.558	27.48
243.775	7
243.992	64.34
244.209	43.86
244.426	47.96
244.643	70.48
244.86	66.39
245.078	80.72
245.295	60.24
245.512	33.62
245.729	31.57
245.946	52.05
246.163	52.05
246.38	-7.34
246.597	109.4
246.814	23.38
247.031	33.62
247.248	47.96
247.464	39.76
247.681	41.81
247.898	-3.24
248.115	21.33
248.332	66.39
248.549	107.35
248.766	68.44
248.983	33.62
249.2	31.57
249.417	56.15
249.633	2.9
249.85	25.43
250.067	60.24
250.284	54.1
250.501	50
250.717	66.39
250.934	50
251.151	43.86
251.368	-3.24
251.585	129.88
251.801	107.35
252.018	99.16
252.235	11.09
252.451	13.14
252.668	56.15
252.885	56.15
253.102	97.11
253.318	23.38
253.535	-56.49
253.752	-17.58
253.968	70.48
254.185	25.43
254.401	82.77
254.618	-33.96
254.835	23.38
255.051	88.92
255.268	-5.29
255.484	52.05
255.701	39.76
255.917	2.9
256.134	47.96
256.351	58.2
256.567	72.53
256.784	-25.77
257	37.72
257.217	68.44
257.433	37.72
257.65	64.34
257.866	80.72
258.082	-9.39
258.299	-11.43
258.515	58.2
258.732	58.2
258.948	35.67
259.165	72.53
259.381	7
259.597	39.76
259.814	43.86
260.03	-7.34
260.246	88.92
260.463	58.2
260.679	-7.34
260.895	56.15
261.112	19.29
261.328	35.67
261.544	-17.58
261.761	93.01
261.977	97.11
262.193	-36.01
262.409	23.38
262.626	72.53
262.842	105.3
263.058	21.33
263.274	62.29
263.49	50
263.707	88.92
263.923	82.77
264.139	-3.24
264.355	111.44
264.571	133.97
264.787	52.05
265.004	23.38
265.22	-29.87
265.436	41.81
265.652	19.29
265.868	115.54
266.084	-99.5
266.3	19.29
266.516	60.24
266.732	15.19
266.948	23.38
267.164	47.96
267.38	58.2
267.596	103.25
267.812	88.92
268.028	52.05
268.244	13.14
268.46	2.9
268.676	19.29
268.892	56.15
269.108	39.76
269.324	-50.35
269.54	68.44
269.756	47.96
269.972	-5.29
270.188	47.96
270.403	35.67
270.619	47.96
270.835	33.62
271.051	97.11
271.267	66.39
271.483	60.24
271.698	43.86
271.914	82.77
272.13	74.58
272.346	66.39
272.562	43.86
272.777	66.39
272.993	80.72
273.209	17.24
273.425	99.16
273.64	-5.29
273.856	76.63
274.072	47.96
274.287	84.82
274.503	56.15
274.719	101.2
274.934	74.58
275.15	27.48
275.366	-3.24
275.581	17.24
275.797	29.52
276.012	52.05
276.228	33.62
276.444	103.25
276.659	15.19
276.875	80.72
277.09	-1.19
277.306	2.9
277.521	2.9
277.737	76.63
277.952	80.72
278.168	68.44
278.383	58.2
278.599	41.81
278.814	23.38
279.03	72.53
279.245	29.52
279.461	-40.11
279.676	97.11
279.892	58.2
280.107	-11.43
280.322	-31.91
280.538	41.81
280.753	-9.39
280.969	105.3
281.184	-33.96
281.399	9.05
281.615	23.38
281.83	25.43
282.045	43.86
282.26	-15.53
282.476	-5.29
282.691	33.62
282.906	101.2
283.122	19.29
283.337	45.91
283.552	84.82
283.767	107.35
283.983	97.11
284.198	58.2
284.413	9.05
284.628	74.58
284.843	-1.19
285.058	125.78
285.274	60.24
285.489	45.91
285.704	93.01
285.919	-15.53
286.134	-1.19
286.349	25.43
286.564	33.62
286.779	72.53
286.995	7
287.21	15.19
287.425	58.2
287.64	15.19
287.855	17.24
288.07	68.44
288.285	113.49
288.5	80.72
288.715	84.82
288.93	47.96
289.145	39.76
289.36	148.31
289.575	64.34
289.79	74.58
290.004	66.39
290.219	82.77
290.434	21.33
290.649	70.48
290.864	52.05
291.079	52.05
291.294	-5.29
291.509	93.01
291.724	47.96
291.938	23.38
292.153	88.92
292.368	23.38
292.583	76.63
292.798	64.34
293.012	-17.58
293.227	86.87
293.442	27.48
293.657	90.96
293.871	117.59
294.086	2.9
294.301	74.58
294.516	54.1
294.73	23.38
294.945	-9.39
295.16	33.62
295.374	129.88
295.589	117.59
295.804	-15.53
296.018	39.76
296.233	166.74
296.447	9.05
296.662	47.96
296.877	82.77
297.091	39.76
297.306	33.62
297.52	2.9
297.735	105.3
297.949	58.2
298.164	66.39
298.378	9.05
298.593	-31.91
298.807	82.77
299.022	-15.53
299.236	70.48
299.451	47.96
299.665	56.15
299.88	27.48
300.094	93.01
300.309	82.77
300.523	115.54
300.737	50
300.952	58.2
301.166	88.92
301.381	62.29
301.595	39.76
301.809	86.87
302.024	29.52
302.238	52.05
302.452	138.07
302.667	54.1
302.881	58.2
303.095	11.09
303.309	-5.29
303.524	56.15
303.738	47.96
303.952	50
304.166	74.58
304.381	0.85
304.595	105.3
304.809	58.2
305.023	39.76
305.237	58.2
305.452	11.09
305.666	97.11
305.88	72.53
306.094	72.53
306.308	80.72
306.522	70.48
306.736	66.39
306.95	58.2
307.164	50
307.379	-13.48
307.593	82.77
307.807	60.24
308.021	50
308.235	37.72
308.449	-54.44
308.663	111.44
308.877	60.24
309.091	117.59
309.305	88.92
309.519	31.57
309.733	56.15
309.947	-19.63
310.161	142.16
310.374	35.67
310.588	111.44
310.802	-1.19
311.016	138.07
311.23	54.1
311.444	97.11
311.658	56.15
311.872	88.92
312.085	113.49
312.299	64.34
312.513	64.34
312.727	37.72
312.941	-25.77
313.154	0.85
313.368	-15.53
313.582	121.68
313.796	-1.19
314.009	0.85
314.223	109.4
314.437	43.86
314.651	93.01
314.864	15.19
315.078	43.86
315.292	23.38
315.505	45.91
315.719	86.87
315.933	45.91
316.146	7
316.36	-1.19
316.573	66.39
316.787	82.77
317.001	72.53
317.214	7
317.428	17.24
317.641	7
317.855	29.52
318.068	47.96
318.282	105.3
318.495	84.82
318.709	-9.39
318.922	74.58
319.136	25.43
319.349	41.81
319.563	68.44
319.776	103.25
319.99	11.09
320.203	101.2
320.417	19.29
320.63	47.96
320.843	109.4
321.057	17.24
321.27	23.38
321.483	78.68
321.697	-1.19
321.91	76.63
322.124	50
322.337	56.15
322.55	31.57
322.763	43.86
322.977	15.19
323.19	105.3
323.403	66.39
323.617	56.15
323.83	90.96
324.043	76.63
324.256	68.44
324.469	25.43
324.683	113.49
324.896	23.38
325.109	82.77
325.322	31.57
325.535	88.92
325.748	29.52
325.962	2.9
326.175	86.87
326.388	37.72
326.601	84.82
326.814	80.72
327.027	56.15
327.24	97.11
327.453	-7.34
327.666	33.62
327.879	7
328.092	33.62
328.305	56.15
328.518	35.67
328.731	15.19
328.944	80.72
329.157	103.25
329.37	-21.67
329.583	113.49
329.796	97.11
330.009	-64.68
330.222	72.53
330.435	115.54
330.648	152.4
330.861	58.2
331.073	47.96
331.286	56.15
331.499	35.67
331.712	-9.39
331.925	52.05
332.138	90.96
332.35	123.73
332.563	29.52
332.776	109.4
332.989	7
333.202	58.2
333.414	-9.39
333.627	50
333.84	2.9
334.053	90.96
334.265	60.24
334.478	82.77
334.691	31.57
334.903	117.59
335.116	68.44
335.329	25.43
335.541	60.24
335.754	123.73
335.966	25.43
336.179	0.85
336.392	39.76
336.604	74.58
336.817	105.3
337.029	56.15
337.242	19.29
337.454	72.53
337.667	74.58
337.88	113.49
338.092	76.63
338.305	76.63
338.517	109.4
338.729	84.82
338.942	52.05
339.154	11.09
339.367	72.53
339.579	60.24
339.792	-15.53
340.004	15.19
340.217	107.35
340.429	146.26
340.641	66.39
340.854	9.05
341.066	33.62
341.278	109.4
341.491	93.01
341.703	-5.29
341.915	7
342.128	72.53
342.34	84.82
342.552	88.92
342.764	41.81
342.977	35.67
343.189	47.96
343.401	15.19
343.613	25.43
343.826	33.62
344.038	72.53
344.25	47.96
344.462	11.09
344.674	17.24
344.886	72.53
345.099	54.1
345.311	41.81
345.523	86.87
345.735	82.77
345.947	93.01
346.159	7
346.371	64.34
346.583	56.15
346.795	54.1
347.007	19.29
347.219	64.34
347.431	37.72
347.643	76.63
347.855	-5.29
348.067	117.59
348.279	58.2
348.491	97.11
348.703	19.29
348.915	50
349.127	17.24
349.339	50
349.551	93.01
349.763	58.2
349.975	37.72
350.187	127.83
350.399	27.48
350.61	31.57
350.822	47.96
351.034	84.82
351.246	35.67
351.458	115.54
351.669	99.16
351.881	29.52
352.093	101.2
352.305	78.68
352.517	47.96
352.728	146.26
352.94	76.63
353.152	29.52
353.363	64.34
353.575	54.1
353.787	115.54
353.999	25.43
354.21	113.49
354.422	9.05
354.633	17.24
354.845	74.58
355.057	82.77
355.268	50
355.48	58.2
355.692	4.95
355.903	-27.82
356.115	105.3
356.326	7
356.538	115.54
356.749	66.39
356.961	113.49
357.172	56.15
357.384	80.72
357.595	84.82
357.807	76.63
358.018	33.62
358.23	74.58
358.441	107.35
358.653	60.24
358.864	58.2
359.075	2.9
359.287	119.64
359.498	80.72
359.709	99.16
359.921	93.01
360.132	113.49
360.344	-17.58
360.555	7
360.766	95.06
360.977	39.76
361.189	131.92
361.4	39.76
361.611	187.22
361.823	113.49
362.034	15.19
362.245	-1.19
362.456	86.87
362.667	76.63
362.879	39.76
363.09	31.57
363.301	97.11
363.512	74.58
363.723	31.57
363.935	31.57
364.146	90.96
364.357	31.57
364.568	113.49
364.779	99.16
364.99	125.78
365.201	52.05
365.412	113.49
365.623	66.39
365.834	72.53
366.045	150.36
366.256	90.96
366.467	97.11
366.678	54.1
366.889	68.44
367.1	7
367.311	93.01
367.522	154.45
367.733	15.19
367.944	7
368.155	74.58
368.366	56.15
368.577	113.49
368.788	113.49
368.999	41.81
369.209	23.38
369.42	99.16
369.631	162.64
369.842	7
370.053	84.82
370.264	64.34
370.474	144.21
370.685	105.3
370.896	56.15
371.107	97.11
371.317	72.53
371.528	60.24
371.739	72.53
371.95	101.2
372.16	60.24
372.371	33.62
372.582	23.38
372.792	86.87
373.003	72.53
373.214	82.77
373.424	131.92
373.635	-48.3
373.846	123.73
374.056	-15.53
374.267	95.06
374.477	84.82
374.688	72.53
374.898	31.57
375.109	2.9
375.319	72.53
375.53	31.57
375.74	27.48
375.951	60.24
376.161	39.76
376.372	82.77
376.582	66.39
376.793	82.77
377.003	39.76
377.214	56.15
377.424	37.72
377.635	27.48
377.845	60.24
378.055	107.35
378.266	19.29
378.476	82.77
378.686	60.24
378.897	64.34
379.107	88.92
379.317	25.43
379.528	31.57
379.738	101.2
379.948	56.15
380.158	109.4
380.369	15.19
380.579	76.63
380.789	45.91
380.999	43.86
381.21	60.24
381.42	86.87
381.63	45.91
381.84	105.3
382.05	78.68
382.261	80.72
382.471	170.83
382.681	121.68
382.891	103.25
383.101	64.34
383.311	60.24
383.521	52.05
383.731	125.78
383.941	107.35
384.151	7
384.361	74.58
384.571	80.72
384.781	60.24
384.991	125.78
385.201	105.3
385.411	109.4
385.621	99.16
385.831	113.49
386.041	39.76
386.251	107.35
386.461	80.72
386.671	64.34
386.881	39.76
387.091	90.96
387.301	99.16
387.511	27.48
387.72	109.4
387.93	136.02
388.14	60.24
388.35	97.11
388.56	109.4
388.769	84.82
388.979	35.67
389.189	56.15
389.399	56.15
389.609	99.16
389.818	47.96
390.028	115.54
390.238	97.11
390.447	47.96
390.657	152.4
390.867	47.96
391.076	105.3
391.286	105.3
391.496	64.34
391.705	78.68
391.915	66.39
392.125	39.76
392.334	72.53
392.544	78.68
392.753	101.2
392.963	80.72
393.172	35.67
393.382	33.62
393.591	136.02
393.801	105.3
394.01	115.54
394.22	131.92
394.429	125.78
394.639	111.44
394.848	113.49
395.058	117.59
395.267	70.48
395.477	60.24
395.686	140.12
395.895	219.99
396.105	179.03
396.314	121.68
396.524	35.67
396.733	97.11
396.942	93.01
397.152	115.54
397.361	191.31
397.57	74.58
397.78	88.92
397.989	129.88
398.198	146.26
398.407	138.07
398.617	97.11
398.826	187.22
399.035	187.22
399.244	154.45
399.453	88.92
399.663	164.69
399.872	148.31
400.081	191.31
400.29	74.58
400.499	109.4
400.708	144.21
400.917	76.63
401.127	86.87
401.336	64.34
401.545	113.49
401.754	203.6
401.963	125.78
402.172	72.53
402.381	138.07
402.59	176.98
402.799	146.26
403.008	193.36
403.217	211.79
403.426	162.64
403.635	41.81
403.844	138.07
404.053	170.83
404.262	156.5
404.471	219.99
404.68	164.69
404.888	103.25
405.097	152.4
405.306	113.49
405.515	240.47
405.724	179.03
405.933	152.4
406.142	217.94
406.35	234.32
406.559	172.88
406.768	187.22
406.977	258.9
407.185	254.8
407.394	254.8
407.603	271.19
407.812	209.75
408.02	318.29
408.229	222.03
408.438	240.47
408.646	260.95
408.855	265.04
409.064	222.03
409.272	287.57
409.481	328.53
409.69	301.9
409.898	314.19
410.107	394.06
410.315	369.49
410.524	293.71
410.733	377.68
410.941	355.15
411.15	441.17
411.358	367.44
411.567	527.18
411.775	410.45
411.984	445.26
412.192	453.45
412.401	426.83
412.609	498.51
412.818	500.56
413.026	459.6
413.234	576.33
413.443	598.86
413.651	545.61
413.86	605
414.068	664.4
414.276	678.73
414.485	619.34
414.693	623.44
414.901	713.55
415.11	738.12
415.318	680.78
415.526	789.32
415.734	777.03
415.943	799.56
416.151	830.28
416.359	785.23
416.567	850.76
416.776	938.82
416.984	1026.89
417.192	981.83
417.4	1053.51
417.608	1004.36
417.817	1008.45
418.025	1170.24
418.233	1229.63
418.441	1153.86
418.649	1207.11
418.857	1360.7
419.065	1393.47
419.273	1297.22
419.481	1438.53
419.689	1499.97
419.897	1524.54
420.105	1628.99
420.313	1633.08
420.521	1672
420.729	1700.67
420.937	1731.39
421.145	1772.35
421.353	1940.28
421.561	1887.03
421.769	2022.2
421.977	2186.04
422.185	2057.01
422.393	2390.83
422.601	2411.31
422.809	2333.49
423.017	2331.44
423.224	2431.79
423.432	2556.72
423.64	2554.67
423.848	2841.39
424.056	2845.48
424.263	2890.54
424.471	2939.69
424.679	2917.16
424.887	3160.87
425.094	3197.73
425.302	3236.64
425.51	3359.52
425.718	3425.06
425.925	3660.57
426.133	3521.31
426.341	3842.84
426.548	3904.28
426.756	3859.23
426.964	4090.65
427.171	4209.43
427.379	4305.68
427.586	4363.03
427.794	4524.82
428.001	4690.7
428.209	4958.99
428.417	4858.64
428.624	5221.13
428.832	5176.07
429.039	5221.13
429.247	5270.28
429.454	5673.73
429.662	5997.31
429.869	5692.16
430.076	6077.18
430.284	6044.41
430.491	6126.33
430.699	6464.24
430.906	6478.58
431.114	6716.14
431.321	6757.1
431.528	6976.23
431.736	7523.04
431.943	7817.95
432.15	7512.8
432.358	7623.39
432.565	8051.42
432.772	7979.74
432.979	8415.96
433.187	8577.75
433.394	8469.2
433.601	9278.15
433.808	9267.91
434.016	9079.5
434.223	9552.58
434.43	10072.76
434.637	10074.81
434.844	10386.1
435.052	10754.74
435.259	10623.67
435.466	10939.05
435.673	10558.13
435.88	11475.62
436.087	11889.31
436.294	11893.41
436.501	11412.14
436.708	11862.69
436.915	12354.2
437.122	13009.55
437.329	12978.83
437.537	13355.66
437.743	13449.86
437.95	13390.47
438.157	14035.58
438.364	14377.59
438.571	14328.44
438.778	14482.04
438.985	15719.01
439.192	15336.04
439.399	15768.16
439.606	15231.6
439.813	16374.36
440.02	17175.12
440.227	16861.78
440.433	16583.26
440.64	17281.61
440.847	17379.92
441.054	17691.21
441.261	18694.71
441.467	18620.99
441.674	18780.73
441.881	19655.21
442.088	19593.77
442.294	19200.56
442.501	20032.04
442.708	20068.9
442.914	21180.95
443.121	21963.27
443.328	21434.89
443.534	22856.18
443.741	22104.58
443.948	21717.51
444.154	23372.27
444.361	23421.42
444.568	23636.46
444.774	23677.42
444.981	23939.56
445.187	24490.46
445.394	25668.05
445.6	25117.14
445.807	27922.86
446.013	26429.89
446.22	27120.06
446.426	28037.55
446.633	28332.45
446.839	29051.29
447.046	27990.44
447.252	29266.33
447.459	29565.33
447.665	29348.25
447.871	30753.15
448.078	31779.18
448.284	30136.71
448.491	31095.16
448.697	32538.98
448.903	33134.94
449.11	33319.26
449.316	32530.79
449.522	32954.72
449.728	34150.73
449.935	34246.99
450.141	33984.85
450.347	35277.12
450.553	34103.63
450.76	34410.82
450.966	35666.23
451.172	35023.17
451.378	36028.72
451.584	35088.7
451.791	36356.39
451.997	36280.62
452.203	36706.6
452.409	36679.97
452.615	36702.5
452.821	35148.09
453.027	34959.68
453.233	36733.22
453.44	35408.19
453.646	35664.18
453.852	36096.3
454.058	36159.79
454.264	35324.22
454.47	36270.38
454.676	35344.7
454.882	36329.77
455.088	33358.17
455.294	33909.07
455.5	34502.98
455.705	35072.32
455.911	33479
456.117	32899.42
456.323	32299.37
456.529	30656.9
456.735	32211.31
456.941	31080.83
457.147	30626.18
457.352	30069.13
457.558	29649.3
457.764	29796.75
457.97	29016.47
458.176	28686.75
458.381	28770.72
458.587	26939.83
458.793	27328.95
458.999	25921.99
459.204	27974.06
459.41	26765.76
459.616	25369.04
459.821	25727.44
460.027	25182.68
460.233	24465.89
460.438	23460.34
460.644	24017.38
460.85	22475.26
461.055	22090.24
461.261	22356.48
461.466	20920.85
461.672	19919.4
461.878	21144.08
462.083	20056.61
462.289	19653.16
462.494	19356.21
462.7	18680.38
462.905	18168.38
463.111	18766.39
463.316	18653.75
463.522	18117.18
463.727	18793.01
463.932	18342.46
464.138	18145.86
464.343	18139.71
464.549	17633.86
464.754	18139.71
464.959	18154.05
465.165	18029.12
465.37	17140.3
465.575	16831.06
465.781	17369.68
465.986	17666.63
466.191	16923.22
466.397	16214.62
466.602	15749.73
466.807	16439.9
467.012	16431.71
467.218	16335.45
467.423	16071.26
467.628	16212.57
467.833	16730.71
468.038	16261.73
468.244	15839.84
468.449	16509.53
468.654	15950.43
468.859	15884.9
