Data from USB4F104151__143__14-19-18-912.txt Node

Date: Thu Mar 13 14:19:18 EDT 2025
User: louis
Spectrometer: USB4F10415
Trigger mode: 4
Integration Time (sec): 2.000000E-2
Scans to average: 1
Electric dark correction enabled: true
Nonlinearity correction enabled: false
Boxcar width: 0
XAxis mode: Wavelengths
Number of Pixels in Spectrum: 3648
>>>>>Begin Spectral Data<<<<<
178.204	-71.51
178.424	-71.51
178.644	-71.51
178.864	-145.24
179.084	-141.14
179.304	-18.26
179.524	22.7
179.744	-79.7
179.964	47.27
180.184	-26.45
180.404	-1.88
180.624	14.51
180.844	-1.88
181.064	-28.5
181.283	67.75
181.503	-30.55
181.723	34.99
181.943	-14.17
182.163	53.42
182.383	34.99
182.602	53.42
182.822	12.46
183.042	61.61
183.262	-24.4
183.482	22.7
183.701	26.79
183.921	2.22
184.141	-46.93
184.361	43.18
184.58	0.17
184.8	71.85
185.02	-5.97
185.239	-5.97
185.459	-20.31
185.679	125.1
185.898	55.47
186.118	-38.74
186.338	-1.88
186.557	43.18
186.777	41.13
186.997	26.79
187.216	-55.12
187.436	55.47
187.655	26.79
187.875	12.46
188.095	45.23
188.314	49.32
188.534	65.71
188.753	-22.36
188.973	51.37
189.192	53.42
189.412	47.27
189.631	10.41
189.851	67.75
190.07	-5.97
190.29	-14.17
190.509	-30.55
190.729	-22.36
190.948	12.46
191.168	114.86
191.387	-63.32
191.607	67.75
191.826	18.6
192.045	34.99
192.265	22.7
192.484	39.08
192.704	67.75
192.923	12.46
193.142	63.66
193.362	10.41
193.581	-1.88
193.8	30.89
194.02	84.14
194.239	-24.4
194.458	18.6
194.678	34.99
194.897	67.75
195.116	0.17
195.335	-3.93
195.555	-18.26
195.774	43.18
195.993	24.75
196.212	10.41
196.432	65.71
196.651	18.6
196.87	-38.74
197.089	110.76
197.308	75.95
197.528	2.22
197.747	-22.36
197.966	67.75
198.185	65.71
198.404	-5.97
198.623	51.37
198.842	96.43
199.062	-30.55
199.281	30.89
199.5	45.23
199.719	80.04
199.938	71.85
200.157	92.33
200.376	82.09
200.595	69.8
200.814	26.79
201.033	75.95
201.252	34.99
201.471	-12.12
201.69	-3.93
201.909	71.85
202.128	37.03
202.347	47.27
202.566	53.42
202.785	28.84
203.004	8.36
203.223	98.47
203.442	8.36
203.661	4.27
203.879	43.18
204.098	104.62
204.317	59.56
204.536	-5.97
204.755	-3.93
204.974	20.65
205.193	65.71
205.411	26.79
205.63	0.17
205.849	-14.17
206.068	51.37
206.287	6.31
206.505	141.48
206.724	2.22
206.943	4.27
207.162	10.41
207.381	26.79
207.599	-1.88
207.818	20.65
208.037	4.27
208.255	37.03
208.474	77.99
208.693	57.51
208.911	10.41
209.13	43.18
209.349	30.89
209.567	26.79
209.786	69.8
210.005	10.41
210.223	80.04
210.442	-46.93
210.661	14.51
210.879	73.9
211.098	14.51
211.316	26.79
211.535	63.66
211.753	20.65
211.972	-36.69
212.191	84.14
212.409	37.03
212.628	73.9
212.846	47.27
213.065	2.22
213.283	10.41
213.502	30.89
213.72	59.56
213.938	47.27
214.157	34.99
214.375	80.04
214.594	34.99
214.812	59.56
215.031	-3.93
215.249	8.36
215.467	-14.17
215.686	71.85
215.904	10.41
216.122	67.75
216.341	47.27
216.559	-18.26
216.778	51.37
216.996	30.89
217.214	2.22
217.432	-14.17
217.651	43.18
217.869	37.03
218.087	133.29
218.306	12.46
218.524	59.56
218.742	-98.13
218.96	53.42
219.179	-30.55
219.397	51.37
219.615	108.71
219.833	55.47
220.051	26.79
220.27	61.61
220.488	45.23
220.706	55.47
220.924	26.79
221.142	-12.12
221.36	-53.08
221.578	86.19
221.796	6.31
222.015	-18.26
222.233	65.71
222.451	92.33
222.669	14.51
222.887	34.99
223.105	-10.07
223.323	-22.36
223.541	2.22
223.759	26.79
223.977	-20.31
224.195	43.18
224.413	-26.45
224.631	55.47
224.849	92.33
225.067	102.57
225.285	-3.93
225.503	61.61
225.721	-22.36
225.939	-18.26
226.157	59.56
226.375	110.76
226.592	20.65
226.81	45.23
227.028	39.08
227.246	57.51
227.464	-20.31
227.682	26.79
227.9	43.18
228.117	34.99
228.335	100.52
228.553	20.65
228.771	63.66
228.989	6.31
229.206	86.19
229.424	10.41
229.642	14.51
229.86	-24.4
230.077	8.36
230.295	-1.88
230.513	125.1
230.731	10.41
230.948	75.95
231.166	4.27
231.384	49.32
231.601	10.41
231.819	102.57
232.037	-26.45
232.254	-53.08
232.472	53.42
232.689	-24.4
232.907	39.08
233.125	18.6
233.342	-26.45
233.56	71.85
233.777	2.22
233.995	43.18
234.213	37.03
234.43	26.79
234.648	-22.36
234.865	55.47
235.083	37.03
235.3	28.84
235.518	92.33
235.735	26.79
235.953	110.76
236.17	67.75
236.388	20.65
236.605	57.51
236.822	47.27
237.04	34.99
237.257	84.14
237.475	-14.17
237.692	59.56
237.909	4.27
238.127	4.27
238.344	14.51
238.562	65.71
238.779	28.84
238.996	-1.88
239.214	28.84
239.431	86.19
239.648	16.55
239.865	71.85
240.083	67.75
240.3	-42.84
240.517	-1.88
240.735	84.14
240.952	71.85
241.169	69.8
241.386	32.94
241.603	30.89
241.821	30.89
242.038	-30.55
242.255	20.65
242.472	0.17
242.689	24.75
242.907	2.22
243.124	16.55
243.341	12.46
243.558	84.14
243.775	67.75
243.992	53.42
244.209	-1.88
244.426	90.28
244.643	37.03
244.86	28.84
245.078	32.94
245.295	69.8
245.512	10.41
245.729	84.14
245.946	8.36
246.163	26.79
246.38	22.7
246.597	43.18
246.814	41.13
247.031	84.14
247.248	14.51
247.464	59.56
247.681	34.99
247.898	92.33
248.115	-10.07
248.332	30.89
248.549	73.9
248.766	110.76
248.983	30.89
249.2	-55.12
249.417	4.27
249.633	-53.08
249.85	82.09
250.067	-20.31
250.284	59.56
250.501	51.37
250.717	43.18
250.934	34.99
251.151	4.27
251.368	-53.08
251.585	75.95
251.801	-12.12
252.018	34.99
252.235	26.79
252.451	22.7
252.668	39.08
252.885	80.04
253.102	-5.97
253.318	41.13
253.535	69.8
253.752	55.47
253.968	20.65
254.185	-38.74
254.401	-12.12
254.618	18.6
254.835	18.6
255.051	51.37
255.268	24.75
255.484	4.27
255.701	-38.74
255.917	94.38
256.134	-53.08
256.351	26.79
256.567	18.6
256.784	77.99
257	-20.31
257.217	30.89
257.433	131.24
257.65	16.55
257.866	12.46
258.082	-32.6
258.299	-14.17
258.515	77.99
258.732	24.75
258.948	22.7
259.165	-14.17
259.381	2.22
259.597	61.61
259.814	12.46
260.03	-14.17
260.246	2.22
260.463	47.27
260.679	16.55
260.895	37.03
261.112	-18.26
261.328	26.79
261.544	-14.17
261.761	88.23
261.977	-5.97
262.193	-14.17
262.409	26.79
262.626	-22.36
262.842	-71.51
263.058	10.41
263.274	43.18
263.49	10.41
263.707	-14.17
263.923	59.56
264.139	-34.64
264.355	2.22
264.571	71.85
264.787	73.9
265.004	18.6
265.22	55.47
265.436	14.51
265.652	32.94
265.868	-14.17
266.084	0.17
266.3	53.42
266.516	-67.41
266.732	137.38
266.948	37.03
267.164	59.56
267.38	10.41
267.596	39.08
267.812	28.84
268.028	53.42
268.244	10.41
268.46	71.85
268.676	61.61
268.892	108.71
269.108	37.03
269.324	-61.27
269.54	47.27
269.756	69.8
269.972	63.66
270.188	41.13
270.403	6.31
270.619	53.42
270.835	43.18
271.051	-38.74
271.267	28.84
271.483	24.75
271.698	18.6
271.914	84.14
272.13	51.37
272.346	53.42
272.562	2.22
272.777	82.09
272.993	-28.5
273.209	32.94
273.425	2.22
273.64	-1.88
273.856	98.47
274.072	-5.97
274.287	45.23
274.503	94.38
274.719	26.79
274.934	43.18
275.15	-26.45
275.366	-12.12
275.581	-5.97
275.797	2.22
276.012	-20.31
276.228	43.18
276.444	-28.5
276.659	69.8
276.875	14.51
277.09	22.7
277.306	6.31
277.521	75.95
277.737	39.08
277.952	116.9
278.168	45.23
278.383	-8.02
278.599	-5.97
278.814	41.13
279.03	47.27
279.245	39.08
279.461	6.31
279.676	59.56
279.892	57.51
280.107	49.32
280.322	41.13
280.538	10.41
280.753	-20.31
280.969	28.84
281.184	108.71
281.399	92.33
281.615	86.19
281.83	53.42
282.045	-32.6
282.26	53.42
282.476	45.23
282.691	-20.31
282.906	-57.17
283.122	71.85
283.337	34.99
283.552	37.03
283.767	63.66
283.983	59.56
284.198	-16.21
284.413	102.57
284.628	-14.17
284.843	28.84
285.058	26.79
285.274	71.85
285.489	-18.26
285.704	12.46
285.919	18.6
286.134	34.99
286.349	-1.88
286.564	51.37
286.779	8.36
286.995	41.13
287.21	10.41
287.425	63.66
287.64	-12.12
287.855	6.31
288.07	-22.36
288.285	90.28
288.5	80.04
288.715	4.27
288.93	51.37
289.145	41.13
289.36	84.14
289.575	2.22
289.79	-5.97
290.004	-22.36
290.219	104.62
290.434	26.79
290.649	37.03
290.864	37.03
291.079	2.22
291.294	20.65
291.509	104.62
291.724	43.18
291.938	18.6
292.153	61.61
292.368	-10.07
292.583	-16.21
292.798	-8.02
293.012	45.23
293.227	34.99
293.442	26.79
293.657	82.09
293.871	88.23
294.086	73.9
294.301	75.95
294.516	92.33
294.73	4.27
294.945	53.42
295.16	-10.07
295.374	22.7
295.589	30.89
295.804	12.46
296.018	-46.93
296.233	-1.88
296.447	37.03
296.662	67.75
296.877	-40.79
297.091	53.42
297.306	53.42
297.52	2.22
297.735	47.27
297.949	55.47
298.164	26.79
298.378	-51.03
298.593	82.09
298.807	18.6
299.022	43.18
299.236	55.47
299.451	112.81
299.665	51.37
299.88	-8.02
300.094	39.08
300.309	-5.97
300.523	75.95
300.737	4.27
300.952	20.65
301.166	96.43
301.381	-5.97
301.595	26.79
301.809	39.08
302.024	-26.45
302.238	12.46
302.452	39.08
302.667	26.79
302.881	43.18
303.095	43.18
303.309	-55.12
303.524	53.42
303.738	-46.93
303.952	-1.88
304.166	53.42
304.381	-5.97
304.595	55.47
304.809	59.56
305.023	96.43
305.237	28.84
305.452	39.08
305.666	10.41
305.88	51.37
306.094	2.22
306.308	39.08
306.522	30.89
306.736	10.41
306.95	34.99
307.164	73.9
307.379	88.23
307.593	116.9
307.807	-3.93
308.021	2.22
308.235	102.57
308.449	18.6
308.663	18.6
308.877	37.03
309.091	-5.97
309.305	34.99
309.519	-51.03
309.733	135.34
309.947	24.75
310.161	6.31
310.374	34.99
310.588	94.38
310.802	43.18
311.016	75.95
311.23	22.7
311.444	125.1
311.658	2.22
311.872	-8.02
312.085	20.65
312.299	37.03
312.513	-32.6
312.727	30.89
312.941	10.41
313.154	-12.12
313.368	84.14
313.582	34.99
313.796	26.79
314.009	47.27
314.223	43.18
314.437	-3.93
314.651	202.92
314.864	26.79
315.078	39.08
315.292	-5.97
315.505	53.42
315.719	14.51
315.933	2.22
316.146	104.62
316.36	8.36
316.573	14.51
316.787	-28.5
317.001	12.46
317.214	30.89
317.428	67.75
317.641	-53.08
317.855	-5.97
318.068	77.99
318.282	-10.07
318.495	20.65
318.709	67.75
318.922	-34.64
319.136	53.42
319.349	26.79
319.563	-20.31
319.776	75.95
319.99	39.08
320.203	59.56
320.417	14.51
320.63	41.13
320.843	28.84
321.057	2.22
321.27	-22.36
321.483	-1.88
321.697	61.61
321.91	-1.88
322.124	43.18
322.337	39.08
322.55	102.57
322.763	59.56
322.977	94.38
323.19	100.52
323.403	77.99
323.617	100.52
323.83	51.37
324.043	12.46
324.256	12.46
324.469	-38.74
324.683	6.31
324.896	63.66
325.109	-12.12
325.322	-18.26
325.535	4.27
325.748	45.23
325.962	34.99
326.175	84.14
326.388	26.79
326.601	18.6
326.814	45.23
327.027	4.27
327.24	125.1
327.453	12.46
327.666	75.95
327.879	55.47
328.092	45.23
328.305	6.31
328.518	20.65
328.731	34.99
328.944	69.8
329.157	90.28
329.37	61.61
329.583	10.41
329.796	67.75
330.009	20.65
330.222	26.79
330.435	73.9
330.648	39.08
330.861	80.04
331.073	2.22
331.286	-20.31
331.499	88.23
331.712	-26.45
331.925	59.56
332.138	-32.6
332.35	28.84
332.563	18.6
332.776	18.6
332.989	-65.36
333.202	69.8
333.414	28.84
333.627	18.6
333.84	2.22
334.053	47.27
334.265	61.61
334.478	63.66
334.691	59.56
334.903	51.37
335.116	-5.97
335.329	26.79
335.541	39.08
335.754	106.67
335.966	18.6
336.179	47.27
336.392	57.51
336.604	75.95
336.817	63.66
337.029	129.19
337.242	45.23
337.454	108.71
337.667	53.42
337.88	92.33
338.092	-18.26
338.305	-22.36
338.517	10.41
338.729	20.65
338.942	16.55
339.154	12.46
339.367	-36.69
339.579	65.71
339.792	53.42
340.004	116.9
340.217	47.27
340.429	51.37
340.641	61.61
340.854	26.79
341.066	18.6
341.278	18.6
341.491	37.03
341.703	77.99
341.915	-10.07
342.128	116.9
342.34	-10.07
342.552	18.6
342.764	37.03
342.977	53.42
343.189	75.95
343.401	-22.36
343.613	14.51
343.826	-55.12
344.038	10.41
344.25	59.56
344.462	63.66
344.674	69.8
344.886	59.56
345.099	96.43
345.311	69.8
345.523	47.27
345.735	-22.36
345.947	26.79
346.159	80.04
346.371	41.13
346.583	49.32
346.795	69.8
347.007	51.37
347.219	18.6
347.431	18.6
347.643	55.47
347.855	43.18
348.067	45.23
348.279	-71.51
348.491	28.84
348.703	34.99
348.915	-36.69
349.127	8.36
349.339	108.71
349.551	-5.97
349.763	69.8
349.975	22.7
350.187	59.56
350.399	190.63
350.61	61.61
350.822	45.23
351.034	22.7
351.246	59.56
351.458	49.32
351.669	63.66
351.881	84.14
352.093	30.89
352.305	-1.88
352.517	141.48
352.728	86.19
352.94	63.66
353.152	4.27
353.363	-22.36
353.575	153.77
353.787	59.56
353.999	43.18
354.21	22.7
354.422	26.79
354.633	12.46
354.845	18.6
355.057	-22.36
355.268	43.18
355.48	96.43
355.692	-18.26
355.903	4.27
356.115	37.03
356.326	16.55
356.538	75.95
356.749	47.27
356.961	116.9
357.172	-44.88
357.384	-36.69
357.595	86.19
357.807	53.42
358.018	24.75
358.23	53.42
358.441	75.95
358.653	34.99
358.864	67.75
359.075	96.43
359.287	14.51
359.498	104.62
359.709	75.95
359.921	80.04
360.132	30.89
360.344	39.08
360.555	-34.64
360.766	110.76
360.977	43.18
361.189	51.37
361.4	-5.97
361.611	139.43
361.823	10.41
362.034	51.37
362.245	10.41
362.456	26.79
362.667	22.7
362.879	71.85
363.09	14.51
363.301	57.51
363.512	2.22
363.723	22.7
363.935	8.36
364.146	4.27
364.357	20.65
364.568	16.55
364.779	-44.88
364.99	86.19
365.201	30.89
365.412	116.9
365.623	-77.65
365.834	32.94
366.045	26.79
366.256	69.8
366.467	80.04
366.678	26.79
366.889	12.46
367.1	92.33
367.311	90.28
367.522	59.56
367.733	77.99
367.944	102.57
368.155	86.19
368.366	20.65
368.577	112.81
368.788	71.85
368.999	24.75
369.209	75.95
369.42	43.18
369.631	123.05
369.842	49.32
370.053	34.99
370.264	53.42
370.474	-3.93
370.685	53.42
370.896	37.03
371.107	110.76
371.317	47.27
371.528	61.61
371.739	75.95
371.95	-3.93
372.16	59.56
372.371	75.95
372.582	100.52
372.792	37.03
373.003	125.1
373.214	77.99
373.424	145.58
373.635	51.37
373.846	102.57
374.056	22.7
374.267	96.43
374.477	71.85
374.688	41.13
374.898	20.65
375.109	53.42
375.319	53.42
375.53	151.72
375.74	96.43
375.951	94.38
376.161	55.47
376.372	75.95
376.582	20.65
376.793	-1.88
377.003	37.03
377.214	55.47
377.424	129.19
377.635	71.85
377.845	28.84
378.055	110.76
378.266	4.27
378.476	102.57
378.686	10.41
378.897	77.99
379.107	131.24
379.317	67.75
379.528	90.28
379.738	49.32
379.948	10.41
380.158	82.09
380.369	59.56
380.579	92.33
380.789	67.75
380.999	118.95
381.21	84.14
381.42	65.71
381.63	69.8
381.84	94.38
382.05	39.08
382.261	77.99
382.471	59.56
382.681	-1.88
382.891	77.99
383.101	57.51
383.311	69.8
383.521	26.79
383.731	2.22
383.941	53.42
384.151	100.52
384.361	59.56
384.571	-32.6
384.781	45.23
384.991	94.38
385.201	170.15
385.411	77.99
385.621	80.04
385.831	51.37
386.041	116.9
386.251	75.95
386.461	127.14
386.671	6.31
386.881	-20.31
387.091	104.62
387.301	84.14
387.511	129.19
387.72	18.6
387.93	69.8
388.14	65.71
388.35	108.71
388.56	67.75
388.769	61.61
388.979	22.7
389.189	-24.4
389.399	63.66
389.609	84.14
389.818	47.27
390.028	-12.12
390.238	104.62
390.447	24.75
390.657	4.27
390.867	96.43
391.076	51.37
391.286	43.18
391.496	94.38
391.705	71.85
391.915	153.77
392.125	133.29
392.334	34.99
392.544	59.56
392.753	-22.36
392.963	-18.26
393.172	47.27
393.382	61.61
393.591	114.86
393.801	94.38
394.01	108.71
394.22	55.47
394.429	96.43
394.639	18.6
394.848	104.62
395.058	43.18
395.267	55.47
395.477	30.89
395.686	118.95
395.895	102.57
396.105	92.33
396.314	75.95
396.524	69.8
396.733	53.42
396.942	190.63
397.152	106.67
397.361	43.18
397.57	92.33
397.78	71.85
397.989	26.79
398.198	96.43
398.407	118.95
398.617	75.95
398.826	41.13
399.035	135.34
399.244	96.43
399.453	116.9
399.663	127.14
399.872	84.14
400.081	80.04
400.29	188.58
400.499	125.1
400.708	102.57
400.917	59.56
401.127	94.38
401.336	47.27
401.545	43.18
401.754	135.34
401.963	69.8
402.172	45.23
402.381	94.38
402.59	108.71
402.799	100.52
403.008	121
403.217	209.06
403.426	125.1
403.635	84.14
403.844	106.67
404.053	182.44
404.262	141.48
404.471	209.06
404.68	129.19
404.888	94.38
405.097	61.61
405.306	116.9
405.515	151.72
405.724	204.97
405.933	190.63
406.142	196.78
406.35	141.48
406.559	192.68
406.768	155.82
406.977	207.02
407.185	256.17
407.394	174.25
407.603	174.25
407.812	161.96
408.02	139.43
408.229	209.06
408.438	88.23
408.646	157.86
408.855	202.92
409.064	184.49
409.272	159.91
409.481	241.83
409.69	198.82
409.898	200.87
410.107	233.64
410.315	260.26
410.524	266.41
410.733	321.7
410.941	293.03
411.15	286.89
411.358	290.98
411.567	356.52
411.775	307.37
411.984	266.41
412.192	372.9
412.401	362.66
412.609	293.03
412.818	381.09
413.026	317.61
413.234	377
413.443	368.81
413.651	405.67
413.86	411.81
414.068	487.59
414.276	440.48
414.485	469.16
414.693	477.35
414.901	530.59
415.11	510.11
415.318	499.88
415.526	592.03
415.734	659.62
415.943	604.32
416.151	606.37
416.359	725.15
416.567	610.47
416.776	688.29
416.984	819.36
417.192	813.21
417.4	700.58
417.608	694.43
417.817	706.72
418.025	888.99
418.233	866.46
418.441	886.94
418.649	886.94
418.857	891.04
419.065	968.86
419.273	866.46
419.481	1142.94
419.689	1095.83
419.897	1056.92
420.105	1079.45
420.313	1095.83
420.521	1249.43
420.729	1310.87
420.937	1331.35
421.145	1134.75
421.353	1325.21
421.561	1443.99
421.769	1489.04
421.977	1536.15
422.185	1527.96
422.393	1659.03
422.601	1738.9
422.809	1718.42
423.017	1771.66
423.224	1714.32
423.432	1906.83
423.64	1853.58
423.848	1964.17
424.056	2074.76
424.263	2160.78
424.471	2078.86
424.679	2209.93
424.887	2281.61
425.094	2365.57
425.302	2285.7
425.51	2398.34
425.718	2547.84
425.925	2486.4
426.133	2726.02
426.341	2855.04
426.548	2869.37
426.756	2924.67
426.964	2984.06
427.171	2988.16
427.379	3246.2
427.586	3264.63
427.794	3340.41
428.001	3635.32
428.209	3528.82
428.417	3526.77
428.624	3876.98
428.832	3809.39
429.039	3926.13
429.247	3790.96
429.454	4192.36
429.662	4403.3
429.869	4092.01
430.076	4524.13
430.284	4393.06
430.491	4538.47
430.699	4825.19
430.906	4821.09
431.114	4767.84
431.321	5099.61
431.528	5109.85
431.736	5384.28
431.943	5664.85
432.15	5550.17
432.358	5613.65
432.565	5967.95
432.772	5754.96
432.979	6223.95
433.187	6176.84
433.394	6246.48
433.601	6862.91
433.808	6828.1
434.016	6768.71
434.223	6942.78
434.43	7360.57
434.637	7309.37
434.844	7686.2
435.052	7893.04
435.259	7698.49
435.466	7895.09
435.673	7710.77
435.88	8319.02
436.087	8857.64
436.294	8900.64
436.501	8499.24
436.708	8671.27
436.915	9127.97
437.122	9529.37
437.329	9414.68
437.537	9717.78
437.743	9951.25
437.95	9644.06
438.157	9957.39
438.364	10311.69
438.571	10383.37
438.778	10516.49
438.985	11517.95
439.192	11192.32
439.399	11628.54
439.606	11194.37
439.813	11716.6
440.02	12388.33
440.227	12185.58
440.433	12179.44
440.64	12681.19
440.847	12437.48
441.054	12675.05
441.261	13404.13
441.467	13596.64
441.674	13783
441.881	14286.8
442.088	14315.47
442.294	14014.42
442.501	14600.14
442.708	14708.68
442.914	15484.86
443.121	15943.61
443.328	15556.54
443.534	16512.94
443.741	16021.43
443.948	16084.92
444.154	17158.05
444.361	16695.21
444.568	16920.49
444.774	17088.42
444.981	17235.88
445.187	17907.61
445.394	18655.12
445.6	18188.18
445.807	19980.15
446.013	19189.64
446.22	19412.87
446.426	20086.65
446.633	20680.56
446.839	21180.26
447.046	20332.4
447.252	21473.12
447.459	21348.2
447.665	21518.18
447.871	22263.64
448.078	23449.41
448.284	22036.31
448.491	22767.44
448.697	23779.14
448.903	24080.19
449.11	24188.73
449.316	23813.95
449.522	23762.75
449.728	24610.61
449.935	24868.66
450.141	25032.49
450.347	25646.88
450.553	24944.43
450.76	25059.12
450.966	25868.06
451.172	25704.23
451.378	26380.06
451.584	25933.6
451.791	26441.5
451.997	26418.97
452.203	26844.95
452.409	26865.42
452.615	26746.64
452.821	25753.38
453.027	25474.85
453.233	26760.98
453.44	26005.28
453.646	26177.31
453.852	26066.72
454.058	26588.95
454.264	25747.23
454.47	26160.92
454.676	26091.29
454.882	27102.99
455.088	24301.37
455.294	24543.03
455.5	25093.93
455.705	25597.73
455.911	24393.53
456.117	24045.37
456.323	23334.73
456.529	22298.45
456.735	23404.36
456.941	22767.44
457.147	22781.78
457.352	21989.21
457.558	21647.2
457.764	21452.64
457.97	21200.74
458.176	20660.08
458.381	20778.86
458.587	19842.94
458.793	19978.11
458.999	18872.2
459.204	20322.16
459.41	19896.19
459.616	18513.81
459.821	18337.68
460.027	18284.44
460.233	18020.25
460.438	17057.7
460.644	17125.29
460.85	16336.82
461.055	16349.11
461.261	15994.81
461.466	14956.49
461.672	14626.76
461.878	15603.64
462.083	14374.86
462.289	14280.66
462.494	14180.31
462.7	13527
462.905	13498.33
463.111	13627.35
463.316	13660.12
463.522	13180.9
463.727	13158.37
463.932	13340.64
464.138	13207.52
464.343	12947.43
464.549	12716.01
464.754	13309.92
464.959	12980.2
465.165	12793.83
465.37	12359.66
465.575	12369.9
465.781	12740.58
465.986	12961.76
466.191	12138.48
466.397	12113.91
466.602	11272.19
466.807	11765.75
467.012	11718.65
467.218	11931.64
467.423	11655.16
467.628	11634.68
