Data from USB4F104151__91__14-17-57-401.txt Node

Date: Thu Mar 13 14:17:57 EDT 2025
User: louis
Spectrometer: USB4F10415
Trigger mode: 4
Integration Time (sec): 2.000000E-2
Scans to average: 1
Electric dark correction enabled: true
Nonlinearity correction enabled: false
Boxcar width: 0
XAxis mode: Wavelengths
Number of Pixels in Spectrum: 3648
>>>>>Begin Spectral Data<<<<<
178.204	-134.48
178.424	-134.48
178.644	-134.48
178.864	-58.71
179.084	-99.67
179.304	29.35
179.524	-25.94
179.744	45.74
179.964	21.16
180.184	-11.61
180.404	-5.46
180.624	-27.99
180.844	10.92
181.064	-13.65
181.283	-34.13
181.503	12.97
181.723	-1.37
181.943	-19.8
182.163	21.16
182.383	-42.32
182.602	10.92
182.822	0.68
183.042	55.98
183.262	39.59
183.482	-36.18
183.701	62.12
183.921	-46.42
184.141	60.07
184.361	-23.89
184.58	12.97
184.8	17.07
185.02	0.68
185.239	31.4
185.459	6.83
185.679	-25.94
185.898	-95.57
186.118	86.7
186.338	-73.04
186.557	76.46
186.777	-23.89
186.997	10.92
187.216	25.26
187.436	76.46
187.655	-13.65
187.875	35.5
188.095	37.55
188.314	17.07
188.534	66.22
188.753	-44.37
188.973	105.13
189.192	60.07
189.412	-21.85
189.631	80.55
189.851	-27.99
190.07	125.61
190.29	-17.75
190.509	64.17
190.729	-27.99
190.948	-3.41
191.168	141.99
191.387	70.31
191.607	2.73
191.826	45.74
192.045	-9.56
192.265	45.74
192.484	4.78
192.704	-3.41
192.923	-62.8
193.142	19.11
193.362	-54.61
193.581	2.73
193.8	35.5
194.02	19.11
194.239	21.16
194.458	21.16
194.678	19.11
194.897	35.5
195.116	-36.18
195.335	-75.09
195.555	-34.13
195.774	45.74
195.993	70.31
196.212	62.12
196.432	60.07
196.651	10.92
196.87	-7.51
197.089	-21.85
197.308	10.92
197.528	12.97
197.747	-40.28
197.966	-17.75
198.185	92.84
198.404	19.11
198.623	21.16
198.842	4.78
199.062	2.73
199.281	60.07
199.5	-1.37
199.719	10.92
199.938	19.11
200.157	53.93
200.376	55.98
200.595	45.74
200.814	-34.13
201.033	-19.8
201.252	-15.7
201.471	-32.08
201.69	8.87
201.909	68.27
202.128	19.11
202.347	-21.85
202.566	39.59
202.785	4.78
203.004	-3.41
203.223	39.59
203.442	-9.56
203.661	27.31
203.879	-13.65
204.098	23.21
204.317	-56.66
204.536	78.51
204.755	37.55
204.974	19.11
205.193	2.73
205.411	-3.41
205.63	19.11
205.849	72.36
206.068	-30.04
206.287	43.69
206.505	53.93
206.724	-13.65
206.943	-52.56
207.162	80.55
207.381	-46.42
207.599	119.46
207.818	12.97
208.037	51.88
208.255	4.78
208.474	53.93
208.693	-3.41
208.911	-38.23
209.13	6.83
209.349	-27.99
209.567	31.4
209.786	-17.75
210.005	84.65
210.223	23.21
210.442	-79.19
210.661	43.69
210.879	15.02
211.098	-30.04
211.316	17.07
211.535	10.92
211.753	-13.65
211.972	29.35
212.191	-103.76
212.409	-27.99
212.628	15.02
212.846	-17.75
213.065	31.4
213.283	86.7
213.502	-13.65
213.72	12.97
213.938	-36.18
214.157	-50.52
214.375	-9.56
214.594	17.07
214.812	4.78
215.031	15.02
215.249	62.12
215.467	72.36
215.686	27.31
215.904	19.11
216.122	111.27
216.341	72.36
216.559	43.69
216.778	53.93
216.996	-17.75
217.214	29.35
217.432	-46.42
217.651	-75.09
217.869	8.87
218.087	51.88
218.306	-5.46
218.524	-1.37
218.742	21.16
218.96	35.5
219.179	-9.56
219.397	2.73
219.615	94.89
219.833	-15.7
220.051	31.4
220.27	21.16
220.488	43.69
220.706	55.98
220.924	15.02
221.142	2.73
221.36	49.83
221.578	39.59
221.796	27.31
222.015	-5.46
222.233	-1.37
222.451	0.68
222.669	-1.37
222.887	-1.37
223.105	-46.42
223.323	8.87
223.541	4.78
223.759	19.11
223.977	-19.8
224.195	78.51
224.413	-71
224.631	51.88
224.849	-54.61
225.067	43.69
225.285	-73.04
225.503	-62.8
225.721	-34.13
225.939	86.7
226.157	-34.13
226.375	101.03
226.592	37.55
226.81	43.69
227.028	-15.7
227.246	84.65
227.464	-46.42
227.682	-5.46
227.9	84.65
228.117	49.83
228.335	-48.47
228.553	64.17
228.771	-17.75
228.989	-9.56
229.206	-5.46
229.424	35.5
229.642	-13.65
229.86	-46.42
230.077	10.92
230.295	-1.37
230.513	15.02
230.731	-13.65
230.948	29.35
231.166	33.45
231.384	-27.99
231.601	-25.94
231.819	-11.61
232.037	10.92
232.254	-21.85
232.472	27.31
232.689	2.73
232.907	47.79
233.125	-23.89
233.342	-1.37
233.56	45.74
233.777	2.73
233.995	58.03
234.213	43.69
234.43	4.78
234.648	-23.89
234.865	-27.99
235.083	39.59
235.3	-9.56
235.518	43.69
235.735	19.11
235.953	47.79
236.17	19.11
236.388	27.31
236.605	-21.85
236.822	53.93
237.04	-21.85
237.257	27.31
237.475	-50.52
237.692	-1.37
237.909	53.93
238.127	-40.28
238.344	-36.18
238.562	27.31
238.779	-11.61
238.996	-27.99
239.214	-19.8
239.431	-9.56
239.648	47.79
239.865	43.69
240.083	-3.41
240.3	80.55
240.517	-42.32
240.735	35.5
240.952	35.5
241.169	4.78
241.386	88.75
241.603	-5.46
241.821	-30.04
242.038	53.93
242.255	-17.75
242.472	-42.32
242.689	35.5
242.907	12.97
243.124	2.73
243.341	101.03
243.558	6.83
243.775	-27.99
243.992	-58.71
244.209	31.4
244.426	101.03
244.643	37.55
244.86	-7.51
245.078	23.21
245.295	-19.8
245.512	43.69
245.729	-79.19
245.946	29.35
246.163	21.16
246.38	23.21
246.597	-13.65
246.814	-9.56
247.031	-44.37
247.248	35.5
247.464	-13.65
247.681	60.07
247.898	-7.51
248.115	-54.61
248.332	-32.08
248.549	23.21
248.766	127.66
248.983	21.16
249.2	8.87
249.417	41.64
249.633	6.83
249.85	19.11
250.067	-21.85
250.284	31.4
250.501	27.31
250.717	12.97
250.934	-66.9
251.151	2.73
251.368	62.12
251.585	-21.85
251.801	51.88
252.018	-30.04
252.235	31.4
252.451	64.17
252.668	43.69
252.885	47.79
253.102	2.73
253.318	51.88
253.535	4.78
253.752	27.31
253.968	31.4
254.185	-50.52
254.401	25.26
254.618	-62.8
254.835	23.21
255.051	21.16
255.268	19.11
255.484	35.5
255.701	10.92
255.917	68.27
256.134	-56.66
256.351	10.92
256.567	-46.42
256.784	27.31
257	27.31
257.217	2.73
257.433	53.93
257.65	29.35
257.866	129.7
258.082	-21.85
258.299	8.87
258.515	31.4
258.732	-27.99
258.948	21.16
259.165	-42.32
259.381	10.92
259.597	12.97
259.814	12.97
260.03	12.97
260.246	-17.75
260.463	51.88
260.679	86.7
260.895	27.31
261.112	-46.42
261.328	-68.95
261.544	4.78
261.761	35.5
261.977	37.55
262.193	12.97
262.409	-15.7
262.626	27.31
262.842	-27.99
263.058	-44.37
263.274	41.64
263.49	29.35
263.707	76.46
263.923	29.35
264.139	19.11
264.355	-1.37
264.571	29.35
264.787	8.87
265.004	10.92
265.22	45.74
265.436	-5.46
265.652	-3.41
265.868	-30.04
266.084	12.97
266.3	51.88
266.516	4.78
266.732	23.21
266.948	-54.61
267.164	62.12
267.38	31.4
267.596	53.93
267.812	60.07
268.028	-19.8
268.244	-15.7
268.46	19.11
268.676	-50.52
268.892	60.07
269.108	-64.85
269.324	-50.52
269.54	-19.8
269.756	-5.46
269.972	-17.75
270.188	-17.75
270.403	-17.75
270.619	43.69
270.835	-5.46
271.051	-21.85
271.267	-27.99
271.483	-83.28
271.698	-34.13
271.914	62.12
272.13	-9.56
272.346	80.55
272.562	-23.89
272.777	60.07
272.993	-9.56
273.209	-5.46
273.425	12.97
273.64	-81.24
273.856	10.92
274.072	6.83
274.287	2.73
274.503	2.73
274.719	29.35
274.934	25.26
275.15	-83.28
275.366	51.88
275.581	-13.65
275.797	-27.99
276.012	-71
276.228	70.31
276.444	64.17
276.659	80.55
276.875	21.16
277.09	27.31
277.306	35.5
277.521	47.79
277.737	43.69
277.952	8.87
278.168	-30.04
278.383	39.59
278.599	45.74
278.814	27.31
279.03	4.78
279.245	55.98
279.461	17.07
279.676	64.17
279.892	10.92
280.107	-21.85
280.322	-11.61
280.538	4.78
280.753	31.4
280.969	12.97
281.184	111.27
281.399	43.69
281.615	-52.56
281.83	4.78
282.045	-30.04
282.26	2.73
282.476	15.02
282.691	47.79
282.906	17.07
283.122	29.35
283.337	41.64
283.552	-19.8
283.767	19.11
283.983	-27.99
284.198	0.68
284.413	43.69
284.628	35.5
284.843	-32.08
285.058	10.92
285.274	41.64
285.489	-17.75
285.704	29.35
285.919	17.07
286.134	94.89
286.349	43.69
286.564	-17.75
286.779	43.69
286.995	12.97
287.21	43.69
287.425	86.7
287.64	12.97
287.855	47.79
288.07	-30.04
288.285	-34.13
288.5	-17.75
288.715	-77.14
288.93	-11.61
289.145	-1.37
289.36	10.92
289.575	8.87
289.79	27.31
290.004	19.11
290.219	129.7
290.434	-38.23
290.649	8.87
290.864	29.35
291.079	0.68
291.294	4.78
291.509	-3.41
291.724	0.68
291.938	-27.99
292.153	10.92
292.368	10.92
292.583	51.88
292.798	53.93
293.012	47.79
293.227	2.73
293.442	29.35
293.657	2.73
293.871	-19.8
294.086	88.75
294.301	53.93
294.516	62.12
294.73	10.92
294.945	29.35
295.16	27.31
295.374	27.31
295.589	55.98
295.804	-27.99
296.018	-5.46
296.233	10.92
296.447	-17.75
296.662	-11.61
296.877	4.78
297.091	60.07
297.306	29.35
297.52	23.21
297.735	17.07
297.949	-15.7
298.164	64.17
298.378	60.07
298.593	51.88
298.807	-99.67
299.022	4.78
299.236	17.07
299.451	10.92
299.665	-3.41
299.88	23.21
300.094	12.97
300.309	21.16
300.523	0.68
300.737	-13.65
300.952	-5.46
301.166	45.74
301.381	-15.7
301.595	2.73
301.809	43.69
302.024	80.55
302.238	19.11
302.452	76.46
302.667	31.4
302.881	49.83
303.095	-23.89
303.309	19.11
303.524	10.92
303.738	-13.65
303.952	-7.51
304.166	92.84
304.381	43.69
304.595	96.94
304.809	43.69
305.023	19.11
305.237	-42.32
305.452	2.73
305.666	-27.99
305.88	115.37
306.094	12.97
306.308	70.31
306.522	43.69
306.736	70.31
306.95	43.69
307.164	-25.94
307.379	-54.61
307.593	96.94
307.807	-5.46
308.021	-13.65
308.235	45.74
308.449	-3.41
308.663	-54.61
308.877	2.73
309.091	47.79
309.305	70.31
309.519	-71
309.733	43.69
309.947	29.35
310.161	109.22
310.374	55.98
310.588	10.92
310.802	-11.61
311.016	76.46
311.23	-13.65
311.444	31.4
311.658	-3.41
311.872	68.27
312.085	43.69
312.299	47.79
312.513	17.07
312.727	-11.61
312.941	64.17
313.154	10.92
313.368	-56.66
313.582	-62.8
313.796	10.92
314.009	27.31
314.223	8.87
314.437	25.26
314.651	43.69
314.864	39.59
315.078	-44.37
315.292	-60.76
315.505	-11.61
315.719	-9.56
315.933	4.78
316.146	-58.71
316.36	-38.23
316.573	68.27
316.787	10.92
317.001	35.5
317.214	-46.42
317.428	35.5
317.641	21.16
317.855	-5.46
318.068	-5.46
318.282	70.31
318.495	117.42
318.709	35.5
318.922	-40.28
319.136	10.92
319.349	53.93
319.563	19.11
319.776	-13.65
319.99	-1.37
320.203	55.98
320.417	41.64
320.63	41.64
320.843	43.69
321.057	72.36
321.27	47.79
321.483	62.12
321.697	10.92
321.91	21.16
322.124	88.75
322.337	12.97
322.55	2.73
322.763	51.88
322.977	-11.61
323.19	-54.61
323.403	19.11
323.617	64.17
323.83	45.74
324.043	-73.04
324.256	-27.99
324.469	12.97
324.683	-21.85
324.896	31.4
325.109	43.69
325.322	8.87
325.535	12.97
325.748	27.31
325.962	68.27
326.175	33.45
326.388	39.59
326.601	66.22
326.814	2.73
327.027	76.46
327.24	39.59
327.453	-32.08
327.666	62.12
327.879	15.02
328.092	0.68
328.305	-3.41
328.518	-17.75
328.731	21.16
328.944	33.45
329.157	45.74
329.37	6.83
329.583	66.22
329.796	78.51
330.009	10.92
330.222	94.89
330.435	39.59
330.648	-36.18
330.861	-9.56
331.073	-50.52
331.286	-60.76
331.499	-9.56
331.712	35.5
331.925	29.35
332.138	15.02
332.35	74.41
332.563	72.36
332.776	17.07
332.989	-30.04
333.202	96.94
333.414	76.46
333.627	27.31
333.84	-42.32
334.053	125.61
334.265	39.59
334.478	35.5
334.691	-36.18
334.903	62.12
335.116	39.59
335.329	37.55
335.541	53.93
335.754	72.36
335.966	27.31
336.179	29.35
336.392	10.92
336.604	60.07
336.817	17.07
337.029	29.35
337.242	12.97
337.454	4.78
337.667	-34.13
337.88	80.55
338.092	4.78
338.305	27.31
338.517	-13.65
338.729	2.73
338.942	96.94
339.154	43.69
339.367	49.83
339.579	6.83
339.792	6.83
340.004	19.11
340.217	8.87
340.429	35.5
340.641	-52.56
340.854	74.41
341.066	-48.47
341.278	21.16
341.491	60.07
341.703	19.11
341.915	31.4
342.128	58.03
342.34	-9.56
342.552	4.78
342.764	19.11
342.977	35.5
343.189	39.59
343.401	51.88
343.613	15.02
343.826	-13.65
344.038	78.51
344.25	51.88
344.462	-38.23
344.674	51.88
344.886	58.03
345.099	98.99
345.311	47.79
345.523	45.74
345.735	-44.37
345.947	6.83
346.159	-5.46
346.371	55.98
346.583	-3.41
346.795	84.65
347.007	51.88
347.219	51.88
347.431	-30.04
347.643	-5.46
347.855	-19.8
348.067	43.69
348.279	-19.8
348.491	111.27
348.703	19.11
348.915	80.55
349.127	80.55
349.339	53.93
349.551	-46.42
349.763	-17.75
349.975	86.7
350.187	-1.37
350.399	23.21
350.61	43.69
350.822	35.5
351.034	37.55
351.246	-5.46
351.458	-25.94
351.669	58.03
351.881	-5.46
352.093	-1.37
352.305	45.74
352.517	51.88
352.728	12.97
352.94	-40.28
353.152	15.02
353.363	49.83
353.575	-9.56
353.787	41.64
353.999	23.21
354.21	10.92
354.422	37.55
354.633	47.79
354.845	39.59
355.057	-27.99
355.268	2.73
355.48	45.74
355.692	29.35
355.903	19.11
356.115	45.74
356.326	-21.85
356.538	103.08
356.749	60.07
356.961	84.65
357.172	19.11
357.384	-36.18
357.595	25.26
357.807	-68.95
358.018	-21.85
358.23	47.79
358.441	29.35
358.653	0.68
358.864	-21.85
359.075	47.79
359.287	45.74
359.498	78.51
359.709	-5.46
359.921	74.41
360.132	70.31
360.344	43.69
360.555	10.92
360.766	41.64
360.977	15.02
361.189	19.11
361.4	37.55
361.611	-23.89
361.823	60.07
362.034	119.46
362.245	-87.38
362.456	15.02
362.667	92.84
362.879	29.35
363.09	15.02
363.301	35.5
363.512	10.92
363.723	29.35
363.935	21.16
364.146	68.27
364.357	51.88
364.568	10.92
364.779	15.02
364.99	88.75
365.201	15.02
365.412	37.55
365.623	-19.8
365.834	-21.85
366.045	-3.41
366.256	60.07
366.467	76.46
366.678	15.02
366.889	10.92
367.1	94.89
367.311	53.93
367.522	51.88
367.733	86.7
367.944	-38.23
368.155	37.55
368.366	101.03
368.577	80.55
368.788	105.13
368.999	-32.08
369.209	84.65
369.42	60.07
369.631	60.07
369.842	51.88
370.053	-13.65
370.264	47.79
370.474	31.4
370.685	70.31
370.896	64.17
371.107	-15.7
371.317	31.4
371.528	45.74
371.739	133.8
371.95	27.31
372.16	119.46
372.371	-44.37
372.582	-52.56
372.792	37.55
373.003	76.46
373.214	4.78
373.424	60.07
373.635	-58.71
373.846	23.21
374.056	6.83
374.267	43.69
374.477	101.03
374.688	47.79
374.898	25.26
375.109	27.31
375.319	55.98
375.53	60.07
375.74	70.31
375.951	8.87
376.161	19.11
376.372	64.17
376.582	-1.37
376.793	62.12
377.003	60.07
377.214	-3.41
377.424	-50.52
377.635	29.35
377.845	12.97
378.055	94.89
378.266	35.5
378.476	27.31
378.686	29.35
378.897	35.5
379.107	35.5
379.317	-5.46
379.528	27.31
379.738	70.31
379.948	2.73
380.158	92.84
380.369	-42.32
380.579	92.84
380.789	33.45
380.999	4.78
381.21	78.51
381.42	23.21
381.63	33.45
381.84	58.03
382.05	55.98
382.261	17.07
382.471	33.45
382.681	144.04
382.891	19.11
383.101	101.03
383.311	-27.99
383.521	-9.56
383.731	23.21
383.941	37.55
384.151	-7.51
384.361	47.79
384.571	-3.41
384.781	58.03
384.991	109.22
385.201	47.79
385.411	76.46
385.621	101.03
385.831	12.97
386.041	43.69
386.251	21.16
386.461	39.59
386.671	27.31
386.881	15.02
387.091	27.31
387.301	109.22
387.511	10.92
387.72	60.07
387.93	68.27
388.14	-40.28
388.35	12.97
388.56	66.22
388.769	47.79
388.979	-30.04
389.189	10.92
389.399	35.5
389.609	117.42
389.818	60.07
390.028	43.69
390.238	74.41
390.447	-15.7
390.657	21.16
390.867	68.27
391.076	47.79
391.286	94.89
391.496	74.41
391.705	62.12
391.915	141.99
392.125	76.46
392.334	96.94
392.544	113.32
392.753	35.5
392.963	29.35
393.172	86.7
393.382	25.26
393.591	129.7
393.801	92.84
394.01	119.46
394.22	58.03
394.429	66.22
394.639	25.26
394.848	2.73
395.058	-19.8
395.267	-5.46
395.477	60.07
395.686	62.12
395.895	152.23
396.105	111.27
396.314	27.31
396.524	45.74
396.733	25.26
396.942	76.46
397.152	-9.56
397.361	31.4
397.57	109.22
397.78	60.07
397.989	96.94
398.198	51.88
398.407	33.45
398.617	76.46
398.826	107.18
399.035	70.31
399.244	60.07
399.453	111.27
399.663	103.08
399.872	113.32
400.081	8.87
400.29	80.55
400.499	117.42
400.708	62.12
400.917	66.22
401.127	43.69
401.336	70.31
401.545	176.81
401.754	105.13
401.963	127.66
402.172	27.31
402.381	10.92
402.59	64.17
402.799	103.08
403.008	76.46
403.217	178.86
403.426	53.93
403.635	90.79
403.844	96.94
404.053	135.85
404.262	76.46
404.471	119.46
404.68	103.08
404.888	117.42
405.097	82.6
405.306	141.99
405.515	103.08
405.724	88.75
405.933	88.75
406.142	72.36
406.35	223.91
406.559	178.86
406.768	125.61
406.977	205.48
407.185	125.61
407.394	152.23
407.603	228.01
407.812	223.91
408.02	127.66
408.229	234.15
408.438	168.62
408.646	207.53
408.855	238.25
409.064	113.32
409.272	158.38
409.481	234.15
409.69	178.86
409.898	191.14
410.107	217.77
410.315	236.2
410.524	260.77
410.733	215.72
410.941	201.38
411.15	295.59
411.358	359.08
411.567	320.17
411.775	291.49
411.984	344.74
412.192	371.36
412.401	340.65
412.609	383.65
412.818	395.94
413.026	373.41
413.234	361.13
413.443	436.9
413.651	359.08
413.86	412.32
414.068	434.85
414.276	527.01
414.485	563.87
414.693	592.55
414.901	608.93
415.11	541.35
415.318	608.93
415.526	572.07
415.734	565.92
415.943	621.22
416.151	694.94
416.359	666.27
416.567	686.75
416.776	748.19
416.984	715.42
417.192	823.97
417.4	799.39
417.608	842.4
417.817	864.93
418.025	938.65
418.233	899.74
418.441	862.88
418.649	938.65
418.857	996
419.065	1059.48
419.273	993.95
419.481	1192.6
419.689	1143.45
419.897	1366.68
420.105	1227.42
420.313	1254.04
420.521	1378.97
420.729	1374.87
420.937	1335.96
421.145	1419.92
421.353	1550.99
421.561	1696.4
421.769	1630.87
421.977	1655.44
422.185	1632.91
422.393	1845.9
422.601	1856.14
422.809	1907.34
423.017	1966.73
423.224	1938.06
423.432	2019.98
423.64	2099.85
423.848	2167.43
424.056	2110.09
424.263	2378.37
424.471	2282.12
424.679	2380.42
424.887	2534.02
425.094	2646.66
425.302	2534.02
425.51	2626.18
425.718	2755.2
425.925	2771.58
426.133	2925.18
426.341	3064.44
426.548	3328.63
426.756	3093.12
426.964	3142.27
427.171	3496.57
427.379	3539.57
427.586	3512.95
427.794	3715.7
428.001	3918.45
428.209	4082.28
428.417	4004.46
428.624	4215.4
428.832	4260.46
429.039	4233.83
429.247	4221.55
429.454	4688.48
429.662	4917.86
429.869	4475.49
430.076	4932.19
430.284	4805.22
430.491	4885.09
430.699	5223
430.906	5245.53
431.114	5409.37
431.321	5651.03
431.528	5608.02
431.736	6167.12
431.943	6296.14
432.15	6175.31
432.358	6242.89
432.565	6505.03
432.772	6629.96
432.979	6928.96
433.187	7109.18
433.394	6894.15
433.601	7385.66
433.808	7410.23
434.016	7502.39
434.223	7717.43
434.43	8114.73
434.637	8100.4
434.844	8573.48
435.052	8792.61
435.259	8735.27
435.466	8798.76
435.673	8677.93
435.88	9386.52
436.087	9613.85
436.294	9550.36
436.501	9466.39
436.708	9632.28
436.915	10058.26
437.122	10500.62
437.329	10445.32
437.537	10619.4
437.743	10828.29
437.95	10766.85
438.157	11473.4
438.364	11858.42
438.571	11848.18
438.778	11782.65
438.985	12806.63
439.192	12399.09
439.399	12964.32
439.606	12337.65
439.813	13306.34
440.02	14023.12
440.227	13525.47
440.433	13685.21
440.64	14010.84
440.847	13920.73
441.054	14387.66
441.261	15094.21
441.467	15012.29
441.674	15407.55
441.881	15874.49
442.088	16122.29
442.294	15792.57
442.501	16355.76
442.708	16513.45
442.914	17174.95
443.121	17744.28
443.328	17351.07
443.534	18721.17
443.741	18135.45
443.948	17678.75
444.154	19243.4
444.361	18948.49
444.568	19075.46
444.774	19067.27
444.981	19308.93
445.187	19863.93
445.394	20717.93
445.6	20572.53
445.807	22839.63
446.013	21416.29
446.22	21811.55
446.426	22636.88
446.633	22993.23
446.839	23562.56
447.046	22796.62
447.252	24058.17
447.459	23978.3
447.665	24064.32
447.871	25030.96
448.078	26067.23
448.284	24799.54
448.491	25612.58
448.697	26358.04
448.903	27054.35
449.11	27050.25
449.316	26646.8
449.522	26962.19
449.728	27937.02
449.935	27967.74
450.141	27855.11
450.347	28627.19
450.553	27699.46
450.76	28229.88
450.966	29362.41
451.172	28510.46
451.378	29735.14
451.584	28918
451.791	29685.99
451.997	29894.88
452.203	30021.86
452.409	30120.16
452.615	29962.47
452.821	28813.56
453.027	28553.46
453.233	29987.04
453.44	28997.87
453.646	28813.56
453.852	29300.97
454.058	29970.66
454.264	28877.04
454.47	29405.42
454.676	28641.53
454.882	29655.27
455.088	27406.6
455.294	27490.57
455.5	28127.49
455.705	28363
455.911	27351.31
456.117	26579.22
456.323	26560.79
456.529	24883.5
456.735	26089.76
456.941	25549.09
457.147	24967.47
457.352	24109.37
457.558	24090.94
457.764	24148.28
457.97	23830.85
458.176	23335.24
458.381	23146.83
458.587	22139.22
458.793	21793.12
458.999	20908.4
459.204	22397.27
459.41	21657.95
459.616	20463.99
459.821	20431.22
460.027	20490.61
460.233	19958.14
460.438	19188.1
460.644	19075.46
460.85	18127.25
461.055	18114.97
461.261	17826.2
461.466	16650.67
461.672	16228.79
461.878	17174.95
462.083	16067
462.289	15731.13
462.494	15581.63
462.7	14729.67
462.905	14377.42
463.111	14971.33
463.316	15256
463.522	14711.24
463.727	14920.13
463.932	15108.55
464.138	14410.19
464.343	14731.72
464.549	14334.42
464.754	14707.15
464.959	14723.53
465.165	14514.64
465.37	13855.19
465.575	13543.9
465.781	13992.41
465.986	14203.35
466.191	13674.97
466.397	13474.27
466.602	12687.85
466.807	13261.28
467.012	13400.54
467.218	13371.87
