Data from USB4F104151__264__14-22-48-817.txt Node

Date: Thu Mar 13 14:22:48 EDT 2025
User: louis
Spectrometer: USB4F10415
Trigger mode: 4
Integration Time (sec): 2.000000E-2
Scans to average: 1
Electric dark correction enabled: true
Nonlinearity correction enabled: false
Boxcar width: 0
XAxis mode: Wavelengths
Number of Pixels in Spectrum: 3648
>>>>>Begin Spectral Data<<<<<
178.204	-113.32
178.424	-113.32
178.644	-113.32
178.864	-94.89
179.084	-58.03
179.304	-23.21
179.524	-53.93
179.744	85.33
179.964	21.84
180.184	-21.16
180.404	34.13
180.624	-4.78
180.844	-15.02
181.064	-31.4
181.283	-39.59
181.503	-6.83
181.723	54.61
181.943	17.75
182.163	27.99
182.383	-58.03
182.602	42.32
182.822	81.24
183.042	34.13
183.262	75.09
183.482	13.65
183.701	-6.83
183.921	71
184.141	-76.46
184.361	17.75
184.58	-27.31
184.8	9.56
185.02	25.94
185.239	-6.83
185.459	-37.55
185.679	-21.16
185.898	-6.83
186.118	-37.55
186.338	-29.35
186.557	1.37
186.777	13.65
186.997	42.32
187.216	-39.59
187.436	42.32
187.655	-39.59
187.875	17.75
188.095	-6.83
188.314	91.48
188.534	54.61
188.753	27.99
188.973	3.41
189.192	93.52
189.412	-31.4
189.631	13.65
189.851	-6.83
190.07	62.8
190.29	54.61
190.509	42.32
190.729	-121.51
190.948	42.32
191.168	103.76
191.387	44.37
191.607	-25.26
191.826	-12.97
192.045	40.28
192.265	-47.79
192.484	-4.78
192.704	11.61
192.923	-47.79
193.142	11.61
193.362	5.46
193.581	-17.07
193.8	13.65
194.02	15.7
194.239	-43.69
194.458	109.91
194.678	-88.75
194.897	-31.4
195.116	-0.68
195.335	50.52
195.555	19.8
195.774	-19.11
195.993	-8.87
196.212	52.56
196.432	11.61
196.651	-12.97
196.87	-111.27
197.089	25.94
197.308	-23.21
197.528	9.56
197.747	-29.35
197.966	11.61
198.185	68.95
198.404	-47.79
198.623	36.18
198.842	-43.69
199.062	-72.36
199.281	-19.11
199.5	3.41
199.719	44.37
199.938	27.99
200.157	21.84
200.376	30.04
200.595	25.94
200.814	11.61
201.033	36.18
201.252	99.67
201.471	30.04
201.69	21.84
201.909	62.8
202.128	-15.02
202.347	1.37
202.566	-15.02
202.785	19.8
203.004	66.9
203.223	85.33
203.442	21.84
203.661	36.18
203.879	1.37
204.098	9.56
204.317	1.37
204.536	87.38
204.755	87.38
204.974	11.61
205.193	38.23
205.411	44.37
205.63	-0.68
205.849	-15.02
206.068	11.61
206.287	1.37
206.505	19.8
206.724	-15.02
206.943	-80.55
207.162	23.89
207.381	-27.31
207.599	9.56
207.818	46.42
208.037	-25.26
208.255	9.56
208.474	-6.83
208.693	17.75
208.911	38.23
209.13	-60.07
209.349	42.32
209.567	9.56
209.786	68.95
210.005	42.32
210.223	128.34
210.442	-19.11
210.661	25.94
210.879	9.56
211.098	23.89
211.316	21.84
211.535	36.18
211.753	38.23
211.972	27.99
212.191	-21.16
212.409	75.09
212.628	25.94
212.846	1.37
213.065	46.42
213.283	34.13
213.502	-96.94
213.72	66.9
213.938	19.8
214.157	19.8
214.375	1.37
214.594	-12.97
214.812	25.94
215.031	9.56
215.249	7.51
215.467	1.37
215.686	-45.74
215.904	7.51
216.122	46.42
216.341	71
216.559	36.18
216.778	25.94
216.996	21.84
217.214	52.56
217.432	-27.31
217.651	9.56
217.869	-23.21
218.087	101.72
218.306	-47.79
218.524	-27.31
218.742	-19.11
218.96	-21.16
219.179	68.95
219.397	42.32
219.615	120.15
219.833	60.76
220.051	-62.12
220.27	60.76
220.488	-19.11
220.706	50.52
220.924	21.84
221.142	13.65
221.36	3.41
221.578	52.56
221.796	-15.02
222.015	-76.46
222.233	19.8
222.451	50.52
222.669	7.51
222.887	9.56
223.105	27.99
223.323	1.37
223.541	50.52
223.759	11.61
223.977	27.99
224.195	60.76
224.413	-72.36
224.631	30.04
224.849	-76.46
225.067	116.05
225.285	-21.16
225.503	62.8
225.721	25.94
225.939	66.9
226.157	-8.87
226.375	101.72
226.592	-55.98
226.81	83.28
227.028	46.42
227.246	50.52
227.464	25.94
227.682	9.56
227.9	-6.83
228.117	42.32
228.335	-62.12
228.553	-45.74
228.771	17.75
228.989	21.84
229.206	-23.21
229.424	3.41
229.642	-6.83
229.86	-21.16
230.077	23.89
230.295	-29.35
230.513	58.71
230.731	13.65
230.948	36.18
231.166	-2.73
231.384	-23.21
231.601	17.75
231.819	71
232.037	62.8
232.254	-47.79
232.472	30.04
232.689	42.32
232.907	50.52
233.125	9.56
233.342	-27.31
233.56	-105.13
233.777	-19.11
233.995	-37.55
234.213	13.65
234.43	34.13
234.648	42.32
234.865	-49.83
235.083	-29.35
235.3	-10.92
235.518	46.42
235.735	19.8
235.953	-21.16
236.17	-35.5
236.388	64.85
236.605	40.28
236.822	19.8
237.04	13.65
237.257	-37.55
237.475	-0.68
237.692	42.32
237.909	-60.07
238.127	105.81
238.344	27.99
238.562	103.76
238.779	34.13
238.996	23.89
239.214	-23.21
239.431	34.13
239.648	23.89
239.865	-15.02
240.083	60.76
240.3	-4.78
240.517	7.51
240.735	-47.79
240.952	30.04
241.169	25.94
241.386	-12.97
241.603	-23.21
241.821	27.99
242.038	66.9
242.255	-15.02
242.472	-12.97
242.689	-10.92
242.907	-12.97
243.124	48.47
243.341	-0.68
243.558	-62.12
243.775	19.8
243.992	19.8
244.209	25.94
244.426	75.09
244.643	13.65
244.86	-37.55
245.078	56.66
245.295	30.04
245.512	-12.97
245.729	1.37
245.946	30.04
246.163	46.42
246.38	-10.92
246.597	25.94
246.814	109.91
247.031	1.37
247.248	-2.73
247.464	25.94
247.681	25.94
247.898	42.32
248.115	17.75
248.332	27.99
248.549	79.19
248.766	5.46
248.983	9.56
249.2	50.52
249.417	105.81
249.633	-39.59
249.85	19.8
250.067	-21.16
250.284	36.18
250.501	50.52
250.717	101.72
250.934	-15.02
251.151	34.13
251.368	25.94
251.585	-12.97
251.801	19.8
252.018	56.66
252.235	40.28
252.451	1.37
252.668	-55.98
252.885	66.9
253.102	38.23
253.318	-10.92
253.535	132.44
253.752	15.7
253.968	-47.79
254.185	-43.69
254.401	23.89
254.618	13.65
254.835	52.56
255.051	87.38
255.268	17.75
255.484	-12.97
255.701	-19.11
255.917	64.85
256.134	-64.17
256.351	34.13
256.567	-23.21
256.784	25.94
257	-37.55
257.217	7.51
257.433	44.37
257.65	25.94
257.866	-15.02
258.082	27.99
258.299	-27.31
258.515	60.76
258.732	7.51
258.948	5.46
259.165	50.52
259.381	-66.22
259.597	50.52
259.814	25.94
260.03	23.89
260.246	-31.4
260.463	46.42
260.679	19.8
260.895	7.51
261.112	-15.02
261.328	1.37
261.544	44.37
261.761	91.48
261.977	-4.78
262.193	5.46
262.409	9.56
262.626	25.94
262.842	30.04
263.058	-92.84
263.274	23.89
263.49	38.23
263.707	68.95
263.923	-47.79
264.139	-19.11
264.355	46.42
264.571	60.76
264.787	21.84
265.004	-4.78
265.22	54.61
265.436	-0.68
265.652	-35.5
265.868	15.7
266.084	-23.21
266.3	36.18
266.516	-41.64
266.732	66.9
266.948	-25.26
267.164	5.46
267.38	19.8
267.596	44.37
267.812	38.23
268.028	50.52
268.244	9.56
268.46	79.19
268.676	66.9
268.892	-6.83
269.108	-84.65
269.324	-72.36
269.54	-37.55
269.756	42.32
269.972	-31.4
270.188	17.75
270.403	-10.92
270.619	58.71
270.835	44.37
271.051	-21.16
271.267	-10.92
271.483	-33.45
271.698	-2.73
271.914	15.7
272.13	30.04
272.346	1.37
272.562	77.14
272.777	25.94
272.993	-51.88
273.209	-55.98
273.425	-60.07
273.64	-47.79
273.856	-45.74
274.072	13.65
274.287	-25.26
274.503	36.18
274.719	-27.31
274.934	-47.79
275.15	-39.59
275.366	38.23
275.581	91.48
275.797	58.71
276.012	11.61
276.228	40.28
276.444	-41.64
276.659	5.46
276.875	60.76
277.09	17.75
277.306	17.75
277.521	85.33
277.737	-0.68
277.952	17.75
278.168	50.52
278.383	-15.02
278.599	-72.36
278.814	3.41
279.03	62.8
279.245	34.13
279.461	-53.93
279.676	75.09
279.892	-39.59
280.107	-2.73
280.322	-55.98
280.538	50.52
280.753	-21.16
280.969	75.09
281.184	-15.02
281.399	52.56
281.615	11.61
281.83	40.28
282.045	15.7
282.26	-37.55
282.476	-17.07
282.691	1.37
282.906	66.9
283.122	60.76
283.337	68.95
283.552	-6.83
283.767	50.52
283.983	85.33
284.198	36.18
284.413	3.41
284.628	9.56
284.843	118.1
285.058	-60.07
285.274	-111.27
285.489	17.75
285.704	60.76
285.919	-0.68
286.134	17.75
286.349	13.65
286.564	56.66
286.779	83.28
286.995	58.71
287.21	5.46
287.425	-64.17
287.64	-60.07
287.855	11.61
288.07	-70.31
288.285	107.86
288.5	103.76
288.715	50.52
288.93	21.84
289.145	42.32
289.36	75.09
289.575	27.99
289.79	27.99
290.004	9.56
290.219	66.9
290.434	-39.59
290.649	64.85
290.864	-23.21
291.079	-33.45
291.294	21.84
291.509	52.56
291.724	-47.79
291.938	7.51
292.153	34.13
292.368	-2.73
292.583	17.75
292.798	62.8
293.012	38.23
293.227	50.52
293.442	38.23
293.657	17.75
293.871	19.8
294.086	-8.87
294.301	44.37
294.516	34.13
294.73	-6.83
294.945	-21.16
295.16	34.13
295.374	122.2
295.589	44.37
295.804	-12.97
296.018	46.42
296.233	34.13
296.447	36.18
296.662	-27.31
296.877	21.84
297.091	48.47
297.306	17.75
297.52	-53.93
297.735	101.72
297.949	-31.4
298.164	19.8
298.378	68.95
298.593	-15.02
298.807	79.19
299.022	9.56
299.236	-60.07
299.451	-29.35
299.665	-31.4
299.88	3.41
300.094	48.47
300.309	21.84
300.523	60.76
300.737	-21.16
300.952	-45.74
301.166	27.99
301.381	17.75
301.595	-12.97
301.809	11.61
302.024	-15.02
302.238	25.94
302.452	13.65
302.667	-23.21
302.881	-4.78
303.095	-6.83
303.309	99.67
303.524	38.23
303.738	-15.02
303.952	36.18
304.166	83.28
304.381	-53.93
304.595	62.8
304.809	27.99
305.023	1.37
305.237	-23.21
305.452	27.99
305.666	19.8
305.88	73.04
306.094	5.46
306.308	-21.16
306.522	9.56
306.736	-23.21
306.95	15.7
307.164	27.99
307.379	-19.11
307.593	17.75
307.807	-0.68
308.021	25.94
308.235	48.47
308.449	-2.73
308.663	30.04
308.877	91.48
309.091	56.66
309.305	27.99
309.519	-55.98
309.733	1.37
309.947	-47.79
310.161	54.61
310.374	83.28
310.588	3.41
310.802	-15.02
311.016	13.65
311.23	34.13
311.444	5.46
311.658	99.67
311.872	21.84
312.085	83.28
312.299	15.7
312.513	9.56
312.727	11.61
312.941	34.13
313.154	1.37
313.368	-49.83
313.582	21.84
313.796	34.13
314.009	50.52
314.223	34.13
314.437	1.37
314.651	32.08
314.864	42.32
315.078	-21.16
315.292	54.61
315.505	-4.78
315.719	-27.31
315.933	5.46
316.146	13.65
316.36	-4.78
316.573	-31.4
316.787	42.32
317.001	116.05
317.214	-15.02
317.428	68.95
317.641	42.32
317.855	17.75
318.068	93.52
318.282	58.71
318.495	27.99
318.709	42.32
318.922	68.95
319.136	30.04
319.349	3.41
319.563	-27.31
319.776	-8.87
319.99	-62.12
320.203	-15.02
320.417	5.46
320.63	23.89
320.843	87.38
321.057	32.08
321.27	-62.12
321.483	58.71
321.697	-29.35
321.91	25.94
322.124	-19.11
322.337	21.84
322.55	56.66
322.763	-23.21
322.977	-51.88
323.19	-12.97
323.403	-25.26
323.617	73.04
323.83	101.72
324.043	-0.68
324.256	38.23
324.469	13.65
324.683	60.76
324.896	-64.17
325.109	23.89
325.322	-12.97
325.535	44.37
325.748	52.56
325.962	-19.11
326.175	66.9
326.388	46.42
326.601	42.32
326.814	-4.78
327.027	-45.74
327.24	138.58
327.453	34.13
327.666	58.71
327.879	73.04
328.092	52.56
328.305	25.94
328.518	-31.4
328.731	-23.21
328.944	34.13
329.157	17.75
329.37	-41.64
329.583	60.76
329.796	36.18
330.009	-55.98
330.222	1.37
330.435	-15.02
330.648	89.43
330.861	38.23
331.073	19.8
331.286	50.52
331.499	-31.4
331.712	9.56
331.925	25.94
332.138	-55.98
332.35	-6.83
332.563	-15.02
332.776	-2.73
332.989	-31.4
333.202	-4.78
333.414	21.84
333.627	17.75
333.84	42.32
334.053	-4.78
334.265	25.94
334.478	54.61
334.691	40.28
334.903	54.61
335.116	5.46
335.329	17.75
335.541	-15.02
335.754	36.18
335.966	9.56
336.179	21.84
336.392	58.71
336.604	66.9
336.817	25.94
337.029	68.95
337.242	5.46
337.454	38.23
337.667	3.41
337.88	109.91
338.092	9.56
338.305	79.19
338.517	68.95
338.729	62.8
338.942	13.65
339.154	-39.59
339.367	3.41
339.579	58.71
339.792	-10.92
340.004	44.37
340.217	40.28
340.429	-70.31
340.641	-47.79
340.854	17.75
341.066	-12.97
341.278	-6.83
341.491	66.9
341.703	21.84
341.915	-43.69
342.128	58.71
342.34	19.8
342.552	19.8
342.764	64.85
342.977	19.8
343.189	-86.7
343.401	27.99
343.613	5.46
343.826	15.7
344.038	30.04
344.25	-39.59
344.462	25.94
344.674	25.94
344.886	-29.35
345.099	25.94
345.311	56.66
345.523	-27.31
345.735	42.32
345.947	1.37
346.159	27.99
346.371	40.28
346.583	34.13
346.795	116.05
347.007	17.75
347.219	-6.83
347.431	-25.26
347.643	60.76
347.855	-17.07
348.067	101.72
348.279	-64.17
348.491	-17.07
348.703	44.37
348.915	-12.97
349.127	19.8
349.339	-74.41
349.551	13.65
349.763	71
349.975	50.52
350.187	-2.73
350.399	-4.78
350.61	-29.35
350.822	27.99
351.034	83.28
351.246	62.8
351.458	17.75
351.669	-37.55
351.881	34.13
352.093	60.76
352.305	-51.88
352.517	38.23
352.728	79.19
352.94	5.46
353.152	21.84
353.363	-4.78
353.575	-29.35
353.787	9.56
353.999	9.56
354.21	52.56
354.422	-39.59
354.633	25.94
354.845	17.75
355.057	-0.68
355.268	34.13
355.48	-17.07
355.692	-15.02
355.903	-21.16
356.115	3.41
356.326	-62.12
356.538	91.48
356.749	46.42
356.961	52.56
357.172	-35.5
357.384	1.37
357.595	56.66
357.807	91.48
358.018	-29.35
358.23	-15.02
358.441	91.48
358.653	25.94
358.864	85.33
359.075	5.46
359.287	-4.78
359.498	17.75
359.709	50.52
359.921	27.99
360.132	3.41
360.344	42.32
360.555	-29.35
360.766	17.75
360.977	1.37
361.189	42.32
361.4	-27.31
361.611	-6.83
361.823	91.48
362.034	13.65
362.245	-23.21
362.456	52.56
362.667	71
362.879	44.37
363.09	42.32
363.301	34.13
363.512	34.13
363.723	-6.83
363.935	1.37
364.146	21.84
364.357	-23.21
364.568	13.65
364.779	9.56
364.99	17.75
365.201	17.75
365.412	87.38
365.623	-12.97
365.834	50.52
366.045	34.13
366.256	-55.98
366.467	27.99
366.678	32.08
366.889	-23.21
367.1	58.71
367.311	42.32
367.522	17.75
367.733	44.37
367.944	7.51
368.155	44.37
368.366	99.67
368.577	-41.64
368.788	54.61
368.999	-17.07
369.209	60.76
369.42	-8.87
369.631	91.48
369.842	93.52
370.053	11.61
370.264	7.51
370.474	-2.73
370.685	34.13
370.896	21.84
371.107	66.9
371.317	50.52
371.528	1.37
371.739	-21.16
371.95	83.28
372.16	73.04
372.371	-21.16
372.582	-12.97
372.792	-64.17
373.003	54.61
373.214	7.51
373.424	42.32
373.635	42.32
373.846	52.56
374.056	-88.75
374.267	25.94
374.477	-6.83
374.688	83.28
374.898	52.56
375.109	17.75
375.319	58.71
375.53	38.23
375.74	66.9
375.951	-19.11
376.161	-35.5
376.372	75.09
376.582	-17.07
376.793	42.32
377.003	3.41
377.214	-74.41
377.424	27.99
377.635	-31.4
377.845	42.32
378.055	75.09
378.266	17.75
378.476	32.08
378.686	19.8
378.897	-27.31
379.107	21.84
379.317	38.23
379.528	23.89
379.738	-35.5
379.948	58.71
380.158	46.42
380.369	11.61
380.579	36.18
380.789	68.95
380.999	-2.73
381.21	50.52
381.42	109.91
381.63	36.18
381.84	-25.26
382.05	-51.88
382.261	11.61
382.471	30.04
382.681	52.56
382.891	-6.83
383.101	34.13
383.311	-31.4
383.521	71
383.731	7.51
383.941	-6.83
384.151	52.56
384.361	17.75
384.571	9.56
384.781	42.32
384.991	44.37
385.201	83.28
385.411	27.99
385.621	25.94
385.831	-23.21
386.041	107.86
386.251	75.09
386.461	7.51
386.671	-35.5
386.881	83.28
387.091	50.52
387.301	83.28
387.511	42.32
387.72	99.67
387.93	56.66
388.14	9.56
388.35	36.18
388.56	23.89
388.769	91.48
388.979	1.37
389.189	-21.16
389.399	34.13
389.609	15.7
389.818	75.09
390.028	30.04
390.238	-2.73
390.447	34.13
390.657	21.84
390.867	-4.78
391.076	52.56
391.286	48.47
391.496	36.18
391.705	-25.26
391.915	21.84
392.125	62.8
392.334	17.75
392.544	58.71
392.753	46.42
392.963	-19.11
393.172	91.48
393.382	25.94
393.591	114
393.801	48.47
394.01	34.13
394.22	34.13
394.429	54.61
394.639	32.08
394.848	38.23
395.058	73.04
395.267	58.71
395.477	152.91
395.686	42.32
395.895	132.44
396.105	34.13
396.314	42.32
396.524	58.71
396.733	23.89
396.942	93.52
397.152	38.23
397.361	50.52
397.57	42.32
397.78	154.96
397.989	42.32
398.198	103.76
398.407	25.94
398.617	54.61
398.826	58.71
399.035	58.71
399.244	19.8
399.453	77.14
399.663	34.13
399.872	62.8
400.081	95.57
400.29	89.43
400.499	42.32
400.708	142.68
400.917	60.76
401.127	58.71
401.336	32.08
401.545	120.15
401.754	91.48
401.963	99.67
402.172	107.86
402.381	103.76
402.59	42.32
402.799	107.86
403.008	27.99
403.217	144.72
403.426	75.09
403.635	27.99
403.844	93.52
404.053	68.95
404.262	142.68
404.471	126.29
404.68	38.23
404.888	128.34
405.097	148.82
405.306	126.29
405.515	148.82
405.724	48.47
405.933	132.44
406.142	116.05
406.35	58.71
406.559	140.63
406.768	107.86
406.977	134.48
407.185	73.04
407.394	165.2
407.603	107.86
407.812	191.83
408.02	185.68
408.229	152.91
408.438	152.91
408.646	107.86
408.855	171.35
409.064	259.41
409.272	105.81
409.481	128.34
409.69	116.05
409.898	148.82
410.107	230.74
410.315	189.78
410.524	148.82
410.733	197.97
410.941	249.17
411.15	277.84
411.358	222.55
411.567	286.03
411.775	232.79
411.984	304.46
412.192	281.94
412.401	419.15
412.609	345.42
412.818	310.61
413.026	388.43
413.234	367.95
413.443	372.05
413.651	363.86
413.86	312.66
414.068	435.53
414.276	370
414.485	517.45
414.693	468.3
414.901	410.96
415.11	513.36
415.318	492.88
415.526	507.21
415.734	503.12
415.943	587.08
416.151	460.11
416.359	550.22
416.567	640.33
416.776	531.79
416.984	595.28
417.192	666.96
417.4	664.91
417.608	699.72
417.817	648.52
418.025	785.74
418.233	808.26
418.441	714.06
418.649	838.98
418.857	841.03
419.065	742.73
419.273	836.94
419.481	945.48
419.689	912.71
419.897	1031.49
420.105	1013.06
420.313	994.63
420.521	1021.25
420.729	1062.21
420.937	1238.34
421.145	1148.23
421.353	1232.19
421.561	1291.59
421.769	1322.31
421.977	1385.79
422.185	1336.64
422.393	1484.09
422.601	1584.45
422.809	1566.01
423.017	1467.71
423.224	1572.16
423.432	1570.11
423.64	1680.7
423.848	1793.34
424.056	1715.52
424.263	1912.12
424.471	1811.77
424.679	1934.65
424.887	2065.72
425.094	1975.61
425.302	2067.77
425.51	2133.3
425.718	2184.5
425.925	2260.27
426.133	2405.68
426.341	2475.31
426.548	2592.05
426.756	2555.18
426.964	2606.38
427.171	2762.03
427.379	2741.55
427.586	2856.23
427.794	2878.76
428.001	3140.9
428.209	3173.67
428.417	3204.39
428.624	3427.62
428.832	3472.67
429.039	3384.61
429.247	3386.66
429.454	3726.62
429.662	4070.68
429.869	3712.28
430.076	4078.87
430.284	3837.21
430.491	3929.37
430.699	4263.19
430.906	4365.59
431.114	4416.79
431.321	4590.86
431.528	4515.09
431.736	4723.98
431.943	5025.03
432.15	4805.9
432.358	4939.02
432.565	5270.79
432.772	5127.43
432.979	5534.98
433.187	5582.08
433.394	5491.97
433.601	6145.27
433.808	6147.32
434.016	6001.91
434.223	6294.77
434.43	6507.76
434.637	6450.42
434.844	6931.69
435.052	7019.75
435.259	7113.96
435.466	6956.27
435.673	6948.08
435.88	7329
436.087	7740.64
436.294	7646.43
436.501	7529.7
436.708	7752.93
436.915	8105.18
437.122	8258.78
437.329	8350.93
437.537	8613.07
437.743	9002.19
437.95	8518.87
438.157	9276.62
438.364	9413.83
438.571	9512.13
438.778	9344.2
438.985	10407.09
439.192	9964.73
439.399	10362.04
439.606	10011.84
439.813	10585.27
440.02	11435.17
440.227	10962.09
440.433	10812.59
440.64	11263.15
440.847	11293.86
441.054	11472.04
441.261	12309.66
441.467	12031.13
441.674	12381.34
441.881	12706.96
442.088	12614.8
442.294	12739.73
442.501	12782.74
442.708	13169.8
442.914	13749.38
443.121	14263.42
443.328	14015.62
443.534	14759.03
443.741	14320.76
443.948	14263.42
444.154	15357.03
444.361	15103.09
444.568	15144.05
444.774	15160.43
444.981	15531.11
445.187	15860.84
445.394	16538.71
445.6	16016.48
445.807	17896.52
446.013	17351.76
446.22	17286.22
446.426	18183.23
446.633	18261.05
446.839	18760.76
447.046	18074.69
447.252	19123.25
447.459	19041.33
447.665	19133.49
447.871	19770.41
448.078	20581.4
448.284	19981.35
448.491	20476.96
448.697	21146.64
448.903	21410.83
449.11	21771.27
449.316	21343.25
449.522	21566.48
449.728	22449.15
449.935	22203.39
450.141	22246.4
450.347	22950.9
450.553	21982.21
450.76	22270.98
450.966	23249.91
451.172	23047.16
451.378	23452.66
451.584	22868.98
451.791	23634.92
451.997	23649.26
452.203	23960.55
452.409	24079.33
452.615	23890.92
452.821	22955
453.027	22625.28
453.233	24003.56
453.44	22899.7
453.646	23221.24
453.852	23409.65
454.058	23729.13
454.264	23145.46
454.47	23745.51
454.676	22950.9
454.882	23722.99
455.088	21597.2
455.294	22408.19
455.5	22524.93
455.705	22553.6
455.911	21793.8
456.117	21453.84
456.323	20999.19
456.529	19993.64
456.735	21046.29
456.941	20091.94
457.147	19932.2
457.352	19581.99
457.558	19266.61
457.764	19438.64
457.97	19172.4
458.176	18635.83
458.381	18541.63
458.587	17558.6
458.793	17822.79
458.999	16884.82
459.204	18244.67
459.41	17177.68
459.616	16440.41
459.821	16612.44
460.027	16530.52
460.233	16125.02
460.438	15027.31
460.644	15576.17
460.85	14744.69
461.055	14447.74
461.261	14634.1
461.466	13233.29
461.672	13094.03
461.878	13960.32
462.083	13044.88
462.289	12848.27
462.494	12600.47
462.7	12020.89
462.905	11654.31
463.111	12297.37
463.316	12061.85
463.522	11838.62
463.727	11986.08
463.932	11848.86
464.138	11842.72
464.343	11758.75
464.549	11343.02
464.754	11730.08
464.959	11510.95
465.165	11713.7
465.37	11318.44
465.575	11130.03
465.781	11242.67
465.986	11340.97
466.191	10937.52
466.397	10646.71
466.602	10372.28
466.807	10593.46
467.012	10724.53
467.218	10693.81
