Data from USB4F104151__157__14-19-35-066.txt Node

Date: Thu Mar 13 14:19:35 EDT 2025
User: louis
Spectrometer: USB4F10415
Trigger mode: 4
Integration Time (sec): 2.000000E-2
Scans to average: 1
Electric dark correction enabled: true
Nonlinearity correction enabled: false
Boxcar width: 0
XAxis mode: Wavelengths
Number of Pixels in Spectrum: 3648
>>>>>Begin Spectral Data<<<<<
178.204	-156.84
178.424	-156.84
178.644	-156.84
178.864	-132.26
179.084	-105.64
179.304	0.85
179.524	2.9
179.744	29.52
179.964	27.48
180.184	23.38
180.404	0.85
180.624	-60.59
180.844	27.48
181.064	-76.97
181.283	9.05
181.503	23.38
181.723	-7.34
181.943	41.81
182.163	11.09
182.383	41.81
182.602	60.24
182.822	7
183.042	11.09
183.262	2.9
183.482	-38.06
183.701	-29.87
183.921	25.43
184.141	-7.34
184.361	37.72
184.58	-19.63
184.8	-23.72
185.02	9.05
185.239	35.67
185.459	-38.06
185.679	31.57
185.898	-66.73
186.118	33.62
186.338	-23.72
186.557	-31.91
186.777	-7.34
186.997	7
187.216	-62.63
187.436	13.14
187.655	41.81
187.875	52.05
188.095	60.24
188.314	4.95
188.534	105.3
188.753	0.85
188.973	97.11
189.192	25.43
189.412	23.38
189.631	27.48
189.851	13.14
190.07	17.24
190.29	-42.15
190.509	-9.39
190.729	27.48
190.948	47.96
191.168	76.63
191.387	54.1
191.607	-9.39
191.826	13.14
192.045	-9.39
192.265	72.53
192.484	-11.43
192.704	-11.43
192.923	0.85
193.142	60.24
193.362	2.9
193.581	7
193.8	-42.15
194.02	39.76
194.239	13.14
194.458	-31.91
194.678	52.05
194.897	-15.53
195.116	39.76
195.335	0.85
195.555	7
195.774	-56.49
195.993	11.09
196.212	-42.15
196.432	-15.53
196.651	-25.77
196.87	-25.77
197.089	9.05
197.308	-1.19
197.528	9.05
197.747	-70.83
197.966	9.05
198.185	23.38
198.404	-56.49
198.623	39.76
198.842	-62.63
199.062	62.29
199.281	31.57
199.5	52.05
199.719	50
199.938	41.81
200.157	17.24
200.376	-46.25
200.595	-72.87
200.814	43.86
201.033	-21.67
201.252	-3.24
201.471	23.38
201.69	64.34
201.909	56.15
202.128	-13.48
202.347	47.96
202.566	0.85
202.785	-11.43
203.004	-91.31
203.223	76.63
203.442	33.62
203.661	-7.34
203.879	-3.24
204.098	43.86
204.317	-46.25
204.536	37.72
204.755	4.95
204.974	7
205.193	50
205.411	21.33
205.63	9.05
205.849	-29.87
206.068	47.96
206.287	-74.92
206.505	-42.15
206.724	11.09
206.943	-1.19
207.162	54.1
207.381	7
207.599	31.57
207.818	27.48
208.037	56.15
208.255	-79.02
208.474	27.48
208.693	31.57
208.911	-27.82
209.13	-9.39
209.349	-50.35
209.567	23.38
209.786	17.24
210.005	17.24
210.223	-1.19
210.442	-85.16
210.661	56.15
210.879	23.38
211.098	15.19
211.316	-13.48
211.535	9.05
211.753	-1.19
211.972	47.96
212.191	-23.72
212.409	31.57
212.628	4.95
212.846	17.24
213.065	82.77
213.283	56.15
213.502	31.57
213.72	-1.19
213.938	27.48
214.157	72.53
214.375	47.96
214.594	-33.96
214.812	43.86
215.031	-50.35
215.249	-66.73
215.467	-17.58
215.686	-9.39
215.904	60.24
216.122	17.24
216.341	68.44
216.559	2.9
216.778	-29.87
216.996	-17.58
217.214	2.9
217.432	-40.11
217.651	15.19
217.869	-21.67
218.087	0.85
218.306	-31.91
218.524	41.81
218.742	-38.06
218.96	19.29
219.179	-42.15
219.397	-17.58
219.615	64.34
219.833	107.35
220.051	-85.16
220.27	25.43
220.488	88.92
220.706	-9.39
220.924	33.62
221.142	11.09
221.36	19.29
221.578	-25.77
221.796	-7.34
222.015	15.19
222.233	-58.54
222.451	62.29
222.669	25.43
222.887	50
223.105	15.19
223.323	2.9
223.541	-50.35
223.759	56.15
223.977	-29.87
224.195	93.01
224.413	-9.39
224.631	23.38
224.849	9.05
225.067	72.53
225.285	52.05
225.503	33.62
225.721	-38.06
225.939	9.05
226.157	11.09
226.375	56.15
226.592	-95.4
226.81	-9.39
227.028	7
227.246	19.29
227.464	-52.39
227.682	9.05
227.9	39.76
228.117	58.2
228.335	-33.96
228.553	43.86
228.771	21.33
228.989	56.15
229.206	2.9
229.424	-33.96
229.642	-19.63
229.86	72.53
230.077	82.77
230.295	11.09
230.513	39.76
230.731	56.15
230.948	64.34
231.166	21.33
231.384	23.38
231.601	-23.72
231.819	47.96
232.037	41.81
232.254	-21.67
232.472	47.96
232.689	19.29
232.907	-9.39
233.125	-21.67
233.342	-1.19
233.56	76.63
233.777	-29.87
233.995	-17.58
234.213	27.48
234.43	82.77
234.648	-9.39
234.865	-29.87
235.083	-64.68
235.3	11.09
235.518	43.86
235.735	117.59
235.953	25.43
236.17	-1.19
236.388	15.19
236.605	-46.25
236.822	4.95
237.04	-21.67
237.257	17.24
237.475	-85.16
237.692	11.09
237.909	2.9
238.127	15.19
238.344	54.1
238.562	21.33
238.779	-40.11
238.996	-13.48
239.214	-23.72
239.431	82.77
239.648	-1.19
239.865	17.24
240.083	58.2
240.3	27.48
240.517	52.05
240.735	27.48
240.952	19.29
241.169	43.86
241.386	27.48
241.603	-7.34
241.821	-25.77
242.038	62.29
242.255	66.39
242.472	-66.73
242.689	43.86
242.907	15.19
243.124	13.14
243.341	41.81
243.558	-36.01
243.775	-17.58
243.992	-1.19
244.209	31.57
244.426	-1.19
244.643	-3.24
244.86	-3.24
245.078	-54.44
245.295	15.19
245.512	76.63
245.729	-9.39
245.946	2.9
246.163	-1.19
246.38	25.43
246.597	15.19
246.814	58.2
247.031	11.09
247.248	13.14
247.464	-5.29
247.681	54.1
247.898	107.35
248.115	9.05
248.332	-42.15
248.549	19.29
248.766	76.63
248.983	72.53
249.2	4.95
249.417	54.1
249.633	58.2
249.85	-7.34
250.067	31.57
250.284	56.15
250.501	50
250.717	80.72
250.934	7
251.151	43.86
251.368	17.24
251.585	-1.19
251.801	-25.77
252.018	-25.77
252.235	-5.29
252.451	-33.96
252.668	-17.58
252.885	80.72
253.102	2.9
253.318	72.53
253.535	-1.19
253.752	31.57
253.968	-62.63
254.185	-66.73
254.401	-3.24
254.618	-29.87
254.835	-21.67
255.051	105.3
255.268	-5.29
255.484	-1.19
255.701	-42.15
255.917	99.16
256.134	7
256.351	-19.63
256.567	-29.87
256.784	-9.39
257	-76.97
257.217	39.76
257.433	23.38
257.65	29.52
257.866	64.34
258.082	31.57
258.299	-1.19
258.515	13.14
258.732	47.96
258.948	-17.58
259.165	25.43
259.381	-9.39
259.597	31.57
259.814	-25.77
260.03	-40.11
260.246	7
260.463	-44.2
260.679	47.96
260.895	-87.21
261.112	64.34
261.328	-48.3
261.544	7
261.761	123.73
261.977	23.38
262.193	-31.91
262.409	11.09
262.626	-31.91
262.842	31.57
263.058	-62.63
263.274	47.96
263.49	97.11
263.707	78.68
263.923	-1.19
264.139	-25.77
264.355	-7.34
264.571	-46.25
264.787	21.33
265.004	52.05
265.22	72.53
265.436	43.86
265.652	-62.63
265.868	-1.19
266.084	-81.07
266.3	7
266.516	27.48
266.732	31.57
266.948	109.4
267.164	107.35
267.38	72.53
267.596	117.59
267.812	29.52
268.028	50
268.244	7
268.46	23.38
268.676	0.85
268.892	45.91
269.108	-79.02
269.324	-40.11
269.54	0.85
269.756	-9.39
269.972	76.63
270.188	37.72
270.403	-25.77
270.619	-17.58
270.835	-13.48
271.051	-15.53
271.267	-42.15
271.483	13.14
271.698	-15.53
271.914	7
272.13	-25.77
272.346	-21.67
272.562	-9.39
272.777	31.57
272.993	-1.19
273.209	-5.29
273.425	23.38
273.64	-11.43
273.856	25.43
274.072	-13.48
274.287	4.95
274.503	-15.53
274.719	-7.34
274.934	-25.77
275.15	2.9
275.366	-23.72
275.581	4.95
275.797	35.67
276.012	-33.96
276.228	-62.63
276.444	9.05
276.659	0.85
276.875	62.29
277.09	23.38
277.306	-7.34
277.521	25.43
277.737	-1.19
277.952	50
278.168	-5.29
278.383	19.29
278.599	-58.54
278.814	39.76
279.03	-3.24
279.245	74.58
279.461	-56.49
279.676	25.43
279.892	-9.39
280.107	-83.11
280.322	23.38
280.538	-44.2
280.753	-1.19
280.969	19.29
281.184	9.05
281.399	23.38
281.615	35.67
281.83	-9.39
282.045	43.86
282.26	-46.25
282.476	-7.34
282.691	105.3
282.906	56.15
283.122	39.76
283.337	-64.68
283.552	39.76
283.767	-1.19
283.983	23.38
284.198	-25.77
284.413	23.38
284.628	-11.43
284.843	33.62
285.058	56.15
285.274	41.81
285.489	11.09
285.704	27.48
285.919	-50.35
286.134	-7.34
286.349	41.81
286.564	11.09
286.779	47.96
286.995	-25.77
287.21	17.24
287.425	50
287.64	93.01
287.855	31.57
288.07	-72.87
288.285	7
288.5	-33.96
288.715	25.43
288.93	90.96
289.145	7
289.36	2.9
289.575	-17.58
289.79	58.2
290.004	50
290.219	74.58
290.434	-38.06
290.649	27.48
290.864	29.52
291.079	-7.34
291.294	-33.96
291.509	35.67
291.724	-17.58
291.938	17.24
292.153	68.44
292.368	11.09
292.583	23.38
292.798	19.29
293.012	-40.11
293.227	-29.87
293.442	-33.96
293.657	7
293.871	60.24
294.086	7
294.301	17.24
294.516	-15.53
294.73	60.24
294.945	-27.82
295.16	9.05
295.374	156.5
295.589	33.62
295.804	84.82
296.018	29.52
296.233	19.29
296.447	7
296.662	-23.72
296.877	33.62
297.091	47.96
297.306	-42.15
297.52	41.81
297.735	31.57
297.949	31.57
298.164	39.76
298.378	23.38
298.593	50
298.807	62.29
299.022	56.15
299.236	99.16
299.451	29.52
299.665	-1.19
299.88	-3.24
300.094	-1.19
300.309	58.2
300.523	-29.87
300.737	-31.91
300.952	72.53
301.166	60.24
301.381	-64.68
301.595	0.85
301.809	21.33
302.024	43.86
302.238	-31.91
302.452	19.29
302.667	113.49
302.881	93.01
303.095	-7.34
303.309	39.76
303.524	9.05
303.738	43.86
303.952	2.9
304.166	68.44
304.381	-33.96
304.595	66.39
304.809	4.95
305.023	50
305.237	11.09
305.452	15.19
305.666	47.96
305.88	62.29
306.094	21.33
306.308	27.48
306.522	29.52
306.736	-13.48
306.95	7
307.164	-1.19
307.379	0.85
307.593	78.68
307.807	43.86
308.021	19.29
308.235	25.43
308.449	-36.01
308.663	23.38
308.877	117.59
309.091	35.67
309.305	41.81
309.519	-52.39
309.733	76.63
309.947	25.43
310.161	80.72
310.374	23.38
310.588	2.9
310.802	47.96
311.016	39.76
311.23	33.62
311.444	9.05
311.658	-27.82
311.872	-19.63
312.085	15.19
312.299	107.35
312.513	43.86
312.727	11.09
312.941	21.33
313.154	41.81
313.368	-17.58
313.582	19.29
313.796	23.38
314.009	27.48
314.223	-17.58
314.437	15.19
314.651	78.68
314.864	2.9
315.078	52.05
315.292	7
315.505	33.62
315.719	56.15
315.933	-19.63
316.146	11.09
316.36	31.57
316.573	72.53
316.787	9.05
317.001	-17.58
317.214	45.91
317.428	80.72
317.641	23.38
317.855	15.19
318.068	39.76
318.282	-31.91
318.495	105.3
318.709	19.29
318.922	-1.19
319.136	72.53
319.349	4.95
319.563	31.57
319.776	88.92
319.99	109.4
320.203	64.34
320.417	9.05
320.63	31.57
320.843	43.86
321.057	64.34
321.27	56.15
321.483	-17.58
321.697	-5.29
321.91	11.09
322.124	74.58
322.337	35.67
322.55	2.9
322.763	60.24
322.977	50
323.19	37.72
323.403	-83.11
323.617	72.53
323.83	25.43
324.043	-7.34
324.256	56.15
324.469	95.06
324.683	37.72
324.896	29.52
325.109	68.44
325.322	-38.06
325.535	66.39
325.748	0.85
325.962	72.53
326.175	-64.68
326.388	-5.29
326.601	27.48
326.814	27.48
327.027	23.38
327.24	27.48
327.453	35.67
327.666	33.62
327.879	17.24
328.092	11.09
328.305	47.96
328.518	56.15
328.731	23.38
328.944	-23.72
329.157	-1.19
329.37	39.76
329.583	33.62
329.796	31.57
330.009	-17.58
330.222	39.76
330.435	43.86
330.648	54.1
330.861	15.19
331.073	33.62
331.286	33.62
331.499	66.39
331.712	62.29
331.925	9.05
332.138	-27.82
332.35	35.67
332.563	56.15
332.776	64.34
332.989	-27.82
333.202	0.85
333.414	-19.63
333.627	56.15
333.84	-25.77
334.053	31.57
334.265	29.52
334.478	64.34
334.691	-1.19
334.903	23.38
335.116	47.96
335.329	39.76
335.541	9.05
335.754	86.87
335.966	2.9
336.179	50
336.392	27.48
336.604	64.34
336.817	-1.19
337.029	58.2
337.242	15.19
337.454	64.34
337.667	-1.19
337.88	121.68
338.092	-27.82
338.305	-50.35
338.517	52.05
338.729	33.62
338.942	-13.48
339.154	27.48
339.367	7
339.579	15.19
339.792	7
340.004	86.87
340.217	76.63
340.429	47.96
340.641	15.19
340.854	27.48
341.066	27.48
341.278	39.76
341.491	39.76
341.703	33.62
341.915	-9.39
342.128	54.1
342.34	0.85
342.552	107.35
342.764	35.67
342.977	47.96
343.189	62.29
343.401	41.81
343.613	-9.39
343.826	-38.06
344.038	9.05
344.25	19.29
344.462	35.67
344.674	33.62
344.886	27.48
345.099	27.48
345.311	39.76
345.523	7
345.735	7
345.947	80.72
346.159	66.39
346.371	45.91
346.583	-21.67
346.795	90.96
347.007	95.06
347.219	-25.77
347.431	-9.39
347.643	101.2
347.855	17.24
348.067	-1.19
348.279	-13.48
348.491	31.57
348.703	62.29
348.915	-11.43
349.127	-46.25
349.339	-11.43
349.551	-23.72
349.763	35.67
349.975	78.68
350.187	88.92
350.399	39.76
350.61	27.48
350.822	15.19
351.034	41.81
351.246	7
351.458	64.34
351.669	50
351.881	90.96
352.093	60.24
352.305	80.72
352.517	82.77
352.728	93.01
352.94	-27.82
353.152	25.43
353.363	39.76
353.575	-7.34
353.787	2.9
353.999	-25.77
354.21	117.59
354.422	-50.35
354.633	-21.67
354.845	62.29
355.057	25.43
355.268	-58.54
355.48	107.35
355.692	11.09
355.903	-1.19
356.115	111.44
356.326	31.57
356.538	68.44
356.749	7
356.961	68.44
357.172	74.58
357.384	45.91
357.595	19.29
357.807	43.86
358.018	11.09
358.23	90.96
358.441	93.01
358.653	113.49
358.864	-5.29
359.075	-9.39
359.287	41.81
359.498	113.49
359.709	56.15
359.921	-1.19
360.132	84.82
360.344	-15.53
360.555	39.76
360.766	39.76
360.977	2.9
361.189	76.63
361.4	54.1
361.611	97.11
361.823	88.92
362.034	23.38
362.245	47.96
362.456	23.38
362.667	88.92
362.879	11.09
363.09	-23.72
363.301	43.86
363.512	66.39
363.723	7
363.935	90.96
364.146	27.48
364.357	33.62
364.568	138.07
364.779	9.05
364.99	15.19
365.201	27.48
365.412	7
365.623	-15.53
365.834	-17.58
366.045	54.1
366.256	7
366.467	19.29
366.678	17.24
366.889	7
367.1	-13.48
367.311	68.44
367.522	-17.58
367.733	-17.58
367.944	43.86
368.155	7
368.366	54.1
368.577	72.53
368.788	93.01
368.999	2.9
369.209	97.11
369.42	113.49
369.631	97.11
369.842	23.38
370.053	64.34
370.264	52.05
370.474	-11.43
370.685	-7.34
370.896	47.96
371.107	47.96
371.317	-15.53
371.528	41.81
371.739	107.35
371.95	15.19
372.16	131.92
372.371	-1.19
372.582	23.38
372.792	56.15
373.003	70.48
373.214	97.11
373.424	103.25
373.635	-9.39
373.846	90.96
374.056	84.82
374.267	9.05
374.477	9.05
374.688	39.76
374.898	23.38
375.109	23.38
375.319	60.24
375.53	58.2
375.74	101.2
375.951	19.29
376.161	58.2
376.372	72.53
376.582	17.24
376.793	19.29
377.003	41.81
377.214	58.2
377.424	11.09
377.635	58.2
377.845	27.48
378.055	41.81
378.266	27.48
378.476	103.25
378.686	82.77
378.897	76.63
379.107	21.33
379.317	78.68
379.528	66.39
379.738	52.05
379.948	99.16
380.158	72.53
380.369	19.29
380.579	74.58
380.789	31.57
380.999	121.68
381.21	56.15
381.42	68.44
381.63	-1.19
381.84	41.81
382.05	21.33
382.261	7
382.471	72.53
382.681	15.19
382.891	74.58
383.101	39.76
383.311	39.76
383.521	97.11
383.731	35.67
383.941	56.15
384.151	31.57
384.361	72.53
384.571	60.24
384.781	88.92
384.991	90.96
385.201	74.58
385.411	39.76
385.621	60.24
385.831	109.4
386.041	39.76
386.251	19.29
386.461	45.91
386.671	-25.77
386.881	121.68
387.091	86.87
387.301	88.92
387.511	97.11
387.72	29.52
387.93	52.05
388.14	-23.72
388.35	95.06
388.56	43.86
388.769	56.15
388.979	45.91
389.189	19.29
389.399	54.1
389.609	78.68
389.818	21.33
390.028	47.96
390.238	39.76
390.447	19.29
390.657	47.96
390.867	52.05
391.076	-21.67
391.286	39.76
391.496	129.88
391.705	101.2
391.915	50
392.125	93.01
392.334	0.85
392.544	43.86
392.753	78.68
392.963	84.82
393.172	117.59
393.382	23.38
393.591	52.05
393.801	125.78
394.01	142.16
394.22	97.11
394.429	90.96
394.639	41.81
394.848	74.58
395.058	47.96
395.267	117.59
395.477	27.48
395.686	84.82
395.895	170.83
396.105	140.12
396.314	80.72
396.524	121.68
396.733	133.97
396.942	90.96
397.152	88.92
397.361	131.92
397.57	80.72
397.78	123.73
397.989	142.16
398.198	164.69
398.407	17.24
398.617	138.07
398.826	162.64
399.035	117.59
399.244	117.59
399.453	80.72
399.663	107.35
399.872	179.03
400.081	127.83
400.29	93.01
400.499	64.34
400.708	170.83
400.917	88.92
401.127	138.07
401.336	125.78
401.545	62.29
401.754	230.23
401.963	146.26
402.172	74.58
402.381	166.74
402.59	205.65
402.799	138.07
403.008	187.22
403.217	144.21
403.426	187.22
403.635	117.59
403.844	127.83
404.053	244.56
404.262	170.83
404.471	162.64
404.68	99.16
404.888	179.03
405.097	176.98
405.306	269.14
405.515	148.31
405.724	164.69
405.933	252.75
406.142	226.13
406.35	164.69
406.559	230.23
406.768	213.84
406.977	293.71
407.185	203.6
407.394	242.51
407.603	269.14
407.812	353.1
408.02	326.48
408.229	287.57
408.438	328.53
408.646	293.71
408.855	310.1
409.064	299.86
409.272	334.67
409.481	385.87
409.69	295.76
409.898	424.78
410.107	443.21
410.315	402.26
410.524	461.65
410.733	498.51
410.941	451.41
411.15	480.08
411.358	502.61
411.567	518.99
411.775	498.51
411.984	549.71
412.192	621.39
412.401	631.63
412.609	666.44
412.818	627.53
413.026	711.5
413.234	666.44
413.443	705.35
413.651	734.03
413.86	762.7
414.068	836.42
414.276	826.18
414.485	910.15
414.693	858.95
414.901	981.83
415.11	973.64
415.318	969.54
415.526	936.78
415.734	1063.75
415.943	987.97
416.151	1084.23
416.359	1139.52
416.567	1203.01
416.776	1198.92
416.984	1325.89
417.192	1313.6
417.4	1432.38
417.608	1348.42
417.817	1444.67
418.025	1522.49
418.233	1682.24
418.441	1571.65
418.649	1641.28
418.857	1827.64
419.065	1809.21
419.273	1805.11
419.481	1876.79
419.689	2040.63
419.897	2179.89
420.105	2075.45
420.313	2294.58
420.521	2276.15
420.729	2351.92
420.937	2356.02
421.145	2458.42
421.353	2564.91
421.561	2591.53
421.769	2743.08
421.977	2779.95
422.185	2804.52
422.393	3005.22
422.601	3234.6
422.809	3083.05
423.017	3148.58
423.224	3431.2
423.432	3482.4
423.64	3490.59
423.848	3771.16
424.056	3658.53
424.263	4037.4
424.471	4064.02
424.679	3957.53
424.887	4434.71
425.094	4375.31
425.302	4430.61
425.51	4457.23
425.718	4809.48
425.925	4782.86
426.133	4930.31
426.341	5245.7
426.548	5415.68
426.756	5610.24
426.964	5499.65
427.171	5925.63
427.379	5905.15
427.586	6111.99
427.794	6376.18
428.001	6650.61
428.209	6888.17
428.417	6818.54
428.624	7277.29
428.832	7152.36
429.039	7090.92
429.247	7310.05
429.454	7813.85
429.662	8413.91
429.869	7803.61
430.076	8346.33
430.284	8182.49
430.491	8608.47
430.699	9067.21
430.906	8848.08
431.114	9104.07
431.321	9497.28
431.528	9589.44
431.736	10193.59
431.943	10623.67
432.15	10271.42
432.358	10674.87
432.565	11127.47
432.772	11053.74
432.979	11643.56
433.187	11795.11
433.394	11778.72
433.601	12634.77
433.808	12778.13
434.016	12550.81
434.223	13138.57
434.43	13992.58
434.637	13765.25
434.844	14482.04
435.052	14746.23
435.259	14678.65
435.466	14846.58
435.673	14541.43
435.88	15559.27
436.087	16374.36
436.294	16380.51
436.501	16183.9
436.708	16333.4
436.915	17070.67
437.122	17664.58
437.329	17633.86
437.537	18227.78
437.743	18514.49
437.95	18356.8
438.157	19280.43
438.364	19876.39
438.571	19784.23
438.778	20140.58
438.985	22094.34
439.192	20883.99
439.399	21703.18
439.606	20845.08
439.813	22213.12
440.02	23609.84
440.227	23292.4
440.433	23089.65
440.64	23769.58
440.847	23396.85
441.054	24115.69
441.261	25862.6
441.467	25618.89
441.674	26077.64
441.881	26845.63
442.088	26806.72
442.294	26651.07
442.501	27253.17
442.708	27937.2
442.914	29047.19
443.121	29903.25
443.328	29202.84
443.534	31506.8
443.741	30337.41
443.948	30069.13
444.154	32301.42
444.361	31867.25
444.568	32098.67
444.774	32213.35
444.981	32842.08
445.187	33638.74
445.394	34826.56
445.6	34455.88
445.807	37849.36
446.013	36038.96
446.22	36755.75
446.426	38172.94
446.633	38580.49
446.839	39895.28
447.046	38136.08
447.252	39962.87
447.459	39538.94
447.665	39540.99
447.871	41775.32
448.078	43520.19
448.284	41099.49
448.491	42373.33
448.697	43972.79
448.903	44742.83
449.11	45078.69
449.316	44212.4
449.522	45066.41
449.728	46213.27
449.935	46340.24
450.141	46459.02
450.347	47532.16
450.553	46018.71
450.76	46495.89
450.966	48251
451.172	47329.41
451.378	48562.29
451.584	47939.71
451.791	48554.1
451.997	49033.32
452.203	49670.24
452.409	49156.2
452.615	49236.07
452.821	47345.79
453.027	47163.53
453.233	49651.81
453.44	47716.48
453.646	48169.08
453.852	48455.79
454.058	49508.45
454.264	47581.31
454.47	48685.17
454.676	47577.22
454.882	49356.9
455.088	44511.41
455.294	45543.58
455.5	46403.73
455.705	46723.21
455.911	44857.51
456.117	43804.86
456.323	43139.27
456.529	41197.79
456.735	42979.53
456.941	41904.34
457.147	41304.29
457.352	40055.03
457.558	39899.38
457.764	39618.81
457.97	39194.88
458.176	38009.11
458.381	38414.6
458.587	36210.99
458.793	36497.7
458.999	34521.41
459.204	37292.32
459.41	36041.01
459.616	33616.21
459.821	33710.42
460.027	33360.22
460.233	32983.39
460.438	31144.31
460.644	31543.67
460.85	30118.28
461.055	29708.69
461.261	29522.32
461.466	27752.88
461.672	26495.43
461.878	28334.5
462.083	26624.45
462.289	25889.23
462.494	25872.84
462.7	24363.49
462.905	24046.05
463.111	24984.02
463.316	25059.8
463.522	24646.11
463.727	24330.72
463.932	24144.36
464.138	24054.25
464.343	24142.31
464.549	23525.87
464.754	24353.25
464.959	24082.92
465.165	23966.18
465.37	23083.51
465.575	22530.56
465.781	23151.09
465.986	23566.83
466.191	22127.11
466.397	21901.83
466.602	20888.09
466.807	21651.98
467.012	21588.49
467.218	21416.46
467.423	21418.51
467.628	21580.3
467.833	22581.76
468.038	21766.67
