Data from USB4F104151__52__14-17-00-441.txt Node

Date: Thu Mar 13 14:17:00 EDT 2025
User: louis
Spectrometer: USB4F10415
Trigger mode: 4
Integration Time (sec): 2.000000E-2
Scans to average: 1
Electric dark correction enabled: true
Nonlinearity correction enabled: false
Boxcar width: 0
XAxis mode: Wavelengths
Number of Pixels in Spectrum: 3648
>>>>>Begin Spectral Data<<<<<
178.204	-91.65
178.424	-91.65
178.644	-91.65
178.864	-73.21
179.084	-46.59
179.304	-24.06
179.524	-36.35
179.744	-22.02
179.964	23.04
180.184	18.94
180.404	68.09
180.624	-32.26
180.844	-22.02
181.064	4.61
181.283	10.75
181.503	-22.02
181.723	33.28
181.943	-34.3
182.163	100.86
182.383	49.66
182.602	27.14
182.822	72.19
183.042	55.81
183.262	31.23
183.482	23.04
183.701	-5.63
183.921	-9.73
184.141	-26.11
184.361	55.81
184.58	74.24
184.8	6.66
185.02	-30.21
185.239	129.53
185.459	-32.26
185.679	64
185.898	-5.63
186.118	129.53
186.338	18.94
186.557	64
186.777	-19.97
186.997	74.24
187.216	10.75
187.436	10.75
187.655	-11.78
187.875	31.23
188.095	-1.54
188.314	35.33
188.534	-5.63
188.753	35.33
188.973	92.67
189.192	90.62
189.412	64
189.631	-9.73
189.851	57.86
190.07	35.33
190.29	0.51
190.509	74.24
190.729	-3.58
190.948	55.81
191.168	76.29
191.387	115.2
191.607	-34.3
191.826	49.66
192.045	31.23
192.265	29.18
192.484	33.28
192.704	66.05
192.923	-44.54
193.142	45.57
193.362	18.94
193.581	80.38
193.8	55.81
194.02	55.81
194.239	57.86
194.458	90.62
194.678	43.52
194.897	47.62
195.116	74.24
195.335	96.77
195.555	43.52
195.774	18.94
195.993	45.57
196.212	41.47
196.432	-17.92
196.651	47.62
196.87	33.28
197.089	94.72
197.308	59.9
197.528	80.38
197.747	25.09
197.966	20.99
198.185	68.09
198.404	66.05
198.623	18.94
198.842	96.77
199.062	37.38
199.281	86.53
199.5	-15.87
199.719	18.94
199.938	47.62
200.157	123.39
200.376	18.94
200.595	55.81
200.814	35.33
201.033	25.09
201.252	100.86
201.471	-56.83
201.69	53.76
201.909	-5.63
202.128	29.18
202.347	59.9
202.566	-26.11
202.785	57.86
203.004	39.42
203.223	84.48
203.442	33.28
203.661	37.38
203.879	-1.54
204.098	25.09
204.317	31.23
204.536	0.51
204.755	72.19
204.974	68.09
205.193	31.23
205.411	6.66
205.63	78.33
205.849	6.66
206.068	20.99
206.287	86.53
206.505	39.42
206.724	41.47
206.943	57.86
207.162	-22.02
207.381	41.47
207.599	43.52
207.818	8.7
208.037	23.04
208.255	6.66
208.474	25.09
208.693	33.28
208.911	33.28
209.13	152.06
209.349	64
209.567	45.57
209.786	104.96
210.005	49.66
210.223	115.2
210.442	-15.87
210.661	-42.5
210.879	-42.5
211.098	23.04
211.316	-26.11
211.535	47.62
211.753	39.42
211.972	27.14
212.191	47.62
212.409	-54.78
212.628	29.18
212.846	-15.87
213.065	-7.68
213.283	10.75
213.502	-24.06
213.72	-1.54
213.938	27.14
214.157	33.28
214.375	23.04
214.594	0.51
214.812	6.66
215.031	68.09
215.249	-1.54
215.467	27.14
215.686	39.42
215.904	104.96
216.122	-19.97
216.341	-13.82
216.559	18.94
216.778	2.56
216.996	49.66
217.214	-11.78
217.432	86.53
217.651	-26.11
217.869	72.19
218.087	-15.87
218.306	14.85
218.524	90.62
218.742	23.04
218.96	113.15
219.179	49.66
219.397	-3.58
219.615	86.53
219.833	47.62
220.051	27.14
220.27	139.77
220.488	96.77
220.706	16.9
220.924	37.38
221.142	-5.63
221.36	59.9
221.578	14.85
221.796	25.09
222.015	90.62
222.233	27.14
222.451	55.81
222.669	-9.73
222.887	14.85
223.105	96.77
223.323	55.81
223.541	-42.5
223.759	31.23
223.977	6.66
224.195	27.14
224.413	16.9
224.631	39.42
224.849	-9.73
225.067	162.3
225.285	23.04
225.503	16.9
225.721	-19.97
225.939	31.23
226.157	39.42
226.375	51.71
226.592	78.33
226.81	29.18
227.028	2.56
227.246	82.43
227.464	16.9
227.682	74.24
227.9	39.42
228.117	16.9
228.335	47.62
228.553	43.52
228.771	31.23
228.989	45.57
229.206	23.04
229.424	41.47
229.642	16.9
229.86	-24.06
230.077	18.94
230.295	-46.59
230.513	145.92
230.731	104.96
230.948	82.43
231.166	8.7
231.384	45.57
231.601	27.14
231.819	47.62
232.037	-7.68
232.254	-67.07
232.472	35.33
232.689	10.75
232.907	0.51
233.125	45.57
233.342	-1.54
233.56	14.85
233.777	43.52
233.995	-69.12
234.213	102.91
234.43	47.62
234.648	74.24
234.865	4.61
235.083	18.94
235.3	68.09
235.518	113.15
235.735	55.81
235.953	80.38
236.17	-5.63
236.388	14.85
236.605	55.81
236.822	90.62
237.04	88.57
237.257	33.28
237.475	-9.73
237.692	-1.54
237.909	41.47
238.127	2.56
238.344	88.57
238.562	74.24
238.779	-9.73
238.996	-26.11
239.214	64
239.431	27.14
239.648	23.04
239.865	129.53
240.083	64
240.3	-24.06
240.517	39.42
240.735	49.66
240.952	55.81
241.169	4.61
241.386	70.14
241.603	127.49
241.821	-15.87
242.038	113.15
242.255	6.66
242.472	-1.54
242.689	18.94
242.907	-9.73
243.124	29.18
243.341	72.19
243.558	39.42
243.775	88.57
243.992	64
244.209	59.9
244.426	41.47
244.643	96.77
244.86	47.62
245.078	80.38
245.295	23.04
245.512	6.66
245.729	-22.02
245.946	72.19
246.163	47.62
246.38	55.81
246.597	66.05
246.814	59.9
247.031	29.18
247.248	33.28
247.464	84.48
247.681	57.86
247.898	14.85
248.115	70.14
248.332	8.7
248.549	55.81
248.766	61.95
248.983	55.81
249.2	-28.16
249.417	12.8
249.633	-17.92
249.85	74.24
250.067	33.28
250.284	55.81
250.501	47.62
250.717	10.75
250.934	-32.26
251.151	-26.11
251.368	23.04
251.585	68.09
251.801	-26.11
252.018	49.66
252.235	41.47
252.451	43.52
252.668	-1.54
252.885	-46.59
253.102	10.75
253.318	25.09
253.535	43.52
253.752	12.8
253.968	53.76
254.185	39.42
254.401	-17.92
254.618	59.9
254.835	-7.68
255.051	39.42
255.268	53.76
255.484	51.71
255.701	64
255.917	86.53
256.134	35.33
256.351	104.96
256.567	57.86
256.784	129.53
257	-13.82
257.217	27.14
257.433	16.9
257.65	121.34
257.866	80.38
258.082	-7.68
258.299	-1.54
258.515	80.38
258.732	-5.63
258.948	18.94
259.165	6.66
259.381	31.23
259.597	31.23
259.814	14.85
260.03	96.77
260.246	-9.73
260.463	-19.97
260.679	66.05
260.895	47.62
261.112	66.05
261.328	-67.07
261.544	25.09
261.761	59.9
261.977	-9.73
262.193	90.62
262.409	68.09
262.626	33.28
262.842	14.85
263.058	-32.26
263.274	72.19
263.49	88.57
263.707	25.09
263.923	49.66
264.139	68.09
264.355	16.9
264.571	139.77
264.787	33.28
265.004	31.23
265.22	55.81
265.436	39.42
265.652	66.05
265.868	59.9
266.084	10.75
266.3	23.04
266.516	66.05
266.732	76.29
266.948	43.52
267.164	-26.11
267.38	64
267.596	59.9
267.812	80.38
268.028	31.23
268.244	-1.54
268.46	68.09
268.676	55.81
268.892	-5.63
269.108	37.38
269.324	43.52
269.54	53.76
269.756	113.15
269.972	-40.45
270.188	-26.11
270.403	76.29
270.619	-28.16
270.835	-17.92
271.051	-17.92
271.267	72.19
271.483	39.42
271.698	45.57
271.914	109.05
272.13	31.23
272.346	39.42
272.562	-9.73
272.777	70.14
272.993	-3.58
273.209	14.85
273.425	6.66
273.64	-26.11
273.856	8.7
274.072	31.23
274.287	-34.3
274.503	90.62
274.719	133.63
274.934	82.43
275.15	6.66
275.366	16.9
275.581	35.33
275.797	4.61
276.012	27.14
276.228	84.48
276.444	6.66
276.659	113.15
276.875	-1.54
277.09	39.42
277.306	-1.54
277.521	70.14
277.737	102.91
277.952	68.09
278.168	107.01
278.383	47.62
278.599	68.09
278.814	57.86
279.03	8.7
279.245	70.14
279.461	92.67
279.676	-5.63
279.892	33.28
280.107	6.66
280.322	68.09
280.538	23.04
280.753	96.77
280.969	47.62
281.184	-58.88
281.399	23.04
281.615	160.25
281.83	100.86
282.045	76.29
282.26	-5.63
282.476	43.52
282.691	59.9
282.906	-3.58
283.122	70.14
283.337	2.56
283.552	94.72
283.767	-1.54
283.983	82.43
284.198	31.23
284.413	82.43
284.628	39.42
284.843	33.28
285.058	66.05
285.274	47.62
285.489	25.09
285.704	12.8
285.919	-9.73
286.134	125.44
286.349	47.62
286.564	-17.92
286.779	49.66
286.995	59.9
287.21	-91.65
287.425	47.62
287.64	16.9
287.855	86.53
288.07	16.9
288.285	74.24
288.5	14.85
288.715	76.29
288.93	45.57
289.145	33.28
289.36	59.9
289.575	39.42
289.79	76.29
290.004	-42.5
290.219	33.28
290.434	-22.02
290.649	-19.97
290.864	-65.02
291.079	68.09
291.294	39.42
291.509	25.09
291.724	66.05
291.938	33.28
292.153	80.38
292.368	-42.5
292.583	127.49
292.798	55.81
293.012	72.19
293.227	74.24
293.442	47.62
293.657	107.01
293.871	23.04
294.086	57.86
294.301	86.53
294.516	66.05
294.73	72.19
294.945	-17.92
295.16	25.09
295.374	18.94
295.589	16.9
295.804	90.62
296.018	16.9
296.233	37.38
296.447	0.51
296.662	39.42
296.877	115.2
297.091	90.62
297.306	82.43
297.52	18.94
297.735	43.52
297.949	49.66
298.164	47.62
298.378	39.42
298.593	-7.68
298.807	35.33
299.022	12.8
299.236	2.56
299.451	6.66
299.665	80.38
299.88	51.71
300.094	74.24
300.309	59.9
300.523	25.09
300.737	31.23
300.952	-3.58
301.166	129.53
301.381	-1.54
301.595	68.09
301.809	88.57
302.024	121.34
302.238	47.62
302.452	107.01
302.667	-9.73
302.881	68.09
303.095	-24.06
303.309	25.09
303.524	61.95
303.738	25.09
303.952	4.61
304.166	51.71
304.381	2.56
304.595	59.9
304.809	8.7
305.023	-56.83
305.237	45.57
305.452	23.04
305.666	82.43
305.88	18.94
306.094	66.05
306.308	33.28
306.522	-1.54
306.736	121.34
306.95	27.14
307.164	98.81
307.379	49.66
307.593	53.76
307.807	68.09
308.021	18.94
308.235	57.86
308.449	-5.63
308.663	68.09
308.877	64
309.091	-9.73
309.305	23.04
309.519	41.47
309.733	37.38
309.947	16.9
310.161	104.96
310.374	76.29
310.588	14.85
310.802	49.66
311.016	53.76
311.23	16.9
311.444	14.85
311.658	64
311.872	74.24
312.085	-9.73
312.299	96.77
312.513	80.38
312.727	-48.64
312.941	47.62
313.154	129.53
313.368	90.62
313.582	-11.78
313.796	43.52
314.009	78.33
314.223	47.62
314.437	43.52
314.651	8.7
314.864	39.42
315.078	59.9
315.292	47.62
315.505	41.47
315.719	14.85
315.933	47.62
316.146	-1.54
316.36	84.48
316.573	104.96
316.787	43.52
317.001	25.09
317.214	-24.06
317.428	-5.63
317.641	49.66
317.855	55.81
318.068	131.58
318.282	-9.73
318.495	76.29
318.709	23.04
318.922	39.42
319.136	88.57
319.349	64
319.563	-34.3
319.776	12.8
319.99	74.24
320.203	115.2
320.417	78.33
320.63	57.86
320.843	76.29
321.057	39.42
321.27	53.76
321.483	121.34
321.697	111.1
321.91	16.9
322.124	41.47
322.337	61.95
322.55	-11.78
322.763	64
322.977	64
323.19	39.42
323.403	88.57
323.617	14.85
323.83	6.66
324.043	78.33
324.256	53.76
324.469	43.52
324.683	55.81
324.896	45.57
325.109	-26.11
325.322	8.7
325.535	59.9
325.748	39.42
325.962	64
326.175	-22.02
326.388	115.2
326.601	16.9
326.814	88.57
327.027	107.01
327.24	74.24
327.453	10.75
327.666	35.33
327.879	109.05
328.092	64
328.305	8.7
328.518	72.19
328.731	33.28
328.944	31.23
329.157	10.75
329.37	100.86
329.583	64
329.796	74.24
330.009	64
330.222	37.38
330.435	115.2
330.648	14.85
330.861	14.85
331.073	66.05
331.286	104.96
331.499	115.2
331.712	-11.78
331.925	31.23
332.138	47.62
332.35	66.05
332.563	0.51
332.776	27.14
332.989	14.85
333.202	43.52
333.414	49.66
333.627	104.96
333.84	-5.63
334.053	80.38
334.265	98.81
334.478	104.96
334.691	35.33
334.903	109.05
335.116	51.71
335.329	-17.92
335.541	33.28
335.754	82.43
335.966	-7.68
336.179	31.23
336.392	20.99
336.604	88.57
336.817	74.24
337.029	31.23
337.242	-28.16
337.454	88.57
337.667	33.28
337.88	47.62
338.092	25.09
338.305	66.05
338.517	-48.64
338.729	-1.54
338.942	102.91
339.154	92.67
339.367	23.04
339.579	23.04
339.792	49.66
340.004	109.05
340.217	-34.3
340.429	72.19
340.641	43.52
340.854	14.85
341.066	49.66
341.278	78.33
341.491	59.9
341.703	129.53
341.915	29.18
342.128	82.43
342.34	53.76
342.552	31.23
342.764	66.05
342.977	16.9
343.189	37.38
343.401	84.48
343.613	74.24
343.826	80.38
344.038	29.18
344.25	68.09
344.462	35.33
344.674	-42.5
344.886	20.99
345.099	84.48
345.311	16.9
345.523	51.71
345.735	39.42
345.947	43.52
346.159	-17.92
346.371	61.95
346.583	104.96
346.795	121.34
347.007	4.61
347.219	80.38
347.431	16.9
347.643	14.85
347.855	41.47
348.067	121.34
348.279	80.38
348.491	82.43
348.703	37.38
348.915	43.52
349.127	72.19
349.339	70.14
349.551	41.47
349.763	76.29
349.975	33.28
350.187	76.29
350.399	29.18
350.61	23.04
350.822	92.67
351.034	43.52
351.246	18.94
351.458	8.7
351.669	131.58
351.881	72.19
352.093	35.33
352.305	55.81
352.517	49.66
352.728	39.42
352.94	29.18
353.152	72.19
353.363	-9.73
353.575	10.75
353.787	104.96
353.999	55.81
354.21	100.86
354.422	43.52
354.633	18.94
354.845	104.96
355.057	80.38
355.268	113.15
355.48	8.7
355.692	25.09
355.903	31.23
356.115	23.04
356.326	74.24
356.538	115.2
356.749	74.24
356.961	72.19
357.172	129.53
357.384	23.04
357.595	59.9
357.807	-26.11
358.018	23.04
358.23	109.05
358.441	72.19
358.653	49.66
358.864	33.28
359.075	25.09
359.287	80.38
359.498	68.09
359.709	33.28
359.921	39.42
360.132	82.43
360.344	68.09
360.555	-34.3
360.766	16.9
360.977	59.9
361.189	33.28
361.4	-11.78
361.611	55.81
361.823	74.24
362.034	137.73
362.245	14.85
362.456	41.47
362.667	53.76
362.879	16.9
363.09	20.99
363.301	25.09
363.512	-30.21
363.723	25.09
363.935	35.33
364.146	68.09
364.357	31.23
364.568	51.71
364.779	23.04
364.99	88.57
365.201	74.24
365.412	90.62
365.623	61.95
365.834	82.43
366.045	27.14
366.256	23.04
366.467	66.05
366.678	96.77
366.889	25.09
367.1	-19.97
367.311	12.8
367.522	27.14
367.733	98.81
367.944	23.04
368.155	-5.63
368.366	104.96
368.577	59.9
368.788	119.29
368.999	39.42
369.209	119.29
369.42	39.42
369.631	131.58
369.842	135.68
370.053	84.48
370.264	39.42
370.474	35.33
370.685	51.71
370.896	66.05
371.107	64
371.317	64
371.528	68.09
371.739	74.24
371.95	64
372.16	6.66
372.371	59.9
372.582	6.66
372.792	29.18
373.003	51.71
373.214	100.86
373.424	88.57
373.635	-1.54
373.846	-9.73
374.056	-1.54
374.267	98.81
374.477	27.14
374.688	16.9
374.898	96.77
375.109	39.42
375.319	-15.87
375.53	104.96
375.74	33.28
375.951	23.04
376.161	45.57
376.372	43.52
376.582	27.14
376.793	33.28
377.003	64
377.214	39.42
377.424	55.81
377.635	55.81
377.845	23.04
378.055	41.47
378.266	90.62
378.476	80.38
378.686	2.56
378.897	27.14
379.107	64
379.317	-3.58
379.528	64
379.738	88.57
379.948	-9.73
380.158	64
380.369	57.86
380.579	37.38
380.789	6.66
380.999	88.57
381.21	84.48
381.42	66.05
381.63	39.42
381.84	33.28
382.05	80.38
382.261	113.15
382.471	-34.3
382.681	82.43
382.891	107.01
383.101	170.49
383.311	-1.54
383.521	72.19
383.731	49.66
383.941	55.81
384.151	74.24
384.361	55.81
384.571	92.67
384.781	59.9
384.991	88.57
385.201	55.81
385.411	86.53
385.621	39.42
385.831	76.29
386.041	55.81
386.251	68.09
386.461	107.01
386.671	-5.63
386.881	72.19
387.091	-11.78
387.301	74.24
387.511	16.9
387.72	100.86
387.93	25.09
388.14	66.05
388.35	4.61
388.56	55.81
388.769	70.14
388.979	47.62
389.189	0.51
389.399	64
389.609	33.28
389.818	121.34
390.028	39.42
390.238	66.05
390.447	70.14
390.657	72.19
390.867	109.05
391.076	10.75
391.286	100.86
391.496	96.77
391.705	70.14
391.915	137.73
392.125	47.62
392.334	78.33
392.544	23.04
392.753	129.53
392.963	39.42
393.172	104.96
393.382	92.67
393.591	199.16
393.801	68.09
394.01	113.15
394.22	170.49
394.429	59.9
394.639	55.81
394.848	195.07
395.058	66.05
395.267	150.01
395.477	139.77
395.686	64
395.895	96.77
396.105	98.81
396.314	59.9
396.524	104.96
396.733	55.81
396.942	98.81
397.152	107.01
397.361	82.43
397.57	59.9
397.78	127.49
397.989	66.05
398.198	88.57
398.407	117.25
398.617	109.05
398.826	59.9
399.035	129.53
399.244	88.57
399.453	195.07
399.663	129.53
399.872	88.57
400.081	119.29
400.29	129.53
400.499	94.72
400.708	195.07
400.917	72.19
401.127	121.34
401.336	80.38
401.545	145.92
401.754	115.2
401.963	145.92
402.172	98.81
402.381	107.01
402.59	92.67
402.799	98.81
403.008	190.97
403.217	141.82
403.426	135.68
403.635	55.81
403.844	123.39
404.053	113.15
404.262	152.06
404.471	236.03
404.68	154.11
404.888	109.05
405.097	211.45
405.306	137.73
405.515	240.12
405.724	137.73
405.933	211.45
406.142	272.89
406.35	164.35
406.559	197.12
406.768	170.49
406.977	164.35
407.185	201.21
407.394	135.68
407.603	129.53
407.812	219.64
408.02	293.37
408.229	231.93
408.438	227.84
408.646	281.08
408.855	227.84
409.064	254.46
409.272	276.99
409.481	250.36
409.69	252.41
409.898	260.6
410.107	270.84
410.315	311.8
410.524	270.84
410.733	334.33
410.941	279.04
411.15	324.09
411.358	328.19
411.567	350.71
411.775	473.59
411.984	436.73
412.192	432.63
412.401	416.25
412.609	489.98
412.818	489.98
413.026	432.63
413.234	518.65
413.443	553.46
413.651	563.7
413.86	526.84
414.068	580.09
414.276	645.62
414.485	539.13
414.693	702.97
414.901	604.66
415.11	633.33
415.318	657.91
415.526	770.55
415.734	678.39
415.943	713.21
416.151	780.79
416.359	788.98
416.567	754.16
416.776	866.8
416.984	877.04
417.192	952.82
417.4	926.19
417.608	942.58
417.817	983.54
418.025	1104.37
418.233	1071.6
418.441	1061.36
418.649	1202.67
418.857	1278.44
419.065	1169.9
419.273	1284.59
419.481	1315.31
419.689	1415.66
419.897	1337.84
420.105	1413.61
420.313	1544.68
420.521	1505.77
420.729	1522.15
420.937	1538.54
421.145	1630.7
421.353	1724.9
421.561	1812.96
421.769	1792.48
421.977	1982.95
422.185	1927.65
422.393	2030.05
422.601	2202.08
422.809	2163.17
423.017	2071.01
423.224	2206.17
423.432	2327
423.64	2417.12
423.848	2632.15
424.056	2525.66
424.263	2595.29
424.471	2681.3
424.679	2677.21
424.887	2963.92
425.094	2937.3
425.302	2916.82
425.51	3070.42
425.718	3082.7
425.925	3150.29
426.133	3437
426.341	3611.08
426.548	3701.19
426.756	3594.7
426.964	3705.29
427.171	3852.74
427.379	3910.08
427.586	4112.83
427.794	4241.86
428.001	4299.2
428.209	4610.49
428.417	4508.09
428.624	4821.43
428.832	4759.99
429.039	4712.89
429.247	4741.56
429.454	5304.75
429.662	5583.27
429.869	5380.53
430.076	5536.17
430.284	5431.73
430.491	5773.74
430.699	6080.93
430.906	6009.25
431.114	6191.52
431.321	6252.96
431.528	6511
431.736	6683.03
431.943	7068.05
432.15	7002.52
432.358	6965.65
432.565	7461.26
432.772	7319.95
432.979	7801.22
433.187	7762.31
433.394	8001.93
433.601	8427.9
433.808	8464.77
434.016	8509.82
434.223	8642.94
434.43	9298.29
434.637	9027.96
434.844	9675.12
435.052	9853.29
435.259	9752.94
435.466	9754.99
435.673	9632.11
435.88	10361.19
436.087	11039.06
436.294	11102.55
436.501	10672.48
436.708	10926.43
436.915	11458.9
437.122	11850.06
437.329	11516.24
437.537	12175.69
437.743	12366.15
437.95	12200.26
438.157	12740.93
438.364	13324.6
438.571	13306.16
438.778	13515.06
438.985	14379.3
439.192	14219.56
439.399	14422.31
439.606	14090.54
439.813	14930.2
440.02	15835.41
440.227	15675.66
440.433	15565.07
440.64	16021.77
440.847	15948.04
441.054	16294.15
441.261	17164.54
441.467	17070.33
441.674	17357.05
441.881	17918.19
442.088	17852.66
442.294	17647.86
442.501	18391.27
442.708	18770.15
442.914	19529.94
443.121	19863.76
443.328	19445.98
443.534	20940.99
443.741	20562.12
443.948	20250.83
444.154	21678.26
444.361	21272.76
444.568	21522.62
444.774	21444.79
444.981	21934.26
445.187	22503.59
445.394	23533.72
445.6	23120.03
445.807	25118.85
446.013	24152.21
446.22	24512.65
446.426	25550.97
446.633	26017.91
446.839	26691.69
447.046	25639.03
447.252	27132
447.459	26916.97
447.665	26773.61
447.871	28078.16
448.078	29454.4
448.284	27510.88
448.491	28682.31
448.697	29950.01
448.903	30341.17
449.11	30244.91
449.316	30029.88
449.522	30511.15
449.728	31299.62
449.935	31432.74
450.141	31342.63
450.347	32307.22
450.553	30988.33
450.76	31447.07
450.966	32337.94
451.172	32315.41
451.378	33349.64
451.584	32579.6
451.791	33210.37
451.997	33234.95
452.203	33687.55
452.409	33949.69
452.615	33519.62
452.821	32217.11
453.027	31899.67
453.233	33720.32
453.44	32174.1
453.646	32544.78
453.852	32954.38
454.058	33511.42
454.264	32374.8
454.47	33458.18
454.676	32075.8
454.882	33490.94
455.088	30281.78
455.294	31086.63
455.5	31291.43
455.705	32061.46
455.911	30257.2
456.117	29974.58
456.323	29599.8
456.529	27918.42
456.735	29677.63
456.941	28366.93
457.147	28035.16
457.352	27402.33
457.558	26876.01
457.764	26843.24
457.97	26968.16
458.176	25983.09
458.381	26134.64
458.587	24785.03
458.793	24717.45
458.999	23685.27
459.204	25118.85
459.41	24270.99
459.616	22743.2
459.821	22821.03
460.027	22966.43
460.233	22472.87
460.438	21276.86
460.644	21508.28
460.85	20723.91
461.055	19953.87
461.261	20076.75
461.466	18700.51
461.672	18168.04
461.878	19239.13
462.083	18272.49
462.289	17670.39
462.494	17701.11
462.7	16685.31
462.905	16550.15
463.111	17021.18
463.316	16849.15
463.522	16474.37
463.727	16460.04
463.932	16646.4
464.138	16408.84
464.343	16390.41
464.549	15984.91
464.754	16486.66
464.959	16404.74
465.165	16273.67
465.37	15700.24
465.575	15141.14
465.781	15888.65
465.986	15767.82
466.191	15149.34
466.397	15018.27
466.602	14213.42
466.807	14821.66
467.012	14729.5
467.218	14725.41
467.423	14602.53
467.628	14610.72
467.833	15094.04
468.038	14573.86
468.244	14244.13
468.449	14840.09
