Data from USB4F104151__34__14-16-34-391.txt Node

Date: Thu Mar 13 14:16:34 EDT 2025
User: louis
Spectrometer: USB4F10415
Trigger mode: 4
Integration Time (sec): 2.000000E-2
Scans to average: 1
Electric dark correction enabled: true
Nonlinearity correction enabled: false
Boxcar width: 0
XAxis mode: Wavelengths
Number of Pixels in Spectrum: 3648
>>>>>Begin Spectral Data<<<<<
178.204	-51.2
178.424	-51.2
178.644	-51.2
178.864	-108.54
179.084	-120.83
179.304	2.05
179.524	-10.24
179.744	38.91
179.964	18.43
180.184	-4.1
180.404	-0
180.624	14.34
180.844	14.34
181.064	-71.68
181.283	-6.14
181.503	-34.82
181.723	38.91
181.943	67.58
182.163	38.91
182.383	6.14
182.602	120.83
182.822	55.3
183.042	24.58
183.262	-49.15
183.482	51.2
183.701	14.34
183.921	26.62
184.141	-18.43
184.361	28.67
184.58	-12.29
184.8	-24.58
185.02	30.72
185.239	69.63
185.459	57.34
185.679	-2.05
185.898	-75.77
186.118	10.24
186.338	6.14
186.557	2.05
186.777	-2.05
186.997	-22.53
187.216	22.53
187.436	83.97
187.655	-18.43
187.875	38.91
188.095	40.96
188.314	30.72
188.534	108.54
188.753	30.72
188.973	73.73
189.192	129.02
189.412	106.49
189.631	-77.82
189.851	38.91
190.07	79.87
190.29	75.77
190.509	22.53
190.729	63.49
190.948	55.3
191.168	79.87
191.387	51.2
191.607	81.92
191.826	81.92
192.045	-0
192.265	65.53
192.484	22.53
192.704	-49.15
192.923	-28.67
193.142	30.72
193.362	86.01
193.581	-10.24
193.8	-24.58
194.02	22.53
194.239	-4.1
194.458	-40.96
194.678	32.77
194.897	40.96
195.116	38.91
195.335	-10.24
195.555	139.26
195.774	51.2
195.993	-34.82
196.212	32.77
196.432	6.14
196.651	49.15
196.87	79.87
197.089	129.02
197.308	-8.19
197.528	-4.1
197.747	71.68
197.966	12.29
198.185	145.41
198.404	49.15
198.623	63.49
198.842	98.3
199.062	-8.19
199.281	40.96
199.5	22.53
199.719	47.1
199.938	55.3
200.157	63.49
200.376	24.58
200.595	106.49
200.814	40.96
201.033	94.21
201.252	59.39
201.471	61.44
201.69	108.54
201.909	30.72
202.128	10.24
202.347	-61.44
202.566	26.62
202.785	-6.14
203.004	96.25
203.223	57.34
203.442	-24.58
203.661	65.53
203.879	53.25
204.098	102.4
204.317	14.34
204.536	43.01
204.755	57.34
204.974	55.3
205.193	4.1
205.411	57.34
205.63	24.58
205.849	32.77
206.068	61.44
206.287	32.77
206.505	10.24
206.724	47.1
206.943	-10.24
207.162	24.58
207.381	45.06
207.599	18.43
207.818	-0
208.037	51.2
208.255	10.24
208.474	114.69
208.693	67.58
208.911	34.82
209.13	12.29
209.349	90.11
209.567	-18.43
209.786	65.53
210.005	-34.82
210.223	40.96
210.442	22.53
210.661	38.91
210.879	67.58
211.098	6.14
211.316	83.97
211.535	22.53
211.753	38.91
211.972	32.77
212.191	67.58
212.409	-18.43
212.628	32.77
212.846	22.53
213.065	98.3
213.283	63.49
213.502	-8.19
213.72	16.38
213.938	49.15
214.157	40.96
214.375	100.35
214.594	-22.53
214.812	12.29
215.031	-8.19
215.249	-18.43
215.467	61.44
215.686	34.82
215.904	-8.19
216.122	-8.19
216.341	88.06
216.559	16.38
216.778	-8.19
216.996	-24.58
217.214	-6.14
217.432	92.16
217.651	-4.1
217.869	-16.38
218.087	67.58
218.306	51.2
218.524	61.44
218.742	40.96
218.96	-2.05
219.179	8.19
219.397	34.82
219.615	32.77
219.833	-40.96
220.051	-57.34
220.27	30.72
220.488	-0
220.706	-49.15
220.924	30.72
221.142	6.14
221.36	43.01
221.578	6.14
221.796	102.4
222.015	45.06
222.233	24.58
222.451	102.4
222.669	26.62
222.887	67.58
223.105	20.48
223.323	-4.1
223.541	-8.19
223.759	59.39
223.977	47.1
224.195	69.63
224.413	14.34
224.631	22.53
224.849	30.72
225.067	100.35
225.285	26.62
225.503	-6.14
225.721	-16.38
225.939	71.68
226.157	-24.58
226.375	122.88
226.592	16.38
226.81	22.53
227.028	49.15
227.246	-2.05
227.464	43.01
227.682	49.15
227.9	34.82
228.117	12.29
228.335	67.58
228.553	28.67
228.771	38.91
228.989	79.87
229.206	8.19
229.424	57.34
229.642	30.72
229.86	-0
230.077	-14.34
230.295	32.77
230.513	51.2
230.731	16.38
230.948	14.34
231.166	-30.72
231.384	-57.34
231.601	34.82
231.819	122.88
232.037	57.34
232.254	6.14
232.472	34.82
232.689	-26.62
232.907	57.34
233.125	-59.39
233.342	8.19
233.56	-10.24
233.777	57.34
233.995	14.34
234.213	96.25
234.43	14.34
234.648	10.24
234.865	-6.14
235.083	120.83
235.3	12.29
235.518	18.43
235.735	133.12
235.953	4.1
236.17	45.06
236.388	-28.67
236.605	-28.67
236.822	104.45
237.04	67.58
237.257	26.62
237.475	-34.82
237.692	45.06
237.909	-16.38
238.127	16.38
238.344	26.62
238.562	75.77
238.779	40.96
238.996	24.58
239.214	-14.34
239.431	10.24
239.648	-36.86
239.865	40.96
240.083	73.73
240.3	22.53
240.517	10.24
240.735	-49.15
240.952	75.77
241.169	126.97
241.386	-18.43
241.603	53.25
241.821	-10.24
242.038	116.73
242.255	34.82
242.472	-6.14
242.689	79.87
242.907	65.53
243.124	-26.62
243.341	-2.05
243.558	63.49
243.775	-10.24
243.992	16.38
244.209	32.77
244.426	65.53
244.643	26.62
244.86	28.67
245.078	-16.38
245.295	104.45
245.512	100.35
245.729	2.05
245.946	-16.38
246.163	16.38
246.38	-2.05
246.597	14.34
246.814	65.53
247.031	-2.05
247.248	36.86
247.464	-10.24
247.681	22.53
247.898	45.06
248.115	108.54
248.332	-43.01
248.549	71.68
248.766	10.24
248.983	88.06
249.2	16.38
249.417	28.67
249.633	26.62
249.85	71.68
250.067	114.69
250.284	51.2
250.501	57.34
250.717	40.96
250.934	-51.2
251.151	57.34
251.368	-10.24
251.585	102.4
251.801	32.77
252.018	32.77
252.235	92.16
252.451	-36.86
252.668	2.05
252.885	90.11
253.102	59.39
253.318	47.1
253.535	-12.29
253.752	22.53
253.968	6.14
254.185	2.05
254.401	30.72
254.618	32.77
254.835	8.19
255.051	55.3
255.268	73.73
255.484	-45.06
255.701	-4.1
255.917	-4.1
256.134	63.49
256.351	30.72
256.567	-4.1
256.784	20.48
257	-2.05
257.217	71.68
257.433	114.69
257.65	34.82
257.866	53.25
258.082	30.72
258.299	12.29
258.515	73.73
258.732	22.53
258.948	-16.38
259.165	28.67
259.381	24.58
259.597	38.91
259.814	-51.2
260.03	30.72
260.246	38.91
260.463	-20.48
260.679	6.14
260.895	92.16
261.112	49.15
261.328	16.38
261.544	28.67
261.761	129.02
261.977	-40.96
262.193	-30.72
262.409	4.1
262.626	24.58
262.842	10.24
263.058	30.72
263.274	16.38
263.49	-45.06
263.707	12.29
263.923	38.91
264.139	-24.58
264.355	63.49
264.571	34.82
264.787	-18.43
265.004	100.35
265.22	2.05
265.436	-36.86
265.652	45.06
265.868	55.3
266.084	34.82
266.3	24.58
266.516	-6.14
266.732	10.24
266.948	47.1
267.164	32.77
267.38	61.44
267.596	-0
267.812	112.64
268.028	45.06
268.244	16.38
268.46	59.39
268.676	88.06
268.892	49.15
269.108	14.34
269.324	75.77
269.54	14.34
269.756	71.68
269.972	45.06
270.188	47.1
270.403	-57.34
270.619	-2.05
270.835	67.58
271.051	106.49
271.267	-18.43
271.483	-2.05
271.698	2.05
271.914	67.58
272.13	6.14
272.346	16.38
272.562	12.29
272.777	57.34
272.993	30.72
273.209	6.14
273.425	49.15
273.64	-47.1
273.856	106.49
274.072	-16.38
274.287	22.53
274.503	-16.38
274.719	98.3
274.934	14.34
275.15	18.43
275.366	16.38
275.581	55.3
275.797	38.91
276.012	8.19
276.228	40.96
276.444	96.25
276.659	49.15
276.875	-2.05
277.09	14.34
277.306	49.15
277.521	79.87
277.737	-28.67
277.952	28.67
278.168	34.82
278.383	-4.1
278.599	-47.1
278.814	40.96
279.03	-43.01
279.245	81.92
279.461	24.58
279.676	88.06
279.892	-24.58
280.107	43.01
280.322	-32.77
280.538	38.91
280.753	22.53
280.969	38.91
281.184	10.24
281.399	28.67
281.615	98.3
281.83	18.43
282.045	-2.05
282.26	34.82
282.476	102.4
282.691	88.06
282.906	45.06
283.122	22.53
283.337	34.82
283.552	14.34
283.767	-10.24
283.983	14.34
284.198	32.77
284.413	-10.24
284.628	-0
284.843	81.92
285.058	2.05
285.274	6.14
285.489	32.77
285.704	-8.19
285.919	-38.91
286.134	38.91
286.349	38.91
286.564	86.01
286.779	22.53
286.995	30.72
287.21	-51.2
287.425	-8.19
287.64	-14.34
287.855	88.06
288.07	-6.14
288.285	38.91
288.5	79.87
288.715	55.3
288.93	47.1
289.145	14.34
289.36	45.06
289.575	22.53
289.79	65.53
290.004	47.1
290.219	14.34
290.434	-0
290.649	57.34
290.864	55.3
291.079	34.82
291.294	116.73
291.509	26.62
291.724	6.14
291.938	79.87
292.153	71.68
292.368	47.1
292.583	38.91
292.798	55.3
293.012	71.68
293.227	6.14
293.442	22.53
293.657	81.92
293.871	129.02
294.086	-10.24
294.301	71.68
294.516	36.86
294.73	43.01
294.945	51.2
295.16	10.24
295.374	20.48
295.589	26.62
295.804	55.3
296.018	63.49
296.233	65.53
296.447	38.91
296.662	-14.34
296.877	34.82
297.091	79.87
297.306	6.14
297.52	-18.43
297.735	120.83
297.949	30.72
298.164	63.49
298.378	-34.82
298.593	55.3
298.807	40.96
299.022	104.45
299.236	71.68
299.451	51.2
299.665	40.96
299.88	51.2
300.094	10.24
300.309	73.73
300.523	49.15
300.737	2.05
300.952	55.3
301.166	69.63
301.381	30.72
301.595	-8.19
301.809	63.49
302.024	26.62
302.238	-63.49
302.452	79.87
302.667	16.38
302.881	102.4
303.095	40.96
303.309	18.43
303.524	-18.43
303.738	81.92
303.952	55.3
304.166	73.73
304.381	-16.38
304.595	55.3
304.809	18.43
305.023	36.86
305.237	43.01
305.452	-16.38
305.666	2.05
305.88	98.3
306.094	65.53
306.308	34.82
306.522	71.68
306.736	67.58
306.95	49.15
307.164	30.72
307.379	28.67
307.593	73.73
307.807	-4.1
308.021	92.16
308.235	75.77
308.449	-38.91
308.663	-14.34
308.877	73.73
309.091	24.58
309.305	79.87
309.519	59.39
309.733	16.38
309.947	10.24
310.161	55.3
310.374	4.1
310.588	106.49
310.802	-0
311.016	2.05
311.23	-0
311.444	26.62
311.658	59.39
311.872	104.45
312.085	71.68
312.299	104.45
312.513	100.35
312.727	57.34
312.941	-16.38
313.154	-4.1
313.368	61.44
313.582	57.34
313.796	-20.48
314.009	24.58
314.223	49.15
314.437	57.34
314.651	51.2
314.864	79.87
315.078	4.1
315.292	18.43
315.505	28.67
315.719	67.58
315.933	61.44
316.146	24.58
316.36	22.53
316.573	-0
316.787	22.53
317.001	47.1
317.214	-2.05
317.428	8.19
317.641	26.62
317.855	51.2
318.068	22.53
318.282	57.34
318.495	110.59
318.709	51.2
318.922	73.73
319.136	141.31
319.349	-8.19
319.563	88.06
319.776	57.34
319.99	71.68
320.203	20.48
320.417	30.72
320.63	57.34
320.843	96.25
321.057	-10.24
321.27	57.34
321.483	106.49
321.697	120.83
321.91	32.77
322.124	30.72
322.337	36.86
322.55	-10.24
322.763	59.39
322.977	40.96
323.19	-0
323.403	-4.1
323.617	-8.19
323.83	55.3
324.043	34.82
324.256	-18.43
324.469	-14.34
324.683	43.01
324.896	14.34
325.109	71.68
325.322	-32.77
325.535	104.45
325.748	86.01
325.962	-2.05
326.175	20.48
326.388	30.72
326.601	63.49
326.814	77.82
327.027	24.58
327.24	71.68
327.453	4.1
327.666	90.11
327.879	49.15
328.092	49.15
328.305	71.68
328.518	-16.38
328.731	-40.96
328.944	49.15
329.157	14.34
329.37	-16.38
329.583	36.86
329.796	96.25
330.009	-6.14
330.222	-38.91
330.435	22.53
330.648	57.34
330.861	16.38
331.073	-18.43
331.286	86.01
331.499	57.34
331.712	30.72
331.925	38.91
332.138	18.43
332.35	90.11
332.563	16.38
332.776	47.1
332.989	16.38
333.202	-8.19
333.414	-26.62
333.627	36.86
333.84	-18.43
334.053	77.82
334.265	24.58
334.478	-8.19
334.691	53.25
334.903	55.3
335.116	26.62
335.329	43.01
335.541	-4.1
335.754	51.2
335.966	63.49
336.179	55.3
336.392	16.38
336.604	112.64
336.817	14.34
337.029	63.49
337.242	20.48
337.454	112.64
337.667	65.53
337.88	30.72
338.092	73.73
338.305	30.72
338.517	38.91
338.729	55.3
338.942	22.53
339.154	-24.58
339.367	8.19
339.579	71.68
339.792	-10.24
340.004	73.73
340.217	51.2
340.429	51.2
340.641	-55.3
340.854	143.36
341.066	10.24
341.278	71.68
341.491	59.39
341.703	-2.05
341.915	65.53
342.128	34.82
342.34	22.53
342.552	69.63
342.764	43.01
342.977	71.68
343.189	26.62
343.401	114.69
343.613	-30.72
343.826	14.34
344.038	-8.19
344.25	34.82
344.462	55.3
344.674	83.97
344.886	-0
345.099	40.96
345.311	43.01
345.523	69.63
345.735	-30.72
345.947	40.96
346.159	6.14
346.371	65.53
346.583	16.38
346.795	90.11
347.007	32.77
347.219	96.25
347.431	-4.1
347.643	106.49
347.855	-12.29
348.067	120.83
348.279	73.73
348.491	16.38
348.703	16.38
348.915	73.73
349.127	88.06
349.339	61.44
349.551	30.72
349.763	124.93
349.975	106.49
350.187	51.2
350.399	51.2
350.61	65.53
350.822	40.96
351.034	34.82
351.246	-30.72
351.458	-14.34
351.669	-2.05
351.881	88.06
352.093	71.68
352.305	10.24
352.517	55.3
352.728	94.21
352.94	161.79
353.152	40.96
353.363	59.39
353.575	14.34
353.787	47.1
353.999	75.77
354.21	75.77
354.422	49.15
354.633	-24.58
354.845	20.48
355.057	67.58
355.268	24.58
355.48	63.49
355.692	83.97
355.903	24.58
356.115	22.53
356.326	-2.05
356.538	100.35
356.749	-8.19
356.961	88.06
357.172	38.91
357.384	45.06
357.595	149.5
357.807	75.77
358.018	30.72
358.23	-10.24
358.441	75.77
358.653	-4.1
358.864	2.05
359.075	-47.1
359.287	88.06
359.498	57.34
359.709	2.05
359.921	8.19
360.132	26.62
360.344	6.14
360.555	-16.38
360.766	59.39
360.977	43.01
361.189	86.01
361.4	34.82
361.611	-6.14
361.823	75.77
362.034	-0
362.245	-24.58
362.456	30.72
362.667	96.25
362.879	45.06
363.09	49.15
363.301	88.06
363.512	-26.62
363.723	-10.24
363.935	55.3
364.146	16.38
364.357	14.34
364.568	63.49
364.779	59.39
364.99	96.25
365.201	16.38
365.412	22.53
365.623	43.01
365.834	38.91
366.045	-38.91
366.256	24.58
366.467	67.58
366.678	26.62
366.889	24.58
367.1	65.53
367.311	71.68
367.522	47.1
367.733	38.91
367.944	86.01
368.155	59.39
368.366	22.53
368.577	65.53
368.788	40.96
368.999	4.1
369.209	81.92
369.42	147.45
369.631	124.93
369.842	24.58
370.053	77.82
370.264	8.19
370.474	71.68
370.685	114.69
370.896	8.19
371.107	30.72
371.317	92.16
371.528	51.2
371.739	81.92
371.95	43.01
372.16	14.34
372.371	-32.77
372.582	59.39
372.792	38.91
373.003	98.3
373.214	30.72
373.424	92.16
373.635	57.34
373.846	18.43
374.056	100.35
374.267	49.15
374.477	65.53
374.688	53.25
374.898	22.53
375.109	26.62
375.319	69.63
375.53	55.3
375.74	49.15
375.951	63.49
376.161	47.1
376.372	53.25
376.582	43.01
376.793	79.87
377.003	16.38
377.214	59.39
377.424	65.53
377.635	24.58
377.845	-8.19
378.055	51.2
378.266	-8.19
378.476	73.73
378.686	-16.38
378.897	73.73
379.107	26.62
379.317	-12.29
379.528	20.48
379.738	92.16
379.948	51.2
380.158	86.01
380.369	71.68
380.579	96.25
380.789	112.64
380.999	47.1
381.21	22.53
381.42	153.6
381.63	81.92
381.84	22.53
382.05	143.36
382.261	53.25
382.471	8.19
382.681	-49.15
382.891	112.64
383.101	69.63
383.311	-43.01
383.521	112.64
383.731	88.06
383.941	65.53
384.151	10.24
384.361	81.92
384.571	-2.05
384.781	120.83
384.991	141.31
385.201	106.49
385.411	73.73
385.621	-10.24
385.831	14.34
386.041	59.39
386.251	100.35
386.461	112.64
386.671	122.88
386.881	108.54
387.091	-10.24
387.301	43.01
387.511	122.88
387.72	114.69
387.93	26.62
388.14	77.82
388.35	-8.19
388.56	100.35
388.769	104.45
388.979	53.25
389.189	40.96
389.399	51.2
389.609	47.1
389.818	112.64
390.028	59.39
390.238	98.3
390.447	-0
390.657	24.58
390.867	40.96
391.076	47.1
391.286	145.41
391.496	120.83
391.705	40.96
391.915	81.92
392.125	118.78
392.334	75.77
392.544	133.12
392.753	75.77
392.963	129.02
393.172	94.21
393.382	26.62
393.591	145.41
393.801	45.06
394.01	53.25
394.22	38.91
394.429	129.02
394.639	126.97
394.848	141.31
395.058	86.01
395.267	79.87
395.477	65.53
395.686	61.44
395.895	20.48
396.105	145.41
396.314	81.92
396.524	22.53
396.733	120.83
396.942	112.64
397.152	49.15
397.361	61.44
397.57	180.22
397.78	155.65
397.989	63.49
398.198	139.26
398.407	98.3
398.617	22.53
398.826	129.02
399.035	169.98
399.244	133.12
399.453	38.91
399.663	79.87
399.872	126.97
400.081	79.87
400.29	104.45
400.499	22.53
400.708	133.12
400.917	120.83
401.127	106.49
401.336	122.88
401.545	104.45
401.754	165.89
401.963	96.25
402.172	143.36
402.381	38.91
402.59	65.53
402.799	194.56
403.008	235.52
403.217	165.89
403.426	165.89
403.635	65.53
403.844	129.02
404.053	110.59
404.262	133.12
404.471	223.23
404.68	131.07
404.888	210.94
405.097	102.4
405.306	116.73
405.515	81.92
405.724	69.63
405.933	124.93
406.142	161.79
406.35	229.37
406.559	145.41
406.768	155.65
406.977	243.71
407.185	178.17
407.394	258.04
407.603	186.37
407.812	184.32
408.02	303.1
408.229	260.09
408.438	210.94
408.646	202.75
408.855	286.72
409.064	219.13
409.272	182.27
409.481	321.53
409.69	253.95
409.898	286.72
410.107	301.05
410.315	241.66
410.524	317.44
410.733	333.82
410.941	319.48
411.15	356.35
411.358	393.21
411.567	460.79
411.775	391.16
411.984	327.67
412.192	456.7
412.401	374.78
412.609	432.12
412.818	526.33
413.026	528.38
413.234	497.66
413.443	595.96
413.651	581.62
413.86	540.66
414.068	604.15
414.276	622.58
414.485	577.53
414.693	645.11
414.901	573.43
415.11	686.07
415.318	802.8
415.526	737.27
415.734	686.07
415.943	808.95
416.151	802.8
416.359	849.91
416.567	833.52
416.776	817.14
416.984	901.11
417.192	927.73
417.4	958.45
417.608	874.48
417.817	1046.51
418.025	1161.2
418.233	1234.93
418.441	1058.8
418.649	1103.86
418.857	1234.93
419.065	1234.93
419.273	1204.21
419.481	1308.65
419.689	1374.19
419.897	1382.38
420.105	1417.19
420.313	1443.82
420.521	1515.5
420.729	1570.79
420.937	1560.55
421.145	1695.72
421.353	1689.57
421.561	1900.51
421.769	1808.36
421.977	1890.28
422.185	2017.25
422.393	2021.35
422.601	2283.49
422.809	2189.28
423.017	2275.29
423.224	2308.06
423.432	2432.99
423.64	2392.03
423.848	2559.96
424.056	2559.96
424.263	2791.38
424.471	2793.43
424.679	2828.24
424.887	2959.31
425.094	3108.82
425.302	3145.68
425.51	3221.45
425.718	3233.74
425.925	3385.29
426.133	3381.2
426.341	3608.52
426.548	3700.68
426.756	3704.78
426.964	3852.23
427.171	4044.74
427.379	4200.38
427.586	4218.82
427.794	4413.37
428.001	4575.16
428.209	4790.2
428.417	4687.8
428.624	5087.15
428.832	4972.47
429.039	5007.28
429.247	5085.11
429.454	5431.21
429.662	5849
429.869	5461.93
430.076	5832.61
430.284	5627.82
430.491	5928.87
430.699	6043.56
430.906	6334.37
431.114	6324.13
431.321	6580.12
431.528	6776.73
431.736	7124.88
431.943	7397.26
432.15	7329.68
432.358	7217.04
432.565	7528.33
432.772	7681.93
432.979	7919.5
433.187	8140.68
433.394	8200.07
433.601	8832.89
433.808	8898.42
434.016	8853.37
434.223	9021.3
434.43	9830.25
434.637	9471.86
434.844	10270.56
435.052	10245.99
435.259	10188.64
435.466	10303.33
435.673	10184.55
435.88	10600.29
436.087	11437.91
436.294	11218.77
436.501	11405.14
436.708	11650.89
436.915	11820.88
437.122	11980.62
437.329	12312.39
437.537	12537.66
437.743	12826.43
437.95	12717.89
438.157	13516.59
438.364	13776.69
438.571	13858.6
438.778	13819.69
438.985	14917.4
439.192	14767.9
439.399	15023.9
439.606	14561.06
439.813	15464.21
440.02	16541.44
440.227	16047.88
440.433	15830.8
440.64	16543.49
440.847	16592.64
441.054	16875.26
441.261	17958.64
441.467	17585.91
441.674	18210.54
441.881	18613.99
442.088	18691.81
442.294	18552.55
442.501	18720.48
442.708	19486.42
442.914	20080.33
443.121	21067.45
443.328	20649.67
443.534	21804.72
443.741	21208.76
443.948	20913.86
444.154	22470.31
444.361	22306.48
444.568	22953.63
444.774	22521.51
444.981	22767.27
445.187	23414.43
445.394	24391.31
445.6	24217.23
445.807	26244.72
446.013	25175.68
446.22	25738.87
446.426	26574.44
446.633	27111.01
446.839	27747.93
447.046	26687.08
447.252	28192.34
447.459	27870.81
447.665	28180.05
447.871	29240.9
448.078	30426.67
448.284	29236.8
448.491	29830.71
448.697	30912.04
448.903	31456.8
449.11	31118.89
449.316	31198.76
449.522	31858.2
449.728	32353.81
449.935	32933.39
450.141	32421.39
450.347	33459.71
450.553	32527.89
450.76	33150.47
450.966	33775.1
451.172	33607.17
451.378	34303.48
451.584	33707.52
451.791	34293.24
451.997	34418.16
452.203	34858.48
452.409	34801.13
452.615	35089.9
452.821	33271.3
453.027	33263.11
453.233	34803.18
453.44	33670.65
453.646	33797.63
453.852	34072.06
454.058	34969.07
454.264	33332.74
454.47	34303.48
454.676	33465.86
454.882	34196.98
455.088	31501.86
455.294	32095.77
455.5	32855.56
455.705	33144.33
455.911	31602.21
456.117	30815.79
456.323	30570.03
456.529	29312.58
456.735	29955.64
456.941	29369.92
457.147	29027.91
457.352	28192.34
457.558	28089.94
457.764	27879
457.97	27391.58
458.176	26826.34
458.381	26707.56
458.587	25429.63
458.793	25468.54
458.999	24444.56
459.204	25650.81
459.41	25214.59
459.616	23471.77
459.821	23695
460.027	23451.29
460.233	22804.13
460.438	22015.66
460.644	22077.1
460.85	21276.35
461.055	20805.31
461.261	20565.7
461.466	19275.48
461.672	18732.77
461.878	19963.6
462.083	18831.07
462.289	18284.26
462.494	18392.81
462.7	17227.51
462.905	17245.94
463.111	17383.16
463.316	17256.18
463.522	17184.51
463.727	17106.68
463.932	17299.19
464.138	16762.62
464.343	17065.72
464.549	16598.79
464.754	17157.88
464.959	16709.38
465.165	16584.45
465.37	16045.84
465.575	15539.99
465.781	16357.13
465.986	16742.14
466.191	15679.25
466.397	15488.79
466.602	14647.07
466.807	15533.84
467.012	15406.87
467.218	15197.98
467.423	15136.54
467.628	15025.95
467.833	15695.63
