Data from USB4F104151__225__14-21-38-010.txt Node

Date: Thu Mar 13 14:21:38 EDT 2025
User: louis
Spectrometer: USB4F10415
Trigger mode: 4
Integration Time (sec): 2.000000E-2
Scans to average: 1
Electric dark correction enabled: true
Nonlinearity correction enabled: false
Boxcar width: 0
XAxis mode: Wavelengths
Number of Pixels in Spectrum: 3648
>>>>>Begin Spectral Data<<<<<
178.204	-110.08
178.424	-110.08
178.644	-110.08
178.864	-87.55
179.084	-185.85
179.304	-52.74
179.524	-30.21
179.744	-13.82
179.964	68.09
180.184	59.9
180.404	-13.82
180.624	12.8
180.844	-46.59
181.064	-44.54
181.283	18.94
181.503	-13.82
181.723	55.81
181.943	-46.59
182.163	53.76
182.383	29.18
182.602	-19.97
182.822	59.9
183.042	39.42
183.262	-22.02
183.482	-40.45
183.701	18.94
183.921	113.15
184.141	18.94
184.361	53.76
184.58	8.7
184.8	-5.63
185.02	2.56
185.239	4.61
185.459	14.85
185.679	86.53
185.898	35.33
186.118	70.14
186.338	37.38
186.557	59.9
186.777	35.33
186.997	59.9
187.216	-13.82
187.436	-11.78
187.655	-5.63
187.875	98.81
188.095	14.85
188.314	51.71
188.534	88.57
188.753	84.48
188.973	0.51
189.192	27.14
189.412	-24.06
189.631	18.94
189.851	23.04
190.07	68.09
190.29	-13.82
190.509	29.18
190.729	23.04
190.948	84.48
191.168	137.73
191.387	-11.78
191.607	10.75
191.826	92.67
192.045	68.09
192.265	76.29
192.484	10.75
192.704	-13.82
192.923	-28.16
193.142	61.95
193.362	43.52
193.581	47.62
193.8	35.33
194.02	-22.02
194.239	12.8
194.458	51.71
194.678	92.67
194.897	80.38
195.116	-11.78
195.335	18.94
195.555	68.09
195.774	-62.98
195.993	51.71
196.212	70.14
196.432	4.61
196.651	78.33
196.87	-5.63
197.089	100.86
197.308	45.57
197.528	27.14
197.747	-13.82
197.966	25.09
198.185	-1.54
198.404	68.09
198.623	104.96
198.842	72.19
199.062	-5.63
199.281	84.48
199.5	0.51
199.719	2.56
199.938	64
200.157	53.76
200.376	92.67
200.595	76.29
200.814	39.42
201.033	57.86
201.252	41.47
201.471	20.99
201.69	59.9
201.909	51.71
202.128	16.9
202.347	-11.78
202.566	2.56
202.785	-5.63
203.004	-7.68
203.223	61.95
203.442	45.57
203.661	39.42
203.879	12.8
204.098	78.33
204.317	10.75
204.536	80.38
204.755	-19.97
204.974	72.19
205.193	51.71
205.411	94.72
205.63	51.71
205.849	-1.54
206.068	74.24
206.287	-9.73
206.505	55.81
206.724	2.56
206.943	10.75
207.162	66.05
207.381	37.38
207.599	-44.54
207.818	35.33
208.037	64
208.255	-28.16
208.474	102.91
208.693	61.95
208.911	-22.02
209.13	45.57
209.349	-19.97
209.567	8.7
209.786	109.05
210.005	55.81
210.223	72.19
210.442	-17.92
210.661	-9.73
210.879	92.67
211.098	29.18
211.316	-19.97
211.535	-1.54
211.753	27.14
211.972	47.62
212.191	49.66
212.409	35.33
212.628	76.29
212.846	18.94
213.065	29.18
213.283	72.19
213.502	2.56
213.72	16.9
213.938	12.8
214.157	100.86
214.375	12.8
214.594	-7.68
214.812	74.24
215.031	88.57
215.249	-46.59
215.467	61.95
215.686	-17.92
215.904	119.29
216.122	74.24
216.341	86.53
216.559	-13.82
216.778	-13.82
216.996	92.67
217.214	59.9
217.432	2.56
217.651	51.71
217.869	39.42
218.087	27.14
218.306	12.8
218.524	74.24
218.742	-13.82
218.96	109.05
219.179	33.28
219.397	10.75
219.615	10.75
219.833	18.94
220.051	-19.97
220.27	100.86
220.488	59.9
220.706	59.9
220.924	10.75
221.142	20.99
221.36	-13.82
221.578	31.23
221.796	18.94
222.015	92.67
222.233	33.28
222.451	96.77
222.669	12.8
222.887	18.94
223.105	-22.02
223.323	18.94
223.541	-19.97
223.759	68.09
223.977	45.57
224.195	86.53
224.413	14.85
224.631	86.53
224.849	23.04
225.067	98.81
225.285	-17.92
225.503	53.76
225.721	-46.59
225.939	43.52
226.157	18.94
226.375	86.53
226.592	14.85
226.81	35.33
227.028	-28.16
227.246	162.3
227.464	10.75
227.682	55.81
227.9	35.33
228.117	78.33
228.335	47.62
228.553	45.57
228.771	-54.78
228.989	129.53
229.206	-30.21
229.424	35.33
229.642	43.52
229.86	-11.78
230.077	43.52
230.295	96.77
230.513	145.92
230.731	33.28
230.948	43.52
231.166	59.9
231.384	37.38
231.601	78.33
231.819	70.14
232.037	18.94
232.254	51.71
232.472	80.38
232.689	-46.59
232.907	33.28
233.125	41.47
233.342	39.42
233.56	27.14
233.777	37.38
233.995	35.33
234.213	86.53
234.43	61.95
234.648	68.09
234.865	92.67
235.083	43.52
235.3	47.62
235.518	27.14
235.735	78.33
235.953	2.56
236.17	59.9
236.388	41.47
236.605	25.09
236.822	55.81
237.04	14.85
237.257	45.57
237.475	59.9
237.692	102.91
237.909	78.33
238.127	43.52
238.344	35.33
238.562	20.99
238.779	-5.63
238.996	35.33
239.214	66.05
239.431	88.57
239.648	27.14
239.865	-19.97
240.083	68.09
240.3	104.96
240.517	-30.21
240.735	86.53
240.952	51.71
241.169	68.09
241.386	2.56
241.603	70.14
241.821	51.71
242.038	70.14
242.255	141.82
242.472	51.71
242.689	-3.58
242.907	78.33
243.124	35.33
243.341	-3.58
243.558	-5.63
243.775	86.53
243.992	88.57
244.209	-87.55
244.426	59.9
244.643	43.52
244.86	27.14
245.078	78.33
245.295	29.18
245.512	70.14
245.729	27.14
245.946	70.14
246.163	51.71
246.38	53.76
246.597	4.61
246.814	51.71
247.031	18.94
247.248	43.52
247.464	10.75
247.681	51.71
247.898	-13.82
248.115	64
248.332	27.14
248.549	88.57
248.766	6.66
248.983	111.1
249.2	45.57
249.417	51.71
249.633	100.86
249.85	59.9
250.067	-38.4
250.284	0.51
250.501	51.71
250.717	94.72
250.934	-38.4
251.151	59.9
251.368	59.9
251.585	43.52
251.801	12.8
252.018	-62.98
252.235	72.19
252.451	61.95
252.668	35.33
252.885	84.48
253.102	-3.58
253.318	-5.63
253.535	8.7
253.752	47.62
253.968	35.33
254.185	-3.58
254.401	-22.02
254.618	27.14
254.835	27.14
255.051	18.94
255.268	-5.63
255.484	29.18
255.701	29.18
255.917	55.81
256.134	6.66
256.351	-5.63
256.567	37.38
256.784	-110.08
257	18.94
257.217	145.92
257.433	14.85
257.65	68.09
257.866	49.66
258.082	-22.02
258.299	84.48
258.515	4.61
258.732	-13.82
258.948	-60.93
259.165	23.04
259.381	70.14
259.597	78.33
259.814	102.91
260.03	-15.87
260.246	27.14
260.463	35.33
260.679	43.52
260.895	18.94
261.112	74.24
261.328	8.7
261.544	20.99
261.761	160.25
261.977	-7.68
262.193	29.18
262.409	25.09
262.626	4.61
262.842	61.95
263.058	35.33
263.274	59.9
263.49	39.42
263.707	16.9
263.923	-1.54
264.139	76.29
264.355	49.66
264.571	90.62
264.787	82.43
265.004	74.24
265.22	-1.54
265.436	31.23
265.652	2.56
265.868	45.57
266.084	104.96
266.3	125.44
266.516	37.38
266.732	2.56
266.948	18.94
267.164	47.62
267.38	45.57
267.596	51.71
267.812	33.28
268.028	53.76
268.244	23.04
268.46	20.99
268.676	57.86
268.892	18.94
269.108	43.52
269.324	-19.97
269.54	43.52
269.756	23.04
269.972	10.75
270.188	-13.82
270.403	37.38
270.619	92.67
270.835	59.9
271.051	55.81
271.267	-38.4
271.483	84.48
271.698	31.23
271.914	96.77
272.13	-26.11
272.346	4.61
272.562	16.9
272.777	78.33
272.993	29.18
273.209	43.52
273.425	125.44
273.64	-67.07
273.856	-19.97
274.072	-9.73
274.287	4.61
274.503	66.05
274.719	8.7
274.934	51.71
275.15	29.18
275.366	76.29
275.581	111.1
275.797	20.99
276.012	154.11
276.228	10.75
276.444	4.61
276.659	39.42
276.875	-11.78
277.09	35.33
277.306	59.9
277.521	104.96
277.737	61.95
277.952	100.86
278.168	-17.92
278.383	27.14
278.599	45.57
278.814	37.38
279.03	59.9
279.245	123.39
279.461	74.24
279.676	20.99
279.892	127.49
280.107	70.14
280.322	-19.97
280.538	35.33
280.753	16.9
280.969	-5.63
281.184	72.19
281.399	109.05
281.615	-11.78
281.83	84.48
282.045	27.14
282.26	14.85
282.476	-24.06
282.691	96.77
282.906	14.85
283.122	51.71
283.337	-15.87
283.552	98.81
283.767	43.52
283.983	27.14
284.198	16.9
284.413	10.75
284.628	31.23
284.843	35.33
285.058	23.04
285.274	41.47
285.489	14.85
285.704	39.42
285.919	27.14
286.134	-15.87
286.349	6.66
286.564	31.23
286.779	-44.54
286.995	12.8
287.21	27.14
287.425	-5.63
287.64	33.28
287.855	133.63
288.07	25.09
288.285	92.67
288.5	55.81
288.715	76.29
288.93	61.95
289.145	23.04
289.36	51.71
289.575	-3.58
289.79	-13.82
290.004	51.71
290.219	139.77
290.434	51.71
290.649	-5.63
290.864	2.56
291.079	12.8
291.294	47.62
291.509	-30.21
291.724	35.33
291.938	18.94
292.153	47.62
292.368	-75.26
292.583	37.38
292.798	51.71
293.012	23.04
293.227	-13.82
293.442	43.52
293.657	76.29
293.871	76.29
294.086	2.56
294.301	133.63
294.516	68.09
294.73	4.61
294.945	53.76
295.16	51.71
295.374	61.95
295.589	59.9
295.804	-69.12
296.018	-30.21
296.233	59.9
296.447	72.19
296.662	-3.58
296.877	10.75
297.091	94.72
297.306	59.9
297.52	-17.92
297.735	39.42
297.949	70.14
298.164	84.48
298.378	8.7
298.593	-75.26
298.807	59.9
299.022	10.75
299.236	59.9
299.451	37.38
299.665	68.09
299.88	12.8
300.094	160.25
300.309	70.14
300.523	59.9
300.737	20.99
300.952	68.09
301.166	68.09
301.381	-9.73
301.595	94.72
301.809	51.71
302.024	80.38
302.238	31.23
302.452	27.14
302.667	43.52
302.881	92.67
303.095	78.33
303.309	20.99
303.524	18.94
303.738	10.75
303.952	18.94
304.166	68.09
304.381	14.85
304.595	64
304.809	49.66
305.023	55.81
305.237	18.94
305.452	43.52
305.666	-3.58
305.88	88.57
306.094	61.95
306.308	141.82
306.522	8.7
306.736	64
306.95	53.76
307.164	84.48
307.379	4.61
307.593	102.91
307.807	107.01
308.021	43.52
308.235	45.57
308.449	-69.12
308.663	-5.63
308.877	133.63
309.091	-5.63
309.305	45.57
309.519	10.75
309.733	20.99
309.947	68.09
310.161	43.52
310.374	119.29
310.588	135.68
310.802	-32.26
311.016	-19.97
311.23	27.14
311.444	-34.3
311.658	27.14
311.872	43.52
312.085	96.77
312.299	178.69
312.513	84.48
312.727	47.62
312.941	68.09
313.154	53.76
313.368	41.47
313.582	-30.21
313.796	61.95
314.009	49.66
314.223	29.18
314.437	-5.63
314.651	72.19
314.864	59.9
315.078	82.43
315.292	47.62
315.505	72.19
315.719	86.53
315.933	80.38
316.146	59.9
316.36	-3.58
316.573	84.48
316.787	39.42
317.001	-5.63
317.214	6.66
317.428	53.76
317.641	-19.97
317.855	47.62
318.068	31.23
318.282	80.38
318.495	113.15
318.709	25.09
318.922	59.9
319.136	90.62
319.349	76.29
319.563	-60.93
319.776	61.95
319.99	10.75
320.203	59.9
320.417	-44.54
320.63	16.9
320.843	51.71
321.057	88.57
321.27	4.61
321.483	41.47
321.697	76.29
321.91	2.56
322.124	59.9
322.337	96.77
322.55	25.09
322.763	-5.63
322.977	4.61
323.19	-26.11
323.403	27.14
323.617	-5.63
323.83	96.77
324.043	51.71
324.256	84.48
324.469	31.23
324.683	39.42
324.896	-5.63
325.109	86.53
325.322	31.23
325.535	84.48
325.748	53.76
325.962	10.75
326.175	23.04
326.388	43.52
326.601	61.95
326.814	37.38
327.027	61.95
327.24	49.66
327.453	-11.78
327.666	43.52
327.879	109.05
328.092	86.53
328.305	35.33
328.518	37.38
328.731	41.47
328.944	2.56
329.157	70.14
329.37	43.52
329.583	111.1
329.796	86.53
330.009	27.14
330.222	16.9
330.435	37.38
330.648	53.76
330.861	88.57
331.073	-46.59
331.286	164.35
331.499	0.51
331.712	55.81
331.925	117.25
332.138	-17.92
332.35	102.91
332.563	12.8
332.776	45.57
332.989	-34.3
333.202	51.71
333.414	29.18
333.627	74.24
333.84	27.14
334.053	107.01
334.265	55.81
334.478	43.52
334.691	-19.97
334.903	98.81
335.116	-3.58
335.329	12.8
335.541	47.62
335.754	78.33
335.966	41.47
336.179	-30.21
336.392	53.76
336.604	47.62
336.817	78.33
337.029	33.28
337.242	-11.78
337.454	25.09
337.667	-9.73
337.88	68.09
338.092	90.62
338.305	100.86
338.517	-5.63
338.729	10.75
338.942	100.86
339.154	4.61
339.367	-22.02
339.579	43.52
339.792	14.85
340.004	125.44
340.217	14.85
340.429	39.42
340.641	96.77
340.854	72.19
341.066	-17.92
341.278	43.52
341.491	107.01
341.703	18.94
341.915	78.33
342.128	-5.63
342.34	59.9
342.552	4.61
342.764	0.51
342.977	37.38
343.189	92.67
343.401	55.81
343.613	55.81
343.826	31.23
344.038	20.99
344.25	45.57
344.462	-89.6
344.674	43.52
344.886	39.42
345.099	33.28
345.311	47.62
345.523	18.94
345.735	29.18
345.947	68.09
346.159	55.81
346.371	55.81
346.583	109.05
346.795	84.48
347.007	41.47
347.219	51.71
347.431	-38.4
347.643	64
347.855	88.57
348.067	119.29
348.279	29.18
348.491	-3.58
348.703	20.99
348.915	-34.3
349.127	20.99
349.339	64
349.551	25.09
349.763	117.25
349.975	41.47
350.187	113.15
350.399	141.82
350.61	96.77
350.822	45.57
351.034	115.2
351.246	68.09
351.458	84.48
351.669	137.73
351.881	55.81
352.093	45.57
352.305	100.86
352.517	16.9
352.728	29.18
352.94	55.81
353.152	12.8
353.363	8.7
353.575	72.19
353.787	51.71
353.999	41.47
354.21	141.82
354.422	68.09
354.633	20.99
354.845	10.75
355.057	53.76
355.268	35.33
355.48	51.71
355.692	14.85
355.903	92.67
356.115	51.71
356.326	-13.82
356.538	82.43
356.749	61.95
356.961	61.95
357.172	-11.78
357.384	59.9
357.595	35.33
357.807	29.18
358.018	20.99
358.23	76.29
358.441	96.77
358.653	16.9
358.864	84.48
359.075	33.28
359.287	43.52
359.498	115.2
359.709	96.77
359.921	39.42
360.132	55.81
360.344	27.14
360.555	-9.73
360.766	18.94
360.977	64
361.189	80.38
361.4	43.52
361.611	76.29
361.823	43.52
362.034	70.14
362.245	51.71
362.456	45.57
362.667	88.57
362.879	51.71
363.09	109.05
363.301	39.42
363.512	27.14
363.723	35.33
363.935	70.14
364.146	94.72
364.357	-7.68
364.568	-9.73
364.779	2.56
364.99	55.81
365.201	68.09
365.412	74.24
365.623	2.56
365.834	72.19
366.045	37.38
366.256	84.48
366.467	64
366.678	104.96
366.889	51.71
367.1	96.77
367.311	47.62
367.522	66.05
367.733	-30.21
367.944	68.09
368.155	8.7
368.366	31.23
368.577	51.71
368.788	53.76
368.999	-3.58
369.209	10.75
369.42	72.19
369.631	94.72
369.842	39.42
370.053	35.33
370.264	0.51
370.474	94.72
370.685	109.05
370.896	45.57
371.107	-1.54
371.317	37.38
371.528	127.49
371.739	86.53
371.95	70.14
372.16	88.57
372.371	41.47
372.582	182.78
372.792	119.29
373.003	88.57
373.214	100.86
373.424	125.44
373.635	-9.73
373.846	127.49
374.056	-13.82
374.267	-9.73
374.477	88.57
374.688	59.9
374.898	125.44
375.109	37.38
375.319	53.76
375.53	133.63
375.74	45.57
375.951	88.57
376.161	66.05
376.372	61.95
376.582	100.86
376.793	61.95
377.003	98.81
377.214	64
377.424	113.15
377.635	61.95
377.845	2.56
378.055	29.18
378.266	45.57
378.476	51.71
378.686	18.94
378.897	59.9
379.107	39.42
379.317	39.42
379.528	100.86
379.738	141.82
379.948	61.95
380.158	76.29
380.369	43.52
380.579	137.73
380.789	43.52
380.999	100.86
381.21	68.09
381.42	96.77
381.63	-46.59
381.84	43.52
382.05	70.14
382.261	131.58
382.471	18.94
382.681	160.25
382.891	139.77
383.101	115.2
383.311	98.81
383.521	84.48
383.731	113.15
383.941	119.29
384.151	53.76
384.361	4.61
384.571	70.14
384.781	27.14
384.991	109.05
385.201	86.53
385.411	92.67
385.621	29.18
385.831	100.86
386.041	76.29
386.251	-28.16
386.461	80.38
386.671	57.86
386.881	43.52
387.091	86.53
387.301	47.62
387.511	39.42
387.72	111.1
387.93	23.04
388.14	39.42
388.35	23.04
388.56	88.57
388.769	18.94
388.979	64
389.189	25.09
389.399	27.14
389.609	109.05
389.818	100.86
390.028	82.43
390.238	45.57
390.447	37.38
390.657	18.94
390.867	27.14
391.076	53.76
391.286	59.9
391.496	70.14
391.705	96.77
391.915	131.58
392.125	88.57
392.334	104.96
392.544	117.25
392.753	51.71
392.963	70.14
393.172	23.04
393.382	-38.4
393.591	111.1
393.801	125.44
394.01	121.34
394.22	10.75
394.429	78.33
394.639	55.81
394.848	76.29
395.058	88.57
395.267	109.05
395.477	27.14
395.686	84.48
395.895	190.97
396.105	92.67
396.314	152.06
396.524	156.16
396.733	86.53
396.942	84.48
397.152	119.29
397.361	152.06
397.57	92.67
397.78	117.25
397.989	119.29
398.198	168.45
398.407	96.77
398.617	76.29
398.826	35.33
399.035	72.19
399.244	121.34
399.453	96.77
399.663	143.87
399.872	182.78
400.081	123.39
400.29	113.15
400.499	100.86
400.708	121.34
400.917	121.34
401.127	80.38
401.336	113.15
401.545	133.63
401.754	121.34
401.963	141.82
402.172	152.06
402.381	190.97
402.59	152.06
402.799	145.92
403.008	88.57
403.217	129.53
403.426	186.88
403.635	141.82
403.844	143.87
404.053	176.64
404.262	119.29
404.471	246.27
404.68	233.98
404.888	186.88
405.097	260.6
405.306	213.5
405.515	209.4
405.724	203.26
405.933	188.93
406.142	215.55
406.35	229.88
406.559	174.59
406.768	244.22
406.977	252.41
407.185	272.89
407.394	166.4
407.603	213.5
407.812	248.32
408.02	301.56
408.229	190.97
408.438	283.13
408.646	225.79
408.855	207.36
409.064	305.66
409.272	248.32
409.481	356.86
409.69	303.61
409.898	303.61
410.107	358.91
410.315	395.77
410.524	412.15
410.733	436.73
410.941	375.29
411.15	406.01
411.358	416.25
411.567	387.58
411.775	383.48
411.984	422.39
412.192	510.46
412.401	455.16
412.609	463.35
412.818	512.5
413.026	602.61
413.234	561.66
413.443	590.33
413.651	616.95
413.86	633.33
414.068	668.15
414.276	686.58
414.485	647.67
414.693	762.36
414.901	782.84
415.11	815.6
415.318	784.88
415.526	707.06
415.734	840.18
415.943	862.71
416.151	913.91
416.359	887.28
416.567	991.73
416.776	995.82
416.984	1100.27
417.192	1083.89
417.4	1149.42
417.608	1014.26
417.817	1255.92
418.025	1282.54
418.233	1288.68
418.441	1331.69
418.649	1307.12
418.857	1450.47
419.065	1489.39
419.273	1415.66
419.481	1356.27
419.689	1552.87
419.897	1653.22
420.105	1688.04
420.313	1659.37
420.521	1821.16
420.729	1755.62
420.937	1833.44
421.145	1896.93
421.353	2054.62
421.561	2173.41
421.769	2148.83
421.977	2189.79
422.185	2275.81
422.393	2329.05
422.601	2417.12
422.809	2361.82
423.017	2560.47
423.224	2476.51
423.432	2787.8
423.64	2793.94
423.848	2935.25
424.056	2886.1
424.263	2990.55
424.471	3164.62
424.679	3244.49
424.887	3445.2
425.094	3373.52
425.302	3459.53
425.51	3568.07
425.718	3606.98
425.925	3750.34
426.133	4037.06
426.341	4049.35
426.548	4368.83
426.756	4235.71
426.964	4299.2
427.171	4551.1
427.379	4784.57
427.586	4776.38
427.794	4893.11
428.001	5284.27
428.209	5403.05
428.417	5327.28
428.624	5710.25
428.832	5540.27
429.039	5511.6
429.247	5734.82
429.454	6115.75
429.662	6500.76
429.869	5935.53
430.076	6513.05
430.284	6375.84
430.491	6779.29
430.699	6934.93
430.906	7203.22
431.114	6920.6
431.321	7152.02
431.528	7375.25
431.736	7956.87
431.943	8440.19
432.15	8108.42
432.358	8225.15
432.565	8788.35
432.772	8671.61
432.979	9060.73
433.187	9126.26
433.394	9154.93
433.601	9841
433.808	10070.37
434.016	9658.73
434.223	10248.55
434.43	10940.76
434.637	10647.9
434.844	11540.82
435.052	11438.42
435.259	11604.3
435.466	11549.01
435.673	11520.34
435.88	12126.53
436.087	12749.12
436.294	12572.99
436.501	12544.32
436.708	12828.99
436.915	13207.86
437.122	13756.72
437.329	13771.05
437.537	14305.57
437.743	14518.56
437.95	14403.88
438.157	15096.09
438.364	15509.78
438.571	15534.35
438.778	15784.21
438.985	16943.36
439.192	16273.67
439.399	16974.08
439.606	16445.7
439.813	17615.09
440.02	18493.67
440.227	18129.13
440.433	17936.62
440.64	18510.05
440.847	18258.15
441.054	18761.95
441.261	20130
441.467	19812.56
441.674	20379.85
441.881	20877.51
442.088	20764.87
442.294	20613.32
442.501	21274.81
442.708	21899.44
442.914	22870.18
443.121	23593.11
443.328	22773.92
443.534	24514.7
443.741	23990.42
443.948	23517.34
444.154	25145.47
444.361	24803.46
444.568	25208.96
444.774	25153.66
444.981	25434.24
445.187	25960.56
445.394	27097.19
445.6	26583.15
445.807	29067.33
446.013	28139.6
446.22	28837.96
446.426	29550.65
446.633	30038.07
446.839	31000.61
447.046	29481.02
447.252	31436.83
447.459	31158.31
447.665	31080.49
447.871	32716.81
448.078	34047.99
448.284	32411.67
448.491	33536
448.697	34215.93
448.903	35506.15
449.11	34977.77
449.316	34789.36
449.522	35264.49
449.728	36575.19
449.935	36425.68
450.141	36546.51
450.347	37367.75
450.553	36423.64
450.76	36923.34
450.966	38141.88
451.172	37484.48
451.378	38485.94
451.584	37367.75
451.791	38647.73
451.997	38340.53
452.203	39223.21
452.409	39194.54
452.615	38952.88
452.821	37048.27
453.027	36970.44
453.233	39053.23
453.44	37605.31
453.646	37740.48
453.852	37851.07
454.058	38672.31
454.264	37205.96
454.47	38657.97
454.676	37175.24
454.882	38449.08
455.088	35188.71
455.294	36267.99
455.5	36190.17
455.705	36655.06
455.911	35039.21
456.117	34600.94
456.323	34131.96
456.529	32143.38
456.735	33597.44
456.941	33159.17
457.147	32385.04
457.352	31709.21
457.558	30693.42
457.764	31217.7
457.97	30480.43
458.176	29673.53
458.381	29907
458.587	28371.02
458.793	28633.16
458.999	26966.12
459.204	28899.4
459.41	28282.96
459.616	26118.26
459.821	26335.34
460.027	26312.81
460.233	25858.17
460.438	24447.11
460.644	25061.51
460.85	23658.65
461.055	23273.63
461.261	23335.07
461.466	21633.21
461.672	21031.1
461.878	22315.18
462.083	20879.55
462.289	20656.32
462.494	20451.53
462.7	19280.09
462.905	18909.41
463.111	19712.21
463.316	19605.72
463.522	19232.99
463.727	19249.37
463.932	19429.59
464.138	18940.13
464.343	19101.92
464.549	18321.64
464.754	19325.15
464.959	19228.89
465.165	18780.39
465.37	17961.2
465.575	17727.73
465.781	18362.6
465.986	18249.96
466.191	17627.38
466.397	17340.66
466.602	16445.7
466.807	17158.39
467.012	17260.79
467.218	16974.08
