Data from USB4F104151__171__14-19-57-258.txt Node

Date: Thu Mar 13 14:19:57 EDT 2025
User: louis
Spectrometer: USB4F10415
Trigger mode: 4
Integration Time (sec): 2.000000E-2
Scans to average: 1
Electric dark correction enabled: true
Nonlinearity correction enabled: false
Boxcar width: 0
XAxis mode: Wavelengths
Number of Pixels in Spectrum: 3648
>>>>>Begin Spectral Data<<<<<
178.204	-68.27
178.424	-68.27
178.644	-68.27
178.864	-129.7
179.084	-58.03
179.304	21.84
179.524	-17.07
179.744	-25.26
179.964	13.65
180.184	40.28
180.404	-17.07
180.624	34.13
180.844	-82.6
181.064	-8.87
181.283	-17.07
181.503	13.65
181.723	44.37
181.943	3.41
182.163	103.76
182.383	79.19
182.602	-0.68
182.822	5.46
183.042	27.99
183.262	-29.35
183.482	34.13
183.701	-21.16
183.921	7.51
184.141	-21.16
184.361	-6.83
184.58	-21.16
184.8	1.37
185.02	13.65
185.239	60.76
185.459	21.84
185.679	9.56
185.898	34.13
186.118	40.28
186.338	-27.31
186.557	40.28
186.777	9.56
186.997	1.37
187.216	32.08
187.436	56.66
187.655	7.51
187.875	30.04
188.095	30.04
188.314	21.84
188.534	50.52
188.753	25.94
188.973	64.85
189.192	44.37
189.412	64.85
189.631	97.62
189.851	38.23
190.07	54.61
190.29	17.75
190.509	17.75
190.729	-4.78
190.948	21.84
191.168	154.96
191.387	99.67
191.607	-23.21
191.826	56.66
192.045	38.23
192.265	54.61
192.484	21.84
192.704	89.43
192.923	-64.17
193.142	95.57
193.362	-31.4
193.581	64.85
193.8	71
194.02	38.23
194.239	13.65
194.458	23.89
194.678	25.94
194.897	46.42
195.116	-35.5
195.335	40.28
195.555	25.94
195.774	95.57
195.993	79.19
196.212	46.42
196.432	19.8
196.651	-55.98
196.87	-15.02
197.089	58.71
197.308	73.04
197.528	-25.26
197.747	54.61
197.966	30.04
198.185	66.9
198.404	9.56
198.623	-6.83
198.842	-27.31
199.062	-8.87
199.281	27.99
199.5	1.37
199.719	9.56
199.938	-15.02
200.157	62.8
200.376	-10.92
200.595	62.8
200.814	38.23
201.033	-19.11
201.252	66.9
201.471	-6.83
201.69	81.24
201.909	-25.26
202.128	-27.31
202.347	11.61
202.566	-10.92
202.785	-27.31
203.004	40.28
203.223	126.29
203.442	7.51
203.661	54.61
203.879	-43.69
204.098	38.23
204.317	-58.03
204.536	68.95
204.755	46.42
204.974	19.8
205.193	48.47
205.411	95.57
205.63	34.13
205.849	23.89
206.068	5.46
206.287	21.84
206.505	73.04
206.724	54.61
206.943	9.56
207.162	15.7
207.381	62.8
207.599	79.19
207.818	73.04
208.037	42.32
208.255	-39.59
208.474	-31.4
208.693	-10.92
208.911	-17.07
209.13	21.84
209.349	-19.11
209.567	13.65
209.786	87.38
210.005	71
210.223	-10.92
210.442	-82.6
210.661	-21.16
210.879	9.56
211.098	101.72
211.316	54.61
211.535	62.8
211.753	9.56
211.972	32.08
212.191	64.85
212.409	-43.69
212.628	62.8
212.846	21.84
213.065	83.28
213.283	62.8
213.502	-6.83
213.72	73.04
213.938	-35.5
214.157	-39.59
214.375	56.66
214.594	23.89
214.812	48.47
215.031	1.37
215.249	71
215.467	71
215.686	58.71
215.904	95.57
216.122	-45.74
216.341	30.04
216.559	-0.68
216.778	56.66
216.996	75.09
217.214	-0.68
217.432	-0.68
217.651	17.75
217.869	-51.88
218.087	54.61
218.306	-17.07
218.524	30.04
218.742	48.47
218.96	30.04
219.179	13.65
219.397	32.08
219.615	46.42
219.833	-35.5
220.051	5.46
220.27	62.8
220.488	-2.73
220.706	40.28
220.924	-33.45
221.142	-35.5
221.36	-8.87
221.578	42.32
221.796	-60.07
222.015	-15.02
222.233	-31.4
222.451	52.56
222.669	-8.87
222.887	91.48
223.105	50.52
223.323	13.65
223.541	13.65
223.759	3.41
223.977	-12.97
224.195	27.99
224.413	105.81
224.631	23.89
224.849	-58.03
225.067	54.61
225.285	9.56
225.503	42.32
225.721	-76.46
225.939	64.85
226.157	9.56
226.375	111.96
226.592	-41.64
226.81	-29.35
227.028	11.61
227.246	38.23
227.464	23.89
227.682	62.8
227.9	-2.73
228.117	-10.92
228.335	19.8
228.553	103.76
228.771	19.8
228.989	7.51
229.206	-0.68
229.424	-4.78
229.642	-27.31
229.86	21.84
230.077	46.42
230.295	-0.68
230.513	46.42
230.731	103.76
230.948	101.72
231.166	75.09
231.384	30.04
231.601	25.94
231.819	99.67
232.037	89.43
232.254	-35.5
232.472	25.94
232.689	38.23
232.907	-2.73
233.125	9.56
233.342	101.72
233.56	-58.03
233.777	71
233.995	-60.07
234.213	5.46
234.43	21.84
234.648	-47.79
234.865	17.75
235.083	-8.87
235.3	23.89
235.518	52.56
235.735	32.08
235.953	83.28
236.17	-45.74
236.388	-10.92
236.605	23.89
236.822	73.04
237.04	-21.16
237.257	-2.73
237.475	-17.07
237.692	71
237.909	5.46
238.127	40.28
238.344	27.99
238.562	42.32
238.779	-55.98
238.996	-23.21
239.214	-27.31
239.431	30.04
239.648	-8.87
239.865	-35.5
240.083	15.7
240.3	40.28
240.517	50.52
240.735	13.65
240.952	56.66
241.169	128.34
241.386	3.41
241.603	34.13
241.821	38.23
242.038	81.24
242.255	32.08
242.472	-4.78
242.689	62.8
242.907	-23.21
243.124	-68.27
243.341	38.23
243.558	-0.68
243.775	48.47
243.992	-10.92
244.209	97.62
244.426	40.28
244.643	48.47
244.86	-10.92
245.078	30.04
245.295	-31.4
245.512	95.57
245.729	7.51
245.946	75.09
246.163	7.51
246.38	13.65
246.597	75.09
246.814	21.84
247.031	13.65
247.248	66.9
247.464	23.89
247.681	27.99
247.898	11.61
248.115	71
248.332	-6.83
248.549	62.8
248.766	5.46
248.983	30.04
249.2	103.76
249.417	34.13
249.633	23.89
249.85	13.65
250.067	5.46
250.284	25.94
250.501	-0.68
250.717	-23.21
250.934	-37.55
251.151	5.46
251.368	40.28
251.585	5.46
251.801	13.65
252.018	-15.02
252.235	66.9
252.451	5.46
252.668	46.42
252.885	89.43
253.102	54.61
253.318	111.96
253.535	46.42
253.752	-23.21
253.968	58.71
254.185	21.84
254.401	91.48
254.618	71
254.835	15.7
255.051	91.48
255.268	13.65
255.484	71
255.701	-58.03
255.917	21.84
256.134	-31.4
256.351	-2.73
256.567	9.56
256.784	23.89
257	11.61
257.217	50.52
257.433	89.43
257.65	71
257.866	19.8
258.082	-10.92
258.299	38.23
258.515	36.18
258.732	-0.68
258.948	-25.26
259.165	5.46
259.381	-35.5
259.597	30.04
259.814	64.85
260.03	23.89
260.246	46.42
260.463	1.37
260.679	56.66
260.895	23.89
261.112	32.08
261.328	-2.73
261.544	32.08
261.761	64.85
261.977	9.56
262.193	-37.55
262.409	5.46
262.626	-15.02
262.842	1.37
263.058	-15.02
263.274	105.81
263.49	9.56
263.707	97.62
263.923	-2.73
264.139	38.23
264.355	30.04
264.571	71
264.787	23.89
265.004	81.24
265.22	5.46
265.436	68.95
265.652	-92.84
265.868	50.52
266.084	40.28
266.3	21.84
266.516	-58.03
266.732	19.8
266.948	46.42
267.164	3.41
267.38	-8.87
267.596	5.46
267.812	79.19
268.028	15.7
268.244	48.47
268.46	-39.59
268.676	-33.45
268.892	116.05
269.108	58.71
269.324	5.46
269.54	62.8
269.756	89.43
269.972	52.56
270.188	-19.11
270.403	-0.68
270.619	38.23
270.835	7.51
271.051	79.19
271.267	99.67
271.483	38.23
271.698	23.89
271.914	9.56
272.13	-4.78
272.346	42.32
272.562	52.56
272.777	71
272.993	42.32
273.209	15.7
273.425	23.89
273.64	-27.31
273.856	30.04
274.072	5.46
274.287	38.23
274.503	21.84
274.719	-8.87
274.934	21.84
275.15	46.42
275.366	-55.98
275.581	17.75
275.797	66.9
276.012	-15.02
276.228	-43.69
276.444	13.65
276.659	50.52
276.875	58.71
277.09	-25.26
277.306	34.13
277.521	32.08
277.737	52.56
277.952	40.28
278.168	38.23
278.383	32.08
278.599	-51.88
278.814	11.61
279.03	50.52
279.245	64.85
279.461	66.9
279.676	30.04
279.892	46.42
280.107	-51.88
280.322	19.8
280.538	40.28
280.753	9.56
280.969	-23.21
281.184	11.61
281.399	38.23
281.615	23.89
281.83	62.8
282.045	-10.92
282.26	5.46
282.476	30.04
282.691	23.89
282.906	38.23
283.122	79.19
283.337	15.7
283.552	-43.69
283.767	42.32
283.983	5.46
284.198	-31.4
284.413	52.56
284.628	7.51
284.843	-17.07
285.058	25.94
285.274	-31.4
285.489	13.65
285.704	25.94
285.919	77.14
286.134	13.65
286.349	5.46
286.564	50.52
286.779	42.32
286.995	66.9
287.21	15.7
287.425	19.8
287.64	44.37
287.855	77.14
288.07	23.89
288.285	56.66
288.5	9.56
288.715	7.51
288.93	-21.16
289.145	56.66
289.36	-29.35
289.575	-27.31
289.79	13.65
290.004	7.51
290.219	-10.92
290.434	-51.88
290.649	-17.07
290.864	68.95
291.079	42.32
291.294	52.56
291.509	-0.68
291.724	60.76
291.938	5.46
292.153	-4.78
292.368	-6.83
292.583	83.28
292.798	32.08
293.012	23.89
293.227	34.13
293.442	32.08
293.657	-55.98
293.871	9.56
294.086	15.7
294.301	50.52
294.516	126.29
294.73	50.52
294.945	23.89
295.16	21.84
295.374	-2.73
295.589	75.09
295.804	81.24
296.018	-51.88
296.233	34.13
296.447	13.65
296.662	-41.64
296.877	54.61
297.091	62.8
297.306	-17.07
297.52	3.41
297.735	40.28
297.949	71
298.164	9.56
298.378	62.8
298.593	5.46
298.807	42.32
299.022	66.9
299.236	48.47
299.451	32.08
299.665	58.71
299.88	-19.11
300.094	21.84
300.309	-21.16
300.523	91.48
300.737	81.24
300.952	-15.02
301.166	27.99
301.381	-2.73
301.595	5.46
301.809	38.23
302.024	-15.02
302.238	-43.69
302.452	17.75
302.667	111.96
302.881	56.66
303.095	99.67
303.309	73.04
303.524	71
303.738	93.52
303.952	-10.92
304.166	11.61
304.381	-21.16
304.595	77.14
304.809	13.65
305.023	17.75
305.237	-10.92
305.452	58.71
305.666	-55.98
305.88	40.28
306.094	68.95
306.308	68.95
306.522	128.34
306.736	38.23
306.95	64.85
307.164	11.61
307.379	25.94
307.593	54.61
307.807	40.28
308.021	21.84
308.235	-27.31
308.449	-19.11
308.663	107.86
308.877	122.2
309.091	83.28
309.305	21.84
309.519	83.28
309.733	73.04
309.947	-51.88
310.161	169.3
310.374	50.52
310.588	56.66
310.802	34.13
311.016	13.65
311.23	-8.87
311.444	-17.07
311.658	54.61
311.872	66.9
312.085	99.67
312.299	99.67
312.513	38.23
312.727	93.52
312.941	-31.4
313.154	97.62
313.368	5.46
313.582	56.66
313.796	30.04
314.009	79.19
314.223	85.33
314.437	30.04
314.651	-10.92
314.864	25.94
315.078	42.32
315.292	-15.02
315.505	-60.07
315.719	-2.73
315.933	17.75
316.146	5.46
316.36	-43.69
316.573	48.47
316.787	71
317.001	9.56
317.214	-21.16
317.428	-10.92
317.641	-0.68
317.855	-6.83
318.068	-0.68
318.282	13.65
318.495	21.84
318.709	95.57
318.922	-25.26
319.136	85.33
319.349	64.85
319.563	25.94
319.776	38.23
319.99	34.13
320.203	-35.5
320.417	48.47
320.63	38.23
320.843	25.94
321.057	81.24
321.27	-6.83
321.483	99.67
321.697	87.38
321.91	-39.59
322.124	89.43
322.337	15.7
322.55	-0.68
322.763	34.13
322.977	52.56
323.19	62.8
323.403	56.66
323.617	40.28
323.83	71
324.043	9.56
324.256	-10.92
324.469	-43.69
324.683	103.76
324.896	32.08
325.109	13.65
325.322	50.52
325.535	25.94
325.748	46.42
325.962	-6.83
326.175	-39.59
326.388	30.04
326.601	36.18
326.814	40.28
327.027	23.89
327.24	54.61
327.453	-47.79
327.666	36.18
327.879	93.52
328.092	23.89
328.305	5.46
328.518	50.52
328.731	27.99
328.944	21.84
329.157	40.28
329.37	50.52
329.583	73.04
329.796	15.7
330.009	46.42
330.222	107.86
330.435	21.84
330.648	-8.87
330.861	17.75
331.073	23.89
331.286	34.13
331.499	-15.02
331.712	-15.02
331.925	50.52
332.138	-55.98
332.35	62.8
332.563	95.57
332.776	50.52
332.989	13.65
333.202	56.66
333.414	50.52
333.627	-35.5
333.84	-31.4
334.053	71
334.265	1.37
334.478	-27.31
334.691	30.04
334.903	23.89
335.116	30.04
335.329	-37.55
335.541	77.14
335.754	87.38
335.966	71
336.179	81.24
336.392	-0.68
336.604	89.43
336.817	56.66
337.029	7.51
337.242	42.32
337.454	64.85
337.667	118.1
337.88	54.61
338.092	71
338.305	71
338.517	30.04
338.729	-19.11
338.942	-2.73
339.154	-10.92
339.367	19.8
339.579	79.19
339.792	54.61
340.004	44.37
340.217	66.9
340.429	103.76
340.641	-45.74
340.854	81.24
341.066	42.32
341.278	-10.92
341.491	89.43
341.703	60.76
341.915	1.37
342.128	79.19
342.34	48.47
342.552	46.42
342.764	-23.21
342.977	25.94
343.189	87.38
343.401	5.46
343.613	17.75
343.826	30.04
344.038	-2.73
344.25	77.14
344.462	-4.78
344.674	81.24
344.886	87.38
345.099	48.47
345.311	-0.68
345.523	21.84
345.735	17.75
345.947	34.13
346.159	83.28
346.371	50.52
346.583	-43.69
346.795	111.96
347.007	38.23
347.219	17.75
347.431	81.24
347.643	68.95
347.855	56.66
348.067	40.28
348.279	-39.59
348.491	9.56
348.703	62.8
348.915	1.37
349.127	25.94
349.339	25.94
349.551	-17.07
349.763	62.8
349.975	54.61
350.187	62.8
350.399	89.43
350.61	1.37
350.822	42.32
351.034	46.42
351.246	50.52
351.458	52.56
351.669	54.61
351.881	103.76
352.093	71
352.305	124.24
352.517	56.66
352.728	99.67
352.94	68.95
353.152	32.08
353.363	23.89
353.575	85.33
353.787	46.42
353.999	21.84
354.21	1.37
354.422	-0.68
354.633	11.61
354.845	87.38
355.057	30.04
355.268	34.13
355.48	114
355.692	40.28
355.903	40.28
356.115	40.28
356.326	-27.31
356.538	148.82
356.749	17.75
356.961	50.52
357.172	-23.21
357.384	40.28
357.595	101.72
357.807	21.84
358.018	30.04
358.23	109.91
358.441	62.8
358.653	87.38
358.864	23.89
359.075	17.75
359.287	32.08
359.498	81.24
359.709	40.28
359.921	46.42
360.132	32.08
360.344	54.61
360.555	73.04
360.766	71
360.977	30.04
361.189	64.85
361.4	56.66
361.611	54.61
361.823	54.61
362.034	-15.02
362.245	25.94
362.456	32.08
362.667	111.96
362.879	19.8
363.09	13.65
363.301	103.76
363.512	40.28
363.723	-10.92
363.935	-6.83
364.146	60.76
364.357	-29.35
364.568	126.29
364.779	-27.31
364.99	144.72
365.201	-33.45
365.412	120.15
365.623	68.95
365.834	116.05
366.045	73.04
366.256	60.76
366.467	-8.87
366.678	109.91
366.889	38.23
367.1	46.42
367.311	73.04
367.522	103.76
367.733	87.38
367.944	68.95
368.155	40.28
368.366	-2.73
368.577	30.04
368.788	-29.35
368.999	-15.02
369.209	-25.26
369.42	144.72
369.631	85.33
369.842	87.38
370.053	52.56
370.264	48.47
370.474	101.72
370.685	-4.78
370.896	13.65
371.107	114
371.317	25.94
371.528	50.52
371.739	38.23
371.95	66.9
372.16	30.04
372.371	42.32
372.582	42.32
372.792	77.14
373.003	62.8
373.214	-25.26
373.424	89.43
373.635	9.56
373.846	64.85
374.056	48.47
374.267	95.57
374.477	23.89
374.688	17.75
374.898	77.14
375.109	-2.73
375.319	83.28
375.53	34.13
375.74	50.52
375.951	-25.26
376.161	79.19
376.372	111.96
376.582	50.52
376.793	13.65
377.003	5.46
377.214	46.42
377.424	5.46
377.635	71
377.845	5.46
378.055	122.2
378.266	-35.5
378.476	89.43
378.686	54.61
378.897	25.94
379.107	75.09
379.317	83.28
379.528	17.75
379.738	87.38
379.948	42.32
380.158	-27.31
380.369	17.75
380.579	89.43
380.789	21.84
380.999	62.8
381.21	118.1
381.42	111.96
381.63	-8.87
381.84	42.32
382.05	56.66
382.261	62.8
382.471	73.04
382.681	15.7
382.891	97.62
383.101	87.38
383.311	75.09
383.521	-6.83
383.731	52.56
383.941	87.38
384.151	62.8
384.361	30.04
384.571	5.46
384.781	48.47
384.991	54.61
385.201	87.38
385.411	103.76
385.621	23.89
385.831	79.19
386.041	89.43
386.251	30.04
386.461	122.2
386.671	79.19
386.881	114
387.091	13.65
387.301	3.41
387.511	40.28
387.72	71
387.93	-15.02
388.14	-60.07
388.35	79.19
388.56	111.96
388.769	169.3
388.979	97.62
389.189	103.76
389.399	120.15
389.609	89.43
389.818	71
390.028	93.52
390.238	13.65
390.447	38.23
390.657	-12.97
390.867	79.19
391.076	83.28
391.286	38.23
391.496	87.38
391.705	64.85
391.915	79.19
392.125	32.08
392.334	42.32
392.544	1.37
392.753	23.89
392.963	120.15
393.172	103.76
393.382	21.84
393.591	152.91
393.801	54.61
394.01	87.38
394.22	81.24
394.429	56.66
394.639	30.04
394.848	62.8
395.058	97.62
395.267	32.08
395.477	95.57
395.686	87.38
395.895	142.68
396.105	83.28
396.314	116.05
396.524	62.8
396.733	64.85
396.942	128.34
397.152	130.39
397.361	83.28
397.57	48.47
397.78	148.82
397.989	81.24
398.198	193.87
398.407	118.1
398.617	85.33
398.826	140.63
399.035	46.42
399.244	56.66
399.453	62.8
399.663	130.39
399.872	148.82
400.081	109.91
400.29	140.63
400.499	58.71
400.708	228.69
400.917	136.53
401.127	73.04
401.336	97.62
401.545	181.59
401.754	197.97
401.963	114
402.172	54.61
402.381	54.61
402.59	30.04
402.799	114
403.008	48.47
403.217	138.58
403.426	126.29
403.635	124.24
403.844	99.67
404.053	144.72
404.262	157.01
404.471	103.76
404.68	195.92
404.888	193.87
405.097	232.79
405.306	234.83
405.515	185.68
405.724	161.11
405.933	226.64
406.142	214.35
406.35	195.92
406.559	226.64
406.768	234.83
406.977	261.46
407.185	202.07
407.394	210.26
407.603	165.2
407.812	189.78
408.02	226.64
408.229	236.88
408.438	230.74
408.646	204.11
408.855	243.03
409.064	226.64
409.272	224.59
409.481	312.66
409.69	320.85
409.898	243.03
410.107	261.46
410.315	333.14
410.524	275.79
410.733	370
410.941	349.52
411.15	361.81
411.358	378.19
411.567	456.01
411.775	415.05
411.984	283.98
412.192	431.44
412.401	361.81
412.609	441.68
412.818	447.82
413.026	439.63
413.234	458.06
413.443	548.17
413.651	447.82
413.86	605.52
414.068	562.51
414.276	560.46
414.485	705.87
414.693	673.1
414.901	726.35
415.11	718.15
415.318	709.96
415.526	800.07
415.734	730.44
415.943	851.27
416.151	908.62
416.359	808.26
416.567	800.07
416.776	890.18
416.984	1039.69
417.192	1054.02
417.4	1000.77
417.608	1029.45
417.817	1131.84
418.025	1164.61
418.233	1201.47
418.441	1193.28
418.649	1217.86
418.857	1277.25
419.065	1381.7
419.273	1291.59
419.481	1445.18
419.689	1465.66
419.897	1617.21
420.105	1529.15
420.313	1578.3
420.521	1561.92
420.729	1711.42
420.937	1742.14
421.145	1809.72
421.353	1824.06
421.561	1914.17
421.769	2082.1
421.977	2174.26
422.185	2041.14
422.393	2186.55
422.601	2290.99
422.809	2293.04
423.017	2258.23
423.224	2497.84
423.432	2563.37
423.64	2512.17
423.848	2782.51
424.056	2651.44
424.263	2815.27
424.471	3077.41
424.679	3011.88
424.887	3101.99
425.094	3265.83
425.302	3296.55
425.51	3300.64
425.718	3456.29
425.925	3515.68
426.133	3652.89
426.341	3730.72
426.548	4011.29
426.756	4136.21
426.964	4087.06
427.171	4232.47
427.379	4181.27
427.586	4568.34
427.794	4457.75
428.001	4709.65
428.209	4740.36
428.417	4959.5
428.624	5436.67
428.832	5291.27
429.039	5330.18
429.247	5195.01
429.454	5698.81
429.662	6135.03
429.869	5793.02
430.076	6157.56
430.284	6003.96
430.491	6120.7
430.699	6446.32
430.906	6575.34
431.114	6692.08
431.321	6917.36
431.528	7050.47
431.736	7298.28
431.943	7759.07
432.15	7496.93
432.358	7576.8
432.565	7990.49
432.772	7881.95
432.979	8385.75
433.187	8496.34
433.394	8682.7
433.601	9166.03
433.808	9237.7
434.016	9106.63
434.223	9735.36
434.43	10220.73
434.637	9852.09
434.844	10466.49
435.052	10816.69
435.259	10689.71
435.466	10896.56
435.673	10665.14
435.88	11486.37
436.087	11975.84
436.294	11719.84
436.501	11828.38
436.708	11867.3
436.915	12276.89
437.122	12833.94
437.329	12729.49
437.537	13309.07
437.743	13608.07
437.95	13366.41
438.157	14226.56
438.364	14380.15
438.571	14412.92
438.778	14439.55
438.985	15957.09
439.192	15357.03
439.399	15817.83
439.606	15287.4
439.813	16348.25
440.02	17273.93
440.227	16864.34
440.433	16798.81
440.64	17470.54
440.847	17185.87
441.054	17491.02
441.261	18672.7
441.467	18558.01
441.674	18854.97
441.881	19704.87
442.088	19518.51
442.294	19379.25
442.501	19921.96
442.708	20360.22
442.914	21034
443.121	22117.38
443.328	21115.92
443.534	23038.97
443.741	21894.15
443.948	22047.75
444.154	23516.14
444.361	23358.45
444.568	23512.05
444.774	23176.18
444.981	23663.6
445.187	24341.47
445.394	25496.53
445.6	25088.98
445.807	27192.25
446.013	25971.66
446.22	26766.27
446.426	27607.98
446.633	28132.26
446.839	29080.47
447.046	27882.41
447.252	29213.59
447.459	29186.97
447.665	29166.49
447.871	30178.18
448.078	31476.6
448.284	30325.64
448.491	31185.79
448.697	32379.75
448.903	32963.42
449.11	33203.03
449.316	32680.8
449.522	32682.85
449.728	33966.93
449.935	34042.7
450.141	33796.95
450.347	35091.26
450.553	33569.62
450.76	34335.56
450.966	35423.03
451.172	34913.09
451.378	35900.21
451.584	35074.88
451.791	36145.97
451.997	35881.78
452.203	36182.83
452.409	36299.56
452.615	35904.31
452.821	34917.18
453.027	34755.39
453.233	36633.38
453.44	35060.54
453.646	35636.02
453.852	35312.44
454.058	36254.51
454.264	35019.58
454.47	35693.36
454.676	34853.7
454.882	36346.67
455.088	32695.14
455.294	33411.93
455.5	34321.23
455.705	34319.18
455.911	32885.6
456.117	32531.3
456.323	31712.11
456.529	30256.01
456.735	31718.26
456.941	30708.61
457.147	30393.22
457.352	29410.2
457.558	29066.14
457.764	29019.03
457.97	28617.63
458.176	28249
458.381	28054.44
458.587	26862.52
458.793	26653.63
458.999	25396.18
459.204	27081.66
459.41	26213.32
459.616	24632.29
459.821	24679.39
460.027	24595.42
460.233	24108.01
460.438	22848.5
460.644	23319.54
460.85	22207.49
461.055	21672.97
461.261	21543.95
461.466	20159.52
461.672	19399.73
461.878	21064.72
462.083	19358.77
462.289	19362.86
462.494	19053.62
462.7	18080.83
462.905	17669.19
463.111	18158.66
463.316	18381.88
463.522	17622.09
463.727	17792.07
463.932	17896.52
464.138	17865.8
464.343	17742.92
464.549	17099.86
464.754	18031.68
464.959	17730.63
465.165	17527.88
465.37	16704.6
465.575	16401.5
465.781	17128.53
465.986	17085.52
466.191	16450.65
466.397	16143.45
466.602	15322.22
466.807	15950.95
467.012	15944.8
467.218	15961.19
467.423	15862.88
467.628	15613.03
467.833	16419.93
468.038	15866.98
468.244	15332.46
