Data from USB4F104151__265__14-22-49-317.txt Node

Date: Thu Mar 13 14:22:49 EDT 2025
User: louis
Spectrometer: USB4F10415
Trigger mode: 4
Integration Time (sec): 2.000000E-2
Scans to average: 1
Electric dark correction enabled: true
Nonlinearity correction enabled: false
Boxcar width: 0
XAxis mode: Wavelengths
Number of Pixels in Spectrum: 3648
>>>>>Begin Spectral Data<<<<<
178.204	-112.3
178.424	-112.3
178.644	-112.3
178.864	-116.39
179.084	-50.86
179.304	45.4
179.524	-67.24
179.744	-13.99
179.964	8.53
180.184	-52.91
180.404	47.44
180.624	-16.04
180.844	78.16
181.064	-11.95
181.283	41.3
181.503	-54.95
181.723	-3.75
181.943	-32.43
182.163	53.59
182.383	69.97
182.602	31.06
182.822	76.12
183.042	72.02
183.262	4.44
183.482	51.54
183.701	-48.81
183.921	37.2
184.141	-7.85
184.361	-42.67
184.58	61.78
184.8	41.3
185.02	100.69
185.239	26.96
185.459	59.73
185.679	-11.95
185.898	-7.85
186.118	88.4
186.338	14.68
186.557	61.78
186.777	8.53
186.997	2.39
187.216	-3.75
187.436	39.25
187.655	-3.75
187.875	160.08
188.095	16.73
188.314	45.4
188.534	47.44
188.753	69.97
188.973	94.55
189.192	29.01
189.412	80.21
189.631	69.97
189.851	127.32
190.07	69.97
190.29	29.01
190.509	14.68
190.729	76.12
190.948	35.16
191.168	74.07
191.387	102.74
191.607	57.68
191.826	39.25
192.045	74.07
192.265	37.2
192.484	72.02
192.704	-7.85
192.923	20.82
193.142	104.79
193.362	20.82
193.581	74.07
193.8	80.21
194.02	24.92
194.239	0.34
194.458	55.64
194.678	-34.47
194.897	-1.71
195.116	16.73
195.335	123.22
195.555	41.3
195.774	4.44
195.993	0.34
196.212	14.68
196.432	45.4
196.651	24.92
196.87	131.41
197.089	127.32
197.308	-18.09
197.528	6.49
197.747	14.68
197.966	65.88
198.185	78.16
198.404	22.87
198.623	61.78
198.842	119.12
199.062	59.73
199.281	67.92
199.5	39.25
199.719	92.5
199.938	45.4
200.157	-11.95
200.376	100.69
200.595	63.83
200.814	-28.33
201.033	20.82
201.252	80.21
201.471	47.44
201.69	4.44
201.909	47.44
202.128	49.49
202.347	39.25
202.566	53.59
202.785	53.59
203.004	-11.95
203.223	153.94
203.442	33.11
203.661	-52.91
203.879	-3.75
204.098	35.16
204.317	24.92
204.536	98.64
204.755	20.82
204.974	55.64
205.193	-1.71
205.411	121.17
205.63	104.79
205.849	31.06
206.068	74.07
206.287	-73.39
206.505	63.83
206.724	6.49
206.943	-1.71
207.162	43.35
207.381	104.79
207.599	82.26
207.818	72.02
208.037	53.59
208.255	12.63
208.474	-22.19
208.693	80.21
208.911	20.82
209.13	20.82
209.349	72.02
209.567	-5.8
209.786	135.51
210.005	59.73
210.223	43.35
210.442	6.49
210.661	88.4
210.879	49.49
211.098	-18.09
211.316	37.2
211.535	86.36
211.753	127.32
211.972	110.93
212.191	-36.52
212.409	37.2
212.628	76.12
212.846	-30.38
213.065	26.96
213.283	82.26
213.502	-5.8
213.72	55.64
213.938	94.55
214.157	37.2
214.375	10.58
214.594	-24.23
214.812	78.16
215.031	61.78
215.249	12.63
215.467	72.02
215.686	47.44
215.904	69.97
216.122	88.4
216.341	29.01
216.559	14.68
216.778	69.97
216.996	37.2
217.214	37.2
217.432	49.49
217.651	8.53
217.869	45.4
218.087	6.49
218.306	-38.57
218.524	41.3
218.742	49.49
218.96	69.97
219.179	61.78
219.397	-7.85
219.615	82.26
219.833	4.44
220.051	45.4
220.27	86.36
220.488	137.56
220.706	39.25
220.924	-3.75
221.142	29.01
221.36	-11.95
221.578	20.82
221.796	43.35
222.015	0.34
222.233	16.73
222.451	-7.85
222.669	45.4
222.887	31.06
223.105	8.53
223.323	102.74
223.541	-59.05
223.759	69.97
223.977	43.35
224.195	162.13
224.413	24.92
224.631	57.68
224.849	-5.8
225.067	96.6
225.285	41.3
225.503	39.25
225.721	-18.09
225.939	51.54
226.157	108.88
226.375	110.93
226.592	-40.62
226.81	55.64
227.028	82.26
227.246	123.22
227.464	72.02
227.682	4.44
227.9	129.36
228.117	69.97
228.335	39.25
228.553	-16.04
228.771	0.34
228.989	37.2
229.206	26.96
229.424	80.21
229.642	49.49
229.86	39.25
230.077	33.11
230.295	98.64
230.513	135.51
230.731	102.74
230.948	121.17
231.166	78.16
231.384	94.55
231.601	20.82
231.819	78.16
232.037	61.78
232.254	69.97
232.472	33.11
232.689	4.44
232.907	86.36
233.125	-20.14
233.342	61.78
233.56	-11.95
233.777	2.39
233.995	84.31
234.213	78.16
234.43	78.16
234.648	72.02
234.865	12.63
235.083	45.4
235.3	-16.04
235.518	127.32
235.735	61.78
235.953	127.32
236.17	10.58
236.388	45.4
236.605	-3.75
236.822	29.01
237.04	59.73
237.257	88.4
237.475	8.53
237.692	-11.95
237.909	39.25
238.127	65.88
238.344	80.21
238.562	55.64
238.779	-9.9
238.996	-1.71
239.214	78.16
239.431	43.35
239.648	-18.09
239.865	16.73
240.083	-3.75
240.3	86.36
240.517	82.26
240.735	98.64
240.952	53.59
241.169	45.4
241.386	108.88
241.603	80.21
241.821	88.4
242.038	12.63
242.255	16.73
242.472	14.68
242.689	102.74
242.907	12.63
243.124	24.92
243.341	14.68
243.558	4.44
243.775	20.82
243.992	43.35
244.209	53.59
244.426	53.59
244.643	-20.14
244.86	12.63
245.078	72.02
245.295	2.39
245.512	41.3
245.729	57.68
245.946	86.36
246.163	88.4
246.38	78.16
246.597	45.4
246.814	55.64
247.031	78.16
247.248	110.93
247.464	37.2
247.681	74.07
247.898	78.16
248.115	98.64
248.332	18.77
248.549	86.36
248.766	47.44
248.983	-28.33
249.2	20.82
249.417	102.74
249.633	49.49
249.85	92.5
250.067	41.3
250.284	-5.8
250.501	16.73
250.717	47.44
250.934	24.92
251.151	-7.85
251.368	33.11
251.585	74.07
251.801	29.01
252.018	20.82
252.235	63.83
252.451	102.74
252.668	49.49
252.885	39.25
253.102	76.12
253.318	29.01
253.535	39.25
253.752	16.73
253.968	-20.14
254.185	-36.52
254.401	37.2
254.618	135.51
254.835	43.35
255.051	88.4
255.268	41.3
255.484	20.82
255.701	49.49
255.917	102.74
256.134	12.63
256.351	37.2
256.567	12.63
256.784	57.68
257	29.01
257.217	47.44
257.433	51.54
257.65	65.88
257.866	47.44
258.082	24.92
258.299	94.55
258.515	39.25
258.732	69.97
258.948	12.63
259.165	35.16
259.381	-40.62
259.597	0.34
259.814	63.83
260.03	72.02
260.246	39.25
260.463	63.83
260.679	55.64
260.895	-44.71
261.112	72.02
261.328	37.2
261.544	39.25
261.761	145.75
261.977	0.34
262.193	12.63
262.409	16.73
262.626	78.16
262.842	69.97
263.058	29.01
263.274	78.16
263.49	10.58
263.707	84.31
263.923	155.99
264.139	26.96
264.355	110.93
264.571	98.64
264.787	57.68
265.004	53.59
265.22	72.02
265.436	41.3
265.652	102.74
265.868	55.64
266.084	61.78
266.3	16.73
266.516	45.4
266.732	31.06
266.948	45.4
267.164	-13.99
267.38	110.93
267.596	69.97
267.812	41.3
268.028	49.49
268.244	-3.75
268.46	80.21
268.676	16.73
268.892	119.12
269.108	-22.19
269.324	65.88
269.54	24.92
269.756	53.59
269.972	0.34
270.188	100.69
270.403	2.39
270.619	35.16
270.835	74.07
271.051	74.07
271.267	49.49
271.483	6.49
271.698	61.78
271.914	78.16
272.13	35.16
272.346	90.45
272.562	110.93
272.777	55.64
272.993	74.07
273.209	63.83
273.425	53.59
273.64	86.36
273.856	86.36
274.072	78.16
274.287	74.07
274.503	53.59
274.719	43.35
274.934	39.25
275.15	-1.71
275.366	37.2
275.581	2.39
275.797	14.68
276.012	102.74
276.228	41.3
276.444	51.54
276.659	69.97
276.875	78.16
277.09	16.73
277.306	12.63
277.521	67.92
277.737	4.44
277.952	31.06
278.168	41.3
278.383	98.64
278.599	-11.95
278.814	69.97
279.03	12.63
279.245	92.5
279.461	39.25
279.676	104.79
279.892	-20.14
280.107	16.73
280.322	-46.76
280.538	47.44
280.753	80.21
280.969	119.12
281.184	22.87
281.399	127.32
281.615	86.36
281.83	-32.43
282.045	39.25
282.26	74.07
282.476	53.59
282.691	106.84
282.906	12.63
283.122	96.6
283.337	80.21
283.552	-3.75
283.767	45.4
283.983	82.26
284.198	37.2
284.413	127.32
284.628	-3.75
284.843	59.73
285.058	61.78
285.274	22.87
285.489	6.49
285.704	96.6
285.919	33.11
286.134	69.97
286.349	-11.95
286.564	4.44
286.779	121.17
286.995	47.44
287.21	24.92
287.425	69.97
287.64	43.35
287.855	82.26
288.07	8.53
288.285	88.4
288.5	24.92
288.715	86.36
288.93	94.55
289.145	37.2
289.36	51.54
289.575	37.2
289.79	121.17
290.004	29.01
290.219	86.36
290.434	20.82
290.649	24.92
290.864	88.4
291.079	-38.57
291.294	86.36
291.509	61.78
291.724	-24.23
291.938	47.44
292.153	69.97
292.368	8.53
292.583	78.16
292.798	-3.75
293.012	69.97
293.227	37.2
293.442	74.07
293.657	41.3
293.871	57.68
294.086	49.49
294.301	164.18
294.516	55.64
294.73	86.36
294.945	41.3
295.16	16.73
295.374	47.44
295.589	190.8
295.804	-9.9
296.018	35.16
296.233	92.5
296.447	96.6
296.662	8.53
296.877	43.35
297.091	94.55
297.306	53.59
297.52	37.2
297.735	14.68
297.949	43.35
298.164	-3.75
298.378	53.59
298.593	35.16
298.807	86.36
299.022	8.53
299.236	80.21
299.451	96.6
299.665	-7.85
299.88	86.36
300.094	39.25
300.309	33.11
300.523	47.44
300.737	22.87
300.952	94.55
301.166	12.63
301.381	8.53
301.595	12.63
301.809	94.55
302.024	29.01
302.238	-20.14
302.452	37.2
302.667	47.44
302.881	4.44
303.095	59.73
303.309	41.3
303.524	127.32
303.738	10.58
303.952	37.2
304.166	22.87
304.381	-3.75
304.595	115.03
304.809	80.21
305.023	33.11
305.237	37.2
305.452	61.78
305.666	65.88
305.88	22.87
306.094	37.2
306.308	82.26
306.522	86.36
306.736	69.97
306.95	61.78
307.164	4.44
307.379	-16.04
307.593	43.35
307.807	88.4
308.021	33.11
308.235	53.59
308.449	35.16
308.663	8.53
308.877	61.78
309.091	39.25
309.305	106.84
309.519	-28.33
309.733	63.83
309.947	-3.75
310.161	115.03
310.374	102.74
310.588	67.92
310.802	10.58
311.016	-28.33
311.23	35.16
311.444	16.73
311.658	-3.75
311.872	131.41
312.085	-44.71
312.299	88.4
312.513	78.16
312.727	98.64
312.941	10.58
313.154	45.4
313.368	57.68
313.582	69.97
313.796	92.5
314.009	16.73
314.223	104.79
314.437	55.64
314.651	-9.9
314.864	86.36
315.078	55.64
315.292	53.59
315.505	39.25
315.719	41.3
315.933	108.88
316.146	-7.85
316.36	4.44
316.573	115.03
316.787	43.35
317.001	37.2
317.214	-18.09
317.428	96.6
317.641	22.87
317.855	-44.71
318.068	16.73
318.282	55.64
318.495	55.64
318.709	78.16
318.922	55.64
319.136	94.55
319.349	129.36
319.563	-1.71
319.776	49.49
319.99	-34.47
320.203	45.4
320.417	94.55
320.63	121.17
320.843	-20.14
321.057	-7.85
321.27	20.82
321.483	20.82
321.697	41.3
321.91	-18.09
322.124	8.53
322.337	61.78
322.55	57.68
322.763	61.78
322.977	69.97
323.19	0.34
323.403	22.87
323.617	37.2
323.83	57.68
324.043	31.06
324.256	-1.71
324.469	-3.75
324.683	129.36
324.896	4.44
325.109	-1.71
325.322	35.16
325.535	65.88
325.748	127.32
325.962	86.36
326.175	20.82
326.388	94.55
326.601	155.99
326.814	16.73
327.027	4.44
327.24	74.07
327.453	37.2
327.666	135.51
327.879	61.78
328.092	110.93
328.305	47.44
328.518	53.59
328.731	104.79
328.944	37.2
329.157	31.06
329.37	72.02
329.583	69.97
329.796	110.93
330.009	14.68
330.222	86.36
330.435	33.11
330.648	33.11
330.861	51.54
331.073	123.22
331.286	119.12
331.499	45.4
331.712	80.21
331.925	69.97
332.138	-59.05
332.35	149.84
332.563	-18.09
332.776	131.41
332.989	8.53
333.202	55.64
333.414	31.06
333.627	74.07
333.84	88.4
334.053	82.26
334.265	16.73
334.478	-38.57
334.691	12.63
334.903	82.26
335.116	74.07
335.329	74.07
335.541	14.68
335.754	20.82
335.966	108.88
336.179	65.88
336.392	110.93
336.604	16.73
336.817	110.93
337.029	57.68
337.242	59.73
337.454	129.36
337.667	57.68
337.88	61.78
338.092	12.63
338.305	63.83
338.517	55.64
338.729	78.16
338.942	67.92
339.154	72.02
339.367	69.97
339.579	45.4
339.792	4.44
340.004	41.3
340.217	45.4
340.429	86.36
340.641	102.74
340.854	53.59
341.066	16.73
341.278	86.36
341.491	57.68
341.703	26.96
341.915	86.36
342.128	143.7
342.34	61.78
342.552	115.03
342.764	12.63
342.977	82.26
343.189	102.74
343.401	94.55
343.613	33.11
343.826	104.79
344.038	37.2
344.25	53.59
344.462	69.97
344.674	55.64
344.886	20.82
345.099	102.74
345.311	29.01
345.523	86.36
345.735	14.68
345.947	41.3
346.159	35.16
346.371	49.49
346.583	90.45
346.795	184.66
347.007	57.68
347.219	63.83
347.431	51.54
347.643	119.12
347.855	45.4
348.067	119.12
348.279	41.3
348.491	69.97
348.703	16.73
348.915	98.64
349.127	47.44
349.339	57.68
349.551	53.59
349.763	37.2
349.975	63.83
350.187	78.16
350.399	37.2
350.61	47.44
350.822	69.97
351.034	74.07
351.246	51.54
351.458	39.25
351.669	104.79
351.881	74.07
352.093	94.55
352.305	59.73
352.517	24.92
352.728	72.02
352.94	-40.62
353.152	31.06
353.363	-3.75
353.575	65.88
353.787	74.07
353.999	16.73
354.21	104.79
354.422	94.55
354.633	55.64
354.845	4.44
355.057	35.16
355.268	86.36
355.48	82.26
355.692	-24.23
355.903	69.97
356.115	14.68
356.326	-9.9
356.538	33.11
356.749	39.25
356.961	96.6
357.172	72.02
357.384	41.3
357.595	67.92
357.807	0.34
358.018	80.21
358.23	94.55
358.441	92.5
358.653	45.4
358.864	41.3
359.075	29.01
359.287	-32.43
359.498	31.06
359.709	110.93
359.921	143.7
360.132	20.82
360.344	69.97
360.555	20.82
360.766	92.5
360.977	57.68
361.189	90.45
361.4	22.87
361.611	67.92
361.823	69.97
362.034	108.88
362.245	12.63
362.456	82.26
362.667	74.07
362.879	-44.71
363.09	47.44
363.301	55.64
363.512	53.59
363.723	86.36
363.935	110.93
364.146	63.83
364.357	55.64
364.568	55.64
364.779	-38.57
364.99	143.7
365.201	53.59
365.412	102.74
365.623	-7.85
365.834	88.4
366.045	29.01
366.256	53.59
366.467	80.21
366.678	74.07
366.889	31.06
367.1	49.49
367.311	112.98
367.522	57.68
367.733	82.26
367.944	100.69
368.155	45.4
368.366	96.6
368.577	115.03
368.788	98.64
368.999	78.16
369.209	26.96
369.42	90.45
369.631	20.82
369.842	96.6
370.053	45.4
370.264	59.73
370.474	92.5
370.685	31.06
370.896	80.21
371.107	102.74
371.317	29.01
371.528	45.4
371.739	104.79
371.95	59.73
372.16	88.4
372.371	-11.95
372.582	65.88
372.792	55.64
373.003	20.82
373.214	29.01
373.424	135.51
373.635	72.02
373.846	-3.75
374.056	57.68
374.267	96.6
374.477	20.82
374.688	-9.9
374.898	45.4
375.109	78.16
375.319	129.36
375.53	135.51
375.74	45.4
375.951	69.97
376.161	4.44
376.372	94.55
376.582	-3.75
376.793	31.06
377.003	14.68
377.214	84.31
377.424	33.11
377.635	69.97
377.845	22.87
378.055	78.16
378.266	37.2
378.476	86.36
378.686	39.25
378.897	135.51
379.107	41.3
379.317	14.68
379.528	-42.67
379.738	80.21
379.948	4.44
380.158	115.03
380.369	53.59
380.579	59.73
380.789	-3.75
380.999	104.79
381.21	45.4
381.42	139.6
381.63	-32.43
381.84	69.97
382.05	90.45
382.261	96.6
382.471	123.22
382.681	49.49
382.891	78.16
383.101	72.02
383.311	-30.38
383.521	-48.81
383.731	53.59
383.941	39.25
384.151	92.5
384.361	57.68
384.571	-16.04
384.781	74.07
384.991	80.21
385.201	131.41
385.411	82.26
385.621	94.55
385.831	57.68
386.041	110.93
386.251	33.11
386.461	65.88
386.671	69.97
386.881	69.97
387.091	86.36
387.301	12.63
387.511	51.54
387.72	102.74
387.93	2.39
388.14	12.63
388.35	45.4
388.56	61.78
388.769	151.89
388.979	55.64
389.189	-5.8
389.399	78.16
389.609	135.51
389.818	53.59
390.028	104.79
390.238	94.55
390.447	121.17
390.657	74.07
390.867	22.87
391.076	45.4
391.286	37.2
391.496	104.79
391.705	102.74
391.915	76.12
392.125	12.63
392.334	127.32
392.544	80.21
392.753	80.21
392.963	63.83
393.172	80.21
393.382	24.92
393.591	86.36
393.801	69.97
394.01	78.16
394.22	69.97
394.429	63.83
394.639	24.92
394.848	90.45
395.058	74.07
395.267	63.83
395.477	53.59
395.686	45.4
395.895	178.51
396.105	115.03
396.314	0.34
396.524	158.03
396.733	63.83
396.942	149.84
397.152	63.83
397.361	143.7
397.57	69.97
397.78	112.98
397.989	88.4
398.198	110.93
398.407	102.74
398.617	65.88
398.826	51.54
399.035	24.92
399.244	51.54
399.453	151.89
399.663	76.12
399.872	74.07
400.081	-7.85
400.29	123.22
400.499	108.88
400.708	104.79
400.917	98.64
401.127	123.22
401.336	86.36
401.545	112.98
401.754	69.97
401.963	110.93
402.172	90.45
402.381	86.36
402.59	80.21
402.799	201.04
403.008	186.71
403.217	135.51
403.426	76.12
403.635	98.64
403.844	112.98
404.053	37.2
404.262	29.01
404.471	135.51
404.68	61.78
404.888	127.32
405.097	104.79
405.306	155.99
405.515	80.21
405.724	98.64
405.933	192.85
406.142	121.17
406.35	90.45
406.559	147.8
406.768	145.75
406.977	221.52
407.185	215.38
407.394	209.23
407.603	172.37
407.812	143.7
408.02	221.52
408.229	129.36
408.438	178.51
408.646	242
408.855	239.95
409.064	217.43
409.272	227.67
409.481	221.52
409.69	254.29
409.898	139.6
410.107	276.82
410.315	190.8
410.524	287.06
410.733	350.54
410.941	205.14
411.15	272.72
411.358	336.21
411.567	383.31
411.775	270.67
411.984	291.15
412.192	332.11
412.401	356.69
412.609	373.07
412.818	416.08
413.026	405.84
413.234	389.46
413.443	364.88
413.651	348.5
413.86	422.22
414.068	432.46
414.276	530.77
414.485	418.13
414.693	426.32
414.901	577.87
415.11	506.19
415.318	614.73
415.526	520.53
415.734	553.29
415.943	557.39
416.151	624.97
416.359	549.2
416.567	524.62
416.776	641.36
416.984	751.95
417.192	647.5
417.4	684.36
417.608	639.31
417.817	753.99
418.025	799.05
418.233	749.9
418.441	690.51
418.649	817.48
418.857	938.31
419.065	938.31
419.273	889.16
419.481	946.5
419.689	954.69
419.897	985.41
420.105	928.07
420.313	1059.14
420.521	1087.81
420.729	1083.72
420.937	1063.24
421.145	1202.5
421.353	1304.9
421.561	1286.47
421.769	1345.86
421.977	1317.19
422.185	1288.51
422.393	1544.51
422.601	1446.21
422.809	1487.17
423.017	1538.37
423.224	1657.15
423.432	1708.35
423.64	1634.62
423.848	1741.11
424.056	1765.69
424.263	1857.85
424.471	1859.9
424.679	1995.06
424.887	2142.52
425.094	2117.94
425.302	2115.89
425.51	2263.35
425.718	2261.3
425.925	2251.06
426.133	2261.3
426.341	2439.47
426.548	2593.07
426.756	2674.99
426.964	2683.18
427.171	2799.91
427.379	2775.34
427.586	2922.79
427.794	3019.05
428.001	3111.21
428.209	3219.75
428.417	3289.38
428.624	3424.55
428.832	3406.11
429.039	3453.22
429.247	3469.6
429.454	3770.65
429.662	4083.99
429.869	3805.47
430.076	4026.65
430.284	3936.54
430.491	3975.45
430.699	4382.99
430.906	4256.02
431.114	4217.11
431.321	4423.95
431.528	4610.32
431.736	4663.57
431.943	5103.88
432.15	5001.48
432.358	4829.45
432.565	5181.7
432.772	5169.41
432.979	5587.2
433.187	5630.21
433.394	5603.58
433.601	6009.08
433.808	6091
434.016	5814.52
434.223	6047.99
434.43	6494.45
434.637	6342.9
434.844	6969.58
435.052	6904.04
435.259	6969.58
435.466	7112.94
435.673	6830.32
435.88	7428.32
436.087	7788.77
436.294	7577.83
436.501	7592.16
436.708	7805.15
436.915	7928.03
437.122	8493.27
437.329	8270.04
437.537	8691.92
437.743	8675.54
437.95	8589.52
438.157	9064.65
438.364	9119.95
438.571	9275.59
438.778	9474.24
438.985	10150.07
439.192	9797.82
439.399	10211.51
439.606	9883.84
439.813	10301.62
440.02	11208.87
440.227	11079.85
440.433	10903.73
440.64	11090.09
440.847	11104.43
441.054	11446.44
441.261	11991.2
441.467	12032.16
441.674	12249.24
441.881	12654.74
442.088	12589.21
442.294	12511.38
442.501	12853.39
442.708	13033.61
442.914	13316.23
443.121	14114.94
443.328	13850.75
443.534	14741.62
443.741	14434.43
443.948	13924.48
444.154	15075.44
444.361	15081.58
444.568	15161.45
444.774	15132.78
444.981	15409.26
445.187	15822.95
445.394	16511.07
445.6	16212.06
445.807	17748.04
446.013	16900.18
446.22	17270.86
446.426	17756.23
446.633	18178.11
446.839	18823.22
447.046	17762.37
447.252	18903.09
447.459	18933.81
447.665	18737.21
447.871	19554.35
448.078	20510.75
448.284	19566.63
448.491	20009
448.697	20643.87
448.903	21241.87
449.11	21520.4
449.316	20924.44
449.522	21278.74
449.728	21995.53
449.935	22093.83
450.141	21923.85
450.347	22491.13
450.553	22007.81
450.76	22073.35
450.966	23279.6
451.172	22986.74
451.378	23302.13
451.584	22861.82
451.791	23404.53
451.997	22992.89
452.203	23703.53
452.409	23891.94
452.615	23683.05
452.821	22585.34
453.027	22214.66
453.233	23662.57
453.44	22767.61
453.646	23037.94
453.852	23416.82
454.058	23535.6
454.264	22919.16
454.47	23498.73
454.676	22890.49
454.882	23937
455.088	21690.38
455.294	21964.81
455.5	22204.42
455.705	22716.41
455.911	21391.37
456.117	21495.82
456.323	20926.49
456.529	19941.41
456.735	20819.99
456.941	20287.52
457.147	19591.21
457.352	19320.88
457.558	19183.66
457.764	19146.8
457.97	19023.92
458.176	18686.01
458.381	18352.19
458.587	17379.4
458.793	17608.78
458.999	16635.99
459.204	17854.53
459.41	17451.08
459.616	16117.86
459.821	16459.87
460.027	16322.65
460.233	15988.83
460.438	15114.35
460.644	15220.85
460.85	14671.99
461.055	14301.31
461.261	14192.76
461.466	13387.91
461.672	12929.17
461.878	13727.88
462.083	12742.8
462.289	12515.48
462.494	12365.98
462.7	12048.54
462.905	11632.8
463.111	12177.56
463.316	12001.44
463.522	11845.79
463.727	11872.42
463.932	11815.07
464.138	11866.27
464.343	11827.36
464.549	11274.41
464.754	11841.7
464.959	11727.01
465.165	11649.19
465.37	11262.12
465.575	10901.68
465.781	11204.78
465.986	11137.2
466.191	10846.38
466.397	10743.99
466.602	10236.09
466.807	10520.76
467.012	10426.55
467.218	10318.01
467.423	10490.04
467.628	10268.86
467.833	10694.83
468.038	10377.4
468.244	10176.7
468.449	10653.87
