Data from USB4F104151__93__14-17-58-261.txt Node

Date: Thu Mar 13 14:17:58 EDT 2025
User: louis
Spectrometer: USB4F10415
Trigger mode: 4
Integration Time (sec): 2.000000E-2
Scans to average: 1
Electric dark correction enabled: true
Nonlinearity correction enabled: false
Boxcar width: 0
XAxis mode: Wavelengths
Number of Pixels in Spectrum: 3648
>>>>>Begin Spectral Data<<<<<
178.204	-83.63
178.424	-83.63
178.644	-83.63
178.864	-202.41
179.084	-89.77
179.304	24.92
179.524	-9.9
179.744	-20.14
179.964	18.77
180.184	14.68
180.404	-26.28
180.624	-7.85
180.844	35.16
181.064	-24.23
181.283	-11.95
181.503	-22.19
181.723	29.01
181.943	-28.33
182.163	119.12
182.383	4.44
182.602	37.2
182.822	53.59
183.042	76.12
183.262	78.16
183.482	12.63
183.701	45.4
183.921	39.25
184.141	6.49
184.361	12.63
184.58	37.2
184.8	41.3
185.02	0.34
185.239	37.2
185.459	61.78
185.679	63.83
185.898	-40.62
186.118	86.36
186.338	-44.71
186.557	78.16
186.777	49.49
186.997	65.88
187.216	0.34
187.436	6.49
187.655	94.55
187.875	47.44
188.095	4.44
188.314	129.36
188.534	-11.95
188.753	47.44
188.973	18.77
189.192	143.7
189.412	-34.47
189.631	53.59
189.851	63.83
190.07	63.83
190.29	14.68
190.509	82.26
190.729	10.58
190.948	96.6
191.168	127.32
191.387	12.63
191.607	18.77
191.826	-34.47
192.045	22.87
192.265	-57
192.484	37.2
192.704	-46.76
192.923	4.44
193.142	170.32
193.362	59.73
193.581	57.68
193.8	53.59
194.02	59.73
194.239	31.06
194.458	63.83
194.678	63.83
194.897	4.44
195.116	69.97
195.335	37.2
195.555	47.44
195.774	12.63
195.993	39.25
196.212	-20.14
196.432	20.82
196.651	78.16
196.87	78.16
197.089	20.82
197.308	96.6
197.528	8.53
197.747	-18.09
197.966	55.64
198.185	61.78
198.404	-13.99
198.623	26.96
198.842	47.44
199.062	24.92
199.281	47.44
199.5	69.97
199.719	82.26
199.938	49.49
200.157	69.97
200.376	45.4
200.595	67.92
200.814	69.97
201.033	-3.75
201.252	112.98
201.471	121.17
201.69	127.32
201.909	24.92
202.128	69.97
202.347	135.51
202.566	-11.95
202.785	-3.75
203.004	20.82
203.223	194.9
203.442	65.88
203.661	12.63
203.879	88.4
204.098	98.64
204.317	-22.19
204.536	4.44
204.755	57.68
204.974	43.35
205.193	24.92
205.411	74.07
205.63	57.68
205.849	96.6
206.068	69.97
206.287	45.4
206.505	47.44
206.724	63.83
206.943	-40.62
207.162	94.55
207.381	49.49
207.599	-1.71
207.818	35.16
208.037	16.73
208.255	18.77
208.474	43.35
208.693	-48.81
208.911	49.49
209.13	22.87
209.349	76.12
209.567	24.92
209.786	63.83
210.005	78.16
210.223	14.68
210.442	-18.09
210.661	45.4
210.879	41.3
211.098	65.88
211.316	29.01
211.535	55.64
211.753	0.34
211.972	53.59
212.191	20.82
212.409	10.58
212.628	0.34
212.846	12.63
213.065	53.59
213.283	45.4
213.502	-1.71
213.72	-48.81
213.938	-24.23
214.157	61.78
214.375	72.02
214.594	96.6
214.812	22.87
215.031	37.2
215.249	45.4
215.467	29.01
215.686	100.69
215.904	51.54
216.122	63.83
216.341	94.55
216.559	49.49
216.778	47.44
216.996	86.36
217.214	82.26
217.432	22.87
217.651	6.49
217.869	14.68
218.087	112.98
218.306	-3.75
218.524	12.63
218.742	14.68
218.96	53.59
219.179	35.16
219.397	22.87
219.615	76.12
219.833	-52.91
220.051	8.53
220.27	86.36
220.488	16.73
220.706	29.01
220.924	76.12
221.142	43.35
221.36	26.96
221.578	78.16
221.796	57.68
222.015	76.12
222.233	49.49
222.451	72.02
222.669	4.44
222.887	94.55
223.105	31.06
223.323	-118.44
223.541	-18.09
223.759	84.31
223.977	12.63
224.195	76.12
224.413	-20.14
224.631	125.27
224.849	102.74
225.067	72.02
225.285	37.2
225.503	16.73
225.721	78.16
225.939	0.34
226.157	22.87
226.375	94.55
226.592	20.82
226.81	82.26
227.028	24.92
227.246	143.7
227.464	8.53
227.682	84.31
227.9	-16.04
228.117	74.07
228.335	6.49
228.553	4.44
228.771	92.5
228.989	53.59
229.206	65.88
229.424	37.2
229.642	4.44
229.86	8.53
230.077	65.88
230.295	-20.14
230.513	94.55
230.731	37.2
230.948	76.12
231.166	86.36
231.384	14.68
231.601	-7.85
231.819	127.32
232.037	33.11
232.254	10.58
232.472	47.44
232.689	18.77
232.907	-1.71
233.125	37.2
233.342	33.11
233.56	-13.99
233.777	18.77
233.995	10.58
234.213	61.78
234.43	59.73
234.648	78.16
234.865	16.73
235.083	67.92
235.3	0.34
235.518	69.97
235.735	115.03
235.953	39.25
236.17	80.21
236.388	16.73
236.605	10.58
236.822	100.69
237.04	72.02
237.257	6.49
237.475	8.53
237.692	72.02
237.909	53.59
238.127	26.96
238.344	31.06
238.562	84.31
238.779	-28.33
238.996	37.2
239.214	-7.85
239.431	51.54
239.648	14.68
239.865	96.6
240.083	39.25
240.3	41.3
240.517	2.39
240.735	-3.75
240.952	69.97
241.169	37.2
241.386	8.53
241.603	0.34
241.821	110.93
242.038	57.68
242.255	22.87
242.472	12.63
242.689	53.59
242.907	39.25
243.124	-26.28
243.341	37.2
243.558	33.11
243.775	69.97
243.992	-20.14
244.209	63.83
244.426	78.16
244.643	33.11
244.86	-50.86
245.078	94.55
245.295	33.11
245.512	61.78
245.729	14.68
245.946	47.44
246.163	45.4
246.38	37.2
246.597	12.63
246.814	22.87
247.031	-18.09
247.248	24.92
247.464	-5.8
247.681	29.01
247.898	65.88
248.115	78.16
248.332	61.78
248.549	14.68
248.766	147.8
248.983	57.68
249.2	14.68
249.417	80.21
249.633	61.78
249.85	-1.71
250.067	0.34
250.284	45.4
250.501	147.8
250.717	61.78
250.934	39.25
251.151	49.49
251.368	45.4
251.585	94.55
251.801	67.92
252.018	106.84
252.235	0.34
252.451	-24.23
252.668	12.63
252.885	67.92
253.102	-36.52
253.318	33.11
253.535	37.2
253.752	20.82
253.968	4.44
254.185	-26.28
254.401	4.44
254.618	53.59
254.835	37.2
255.051	102.74
255.268	86.36
255.484	14.68
255.701	65.88
255.917	33.11
256.134	41.3
256.351	4.44
256.567	-1.71
256.784	24.92
257	20.82
257.217	47.44
257.433	98.64
257.65	29.01
257.866	61.78
258.082	61.78
258.299	72.02
258.515	61.78
258.732	49.49
258.948	47.44
259.165	41.3
259.381	61.78
259.597	53.59
259.814	12.63
260.03	0.34
260.246	31.06
260.463	47.44
260.679	90.45
260.895	37.2
261.112	47.44
261.328	-32.43
261.544	31.06
261.761	86.36
261.977	69.97
262.193	-28.33
262.409	45.4
262.626	92.5
262.842	-34.47
263.058	49.49
263.274	57.68
263.49	69.97
263.707	72.02
263.923	45.4
264.139	-11.95
264.355	29.01
264.571	20.82
264.787	102.74
265.004	-1.71
265.22	20.82
265.436	88.4
265.652	51.54
265.868	16.73
266.084	43.35
266.3	37.2
266.516	-36.52
266.732	33.11
266.948	-20.14
267.164	78.16
267.38	43.35
267.596	8.53
267.812	184.66
268.028	84.31
268.244	37.2
268.46	4.44
268.676	29.01
268.892	37.2
269.108	53.59
269.324	-32.43
269.54	33.11
269.756	39.25
269.972	57.68
270.188	29.01
270.403	-61.1
270.619	61.78
270.835	33.11
271.051	-11.95
271.267	20.82
271.483	12.63
271.698	31.06
271.914	168.27
272.13	51.54
272.346	92.5
272.562	119.12
272.777	76.12
272.993	18.77
273.209	37.2
273.425	69.97
273.64	45.4
273.856	86.36
274.072	22.87
274.287	-3.75
274.503	94.55
274.719	67.92
274.934	6.49
275.15	-30.38
275.366	18.77
275.581	61.78
275.797	20.82
276.012	14.68
276.228	29.01
276.444	53.59
276.659	24.92
276.875	29.01
277.09	8.53
277.306	51.54
277.521	102.74
277.737	31.06
277.952	51.54
278.168	33.11
278.383	86.36
278.599	45.4
278.814	16.73
279.03	82.26
279.245	55.64
279.461	37.2
279.676	88.4
279.892	-3.75
280.107	82.26
280.322	-48.81
280.538	59.73
280.753	47.44
280.969	-1.71
281.184	55.64
281.399	127.32
281.615	31.06
281.83	119.12
282.045	-46.76
282.26	41.3
282.476	47.44
282.691	4.44
282.906	24.92
283.122	22.87
283.337	12.63
283.552	78.16
283.767	61.78
283.983	31.06
284.198	47.44
284.413	74.07
284.628	4.44
284.843	24.92
285.058	14.68
285.274	-11.95
285.489	59.73
285.704	102.74
285.919	4.44
286.134	53.59
286.349	78.16
286.564	6.49
286.779	127.32
286.995	12.63
287.21	10.58
287.425	112.98
287.64	43.35
287.855	29.01
288.07	33.11
288.285	-3.75
288.5	94.55
288.715	55.64
288.93	102.74
289.145	94.55
289.36	41.3
289.575	20.82
289.79	-28.33
290.004	14.68
290.219	90.45
290.434	74.07
290.649	74.07
290.864	-16.04
291.079	39.25
291.294	74.07
291.509	57.68
291.724	96.6
291.938	37.2
292.153	88.4
292.368	39.25
292.583	47.44
292.798	100.69
293.012	47.44
293.227	37.2
293.442	39.25
293.657	37.2
293.871	82.26
294.086	53.59
294.301	92.5
294.516	160.08
294.73	65.88
294.945	6.49
295.16	84.31
295.374	149.84
295.589	102.74
295.804	31.06
296.018	57.68
296.233	80.21
296.447	90.45
296.662	6.49
296.877	39.25
297.091	80.21
297.306	-69.29
297.52	-32.43
297.735	24.92
297.949	51.54
298.164	96.6
298.378	82.26
298.593	0.34
298.807	35.16
299.022	49.49
299.236	41.3
299.451	24.92
299.665	-7.85
299.88	16.73
300.094	72.02
300.309	49.49
300.523	69.97
300.737	4.44
300.952	16.73
301.166	69.97
301.381	63.83
301.595	78.16
301.809	76.12
302.024	8.53
302.238	31.06
302.452	86.36
302.667	53.59
302.881	141.65
303.095	78.16
303.309	82.26
303.524	94.55
303.738	16.73
303.952	45.4
304.166	12.63
304.381	-3.75
304.595	104.79
304.809	12.63
305.023	39.25
305.237	-28.33
305.452	63.83
305.666	74.07
305.88	86.36
306.094	6.49
306.308	-1.71
306.522	69.97
306.736	41.3
306.95	-26.28
307.164	35.16
307.379	29.01
307.593	125.27
307.807	76.12
308.021	-26.28
308.235	18.77
308.449	57.68
308.663	143.7
308.877	55.64
309.091	53.59
309.305	53.59
309.519	37.2
309.733	37.2
309.947	100.69
310.161	-22.19
310.374	-3.75
310.588	37.2
310.802	22.87
311.016	37.2
311.23	78.16
311.444	61.78
311.658	69.97
311.872	57.68
312.085	49.49
312.299	61.78
312.513	49.49
312.727	57.68
312.941	14.68
313.154	65.88
313.368	29.01
313.582	129.36
313.796	-9.9
314.009	80.21
314.223	47.44
314.437	86.36
314.651	72.02
314.864	72.02
315.078	12.63
315.292	29.01
315.505	35.16
315.719	22.87
315.933	39.25
316.146	18.77
316.36	-42.67
316.573	94.55
316.787	69.97
317.001	78.16
317.214	31.06
317.428	33.11
317.641	6.49
317.855	41.3
318.068	102.74
318.282	61.78
318.495	129.36
318.709	24.92
318.922	88.4
319.136	119.12
319.349	155.99
319.563	14.68
319.776	24.92
319.99	59.73
320.203	80.21
320.417	63.83
320.63	72.02
320.843	72.02
321.057	49.49
321.27	86.36
321.483	84.31
321.697	33.11
321.91	29.01
322.124	29.01
322.337	49.49
322.55	39.25
322.763	16.73
322.977	63.83
323.19	4.44
323.403	53.59
323.617	74.07
323.83	65.88
324.043	59.73
324.256	69.97
324.469	65.88
324.683	53.59
324.896	-59.05
325.109	39.25
325.322	47.44
325.535	6.49
325.748	51.54
325.962	20.82
326.175	29.01
326.388	16.73
326.601	86.36
326.814	45.4
327.027	49.49
327.24	78.16
327.453	33.11
327.666	80.21
327.879	63.83
328.092	10.58
328.305	-50.86
328.518	39.25
328.731	24.92
328.944	31.06
329.157	69.97
329.37	69.97
329.583	63.83
329.796	90.45
330.009	39.25
330.222	12.63
330.435	65.88
330.648	-9.9
330.861	43.35
331.073	14.68
331.286	-9.9
331.499	72.02
331.712	26.96
331.925	-52.91
332.138	63.83
332.35	86.36
332.563	43.35
332.776	53.59
332.989	-20.14
333.202	74.07
333.414	90.45
333.627	22.87
333.84	39.25
334.053	69.97
334.265	37.2
334.478	80.21
334.691	31.06
334.903	22.87
335.116	20.82
335.329	29.01
335.541	-7.85
335.754	78.16
335.966	106.84
336.179	129.36
336.392	119.12
336.604	67.92
336.817	86.36
337.029	100.69
337.242	4.44
337.454	-3.75
337.667	121.17
337.88	90.45
338.092	55.64
338.305	45.4
338.517	45.4
338.729	57.68
338.942	102.74
339.154	29.01
339.367	20.82
339.579	102.74
339.792	84.31
340.004	96.6
340.217	16.73
340.429	74.07
340.641	-11.95
340.854	18.77
341.066	72.02
341.278	104.79
341.491	86.36
341.703	98.64
341.915	45.4
342.128	45.4
342.34	61.78
342.552	10.58
342.764	4.44
342.977	84.31
343.189	-34.47
343.401	69.97
343.613	4.44
343.826	72.02
344.038	-5.8
344.25	90.45
344.462	31.06
344.674	123.22
344.886	57.68
345.099	53.59
345.311	74.07
345.523	51.54
345.735	45.4
345.947	-11.95
346.159	90.45
346.371	16.73
346.583	29.01
346.795	94.55
347.007	20.82
347.219	-7.85
347.431	45.4
347.643	123.22
347.855	-3.75
348.067	65.88
348.279	-24.23
348.491	78.16
348.703	-40.62
348.915	14.68
349.127	67.92
349.339	72.02
349.551	86.36
349.763	86.36
349.975	61.78
350.187	96.6
350.399	12.63
350.61	80.21
350.822	-9.9
351.034	47.44
351.246	41.3
351.458	57.68
351.669	20.82
351.881	33.11
352.093	10.58
352.305	53.59
352.517	53.59
352.728	47.44
352.94	29.01
353.152	45.4
353.363	-13.99
353.575	88.4
353.787	69.97
353.999	47.44
354.21	43.35
354.422	-20.14
354.633	92.5
354.845	41.3
355.057	100.69
355.268	55.64
355.48	59.73
355.692	82.26
355.903	12.63
356.115	102.74
356.326	-1.71
356.538	106.84
356.749	47.44
356.961	65.88
357.172	69.97
357.384	8.53
357.595	117.08
357.807	65.88
358.018	26.96
358.23	14.68
358.441	203.09
358.653	57.68
358.864	12.63
359.075	110.93
359.287	2.39
359.498	45.4
359.709	53.59
359.921	94.55
360.132	80.21
360.344	45.4
360.555	43.35
360.766	78.16
360.977	72.02
361.189	119.12
361.4	57.68
361.611	41.3
361.823	94.55
362.034	90.45
362.245	33.11
362.456	33.11
362.667	110.93
362.879	33.11
363.09	90.45
363.301	69.97
363.512	94.55
363.723	29.01
363.935	57.68
364.146	86.36
364.357	69.97
364.568	63.83
364.779	37.2
364.99	96.6
365.201	8.53
365.412	106.84
365.623	-34.47
365.834	57.68
366.045	18.77
366.256	14.68
366.467	88.4
366.678	49.49
366.889	61.78
367.1	92.5
367.311	94.55
367.522	29.01
367.733	47.44
367.944	45.4
368.155	67.92
368.366	63.83
368.577	53.59
368.788	65.88
368.999	20.82
369.209	61.78
369.42	100.69
369.631	276.82
369.842	47.44
370.053	55.64
370.264	139.6
370.474	57.68
370.685	-7.85
370.896	72.02
371.107	74.07
371.317	94.55
371.528	63.83
371.739	31.06
371.95	69.97
372.16	69.97
372.371	4.44
372.582	69.97
372.792	90.45
373.003	117.08
373.214	31.06
373.424	108.88
373.635	49.49
373.846	129.36
374.056	135.51
374.267	78.16
374.477	41.3
374.688	43.35
374.898	90.45
375.109	-16.04
375.319	45.4
375.53	106.84
375.74	29.01
375.951	24.92
376.161	65.88
376.372	88.4
376.582	37.2
376.793	57.68
377.003	57.68
377.214	69.97
377.424	67.92
377.635	102.74
377.845	24.92
378.055	110.93
378.266	51.54
378.476	82.26
378.686	31.06
378.897	90.45
379.107	69.97
379.317	104.79
379.528	88.4
379.738	96.6
379.948	-11.95
380.158	-40.62
380.369	47.44
380.579	115.03
380.789	57.68
380.999	55.64
381.21	45.4
381.42	166.23
381.63	143.7
381.84	69.97
382.05	88.4
382.261	110.93
382.471	88.4
382.681	12.63
382.891	80.21
383.101	55.64
383.311	-26.28
383.521	61.78
383.731	135.51
383.941	139.6
384.151	127.32
384.361	20.82
384.571	-3.75
384.781	69.97
384.991	125.27
385.201	65.88
385.411	20.82
385.621	92.5
385.831	108.88
386.041	57.68
386.251	65.88
386.461	22.87
386.671	121.17
386.881	18.77
387.091	65.88
387.301	102.74
387.511	26.96
387.72	39.25
387.93	53.59
388.14	22.87
388.35	6.49
388.56	104.79
388.769	16.73
388.979	22.87
389.189	16.73
389.399	69.97
389.609	76.12
389.818	55.64
390.028	47.44
390.238	24.92
390.447	100.69
390.657	94.55
390.867	39.25
391.076	-40.62
391.286	74.07
391.496	49.49
391.705	-26.28
391.915	94.55
392.125	33.11
392.334	45.4
392.544	127.32
392.753	72.02
392.963	39.25
393.172	110.93
393.382	69.97
393.591	117.08
393.801	94.55
394.01	139.6
394.22	59.73
394.429	55.64
394.639	37.2
394.848	131.41
395.058	106.84
395.267	67.92
395.477	80.21
395.686	117.08
395.895	94.55
396.105	153.94
396.314	43.35
396.524	74.07
396.733	104.79
396.942	129.36
397.152	37.2
397.361	168.27
397.57	123.22
397.78	16.73
397.989	100.69
398.198	110.93
398.407	94.55
398.617	18.77
398.826	98.64
399.035	106.84
399.244	37.2
399.453	92.5
399.663	110.93
399.872	96.6
400.081	147.8
400.29	100.69
400.499	72.02
400.708	100.69
400.917	90.45
401.127	115.03
401.336	112.98
401.545	155.99
401.754	155.99
401.963	135.51
402.172	94.55
402.381	115.03
402.59	131.41
402.799	119.12
403.008	110.93
403.217	20.82
403.426	145.75
403.635	90.45
403.844	219.47
404.053	151.89
404.262	162.13
404.471	143.7
404.68	158.03
404.888	127.32
405.097	143.7
405.306	39.25
405.515	112.98
405.724	178.51
405.933	203.09
406.142	145.75
406.35	164.18
406.559	135.51
406.768	246.1
406.977	196.95
407.185	246.1
407.394	278.87
407.603	72.02
407.812	198.99
408.02	217.43
408.229	219.47
408.438	223.57
408.646	176.47
408.855	207.19
409.064	213.33
409.272	225.62
409.481	188.75
409.69	221.52
409.898	270.67
410.107	209.23
410.315	305.49
410.524	305.49
410.733	307.54
410.941	285.01
411.15	299.34
411.358	348.5
411.567	385.36
411.775	315.73
411.984	334.16
412.192	364.88
412.401	399.7
412.609	457.04
412.818	467.28
413.026	405.84
413.234	495.95
413.443	407.89
413.651	479.57
413.86	487.76
414.068	465.23
414.276	536.91
414.485	502.09
414.693	520.53
414.901	616.78
415.11	618.83
415.318	602.44
415.526	641.36
415.734	606.54
415.943	659.79
416.151	708.94
416.359	674.12
416.567	725.32
416.776	780.62
416.984	823.62
417.192	883.02
417.4	813.38
417.608	688.46
417.817	823.62
418.025	897.35
418.233	1028.42
418.441	1036.61
418.649	1126.72
418.857	1085.76
419.065	1116.48
419.273	1069.38
419.481	1169.73
419.689	1118.53
419.897	1227.07
420.105	1329.47
420.313	1298.75
420.521	1233.22
420.729	1403.2
420.937	1370.43
421.145	1446.21
421.353	1626.43
421.561	1640.76
421.769	1612.09
421.977	1704.25
422.185	1671.48
422.393	1784.12
422.601	1972.54
422.809	1954.1
423.017	1902.9
423.224	1945.91
423.432	2023.73
423.64	2113.85
423.848	2199.86
424.056	2224.44
424.263	2337.07
424.471	2306.35
424.679	2492.72
424.887	2418.99
425.094	2505.01
425.302	2597.17
425.51	2697.52
425.718	2887.98
425.925	2810.15
426.133	3068.2
426.341	3133.73
426.548	3273
426.756	3227.94
426.964	3287.33
427.171	3430.69
427.379	3502.37
427.586	3582.24
427.794	3686.69
428.001	3885.34
428.209	3985.69
428.417	4030.74
428.624	4268.31
428.832	4251.92
429.039	4299.03
429.247	4223.25
429.454	4645.13
429.662	4962.57
429.869	4679.95
430.076	5099.78
430.284	4813.07
430.491	5128.46
430.699	5230.85
430.906	5372.16
431.114	5468.42
431.321	5644.54
431.528	5757.18
431.736	5953.79
431.943	6383.86
432.15	6181.11
432.358	6140.15
432.565	6433.01
432.772	6578.42
432.979	6811.89
433.187	6854.89
433.394	6904.04
433.601	7604.45
433.808	7448.8
434.016	7649.5
434.223	7835.87
434.43	8313.05
434.637	8073.43
434.844	8593.62
435.052	8722.64
435.259	8788.18
435.466	8663.25
435.673	8575.19
435.88	9302.22
436.087	9732.29
436.294	9648.32
436.501	9662.66
436.708	9672.9
436.915	10066.11
437.122	10451.13
437.329	10625.2
437.537	10803.38
437.743	11008.17
437.95	10664.11
438.157	11339.94
438.364	11894.94
438.571	11868.32
438.778	11761.83
438.985	13127.82
439.192	12386.46
439.399	12896.4
439.606	12314.78
439.813	13455.5
440.02	14030.98
440.227	13643.91
440.433	13676.68
440.64	14178.43
440.847	14194.81
441.054	14246.01
441.261	15151.21
441.467	15294.57
441.674	15349.87
441.881	15904.87
442.088	16083.04
442.294	15562.86
442.501	16072.8
442.708	16420.95
442.914	17213.52
443.121	17770.57
443.328	17375.31
443.534	18536.51
443.741	18126.91
443.948	18055.23
444.154	19107.89
444.361	18792.5
444.568	19234.86
444.774	19044.4
444.981	19410.99
445.187	19949.6
445.394	20723.74
445.6	20439.07
445.807	22431.74
446.013	21510.16
446.22	22122.5
446.426	22663.16
446.633	23050.23
446.839	23791.59
447.046	22790.14
447.252	23850.99
447.459	23924.71
447.665	24119.27
447.871	24987.61
448.078	25851.85
448.284	24852.44
448.491	25567.18
448.697	26546.11
448.903	26732.48
449.11	27307.96
449.316	26580.93
449.522	27029.43
449.728	28016.55
449.935	27914.16
450.141	27824.04
450.347	28342.18
450.553	27656.11
450.76	27953.07
450.966	29300.63
451.172	28907.42
451.378	29472.66
451.584	28833.69
451.791	29431.7
451.997	29347.73
452.203	30078.86
452.409	30125.96
452.615	29968.27
452.821	28843.93
453.027	28381.09
453.233	30142.35
453.44	29046.68
453.646	29149.08
453.852	29249.43
454.058	29925.26
454.264	28741.53
454.47	29728.66
454.676	28854.17
454.882	30115.72
455.088	27213.75
455.294	27473.84
455.5	28227.49
455.705	28377
455.911	27000.76
456.117	27011
456.323	26644.41
456.529	25139.16
456.735	25980.87
456.941	25145.3
457.147	25243.6
457.352	24051.69
457.558	23955.43
457.764	24186.85
457.97	23642.09
458.176	23091.19
458.381	23205.88
458.587	21817.35
458.793	22153.22
458.999	20924.44
459.204	22237.19
459.41	21710.86
459.616	20471.84
459.821	20264.99
460.027	20574.24
460.233	19855.4
460.438	19120.18
460.644	19091.51
460.85	18477.12
461.055	17934.4
461.261	17856.58
461.466	16691.29
461.672	15992.93
461.878	17109.07
462.083	16269.41
462.289	15886.43
462.494	15642.73
462.7	15097.97
462.905	14671.99
463.111	15020.14
463.316	15132.78
463.522	14823.54
463.727	14774.39
463.932	14962.8
464.138	14608.5
464.343	14745.72
464.549	14133.37
464.754	14706.8
464.959	14555.26
465.165	14567.54
465.37	13930.62
465.575	13840.51
465.781	14203
465.986	14536.82
466.191	13623.43
466.397	13228.17
466.602	12789.91
466.807	13015.18
467.012	13252.75
467.218	13160.59
467.423	12710.04
467.628	13230.22
467.833	13682.82
468.038	13234.32
468.244	12912.78
