Data from USB4F104151__88__14-17-51-983.txt Node

Date: Thu Mar 13 14:17:51 EDT 2025
User: louis
Spectrometer: USB4F10415
Trigger mode: 4
Integration Time (sec): 2.000000E-2
Scans to average: 1
Electric dark correction enabled: true
Nonlinearity correction enabled: false
Boxcar width: 0
XAxis mode: Wavelengths
Number of Pixels in Spectrum: 3648
>>>>>Begin Spectral Data<<<<<
178.204	-104.96
178.424	-104.96
178.644	-104.96
178.864	-178.69
179.084	-174.59
179.304	11.78
179.524	-6.66
179.744	22.02
179.964	69.12
180.184	-37.38
180.404	1.54
180.624	3.58
180.844	-6.66
181.064	-43.52
181.283	42.5
181.503	-74.24
181.723	17.92
181.943	-18.94
182.163	50.69
182.383	-4.61
182.602	28.16
182.822	-4.61
183.042	1.54
183.262	22.02
183.482	28.16
183.701	-6.66
183.921	-6.66
184.141	-18.94
184.361	5.63
184.58	40.45
184.8	3.58
185.02	3.58
185.239	105.98
185.459	-33.28
185.679	81.41
185.898	17.92
186.118	-14.85
186.338	40.45
186.557	40.45
186.777	34.3
186.997	17.92
187.216	34.3
187.436	17.92
187.655	13.82
187.875	46.59
188.095	40.45
188.314	36.35
188.534	36.35
188.753	67.07
188.973	-18.94
189.192	42.5
189.412	73.21
189.631	17.92
189.851	13.82
190.07	17.92
190.29	-6.66
190.509	34.3
190.729	-2.56
190.948	42.5
191.168	116.22
191.387	38.4
191.607	-23.04
191.826	-18.94
192.045	30.21
192.265	1.54
192.484	13.82
192.704	58.88
192.923	30.21
193.142	99.84
193.362	44.54
193.581	81.41
193.8	36.35
194.02	44.54
194.239	-2.56
194.458	108.03
194.678	-6.66
194.897	44.54
195.116	-14.85
195.335	67.07
195.555	42.5
195.774	-4.61
195.993	56.83
196.212	93.69
196.432	-55.81
196.651	-14.85
196.87	5.63
197.089	93.69
197.308	50.69
197.528	-12.8
197.747	-12.8
197.966	-4.61
198.185	-12.8
198.404	-25.09
198.623	9.73
198.842	28.16
199.062	52.74
199.281	42.5
199.5	26.11
199.719	75.26
199.938	128.51
200.157	44.54
200.376	26.11
200.595	22.02
200.814	50.69
201.033	58.88
201.252	58.88
201.471	30.21
201.69	95.74
201.909	54.78
202.128	110.08
202.347	69.12
202.566	5.63
202.785	-4.61
203.004	22.02
203.223	101.89
203.442	30.21
203.661	-12.8
203.879	34.3
204.098	22.02
204.317	-43.52
204.536	83.45
204.755	-2.56
204.974	34.3
205.193	142.85
205.411	1.54
205.63	19.97
205.849	83.45
206.068	-14.85
206.287	75.26
206.505	32.26
206.724	71.17
206.943	3.58
207.162	-23.04
207.381	-23.04
207.599	36.35
207.818	5.63
208.037	85.5
208.255	-10.75
208.474	36.35
208.693	-14.85
208.911	91.65
209.13	22.02
209.349	-6.66
209.567	42.5
209.786	81.41
210.005	-8.7
210.223	28.16
210.442	26.11
210.661	-47.62
210.879	38.4
211.098	54.78
211.316	28.16
211.535	62.98
211.753	17.92
211.972	58.88
212.191	42.5
212.409	87.55
212.628	-2.56
212.846	34.3
213.065	52.74
213.283	46.59
213.502	44.54
213.72	3.58
213.938	28.16
214.157	19.97
214.375	13.82
214.594	58.88
214.812	91.65
215.031	44.54
215.249	38.4
215.467	48.64
215.686	52.74
215.904	42.5
216.122	24.06
216.341	50.69
216.559	30.21
216.778	54.78
216.996	58.88
217.214	67.07
217.432	-8.7
217.651	62.98
217.869	-35.33
218.087	22.02
218.306	28.16
218.524	93.69
218.742	15.87
218.96	173.57
219.179	-37.38
219.397	-6.66
219.615	75.26
219.833	7.68
220.051	22.02
220.27	85.5
220.488	75.26
220.706	38.4
220.924	54.78
221.142	-4.61
221.36	22.02
221.578	77.31
221.796	56.83
222.015	-8.7
222.233	69.12
222.451	97.79
222.669	-27.14
222.887	112.13
223.105	85.5
223.323	9.73
223.541	9.73
223.759	48.64
223.977	9.73
224.195	157.18
224.413	83.45
224.631	58.88
224.849	99.84
225.067	93.69
225.285	-74.24
225.503	42.5
225.721	13.82
225.939	77.31
226.157	77.31
226.375	101.89
226.592	-14.85
226.81	28.16
227.028	46.59
227.246	87.55
227.464	34.3
227.682	69.12
227.9	110.08
228.117	79.36
228.335	34.3
228.553	65.02
228.771	87.55
228.989	50.69
229.206	38.4
229.424	67.07
229.642	-20.99
229.86	42.5
230.077	116.22
230.295	11.78
230.513	75.26
230.731	67.07
230.948	44.54
231.166	5.63
231.384	48.64
231.601	1.54
231.819	50.69
232.037	30.21
232.254	-2.56
232.472	-23.04
232.689	24.06
232.907	42.5
233.125	46.59
233.342	9.73
233.56	13.82
233.777	17.92
233.995	71.17
234.213	19.97
234.43	67.07
234.648	69.12
234.865	30.21
235.083	-16.9
235.3	30.21
235.518	9.73
235.735	34.3
235.953	58.88
236.17	40.45
236.388	52.74
236.605	24.06
236.822	42.5
237.04	108.03
237.257	-18.94
237.475	19.97
237.692	26.11
237.909	-20.99
238.127	9.73
238.344	69.12
238.562	50.69
238.779	81.41
238.996	11.78
239.214	99.84
239.431	42.5
239.648	-39.42
239.865	77.31
240.083	7.68
240.3	15.87
240.517	17.92
240.735	40.45
240.952	87.55
241.169	34.3
241.386	62.98
241.603	-27.14
241.821	17.92
242.038	44.54
242.255	44.54
242.472	-29.18
242.689	42.5
242.907	83.45
243.124	32.26
243.341	1.54
243.558	3.58
243.775	22.02
243.992	30.21
244.209	56.83
244.426	60.93
244.643	87.55
244.86	38.4
245.078	-47.62
245.295	19.97
245.512	48.64
245.729	-14.85
245.946	91.65
246.163	24.06
246.38	46.59
246.597	56.83
246.814	11.78
247.031	28.16
247.248	42.5
247.464	118.27
247.681	91.65
247.898	38.4
248.115	5.63
248.332	-25.09
248.549	-12.8
248.766	132.61
248.983	42.5
249.2	24.06
249.417	22.02
249.633	-31.23
249.85	60.93
250.067	5.63
250.284	83.45
250.501	42.5
250.717	26.11
250.934	85.5
251.151	26.11
251.368	126.46
251.585	75.26
251.801	28.16
252.018	38.4
252.235	69.12
252.451	83.45
252.668	-23.04
252.885	132.61
253.102	54.78
253.318	75.26
253.535	-61.95
253.752	19.97
253.968	-6.66
254.185	-47.62
254.401	85.5
254.618	79.36
254.835	3.58
255.051	19.97
255.268	7.68
255.484	-12.8
255.701	50.69
255.917	144.89
256.134	-53.76
256.351	22.02
256.567	34.3
256.784	58.88
257	-2.56
257.217	75.26
257.433	81.41
257.65	-14.85
257.866	11.78
258.082	-78.33
258.299	81.41
258.515	58.88
258.732	50.69
258.948	1.54
259.165	5.63
259.381	17.92
259.597	7.68
259.814	44.54
260.03	13.82
260.246	157.18
260.463	38.4
260.679	91.65
260.895	28.16
261.112	-29.18
261.328	114.17
261.544	42.5
261.761	124.41
261.977	50.69
262.193	77.31
262.409	50.69
262.626	58.88
262.842	71.17
263.058	-10.75
263.274	67.07
263.49	56.83
263.707	99.84
263.923	9.73
264.139	-18.94
264.355	91.65
264.571	28.16
264.787	13.82
265.004	11.78
265.22	-53.76
265.436	54.78
265.652	46.59
265.868	60.93
266.084	62.98
266.3	52.74
266.516	62.98
266.732	79.36
266.948	15.87
267.164	60.93
267.38	42.5
267.596	-20.99
267.812	54.78
268.028	38.4
268.244	9.73
268.46	91.65
268.676	17.92
268.892	60.93
269.108	32.26
269.324	60.93
269.54	79.36
269.756	38.4
269.972	13.82
270.188	-2.56
270.403	3.58
270.619	77.31
270.835	60.93
271.051	32.26
271.267	26.11
271.483	26.11
271.698	50.69
271.914	101.89
272.13	-23.04
272.346	26.11
272.562	9.73
272.777	28.16
272.993	-4.61
273.209	-2.56
273.425	13.82
273.64	75.26
273.856	48.64
274.072	34.3
274.287	-27.14
274.503	36.35
274.719	89.6
274.934	67.07
275.15	26.11
275.366	42.5
275.581	11.78
275.797	-4.61
276.012	15.87
276.228	-23.04
276.444	48.64
276.659	-10.75
276.875	36.35
277.09	26.11
277.306	62.98
277.521	60.93
277.737	54.78
277.952	-12.8
278.168	54.78
278.383	50.69
278.599	-4.61
278.814	36.35
279.03	62.98
279.245	22.02
279.461	34.3
279.676	65.02
279.892	83.45
280.107	-6.66
280.322	-4.61
280.538	11.78
280.753	5.63
280.969	138.75
281.184	85.5
281.399	46.59
281.615	34.3
281.83	26.11
282.045	24.06
282.26	9.73
282.476	71.17
282.691	67.07
282.906	11.78
283.122	58.88
283.337	5.63
283.552	28.16
283.767	42.5
283.983	75.26
284.198	69.12
284.413	-2.56
284.628	-23.04
284.843	58.88
285.058	91.65
285.274	22.02
285.489	52.74
285.704	44.54
285.919	65.02
286.134	19.97
286.349	50.69
286.564	-10.75
286.779	52.74
286.995	58.88
287.21	17.92
287.425	101.89
287.64	11.78
287.855	34.3
288.07	-12.8
288.285	48.64
288.5	62.98
288.715	48.64
288.93	28.16
289.145	-4.61
289.36	7.68
289.575	17.92
289.79	87.55
290.004	-8.7
290.219	-23.04
290.434	71.17
290.649	-35.33
290.864	13.82
291.079	-47.62
291.294	36.35
291.509	11.78
291.724	-6.66
291.938	17.92
292.153	118.27
292.368	38.4
292.583	99.84
292.798	15.87
293.012	36.35
293.227	108.03
293.442	62.98
293.657	85.5
293.871	103.93
294.086	22.02
294.301	95.74
294.516	-20.99
294.73	-10.75
294.945	50.69
295.16	42.5
295.374	71.17
295.589	36.35
295.804	44.54
296.018	97.79
296.233	50.69
296.447	67.07
296.662	9.73
296.877	58.88
297.091	-16.9
297.306	-18.94
297.52	-2.56
297.735	34.3
297.949	17.92
298.164	32.26
298.378	44.54
298.593	-6.66
298.807	5.63
299.022	7.68
299.236	108.03
299.451	46.59
299.665	22.02
299.88	-14.85
300.094	36.35
300.309	54.78
300.523	46.59
300.737	65.02
300.952	91.65
301.166	24.06
301.381	62.98
301.595	-20.99
301.809	95.74
302.024	26.11
302.238	-18.94
302.452	34.3
302.667	-4.61
302.881	132.61
303.095	62.98
303.309	67.07
303.524	34.3
303.738	58.88
303.952	-4.61
304.166	38.4
304.381	44.54
304.595	103.93
304.809	42.5
305.023	22.02
305.237	-10.75
305.452	3.58
305.666	89.6
305.88	58.88
306.094	-47.62
306.308	34.3
306.522	11.78
306.736	75.26
306.95	87.55
307.164	58.88
307.379	17.92
307.593	116.22
307.807	79.36
308.021	-18.94
308.235	73.21
308.449	-47.62
308.663	103.93
308.877	75.26
309.091	69.12
309.305	65.02
309.519	19.97
309.733	44.54
309.947	36.35
310.161	42.5
310.374	144.89
310.588	95.74
310.802	5.63
311.016	60.93
311.23	65.02
311.444	9.73
311.658	-55.81
311.872	17.92
312.085	46.59
312.299	13.82
312.513	91.65
312.727	52.74
312.941	28.16
313.154	108.03
313.368	58.88
313.582	28.16
313.796	46.59
314.009	62.98
314.223	50.69
314.437	17.92
314.651	83.45
314.864	95.74
315.078	71.17
315.292	26.11
315.505	34.3
315.719	56.83
315.933	34.3
316.146	-29.18
316.36	19.97
316.573	108.03
316.787	3.58
317.001	95.74
317.214	-23.04
317.428	83.45
317.641	-20.99
317.855	87.55
318.068	34.3
318.282	19.97
318.495	99.84
318.709	105.98
318.922	9.73
319.136	69.12
319.349	46.59
319.563	-45.57
319.776	95.74
319.99	-23.04
320.203	42.5
320.417	-59.9
320.63	44.54
320.843	91.65
321.057	67.07
321.27	17.92
321.483	77.31
321.697	81.41
321.91	48.64
322.124	118.27
322.337	5.63
322.55	-31.23
322.763	26.11
322.977	50.69
323.19	9.73
323.403	46.59
323.617	116.22
323.83	52.74
324.043	1.54
324.256	34.3
324.469	-20.99
324.683	110.08
324.896	30.21
325.109	89.6
325.322	5.63
325.535	126.46
325.748	73.21
325.962	-55.81
326.175	81.41
326.388	60.93
326.601	148.99
326.814	9.73
327.027	54.78
327.24	34.3
327.453	-47.62
327.666	36.35
327.879	67.07
328.092	124.41
328.305	46.59
328.518	112.13
328.731	9.73
328.944	108.03
329.157	58.88
329.37	46.59
329.583	50.69
329.796	132.61
330.009	30.21
330.222	19.97
330.435	-10.75
330.648	54.78
330.861	103.93
331.073	28.16
331.286	52.74
331.499	50.69
331.712	52.74
331.925	28.16
332.138	40.45
332.35	103.93
332.563	54.78
332.776	32.26
332.989	75.26
333.202	19.97
333.414	26.11
333.627	93.69
333.84	103.93
334.053	38.4
334.265	-4.61
334.478	-6.66
334.691	46.59
334.903	89.6
335.116	-20.99
335.329	42.5
335.541	22.02
335.754	91.65
335.966	17.92
336.179	-23.04
336.392	28.16
336.604	-2.56
336.817	108.03
337.029	62.98
337.242	52.74
337.454	19.97
337.667	19.97
337.88	71.17
338.092	46.59
338.305	28.16
338.517	5.63
338.729	38.4
338.942	56.83
339.154	38.4
339.367	38.4
339.579	81.41
339.792	-23.04
340.004	50.69
340.217	103.93
340.429	75.26
340.641	42.5
340.854	40.45
341.066	36.35
341.278	48.64
341.491	112.13
341.703	28.16
341.915	28.16
342.128	71.17
342.34	42.5
342.552	26.11
342.764	69.12
342.977	75.26
343.189	46.59
343.401	58.88
343.613	-27.14
343.826	19.97
344.038	44.54
344.25	17.92
344.462	79.36
344.674	1.54
344.886	11.78
345.099	122.37
345.311	19.97
345.523	42.5
345.735	40.45
345.947	34.3
346.159	112.13
346.371	44.54
346.583	-16.9
346.795	-37.38
347.007	34.3
347.219	67.07
347.431	-4.61
347.643	9.73
347.855	34.3
348.067	44.54
348.279	48.64
348.491	34.3
348.703	5.63
348.915	-4.61
349.127	15.87
349.339	46.59
349.551	67.07
349.763	26.11
349.975	15.87
350.187	81.41
350.399	50.69
350.61	85.5
350.822	52.74
351.034	93.69
351.246	32.26
351.458	-18.94
351.669	132.61
351.881	112.13
352.093	58.88
352.305	7.68
352.517	38.4
352.728	142.85
352.94	136.7
353.152	-0.51
353.363	-14.85
353.575	50.69
353.787	144.89
353.999	75.26
354.21	167.42
354.422	91.65
354.633	108.03
354.845	36.35
355.057	73.21
355.268	108.03
355.48	101.89
355.692	62.98
355.903	-39.42
356.115	40.45
356.326	22.02
356.538	75.26
356.749	58.88
356.961	28.16
357.172	42.5
357.384	-14.85
357.595	103.93
357.807	46.59
358.018	38.4
358.23	91.65
358.441	83.45
358.653	48.64
358.864	-14.85
359.075	81.41
359.287	17.92
359.498	48.64
359.709	83.45
359.921	58.88
360.132	17.92
360.344	48.64
360.555	50.69
360.766	3.58
360.977	11.78
361.189	75.26
361.4	-6.66
361.611	62.98
361.823	69.12
362.034	99.84
362.245	26.11
362.456	-25.09
362.667	93.69
362.879	75.26
363.09	67.07
363.301	-16.9
363.512	93.69
363.723	1.54
363.935	9.73
364.146	95.74
364.357	95.74
364.568	97.79
364.779	19.97
364.99	50.69
365.201	62.98
365.412	69.12
365.623	62.98
365.834	60.93
366.045	52.74
366.256	69.12
366.467	44.54
366.678	24.06
366.889	9.73
367.1	69.12
367.311	28.16
367.522	28.16
367.733	87.55
367.944	17.92
368.155	-6.66
368.366	95.74
368.577	42.5
368.788	42.5
368.999	5.63
369.209	26.11
369.42	132.61
369.631	114.17
369.842	-29.18
370.053	58.88
370.264	50.69
370.474	34.3
370.685	19.97
370.896	67.07
371.107	144.89
371.317	30.21
371.528	101.89
371.739	62.98
371.95	103.93
372.16	99.84
372.371	67.07
372.582	44.54
372.792	95.74
373.003	58.88
373.214	30.21
373.424	60.93
373.635	-23.04
373.846	134.65
374.056	58.88
374.267	79.36
374.477	58.88
374.688	-12.8
374.898	-6.66
375.109	52.74
375.319	5.63
375.53	71.17
375.74	103.93
375.951	40.45
376.161	38.4
376.372	44.54
376.582	32.26
376.793	-20.99
377.003	13.82
377.214	-23.04
377.424	22.02
377.635	157.18
377.845	1.54
378.055	67.07
378.266	-20.99
378.476	19.97
378.686	40.45
378.897	19.97
379.107	30.21
379.317	44.54
379.528	-8.7
379.738	140.8
379.948	19.97
380.158	93.69
380.369	73.21
380.579	38.4
380.789	28.16
380.999	50.69
381.21	75.26
381.42	101.89
381.63	34.3
381.84	87.55
382.05	50.69
382.261	67.07
382.471	89.6
382.681	3.58
382.891	103.93
383.101	28.16
383.311	60.93
383.521	87.55
383.731	83.45
383.941	75.26
384.151	101.89
384.361	11.78
384.571	85.5
384.781	19.97
384.991	144.89
385.201	120.32
385.411	28.16
385.621	71.17
385.831	91.65
386.041	116.22
386.251	40.45
386.461	58.88
386.671	44.54
386.881	83.45
387.091	116.22
387.301	130.56
387.511	95.74
387.72	83.45
387.93	79.36
388.14	38.4
388.35	83.45
388.56	91.65
388.769	67.07
388.979	26.11
389.189	60.93
389.399	67.07
389.609	87.55
389.818	116.22
390.028	40.45
390.238	159.23
390.447	38.4
390.657	48.64
390.867	85.5
391.076	116.22
391.286	50.69
391.496	32.26
391.705	62.98
391.915	101.89
392.125	118.27
392.334	83.45
392.544	62.98
392.753	101.89
392.963	11.78
393.172	67.07
393.382	-4.61
393.591	38.4
393.801	75.26
394.01	99.84
394.22	148.99
394.429	99.84
394.639	65.02
394.848	44.54
395.058	112.13
395.267	87.55
395.477	126.46
395.686	157.18
395.895	110.08
396.105	206.33
396.314	136.7
396.524	116.22
396.733	132.61
396.942	81.41
397.152	95.74
397.361	155.13
397.57	85.5
397.78	108.03
397.989	151.04
398.198	157.18
398.407	36.35
398.617	116.22
398.826	140.8
399.035	91.65
399.244	110.08
399.453	103.93
399.663	69.12
399.872	151.04
400.081	83.45
400.29	62.98
400.499	83.45
400.708	187.9
400.917	144.89
401.127	62.98
401.336	75.26
401.545	144.89
401.754	42.5
401.963	136.7
402.172	108.03
402.381	169.47
402.59	99.84
402.799	124.41
403.008	120.32
403.217	148.99
403.426	228.86
403.635	173.57
403.844	144.89
404.053	230.91
404.262	120.32
404.471	173.57
404.68	89.6
404.888	132.61
405.097	105.98
405.306	159.23
405.515	124.41
405.724	171.52
405.933	204.28
406.142	192
406.35	177.66
406.559	196.09
406.768	200.19
406.977	263.68
407.185	163.33
407.394	271.87
407.603	159.23
407.812	202.24
408.02	198.14
408.229	169.47
408.438	183.81
408.646	103.93
408.855	220.67
409.064	255.48
409.272	202.24
409.481	306.68
409.69	206.33
409.898	235
410.107	298.49
410.315	298.49
410.524	259.58
410.733	306.68
410.941	249.34
411.15	280.06
411.358	339.45
411.567	314.88
411.775	409.08
411.984	314.88
412.192	472.57
412.401	335.35
412.609	468.47
412.818	411.13
413.026	452.09
413.234	439.8
413.443	415.23
413.651	366.07
413.86	503.29
414.068	536.06
414.276	536.06
414.485	525.82
414.693	591.35
414.901	624.12
415.11	589.3
415.318	732.66
415.526	644.6
415.734	663.03
415.943	660.98
416.151	740.85
416.359	708.09
416.567	669.17
416.776	790
416.984	845.3
417.192	849.4
417.4	775.67
417.608	706.04
417.817	775.67
418.025	894.45
418.233	980.47
418.441	923.12
418.649	990.7
418.857	1076.72
419.065	1082.86
419.273	988.66
419.481	1121.77
419.689	1181.17
419.897	1279.47
420.105	1265.13
420.313	1250.8
420.521	1265.13
420.729	1394.15
420.937	1385.96
421.145	1398.25
421.353	1484.27
421.561	1689.06
421.769	1680.87
421.977	1736.17
422.185	1721.83
422.393	1844.71
422.601	1957.35
422.809	2026.98
423.017	1885.67
423.224	1861.09
423.432	1996.26
423.64	1955.3
423.848	2422.24
424.056	2090.46
424.263	2328.03
424.471	2321.88
424.679	2334.17
424.887	2438.62
425.094	2622.94
425.302	2639.32
425.51	2745.81
425.718	2758.1
425.925	2790.87
426.133	2821.59
426.341	3083.73
426.548	3190.22
426.756	3163.6
426.964	3155.41
427.171	3450.32
427.379	3347.92
427.586	3767.75
427.794	3714.5
428.001	3818.95
428.209	3990.98
428.417	3868.1
428.624	4326.85
428.832	4279.74
429.039	4310.46
429.247	4206.02
429.454	4666.81
429.662	4914.61
429.869	4621.75
430.076	4920.76
430.284	4881.85
430.491	4951.48
430.699	5305.78
430.906	5270.96
431.114	5268.91
431.321	5457.32
431.528	5563.82
431.736	5825.96
431.943	6335.9
432.15	6227.36
432.358	6047.14
432.565	6501.79
432.772	6481.31
432.979	6725.02
433.187	7136.66
433.394	7067.03
433.601	7384.46
433.808	7445.9
434.016	7431.57
434.223	7644.56
434.43	8295.81
434.637	7925.13
434.844	8701.31
435.052	8480.13
435.259	8576.38
435.466	8756.6
435.673	8572.29
435.88	9063.8
436.087	9602.41
436.294	9647.47
436.501	9457.01
436.708	9555.31
436.915	10028.39
437.122	10605.92
437.329	10454.37
437.537	10665.31
437.743	10892.63
437.95	10943.83
438.157	11345.23
438.364	11582.8
438.571	11822.41
438.778	11857.23
438.985	12676.41
439.192	12160.33
439.399	12596.54
439.606	12492.1
439.813	13092.15
440.02	13901.1
440.227	13772.08
440.433	13454.64
440.64	13800.75
440.847	13849.9
441.054	14218.54
441.261	15426.84
441.467	15025.43
441.674	15281.43
441.881	15801.61
442.088	15936.78
442.294	15598.87
442.501	15981.84
442.708	16426.25
442.914	17235.19
443.121	17632.5
443.328	17237.24
443.534	18509.03
443.741	17876.21
443.948	17730.8
444.154	18986.21
444.361	19053.79
444.568	18853.09
444.774	18906.34
444.981	19137.76
445.187	19576.02
445.394	20655.3
445.6	20413.64
445.807	22508.71
446.013	21445.82
446.22	21697.72
446.426	22680.74
446.633	22678.69
446.839	23788.69
447.046	22596.78
447.252	23829.65
447.459	23964.82
447.665	23567.51
447.871	24847.49
448.078	26059.89
448.284	24695.94
448.491	25470.08
448.697	26246.26
448.903	27090.02
449.11	26578.03
449.316	26608.75
449.522	26815.59
449.728	27708.51
449.935	27767.9
450.141	28040.28
450.347	28361.81
450.553	27743.32
450.76	28216.4
450.966	28734.54
451.172	28636.24
451.378	29432.89
451.584	28703.82
451.791	29383.74
451.997	29701.18
452.203	29760.57
452.409	29772.86
452.615	29862.97
452.821	28556.36
453.027	28380.24
453.233	29965.37
453.44	28290.13
453.646	28724.3
453.852	29199.43
454.058	29889.59
454.264	28630.09
454.47	29686.84
454.676	28681.29
454.882	29555.77
455.088	27247.71
455.294	27477.08
455.5	27927.64
455.705	28157.01
455.911	27341.92
456.117	26459.24
456.323	26395.76
456.529	24657.03
456.735	25949.3
456.941	25056.39
457.147	25144.45
457.352	24147.09
457.558	23772.31
457.764	24251.53
457.97	23532.7
458.176	23071.9
458.381	22914.21
458.587	21810.36
458.793	21978.29
458.999	20907.2
459.204	22473.9
459.41	21681.33
459.616	20020.43
459.821	20374.73
460.027	20315.34
460.233	19950.8
460.438	18740.45
460.644	19107.04
460.85	18199.79
461.055	17990.89
461.261	17980.65
461.466	16751.87
461.672	16059.66
461.878	17302.78
462.083	16057.61
462.289	15897.87
462.494	15484.18
462.7	15045.91
462.905	14548.26
463.111	14812.45
463.316	15050.01
463.522	14685.47
463.727	14898.46
463.932	14834.97
464.138	14513.44
464.343	14611.75
464.549	14361.89
464.754	14589.22
464.959	14656.8
465.165	14550.31
465.37	13806.89
465.575	13669.68
465.781	14374.18
465.986	13958.44
466.191	13530.42
466.397	13309.24
466.602	12883.26
466.807	13192.5
467.012	13262.13
467.218	13327.67
467.423	12975.42
467.628	13206.84
467.833	13448.5
468.038	13262.13
