Data from USB4F104151__22__14-16-14-844.txt Node

Date: Thu Mar 13 14:16:14 EDT 2025
User: louis
Spectrometer: USB4F10415
Trigger mode: 4
Integration Time (sec): 2.000000E-2
Scans to average: 1
Electric dark correction enabled: true
Nonlinearity correction enabled: false
Boxcar width: 0
XAxis mode: Wavelengths
Number of Pixels in Spectrum: 3648
>>>>>Begin Spectral Data<<<<<
178.204	-29.18
178.424	-29.18
178.644	-29.18
178.864	-86.53
179.084	-86.53
179.304	48.64
179.524	-20.99
179.744	17.92
179.964	-8.7
180.184	56.83
180.404	26.11
180.624	-74.24
180.844	50.69
181.064	-76.29
181.283	13.82
181.503	-27.14
181.723	-6.66
181.943	-29.18
182.163	52.74
182.383	44.54
182.602	48.64
182.822	126.46
183.042	52.74
183.262	-57.86
183.482	32.26
183.701	-0.51
183.921	-0.51
184.141	38.4
184.361	3.58
184.58	40.45
184.8	36.35
185.02	3.58
185.239	69.12
185.459	79.36
185.679	48.64
185.898	-31.23
186.118	122.37
186.338	19.97
186.557	97.79
186.777	36.35
186.997	15.87
187.216	81.41
187.436	46.59
187.655	28.16
187.875	36.35
188.095	7.68
188.314	105.98
188.534	81.41
188.753	42.5
188.973	-25.09
189.192	65.02
189.412	15.87
189.631	75.26
189.851	15.87
190.07	81.41
190.29	77.31
190.509	32.26
190.729	95.74
190.948	75.26
191.168	146.94
191.387	114.17
191.607	17.92
191.826	-0.51
192.045	71.17
192.265	-0.51
192.484	7.68
192.704	9.73
192.923	-4.61
193.142	108.03
193.362	46.59
193.581	56.83
193.8	48.64
194.02	42.5
194.239	85.5
194.458	138.75
194.678	48.64
194.897	105.98
195.116	56.83
195.335	71.17
195.555	24.06
195.774	75.26
195.993	99.84
196.212	-2.56
196.432	-8.7
196.651	50.69
196.87	32.26
197.089	79.36
197.308	15.87
197.528	-4.61
197.747	-16.9
197.966	60.93
198.185	101.89
198.404	34.3
198.623	114.17
198.842	-2.56
199.062	15.87
199.281	69.12
199.5	13.82
199.719	13.82
199.938	91.65
200.157	46.59
200.376	5.63
200.595	50.69
200.814	67.07
201.033	48.64
201.252	36.35
201.471	42.5
201.69	75.26
201.909	114.17
202.128	67.07
202.347	91.65
202.566	-14.85
202.785	40.45
203.004	48.64
203.223	65.02
203.442	32.26
203.661	9.73
203.879	-29.18
204.098	48.64
204.317	17.92
204.536	105.98
204.755	56.83
204.974	-35.33
205.193	26.11
205.411	105.98
205.63	52.74
205.849	73.21
206.068	7.68
206.287	-14.85
206.505	34.3
206.724	36.35
206.943	15.87
207.162	105.98
207.381	46.59
207.599	73.21
207.818	65.02
208.037	-12.8
208.255	71.17
208.474	34.3
208.693	-10.75
208.911	15.87
209.13	-39.42
209.349	58.88
209.567	42.5
209.786	65.02
210.005	19.97
210.223	26.11
210.442	-33.28
210.661	50.69
210.879	105.98
211.098	24.06
211.316	60.93
211.535	124.41
211.753	65.02
211.972	26.11
212.191	48.64
212.409	36.35
212.628	46.59
212.846	124.41
213.065	22.02
213.283	81.41
213.502	93.69
213.72	83.45
213.938	69.12
214.157	7.68
214.375	42.5
214.594	3.58
214.812	93.69
215.031	42.5
215.249	42.5
215.467	116.22
215.686	15.87
215.904	1.54
216.122	26.11
216.341	122.37
216.559	9.73
216.778	77.31
216.996	87.55
217.214	46.59
217.432	-4.61
217.651	-0.51
217.869	114.17
218.087	71.17
218.306	17.92
218.524	71.17
218.742	-33.28
218.96	50.69
219.179	-4.61
219.397	81.41
219.615	28.16
219.833	11.78
220.051	-37.38
220.27	95.74
220.488	-14.85
220.706	42.5
220.924	91.65
221.142	62.98
221.36	101.89
221.578	15.87
221.796	40.45
222.015	40.45
222.233	65.02
222.451	32.26
222.669	-6.66
222.887	-16.9
223.105	19.97
223.323	69.12
223.541	36.35
223.759	-29.18
223.977	65.02
224.195	50.69
224.413	73.21
224.631	67.07
224.849	26.11
225.067	1.54
225.285	34.3
225.503	-47.62
225.721	-0.51
225.939	-29.18
226.157	56.83
226.375	114.17
226.592	9.73
226.81	1.54
227.028	79.36
227.246	62.98
227.464	42.5
227.682	-12.8
227.9	60.93
228.117	77.31
228.335	48.64
228.553	32.26
228.771	67.07
228.989	101.89
229.206	48.64
229.424	5.63
229.642	15.87
229.86	26.11
230.077	28.16
230.295	7.68
230.513	118.27
230.731	73.21
230.948	101.89
231.166	48.64
231.384	19.97
231.601	69.12
231.819	101.89
232.037	19.97
232.254	7.68
232.472	32.26
232.689	73.21
232.907	58.88
233.125	65.02
233.342	73.21
233.56	36.35
233.777	15.87
233.995	50.69
234.213	65.02
234.43	11.78
234.648	58.88
234.865	38.4
235.083	85.5
235.3	24.06
235.518	15.87
235.735	42.5
235.953	58.88
236.17	24.06
236.388	105.98
236.605	79.36
236.822	89.6
237.04	52.74
237.257	105.98
237.475	-6.66
237.692	91.65
237.909	58.88
238.127	62.98
238.344	105.98
238.562	17.92
238.779	50.69
238.996	15.87
239.214	7.68
239.431	58.88
239.648	97.79
239.865	69.12
240.083	15.87
240.3	15.87
240.517	56.83
240.735	36.35
240.952	65.02
241.169	52.74
241.386	105.98
241.603	-2.56
241.821	26.11
242.038	48.64
242.255	105.98
242.472	83.45
242.689	97.79
242.907	83.45
243.124	60.93
243.341	-18.94
243.558	17.92
243.775	81.41
243.992	44.54
244.209	122.37
244.426	93.69
244.643	60.93
244.86	138.75
245.078	40.45
245.295	9.73
245.512	38.4
245.729	-23.04
245.946	132.61
246.163	81.41
246.38	69.12
246.597	34.3
246.814	67.07
247.031	60.93
247.248	9.73
247.464	50.69
247.681	103.93
247.898	24.06
248.115	50.69
248.332	32.26
248.549	56.83
248.766	110.08
248.983	46.59
249.2	89.6
249.417	56.83
249.633	15.87
249.85	50.69
250.067	7.68
250.284	73.21
250.501	108.03
250.717	97.79
250.934	32.26
251.151	24.06
251.368	34.3
251.585	95.74
251.801	17.92
252.018	81.41
252.235	122.37
252.451	50.69
252.668	42.5
252.885	124.41
253.102	89.6
253.318	-47.62
253.535	69.12
253.752	93.69
253.968	7.68
254.185	32.26
254.401	73.21
254.618	19.97
254.835	50.69
255.051	101.89
255.268	3.58
255.484	56.83
255.701	7.68
255.917	56.83
256.134	-41.47
256.351	77.31
256.567	3.58
256.784	3.58
257	-64
257.217	36.35
257.433	77.31
257.65	85.5
257.866	89.6
258.082	3.58
258.299	-37.38
258.515	-0.51
258.732	36.35
258.948	-47.62
259.165	67.07
259.381	30.21
259.597	-6.66
259.814	-4.61
260.03	105.98
260.246	40.45
260.463	79.36
260.679	79.36
260.895	62.98
261.112	134.65
261.328	26.11
261.544	-6.66
261.761	151.04
261.977	69.12
262.193	40.45
262.409	30.21
262.626	67.07
262.842	85.5
263.058	-23.04
263.274	108.03
263.49	60.93
263.707	99.84
263.923	91.65
264.139	11.78
264.355	40.45
264.571	65.02
264.787	5.63
265.004	69.12
265.22	83.45
265.436	46.59
265.652	134.65
265.868	60.93
266.084	-8.7
266.3	120.32
266.516	40.45
266.732	-43.52
266.948	-2.56
267.164	36.35
267.38	15.87
267.596	67.07
267.812	26.11
268.028	40.45
268.244	108.03
268.46	48.64
268.676	91.65
268.892	48.64
269.108	67.07
269.324	-25.09
269.54	89.6
269.756	69.12
269.972	36.35
270.188	7.68
270.403	-6.66
270.619	-18.94
270.835	75.26
271.051	24.06
271.267	48.64
271.483	-20.99
271.698	48.64
271.914	58.88
272.13	15.87
272.346	15.87
272.562	48.64
272.777	-8.7
272.993	-16.9
273.209	54.78
273.425	-25.09
273.64	15.87
273.856	71.17
274.072	36.35
274.287	22.02
274.503	73.21
274.719	81.41
274.934	7.68
275.15	56.83
275.366	124.41
275.581	-10.75
275.797	48.64
276.012	87.55
276.228	58.88
276.444	24.06
276.659	97.79
276.875	32.26
277.09	99.84
277.306	40.45
277.521	124.41
277.737	34.3
277.952	40.45
278.168	60.93
278.383	52.74
278.599	19.97
278.814	19.97
279.03	26.11
279.245	99.84
279.461	26.11
279.676	73.21
279.892	42.5
280.107	-18.94
280.322	1.54
280.538	-31.23
280.753	24.06
280.969	60.93
281.184	-0.51
281.399	24.06
281.615	101.89
281.83	146.94
282.045	71.17
282.26	87.55
282.476	42.5
282.691	46.59
282.906	-35.33
283.122	60.93
283.337	26.11
283.552	95.74
283.767	19.97
283.983	40.45
284.198	44.54
284.413	69.12
284.628	-18.94
284.843	105.98
285.058	42.5
285.274	73.21
285.489	-6.66
285.704	52.74
285.919	24.06
286.134	24.06
286.349	56.83
286.564	26.11
286.779	151.04
286.995	48.64
287.21	75.26
287.425	-2.56
287.64	32.26
287.855	69.12
288.07	-8.7
288.285	93.69
288.5	114.17
288.715	144.89
288.93	28.16
289.145	40.45
289.36	58.88
289.575	128.51
289.79	65.02
290.004	46.59
290.219	79.36
290.434	50.69
290.649	-47.62
290.864	-6.66
291.079	13.82
291.294	56.83
291.509	108.03
291.724	42.5
291.938	9.73
292.153	91.65
292.368	38.4
292.583	85.5
292.798	34.3
293.012	89.6
293.227	52.74
293.442	32.26
293.657	17.92
293.871	71.17
294.086	140.8
294.301	136.7
294.516	60.93
294.73	89.6
294.945	40.45
295.16	69.12
295.374	48.64
295.589	93.69
295.804	42.5
296.018	95.74
296.233	58.88
296.447	44.54
296.662	-16.9
296.877	161.28
297.091	17.92
297.306	67.07
297.52	30.21
297.735	85.5
297.949	17.92
298.164	69.12
298.378	81.41
298.593	44.54
298.807	-16.9
299.022	120.32
299.236	101.89
299.451	101.89
299.665	-6.66
299.88	73.21
300.094	28.16
300.309	-39.42
300.523	19.97
300.737	89.6
300.952	15.87
301.166	81.41
301.381	38.4
301.595	60.93
301.809	9.73
302.024	40.45
302.238	52.74
302.452	69.12
302.667	28.16
302.881	77.31
303.095	44.54
303.309	19.97
303.524	-14.85
303.738	196.09
303.952	-25.09
304.166	77.31
304.381	50.69
304.595	105.98
304.809	-4.61
305.023	42.5
305.237	48.64
305.452	19.97
305.666	56.83
305.88	77.31
306.094	138.75
306.308	85.5
306.522	58.88
306.736	24.06
306.95	48.64
307.164	52.74
307.379	36.35
307.593	34.3
307.807	91.65
308.021	71.17
308.235	138.75
308.449	65.02
308.663	81.41
308.877	189.95
309.091	52.74
309.305	142.85
309.519	24.06
309.733	124.41
309.947	81.41
310.161	81.41
310.374	103.93
310.588	67.07
310.802	32.26
311.016	7.68
311.23	65.02
311.444	65.02
311.658	58.88
311.872	91.65
312.085	169.47
312.299	146.94
312.513	24.06
312.727	52.74
312.941	-33.28
313.154	81.41
313.368	-20.99
313.582	130.56
313.796	71.17
314.009	77.31
314.223	15.87
314.437	24.06
314.651	40.45
314.864	56.83
315.078	112.13
315.292	130.56
315.505	54.78
315.719	34.3
315.933	24.06
316.146	26.11
316.36	56.83
316.573	34.3
316.787	91.65
317.001	69.12
317.214	52.74
317.428	32.26
317.641	75.26
317.855	36.35
318.068	1.54
318.282	42.5
318.495	50.69
318.709	81.41
318.922	42.5
319.136	56.83
319.349	-0.51
319.563	-12.8
319.776	56.83
319.99	3.58
320.203	71.17
320.417	48.64
320.63	-8.7
320.843	40.45
321.057	11.78
321.27	42.5
321.483	89.6
321.697	67.07
321.91	58.88
322.124	81.41
322.337	85.5
322.55	-25.09
322.763	50.69
322.977	-12.8
323.19	19.97
323.403	48.64
323.617	42.5
323.83	134.65
324.043	97.79
324.256	124.41
324.469	30.21
324.683	52.74
324.896	36.35
325.109	3.58
325.322	28.16
325.535	30.21
325.748	73.21
325.962	77.31
326.175	28.16
326.388	52.74
326.601	56.83
326.814	36.35
327.027	34.3
327.24	110.08
327.453	9.73
327.666	58.88
327.879	114.17
328.092	97.79
328.305	73.21
328.518	-2.56
328.731	81.41
328.944	108.03
329.157	138.75
329.37	62.98
329.583	75.26
329.796	105.98
330.009	9.73
330.222	52.74
330.435	65.02
330.648	48.64
330.861	73.21
331.073	93.69
331.286	81.41
331.499	48.64
331.712	11.78
331.925	50.69
332.138	75.26
332.35	99.84
332.563	-37.38
332.776	118.27
332.989	46.59
333.202	9.73
333.414	7.68
333.627	32.26
333.84	17.92
334.053	130.56
334.265	-29.18
334.478	79.36
334.691	34.3
334.903	48.64
335.116	36.35
335.329	75.26
335.541	-20.99
335.754	54.78
335.966	44.54
336.179	-18.94
336.392	93.69
336.604	65.02
336.817	52.74
337.029	93.69
337.242	77.31
337.454	91.65
337.667	40.45
337.88	97.79
338.092	24.06
338.305	-0.51
338.517	60.93
338.729	73.21
338.942	40.45
339.154	28.16
339.367	52.74
339.579	75.26
339.792	42.5
340.004	91.65
340.217	71.17
340.429	75.26
340.641	19.97
340.854	7.68
341.066	1.54
341.278	108.03
341.491	114.17
341.703	118.27
341.915	52.74
342.128	101.89
342.34	77.31
342.552	24.06
342.764	105.98
342.977	50.69
343.189	-8.7
343.401	75.26
343.613	40.45
343.826	-0.51
344.038	9.73
344.25	42.5
344.462	65.02
344.674	81.41
344.886	28.16
345.099	81.41
345.311	5.63
345.523	9.73
345.735	-49.66
345.947	62.98
346.159	44.54
346.371	89.6
346.583	77.31
346.795	91.65
347.007	48.64
347.219	85.5
347.431	24.06
347.643	114.17
347.855	-8.7
348.067	52.74
348.279	65.02
348.491	79.36
348.703	40.45
348.915	28.16
349.127	-14.85
349.339	34.3
349.551	17.92
349.763	69.12
349.975	77.31
350.187	87.55
350.399	44.54
350.61	56.83
350.822	-10.75
351.034	58.88
351.246	24.06
351.458	26.11
351.669	132.61
351.881	134.65
352.093	11.78
352.305	99.84
352.517	15.87
352.728	28.16
352.94	11.78
353.152	122.37
353.363	62.98
353.575	77.31
353.787	52.74
353.999	52.74
354.21	93.69
354.422	46.59
354.633	50.69
354.845	-20.99
355.057	79.36
355.268	81.41
355.48	-0.51
355.692	26.11
355.903	56.83
356.115	46.59
356.326	56.83
356.538	140.8
356.749	58.88
356.961	122.37
357.172	58.88
357.384	34.3
357.595	101.89
357.807	-0.51
358.018	36.35
358.23	54.78
358.441	163.33
358.653	81.41
358.864	-4.61
359.075	-20.99
359.287	46.59
359.498	118.27
359.709	101.89
359.921	108.03
360.132	81.41
360.344	24.06
360.555	58.88
360.766	67.07
360.977	19.97
361.189	79.36
361.4	-33.28
361.611	36.35
361.823	71.17
362.034	69.12
362.245	17.92
362.456	159.23
362.667	48.64
362.879	-14.85
363.09	65.02
363.301	97.79
363.512	19.97
363.723	83.45
363.935	85.5
364.146	65.02
364.357	38.4
364.568	89.6
364.779	89.6
364.99	19.97
365.201	56.83
365.412	42.5
365.623	48.64
365.834	108.03
366.045	28.16
366.256	124.41
366.467	22.02
366.678	73.21
366.889	44.54
367.1	40.45
367.311	77.31
367.522	36.35
367.733	13.82
367.944	50.69
368.155	48.64
368.366	40.45
368.577	97.79
368.788	42.5
368.999	-33.28
369.209	124.41
369.42	65.02
369.631	81.41
369.842	81.41
370.053	118.27
370.264	77.31
370.474	1.54
370.685	93.69
370.896	46.59
371.107	95.74
371.317	9.73
371.528	97.79
371.739	97.79
371.95	97.79
372.16	28.16
372.371	26.11
372.582	15.87
372.792	56.83
373.003	28.16
373.214	91.65
373.424	42.5
373.635	34.3
373.846	56.83
374.056	77.31
374.267	153.09
374.477	9.73
374.688	65.02
374.898	87.55
375.109	85.5
375.319	15.87
375.53	81.41
375.74	24.06
375.951	50.69
376.161	60.93
376.372	73.21
376.582	114.17
376.793	91.65
377.003	122.37
377.214	32.26
377.424	112.13
377.635	52.74
377.845	73.21
378.055	85.5
378.266	-14.85
378.476	50.69
378.686	79.36
378.897	97.79
379.107	44.54
379.317	122.37
379.528	89.6
379.738	56.83
379.948	118.27
380.158	175.61
380.369	36.35
380.579	48.64
380.789	-18.94
380.999	62.98
381.21	130.56
381.42	79.36
381.63	48.64
381.84	69.12
382.05	71.17
382.261	34.3
382.471	67.07
382.681	81.41
382.891	85.5
383.101	101.89
383.311	-33.28
383.521	17.92
383.731	52.74
383.941	114.17
384.151	122.37
384.361	48.64
384.571	67.07
384.781	50.69
384.991	110.08
385.201	101.89
385.411	97.79
385.621	85.5
385.831	97.79
386.041	67.07
386.251	130.56
386.461	54.78
386.671	67.07
386.881	146.94
387.091	65.02
387.301	116.22
387.511	24.06
387.72	114.17
387.93	44.54
388.14	-8.7
388.35	81.41
388.56	89.6
388.769	177.66
388.979	44.54
389.189	50.69
389.399	110.08
389.609	56.83
389.818	126.46
390.028	167.42
390.238	65.02
390.447	48.64
390.657	99.84
390.867	24.06
391.076	75.26
391.286	75.26
391.496	91.65
391.705	89.6
391.915	40.45
392.125	38.4
392.334	67.07
392.544	114.17
392.753	79.36
392.963	105.98
393.172	44.54
393.382	114.17
393.591	110.08
393.801	97.79
394.01	105.98
394.22	81.41
394.429	58.88
394.639	34.3
394.848	52.74
395.058	110.08
395.267	73.21
395.477	99.84
395.686	112.13
395.895	124.41
396.105	159.23
396.314	130.56
396.524	159.23
396.733	103.93
396.942	163.33
397.152	38.4
397.361	206.33
397.57	153.09
397.78	97.79
397.989	110.08
398.198	185.85
398.407	40.45
398.617	105.98
398.826	146.94
399.035	97.79
399.244	103.93
399.453	138.75
399.663	159.23
399.872	196.09
400.081	89.6
400.29	189.95
400.499	114.17
400.708	97.79
400.917	134.65
401.127	136.7
401.336	103.93
401.545	116.22
401.754	161.28
401.963	146.94
402.172	165.37
402.381	114.17
402.59	122.37
402.799	103.93
403.008	171.52
403.217	196.09
403.426	146.94
403.635	175.61
403.844	151.04
404.053	122.37
404.262	189.95
404.471	181.76
404.68	155.13
404.888	200.19
405.097	175.61
405.306	230.91
405.515	222.72
405.724	114.17
405.933	200.19
406.142	224.76
406.35	155.13
406.559	192
406.768	228.86
406.977	132.61
407.185	302.59
407.394	187.9
407.603	138.75
407.812	179.71
408.02	271.87
408.229	220.67
408.438	208.38
408.646	237.05
408.855	275.96
409.064	226.81
409.272	241.15
409.481	298.49
409.69	280.06
409.898	204.28
410.107	310.78
410.315	257.53
410.524	327.16
410.733	368.12
410.941	343.55
411.15	376.31
411.358	384.51
411.567	361.98
411.775	386.55
411.984	384.51
412.192	458.23
412.401	359.93
412.609	482.81
412.818	482.81
413.026	488.95
413.234	474.62
413.443	468.47
413.651	523.77
413.86	507.38
414.068	531.96
414.276	531.96
414.485	601.59
414.693	636.41
414.901	665.08
415.11	767.48
415.318	642.55
415.526	583.16
415.734	732.66
415.943	703.99
416.151	753.14
416.359	757.24
416.567	794.1
416.776	839.16
416.984	900.59
417.192	925.17
417.4	927.22
417.608	908.79
417.817	966.13
418.025	1068.53
418.233	1050.1
418.441	1007.09
418.649	1201.65
418.857	1220.08
419.065	1211.89
419.273	1222.13
419.481	1232.37
419.689	1326.57
419.897	1451.5
420.105	1326.57
420.313	1451.5
420.521	1404.39
420.729	1582.57
420.937	1519.08
421.145	1705.45
421.353	1836.52
421.561	1904.1
421.769	1844.71
421.977	1840.61
422.185	1918.43
422.393	1988.07
422.601	2137.57
422.809	2127.33
423.017	1969.63
423.224	2153.95
423.432	2434.52
423.64	2325.98
423.848	2473.43
424.056	2416.09
424.263	2641.37
424.471	2719.19
424.679	2661.85
424.887	2780.63
425.094	3030.48
425.302	2815.45
425.51	2930.13
425.718	3096.02
425.925	3038.67
426.133	3243.47
426.341	3407.31
426.548	3464.65
426.756	3577.29
426.964	3636.68
427.171	3800.52
427.379	4113.86
427.586	4031.94
427.794	4001.22
428.001	4343.23
428.209	4603.32
428.417	4570.55
428.624	4734.39
428.832	4767.16
429.039	4740.54
429.247	4681.14
429.454	5221.81
429.662	5539.24
429.869	5213.62
430.076	5696.94
430.284	5356.97
430.491	5545.39
430.699	5969.32
430.906	5834.15
431.114	6012.32
431.321	6198.69
431.528	6323.62
431.736	6774.17
431.943	7032.21
432.15	6954.39
432.358	7028.12
432.565	7376.27
432.772	7325.07
432.979	7656.84
433.187	7593.36
433.394	7726.47
433.601	8254.85
433.808	8103.3
434.016	8271.23
434.223	8551.81
434.43	9018.74
434.637	8945.02
434.844	9493.87
435.052	9854.31
435.259	9418.1
435.466	9530.73
435.673	9653.61
435.88	10206.56
436.087	10847.58
436.294	10804.57
436.501	10519.9
436.708	10524
436.915	11212.12
437.122	11609.42
437.329	11361.62
437.537	11898.19
437.743	12084.55
437.95	12021.06
438.157	12911.93
438.364	13040.95
438.571	13167.93
438.778	13032.76
438.985	14365.99
439.192	13663.54
439.399	14150.95
439.606	13737.26
439.813	14703.9
440.02	15461.65
440.227	15248.66
440.433	15176.98
440.64	15613.2
440.847	15295.77
441.054	15772.94
441.261	16950.53
441.467	16633.09
441.674	16973.05
441.881	17474.81
442.088	17480.95
442.294	17415.41
442.501	18025.71
442.708	18361.58
442.914	18883.81
443.121	19807.44
443.328	19348.7
443.534	20415.69
443.741	19954.9
443.948	19700.95
444.154	21179.58
444.361	21081.28
444.568	21075.13
444.774	21083.33
444.981	21527.74
445.187	22140.08
445.394	23094.43
445.6	22451.37
445.807	24839.3
446.013	23719.06
446.22	24018.07
446.426	25111.68
446.633	25494.65
446.839	26072.18
447.046	25205.89
447.252	26172.53
447.459	26465.39
447.665	26401.9
447.871	27622.49
448.078	28718.15
448.284	27042.92
448.491	28396.62
448.697	29283.39
448.903	29848.63
449.11	30020.66
449.316	29496.38
449.522	29465.66
449.728	30723.12
449.935	30678.06
450.141	30811.18
450.347	31591.45
450.553	30481.45
450.76	30727.21
450.966	32252.95
451.172	31663.13
451.378	32146.45
451.584	31476.77
451.791	32363.54
451.997	32381.97
452.203	33184.77
452.409	33084.42
452.615	33078.28
452.821	31779.87
453.027	31149.09
453.233	32988.17
453.44	31704.09
453.646	31779.87
453.852	32218.13
454.058	32560.14
454.264	31720.48
454.47	32588.81
454.676	31697.95
454.882	32480.27
455.088	29746.23
455.294	30092.34
455.5	30876.71
455.705	31018.02
455.911	29903.93
456.117	29217.86
456.323	28843.08
456.529	27303.01
456.735	28818.5
456.941	27540.57
457.147	27556.96
457.352	26713.19
457.558	26326.13
457.764	26260.59
457.97	25795.7
458.176	25474.17
458.381	25390.2
458.587	24401.04
458.793	23786.65
458.999	22881.44
459.204	24261.77
459.41	23676.05
459.616	22082.74
459.821	22088.88
460.027	22242.48
460.233	21785.78
460.438	20653.25
460.644	20759.75
460.85	20081.87
461.055	19735.76
461.261	19782.87
461.466	17947.89
461.672	17446.13
461.878	18781.41
462.083	17960.17
462.289	17116.41
462.494	17014.01
462.7	16377.09
462.905	15744.27
463.111	16555.27
463.316	16680.19
463.522	15987.98
463.727	16123.15
463.932	16229.64
464.138	15973.64
464.343	16084.23
464.549	15619.35
464.754	15912.21
464.959	16073.99
465.165	15484.18
465.37	15007
465.575	14820.64
465.781	15148.31
465.986	15369.49
466.191	14837.02
466.397	14322.98
466.602	13790.51
466.807	14343.46
467.012	14224.68
467.218	14443.81
