Data from USB4F104151__92__14-17-57-841.txt Node

Date: Thu Mar 13 14:17:57 EDT 2025
User: louis
Spectrometer: USB4F10415
Trigger mode: 4
Integration Time (sec): 2.000000E-2
Scans to average: 1
Electric dark correction enabled: true
Nonlinearity correction enabled: false
Boxcar width: 0
XAxis mode: Wavelengths
Number of Pixels in Spectrum: 3648
>>>>>Begin Spectral Data<<<<<
178.204	-78.51
178.424	-78.51
178.644	-78.51
178.864	-129.7
179.084	-152.23
179.304	9.56
179.524	-53.93
179.744	-74.41
179.964	85.33
180.184	-15.02
180.404	3.41
180.624	-37.55
180.844	-45.74
181.064	44.37
181.283	-12.97
181.503	36.18
181.723	60.76
181.943	-51.88
182.163	79.19
182.383	-0.68
182.602	19.8
182.822	38.23
183.042	30.04
183.262	9.56
183.482	58.71
183.701	-2.73
183.921	-12.97
184.141	19.8
184.361	89.43
184.58	-23.21
184.8	7.51
185.02	46.42
185.239	68.95
185.459	3.41
185.679	81.24
185.898	-17.07
186.118	95.57
186.338	-45.74
186.557	3.41
186.777	-64.17
186.997	54.61
187.216	27.99
187.436	40.28
187.655	-27.31
187.875	85.33
188.095	54.61
188.314	48.47
188.534	40.28
188.753	23.89
188.973	40.28
189.192	62.8
189.412	-53.93
189.631	62.8
189.851	17.75
190.07	52.56
190.29	48.47
190.509	-21.16
190.729	-19.11
190.948	21.85
191.168	77.14
191.387	52.56
191.607	-0.68
191.826	34.13
192.045	32.08
192.265	56.66
192.484	-21.16
192.704	-0.68
192.923	-4.78
193.142	62.8
193.362	40.28
193.581	-29.35
193.8	79.19
194.02	77.14
194.239	-10.92
194.458	-10.92
194.678	34.13
194.897	52.56
195.116	44.37
195.335	7.51
195.555	66.9
195.774	40.28
195.993	56.66
196.212	-23.21
196.432	-17.07
196.651	-27.31
196.87	-4.78
197.089	30.04
197.308	-58.03
197.528	-17.07
197.747	-23.21
197.966	3.41
198.185	71
198.404	-2.73
198.623	25.94
198.842	-19.11
199.062	44.37
199.281	62.8
199.5	-12.97
199.719	27.99
199.938	11.61
200.157	50.52
200.376	5.46
200.595	42.32
200.814	-29.35
201.033	71
201.252	68.95
201.471	-8.87
201.69	5.46
201.909	-37.55
202.128	34.13
202.347	73.04
202.566	19.8
202.785	-12.97
203.004	30.04
203.223	79.19
203.442	68.95
203.661	34.13
203.879	-15.02
204.098	64.85
204.317	-47.79
204.536	58.71
204.755	-17.07
204.974	13.65
205.193	38.23
205.411	54.61
205.63	40.28
205.849	11.61
206.068	40.28
206.287	5.46
206.505	87.38
206.724	73.04
206.943	48.47
207.162	11.61
207.381	-62.12
207.599	-8.87
207.818	52.56
208.037	-6.83
208.255	-19.11
208.474	-12.97
208.693	81.24
208.911	46.42
209.13	-4.78
209.349	44.37
209.567	-6.83
209.786	40.28
210.005	40.28
210.223	34.13
210.442	-33.45
210.661	36.18
210.879	21.85
211.098	-12.97
211.316	7.51
211.535	27.99
211.753	32.08
211.972	36.18
212.191	-27.31
212.409	77.14
212.628	52.56
212.846	13.65
213.065	15.7
213.283	68.95
213.502	60.76
213.72	32.08
213.938	-19.11
214.157	27.99
214.375	19.8
214.594	101.72
214.812	25.94
215.031	48.47
215.249	-4.78
215.467	30.04
215.686	-0.68
215.904	-12.97
216.122	44.37
216.341	-4.78
216.559	64.85
216.778	5.46
216.996	23.89
217.214	7.51
217.432	73.04
217.651	-62.12
217.869	3.41
218.087	-17.07
218.306	44.37
218.524	19.8
218.742	17.75
218.96	13.65
219.179	101.72
219.397	38.23
219.615	68.95
219.833	40.28
220.051	-25.26
220.27	44.37
220.488	-35.5
220.706	36.18
220.924	58.71
221.142	36.18
221.36	-0.68
221.578	-17.07
221.796	11.61
222.015	13.65
222.233	21.85
222.451	130.39
222.669	-12.97
222.887	68.95
223.105	85.33
223.323	30.04
223.541	5.46
223.759	105.81
223.977	34.13
224.195	91.48
224.413	38.23
224.631	30.04
224.849	124.24
225.067	89.43
225.285	-25.26
225.503	44.37
225.721	-58.03
225.939	-4.78
226.157	-17.07
226.375	114
226.592	-21.16
226.81	-25.26
227.028	54.61
227.246	27.99
227.464	13.65
227.682	32.08
227.9	87.38
228.117	73.04
228.335	5.46
228.553	-19.11
228.771	11.61
228.989	32.08
229.206	64.85
229.424	3.41
229.642	-2.73
229.86	30.04
230.077	109.91
230.295	62.8
230.513	77.14
230.731	95.57
230.948	71
231.166	46.42
231.384	40.28
231.601	-45.74
231.819	60.76
232.037	68.95
232.254	-12.97
232.472	79.19
232.689	60.76
232.907	171.35
233.125	73.04
233.342	81.24
233.56	-45.74
233.777	-27.31
233.995	44.37
234.213	36.18
234.43	19.8
234.648	-29.35
234.865	48.47
235.083	77.14
235.3	-8.87
235.518	42.32
235.735	68.95
235.953	122.2
236.17	15.7
236.388	36.18
236.605	27.99
236.822	68.95
237.04	-43.69
237.257	42.32
237.475	27.99
237.692	60.76
237.909	60.76
238.127	-45.74
238.344	101.72
238.562	13.65
238.779	15.7
238.996	-4.78
239.214	44.37
239.431	19.8
239.648	-49.83
239.865	32.08
240.083	46.42
240.3	-29.35
240.517	-29.35
240.735	-10.92
240.952	15.7
241.169	54.61
241.386	-10.92
241.603	13.65
241.821	11.61
242.038	118.1
242.255	1.37
242.472	-0.68
242.689	3.41
242.907	40.28
243.124	-21.16
243.341	-10.92
243.558	-66.22
243.775	-25.26
243.992	5.46
244.209	30.04
244.426	77.14
244.643	42.32
244.86	-37.55
245.078	-8.87
245.295	-35.5
245.512	87.38
245.729	-68.27
245.946	7.51
246.163	5.46
246.38	30.04
246.597	32.08
246.814	85.33
247.031	-15.02
247.248	3.41
247.464	50.52
247.681	30.04
247.898	-2.73
248.115	11.61
248.332	-94.89
248.549	11.61
248.766	40.28
248.983	30.04
249.2	64.85
249.417	71
249.633	44.37
249.85	-8.87
250.067	19.8
250.284	-4.78
250.501	-45.74
250.717	52.56
250.934	56.66
251.151	36.18
251.368	19.8
251.585	77.14
251.801	-21.16
252.018	-29.35
252.235	3.41
252.451	-60.07
252.668	-17.07
252.885	124.24
253.102	27.99
253.318	-12.97
253.535	-4.78
253.752	62.8
253.968	-51.88
254.185	-17.07
254.401	52.56
254.618	60.76
254.835	-37.55
255.051	54.61
255.268	-58.03
255.484	19.8
255.701	19.8
255.917	44.37
256.134	-45.74
256.351	21.85
256.567	48.47
256.784	15.7
257	-8.87
257.217	54.61
257.433	40.28
257.65	60.76
257.866	46.42
258.082	44.37
258.299	40.28
258.515	11.61
258.732	64.85
258.948	30.04
259.165	3.41
259.381	23.89
259.597	36.18
259.814	21.85
260.03	-10.92
260.246	60.76
260.463	30.04
260.679	66.9
260.895	-19.11
261.112	44.37
261.328	11.61
261.544	-37.55
261.761	40.28
261.977	19.8
262.193	27.99
262.409	19.8
262.626	27.99
262.842	109.91
263.058	13.65
263.274	89.43
263.49	60.76
263.707	85.33
263.923	23.89
264.139	-33.45
264.355	40.28
264.571	-21.16
264.787	11.61
265.004	103.76
265.22	-35.5
265.436	-21.16
265.652	52.56
265.868	44.37
266.084	32.08
266.3	-17.07
266.516	52.56
266.732	50.52
266.948	60.76
267.164	30.04
267.38	91.48
267.596	95.57
267.812	95.57
268.028	71
268.244	85.33
268.46	23.89
268.676	46.42
268.892	5.46
269.108	7.51
269.324	52.56
269.54	11.61
269.756	52.56
269.972	75.09
270.188	-45.74
270.403	21.85
270.619	77.14
270.835	15.7
271.051	87.38
271.267	34.13
271.483	62.8
271.698	38.23
271.914	56.66
272.13	36.18
272.346	-35.5
272.562	36.18
272.777	142.68
272.993	68.95
273.209	13.65
273.425	13.65
273.64	-0.68
273.856	54.61
274.072	-45.74
274.287	27.99
274.503	-37.55
274.719	52.56
274.934	-19.11
275.15	-86.7
275.366	19.8
275.581	-0.68
275.797	73.04
276.012	9.56
276.228	11.61
276.444	81.24
276.659	44.37
276.875	7.51
277.09	15.7
277.306	9.56
277.521	23.89
277.737	13.65
277.952	3.41
278.168	85.33
278.383	7.51
278.599	36.18
278.814	21.85
279.03	-12.97
279.245	40.28
279.461	36.18
279.676	32.08
279.892	42.32
280.107	44.37
280.322	52.56
280.538	101.72
280.753	11.61
280.969	52.56
281.184	-12.97
281.399	71
281.615	-2.73
281.83	77.14
282.045	-2.73
282.26	27.99
282.476	-0.68
282.691	109.91
282.906	56.66
283.122	107.86
283.337	-4.78
283.552	101.72
283.767	-21.16
283.983	19.8
284.198	1.37
284.413	118.1
284.628	-4.78
284.843	54.61
285.058	27.99
285.274	42.32
285.489	36.18
285.704	60.76
285.919	54.61
286.134	27.99
286.349	11.61
286.564	-0.68
286.779	19.8
286.995	-10.92
287.21	19.8
287.425	52.56
287.64	7.51
287.855	62.8
288.07	-37.55
288.285	95.57
288.5	132.44
288.715	-39.59
288.93	27.99
289.145	30.04
289.36	48.47
289.575	-27.31
289.79	48.47
290.004	3.41
290.219	34.13
290.434	-0.68
290.649	46.42
290.864	48.47
291.079	5.46
291.294	17.75
291.509	-4.78
291.724	52.56
291.938	-0.68
292.153	38.23
292.368	-10.92
292.583	75.09
292.798	40.28
293.012	-8.87
293.227	68.95
293.442	46.42
293.657	120.15
293.871	128.34
294.086	19.8
294.301	101.72
294.516	27.99
294.73	85.33
294.945	-17.07
295.16	40.28
295.374	11.61
295.589	40.28
295.804	-45.74
296.018	30.04
296.233	44.37
296.447	30.04
296.662	44.37
296.877	-21.16
297.091	21.85
297.306	46.42
297.52	23.89
297.735	30.04
297.949	11.61
298.164	159.06
298.378	7.51
298.593	1.37
298.807	46.42
299.022	-53.93
299.236	30.04
299.451	-29.35
299.665	30.04
299.88	103.76
300.094	-8.87
300.309	58.71
300.523	-21.16
300.737	60.76
300.952	36.18
301.166	40.28
301.381	-29.35
301.595	5.46
301.809	11.61
302.024	46.42
302.238	62.8
302.452	19.8
302.667	-0.68
302.881	-6.83
303.095	21.85
303.309	75.09
303.524	3.41
303.738	19.8
303.952	13.65
304.166	19.8
304.381	-88.75
304.595	-2.73
304.809	-8.87
305.023	85.33
305.237	-17.07
305.452	13.65
305.666	15.7
305.88	27.99
306.094	9.56
306.308	52.56
306.522	77.14
306.736	23.89
306.95	52.56
307.164	44.37
307.379	5.46
307.593	44.37
307.807	68.95
308.021	3.41
308.235	60.76
308.449	23.89
308.663	75.09
308.877	64.85
309.091	-21.16
309.305	27.99
309.519	-4.78
309.733	-21.16
309.947	23.89
310.161	25.94
310.374	73.04
310.588	68.95
310.802	54.61
311.016	-6.83
311.23	30.04
311.444	1.37
311.658	77.14
311.872	101.72
312.085	-4.78
312.299	-12.97
312.513	97.62
312.727	15.7
312.941	-0.68
313.154	17.75
313.368	27.99
313.582	-2.73
313.796	32.08
314.009	21.85
314.223	25.94
314.437	52.56
314.651	40.28
314.864	48.47
315.078	32.08
315.292	54.61
315.505	30.04
315.719	-55.98
315.933	3.41
316.146	-51.88
316.36	-21.16
316.573	60.76
316.787	109.91
317.001	52.56
317.214	-35.5
317.428	-17.07
317.641	54.61
317.855	68.95
318.068	1.37
318.282	15.7
318.495	52.56
318.709	93.52
318.922	38.23
319.136	109.91
319.349	46.42
319.563	-62.12
319.776	19.8
319.99	-29.35
320.203	38.23
320.417	32.08
320.63	89.43
320.843	136.53
321.057	40.28
321.27	40.28
321.483	15.7
321.697	93.52
321.91	32.08
322.124	73.04
322.337	30.04
322.55	27.99
322.763	34.13
322.977	48.47
323.19	-0.68
323.403	54.61
323.617	-21.16
323.83	50.52
324.043	1.37
324.256	27.99
324.469	-64.17
324.683	-4.78
324.896	36.18
325.109	71
325.322	11.61
325.535	23.89
325.748	89.43
325.962	101.72
326.175	19.8
326.388	54.61
326.601	109.91
326.814	27.99
327.027	44.37
327.24	77.14
327.453	-43.69
327.666	54.61
327.879	122.2
328.092	7.51
328.305	32.08
328.518	38.23
328.731	27.99
328.944	27.99
329.157	60.76
329.37	-0.68
329.583	109.91
329.796	62.8
330.009	-12.97
330.222	114
330.435	68.95
330.648	93.52
330.861	17.75
331.073	25.94
331.286	-2.73
331.499	75.09
331.712	15.7
331.925	30.04
332.138	62.8
332.35	68.95
332.563	30.04
332.776	126.29
332.989	5.46
333.202	-17.07
333.414	3.41
333.627	-37.55
333.84	36.18
334.053	-41.64
334.265	79.19
334.478	11.61
334.691	38.23
334.903	13.65
335.116	-33.45
335.329	40.28
335.541	25.94
335.754	25.94
335.966	-29.35
336.179	64.85
336.392	118.1
336.604	73.04
336.817	54.61
337.029	54.61
337.242	13.65
337.454	23.89
337.667	23.89
337.88	97.62
338.092	52.56
338.305	66.9
338.517	107.86
338.729	73.04
338.942	101.72
339.154	1.37
339.367	71
339.579	62.8
339.792	48.47
340.004	-27.31
340.217	19.8
340.429	87.38
340.641	-12.97
340.854	36.18
341.066	15.7
341.278	85.33
341.491	32.08
341.703	-31.4
341.915	-19.11
342.128	71
342.34	42.32
342.552	-27.31
342.764	77.14
342.977	-0.68
343.189	-12.97
343.401	60.76
343.613	21.85
343.826	38.23
344.038	-2.73
344.25	54.61
344.462	89.43
344.674	77.14
344.886	62.8
345.099	79.19
345.311	19.8
345.523	-21.16
345.735	15.7
345.947	62.8
346.159	-6.83
346.371	85.33
346.583	13.65
346.795	85.33
347.007	-51.88
347.219	-29.35
347.431	48.47
347.643	54.61
347.855	-10.92
348.067	118.1
348.279	-4.78
348.491	48.47
348.703	75.09
348.915	1.37
349.127	46.42
349.339	46.42
349.551	36.18
349.763	15.7
349.975	46.42
350.187	68.95
350.399	3.41
350.61	17.75
350.822	13.65
351.034	64.85
351.246	60.76
351.458	122.2
351.669	42.32
351.881	54.61
352.093	21.85
352.305	46.42
352.517	81.24
352.728	56.66
352.94	38.23
353.152	54.61
353.363	-27.31
353.575	21.85
353.787	77.14
353.999	68.95
354.21	50.52
354.422	11.61
354.633	-4.78
354.845	-21.16
355.057	13.65
355.268	-8.87
355.48	77.14
355.692	50.52
355.903	-35.5
356.115	136.53
356.326	11.61
356.538	5.46
356.749	13.65
356.961	93.52
357.172	27.99
357.384	7.51
357.595	109.91
357.807	40.28
358.018	32.08
358.23	7.51
358.441	34.13
358.653	75.09
358.864	11.61
359.075	32.08
359.287	93.52
359.498	77.14
359.709	71
359.921	13.65
360.132	32.08
360.344	93.52
360.555	11.61
360.766	54.61
360.977	-17.07
361.189	27.99
361.4	38.23
361.611	64.85
361.823	36.18
362.034	93.52
362.245	36.18
362.456	75.09
362.667	40.28
362.879	-8.87
363.09	52.56
363.301	122.2
363.512	81.24
363.723	-8.87
363.935	40.28
364.146	19.8
364.357	87.38
364.568	36.18
364.779	44.37
364.99	85.33
365.201	25.94
365.412	64.85
365.623	27.99
365.834	136.53
366.045	60.76
366.256	83.28
366.467	103.76
366.678	60.76
366.889	-0.68
367.1	-35.5
367.311	21.85
367.522	30.04
367.733	79.19
367.944	19.8
368.155	62.8
368.366	-2.73
368.577	68.95
368.788	23.89
368.999	32.08
369.209	9.56
369.42	79.19
369.631	64.85
369.842	27.99
370.053	11.61
370.264	-10.92
370.474	-8.87
370.685	38.23
370.896	54.61
371.107	30.04
371.317	89.43
371.528	-35.5
371.739	54.61
371.95	34.13
372.16	40.28
372.371	-12.97
372.582	85.33
372.792	44.37
373.003	46.42
373.214	60.76
373.424	68.95
373.635	3.41
373.846	46.42
374.056	27.99
374.267	30.04
374.477	44.37
374.688	-23.21
374.898	60.76
375.109	48.47
375.319	52.56
375.53	77.14
375.74	9.56
375.951	114
376.161	52.56
376.372	58.71
376.582	13.65
376.793	134.48
377.003	126.29
377.214	34.13
377.424	27.99
377.635	118.1
377.845	-8.87
378.055	77.14
378.266	52.56
378.476	54.61
378.686	60.76
378.897	36.18
379.107	62.8
379.317	77.14
379.528	27.99
379.738	71
379.948	46.42
380.158	114
380.369	-21.16
380.579	91.48
380.789	11.61
380.999	118.1
381.21	89.43
381.42	79.19
381.63	95.57
381.84	95.57
382.05	36.18
382.261	75.09
382.471	23.89
382.681	60.76
382.891	46.42
383.101	17.75
383.311	-55.98
383.521	-12.97
383.731	9.56
383.941	44.37
384.151	60.76
384.361	38.23
384.571	19.8
384.781	60.76
384.991	52.56
385.201	105.81
385.411	75.09
385.621	68.95
385.831	1.37
386.041	77.14
386.251	1.37
386.461	13.65
386.671	46.42
386.881	79.19
387.091	68.95
387.301	91.48
387.511	64.85
387.72	23.89
387.93	44.37
388.14	-12.97
388.35	89.43
388.56	68.95
388.769	21.85
388.979	138.58
389.189	81.24
389.399	36.18
389.609	34.13
389.818	97.62
390.028	68.95
390.238	46.42
390.447	-12.97
390.657	107.86
390.867	30.04
391.076	25.94
391.286	71
391.496	46.42
391.705	64.85
391.915	95.57
392.125	40.28
392.334	21.85
392.544	111.96
392.753	17.75
392.963	93.52
393.172	85.33
393.382	25.94
393.591	114
393.801	52.56
394.01	68.95
394.22	81.24
394.429	58.71
394.639	34.13
394.848	46.42
395.058	46.42
395.267	101.72
395.477	19.8
395.686	122.2
395.895	52.56
396.105	21.85
396.314	71
396.524	101.72
396.733	56.66
396.942	50.52
397.152	154.96
397.361	91.48
397.57	93.52
397.78	109.91
397.989	128.34
398.198	142.68
398.407	136.53
398.617	126.29
398.826	140.63
399.035	93.52
399.244	130.39
399.453	48.47
399.663	111.96
399.872	79.19
400.081	19.8
400.29	95.57
400.499	93.52
400.708	114
400.917	111.96
401.127	101.72
401.336	11.61
401.545	183.63
401.754	134.48
401.963	101.72
402.172	77.14
402.381	52.56
402.59	68.95
402.799	152.92
403.008	66.9
403.217	146.77
403.426	109.91
403.635	154.96
403.844	95.57
404.053	161.11
404.262	109.91
404.471	109.91
404.68	154.96
404.888	140.63
405.097	126.29
405.306	120.15
405.515	159.06
405.724	132.44
405.933	93.52
406.142	159.06
406.35	167.25
406.559	177.49
406.768	146.77
406.977	191.83
407.185	142.68
407.394	152.92
407.603	148.82
407.812	150.87
408.02	126.29
408.229	191.83
408.438	191.83
408.646	163.15
408.855	161.11
409.064	200.02
409.272	232.79
409.481	290.13
409.69	224.59
409.898	238.93
410.107	216.4
410.315	255.31
410.524	255.31
410.733	339.28
410.941	341.33
411.15	322.9
411.358	337.23
411.567	404.82
411.775	300.37
411.984	310.61
412.192	343.38
412.401	372.05
412.609	292.18
412.818	417.1
413.026	421.2
413.234	484.69
413.443	439.63
413.651	374.1
413.86	390.48
414.068	513.36
414.276	550.22
414.485	488.78
414.693	585.04
414.901	515.41
415.11	564.56
415.318	513.36
415.526	568.65
415.734	666.96
415.943	613.71
416.151	654.67
416.359	578.89
416.567	650.57
416.776	728.39
416.984	734.54
417.192	777.55
417.4	744.78
417.608	781.64
417.817	865.61
418.025	935.24
418.233	900.42
418.441	902.47
418.649	916.81
418.857	1060.17
419.065	1072.45
419.273	1039.69
419.481	1105.22
419.689	1217.86
419.897	1209.67
420.105	1307.97
420.313	1273.15
420.521	1285.44
420.729	1273.15
420.937	1400.13
421.145	1449.28
421.353	1545.53
421.561	1566.01
421.769	1555.77
421.977	1733.95
422.185	1715.52
422.393	1762.62
422.601	1889.59
422.809	1873.21
423.017	1893.69
423.224	1977.66
423.432	2061.62
423.64	2016.57
423.848	2387.25
424.056	2282.8
424.263	2327.86
424.471	2344.24
424.679	2278.71
424.887	2477.36
425.094	2557.23
425.302	2542.89
425.51	2755.88
425.718	2690.35
425.925	2788.65
426.133	2837.8
426.341	2946.34
426.548	3231.01
426.756	3282.21
426.964	3269.92
427.171	3460.38
427.379	3538.21
427.586	3566.88
427.794	3765.53
428.001	3775.77
428.209	4082.97
428.417	4033.82
428.624	4336.92
428.832	4279.57
429.039	4257.04
429.247	4255
429.454	4590.86
429.662	4871.43
429.869	4705.55
430.076	4840.72
430.284	4652.3
430.491	4967.69
430.699	5367.04
430.906	5338.37
431.114	5233.93
431.321	5477.63
431.528	5655.81
431.736	6245.62
431.943	6352.12
432.15	6128.89
432.358	6249.72
432.565	6628.59
432.772	6565.11
432.979	6941.93
433.187	7169.26
433.394	6970.6
433.601	7400.68
433.808	7351.53
434.016	7519.46
434.223	7736.54
434.43	8250.58
434.637	8051.93
434.844	8547.54
435.052	8660.18
435.259	8787.15
435.466	8860.88
435.673	8543.44
435.88	9219.27
436.087	9618.63
436.294	9538.76
436.501	9542.85
436.708	9485.51
436.915	10122.43
437.122	10468.53
437.329	10384.57
437.537	10874.03
437.743	11005.1
437.95	10695.86
438.157	11605.16
438.364	11768.99
438.571	11814.05
438.778	11775.14
438.985	13012.11
439.192	12315.8
439.399	12715.16
439.606	12237.98
439.813	13212.81
440.02	14005.38
440.227	13757.57
440.433	13712.52
440.64	14046.33
440.847	14062.72
441.054	14199.93
441.261	15314.03
441.467	15410.28
441.674	15486.06
441.881	16041.06
442.088	15920.23
442.294	15758.44
442.501	16346.2
442.708	16366.68
442.914	17269.84
443.121	17732.68
443.328	17296.46
443.534	18744.38
443.741	18275.39
443.948	18109.5
444.154	19223.6
444.361	19029.04
444.568	19260.46
444.774	19412.01
444.981	19303.47
445.187	19790.89
445.394	20825.11
445.6	20601.88
445.807	22653.95
446.013	21500.94
446.22	21554.19
446.426	22711.29
446.633	22903.8
446.839	23788.52
447.046	22666.24
447.252	24130.53
447.459	24380.39
447.665	23923.69
447.871	25027.54
448.078	26285
448.284	24597.47
448.491	25727.95
448.697	26508.22
448.903	27050.94
449.11	27081.66
449.316	26700.73
449.522	27218.87
449.728	27870.12
449.935	28154.79
450.141	27847.6
450.347	28804
450.553	27665.33
450.76	28304.29
450.966	29041.56
451.172	28636.06
451.378	29445.01
451.584	28885.92
451.791	29569.94
451.997	29750.16
452.203	29936.52
452.409	30395.27
452.615	29784.97
452.821	28801.95
453.027	28414.88
453.233	30073.74
453.44	28965.79
453.646	29221.78
453.852	29547.41
454.058	29997.96
454.264	28644.26
454.47	29672.34
454.676	28953.5
454.882	29705.1
455.088	27403.19
455.294	27800.49
455.5	28056.49
455.705	28287.91
455.911	27417.52
456.117	26551.23
456.323	26160.07
456.529	25283.54
456.735	26293.19
456.941	25228.24
457.147	25103.32
457.352	24329.19
457.558	24181.73
457.764	23968.74
457.97	23747.56
458.176	22993.91
458.381	23110.64
458.587	22111.24
458.793	22025.22
458.999	21097.49
459.204	22262.79
459.41	21892.1
459.616	20593.69
459.821	20368.41
460.027	20171.81
460.233	20001.83
460.438	19024.95
460.644	19156.02
460.85	18172.99
461.055	18080.83
461.261	17654.86
461.466	16551
461.672	16100.45
461.878	17364.04
462.083	16174.17
462.289	15807.59
462.494	15776.87
462.7	14828.66
462.905	14728.31
463.111	15254.64
463.316	15334.51
463.522	14857.33
463.727	14937.2
463.932	15055.98
464.138	14883.95
464.343	15072.37
464.549	14300.28
464.754	14593.14
464.959	14724.21
465.165	14281.85
465.37	13997.18
465.575	13593.73
465.781	14118.01
465.986	14417.02
466.191	13765.76
466.397	13382.79
466.602	12737.68
466.807	13227.15
467.012	13218.96
467.218	13358.22
467.423	12821.65
467.628	13178
467.833	13730.95
468.038	13280.39
