Data from USB4F104151__79__14-17-32-330.txt Node

Date: Thu Mar 13 14:17:32 EDT 2025
User: louis
Spectrometer: USB4F10415
Trigger mode: 4
Integration Time (sec): 2.000000E-2
Scans to average: 1
Electric dark correction enabled: true
Nonlinearity correction enabled: false
Boxcar width: 0
XAxis mode: Wavelengths
Number of Pixels in Spectrum: 3648
>>>>>Begin Spectral Data<<<<<
178.204	-105.3
178.424	-105.3
178.644	-105.3
178.864	-97.11
179.084	-101.2
179.304	-35.67
179.524	-27.48
179.744	52.39
179.964	62.63
180.184	-52.05
180.404	11.43
180.624	21.67
180.844	13.48
181.064	25.77
181.283	-37.72
181.503	-15.19
181.723	-19.29
181.943	-11.09
182.163	23.72
182.383	-31.57
182.602	1.19
182.822	7.34
183.042	-7
183.262	9.39
183.482	70.83
183.701	13.48
183.921	46.25
184.141	-11.09
184.361	52.39
184.58	52.39
184.8	62.63
185.02	46.25
185.239	-60.24
185.459	42.15
185.679	68.78
185.898	-64.34
186.118	31.91
186.338	-43.86
186.557	17.58
186.777	29.87
186.997	-50
187.216	-7
187.436	74.92
187.655	-45.91
187.875	54.44
188.095	-7
188.314	64.68
188.534	107.69
188.753	5.29
188.973	17.58
189.192	15.53
189.412	50.35
189.631	66.73
189.851	40.11
190.07	15.53
190.29	33.96
190.509	38.06
190.729	23.72
190.948	23.72
191.168	103.59
191.387	46.25
191.607	17.58
191.826	42.15
192.045	54.44
192.265	-2.9
192.484	-0.85
192.704	5.29
192.923	-9.05
193.142	85.16
193.362	21.67
193.581	87.21
193.8	-2.9
194.02	46.25
194.239	64.68
194.458	23.72
194.678	-47.96
194.897	29.87
195.116	5.29
195.335	81.07
195.555	21.67
195.774	40.11
195.993	-17.24
196.212	-19.29
196.432	23.72
196.651	23.72
196.87	-39.76
197.089	40.11
197.308	1.19
197.528	79.02
197.747	-33.62
197.966	64.68
198.185	54.44
198.404	27.82
198.623	31.91
198.842	72.87
199.062	9.39
199.281	62.63
199.5	48.3
199.719	-19.29
199.938	9.39
200.157	21.67
200.376	33.96
200.595	31.91
200.814	33.96
201.033	-7
201.252	21.67
201.471	23.72
201.69	74.92
201.909	-2.9
202.128	76.97
202.347	-2.9
202.566	-23.38
202.785	-29.52
203.004	68.78
203.223	109.74
203.442	27.82
203.661	-31.57
203.879	62.63
204.098	33.96
204.317	25.77
204.536	62.63
204.755	31.91
204.974	21.67
205.193	70.83
205.411	38.06
205.63	11.43
205.849	-43.86
206.068	-2.9
206.287	95.4
206.505	23.72
206.724	17.58
206.943	60.59
207.162	99.5
207.381	19.63
207.599	33.96
207.818	27.82
208.037	38.06
208.255	29.87
208.474	91.31
208.693	7.34
208.911	70.83
209.13	-7
209.349	50.35
209.567	89.26
209.786	23.72
210.005	-15.19
210.223	-17.24
210.442	-25.43
210.661	-15.19
210.879	31.91
211.098	17.58
211.316	3.24
211.535	38.06
211.753	23.72
211.972	72.87
212.191	-15.19
212.409	44.2
212.628	9.39
212.846	-35.67
213.065	66.73
213.283	113.83
213.502	9.39
213.72	13.48
213.938	17.58
214.157	7.34
214.375	113.83
214.594	-35.67
214.812	-7
215.031	13.48
215.249	38.06
215.467	-19.29
215.686	62.63
215.904	99.5
216.122	-66.39
216.341	95.4
216.559	17.58
216.778	33.96
216.996	19.63
217.214	-7
217.432	-9.05
217.651	31.91
217.869	25.77
218.087	7.34
218.306	13.48
218.524	-11.09
218.742	-15.19
218.96	99.5
219.179	42.15
219.397	-19.29
219.615	152.74
219.833	46.25
220.051	46.25
220.27	52.39
220.488	70.83
220.706	27.82
220.924	29.87
221.142	46.25
221.36	11.43
221.578	15.53
221.796	-11.09
222.015	33.96
222.233	58.54
222.451	29.87
222.669	-9.05
222.887	-35.67
223.105	36.01
223.323	128.17
223.541	-4.95
223.759	29.87
223.977	-19.29
224.195	111.78
224.413	74.92
224.631	42.15
224.849	-25.43
225.067	103.59
225.285	-23.38
225.503	17.58
225.721	-35.67
225.939	29.87
226.157	46.25
226.375	33.96
226.592	15.53
226.81	27.82
227.028	85.16
227.246	79.02
227.464	-27.48
227.682	-9.05
227.9	-9.05
228.117	101.55
228.335	17.58
228.553	-15.19
228.771	48.3
228.989	25.77
229.206	52.39
229.424	42.15
229.642	1.19
229.86	76.97
230.077	97.45
230.295	13.48
230.513	97.45
230.731	25.77
230.948	23.72
231.166	33.96
231.384	42.15
231.601	-15.19
231.819	60.59
232.037	52.39
232.254	11.43
232.472	-33.62
232.689	48.3
232.907	11.43
233.125	-19.29
233.342	48.3
233.56	1.19
233.777	7.34
233.995	21.67
234.213	70.83
234.43	21.67
234.648	31.91
234.865	-29.52
235.083	-2.9
235.3	-2.9
235.518	111.78
235.735	13.48
235.953	38.06
236.17	15.53
236.388	54.44
236.605	70.83
236.822	-9.05
237.04	38.06
237.257	17.58
237.475	62.63
237.692	5.29
237.909	62.63
238.127	-19.29
238.344	66.73
238.562	72.87
238.779	-33.62
238.996	74.92
239.214	109.74
239.431	62.63
239.648	44.2
239.865	-27.48
240.083	-0.85
240.3	70.83
240.517	5.29
240.735	58.54
240.952	42.15
241.169	-11.09
241.386	76.97
241.603	-31.57
241.821	11.43
242.038	124.07
242.255	21.67
242.472	21.67
242.689	31.91
242.907	54.44
243.124	60.59
243.341	-17.24
243.558	-13.14
243.775	15.53
243.992	-2.9
244.209	46.25
244.426	46.25
244.643	48.3
244.86	13.48
245.078	-23.38
245.295	-0.85
245.512	46.25
245.729	79.02
245.946	54.44
246.163	-23.38
246.38	11.43
246.597	64.68
246.814	72.87
247.031	3.24
247.248	-0.85
247.464	-27.48
247.681	81.07
247.898	64.68
248.115	40.11
248.332	-31.57
248.549	25.77
248.766	42.15
248.983	58.54
249.2	66.73
249.417	74.92
249.633	58.54
249.85	38.06
250.067	48.3
250.284	-19.29
250.501	46.25
250.717	21.67
250.934	7.34
251.151	38.06
251.368	15.53
251.585	124.07
251.801	-9.05
252.018	-39.76
252.235	38.06
252.451	-56.15
252.668	50.35
252.885	-2.9
253.102	-19.29
253.318	-56.15
253.535	56.49
253.752	7.34
253.968	-2.9
254.185	-33.62
254.401	21.67
254.618	46.25
254.835	31.91
255.051	25.77
255.268	15.53
255.484	25.77
255.701	72.87
255.917	58.54
256.134	13.48
256.351	-47.96
256.567	42.15
256.784	-54.1
257	23.72
257.217	-0.85
257.433	52.39
257.65	33.96
257.866	23.72
258.082	31.91
258.299	5.29
258.515	38.06
258.732	-19.29
258.948	40.11
259.165	46.25
259.381	13.48
259.597	-19.29
259.814	97.45
260.03	81.07
260.246	17.58
260.463	101.55
260.679	58.54
260.895	-11.09
261.112	46.25
261.328	-19.29
261.544	5.29
261.761	128.17
261.977	-0.85
262.193	-43.86
262.409	38.06
262.626	38.06
262.842	44.2
263.058	-74.58
263.274	21.67
263.49	79.02
263.707	48.3
263.923	31.91
264.139	50.35
264.355	66.73
264.571	124.07
264.787	38.06
265.004	58.54
265.22	-21.33
265.436	-17.24
265.652	36.01
265.868	-9.05
266.084	5.29
266.3	66.73
266.516	-25.43
266.732	140.46
266.948	-17.24
267.164	-4.95
267.38	91.31
267.596	87.21
267.812	38.06
268.028	-33.62
268.244	-72.53
268.46	122.02
268.676	60.59
268.892	38.06
269.108	38.06
269.324	76.97
269.54	36.01
269.756	-11.09
269.972	-0.85
270.188	31.91
270.403	27.82
270.619	25.77
270.835	62.63
271.051	-7
271.267	76.97
271.483	54.44
271.698	25.77
271.914	1.19
272.13	-2.9
272.346	-82.77
272.562	29.87
272.777	70.83
272.993	-13.14
273.209	58.54
273.425	48.3
273.64	64.68
273.856	91.31
274.072	54.44
274.287	5.29
274.503	-0.85
274.719	99.5
274.934	-35.67
275.15	40.11
275.366	21.67
275.581	15.53
275.797	79.02
276.012	25.77
276.228	3.24
276.444	79.02
276.659	74.92
276.875	-35.67
277.09	1.19
277.306	17.58
277.521	109.74
277.737	9.39
277.952	21.67
278.168	-25.43
278.383	23.72
278.599	40.11
278.814	76.97
279.03	54.44
279.245	11.43
279.461	36.01
279.676	-13.14
279.892	29.87
280.107	-17.24
280.322	62.63
280.538	70.83
280.753	31.91
280.969	21.67
281.184	66.73
281.399	9.39
281.615	40.11
281.83	36.01
282.045	25.77
282.26	7.34
282.476	21.67
282.691	72.87
282.906	56.49
283.122	54.44
283.337	60.59
283.552	70.83
283.767	-43.86
283.983	21.67
284.198	58.54
284.413	93.35
284.628	-2.9
284.843	54.44
285.058	79.02
285.274	-4.95
285.489	-27.48
285.704	81.07
285.919	31.91
286.134	64.68
286.349	-19.29
286.564	-11.09
286.779	89.26
286.995	21.67
287.21	-29.52
287.425	56.49
287.64	-23.38
287.855	-4.95
288.07	46.25
288.285	66.73
288.5	113.83
288.715	62.63
288.93	11.43
289.145	-25.43
289.36	29.87
289.575	-25.43
289.79	109.74
290.004	19.63
290.219	48.3
290.434	79.02
290.649	29.87
290.864	25.77
291.079	54.44
291.294	42.15
291.509	70.83
291.724	13.48
291.938	40.11
292.153	70.83
292.368	52.39
292.583	19.63
292.798	7.34
293.012	83.11
293.227	70.83
293.442	42.15
293.657	62.63
293.871	87.21
294.086	13.48
294.301	122.02
294.516	-9.05
294.73	79.02
294.945	17.58
295.16	-4.95
295.374	-25.43
295.589	15.53
295.804	64.68
296.018	31.91
296.233	70.83
296.447	74.92
296.662	52.39
296.877	81.07
297.091	66.73
297.306	58.54
297.52	3.24
297.735	-23.38
297.949	81.07
298.164	29.87
298.378	70.83
298.593	-19.29
298.807	-47.96
299.022	119.98
299.236	21.67
299.451	74.92
299.665	25.77
299.88	33.96
300.094	46.25
300.309	-0.85
300.523	-0.85
300.737	-21.33
300.952	60.59
301.166	31.91
301.381	5.29
301.595	11.43
301.809	-11.09
302.024	46.25
302.238	-2.9
302.452	128.17
302.667	-68.44
302.881	91.31
303.095	148.65
303.309	3.24
303.524	31.91
303.738	48.3
303.952	-23.38
304.166	25.77
304.381	-0.85
304.595	54.44
304.809	62.63
305.023	-11.09
305.237	-17.24
305.452	119.98
305.666	46.25
305.88	81.07
306.094	21.67
306.308	95.4
306.522	-25.43
306.736	105.64
306.95	21.67
307.164	5.29
307.379	15.53
307.593	11.43
307.807	-33.62
308.021	15.53
308.235	13.48
308.449	-39.76
308.663	40.11
308.877	79.02
309.091	29.87
309.305	103.59
309.519	7.34
309.733	-7
309.947	52.39
310.161	62.63
310.374	5.29
310.588	144.55
310.802	-7
311.016	74.92
311.23	64.68
311.444	3.24
311.658	31.91
311.872	-43.86
312.085	36.01
312.299	23.72
312.513	68.78
312.727	70.83
312.941	54.44
313.154	36.01
313.368	-37.72
313.582	111.78
313.796	38.06
314.009	42.15
314.223	46.25
314.437	31.91
314.651	70.83
314.864	31.91
315.078	-39.76
315.292	3.24
315.505	21.67
315.719	50.35
315.933	95.4
316.146	29.87
316.36	-2.9
316.573	38.06
316.787	42.15
317.001	60.59
317.214	-13.14
317.428	-13.14
317.641	17.58
317.855	46.25
318.068	17.58
318.282	56.49
318.495	119.98
318.709	-0.85
318.922	54.44
319.136	130.22
319.349	-7
319.563	29.87
319.776	-9.05
319.99	9.39
320.203	70.83
320.417	76.97
320.63	169.13
320.843	21.67
321.057	-19.29
321.27	11.43
321.483	21.67
321.697	111.78
321.91	40.11
322.124	40.11
322.337	-21.33
322.55	46.25
322.763	23.72
322.977	64.68
323.19	87.21
323.403	31.91
323.617	23.72
323.83	95.4
324.043	-4.95
324.256	21.67
324.469	23.72
324.683	56.49
324.896	56.49
325.109	40.11
325.322	56.49
325.535	15.53
325.748	76.97
325.962	-2.9
326.175	52.39
326.388	70.83
326.601	27.82
326.814	1.19
327.027	15.53
327.24	52.39
327.453	15.53
327.666	42.15
327.879	103.59
328.092	81.07
328.305	46.25
328.518	70.83
328.731	11.43
328.944	60.59
329.157	66.73
329.37	44.2
329.583	-2.9
329.796	42.15
330.009	85.16
330.222	62.63
330.435	-4.95
330.648	81.07
330.861	44.2
331.073	13.48
331.286	42.15
331.499	154.79
331.712	58.54
331.925	48.3
332.138	62.63
332.35	31.91
332.563	-27.48
332.776	23.72
332.989	15.53
333.202	46.25
333.414	74.92
333.627	56.49
333.84	33.96
334.053	56.49
334.265	-23.38
334.478	-4.95
334.691	101.55
334.903	36.01
335.116	-47.96
335.329	70.83
335.541	-11.09
335.754	128.17
335.966	44.2
336.179	33.96
336.392	31.91
336.604	38.06
336.817	87.21
337.029	-15.19
337.242	-31.57
337.454	95.4
337.667	15.53
337.88	111.78
338.092	54.44
338.305	38.06
338.517	54.44
338.729	15.53
338.942	25.77
339.154	70.83
339.367	46.25
339.579	50.35
339.792	-9.05
340.004	5.29
340.217	46.25
340.429	97.45
340.641	54.44
340.854	31.91
341.066	44.2
341.278	38.06
341.491	66.73
341.703	-25.43
341.915	89.26
342.128	27.82
342.34	60.59
342.552	38.06
342.764	25.77
342.977	-9.05
343.189	23.72
343.401	33.96
343.613	-2.9
343.826	54.44
344.038	-0.85
344.25	79.02
344.462	103.59
344.674	64.68
344.886	97.45
345.099	33.96
345.311	13.48
345.523	15.53
345.735	46.25
345.947	50.35
346.159	113.83
346.371	48.3
346.583	42.15
346.795	130.22
347.007	40.11
347.219	-0.85
347.431	33.96
347.643	128.17
347.855	25.77
348.067	122.02
348.279	-41.81
348.491	89.26
348.703	140.46
348.915	91.31
349.127	50.35
349.339	29.87
349.551	15.53
349.763	62.63
349.975	5.29
350.187	7.34
350.399	54.44
350.61	68.78
350.822	54.44
351.034	56.49
351.246	93.35
351.458	89.26
351.669	70.83
351.881	50.35
352.093	81.07
352.305	99.5
352.517	72.87
352.728	105.64
352.94	62.63
353.152	25.77
353.363	-17.24
353.575	62.63
353.787	38.06
353.999	50.35
354.21	54.44
354.422	-7
354.633	48.3
354.845	111.78
355.057	42.15
355.268	128.17
355.48	48.3
355.692	64.68
355.903	-0.85
356.115	40.11
356.326	48.3
356.538	50.35
356.749	132.26
356.961	62.63
357.172	-4.95
357.384	21.67
357.595	142.5
357.807	-33.62
358.018	23.72
358.23	25.77
358.441	136.36
358.653	21.67
358.864	70.83
359.075	-0.85
359.287	62.63
359.498	19.63
359.709	38.06
359.921	62.63
360.132	58.54
360.344	40.11
360.555	5.29
360.766	119.98
360.977	60.59
361.189	-35.67
361.4	9.39
361.611	79.02
361.823	91.31
362.034	130.22
362.245	48.3
362.456	105.64
362.667	-33.62
362.879	29.87
363.09	46.25
363.301	33.96
363.512	1.19
363.723	101.55
363.935	29.87
364.146	99.5
364.357	95.4
364.568	68.78
364.779	-7
364.99	54.44
365.201	-2.9
365.412	72.87
365.623	-9.05
365.834	115.88
366.045	29.87
366.256	62.63
366.467	54.44
366.678	-33.62
366.889	-7
367.1	15.53
367.311	60.59
367.522	31.91
367.733	33.96
367.944	74.92
368.155	33.96
368.366	97.45
368.577	54.44
368.788	15.53
368.999	60.59
369.209	58.54
369.42	72.87
369.631	42.15
369.842	38.06
370.053	70.83
370.264	48.3
370.474	56.49
370.685	15.53
370.896	48.3
371.107	42.15
371.317	64.68
371.528	29.87
371.739	111.78
371.95	38.06
372.16	87.21
372.371	-4.95
372.582	95.4
372.792	58.54
373.003	79.02
373.214	74.92
373.424	52.39
373.635	1.19
373.846	64.68
374.056	21.67
374.267	48.3
374.477	103.59
374.688	103.59
374.898	76.97
375.109	-41.81
375.319	111.78
375.53	105.64
375.74	40.11
375.951	46.25
376.161	54.44
376.372	42.15
376.582	33.96
376.793	74.92
377.003	7.34
377.214	-21.33
377.424	187.56
377.635	56.49
377.845	79.02
378.055	48.3
378.266	160.94
378.476	7.34
378.686	111.78
378.897	99.5
379.107	93.35
379.317	156.84
379.528	101.55
379.738	148.65
379.948	-19.29
380.158	74.92
380.369	103.59
380.579	62.63
380.789	83.11
380.999	-11.09
381.21	27.82
381.42	103.59
381.63	52.39
381.84	42.15
382.05	70.83
382.261	87.21
382.471	15.53
382.681	21.67
382.891	140.46
383.101	64.68
383.311	-19.29
383.521	54.44
383.731	95.4
383.941	72.87
384.151	21.67
384.361	23.72
384.571	91.31
384.781	70.83
384.991	70.83
385.201	111.78
385.411	148.65
385.621	58.54
385.831	11.43
386.041	87.21
386.251	72.87
386.461	46.25
386.671	11.43
386.881	76.97
387.091	7.34
387.301	95.4
387.511	62.63
387.72	76.97
387.93	72.87
388.14	62.63
388.35	-27.48
388.56	138.41
388.769	97.45
388.979	148.65
389.189	-31.57
389.399	54.44
389.609	249
389.818	142.5
390.028	60.59
390.238	74.92
390.447	27.82
390.657	58.54
390.867	97.45
391.076	81.07
391.286	89.26
391.496	48.3
391.705	81.07
391.915	87.21
392.125	62.63
392.334	25.77
392.544	130.22
392.753	52.39
392.963	29.87
393.172	81.07
393.382	25.77
393.591	93.35
393.801	56.49
394.01	117.93
394.22	-17.24
394.429	111.78
394.639	103.59
394.848	95.4
395.058	93.35
395.267	38.06
395.477	72.87
395.686	132.26
395.895	185.51
396.105	113.83
396.314	83.11
396.524	140.46
396.733	136.36
396.942	101.55
397.152	72.87
397.361	111.78
397.57	146.6
397.78	70.83
397.989	128.17
398.198	185.51
398.407	111.78
398.617	173.22
398.826	134.31
399.035	128.17
399.244	58.54
399.453	144.55
399.663	119.98
399.872	162.98
400.081	38.06
400.29	136.36
400.499	70.83
400.708	79.02
400.917	68.78
401.127	113.83
401.336	105.64
401.545	138.41
401.754	173.22
401.963	117.93
402.172	62.63
402.381	87.21
402.59	144.55
402.799	89.26
403.008	212.14
403.217	111.78
403.426	199.85
403.635	122.02
403.844	97.45
404.053	156.84
404.262	234.66
404.471	152.74
404.68	162.98
404.888	230.57
405.097	181.42
405.306	136.36
405.515	224.42
405.724	138.41
405.933	220.33
406.142	197.8
406.35	222.38
406.559	185.51
406.768	236.71
406.977	296.1
407.185	212.14
407.394	228.52
407.603	177.32
407.812	326.82
408.02	357.54
408.229	275.62
408.438	224.42
408.646	275.62
408.855	296.1
409.064	308.39
409.272	304.29
409.481	265.38
409.69	328.87
409.898	281.77
410.107	386.21
410.315	388.26
410.524	476.32
410.733	482.47
410.941	433.32
411.15	515.23
411.358	527.52
411.567	529.57
411.775	423.08
411.984	472.23
412.192	511.14
412.401	523.43
412.609	537.76
412.818	627.87
413.026	656.54
413.234	552.1
413.443	580.77
413.651	652.45
413.86	717.98
414.068	785.57
414.276	681.12
414.485	738.46
414.693	748.7
414.901	865.44
415.11	832.67
415.318	814.24
415.526	898.2
415.734	939.16
415.943	1043.61
416.151	973.98
416.359	930.97
416.567	963.74
416.776	1080.47
416.984	1217.69
417.192	1229.98
417.4	1244.31
417.608	1229.98
417.817	1303.7
418.025	1334.42
418.233	1369.24
418.441	1397.91
418.649	1514.64
418.857	1588.37
419.065	1535.12
419.273	1594.51
419.481	1621.14
419.689	1744.02
419.897	1768.59
420.105	1799.31
420.313	1873.04
420.521	1842.32
420.729	1926.29
420.937	1959.05
421.145	2184.33
421.353	2210.95
421.561	2319.5
421.769	2282.63
421.977	2489.48
422.185	2376.84
422.393	2630.79
422.601	2636.93
422.809	2643.07
423.017	2747.52
423.224	2755.71
423.432	3028.09
423.64	2864.25
423.848	3103.87
424.056	3200.12
424.263	3363.96
424.471	3495.03
424.679	3472.5
424.887	3560.56
425.094	3789.94
425.302	3857.52
425.51	3798.13
425.718	4101.23
425.925	4070.51
426.133	4248.68
426.341	4420.71
426.548	4539.49
426.756	4762.72
426.964	4734.05
427.171	5006.43
427.379	5067.87
427.586	5362.78
427.794	5370.97
428.001	5590.1
428.209	6018.13
428.417	5764.18
428.624	6179.92
428.832	6306.89
429.039	6118.48
429.247	6186.06
429.454	6814.79
429.662	7011.39
429.869	6689.86
430.076	7142.46
430.284	6804.55
430.491	7294.01
430.699	7697.46
430.906	7842.87
431.114	7824.44
431.321	8082.48
431.528	8158.25
431.736	8715.3
431.943	9108.51
432.15	8901.67
432.358	9110.56
432.565	9485.34
432.772	9337.88
432.979	9796.63
433.187	9896.98
433.394	10155.02
433.601	10943.49
433.808	11006.98
434.016	10804.23
434.223	11215.87
434.43	11922.42
434.637	11809.78
434.844	12518.38
435.052	12573.67
435.259	12311.53
435.466	12760.04
435.673	12465.13
435.88	13253.6
436.087	14074.84
436.294	14072.79
436.501	13849.56
436.708	13851.61
436.915	14527.44
437.122	15168.45
437.329	14902.22
437.537	15356.86
437.743	15852.47
437.95	15694.78
438.157	16364.46
438.364	17040.29
438.571	16923.56
438.778	17195.94
438.985	18715.53
439.192	18011.03
439.399	18373.52
439.606	18029.46
439.813	18977.67
440.02	20202.36
440.227	19747.71
440.433	19757.95
440.64	20206.45
440.847	20265.85
441.054	20857.71
441.261	21810.01
441.467	21609.31
441.674	22098.78
441.881	22606.67
442.088	22846.29
442.294	22661.97
442.501	23229.26
442.708	23542.6
442.914	24544.05
443.121	25738.02
443.328	24951.6
443.534	26587.92
443.741	26069.79
443.948	25316.14
444.154	27448.07
444.361	27114.25
444.568	27646.72
444.774	27376.39
444.981	28123.9
445.187	28306.17
445.394	29838.05
445.6	29362.92
445.807	32383.68
446.013	30827.22
446.22	31257.29
446.426	32459.45
446.633	32719.54
446.839	33768.1
447.046	32432.83
447.252	34650.78
447.459	34230.94
447.665	34069.15
447.871	35637.9
448.078	37067.38
448.284	35342.99
448.491	36323.97
448.697	37984.87
448.903	38629.98
449.11	38593.12
449.316	37581.42
449.522	38349.41
449.728	39408.21
449.935	40170.05
450.141	39785.04
450.347	40458.82
450.553	39692.88
450.76	39834.19
450.966	41384.5
451.172	40774.2
451.378	41503.28
451.584	41087.54
451.791	42390.05
451.997	41861.68
452.203	42334.76
452.409	42756.64
452.615	42078.76
452.821	41052.73
453.027	40143.43
453.233	42799.65
453.44	41087.54
453.646	40921.66
453.852	41484.85
454.058	42220.07
454.264	40667.71
454.47	41478.71
454.676	40710.72
454.882	41867.82
455.088	38388.32
455.294	39131.73
455.5	39858.76
455.705	40006.22
455.911	38414.94
456.117	37997.16
456.323	37220.98
456.529	35259.02
456.735	36715.13
456.941	35811.98
457.147	35302.03
457.352	34437.79
457.558	33655.47
457.764	33960.61
457.97	33569.45
458.176	32881.33
458.381	32785.08
458.587	31195.85
458.793	31050.45
458.999	29328.11
459.204	31701.7
459.41	30745.3
459.616	28801.78
459.821	28898.03
460.027	28824.31
460.233	27912.96
460.438	26854.16
460.644	27079.44
460.85	25592.61
461.055	25471.78
461.261	25520.93
461.466	23470.92
461.672	22965.07
461.878	24302.39
462.083	22983.5
462.289	22254.42
462.494	21840.73
462.7	21064.55
462.905	20450.16
463.111	21670.75
463.316	21361.51
463.522	21148.52
463.727	20964.2
463.932	21150.57
464.138	20618.1
464.343	20913
464.549	20165.49
464.754	20581.23
464.959	20560.75
465.165	20386.68
465.37	19366.79
465.575	19016.58
465.781	19884.92
465.986	19909.5
466.191	19381.12
466.397	18846.6
466.602	17798.04
466.807	18721.68
467.012	18723.72
