Data from USB4F104151__197__14-20-30-456.txt Node

Date: Thu Mar 13 14:20:30 EDT 2025
User: louis
Spectrometer: USB4F10415
Trigger mode: 4
Integration Time (sec): 2.000000E-2
Scans to average: 1
Electric dark correction enabled: true
Nonlinearity correction enabled: false
Boxcar width: 0
XAxis mode: Wavelengths
Number of Pixels in Spectrum: 3648
>>>>>Begin Spectral Data<<<<<
178.204	-132.26
178.424	-132.26
178.644	-132.26
178.864	-122.02
179.084	-187.56
179.304	-27.82
179.524	17.24
179.744	13.14
179.964	52.05
180.184	25.43
180.404	-25.77
180.624	41.81
180.844	-81.07
181.064	-7.34
181.283	-27.82
181.503	4.95
181.723	15.19
181.943	-44.2
182.163	39.76
182.383	7
182.602	33.62
182.822	60.24
183.042	39.76
183.262	23.38
183.482	2.9
183.701	-5.29
183.921	-25.77
184.141	-31.91
184.361	72.53
184.58	39.76
184.8	31.57
185.02	7
185.239	35.67
185.459	29.52
185.679	88.92
185.898	-72.87
186.118	15.19
186.338	-13.48
186.557	21.33
186.777	35.67
186.997	-21.67
187.216	7
187.436	90.96
187.655	7
187.875	39.76
188.095	43.86
188.314	-9.39
188.534	29.52
188.753	88.92
188.973	33.62
189.192	84.82
189.412	60.24
189.631	-7.34
189.851	7
190.07	41.81
190.29	35.67
190.509	-7.34
190.729	-1.19
190.948	41.81
191.168	97.11
191.387	35.67
191.607	19.29
191.826	41.81
192.045	-27.82
192.265	25.43
192.484	-7.34
192.704	-23.72
192.923	66.39
193.142	60.24
193.362	11.09
193.581	33.62
193.8	21.33
194.02	-21.67
194.239	15.19
194.458	-13.48
194.678	-33.96
194.897	-7.34
195.116	-48.3
195.335	-42.15
195.555	13.14
195.774	0.85
195.993	41.81
196.212	35.67
196.432	-11.43
196.651	-103.59
196.87	-17.58
197.089	78.68
197.308	31.57
197.528	76.63
197.747	9.05
197.966	-91.31
198.185	43.86
198.404	13.14
198.623	31.57
198.842	15.19
199.062	39.76
199.281	21.33
199.5	-38.06
199.719	-23.72
199.938	31.57
200.157	29.52
200.376	56.15
200.595	41.81
200.814	23.38
201.033	-29.87
201.252	33.62
201.471	39.76
201.69	58.2
201.909	23.38
202.128	62.29
202.347	17.24
202.566	17.24
202.785	-33.96
203.004	17.24
203.223	97.11
203.442	4.95
203.661	-46.25
203.879	17.24
204.098	27.48
204.317	-1.19
204.536	45.91
204.755	58.2
204.974	-33.96
205.193	41.81
205.411	82.77
205.63	66.39
205.849	17.24
206.068	74.58
206.287	4.95
206.505	47.96
206.724	58.2
206.943	-25.77
207.162	-38.06
207.381	-11.43
207.599	2.9
207.818	-42.15
208.037	17.24
208.255	-36.01
208.474	15.19
208.693	-46.25
208.911	9.05
209.13	15.19
209.349	-1.19
209.567	35.67
209.786	56.15
210.005	0.85
210.223	45.91
210.442	17.24
210.661	0.85
210.879	35.67
211.098	23.38
211.316	9.05
211.535	15.19
211.753	27.48
211.972	52.05
212.191	-15.53
212.409	-9.39
212.628	80.72
212.846	-81.07
213.065	25.43
213.283	45.91
213.502	-7.34
213.72	9.05
213.938	2.9
214.157	7
214.375	-42.15
214.594	0.85
214.812	17.24
215.031	23.38
215.249	-33.96
215.467	9.05
215.686	-21.67
215.904	58.2
216.122	-79.02
216.341	43.86
216.559	29.52
216.778	60.24
216.996	-15.53
217.214	-50.35
217.432	88.92
217.651	-130.22
217.869	-15.53
218.087	0.85
218.306	39.76
218.524	11.09
218.742	13.14
218.96	97.11
219.179	27.48
219.397	23.38
219.615	-25.77
219.833	35.67
220.051	-1.19
220.27	41.81
220.488	50
220.706	47.96
220.924	31.57
221.142	-62.63
221.36	58.2
221.578	19.29
221.796	2.9
222.015	7
222.233	23.38
222.451	-23.72
222.669	-33.96
222.887	41.81
223.105	-42.15
223.323	-1.19
223.541	-21.67
223.759	17.24
223.977	-31.91
224.195	25.43
224.413	50
224.631	23.38
224.849	25.43
225.067	99.16
225.285	29.52
225.503	31.57
225.721	-19.63
225.939	-33.96
226.157	66.39
226.375	123.73
226.592	-13.48
226.81	-1.19
227.028	60.24
227.246	47.96
227.464	15.19
227.682	47.96
227.9	13.14
228.117	50
228.335	33.62
228.553	7
228.771	45.91
228.989	99.16
229.206	35.67
229.424	-38.06
229.642	33.62
229.86	41.81
230.077	39.76
230.295	-5.29
230.513	72.53
230.731	56.15
230.948	-50.35
231.166	33.62
231.384	-19.63
231.601	-19.63
231.819	29.52
232.037	-21.67
232.254	-23.72
232.472	-1.19
232.689	-21.67
232.907	-13.48
233.125	11.09
233.342	-7.34
233.56	19.29
233.777	27.48
233.995	11.09
234.213	39.76
234.43	-70.83
234.648	56.15
234.865	64.34
235.083	93.01
235.3	4.95
235.518	33.62
235.735	70.48
235.953	23.38
236.17	64.34
236.388	-29.87
236.605	27.48
236.822	52.05
237.04	-11.43
237.257	50
237.475	4.95
237.692	-25.77
237.909	-1.19
238.127	15.19
238.344	27.48
238.562	27.48
238.779	-42.15
238.996	-13.48
239.214	-21.67
239.431	47.96
239.648	47.96
239.865	-17.58
240.083	76.63
240.3	19.29
240.517	-15.53
240.735	15.19
240.952	33.62
241.169	39.76
241.386	-31.91
241.603	9.05
241.821	9.05
242.038	99.16
242.255	-7.34
242.472	84.82
242.689	33.62
242.907	66.39
243.124	66.39
243.341	76.63
243.558	0.85
243.775	4.95
243.992	-58.54
244.209	66.39
244.426	138.07
244.643	25.43
244.86	-27.82
245.078	66.39
245.295	56.15
245.512	62.29
245.729	35.67
245.946	68.44
246.163	47.96
246.38	-42.15
246.597	27.48
246.814	121.68
247.031	-25.77
247.248	95.06
247.464	13.14
247.681	68.44
247.898	0.85
248.115	39.76
248.332	-7.34
248.549	72.53
248.766	58.2
248.983	56.15
249.2	31.57
249.417	93.01
249.633	-11.43
249.85	72.53
250.067	-5.29
250.284	50
250.501	64.34
250.717	0.85
250.934	-25.77
251.151	4.95
251.368	-11.43
251.585	88.92
251.801	45.91
252.018	-25.77
252.235	-9.39
252.451	11.09
252.668	7
252.885	88.92
253.102	-5.29
253.318	33.62
253.535	39.76
253.752	0.85
253.968	2.9
254.185	54.1
254.401	19.29
254.618	52.05
254.835	2.9
255.051	97.11
255.268	45.91
255.484	-1.19
255.701	-3.24
255.917	25.43
256.134	0.85
256.351	68.44
256.567	-48.3
256.784	27.48
257	-13.48
257.217	58.2
257.433	58.2
257.65	21.33
257.866	2.9
258.082	2.9
258.299	-5.29
258.515	-42.15
258.732	-17.58
258.948	39.76
259.165	76.63
259.381	76.63
259.597	-9.39
259.814	0.85
260.03	37.72
260.246	-17.58
260.463	27.48
260.679	19.29
260.895	-25.77
261.112	9.05
261.328	11.09
261.544	-13.48
261.761	56.15
261.977	80.72
262.193	-15.53
262.409	99.16
262.626	39.76
262.842	27.48
263.058	25.43
263.274	113.49
263.49	37.72
263.707	23.38
263.923	39.76
264.139	17.24
264.355	0.85
264.571	7
264.787	52.05
265.004	41.81
265.22	11.09
265.436	33.62
265.652	19.29
265.868	25.43
266.084	-23.72
266.3	58.2
266.516	-36.01
266.732	25.43
266.948	0.85
267.164	13.14
267.38	2.9
267.596	25.43
267.812	50
268.028	35.67
268.244	13.14
268.46	88.92
268.676	39.76
268.892	97.11
269.108	19.29
269.324	41.81
269.54	-105.64
269.756	78.68
269.972	15.19
270.188	15.19
270.403	39.76
270.619	39.76
270.835	70.48
271.051	-33.96
271.267	39.76
271.483	58.2
271.698	80.72
271.914	64.34
272.13	15.19
272.346	35.67
272.562	17.24
272.777	39.76
272.993	27.48
273.209	-42.15
273.425	39.76
273.64	-25.77
273.856	76.63
274.072	-13.48
274.287	-7.34
274.503	-25.77
274.719	88.92
274.934	47.96
275.15	41.81
275.366	62.29
275.581	43.86
275.797	47.96
276.012	66.39
276.228	-25.77
276.444	27.48
276.659	17.24
276.875	-29.87
277.09	-3.24
277.306	-15.53
277.521	27.48
277.737	99.16
277.952	43.86
278.168	123.73
278.383	56.15
278.599	27.48
278.814	105.3
279.03	39.76
279.245	31.57
279.461	41.81
279.676	25.43
279.892	15.19
280.107	45.91
280.322	39.76
280.538	-5.29
280.753	-11.43
280.969	21.33
281.184	23.38
281.399	35.67
281.615	35.67
281.83	-31.91
282.045	7
282.26	58.2
282.476	88.92
282.691	50
282.906	-15.53
283.122	15.19
283.337	66.39
283.552	82.77
283.767	-31.91
283.983	47.96
284.198	35.67
284.413	56.15
284.628	-23.72
284.843	50
285.058	37.72
285.274	64.34
285.489	19.29
285.704	-33.96
285.919	33.62
286.134	58.2
286.349	47.96
286.564	15.19
286.779	70.48
286.995	33.62
287.21	-40.11
287.425	-50.35
287.64	58.2
287.855	11.09
288.07	-17.58
288.285	-58.54
288.5	35.67
288.715	90.96
288.93	-3.24
289.145	7
289.36	99.16
289.575	-23.72
289.79	41.81
290.004	39.76
290.219	-1.19
290.434	66.39
290.649	-9.39
290.864	0.85
291.079	7
291.294	19.29
291.509	19.29
291.724	13.14
291.938	47.96
292.153	74.58
292.368	15.19
292.583	4.95
292.798	35.67
293.012	15.19
293.227	109.4
293.442	60.24
293.657	-1.19
293.871	56.15
294.086	15.19
294.301	101.2
294.516	88.92
294.73	33.62
294.945	43.86
295.16	-70.83
295.374	31.57
295.589	99.16
295.804	-1.19
296.018	60.24
296.233	-9.39
296.447	-5.29
296.662	-9.39
296.877	72.53
297.091	45.91
297.306	-19.63
297.52	-9.39
297.735	72.53
297.949	7
298.164	39.76
298.378	-62.63
298.593	-5.29
298.807	56.15
299.022	17.24
299.236	0.85
299.451	70.48
299.665	82.77
299.88	68.44
300.094	27.48
300.309	15.19
300.523	47.96
300.737	66.39
300.952	39.76
301.166	90.96
301.381	31.57
301.595	97.11
301.809	15.19
302.024	-1.19
302.238	58.2
302.452	56.15
302.667	-7.34
302.881	99.16
303.095	17.24
303.309	2.9
303.524	-7.34
303.738	-9.39
303.952	-23.72
304.166	2.9
304.381	11.09
304.595	111.44
304.809	25.43
305.023	23.38
305.237	21.33
305.452	19.29
305.666	64.34
305.88	11.09
306.094	37.72
306.308	9.05
306.522	47.96
306.736	93.01
306.95	39.76
307.164	23.38
307.379	-40.11
307.593	64.34
307.807	-17.58
308.021	-9.39
308.235	66.39
308.449	-40.11
308.663	-21.67
308.877	72.53
309.091	27.48
309.305	23.38
309.519	-17.58
309.733	41.81
309.947	-62.63
310.161	121.68
310.374	27.48
310.588	31.57
310.802	60.24
311.016	33.62
311.23	-17.58
311.444	-17.58
311.658	-15.53
311.872	58.2
312.085	66.39
312.299	2.9
312.513	35.67
312.727	43.86
312.941	52.05
313.154	17.24
313.368	37.72
313.582	-17.58
313.796	9.05
314.009	97.11
314.223	68.44
314.437	41.81
314.651	-13.48
314.864	97.11
315.078	0.85
315.292	43.86
315.505	35.67
315.719	52.05
315.933	33.62
316.146	-21.67
316.36	39.76
316.573	72.53
316.787	11.09
317.001	41.81
317.214	-25.77
317.428	33.62
317.641	31.57
317.855	-25.77
318.068	37.72
318.282	23.38
318.495	66.39
318.709	56.15
318.922	25.43
319.136	101.2
319.349	80.72
319.563	66.39
319.776	82.77
319.99	-50.35
320.203	39.76
320.417	-36.01
320.63	23.38
320.843	105.3
321.057	-36.01
321.27	15.19
321.483	52.05
321.697	93.01
321.91	19.29
322.124	62.29
322.337	25.43
322.55	-42.15
322.763	11.09
322.977	119.64
323.19	7
323.403	54.1
323.617	-17.58
323.83	41.81
324.043	-21.67
324.256	0.85
324.469	-23.72
324.683	39.76
324.896	52.05
325.109	25.43
325.322	45.91
325.535	78.68
325.748	-33.96
325.962	-25.77
326.175	-33.96
326.388	25.43
326.601	41.81
326.814	-33.96
327.027	7
327.24	90.96
327.453	17.24
327.666	66.39
327.879	84.82
328.092	7
328.305	37.72
328.518	39.76
328.731	-1.19
328.944	31.57
329.157	84.82
329.37	33.62
329.583	15.19
329.796	7
330.009	-3.24
330.222	-23.72
330.435	93.01
330.648	84.82
330.861	31.57
331.073	9.05
331.286	-33.96
331.499	-1.19
331.712	-83.11
331.925	68.44
332.138	31.57
332.35	64.34
332.563	15.19
332.776	58.2
332.989	-7.34
333.202	-23.72
333.414	76.63
333.627	52.05
333.84	13.14
334.053	47.96
334.265	56.15
334.478	33.62
334.691	90.96
334.903	39.76
335.116	43.86
335.329	52.05
335.541	39.76
335.754	17.24
335.966	-17.58
336.179	-19.63
336.392	47.96
336.604	60.24
336.817	33.62
337.029	99.16
337.242	43.86
337.454	50
337.667	17.24
337.88	66.39
338.092	23.38
338.305	39.76
338.517	37.72
338.729	7
338.942	7
339.154	19.29
339.367	-17.58
339.579	64.34
339.792	-7.34
340.004	66.39
340.217	103.25
340.429	68.44
340.641	47.96
340.854	0.85
341.066	25.43
341.278	121.68
341.491	90.96
341.703	93.01
341.915	45.91
342.128	56.15
342.34	17.24
342.552	7
342.764	-15.53
342.977	-9.39
343.189	-23.72
343.401	78.68
343.613	-7.34
343.826	23.38
344.038	41.81
344.25	-5.29
344.462	47.96
344.674	56.15
344.886	31.57
345.099	13.14
345.311	88.92
345.523	-38.06
345.735	17.24
345.947	74.58
346.159	35.67
346.371	23.38
346.583	-21.67
346.795	123.73
347.007	47.96
347.219	72.53
347.431	25.43
347.643	119.64
347.855	60.24
348.067	58.2
348.279	15.19
348.491	52.05
348.703	7
348.915	47.96
349.127	-33.96
349.339	50
349.551	35.67
349.763	45.91
349.975	19.29
350.187	121.68
350.399	33.62
350.61	43.86
350.822	-44.2
351.034	88.92
351.246	-62.63
351.458	88.92
351.669	-15.53
351.881	47.96
352.093	64.34
352.305	113.49
352.517	-21.67
352.728	64.34
352.94	41.81
353.152	56.15
353.363	0.85
353.575	29.52
353.787	76.63
353.999	23.38
354.21	39.76
354.422	-7.34
354.633	90.96
354.845	84.82
355.057	25.43
355.268	64.34
355.48	43.86
355.692	23.38
355.903	60.24
356.115	15.19
356.326	101.2
356.538	60.24
356.749	62.29
356.961	56.15
357.172	21.33
357.384	-25.77
357.595	93.01
357.807	9.05
358.018	68.44
358.23	68.44
358.441	88.92
358.653	72.53
358.864	50
359.075	68.44
359.287	-13.48
359.498	47.96
359.709	68.44
359.921	23.38
360.132	74.58
360.344	93.01
360.555	-15.53
360.766	19.29
360.977	60.24
361.189	109.4
361.4	7
361.611	58.2
361.823	47.96
362.034	27.48
362.245	-17.58
362.456	23.38
362.667	64.34
362.879	68.44
363.09	35.67
363.301	33.62
363.512	15.19
363.723	-31.91
363.935	23.38
364.146	121.68
364.357	19.29
364.568	62.29
364.779	0.85
364.99	82.77
365.201	-31.91
365.412	138.07
365.623	0.85
365.834	17.24
366.045	27.48
366.256	88.92
366.467	43.86
366.678	11.09
366.889	60.24
367.1	68.44
367.311	60.24
367.522	72.53
367.733	33.62
367.944	105.3
368.155	0.85
368.366	105.3
368.577	95.06
368.788	93.01
368.999	47.96
369.209	31.57
369.42	86.87
369.631	117.59
369.842	27.48
370.053	47.96
370.264	47.96
370.474	33.62
370.685	-50.35
370.896	11.09
371.107	7
371.317	82.77
371.528	129.88
371.739	140.12
371.95	82.77
372.16	31.57
372.371	23.38
372.582	11.09
372.792	154.45
373.003	52.05
373.214	90.96
373.424	84.82
373.635	72.53
373.846	88.92
374.056	50
374.267	88.92
374.477	13.14
374.688	88.92
374.898	72.53
375.109	109.4
375.319	66.39
375.53	68.44
375.74	-9.39
375.951	41.81
376.161	29.52
376.372	99.16
376.582	88.92
376.793	52.05
377.003	35.67
377.214	45.91
377.424	66.39
377.635	31.57
377.845	56.15
378.055	166.74
378.266	21.33
378.476	35.67
378.686	29.52
378.897	52.05
379.107	95.06
379.317	54.1
379.528	52.05
379.738	-25.77
379.948	35.67
380.158	-25.77
380.369	4.95
380.579	84.82
380.789	68.44
380.999	70.48
381.21	58.2
381.42	62.29
381.63	-1.19
381.84	64.34
382.05	76.63
382.261	140.12
382.471	90.96
382.681	68.44
382.891	121.68
383.101	70.48
383.311	138.07
383.521	70.48
383.731	76.63
383.941	50
384.151	70.48
384.361	21.33
384.571	33.62
384.781	41.81
384.991	115.54
385.201	99.16
385.411	62.29
385.621	25.43
385.831	41.81
386.041	72.53
386.251	29.52
386.461	138.07
386.671	88.92
386.881	17.24
387.091	47.96
387.301	76.63
387.511	52.05
387.72	127.83
387.93	146.26
388.14	56.15
388.35	25.43
388.56	80.72
388.769	107.35
388.979	99.16
389.189	2.9
389.399	140.12
389.609	45.91
389.818	129.88
390.028	121.68
390.238	64.34
390.447	80.72
390.657	140.12
390.867	62.29
391.076	80.72
391.286	119.64
391.496	39.76
391.705	35.67
391.915	35.67
392.125	80.72
392.334	29.52
392.544	76.63
392.753	39.76
392.963	50
393.172	66.39
393.382	127.83
393.591	113.49
393.801	97.11
394.01	105.3
394.22	93.01
394.429	7
394.639	47.96
394.848	76.63
395.058	70.48
395.267	97.11
395.477	31.57
395.686	109.4
395.895	162.64
396.105	84.82
396.314	66.39
396.524	19.29
396.733	86.87
396.942	166.74
397.152	115.54
397.361	129.88
397.57	72.53
397.78	88.92
397.989	176.98
398.198	113.49
398.407	152.4
398.617	133.97
398.826	105.3
399.035	170.83
399.244	66.39
399.453	131.92
399.663	107.35
399.872	105.3
400.081	125.78
400.29	97.11
400.499	90.96
400.708	140.12
400.917	140.12
401.127	121.68
401.336	41.81
401.545	252.75
401.754	123.73
401.963	228.18
402.172	146.26
402.381	140.12
402.59	109.4
402.799	125.78
403.008	119.64
403.217	142.16
403.426	121.68
403.635	125.78
403.844	203.6
404.053	172.88
404.262	115.54
404.471	234.32
404.68	189.27
404.888	152.4
405.097	170.83
405.306	213.84
405.515	174.93
405.724	170.83
405.933	260.95
406.142	93.01
406.35	244.56
406.559	183.12
406.768	238.42
406.977	195.41
407.185	252.75
407.394	301.9
407.603	303.95
407.812	205.65
408.02	287.57
408.229	297.81
408.438	203.6
408.646	289.62
408.855	308.05
409.064	308.05
409.272	336.72
409.481	410.45
409.69	363.34
409.898	406.35
410.107	424.78
410.315	404.3
410.524	367.44
410.733	463.69
410.941	465.74
411.15	463.69
411.358	506.7
411.567	543.57
411.775	428.88
411.984	539.47
412.192	553.8
412.401	707.4
412.609	568.14
412.818	678.73
413.026	723.79
413.234	639.82
413.443	590.67
413.651	738.12
413.86	729.93
414.068	731.98
414.276	748.36
414.485	752.46
414.693	936.78
414.901	873.29
415.11	955.21
415.318	908.1
415.526	983.88
415.734	961.35
415.943	1071.94
416.151	1022.79
416.359	1125.19
416.567	1088.32
416.776	1182.53
416.984	1174.34
417.192	1360.7
417.4	1289.03
417.608	1254.21
417.817	1303.36
418.025	1346.37
418.233	1473.34
418.441	1583.93
418.649	1573.69
418.857	1631.04
419.065	1723.2
419.273	1633.08
419.481	1821.5
419.689	1909.56
419.897	1999.67
420.105	1948.47
420.313	1987.38
420.521	2134.84
420.729	2114.36
420.937	2143.03
421.145	2163.51
421.353	2431.79
421.561	2597.68
421.769	2575.15
421.977	2644.78
422.185	2648.88
422.393	2937.64
422.601	2984.74
422.809	3005.22
423.017	3035.94
423.224	3054.37
423.432	3201.83
423.64	3304.23
423.848	3644.19
424.056	3375.91
424.263	3848.99
424.471	3672.86
424.679	3726.11
424.887	3912.47
425.094	4096.79
425.302	4238.1
425.51	4184.85
425.718	4422.42
425.925	4469.52
426.133	4625.17
426.341	4889.35
426.548	5102.34
426.756	5100.3
426.964	5227.27
427.171	5489.41
427.379	5659.39
427.586	5583.62
427.794	5843.71
428.001	6105.85
428.209	6464.24
428.417	6208.25
428.624	6806.25
428.832	6673.14
429.039	6689.52
429.247	6980.33
429.454	7367.4
429.662	7799.52
429.869	7312.1
430.076	7881.44
430.284	7615.2
430.491	8096.47
430.699	8385.24
430.906	8403.67
431.114	8542.93
431.321	8831.69
431.528	8977.1
431.736	9636.55
431.943	10050.24
432.15	9702.08
432.358	10046.14
432.565	10345.14
432.772	10312.38
432.979	11020.97
433.187	11287.21
433.394	11170.47
433.601	11905.7
433.808	12026.53
434.016	11741.86
434.223	12423.83
434.43	13068.94
434.637	12722.84
434.844	13580.93
435.052	13703.81
435.259	13734.53
435.466	13814.4
435.673	13935.23
435.88	14555.77
436.087	15426.15
436.294	15403.63
436.501	15127.15
436.708	15239.79
436.915	15676.01
437.122	16317.02
437.329	16511.58
437.537	17201.74
437.743	17248.85
437.95	17291.85
438.157	18170.43
438.364	18739.77
438.571	18537.02
438.778	18790.97
438.985	20341.28
439.192	19880.49
439.399	20572.7
439.606	19755.56
439.813	20970.01
440.02	22381.06
440.227	21993.99
440.433	21764.62
440.64	22276.61
440.847	22141.44
441.054	23101.94
441.261	24148.45
441.467	23904.74
441.674	24414.69
441.881	25539.02
442.088	25010.65
442.294	24801.75
442.501	25551.31
442.708	25876.94
442.914	27195.83
443.121	28090.79
443.328	27326.9
443.534	29600.15
443.741	28567.97
443.948	28322.21
444.154	30251.4
444.361	30130.57
444.568	30488.96
444.774	30237.06
444.981	30476.68
445.187	31586.68
445.394	32934.24
445.6	32123.24
445.807	35443
446.013	34103.63
446.22	34648.39
446.426	35932.47
446.633	36122.93
446.839	37685.53
447.046	35819.83
447.252	37392.67
447.459	37900.56
447.665	37910.8
447.871	39459.07
448.078	41177.31
448.284	39170.3
448.491	39946.48
448.697	41717.98
448.903	42150.1
449.11	42551.5
449.316	41857.24
449.522	42531.02
449.728	43526.33
449.935	43978.93
450.141	43495.61
450.347	45258.91
450.553	43229.38
450.76	43985.08
450.966	45441.18
451.172	44847.27
451.378	45754.52
451.584	45043.88
451.791	46243.99
451.997	45703.32
452.203	46710.92
452.409	46770.32
452.615	46772.36
452.821	44824.75
453.027	44406.96
453.233	46512.27
453.44	45121.7
453.646	45234.34
453.852	45703.32
454.058	46334.1
454.264	44978.34
454.47	45928.6
454.676	44738.73
454.882	46041.24
455.088	42086.61
455.294	43088.07
455.5	43425.98
455.705	44105.91
455.911	42510.54
456.117	41494.75
456.323	40900.84
456.529	38803.72
456.735	40909.03
456.941	39588.09
457.147	38971.65
457.352	37568.79
457.558	37372.19
457.764	37605.66
457.97	36794.66
458.176	36417.83
458.381	36075.82
458.587	34451.78
458.793	34431.3
458.999	32528.74
459.204	34500.93
459.41	33993.04
459.616	31701.36
459.821	31994.22
460.027	31676.79
460.233	30892.41
460.438	29260.18
460.644	29718.93
460.85	28506.53
461.055	28017.07
461.261	27904.43
461.466	25766.35
461.672	24949.21
461.878	26847.68
462.083	24906.2
462.289	24656.35
462.494	24633.82
462.7	23265.78
462.905	22948.34
463.111	23587.31
463.316	23661.04
463.522	23224.82
463.727	22819.32
463.932	23128.56
464.138	22622.72
464.343	22991.35
464.549	22366.72
464.754	23005.69
464.959	22690.3
465.165	22649.34
465.37	21762.57
465.575	21109.27
465.781	22092.29
465.986	22141.44
466.191	21428.75
466.397	20726.3
466.602	19776.04
466.807	20568.6
467.012	20716.06
467.218	20576.8
467.423	20142.63
467.628	20331.04
467.833	21217.81
468.038	20523.55
