Data from USB4F104151__266__14-22-49-776.txt Node

Date: Thu Mar 13 14:22:49 EDT 2025
User: louis
Spectrometer: USB4F10415
Trigger mode: 4
Integration Time (sec): 2.000000E-2
Scans to average: 1
Electric dark correction enabled: true
Nonlinearity correction enabled: false
Boxcar width: 0
XAxis mode: Wavelengths
Number of Pixels in Spectrum: 3648
>>>>>Begin Spectral Data<<<<<
178.204	-59.9
178.424	-59.9
178.644	-59.9
178.864	-53.76
179.084	-117.25
179.304	-55.81
179.524	-0.51
179.744	60.93
179.964	22.02
180.184	-59.9
180.404	22.02
180.624	-25.09
180.844	-18.94
181.064	30.21
181.283	58.88
181.503	-18.94
181.723	-14.85
181.943	-27.14
182.163	75.26
182.383	40.45
182.602	5.63
182.822	-4.61
183.042	112.13
183.262	-47.62
183.482	58.88
183.701	-2.56
183.921	36.35
184.141	-10.75
184.361	67.07
184.58	38.4
184.8	-25.09
185.02	-23.04
185.239	48.64
185.459	7.68
185.679	87.55
185.898	-66.05
186.118	159.23
186.338	11.78
186.557	9.73
186.777	30.21
186.997	5.63
187.216	17.92
187.436	79.36
187.655	32.26
187.875	1.54
188.095	-2.56
188.314	48.64
188.534	42.5
188.753	122.37
188.973	-0.51
189.192	103.93
189.412	22.02
189.631	34.3
189.851	42.5
190.07	46.59
190.29	-8.7
190.509	-16.9
190.729	30.21
190.948	-6.66
191.168	112.13
191.387	30.21
191.607	-10.75
191.826	-4.61
192.045	38.4
192.265	11.78
192.484	71.17
192.704	40.45
192.923	5.63
193.142	62.98
193.362	-64
193.581	91.65
193.8	38.4
194.02	30.21
194.239	9.73
194.458	1.54
194.678	19.97
194.897	22.02
195.116	26.11
195.335	-16.9
195.555	7.68
195.774	36.35
195.993	-10.75
196.212	83.45
196.432	-8.7
196.651	-23.04
196.87	-47.62
197.089	87.55
197.308	34.3
197.528	28.16
197.747	56.83
197.966	26.11
198.185	75.26
198.404	5.63
198.623	-0.51
198.842	-14.85
199.062	52.74
199.281	38.4
199.5	22.02
199.719	46.59
199.938	26.11
200.157	54.78
200.376	169.47
200.595	26.11
200.814	17.92
201.033	40.45
201.252	56.83
201.471	48.64
201.69	91.65
201.909	9.73
202.128	9.73
202.347	153.09
202.566	-16.9
202.785	-41.47
203.004	-23.04
203.223	58.88
203.442	-27.14
203.661	-25.09
203.879	24.06
204.098	24.06
204.317	112.13
204.536	91.65
204.755	56.83
204.974	13.82
205.193	91.65
205.411	-18.94
205.63	19.97
205.849	17.92
206.068	54.78
206.287	22.02
206.505	46.59
206.724	-8.7
206.943	-16.9
207.162	-27.14
207.381	-27.14
207.599	48.64
207.818	-8.7
208.037	30.21
208.255	44.54
208.474	5.63
208.693	69.12
208.911	-8.7
209.13	-74.24
209.349	65.02
209.567	13.82
209.786	-27.14
210.005	-2.56
210.223	38.4
210.442	-10.75
210.661	79.36
210.879	69.12
211.098	60.93
211.316	5.63
211.535	120.32
211.753	22.02
211.972	83.45
212.191	15.87
212.409	40.45
212.628	42.5
212.846	60.93
213.065	-10.75
213.283	95.74
213.502	17.92
213.72	22.02
213.938	24.06
214.157	-14.85
214.375	32.26
214.594	13.82
214.812	38.4
215.031	105.98
215.249	-74.24
215.467	105.98
215.686	-2.56
215.904	38.4
216.122	5.63
216.341	62.98
216.559	46.59
216.778	-18.94
216.996	56.83
217.214	19.97
217.432	5.63
217.651	-14.85
217.869	44.54
218.087	-12.8
218.306	-14.85
218.524	-43.52
218.742	-41.47
218.96	89.6
219.179	1.54
219.397	-18.94
219.615	87.55
219.833	38.4
220.051	-35.33
220.27	132.61
220.488	5.63
220.706	69.12
220.924	-70.14
221.142	9.73
221.36	83.45
221.578	30.21
221.796	38.4
222.015	22.02
222.233	-80.38
222.451	62.98
222.669	-18.94
222.887	24.06
223.105	15.87
223.323	3.58
223.541	56.83
223.759	32.26
223.977	30.21
224.195	103.93
224.413	34.3
224.631	42.5
224.849	-14.85
225.067	144.89
225.285	-8.7
225.503	56.83
225.721	54.78
225.939	83.45
226.157	30.21
226.375	81.41
226.592	28.16
226.81	-53.76
227.028	24.06
227.246	15.87
227.464	73.21
227.682	87.55
227.9	17.92
228.117	85.5
228.335	40.45
228.553	50.69
228.771	40.45
228.989	-2.56
229.206	132.61
229.424	58.88
229.642	-35.33
229.86	22.02
230.077	30.21
230.295	-43.52
230.513	42.5
230.731	22.02
230.948	62.98
231.166	116.22
231.384	40.45
231.601	40.45
231.819	103.93
232.037	9.73
232.254	-35.33
232.472	22.02
232.689	34.3
232.907	22.02
233.125	-43.52
233.342	7.68
233.56	-18.94
233.777	42.5
233.995	-25.09
234.213	87.55
234.43	-23.04
234.648	13.82
234.865	32.26
235.083	38.4
235.3	-6.66
235.518	71.17
235.735	-27.14
235.953	60.93
236.17	28.16
236.388	48.64
236.605	-18.94
236.822	56.83
237.04	24.06
237.257	-53.76
237.475	-41.47
237.692	62.98
237.909	71.17
238.127	-2.56
238.344	30.21
238.562	19.97
238.779	-16.9
238.996	15.87
239.214	-47.62
239.431	46.59
239.648	-49.66
239.865	42.5
240.083	22.02
240.3	32.26
240.517	-59.9
240.735	44.54
240.952	103.93
241.169	34.3
241.386	54.78
241.603	52.74
241.821	-55.81
242.038	36.35
242.255	9.73
242.472	-59.9
242.689	-14.85
242.907	71.17
243.124	-31.23
243.341	17.92
243.558	-39.42
243.775	26.11
243.992	-31.23
244.209	38.4
244.426	110.08
244.643	-8.7
244.86	-43.52
245.078	38.4
245.295	65.02
245.512	13.82
245.729	34.3
245.946	69.12
246.163	34.3
246.38	-16.9
246.597	-14.85
246.814	24.06
247.031	-16.9
247.248	42.5
247.464	73.21
247.681	1.54
247.898	-35.33
248.115	103.93
248.332	-6.66
248.549	75.26
248.766	112.13
248.983	-4.61
249.2	-2.56
249.417	87.55
249.633	30.21
249.85	19.97
250.067	19.97
250.284	-2.56
250.501	67.07
250.717	62.98
250.934	-18.94
251.151	62.98
251.368	36.35
251.585	15.87
251.801	89.6
252.018	13.82
252.235	46.59
252.451	15.87
252.668	-35.33
252.885	-8.7
253.102	-115.2
253.318	42.5
253.535	-14.85
253.752	13.82
253.968	-33.28
254.185	46.59
254.401	22.02
254.618	17.92
254.835	5.63
255.051	38.4
255.268	-18.94
255.484	-18.94
255.701	1.54
255.917	148.99
256.134	28.16
256.351	83.45
256.567	-20.99
256.784	22.02
257	-74.24
257.217	7.68
257.433	58.88
257.65	9.73
257.866	91.65
258.082	-35.33
258.299	19.97
258.515	30.21
258.732	13.82
258.948	-12.8
259.165	-10.75
259.381	132.61
259.597	65.02
259.814	-8.7
260.03	-35.33
260.246	50.69
260.463	54.78
260.679	-2.56
260.895	38.4
261.112	48.64
261.328	-68.09
261.544	7.68
261.761	128.51
261.977	54.78
262.193	-10.75
262.409	32.26
262.626	56.83
262.842	-39.42
263.058	22.02
263.274	26.11
263.49	-14.85
263.707	5.63
263.923	22.02
264.139	3.58
264.355	54.78
264.571	-8.7
264.787	42.5
265.004	46.59
265.22	17.92
265.436	42.5
265.652	7.68
265.868	26.11
266.084	46.59
266.3	-41.47
266.516	-10.75
266.732	34.3
266.948	81.41
267.164	85.5
267.38	32.26
267.596	73.21
267.812	30.21
268.028	79.36
268.244	87.55
268.46	42.5
268.676	1.54
268.892	62.98
269.108	-0.51
269.324	-8.7
269.54	1.54
269.756	44.54
269.972	5.63
270.188	15.87
270.403	11.78
270.619	11.78
270.835	-23.04
271.051	105.98
271.267	-2.56
271.483	24.06
271.698	62.98
271.914	56.83
272.13	9.73
272.346	-6.66
272.562	11.78
272.777	112.13
272.993	-4.61
273.209	13.82
273.425	-0.51
273.64	-57.86
273.856	65.02
274.072	-49.66
274.287	-45.57
274.503	22.02
274.719	44.54
274.934	81.41
275.15	-27.14
275.366	28.16
275.581	-51.71
275.797	62.98
276.012	19.97
276.228	-25.09
276.444	116.22
276.659	89.6
276.875	-14.85
277.09	85.5
277.306	-35.33
277.521	7.68
277.737	58.88
277.952	24.06
278.168	-6.66
278.383	50.69
278.599	42.5
278.814	-37.38
279.03	17.92
279.245	46.59
279.461	-4.61
279.676	40.45
279.892	9.73
280.107	22.02
280.322	-27.14
280.538	17.92
280.753	19.97
280.969	95.74
281.184	-14.85
281.399	62.98
281.615	13.82
281.83	83.45
282.045	-84.48
282.26	3.58
282.476	73.21
282.691	83.45
282.906	-6.66
283.122	-47.62
283.337	-0.51
283.552	75.26
283.767	26.11
283.983	9.73
284.198	-10.75
284.413	17.92
284.628	-14.85
284.843	97.79
285.058	22.02
285.274	79.36
285.489	-2.56
285.704	65.02
285.919	-2.56
286.134	36.35
286.349	-23.04
286.564	48.64
286.779	-14.85
286.995	-2.56
287.21	-6.66
287.425	40.45
287.64	5.63
287.855	19.97
288.07	77.31
288.285	50.69
288.5	95.74
288.715	36.35
288.93	-27.14
289.145	26.11
289.36	50.69
289.575	-8.7
289.79	116.22
290.004	112.13
290.219	34.3
290.434	34.3
290.649	40.45
290.864	9.73
291.079	44.54
291.294	62.98
291.509	17.92
291.724	-0.51
291.938	-41.47
292.153	56.83
292.368	32.26
292.583	5.63
292.798	48.64
293.012	-0.51
293.227	38.4
293.442	87.55
293.657	95.74
293.871	15.87
294.086	32.26
294.301	32.26
294.516	1.54
294.73	5.63
294.945	-2.56
295.16	-2.56
295.374	38.4
295.589	13.82
295.804	-23.04
296.018	-4.61
296.233	7.68
296.447	30.21
296.662	-10.75
296.877	54.78
297.091	7.68
297.306	87.55
297.52	-16.9
297.735	24.06
297.949	32.26
298.164	95.74
298.378	5.63
298.593	-41.47
298.807	13.82
299.022	136.7
299.236	60.93
299.451	-10.75
299.665	48.64
299.88	38.4
300.094	26.11
300.309	36.35
300.523	-31.23
300.737	52.74
300.952	122.37
301.166	-4.61
301.381	62.98
301.595	22.02
301.809	65.02
302.024	7.68
302.238	48.64
302.452	24.06
302.667	34.3
302.881	38.4
303.095	99.84
303.309	40.45
303.524	1.54
303.738	87.55
303.952	54.78
304.166	-0.51
304.381	-55.81
304.595	60.93
304.809	22.02
305.023	67.07
305.237	48.64
305.452	42.5
305.666	22.02
305.88	-8.7
306.094	65.02
306.308	89.6
306.522	3.58
306.736	22.02
306.95	40.45
307.164	60.93
307.379	5.63
307.593	22.02
307.807	9.73
308.021	75.26
308.235	34.3
308.449	-10.75
308.663	19.97
308.877	105.98
309.091	9.73
309.305	77.31
309.519	-27.14
309.733	118.27
309.947	-51.71
310.161	22.02
310.374	65.02
310.588	50.69
310.802	-33.28
311.016	26.11
311.23	67.07
311.444	5.63
311.658	65.02
311.872	-2.56
312.085	30.21
312.299	50.69
312.513	-2.56
312.727	28.16
312.941	5.63
313.154	71.17
313.368	36.35
313.582	46.59
313.796	22.02
314.009	5.63
314.223	54.78
314.437	3.58
314.651	34.3
314.864	17.92
315.078	17.92
315.292	-23.04
315.505	103.93
315.719	42.5
315.933	50.69
316.146	5.63
316.36	38.4
316.573	13.82
316.787	5.63
317.001	32.26
317.214	42.5
317.428	-2.56
317.641	50.69
317.855	75.26
318.068	-14.85
318.282	9.73
318.495	54.78
318.709	9.73
318.922	38.4
319.136	71.17
319.349	81.41
319.563	5.63
319.776	38.4
319.99	50.69
320.203	-6.66
320.417	-35.33
320.63	79.36
320.843	26.11
321.057	-14.85
321.27	85.5
321.483	60.93
321.697	32.26
321.91	62.98
322.124	87.55
322.337	48.64
322.55	-10.75
322.763	32.26
322.977	62.98
323.19	-31.23
323.403	50.69
323.617	38.4
323.83	114.17
324.043	17.92
324.256	13.82
324.469	-35.33
324.683	71.17
324.896	48.64
325.109	-6.66
325.322	-31.23
325.535	5.63
325.748	-2.56
325.962	22.02
326.175	77.31
326.388	56.83
326.601	71.17
326.814	32.26
327.027	56.83
327.24	40.45
327.453	-74.24
327.666	28.16
327.879	97.79
328.092	75.26
328.305	38.4
328.518	58.88
328.731	-27.14
328.944	136.7
329.157	42.5
329.37	22.02
329.583	34.3
329.796	99.84
330.009	-0.51
330.222	91.65
330.435	7.68
330.648	65.02
330.861	79.36
331.073	-92.67
331.286	36.35
331.499	3.58
331.712	13.82
331.925	38.4
332.138	17.92
332.35	17.92
332.563	-0.51
332.776	44.54
332.989	54.78
333.202	-8.7
333.414	42.5
333.627	9.73
333.84	1.54
334.053	91.65
334.265	-18.94
334.478	13.82
334.691	13.82
334.903	30.21
335.116	-64
335.329	-51.71
335.541	26.11
335.754	73.21
335.966	46.59
336.179	83.45
336.392	-4.61
336.604	13.82
336.817	75.26
337.029	79.36
337.242	1.54
337.454	77.31
337.667	9.73
337.88	-0.51
338.092	62.98
338.305	52.74
338.517	-10.75
338.729	-31.23
338.942	32.26
339.154	46.59
339.367	15.87
339.579	32.26
339.792	26.11
340.004	83.45
340.217	5.63
340.429	-20.99
340.641	-43.52
340.854	7.68
341.066	48.64
341.278	30.21
341.491	46.59
341.703	30.21
341.915	36.35
342.128	-2.56
342.34	-23.04
342.552	-10.75
342.764	56.83
342.977	40.45
343.189	-33.28
343.401	15.87
343.613	5.63
343.826	56.83
344.038	97.79
344.25	7.68
344.462	-14.85
344.674	19.97
344.886	54.78
345.099	-10.75
345.311	30.21
345.523	30.21
345.735	-47.62
345.947	1.54
346.159	60.93
346.371	15.87
346.583	69.12
346.795	148.99
347.007	75.26
347.219	26.11
347.431	71.17
347.643	71.17
347.855	5.63
348.067	103.93
348.279	-10.75
348.491	11.78
348.703	79.36
348.915	22.02
349.127	-55.81
349.339	81.41
349.551	99.84
349.763	-23.04
349.975	13.82
350.187	38.4
350.399	79.36
350.61	1.54
350.822	58.88
351.034	85.5
351.246	-4.61
351.458	62.98
351.669	9.73
351.881	56.83
352.093	24.06
352.305	71.17
352.517	-18.94
352.728	73.21
352.94	67.07
353.152	65.02
353.363	-45.57
353.575	65.02
353.787	83.45
353.999	34.3
354.21	5.63
354.422	13.82
354.633	28.16
354.845	30.21
355.057	-41.47
355.268	-8.7
355.48	56.83
355.692	-76.29
355.903	30.21
356.115	50.69
356.326	-39.42
356.538	83.45
356.749	71.17
356.961	38.4
357.172	46.59
357.384	22.02
357.595	83.45
357.807	38.4
358.018	77.31
358.23	34.3
358.441	69.12
358.653	46.59
358.864	1.54
359.075	73.21
359.287	17.92
359.498	81.41
359.709	24.06
359.921	42.5
360.132	38.4
360.344	77.31
360.555	62.98
360.766	73.21
360.977	48.64
361.189	48.64
361.4	65.02
361.611	71.17
361.823	87.55
362.034	17.92
362.245	32.26
362.456	-4.61
362.667	58.88
362.879	-16.9
363.09	40.45
363.301	7.68
363.512	-8.7
363.723	54.78
363.935	-2.56
364.146	81.41
364.357	5.63
364.568	-2.56
364.779	-25.09
364.99	81.41
365.201	-23.04
365.412	77.31
365.623	-27.14
365.834	46.59
366.045	30.21
366.256	73.21
366.467	40.45
366.678	40.45
366.889	30.21
367.1	128.51
367.311	38.4
367.522	126.46
367.733	85.5
367.944	-10.75
368.155	34.3
368.366	48.64
368.577	79.36
368.788	11.78
368.999	71.17
369.209	95.74
369.42	128.51
369.631	112.13
369.842	83.45
370.053	5.63
370.264	71.17
370.474	-68.09
370.685	58.88
370.896	13.82
371.107	79.36
371.317	9.73
371.528	17.92
371.739	58.88
371.95	34.3
372.16	38.4
372.371	50.69
372.582	32.26
372.792	69.12
373.003	-2.56
373.214	7.68
373.424	50.69
373.635	-14.85
373.846	73.21
374.056	54.78
374.267	75.26
374.477	48.64
374.688	15.87
374.898	46.59
375.109	46.59
375.319	13.82
375.53	56.83
375.74	112.13
375.951	42.5
376.161	120.32
376.372	99.84
376.582	42.5
376.793	81.41
377.003	22.02
377.214	30.21
377.424	71.17
377.635	19.97
377.845	-80.38
378.055	56.83
378.266	38.4
378.476	-31.23
378.686	46.59
378.897	46.59
379.107	-23.04
379.317	30.21
379.528	62.98
379.738	91.65
379.948	58.88
380.158	28.16
380.369	26.11
380.579	50.69
380.789	54.78
380.999	56.83
381.21	11.78
381.42	83.45
381.63	40.45
381.84	48.64
382.05	87.55
382.261	34.3
382.471	56.83
382.681	40.45
382.891	42.5
383.101	105.98
383.311	13.82
383.521	1.54
383.731	62.98
383.941	71.17
384.151	157.18
384.361	34.3
384.571	-10.75
384.781	79.36
384.991	79.36
385.201	95.74
385.411	-10.75
385.621	62.98
385.831	5.63
386.041	-2.56
386.251	36.35
386.461	99.84
386.671	-51.71
386.881	13.82
387.091	81.41
387.301	83.45
387.511	36.35
387.72	67.07
387.93	38.4
388.14	56.83
388.35	24.06
388.56	17.92
388.769	42.5
388.979	-6.66
389.189	79.36
389.399	34.3
389.609	11.78
389.818	71.17
390.028	50.69
390.238	97.79
390.447	26.11
390.657	13.82
390.867	36.35
391.076	26.11
391.286	34.3
391.496	67.07
391.705	17.92
391.915	89.6
392.125	30.21
392.334	7.68
392.544	42.5
392.753	105.98
392.963	85.5
393.172	67.07
393.382	5.63
393.591	118.27
393.801	58.88
394.01	73.21
394.22	58.88
394.429	71.17
394.639	54.78
394.848	87.55
395.058	22.02
395.267	73.21
395.477	50.69
395.686	34.3
395.895	83.45
396.105	91.65
396.314	93.69
396.524	48.64
396.733	93.69
396.942	132.61
397.152	50.69
397.361	120.32
397.57	36.35
397.78	54.78
397.989	-25.09
398.198	95.74
398.407	56.83
398.617	42.5
398.826	101.89
399.035	15.87
399.244	175.61
399.453	67.07
399.663	79.36
399.872	65.02
400.081	13.82
400.29	81.41
400.499	44.54
400.708	110.08
400.917	38.4
401.127	-10.75
401.336	-14.85
401.545	138.75
401.754	79.36
401.963	95.74
402.172	13.82
402.381	60.93
402.59	99.84
402.799	187.9
403.008	120.32
403.217	126.46
403.426	163.33
403.635	17.92
403.844	65.02
404.053	120.32
404.262	-2.56
404.471	105.98
404.68	140.8
404.888	-27.14
405.097	95.74
405.306	126.46
405.515	146.94
405.724	52.74
405.933	130.56
406.142	122.37
406.35	124.41
406.559	32.26
406.768	134.65
406.977	108.03
407.185	136.7
407.394	161.28
407.603	112.13
407.812	155.13
408.02	259.58
408.229	214.52
408.438	136.7
408.646	108.03
408.855	161.28
409.064	169.47
409.272	161.28
409.481	146.94
409.69	194.05
409.898	259.58
410.107	114.17
410.315	237.05
410.524	173.57
410.733	177.66
410.941	245.24
411.15	206.33
411.358	239.1
411.567	241.15
411.775	247.29
411.984	271.87
412.192	267.77
412.401	292.35
412.609	290.3
412.818	302.59
413.026	357.88
413.234	357.88
413.443	370.17
413.651	368.12
413.86	437.75
414.068	407.03
414.276	435.71
414.485	347.64
414.693	411.13
414.901	572.92
415.11	488.95
415.318	511.48
415.526	546.3
415.734	585.21
415.943	513.53
416.151	548.34
416.359	501.24
416.567	562.68
416.776	611.83
416.984	654.84
417.192	648.69
417.4	677.37
417.608	646.65
417.817	710.13
418.025	816.63
418.233	869.87
418.441	687.61
418.649	728.56
418.857	835.06
419.065	906.74
419.273	882.16
419.481	857.59
419.689	921.07
419.897	998.9
420.105	1109.49
420.313	976.37
420.521	1000.94
420.729	1168.88
420.937	1070.58
421.145	1185.26
421.353	1172.97
421.561	1277.42
421.769	1146.35
421.977	1357.29
422.185	1316.33
422.393	1455.59
422.601	1580.52
422.809	1496.55
423.017	1365.48
423.224	1574.38
423.432	1723.88
423.64	1633.77
423.848	1752.55
424.056	1689.06
424.263	1832.42
424.471	1820.13
424.679	1865.19
424.887	1916.39
425.094	2061.79
425.302	2225.63
425.51	2076.13
425.718	2192.86
425.925	2199.01
426.133	2268.64
426.341	2483.67
426.548	2618.84
426.756	2506.2
426.964	2545.11
427.171	2674.14
427.379	2846.16
427.586	2864.6
427.794	2940.37
428.001	3177.94
428.209	3278.29
428.417	3120.59
428.624	3470.8
428.832	3487.18
429.039	3352.01
429.247	3487.18
429.454	3706.31
429.662	3913.16
429.869	3773.89
430.076	3847.62
430.284	3929.54
430.491	4036.03
430.699	4115.91
430.906	4292.03
431.114	4199.87
431.321	4423.1
431.528	4410.81
431.736	4603.32
431.943	5047.73
432.15	4824.5
432.358	4996.53
432.565	5148.08
432.772	5057.97
432.979	5412.27
433.187	5584.3
433.394	5496.24
433.601	5877.16
433.808	5911.97
434.016	5936.55
434.223	6198.69
434.43	6561.18
434.637	6329.76
434.844	6784.41
435.052	6888.85
435.259	6829.46
435.466	6927.77
435.673	6917.53
435.88	7308.69
436.087	7529.87
436.294	7591.31
436.501	7521.68
436.708	7591.31
436.915	7961.99
437.122	8197.51
437.329	8279.43
437.537	8551.81
437.743	8576.38
437.95	8652.16
438.157	8942.97
438.364	9215.35
438.571	9057.65
438.778	9289.07
438.985	10132.84
439.192	9647.47
439.399	9934.18
439.606	9870.7
439.813	10368.35
440.02	11165.01
440.227	10798.43
440.433	10798.43
440.64	11228.5
440.847	10812.76
441.054	11273.56
441.261	12019.02
441.467	11973.96
441.674	12021.06
441.881	12535.1
442.088	12490.05
442.294	12465.47
442.501	12821.82
442.708	12866.88
442.914	13253.94
443.121	14251.3
443.328	13829.42
443.534	14857.5
443.741	14177.58
443.948	13931.82
444.154	15105.31
444.361	14863.65
444.568	14857.5
444.774	15187.22
444.981	15199.51
445.187	15713.55
445.394	16319.75
445.6	16002.32
445.807	17380.6
446.013	16495.88
446.22	17220.86
446.426	17589.49
446.633	17822.96
446.839	18271.47
447.046	17734.9
447.252	18861.28
447.459	18916.58
447.665	18908.38
447.871	19399.9
448.078	20409.54
448.284	19481.81
448.491	20055.25
448.697	20489.42
448.903	21134.53
449.11	21210.3
449.316	21103.81
449.522	21095.61
449.728	21843.12
449.935	21798.07
450.141	21843.12
450.347	22385.83
450.553	21818.55
450.76	22260.91
450.966	22693.03
451.172	22484.14
451.378	23067.81
451.584	22654.12
451.791	23022.75
451.997	22779.04
452.203	23401.63
452.409	23547.03
452.615	23413.91
452.821	22508.71
453.027	22156.46
453.233	23549.08
453.44	22742.18
453.646	23196.83
453.852	23190.69
454.058	23555.22
454.264	22537.38
454.47	23360.67
454.676	22475.95
454.882	23585.94
455.088	21664.95
455.294	21681.33
455.5	21912.75
455.705	22551.72
455.911	21374.14
456.117	21169.34
456.323	20915.39
456.529	19770.58
456.735	20421.83
456.941	20053.2
457.147	19711.19
457.352	19256.54
457.558	18982.11
457.764	18982.11
457.97	18564.32
458.176	18412.78
458.381	18668.77
458.587	17491.19
458.793	17607.92
458.999	16348.42
459.204	17831.15
459.41	17040.64
459.616	16096.52
459.821	16207.11
460.027	16028.94
460.233	15656.21
460.438	15215.9
460.644	14988.57
460.85	14492.96
461.055	14228.77
461.261	14259.49
461.466	13225.27
461.672	12744
461.878	13561.14
462.083	12893.5
462.289	12490.05
462.494	12485.95
462.7	11941.19
462.905	11351.38
463.111	12162.37
463.316	12055.88
463.522	11846.99
463.727	11687.25
463.932	11767.12
464.138	11584.85
464.343	11605.33
464.549	11146.58
464.754	11820.36
464.959	11373.91
465.165	11457.87
465.37	11126.1
465.575	10601.82
465.781	11081.05
465.986	11040.09
466.191	10823
466.397	10607.97
466.602	9930.09
466.807	10229.09
467.012	10394.98
467.218	10294.63
467.423	10155.37
467.628	10270.05
467.833	10702.17
468.038	10343.78
468.244	10190.18
468.449	10265.96
