Data from USB4F104151__144__14-19-19-351.txt Node

Date: Thu Mar 13 14:19:19 EDT 2025
User: louis
Spectrometer: USB4F10415
Trigger mode: 4
Integration Time (sec): 2.000000E-2
Scans to average: 1
Electric dark correction enabled: true
Nonlinearity correction enabled: false
Boxcar width: 0
XAxis mode: Wavelengths
Number of Pixels in Spectrum: 3648
>>>>>Begin Spectral Data<<<<<
178.204	-110.76
178.424	-110.76
178.644	-110.76
178.864	-133.29
179.084	-110.76
179.304	14.17
179.524	-18.6
179.744	-20.65
179.964	42.84
180.184	16.21
180.404	-65.71
180.624	-14.51
180.844	28.5
181.064	3.93
181.283	-16.55
181.503	28.5
181.723	1.88
181.943	-57.51
182.163	94.04
182.383	38.74
182.602	34.64
182.822	32.6
183.042	-41.13
183.262	-20.65
183.482	122.71
183.701	53.08
183.921	28.5
184.141	48.98
184.361	69.46
184.58	79.7
184.8	38.74
185.02	20.31
185.239	28.5
185.459	-20.65
185.679	12.12
185.898	-4.27
186.118	87.89
186.338	61.27
186.557	3.93
186.777	-26.79
186.997	-2.22
187.216	20.31
187.436	57.17
187.655	16.21
187.875	28.5
188.095	38.74
188.314	3.93
188.534	77.65
188.753	-18.6
188.973	61.27
189.192	-4.27
189.412	28.5
189.631	61.27
189.851	16.21
190.07	71.51
190.29	5.97
190.509	38.74
190.729	44.88
190.948	12.12
191.168	171.86
191.387	85.84
191.607	28.5
191.826	5.97
192.045	-10.41
192.265	3.93
192.484	44.88
192.704	48.98
192.923	32.6
193.142	59.22
193.362	40.79
193.581	-4.27
193.8	-8.36
194.02	118.61
194.239	10.07
194.458	-59.56
194.678	-53.42
194.897	40.79
195.116	87.89
195.335	-18.6
195.555	8.02
195.774	-37.03
195.993	79.7
196.212	-53.42
196.432	-16.55
196.651	28.5
196.87	12.12
197.089	55.12
197.308	-2.22
197.528	75.6
197.747	-55.47
197.966	61.27
198.185	42.84
198.404	-16.55
198.623	79.7
198.842	8.02
199.062	28.5
199.281	44.88
199.5	1.88
199.719	73.56
199.938	59.22
200.157	126.8
200.376	57.17
200.595	53.08
200.814	8.02
201.033	42.84
201.252	69.46
201.471	112.47
201.69	63.32
201.909	77.65
202.128	61.27
202.347	67.41
202.566	24.4
202.785	20.31
203.004	-94.38
203.223	53.08
203.442	-37.03
203.661	5.97
203.879	-2.22
204.098	89.94
204.317	-4.27
204.536	40.79
204.755	81.75
204.974	5.97
205.193	36.69
205.411	79.7
205.63	53.08
205.849	69.46
206.068	44.88
206.287	14.17
206.505	112.47
206.724	-4.27
206.943	-8.36
207.162	14.17
207.381	73.56
207.599	42.84
207.818	104.28
208.037	40.79
208.255	20.31
208.474	81.75
208.693	-8.36
208.911	-4.27
209.13	22.36
209.349	85.84
209.567	40.79
209.786	3.93
210.005	48.98
210.223	-12.46
210.442	-16.55
210.661	63.32
210.879	73.56
211.098	40.79
211.316	26.45
211.535	69.46
211.753	38.74
211.972	-24.75
212.191	-16.55
212.409	30.55
212.628	40.79
212.846	-12.46
213.065	61.27
213.283	81.75
213.502	-45.23
213.72	32.6
213.938	-14.51
214.157	77.65
214.375	36.69
214.594	94.04
214.812	12.12
215.031	40.79
215.249	53.08
215.467	-32.94
215.686	8.02
215.904	81.75
216.122	71.51
216.341	32.6
216.559	3.93
216.778	-20.65
216.996	-65.71
217.214	61.27
217.432	44.88
217.651	94.04
217.869	38.74
218.087	44.88
218.306	38.74
218.524	71.51
218.742	40.79
218.96	110.42
219.179	32.6
219.397	48.98
219.615	100.18
219.833	89.94
220.051	38.74
220.27	63.32
220.488	-2.22
220.706	55.12
220.924	48.98
221.142	3.93
221.36	53.08
221.578	53.08
221.796	-20.65
222.015	87.89
222.233	-20.65
222.451	122.71
222.669	30.55
222.887	-12.46
223.105	143.19
223.323	-37.03
223.541	-12.46
223.759	26.45
223.977	-4.27
224.195	106.32
224.413	69.46
224.631	26.45
224.849	22.36
225.067	112.47
225.285	85.84
225.503	71.51
225.721	-12.46
225.939	53.08
226.157	65.36
226.375	77.65
226.592	-6.31
226.81	61.27
227.028	73.56
227.246	71.51
227.464	91.99
227.682	-30.89
227.9	69.46
228.117	65.36
228.335	44.88
228.553	100.18
228.771	51.03
228.989	57.17
229.206	61.27
229.424	46.93
229.642	59.22
229.86	-16.55
230.077	71.51
230.295	55.12
230.513	-2.22
230.731	20.31
230.948	46.93
231.166	46.93
231.384	12.12
231.601	26.45
231.819	5.97
232.037	126.8
232.254	44.88
232.472	-20.65
232.689	-10.41
232.907	53.08
233.125	-20.65
233.342	-2.22
233.56	-26.79
233.777	20.31
233.995	36.69
234.213	16.21
234.43	-18.6
234.648	20.31
234.865	48.98
235.083	36.69
235.3	-45.23
235.518	-12.46
235.735	65.36
235.953	96.08
236.17	14.17
236.388	28.5
236.605	55.12
236.822	122.71
237.04	3.93
237.257	38.74
237.475	8.02
237.692	48.98
237.909	-6.31
238.127	-10.41
238.344	96.08
238.562	44.88
238.779	26.45
238.996	-24.75
239.214	46.93
239.431	44.88
239.648	-30.89
239.865	26.45
240.083	22.36
240.3	71.51
240.517	12.12
240.735	85.84
240.952	20.31
241.169	75.6
241.386	77.65
241.603	44.88
241.821	-18.6
242.038	69.46
242.255	5.97
242.472	44.88
242.689	-4.27
242.907	65.36
243.124	-8.36
243.341	24.4
243.558	34.64
243.775	10.07
243.992	-4.27
244.209	91.99
244.426	69.46
244.643	44.88
244.86	32.6
245.078	69.46
245.295	-0.17
245.512	-10.41
245.729	12.12
245.946	30.55
246.163	1.88
246.38	12.12
246.597	-37.03
246.814	48.98
247.031	-47.27
247.248	30.55
247.464	-16.55
247.681	36.69
247.898	71.51
248.115	61.27
248.332	3.93
248.549	71.51
248.766	79.7
248.983	65.36
249.2	-20.65
249.417	3.93
249.633	69.46
249.85	112.47
250.067	34.64
250.284	32.6
250.501	18.26
250.717	69.46
250.934	-4.27
251.151	-41.13
251.368	79.7
251.585	28.5
251.801	-4.27
252.018	28.5
252.235	3.93
252.451	51.03
252.668	-8.36
252.885	124.76
253.102	59.22
253.318	126.8
253.535	12.12
253.752	-47.27
253.968	-61.61
254.185	-12.46
254.401	69.46
254.618	96.08
254.835	44.88
255.051	85.84
255.268	28.5
255.484	-4.27
255.701	20.31
255.917	20.31
256.134	-16.55
256.351	32.6
256.567	-4.27
256.784	26.45
257	-8.36
257.217	94.04
257.433	57.17
257.65	-32.94
257.866	67.41
258.082	55.12
258.299	-2.22
258.515	-51.37
258.732	81.75
258.948	-4.27
259.165	32.6
259.381	-51.37
259.597	22.36
259.814	30.55
260.03	42.84
260.246	71.51
260.463	-4.27
260.679	71.51
260.895	81.75
261.112	67.41
261.328	106.32
261.544	40.79
261.761	143.19
261.977	-2.22
262.193	-43.18
262.409	106.32
262.626	36.69
262.842	-4.27
263.058	-0.17
263.274	94.04
263.49	61.27
263.707	36.69
263.923	24.4
264.139	-12.46
264.355	32.6
264.571	-4.27
264.787	69.46
265.004	87.89
265.22	63.32
265.436	61.27
265.652	5.97
265.868	81.75
266.084	10.07
266.3	3.93
266.516	-4.27
266.732	57.17
266.948	1.88
267.164	110.42
267.38	85.84
267.596	73.56
267.812	73.56
268.028	57.17
268.244	81.75
268.46	143.19
268.676	10.07
268.892	100.18
269.108	-4.27
269.324	53.08
269.54	24.4
269.756	28.5
269.972	44.88
270.188	69.46
270.403	26.45
270.619	104.28
270.835	40.79
271.051	38.74
271.267	-10.41
271.483	-16.55
271.698	-0.17
271.914	28.5
272.13	63.32
272.346	3.93
272.562	-37.03
272.777	79.7
272.993	5.97
273.209	3.93
273.425	77.65
273.64	59.22
273.856	8.02
274.072	20.31
274.287	-6.31
274.503	104.28
274.719	30.55
274.934	28.5
275.15	30.55
275.366	-12.46
275.581	26.45
275.797	44.88
276.012	16.21
276.228	14.17
276.444	-26.79
276.659	122.71
276.875	-10.41
277.09	14.17
277.306	77.65
277.521	63.32
277.737	55.12
277.952	5.97
278.168	-12.46
278.383	20.31
278.599	46.93
278.814	81.75
279.03	40.79
279.245	114.52
279.461	16.21
279.676	36.69
279.892	22.36
280.107	48.98
280.322	-61.61
280.538	94.04
280.753	-0.17
280.969	87.89
281.184	-18.6
281.399	40.79
281.615	20.31
281.83	3.93
282.045	114.52
282.26	-10.41
282.476	20.31
282.691	-39.08
282.906	10.07
283.122	118.61
283.337	28.5
283.552	89.94
283.767	-22.7
283.983	14.17
284.198	48.98
284.413	5.97
284.628	55.12
284.843	-2.22
285.058	94.04
285.274	-45.23
285.489	61.27
285.704	12.12
285.919	69.46
286.134	71.51
286.349	-0.17
286.564	20.31
286.779	22.36
286.995	53.08
287.21	28.5
287.425	63.32
287.64	1.88
287.855	-8.36
288.07	-4.27
288.285	63.32
288.5	12.12
288.715	40.79
288.93	-20.65
289.145	57.17
289.36	36.69
289.575	36.69
289.79	85.84
290.004	-34.99
290.219	79.7
290.434	-69.8
290.649	1.88
290.864	96.08
291.079	20.31
291.294	57.17
291.509	32.6
291.724	65.36
291.938	14.17
292.153	98.13
292.368	12.12
292.583	77.65
292.798	22.36
293.012	36.69
293.227	12.12
293.442	30.55
293.657	65.36
293.871	-32.94
294.086	44.88
294.301	36.69
294.516	20.31
294.73	32.6
294.945	-34.99
295.16	32.6
295.374	122.71
295.589	30.55
295.804	24.4
296.018	-2.22
296.233	87.89
296.447	91.99
296.662	-20.65
296.877	71.51
297.091	40.79
297.306	-6.31
297.52	-53.42
297.735	-47.27
297.949	14.17
298.164	85.84
298.378	69.46
298.593	51.03
298.807	20.31
299.022	16.21
299.236	-2.22
299.451	89.94
299.665	32.6
299.88	85.84
300.094	48.98
300.309	61.27
300.523	-41.13
300.737	69.46
300.952	-6.31
301.166	22.36
301.381	34.64
301.595	57.17
301.809	-12.46
302.024	24.4
302.238	-2.22
302.452	20.31
302.667	30.55
302.881	-30.89
303.095	-16.55
303.309	104.28
303.524	24.4
303.738	5.97
303.952	3.93
304.166	3.93
304.381	3.93
304.595	34.64
304.809	57.17
305.023	28.5
305.237	30.55
305.452	38.74
305.666	32.6
305.88	65.36
306.094	24.4
306.308	-59.56
306.522	-12.46
306.736	81.75
306.95	75.6
307.164	48.98
307.379	3.93
307.593	65.36
307.807	42.84
308.021	28.5
308.235	36.69
308.449	-10.41
308.663	28.5
308.877	46.93
309.091	12.12
309.305	24.4
309.519	-4.27
309.733	22.36
309.947	3.93
310.161	53.08
310.374	24.4
310.588	40.79
310.802	-34.99
311.016	53.08
311.23	63.32
311.444	65.36
311.658	32.6
311.872	36.69
312.085	81.75
312.299	61.27
312.513	100.18
312.727	-28.84
312.941	30.55
313.154	59.22
313.368	55.12
313.582	20.31
313.796	-12.46
314.009	-2.22
314.223	79.7
314.437	-28.84
314.651	12.12
314.864	36.69
315.078	61.27
315.292	22.36
315.505	-2.22
315.719	12.12
315.933	94.04
316.146	48.98
316.36	-14.51
316.573	79.7
316.787	32.6
317.001	-4.27
317.214	48.98
317.428	69.46
317.641	12.12
317.855	48.98
318.068	61.27
318.282	-2.22
318.495	24.4
318.709	44.88
318.922	77.65
319.136	12.12
319.349	46.93
319.563	-4.27
319.776	85.84
319.99	30.55
320.203	30.55
320.417	57.17
320.63	48.98
320.843	85.84
321.057	28.5
321.27	20.31
321.483	87.89
321.697	77.65
321.91	5.97
322.124	-28.84
322.337	26.45
322.55	46.93
322.763	59.22
322.977	40.79
323.19	36.69
323.403	85.84
323.617	102.23
323.83	55.12
324.043	55.12
324.256	32.6
324.469	40.79
324.683	69.46
324.896	28.5
325.109	53.08
325.322	-57.51
325.535	65.36
325.748	87.89
325.962	55.12
326.175	44.88
326.388	38.74
326.601	61.27
326.814	32.6
327.027	120.66
327.24	69.46
327.453	30.55
327.666	38.74
327.879	106.32
328.092	12.12
328.305	91.99
328.518	-2.22
328.731	30.55
328.944	-10.41
329.157	51.03
329.37	77.65
329.583	63.32
329.796	145.24
330.009	-53.42
330.222	126.8
330.435	69.46
330.648	48.98
330.861	63.32
331.073	12.12
331.286	89.94
331.499	16.21
331.712	28.5
331.925	10.07
332.138	67.41
332.35	65.36
332.563	-12.46
332.776	32.6
332.989	-53.42
333.202	110.42
333.414	8.02
333.627	20.31
333.84	-73.9
334.053	32.6
334.265	-2.22
334.478	79.7
334.691	12.12
334.903	114.52
335.116	85.84
335.329	71.51
335.541	55.12
335.754	46.93
335.966	44.88
336.179	48.98
336.392	77.65
336.604	-20.65
336.817	28.5
337.029	94.04
337.242	-4.27
337.454	38.74
337.667	5.97
337.88	61.27
338.092	28.5
338.305	18.26
338.517	44.88
338.729	-0.17
338.942	55.12
339.154	36.69
339.367	3.93
339.579	-12.46
339.792	24.4
340.004	46.93
340.217	69.46
340.429	46.93
340.641	-18.6
340.854	5.97
341.066	126.8
341.278	20.31
341.491	102.23
341.703	112.47
341.915	-24.75
342.128	57.17
342.34	5.97
342.552	-37.03
342.764	32.6
342.977	-22.7
343.189	63.32
343.401	20.31
343.613	26.45
343.826	55.12
344.038	40.79
344.25	81.75
344.462	3.93
344.674	20.31
344.886	34.64
345.099	135
345.311	53.08
345.523	34.64
345.735	-18.6
345.947	96.08
346.159	12.12
346.371	38.74
346.583	85.84
346.795	108.37
347.007	32.6
347.219	55.12
347.431	71.51
347.643	85.84
347.855	16.21
348.067	85.84
348.279	63.32
348.491	-12.46
348.703	-12.46
348.915	1.88
349.127	36.69
349.339	30.55
349.551	28.5
349.763	73.56
349.975	51.03
350.187	87.89
350.399	122.71
350.61	61.27
350.822	12.12
351.034	38.74
351.246	28.5
351.458	-16.55
351.669	89.94
351.881	77.65
352.093	102.23
352.305	159.57
352.517	102.23
352.728	135
352.94	38.74
353.152	5.97
353.363	3.93
353.575	69.46
353.787	81.75
353.999	85.84
354.21	163.67
354.422	40.79
354.633	-4.27
354.845	89.94
355.057	57.17
355.268	77.65
355.48	53.08
355.692	73.56
355.903	28.5
356.115	-0.17
356.326	12.12
356.538	87.89
356.749	-20.65
356.961	63.32
357.172	65.36
357.384	73.56
357.595	38.74
357.807	-59.56
358.018	61.27
358.23	51.03
358.441	53.08
358.653	63.32
358.864	34.64
359.075	77.65
359.287	65.36
359.498	67.41
359.709	55.12
359.921	61.27
360.132	63.32
360.344	89.94
360.555	20.31
360.766	83.8
360.977	18.26
361.189	-2.22
361.4	-45.23
361.611	53.08
361.823	28.5
362.034	10.07
362.245	-69.8
362.456	63.32
362.667	26.45
362.879	22.36
363.09	-0.17
363.301	55.12
363.512	51.03
363.723	55.12
363.935	-2.22
364.146	14.17
364.357	61.27
364.568	63.32
364.779	-16.55
364.99	53.08
365.201	-12.46
365.412	36.69
365.623	8.02
365.834	94.04
366.045	77.65
366.256	53.08
366.467	-18.6
366.678	28.5
366.889	85.84
367.1	28.5
367.311	61.27
367.522	-28.84
367.733	81.75
367.944	75.6
368.155	75.6
368.366	104.28
368.577	94.04
368.788	59.22
368.999	63.32
369.209	12.12
369.42	1.88
369.631	77.65
369.842	77.65
370.053	48.98
370.264	20.31
370.474	-51.37
370.685	55.12
370.896	22.36
371.107	118.61
371.317	98.13
371.528	20.31
371.739	40.79
371.95	51.03
372.16	96.08
372.371	44.88
372.582	-26.79
372.792	71.51
373.003	65.36
373.214	-8.36
373.424	-37.03
373.635	18.26
373.846	36.69
374.056	-20.65
374.267	122.71
374.477	67.41
374.688	36.69
374.898	28.5
375.109	114.52
375.319	108.37
375.53	128.85
375.74	73.56
375.951	16.21
376.161	63.32
376.372	59.22
376.582	18.26
376.793	30.55
377.003	36.69
377.214	18.26
377.424	44.88
377.635	-26.79
377.845	22.36
378.055	77.65
378.266	-6.31
378.476	85.84
378.686	36.69
378.897	48.98
379.107	44.88
379.317	85.84
379.528	65.36
379.738	38.74
379.948	53.08
380.158	73.56
380.369	42.84
380.579	55.12
380.789	44.88
380.999	16.21
381.21	26.45
381.42	16.21
381.63	-16.55
381.84	75.6
382.05	61.27
382.261	16.21
382.471	65.36
382.681	79.7
382.891	98.13
383.101	48.98
383.311	-55.47
383.521	12.12
383.731	67.41
383.941	3.93
384.151	98.13
384.361	57.17
384.571	46.93
384.781	85.84
384.991	69.46
385.201	24.4
385.411	91.99
385.621	77.65
385.831	44.88
386.041	-4.27
386.251	44.88
386.461	114.52
386.671	55.12
386.881	30.55
387.091	89.94
387.301	3.93
387.511	-32.94
387.72	122.71
387.93	130.9
388.14	3.93
388.35	1.88
388.56	61.27
388.769	57.17
388.979	94.04
389.189	81.75
389.399	40.79
389.609	-30.89
389.818	132.95
390.028	112.47
390.238	65.36
390.447	75.6
390.657	30.55
390.867	40.79
391.076	69.46
391.286	40.79
391.496	147.28
391.705	51.03
391.915	79.7
392.125	118.61
392.334	3.93
392.544	10.07
392.753	22.36
392.963	73.56
393.172	63.32
393.382	20.31
393.591	94.04
393.801	32.6
394.01	96.08
394.22	24.4
394.429	22.36
394.639	59.22
394.848	120.66
395.058	3.93
395.267	104.28
395.477	110.42
395.686	-28.84
395.895	130.9
396.105	85.84
396.314	110.42
396.524	83.8
396.733	112.47
396.942	77.65
397.152	46.93
397.361	135
397.57	110.42
397.78	36.69
397.989	75.6
398.198	169.81
398.407	32.6
398.617	36.69
398.826	126.8
399.035	77.65
399.244	151.38
399.453	28.5
399.663	53.08
399.872	87.89
400.081	38.74
400.29	130.9
400.499	89.94
400.708	175.95
400.917	98.13
401.127	77.65
401.336	75.6
401.545	122.71
401.754	106.32
401.963	71.51
402.172	55.12
402.381	110.42
402.59	114.52
402.799	110.42
403.008	157.52
403.217	135
403.426	104.28
403.635	40.79
403.844	163.67
404.053	122.71
404.262	48.98
404.471	184.15
404.68	153.43
404.888	161.62
405.097	135
405.306	100.18
405.515	53.08
405.724	139.09
405.933	102.23
406.142	159.57
406.35	190.29
406.559	143.19
406.768	104.28
406.977	208.72
407.185	171.86
407.394	255.83
407.603	155.47
407.812	137.04
408.02	114.52
408.229	212.82
408.438	192.34
408.646	173.91
408.855	192.34
409.064	190.29
409.272	171.86
409.481	241.49
409.69	198.48
409.898	210.77
410.107	225.11
410.315	290.64
410.524	227.15
410.733	290.64
410.941	266.07
411.15	216.91
411.358	309.07
411.567	388.94
411.775	292.69
411.984	358.22
412.192	345.94
412.401	323.41
412.609	421.71
412.818	374.61
413.026	388.94
413.234	417.61
413.443	376.66
413.651	382.8
413.86	386.9
414.068	511.82
414.276	495.44
414.485	446.29
414.693	481.1
414.901	548.68
415.11	548.68
415.318	536.4
415.526	540.49
415.734	569.16
415.943	626.51
416.151	679.75
416.359	634.7
416.567	642.89
416.776	687.95
416.984	716.62
417.192	823.11
417.4	730.95
417.608	776.01
417.817	712.52
418.025	880.46
418.233	929.61
418.441	909.13
418.649	917.32
418.857	913.22
419.065	1005.38
419.273	896.84
419.481	962.37
419.689	1044.29
419.897	1072.96
420.105	1122.12
420.313	1070.92
420.521	1161.03
420.729	1259.33
420.937	1369.92
421.145	1345.34
421.353	1410.88
421.561	1511.23
421.769	1437.5
421.977	1556.29
422.185	1427.26
422.393	1683.26
422.601	1771.32
422.809	1646.4
423.017	1701.69
423.224	1832.76
423.432	1769.27
423.64	1863.48
423.848	2115.38
424.056	1896.25
424.263	1992.5
424.471	2185.01
424.679	2291.51
424.887	2248.5
425.094	2385.71
425.302	2426.67
425.51	2477.87
425.718	2463.54
425.925	2559.79
426.133	2508.59
426.341	2731.82
426.548	2907.94
426.756	2856.75
426.964	2922.28
427.171	3077.93
427.379	3125.03
427.586	3284.77
427.794	3278.63
428.001	3477.28
428.209	3616.54
428.417	3485.47
428.624	3897.11
428.832	3911.45
429.039	3723.04
429.247	3800.86
429.454	4259.6
429.662	4464.4
429.869	4161.3
430.076	4529.94
430.284	4300.56
430.491	4462.35
430.699	4738.83
430.906	4857.61
431.114	4849.42
431.321	5025.54
431.528	5023.5
431.736	5517.06
431.943	5773.05
432.15	5435.14
432.358	5512.96
432.565	5877.5
432.772	5848.83
432.979	6129.4
433.187	6123.26
433.394	6577.9
433.601	6629.1
433.808	6817.52
434.016	6827.76
434.223	7071.47
434.43	7368.42
434.637	7227.11
434.844	7595.75
435.052	7972.57
435.259	7755.49
435.466	7692
435.673	7675.62
435.88	8113.88
436.087	8728.27
436.294	8797.9
436.501	8459.99
436.708	8656.59
436.915	9023.18
437.122	9463.49
437.329	9402.05
437.537	9684.67
437.743	9762.5
437.95	9713.35
438.157	10211
438.364	10450.61
438.571	10532.53
438.778	10579.64
438.985	11654.82
439.192	10983.09
439.399	11267.75
439.606	11173.55
439.813	11939.49
440.02	12453.53
440.227	12394.14
440.433	12056.22
440.64	12471.96
440.847	12504.73
441.054	12750.48
441.261	13694.6
441.467	13514.38
441.674	13903.49
441.881	14470.78
442.088	14143.1
442.294	14096
442.501	14696.05
442.708	14659.19
442.914	15232.62
443.121	16021.09
443.328	15511.14
443.534	16512.6
443.741	16109.15
443.948	15812.2
444.154	16744.02
444.361	17045.07
444.568	17045.07
444.774	17163.86
444.981	17073.74
445.187	18040.39
445.394	18744.89
445.6	18167.36
445.807	20237.86
446.013	18923.06
446.22	19555.88
446.426	20442.65
446.633	20395.55
446.839	21098
447.046	20205.09
447.252	21394.96
447.459	21276.18
447.665	21425.68
447.871	22148.61
448.078	23215.6
448.284	21939.72
448.491	22242.82
448.697	23629.29
448.903	24042.98
449.11	24311.27
449.316	23383.54
449.522	24268.26
449.728	24856.03
449.935	25097.69
450.141	24978.9
450.347	25576.91
450.553	24712.67
450.76	25179.61
450.966	25943.5
451.172	25380.31
451.378	26072.52
451.584	25886.15
451.791	26119.62
451.997	26531.26
452.203	26707.39
452.409	26893.75
452.615	26680.77
452.821	25662.93
453.027	25466.32
453.233	26604.99
453.44	25765.32
453.646	26183.11
453.852	26305.99
454.058	26535.36
454.264	25822.67
454.47	26445.25
454.676	25882.06
454.882	26764.73
455.088	24249.83
455.294	24823.26
455.5	25277.91
455.705	25826.76
455.911	24460.77
456.117	24112.61
456.323	23737.84
456.529	22504.96
456.735	23201.27
456.941	22785.53
457.147	22558.21
457.352	21677.58
457.558	21601.8
457.764	21485.07
457.97	21495.31
458.176	20551.2
458.381	20950.55
458.587	19983.91
458.793	20059.68
458.999	18720.31
459.204	20260.38
459.41	19557.93
459.616	18140.74
459.821	18284.09
460.027	18495.04
460.233	17747.53
460.438	16709.21
460.644	17215.05
460.85	16383.58
461.055	16062.05
461.261	16166.49
461.466	14814.84
461.672	14536.31
461.878	15494.76
462.083	14632.57
462.289	14136.96
462.494	14233.21
462.7	13573.77
462.905	13190.8
463.111	13592.2
463.316	13772.42
463.522	13416.07
463.727	13377.16
463.932	13053.58
464.138	13188.75
464.343	13026.96
464.549	12629.65
464.754	13022.86
464.959	12990.1
465.165	12930.7
465.37	12359.32
465.575	12134.04
465.781	12478.1
465.986	12848.79
466.191	12175
466.397	11916.96
466.602	11345.58
466.807	11921.06
467.012	11746.98
467.218	11673.25
467.423	11814.56
467.628	11783.84
467.833	11959.97
468.038	11570.85
468.244	11380.39
