Data from USB4F104151__43__14-16-45-687.txt Node

Date: Thu Mar 13 14:16:45 EDT 2025
User: louis
Spectrometer: USB4F10415
Trigger mode: 4
Integration Time (sec): 2.000000E-2
Scans to average: 1
Electric dark correction enabled: true
Nonlinearity correction enabled: false
Boxcar width: 0
XAxis mode: Wavelengths
Number of Pixels in Spectrum: 3648
>>>>>Begin Spectral Data<<<<<
178.204	-156.84
178.424	-156.84
178.644	-156.84
178.864	-52.39
179.084	-169.13
179.304	-40.11
179.524	-29.87
179.744	-56.49
179.964	41.81
180.184	-21.67
180.404	11.09
180.624	33.62
180.844	27.48
181.064	-17.58
181.283	33.62
181.503	0.85
181.723	17.24
181.943	-5.29
182.163	74.58
182.383	-1.19
182.602	62.29
182.822	90.96
183.042	56.15
183.262	-5.29
183.482	-23.72
183.701	-7.34
183.921	19.29
184.141	-56.49
184.361	29.52
184.58	-1.19
184.8	17.24
185.02	90.96
185.239	47.96
185.459	52.05
185.679	54.1
185.898	7
186.118	-7.34
186.338	-7.34
186.557	-5.29
186.777	-29.87
186.997	56.15
187.216	37.72
187.436	99.16
187.655	31.57
187.875	37.72
188.095	31.57
188.314	29.52
188.534	70.48
188.753	25.43
188.973	58.2
189.192	58.2
189.412	11.09
189.631	-40.11
189.851	93.01
190.07	17.24
190.29	-19.63
190.509	19.29
190.729	-23.72
190.948	41.81
191.168	144.21
191.387	9.05
191.607	47.96
191.826	0.85
192.045	29.52
192.265	50
192.484	35.67
192.704	17.24
192.923	-60.59
193.142	99.16
193.362	90.96
193.581	25.43
193.8	-31.91
194.02	58.2
194.239	7
194.458	0.85
194.678	-19.63
194.897	17.24
195.116	13.14
195.335	47.96
195.555	43.86
195.774	41.81
195.993	76.63
196.212	27.48
196.432	-40.11
196.651	-27.82
196.87	-11.43
197.089	29.52
197.308	41.81
197.528	35.67
197.747	19.29
197.966	21.33
198.185	82.77
198.404	4.95
198.623	41.81
198.842	19.29
199.062	78.68
199.281	58.2
199.5	-11.43
199.719	37.72
199.938	29.52
200.157	82.77
200.376	23.38
200.595	0.85
200.814	90.96
201.033	17.24
201.252	90.96
201.471	25.43
201.69	21.33
201.909	66.39
202.128	17.24
202.347	-19.63
202.566	29.52
202.785	41.81
203.004	41.81
203.223	136.02
203.442	-11.43
203.661	-13.48
203.879	60.24
204.098	181.07
204.317	-54.44
204.536	74.58
204.755	-15.53
204.974	37.72
205.193	-13.48
205.411	17.24
205.63	37.72
205.849	25.43
206.068	-62.63
206.287	84.82
206.505	17.24
206.724	13.14
206.943	52.05
207.162	-56.49
207.381	62.29
207.599	-40.11
207.818	54.1
208.037	-13.48
208.255	86.87
208.474	-40.11
208.693	33.62
208.911	58.2
209.13	2.9
209.349	82.77
209.567	119.64
209.786	93.01
210.005	50
210.223	23.38
210.442	-68.78
210.661	25.43
210.879	-46.25
211.098	25.43
211.316	2.9
211.535	66.39
211.753	43.86
211.972	2.9
212.191	-15.53
212.409	54.1
212.628	76.63
212.846	19.29
213.065	13.14
213.283	68.44
213.502	43.86
213.72	19.29
213.938	62.29
214.157	7
214.375	52.05
214.594	-36.01
214.812	37.72
215.031	111.44
215.249	25.43
215.467	27.48
215.686	-23.72
215.904	66.39
216.122	-15.53
216.341	105.3
216.559	-23.72
216.778	25.43
216.996	50
217.214	60.24
217.432	37.72
217.651	35.67
217.869	60.24
218.087	60.24
218.306	29.52
218.524	25.43
218.742	-7.34
218.96	58.2
219.179	-48.3
219.397	-5.29
219.615	33.62
219.833	27.48
220.051	-9.39
220.27	-1.19
220.488	-5.29
220.706	17.24
220.924	64.34
221.142	0.85
221.36	0.85
221.578	70.48
221.796	52.05
222.015	-29.87
222.233	66.39
222.451	31.57
222.669	66.39
222.887	41.81
223.105	4.95
223.323	31.57
223.541	13.14
223.759	-5.29
223.977	19.29
224.195	76.63
224.413	72.53
224.631	-15.53
224.849	-11.43
225.067	35.67
225.285	0.85
225.503	56.15
225.721	-33.96
225.939	58.2
226.157	11.09
226.375	99.16
226.592	66.39
226.81	7
227.028	-15.53
227.246	68.44
227.464	41.81
227.682	45.91
227.9	62.29
228.117	31.57
228.335	-3.24
228.553	7
228.771	95.06
228.989	97.11
229.206	29.52
229.424	-3.24
229.642	15.19
229.86	54.1
230.077	47.96
230.295	50
230.513	43.86
230.731	103.25
230.948	68.44
231.166	-11.43
231.384	0.85
231.601	-5.29
231.819	78.68
232.037	-15.53
232.254	21.33
232.472	41.81
232.689	9.05
232.907	58.2
233.125	50
233.342	11.09
233.56	-13.48
233.777	25.43
233.995	-9.39
234.213	29.52
234.43	-17.58
234.648	50
234.865	47.96
235.083	4.95
235.3	105.3
235.518	41.81
235.735	72.53
235.953	60.24
236.17	41.81
236.388	-7.34
236.605	-13.48
236.822	25.43
237.04	78.68
237.257	125.78
237.475	9.05
237.692	25.43
237.909	82.77
238.127	17.24
238.344	13.14
238.562	17.24
238.779	25.43
238.996	-29.87
239.214	50
239.431	99.16
239.648	17.24
239.865	117.59
240.083	29.52
240.3	2.9
240.517	50
240.735	52.05
240.952	17.24
241.169	68.44
241.386	103.25
241.603	25.43
241.821	37.72
242.038	41.81
242.255	64.34
242.472	7
242.689	25.43
242.907	25.43
243.124	58.2
243.341	-54.44
243.558	41.81
243.775	-1.19
243.992	-23.72
244.209	93.01
244.426	50
244.643	35.67
244.86	23.38
245.078	50
245.295	27.48
245.512	78.68
245.729	19.29
245.946	27.48
246.163	72.53
246.38	41.81
246.597	0.85
246.814	0.85
247.031	54.1
247.248	27.48
247.464	111.44
247.681	13.14
247.898	88.92
248.115	23.38
248.332	-23.72
248.549	68.44
248.766	107.35
248.983	17.24
249.2	99.16
249.417	68.44
249.633	37.72
249.85	58.2
250.067	37.72
250.284	-13.48
250.501	62.29
250.717	2.9
250.934	-29.87
251.151	95.06
251.368	-7.34
251.585	82.77
251.801	-40.11
252.018	29.52
252.235	27.48
252.451	-13.48
252.668	-17.58
252.885	2.9
253.102	66.39
253.318	-3.24
253.535	41.81
253.752	23.38
253.968	66.39
254.185	37.72
254.401	41.81
254.618	15.19
254.835	-38.06
255.051	107.35
255.268	17.24
255.484	52.05
255.701	88.92
255.917	52.05
256.134	62.29
256.351	90.96
256.567	-25.77
256.784	37.72
257	66.39
257.217	62.29
257.433	66.39
257.65	78.68
257.866	103.25
258.082	11.09
258.299	19.29
258.515	4.95
258.732	-29.87
258.948	0.85
259.165	29.52
259.381	15.19
259.597	68.44
259.814	39.76
260.03	54.1
260.246	23.38
260.463	29.52
260.679	17.24
260.895	74.58
261.112	17.24
261.328	31.57
261.544	45.91
261.761	39.76
261.977	7
262.193	29.52
262.409	84.82
262.626	93.01
262.842	68.44
263.058	35.67
263.274	93.01
263.49	41.81
263.707	45.91
263.923	86.87
264.139	9.05
264.355	-5.29
264.571	50
264.787	13.14
265.004	9.05
265.22	-1.19
265.436	19.29
265.652	21.33
265.868	27.48
266.084	7
266.3	39.76
266.516	-21.67
266.732	23.38
266.948	50
267.164	21.33
267.38	25.43
267.596	9.05
267.812	41.81
268.028	4.95
268.244	-38.06
268.46	-11.43
268.676	-7.34
268.892	74.58
269.108	-5.29
269.324	-31.91
269.54	-31.91
269.756	70.48
269.972	-76.97
270.188	101.2
270.403	35.67
270.619	15.19
270.835	39.76
271.051	64.34
271.267	9.05
271.483	23.38
271.698	41.81
271.914	37.72
272.13	58.2
272.346	-23.72
272.562	13.14
272.777	39.76
272.993	-9.39
273.209	9.05
273.425	37.72
273.64	-7.34
273.856	117.59
274.072	52.05
274.287	-21.67
274.503	62.29
274.719	9.05
274.934	23.38
275.15	27.48
275.366	2.9
275.581	2.9
275.797	68.44
276.012	21.33
276.228	-31.91
276.444	95.06
276.659	58.2
276.875	35.67
277.09	2.9
277.306	50
277.521	0.85
277.737	35.67
277.952	43.86
278.168	0.85
278.383	13.14
278.599	-11.43
278.814	66.39
279.03	7
279.245	17.24
279.461	99.16
279.676	47.96
279.892	90.96
280.107	45.91
280.322	-33.96
280.538	-74.92
280.753	-19.63
280.969	35.67
281.184	70.48
281.399	99.16
281.615	-44.2
281.83	-19.63
282.045	50
282.26	11.09
282.476	7
282.691	19.29
282.906	9.05
283.122	13.14
283.337	9.05
283.552	13.14
283.767	2.9
283.983	17.24
284.198	58.2
284.413	50
284.628	0.85
284.843	-3.24
285.058	70.48
285.274	35.67
285.489	-21.67
285.704	78.68
285.919	-38.06
286.134	50
286.349	31.57
286.564	-11.43
286.779	93.01
286.995	45.91
287.21	-54.44
287.425	-11.43
287.64	-5.29
287.855	56.15
288.07	37.72
288.285	107.35
288.5	123.73
288.715	93.01
288.93	33.62
289.145	72.53
289.36	68.44
289.575	33.62
289.79	50
290.004	62.29
290.219	43.86
290.434	29.52
290.649	47.96
290.864	19.29
291.079	25.43
291.294	62.29
291.509	27.48
291.724	-11.43
291.938	60.24
292.153	-29.87
292.368	60.24
292.583	43.86
292.798	27.48
293.012	33.62
293.227	97.11
293.442	-33.96
293.657	50
293.871	90.96
294.086	45.91
294.301	33.62
294.516	64.34
294.73	74.58
294.945	-40.11
295.16	54.1
295.374	133.97
295.589	50
295.804	68.44
296.018	25.43
296.233	21.33
296.447	70.48
296.662	19.29
296.877	25.43
297.091	37.72
297.306	9.05
297.52	-42.15
297.735	-13.48
297.949	52.05
298.164	33.62
298.378	4.95
298.593	37.72
298.807	-50.35
299.022	15.19
299.236	-5.29
299.451	37.72
299.665	0.85
299.88	21.33
300.094	50
300.309	-31.91
300.523	66.39
300.737	105.3
300.952	54.1
301.166	54.1
301.381	62.29
301.595	-33.96
301.809	-3.24
302.024	60.24
302.238	54.1
302.452	152.4
302.667	17.24
302.881	35.67
303.095	47.96
303.309	23.38
303.524	-5.29
303.738	31.57
303.952	-44.2
304.166	101.2
304.381	25.43
304.595	131.92
304.809	31.57
305.023	29.52
305.237	82.77
305.452	21.33
305.666	17.24
305.88	33.62
306.094	17.24
306.308	52.05
306.522	29.52
306.736	64.34
306.95	25.43
307.164	76.63
307.379	2.9
307.593	-5.29
307.807	68.44
308.021	-46.25
308.235	50
308.449	-15.53
308.663	39.76
308.877	33.62
309.091	78.68
309.305	66.39
309.519	-31.91
309.733	25.43
309.947	-7.34
310.161	72.53
310.374	90.96
310.588	-23.72
310.802	82.77
311.016	17.24
311.23	72.53
311.444	19.29
311.658	64.34
311.872	82.77
312.085	90.96
312.299	13.14
312.513	33.62
312.727	45.91
312.941	33.62
313.154	62.29
313.368	-44.2
313.582	60.24
313.796	-15.53
314.009	62.29
314.223	56.15
314.437	90.96
314.651	76.63
314.864	50
315.078	82.77
315.292	-29.87
315.505	-44.2
315.719	82.77
315.933	95.06
316.146	13.14
316.36	25.43
316.573	27.48
316.787	50
317.001	-50.35
317.214	-19.63
317.428	43.86
317.641	45.91
317.855	39.76
318.068	11.09
318.282	31.57
318.495	68.44
318.709	54.1
318.922	-13.48
319.136	95.06
319.349	13.14
319.563	-7.34
319.776	25.43
319.99	25.43
320.203	19.29
320.417	41.81
320.63	52.05
320.843	103.25
321.057	90.96
321.27	78.68
321.483	-3.24
321.697	35.67
321.91	27.48
322.124	41.81
322.337	2.9
322.55	50
322.763	13.14
322.977	95.06
323.19	-15.53
323.403	45.91
323.617	-15.53
323.83	60.24
324.043	25.43
324.256	133.97
324.469	31.57
324.683	45.91
324.896	13.14
325.109	56.15
325.322	29.52
325.535	64.34
325.748	84.82
325.962	74.58
326.175	95.06
326.388	64.34
326.601	27.48
326.814	68.44
327.027	58.2
327.24	17.24
327.453	9.05
327.666	68.44
327.879	146.26
328.092	60.24
328.305	19.29
328.518	107.35
328.731	52.05
328.944	41.81
329.157	39.76
329.37	15.19
329.583	138.07
329.796	66.39
330.009	84.82
330.222	15.19
330.435	35.67
330.648	82.77
330.861	15.19
331.073	72.53
331.286	31.57
331.499	84.82
331.712	33.62
331.925	0.85
332.138	35.67
332.35	103.25
332.563	15.19
332.776	84.82
332.989	19.29
333.202	7
333.414	33.62
333.627	70.48
333.84	66.39
334.053	107.35
334.265	52.05
334.478	25.43
334.691	45.91
334.903	33.62
335.116	52.05
335.329	86.87
335.541	109.4
335.754	142.16
335.966	33.62
336.179	-5.29
336.392	2.9
336.604	90.96
336.817	31.57
337.029	68.44
337.242	15.19
337.454	56.15
337.667	66.39
337.88	41.81
338.092	35.67
338.305	72.53
338.517	33.62
338.729	27.48
338.942	33.62
339.154	-15.53
339.367	9.05
339.579	101.2
339.792	25.43
340.004	72.53
340.217	70.48
340.429	90.96
340.641	37.72
340.854	107.35
341.066	-3.24
341.278	35.67
341.491	90.96
341.703	4.95
341.915	39.76
342.128	99.16
342.34	58.2
342.552	50
342.764	9.05
342.977	-7.34
343.189	23.38
343.401	66.39
343.613	21.33
343.826	31.57
344.038	-3.24
344.25	45.91
344.462	17.24
344.674	45.91
344.886	-23.72
345.099	82.77
345.311	19.29
345.523	70.48
345.735	-15.53
345.947	74.58
346.159	58.2
346.371	9.05
346.583	78.68
346.795	127.83
347.007	21.33
347.219	41.81
347.431	-15.53
347.643	47.96
347.855	17.24
348.067	33.62
348.279	-7.34
348.491	41.81
348.703	58.2
348.915	0.85
349.127	17.24
349.339	99.16
349.551	-23.72
349.763	95.06
349.975	25.43
350.187	35.67
350.399	9.05
350.61	41.81
350.822	58.2
351.034	41.81
351.246	50
351.458	82.77
351.669	21.33
351.881	88.92
352.093	119.64
352.305	41.81
352.517	50
352.728	78.68
352.94	41.81
353.152	54.1
353.363	35.67
353.575	82.77
353.787	66.39
353.999	68.44
354.21	50
354.422	17.24
354.633	121.68
354.845	35.67
355.057	-3.24
355.268	58.2
355.48	74.58
355.692	27.48
355.903	41.81
356.115	29.52
356.326	78.68
356.538	52.05
356.749	58.2
356.961	123.73
357.172	52.05
357.384	-42.15
357.595	107.35
357.807	13.14
358.018	-44.2
358.23	9.05
358.441	109.4
358.653	82.77
358.864	33.62
359.075	103.25
359.287	70.48
359.498	144.21
359.709	-42.15
359.921	101.2
360.132	27.48
360.344	37.72
360.555	52.05
360.766	64.34
360.977	-64.68
361.189	62.29
361.4	9.05
361.611	101.2
361.823	99.16
362.034	54.1
362.245	39.76
362.456	84.82
362.667	78.68
362.879	68.44
363.09	45.91
363.301	23.38
363.512	109.4
363.723	43.86
363.935	62.29
364.146	50
364.357	17.24
364.568	72.53
364.779	29.52
364.99	68.44
365.201	21.33
365.412	45.91
365.623	11.09
365.834	60.24
366.045	136.02
366.256	39.76
366.467	9.05
366.678	-40.11
366.889	19.29
367.1	107.35
367.311	119.64
367.522	-21.67
367.733	95.06
367.944	166.74
368.155	82.77
368.366	54.1
368.577	29.52
368.788	133.97
368.999	72.53
369.209	43.86
369.42	99.16
369.631	123.73
369.842	58.2
370.053	50
370.264	31.57
370.474	43.86
370.685	58.2
370.896	4.95
371.107	35.67
371.317	95.06
371.528	27.48
371.739	129.88
371.95	70.48
372.16	64.34
372.371	25.43
372.582	76.63
372.792	60.24
373.003	95.06
373.214	74.58
373.424	68.44
373.635	84.82
373.846	72.53
374.056	0.85
374.267	29.52
374.477	66.39
374.688	45.91
374.898	82.77
375.109	33.62
375.319	58.2
375.53	90.96
375.74	58.2
375.951	62.29
376.161	82.77
376.372	95.06
376.582	13.14
376.793	23.38
377.003	80.72
377.214	25.43
377.424	131.92
377.635	70.48
377.845	15.19
378.055	72.53
378.266	43.86
378.476	25.43
378.686	111.44
378.897	60.24
379.107	52.05
379.317	50
379.528	29.52
379.738	86.87
379.948	66.39
380.158	43.86
380.369	17.24
380.579	115.54
380.789	52.05
380.999	68.44
381.21	101.2
381.42	66.39
381.63	121.68
381.84	84.82
382.05	35.67
382.261	109.4
382.471	54.1
382.681	101.2
382.891	101.2
383.101	33.62
383.311	4.95
383.521	25.43
383.731	109.4
383.941	68.44
384.151	115.54
384.361	62.29
384.571	90.96
384.781	78.68
384.991	131.92
385.201	111.44
385.411	50
385.621	119.64
385.831	-15.53
386.041	-13.48
386.251	-15.53
386.461	66.39
386.671	9.05
386.881	-13.48
387.091	17.24
387.301	45.91
387.511	13.14
387.72	123.73
387.93	66.39
388.14	54.1
388.35	-40.11
388.56	84.82
388.769	103.25
388.979	17.24
389.189	23.38
389.399	62.29
389.609	9.05
389.818	93.01
390.028	78.68
390.238	52.05
390.447	37.72
390.657	80.72
390.867	78.68
391.076	41.81
391.286	27.48
391.496	68.44
391.705	127.83
391.915	119.64
392.125	133.97
392.334	95.06
392.544	99.16
392.753	43.86
392.963	66.39
393.172	66.39
393.382	90.96
393.591	80.72
393.801	-1.19
394.01	74.58
394.22	107.35
394.429	76.63
394.639	52.05
394.848	140.12
395.058	82.77
395.267	99.16
395.477	33.62
395.686	168.79
395.895	88.92
396.105	93.01
396.314	21.33
396.524	21.33
396.733	86.87
396.942	107.35
397.152	119.64
397.361	179.03
397.57	111.44
397.78	109.4
397.989	123.73
398.198	131.92
398.407	107.35
398.617	70.48
398.826	148.31
399.035	111.44
399.244	166.74
399.453	181.07
399.663	90.96
399.872	197.46
400.081	148.31
400.29	183.12
400.499	64.34
400.708	103.25
400.917	70.48
401.127	109.4
401.336	148.31
401.545	166.74
401.754	164.69
401.963	156.5
402.172	68.44
402.381	136.02
402.59	144.21
402.799	158.55
403.008	213.84
403.217	172.88
403.426	201.55
403.635	95.06
403.844	90.96
404.053	246.61
404.262	205.65
404.471	160.59
404.68	262.99
404.888	209.75
405.097	238.42
405.306	125.78
405.515	197.46
405.724	148.31
405.933	238.42
406.142	181.07
406.35	256.85
406.559	203.6
406.768	234.32
406.977	293.71
407.185	293.71
407.394	291.66
407.603	185.17
407.812	306
408.02	271.19
408.229	205.65
408.438	238.42
408.646	246.61
408.855	246.61
409.064	324.43
409.272	303.95
409.481	336.72
409.69	318.29
409.898	379.73
410.107	336.72
410.315	447.31
410.524	389.97
410.733	475.98
410.941	426.83
411.15	422.73
411.358	435.02
411.567	459.6
411.775	480.08
411.984	605
412.192	631.63
412.401	412.5
412.609	570.19
412.818	602.96
413.026	551.76
413.234	615.24
413.443	691.02
413.651	611.15
413.86	691.02
414.068	729.93
414.276	744.27
414.485	678.73
414.693	736.07
414.901	801.61
415.11	830.28
415.318	985.93
415.526	942.92
415.734	977.73
415.943	959.3
416.151	1035.08
416.359	983.88
416.567	1016.65
416.776	1045.32
416.984	1102.66
417.192	1176.39
417.4	1174.34
417.608	1215.3
417.817	1155.91
418.025	1319.75
418.233	1450.82
418.441	1434.43
418.649	1385.28
418.857	1432.38
419.065	1557.31
419.273	1534.78
419.481	1575.74
419.689	1712.96
419.897	1815.35
420.105	1819.45
420.313	1708.86
420.521	1844.03
420.729	2059.06
420.937	1927.99
421.145	2126.64
421.353	2128.69
421.561	2138.93
421.769	2380.59
421.977	2487.09
422.185	2349.87
422.393	2540.33
422.601	2675.5
422.809	2593.58
423.017	2769.71
423.224	2870.06
423.432	2937.64
423.64	2917.16
423.848	3136.29
424.056	3167.01
424.263	3539.74
424.471	3367.71
424.679	3367.71
424.887	3601.18
425.094	3728.16
425.302	3801.88
425.51	3818.27
425.718	3908.38
425.925	4113.17
426.133	4299.54
426.341	4375.31
426.548	4571.92
426.756	4637.45
426.964	4561.68
427.171	4887.31
427.379	5030.66
427.586	5190.41
427.794	5212.93
428.001	5501.7
428.209	5737.21
428.417	5610.24
428.624	5884.67
428.832	6089.46
429.039	6017.79
429.247	6075.13
429.454	6572.79
429.662	6980.33
429.869	6685.42
430.076	7058.15
430.284	6834.93
430.491	7224.04
430.699	7359.21
430.906	7520.99
431.114	7676.64
431.321	7926.49
431.528	8131.29
431.736	8549.07
431.943	8876.75
432.15	8831.69
432.358	8768.21
432.565	9274.06
432.772	9351.88
432.979	9775.81
433.187	9841.34
433.394	9996.99
433.601	10621.62
433.808	10855.09
434.016	10654.39
434.223	11059.88
434.43	11588.26
434.637	11377.32
434.844	12067.49
435.052	12348.06
435.259	12264.09
435.466	12419.74
435.673	12370.58
435.88	13132.43
436.087	13767.3
436.294	13804.16
436.501	13623.94
436.708	13730.44
436.915	14273.15
437.122	14860.91
437.329	14713.46
437.537	15401.58
437.743	15454.83
437.95	15338.09
438.157	16376.41
438.364	16980.56
438.571	16650.84
438.778	16892.5
438.985	18358.85
439.192	17941.06
439.399	18340.41
439.606	17957.44
439.813	18860.6
440.02	19767.85
440.227	19468.84
440.433	19692.07
440.64	19915.3
440.847	19814.95
441.054	20095.52
441.261	21742.09
441.467	21338.64
441.674	22028.81
441.881	22514.17
442.088	22643.2
442.294	22413.82
442.501	23065.08
442.708	23738.86
442.914	24302.05
443.121	25338.32
443.328	24451.55
443.534	26520
443.741	25635.28
443.948	25342.42
444.154	27226.55
444.361	27204.02
444.568	27124.15
444.774	27105.72
444.981	27541.94
445.187	28299.69
445.394	29555.09
445.6	29178.26
445.807	31830.38
446.013	30380.42
446.22	30775.68
446.426	32186.73
446.633	32303.46
446.839	33362.26
447.046	32174.44
447.252	33747.28
447.459	33960.27
447.665	33792.34
447.871	35166.52
448.078	36931.87
448.284	35113.28
448.491	36219.18
448.697	37273.88
448.903	38138.13
449.11	38394.12
449.316	37501.21
449.522	38496.52
449.728	39164.16
449.935	39465.21
450.141	39432.44
450.347	40644.84
450.553	39080.19
450.76	39608.57
450.966	40988.9
451.172	40605.93
451.378	41752.79
451.584	40843.49
451.791	41662.68
451.997	41591
452.203	42371.28
452.409	42465.49
452.615	42189.01
452.821	40403.18
453.027	40116.47
453.233	42195.15
453.44	40653.03
453.646	41251.04
453.852	41066.72
454.058	42098.9
454.264	40562.92
454.47	41539.8
454.676	40372.46
454.882	41631.96
455.088	37984.53
455.294	38975.75
455.5	39610.62
455.705	39874.8
455.911	38197.52
456.117	37437.72
456.323	37316.89
456.529	35172.67
456.735	36700.45
456.941	35590.45
457.147	35264.83
457.352	34281.8
457.558	34001.23
457.764	34113.87
457.97	33628.5
458.176	32903.52
458.381	32508.26
458.587	30861.69
458.793	31191.42
458.999	29282.71
459.204	31568.24
459.41	30228.87
459.616	28721.57
459.821	28369.32
460.027	28701.09
460.233	28260.77
460.438	26792.38
460.644	27031.99
460.85	25649.61
461.055	24969.69
461.261	25516.5
461.466	23278.07
461.672	22847.99
461.878	24240.61
462.083	22909.43
462.289	22247.94
462.494	21965.32
462.7	21160.47
462.905	20519.45
463.111	21236.24
463.316	21281.3
463.522	20881.94
463.727	20902.42
463.932	20666.91
464.138	20630.04
464.343	20714.01
464.549	20113.95
464.754	20765.21
464.959	20259.36
465.165	20185.63
465.37	19311.15
465.575	18885.17
465.781	19579.43
465.986	19925.54
466.191	19102.26
466.397	18735.67
466.602	17861.19
466.807	18453.05
467.012	18709.05
467.218	18584.12
467.423	18186.82
467.628	18686.52
467.833	19333.68
468.038	18244.16
468.244	17896
468.449	18668.09
468.654	17830.47
