Data from USB4F104151__309__14-24-23-304.txt Node

Date: Thu Mar 13 14:24:23 EDT 2025
User: louis
Spectrometer: USB4F10415
Trigger mode: 4
Integration Time (sec): 2.000000E-2
Scans to average: 1
Electric dark correction enabled: true
Nonlinearity correction enabled: false
Boxcar width: 0
XAxis mode: Wavelengths
Number of Pixels in Spectrum: 3648
>>>>>Begin Spectral Data<<<<<
178.204	-184.32
178.424	-184.32
178.644	-184.32
178.864	-149.5
179.084	-126.97
179.304	28.67
179.524	-43.01
179.744	14.34
179.964	4.1
180.184	-77.82
180.404	32.77
180.624	-47.1
180.844	28.67
181.064	-92.16
181.283	-2.05
181.503	67.58
181.723	86.01
181.943	24.58
182.163	90.11
182.383	28.67
182.602	-45.06
182.822	53.25
183.042	30.72
183.262	-8.19
183.482	28.67
183.701	12.29
183.921	-10.24
184.141	10.24
184.361	14.34
184.58	0
184.8	45.06
185.02	-10.24
185.239	12.29
185.459	-4.1
185.679	100.35
185.898	-28.67
186.118	45.06
186.338	-36.86
186.557	63.49
186.777	30.72
186.997	-8.19
187.216	-55.3
187.436	92.16
187.655	12.29
187.875	32.77
188.095	22.53
188.314	65.54
188.534	-49.15
188.753	-16.38
188.973	38.91
189.192	12.29
189.412	8.19
189.631	-12.29
189.851	14.34
190.07	12.29
190.29	-51.2
190.509	20.48
190.729	-10.24
190.948	12.29
191.168	137.21
191.387	71.68
191.607	47.1
191.826	69.63
192.045	12.29
192.265	14.34
192.484	4.1
192.704	10.24
192.923	-36.86
193.142	38.91
193.362	6.14
193.581	-10.24
193.8	79.87
194.02	24.58
194.239	69.63
194.458	69.63
194.678	-36.86
194.897	-12.29
195.116	-2.05
195.335	45.06
195.555	22.53
195.774	47.1
195.993	20.48
196.212	10.24
196.432	26.62
196.651	24.58
196.87	22.53
197.089	20.48
197.308	71.68
197.528	49.15
197.747	-43.01
197.966	-12.29
198.185	143.36
198.404	30.72
198.623	86.01
198.842	2.05
199.062	-40.96
199.281	38.91
199.5	-47.1
199.719	65.54
199.938	-12.29
200.157	55.3
200.376	-24.58
200.595	14.34
200.814	-18.43
201.033	14.34
201.252	79.87
201.471	-20.48
201.69	8.19
201.909	8.19
202.128	28.67
202.347	36.86
202.566	6.14
202.785	28.67
203.004	36.86
203.223	47.1
203.442	45.06
203.661	22.53
203.879	-18.43
204.098	4.1
204.317	-45.06
204.536	-24.58
204.755	47.1
204.974	61.44
205.193	-14.34
205.411	135.17
205.63	16.38
205.849	20.48
206.068	53.25
206.287	-22.53
206.505	32.77
206.724	-12.29
206.943	4.1
207.162	14.34
207.381	-8.19
207.599	28.67
207.818	14.34
208.037	-12.29
208.255	10.24
208.474	-16.38
208.693	69.63
208.911	-86.01
209.13	4.1
209.349	53.25
209.567	4.1
209.786	12.29
210.005	-26.62
210.223	20.48
210.442	-71.68
210.661	53.25
210.879	14.34
211.098	38.91
211.316	47.1
211.535	65.54
211.753	-12.29
211.972	118.78
212.191	45.06
212.409	63.49
212.628	53.25
212.846	51.2
213.065	36.86
213.283	28.67
213.502	-8.19
213.72	36.86
213.938	12.29
214.157	12.29
214.375	0
214.594	36.86
214.812	12.29
215.031	30.72
215.249	20.48
215.467	20.48
215.686	55.3
215.904	-36.86
216.122	43.01
216.341	40.96
216.559	-67.58
216.778	53.25
216.996	32.77
217.214	63.49
217.432	-40.96
217.651	-4.1
217.869	-77.82
218.087	-18.43
218.306	30.72
218.524	53.25
218.742	0
218.96	28.67
219.179	30.72
219.397	24.58
219.615	53.25
219.833	-26.62
220.051	12.29
220.27	-32.77
220.488	-20.48
220.706	53.25
220.924	-24.58
221.142	12.29
221.36	47.1
221.578	-4.1
221.796	-49.15
222.015	63.49
222.233	-4.1
222.451	102.4
222.669	40.96
222.887	55.3
223.105	-24.58
223.323	-83.97
223.541	-110.59
223.759	63.49
223.977	-53.25
224.195	61.44
224.413	-28.67
224.631	4.1
224.849	20.48
225.067	53.25
225.285	45.06
225.503	-16.38
225.721	45.06
225.939	-8.19
226.157	-36.86
226.375	65.54
226.592	20.48
226.81	77.82
227.028	51.2
227.246	102.4
227.464	-16.38
227.682	45.06
227.9	-53.25
228.117	69.63
228.335	63.49
228.553	-75.77
228.771	51.2
228.989	22.53
229.206	20.48
229.424	79.87
229.642	8.19
229.86	-4.1
230.077	47.1
230.295	-49.15
230.513	55.3
230.731	65.54
230.948	-2.05
231.166	65.54
231.384	34.82
231.601	53.25
231.819	96.25
232.037	-22.53
232.254	-18.43
232.472	79.87
232.689	36.86
232.907	106.49
233.125	-22.53
233.342	6.14
233.56	6.14
233.777	6.14
233.995	-86.01
234.213	45.06
234.43	65.54
234.648	22.53
234.865	32.77
235.083	-8.19
235.3	40.96
235.518	63.49
235.735	53.25
235.953	120.83
236.17	57.34
236.388	4.1
236.605	-20.48
236.822	18.43
237.04	36.86
237.257	16.38
237.475	30.72
237.692	-28.67
237.909	18.43
238.127	-12.29
238.344	61.44
238.562	28.67
238.779	30.72
238.996	-8.19
239.214	-53.25
239.431	65.54
239.648	-43.01
239.865	61.44
240.083	73.73
240.3	12.29
240.517	-26.62
240.735	49.15
240.952	14.34
241.169	20.48
241.386	55.3
241.603	53.25
241.821	-77.82
242.038	92.16
242.255	38.91
242.472	-20.48
242.689	4.1
242.907	20.48
243.124	94.21
243.341	12.29
243.558	-4.1
243.775	-26.62
243.992	26.62
244.209	-12.29
244.426	30.72
244.643	-2.05
244.86	-32.77
245.078	83.97
245.295	24.58
245.512	59.39
245.729	-45.06
245.946	-36.86
246.163	63.49
246.38	20.48
246.597	-16.38
246.814	36.86
247.031	-28.67
247.248	22.53
247.464	53.25
247.681	51.2
247.898	57.34
248.115	77.82
248.332	6.14
248.549	-28.67
248.766	112.64
248.983	159.74
249.2	4.1
249.417	-53.25
249.633	16.38
249.85	-34.82
250.067	-4.1
250.284	69.63
250.501	6.14
250.717	12.29
250.934	4.1
251.151	53.25
251.368	20.48
251.585	20.48
251.801	16.38
252.018	0
252.235	63.49
252.451	36.86
252.668	36.86
252.885	20.48
253.102	57.34
253.318	-18.43
253.535	-69.63
253.752	51.2
253.968	-53.25
254.185	57.34
254.401	20.48
254.618	-10.24
254.835	10.24
255.051	14.34
255.268	61.44
255.484	-36.86
255.701	98.3
255.917	65.54
256.134	-28.67
256.351	57.34
256.567	77.82
256.784	36.86
257	-83.97
257.217	26.62
257.433	38.91
257.65	55.3
257.866	92.16
258.082	-18.43
258.299	30.72
258.515	161.79
258.732	-16.38
258.948	28.67
259.165	-8.19
259.381	28.67
259.597	94.21
259.814	61.44
260.03	28.67
260.246	-10.24
260.463	59.39
260.679	32.77
260.895	2.05
261.112	77.82
261.328	-36.86
261.544	45.06
261.761	16.38
261.977	22.53
262.193	24.58
262.409	38.91
262.626	8.19
262.842	12.29
263.058	45.06
263.274	4.1
263.49	61.44
263.707	104.45
263.923	6.14
264.139	-30.72
264.355	61.44
264.571	4.1
264.787	16.38
265.004	-4.1
265.22	-8.19
265.436	28.67
265.652	20.48
265.868	49.15
266.084	67.58
266.3	36.86
266.516	4.1
266.732	24.58
266.948	43.01
267.164	6.14
267.38	69.63
267.596	-28.67
267.812	24.58
268.028	20.48
268.244	20.48
268.46	61.44
268.676	73.73
268.892	6.14
269.108	69.63
269.324	36.86
269.54	12.29
269.756	-16.38
269.972	6.14
270.188	12.29
270.403	4.1
270.619	30.72
270.835	53.25
271.051	-24.58
271.267	-28.67
271.483	16.38
271.698	114.69
271.914	55.3
272.13	-12.29
272.346	59.39
272.562	49.15
272.777	69.63
272.993	-4.1
273.209	47.1
273.425	69.63
273.64	69.63
273.856	69.63
274.072	45.06
274.287	-18.43
274.503	53.25
274.719	45.06
274.934	6.14
275.15	-53.25
275.366	-34.82
275.581	-40.96
275.797	24.58
276.012	-4.1
276.228	63.49
276.444	4.1
276.659	28.67
276.875	-51.2
277.09	47.1
277.306	-20.48
277.521	73.73
277.737	28.67
277.952	38.91
278.168	6.14
278.383	47.1
278.599	22.53
278.814	63.49
279.03	57.34
279.245	18.43
279.461	-45.06
279.676	75.77
279.892	-8.19
280.107	22.53
280.322	65.54
280.538	110.59
280.753	12.29
280.969	67.58
281.184	53.25
281.399	77.82
281.615	-34.82
281.83	57.34
282.045	-4.1
282.26	43.01
282.476	47.1
282.691	81.92
282.906	38.91
283.122	63.49
283.337	-14.34
283.552	40.96
283.767	40.96
283.983	47.1
284.198	6.14
284.413	96.25
284.628	8.19
284.843	104.45
285.058	77.82
285.274	8.19
285.489	-53.25
285.704	73.73
285.919	4.1
286.134	51.2
286.349	55.3
286.564	4.1
286.779	38.91
286.995	30.72
287.21	-20.48
287.425	36.86
287.64	-65.54
287.855	16.38
288.07	-63.49
288.285	135.17
288.5	79.87
288.715	61.44
288.93	53.25
289.145	51.2
289.36	79.87
289.575	55.3
289.79	49.15
290.004	24.58
290.219	24.58
290.434	-16.38
290.649	-8.19
290.864	-16.38
291.079	-32.77
291.294	-83.97
291.509	47.1
291.724	-36.86
291.938	26.62
292.153	57.34
292.368	-45.06
292.583	8.19
292.798	40.96
293.012	120.83
293.227	-6.14
293.442	6.14
293.657	61.44
293.871	38.91
294.086	22.53
294.301	65.54
294.516	47.1
294.73	30.72
294.945	8.19
295.16	-20.48
295.374	34.82
295.589	-10.24
295.804	38.91
296.018	10.24
296.233	28.67
296.447	36.86
296.662	4.1
296.877	81.92
297.091	90.11
297.306	67.58
297.52	-6.14
297.735	36.86
297.949	22.53
298.164	53.25
298.378	-4.1
298.593	-16.38
298.807	47.1
299.022	6.14
299.236	30.72
299.451	24.58
299.665	30.72
299.88	124.93
300.094	32.77
300.309	110.59
300.523	12.29
300.737	36.86
300.952	22.53
301.166	63.49
301.381	47.1
301.595	28.67
301.809	10.24
302.024	22.53
302.238	-10.24
302.452	20.48
302.667	-20.48
302.881	26.62
303.095	-12.29
303.309	-2.05
303.524	47.1
303.738	14.34
303.952	0
304.166	57.34
304.381	55.3
304.595	65.54
304.809	-2.05
305.023	55.3
305.237	-4.1
305.452	12.29
305.666	8.19
305.88	24.58
306.094	28.67
306.308	55.3
306.522	69.63
306.736	-2.05
306.95	-12.29
307.164	-6.14
307.379	22.53
307.593	83.97
307.807	40.96
308.021	32.77
308.235	47.1
308.449	-106.49
308.663	-8.19
308.877	28.67
309.091	53.25
309.305	49.15
309.519	-18.43
309.733	86.01
309.947	-30.72
310.161	40.96
310.374	71.68
310.588	-30.72
310.802	-6.14
311.016	32.77
311.23	8.19
311.444	4.1
311.658	36.86
311.872	73.73
312.085	57.34
312.299	77.82
312.513	69.63
312.727	20.48
312.941	-24.58
313.154	12.29
313.368	-24.58
313.582	12.29
313.796	6.14
314.009	90.11
314.223	28.67
314.437	-24.58
314.651	-36.86
314.864	36.86
315.078	-22.53
315.292	14.34
315.505	63.49
315.719	38.91
315.933	14.34
316.146	-12.29
316.36	-16.38
316.573	14.34
316.787	61.44
317.001	18.43
317.214	6.14
317.428	106.49
317.641	53.25
317.855	-24.58
318.068	-32.77
318.282	8.19
318.495	-12.29
318.709	47.1
318.922	96.25
319.136	55.3
319.349	-28.67
319.563	63.49
319.776	-28.67
319.99	61.44
320.203	83.97
320.417	28.67
320.63	6.14
320.843	65.54
321.057	57.34
321.27	38.91
321.483	22.53
321.697	-69.63
321.91	57.34
322.124	6.14
322.337	53.25
322.55	81.92
322.763	24.58
322.977	69.63
323.19	18.43
323.403	14.34
323.617	40.96
323.83	73.73
324.043	49.15
324.256	90.11
324.469	49.15
324.683	-34.82
324.896	20.48
325.109	96.25
325.322	28.67
325.535	69.63
325.748	8.19
325.962	63.49
326.175	-73.73
326.388	-28.67
326.601	-10.24
326.814	73.73
327.027	65.54
327.24	104.45
327.453	-2.05
327.666	45.06
327.879	-2.05
328.092	57.34
328.305	-8.19
328.518	-96.25
328.731	-61.44
328.944	16.38
329.157	-4.1
329.37	24.58
329.583	63.49
329.796	98.3
330.009	2.05
330.222	-26.62
330.435	-18.43
330.648	-6.14
330.861	22.53
331.073	73.73
331.286	34.82
331.499	20.48
331.712	57.34
331.925	65.54
332.138	22.53
332.35	59.39
332.563	6.14
332.776	102.4
332.989	75.77
333.202	-2.05
333.414	16.38
333.627	28.67
333.84	-69.63
334.053	16.38
334.265	28.67
334.478	20.48
334.691	36.86
334.903	28.67
335.116	53.25
335.329	-4.1
335.541	51.2
335.754	98.3
335.966	-12.29
336.179	-20.48
336.392	-18.43
336.604	-77.82
336.817	116.73
337.029	4.1
337.242	47.1
337.454	-20.48
337.667	-2.05
337.88	75.77
338.092	49.15
338.305	-49.15
338.517	-2.05
338.729	77.82
338.942	94.21
339.154	38.91
339.367	-67.58
339.579	69.63
339.792	-18.43
340.004	-12.29
340.217	24.58
340.429	47.1
340.641	-24.58
340.854	77.82
341.066	-18.43
341.278	92.16
341.491	137.21
341.703	-10.24
341.915	8.19
342.128	73.73
342.34	28.67
342.552	12.29
342.764	40.96
342.977	28.67
343.189	71.68
343.401	81.92
343.613	-12.29
343.826	-12.29
344.038	26.62
344.25	0
344.462	6.14
344.674	-49.15
344.886	-10.24
345.099	81.92
345.311	32.77
345.523	36.86
345.735	-2.05
345.947	49.15
346.159	14.34
346.371	71.68
346.583	-2.05
346.795	96.25
347.007	30.72
347.219	63.49
347.431	63.49
347.643	81.92
347.855	22.53
348.067	94.21
348.279	0
348.491	-28.67
348.703	36.86
348.915	32.77
349.127	-34.82
349.339	-24.58
349.551	8.19
349.763	-26.62
349.975	8.19
350.187	45.06
350.399	-32.77
350.61	22.53
350.822	-34.82
351.034	32.77
351.246	36.86
351.458	45.06
351.669	49.15
351.881	112.64
352.093	24.58
352.305	14.34
352.517	-2.05
352.728	47.1
352.94	53.25
353.152	-28.67
353.363	-10.24
353.575	40.96
353.787	73.73
353.999	77.82
354.21	86.01
354.422	59.39
354.633	47.1
354.845	55.3
355.057	79.87
355.268	75.77
355.48	47.1
355.692	12.29
355.903	24.58
356.115	0
356.326	30.72
356.538	49.15
356.749	40.96
356.961	-20.48
357.172	30.72
357.384	-20.48
357.595	20.48
357.807	6.14
358.018	6.14
358.23	94.21
358.441	53.25
358.653	90.11
358.864	14.34
359.075	-47.1
359.287	49.15
359.498	24.58
359.709	86.01
359.921	6.14
360.132	45.06
360.344	6.14
360.555	61.44
360.766	-8.19
360.977	47.1
361.189	36.86
361.4	-36.86
361.611	131.07
361.823	24.58
362.034	20.48
362.245	24.58
362.456	12.29
362.667	71.68
362.879	-6.14
363.09	32.77
363.301	-26.62
363.512	14.34
363.723	-14.34
363.935	61.44
364.146	79.87
364.357	-2.05
364.568	34.82
364.779	-69.63
364.99	88.06
365.201	51.2
365.412	4.1
365.623	61.44
365.834	53.25
366.045	-6.14
366.256	63.49
366.467	30.72
366.678	0
366.889	69.63
367.1	12.29
367.311	45.06
367.522	-18.43
367.733	-24.58
367.944	88.06
368.155	-28.67
368.366	6.14
368.577	77.82
368.788	96.25
368.999	20.48
369.209	45.06
369.42	61.44
369.631	180.22
369.842	20.48
370.053	18.43
370.264	6.14
370.474	6.14
370.685	53.25
370.896	49.15
371.107	28.67
371.317	92.16
371.528	-10.24
371.739	24.58
371.95	36.86
372.16	16.38
372.371	-18.43
372.582	4.1
372.792	12.29
373.003	16.38
373.214	-8.19
373.424	79.87
373.635	6.14
373.846	94.21
374.056	26.62
374.267	16.38
374.477	-4.1
374.688	47.1
374.898	-4.1
375.109	30.72
375.319	-12.29
375.53	65.54
375.74	45.06
375.951	20.48
376.161	32.77
376.372	36.86
376.582	16.38
376.793	4.1
377.003	12.29
377.214	16.38
377.424	-12.29
377.635	53.25
377.845	-4.1
378.055	51.2
378.266	-36.86
378.476	32.77
378.686	49.15
378.897	22.53
379.107	40.96
379.317	110.59
379.528	53.25
379.738	40.96
379.948	-4.1
380.158	55.3
380.369	49.15
380.579	131.07
380.789	65.54
380.999	61.44
381.21	61.44
381.42	65.54
381.63	10.24
381.84	59.39
382.05	-8.19
382.261	69.63
382.471	51.2
382.681	45.06
382.891	57.34
383.101	61.44
383.311	65.54
383.521	32.77
383.731	10.24
383.941	104.45
384.151	59.39
384.361	6.14
384.571	47.1
384.781	63.49
384.991	126.97
385.201	86.01
385.411	65.54
385.621	71.68
385.831	53.25
386.041	-38.91
386.251	32.77
386.461	94.21
386.671	-10.24
386.881	16.38
387.091	69.63
387.301	73.73
387.511	0
387.72	102.4
387.93	34.82
388.14	-38.91
388.35	45.06
388.56	79.87
388.769	73.73
388.979	45.06
389.189	28.67
389.399	40.96
389.609	8.19
389.818	139.26
390.028	-2.05
390.238	69.63
390.447	32.77
390.657	77.82
390.867	69.63
391.076	28.67
391.286	20.48
391.496	49.15
391.705	28.67
391.915	14.34
392.125	36.86
392.334	88.06
392.544	90.11
392.753	57.34
392.963	61.44
393.172	12.29
393.382	14.34
393.591	73.73
393.801	8.19
394.01	151.55
394.22	110.59
394.429	30.72
394.639	-4.1
394.848	126.97
395.058	36.86
395.267	49.15
395.477	118.78
395.686	20.48
395.895	159.74
396.105	45.06
396.314	30.72
396.524	147.45
396.733	53.25
396.942	155.65
397.152	157.69
397.361	102.4
397.57	55.3
397.78	108.54
397.989	88.06
398.198	145.41
398.407	96.25
398.617	124.93
398.826	94.21
399.035	49.15
399.244	131.07
399.453	45.06
399.663	118.78
399.872	79.87
400.081	69.63
400.29	86.01
400.499	45.06
400.708	143.36
400.917	63.49
401.127	69.63
401.336	36.86
401.545	155.65
401.754	102.4
401.963	102.4
402.172	86.01
402.381	38.91
402.59	77.82
402.799	65.54
403.008	61.44
403.217	145.41
403.426	43.01
403.635	71.68
403.844	47.1
404.053	137.21
404.262	63.49
404.471	196.61
404.68	110.59
404.888	112.64
405.097	79.87
405.306	159.74
405.515	102.4
405.724	59.39
405.933	159.74
406.142	139.26
406.35	167.93
406.559	157.69
406.768	94.21
406.977	94.21
407.185	194.56
407.394	190.46
407.603	133.12
407.812	161.79
408.02	229.37
408.229	217.08
408.438	129.02
408.646	202.75
408.855	112.64
409.064	178.17
409.272	151.55
409.481	202.75
409.69	245.76
409.898	172.03
410.107	272.38
410.315	253.95
410.524	311.29
410.733	376.83
410.941	307.2
411.15	290.81
411.358	327.67
411.567	294.91
411.775	323.58
411.984	405.5
412.192	319.48
412.401	421.88
412.609	323.58
412.818	403.45
413.026	393.21
413.234	352.25
413.443	454.65
413.651	419.83
413.86	325.63
414.068	456.7
414.276	475.13
414.485	550.9
414.693	477.18
414.901	511.99
415.11	561.14
415.318	561.14
415.526	571.38
415.734	563.19
415.943	565.24
416.151	643.06
416.359	634.87
416.567	628.73
416.776	692.21
416.984	708.6
417.192	815.09
417.4	716.79
417.608	667.64
417.817	792.56
418.025	786.42
418.233	954.35
418.441	864.24
418.649	917.49
418.857	899.06
419.065	1007.6
419.273	1042.42
419.481	1005.55
419.689	1120.24
419.897	1085.42
420.105	1138.67
420.313	1179.63
420.521	1257.45
420.729	1265.64
420.937	1259.5
421.145	1265.64
421.353	1298.41
421.561	1396.71
421.769	1406.95
421.977	1519.59
422.185	1519.59
422.393	1605.61
422.601	1751.01
422.809	1662.95
423.017	1705.96
423.224	1769.44
423.432	1882.08
423.64	1826.79
423.848	2062.3
424.056	1933.28
424.263	2142.18
424.471	2185.18
424.679	2166.75
424.887	2232.29
425.094	2377.69
425.302	2342.88
425.51	2508.76
425.718	2635.74
425.925	2502.62
426.133	2650.07
426.341	2920.4
426.548	2830.29
426.756	2840.53
426.964	3008.47
427.171	3112.91
427.379	3250.13
427.586	3252.17
427.794	3338.19
428.001	3549.13
428.209	3669.96
428.417	3569.61
428.624	3887.04
428.832	3829.7
429.039	3848.13
429.247	3848.13
429.454	4173.76
429.662	4483
429.869	4216.77
430.076	4511.68
430.284	4394.94
430.491	4476.86
430.699	4894.65
430.906	4835.25
431.114	4949.94
431.321	5152.69
431.528	5191.6
431.736	5427.12
431.943	5787.56
432.15	5517.23
432.358	5705.64
432.565	5906.34
432.772	5861.29
432.979	6336.42
433.187	6201.25
433.394	6387.61
433.601	6723.48
433.808	6762.39
434.016	6623.13
434.223	7196.56
434.43	7323.54
434.637	7341.97
434.844	7813
435.052	7862.15
435.259	7827.34
435.466	7858.06
435.673	7710.6
435.88	8222.59
436.087	8757.11
436.294	8624
436.501	8734.59
436.708	8853.37
436.915	9101.17
437.122	9400.18
437.329	9504.62
437.537	9920.36
437.743	9998.18
437.95	9869.16
438.157	10231.65
438.364	10463.07
438.571	10719.07
438.778	10639.2
438.985	11634.51
439.192	11118.42
439.399	11691.85
439.606	11347.79
439.813	11947.85
440.02	12689.21
440.227	12377.92
440.433	12255.05
440.64	12734.27
440.847	12662.59
441.054	12945.21
441.261	13848.36
441.467	13444.91
441.674	13733.68
441.881	14319.4
442.088	14389.03
442.294	14190.38
442.501	14419.75
442.708	14952.22
442.914	15697.68
443.121	15974.16
443.328	16074.51
443.534	16635.65
443.741	16330.5
443.948	16193.29
444.154	17368.82
444.361	17207.03
444.568	17258.23
444.774	17114.87
444.981	17366.78
445.187	17905.39
445.394	18829.02
445.6	18394.86
445.807	20145.87
446.013	19332.82
446.22	19551.96
446.426	20215.5
446.633	20741.83
446.839	21270.2
447.046	20184.78
447.252	21599.93
447.459	21735.09
447.665	21620.41
447.871	22460.07
448.078	23393.95
448.284	22326.96
448.491	22982.31
448.697	23899.8
448.903	24260.24
449.11	24329.87
449.316	23719.57
449.522	24188.56
449.728	25112.19
449.935	25081.47
450.141	25104
450.347	25712.25
450.553	24624.78
450.76	25239.17
450.966	26013.3
451.172	25814.65
451.378	26687.08
451.584	25974.39
451.791	26793.58
451.997	26730.09
452.203	26922.6
452.409	27205.22
452.615	27057.76
452.821	25636.47
453.027	25628.28
453.233	26955.36
453.44	25945.72
453.646	26293.87
453.852	26572.39
454.058	26619.5
454.264	26066.55
454.47	26539.63
454.676	25867.89
454.882	27139.68
455.088	24643.21
455.294	24927.88
455.5	25443.96
455.705	25646.71
455.911	24974.98
456.117	24004.24
456.323	23977.62
456.529	22630.05
456.735	23781.01
456.941	22992.55
457.147	22740.64
457.352	21943.99
457.558	21716.66
457.764	21884.59
457.97	21278.4
458.176	21053.12
458.381	20907.71
458.587	20045.52
458.793	20076.24
458.999	18673.38
459.204	20491.98
459.41	19975.89
459.616	18319.08
459.821	18652.9
460.027	18431.72
460.233	17948.4
460.438	16895.74
460.644	17329.91
460.85	16654.08
461.055	16166.67
461.261	16234.25
461.466	15165.21
461.672	14552.87
461.878	15556.37
462.083	14683.94
462.289	14329.64
462.494	14225.19
462.7	13705.01
462.905	13485.87
463.111	13631.28
463.316	13713.2
463.522	13500.21
463.727	13307.7
463.932	13535.03
464.138	13258.55
464.343	13479.73
464.549	12816.19
464.754	13350.71
464.959	13328.18
465.165	13012.79
465.37	12580.67
465.575	12236.61
465.781	12529.47
465.986	12824.38
466.191	12300.1
466.397	12076.87
466.602	11626.32
466.807	12005.19
467.012	11927.37
467.218	11910.99
467.423	11444.05
467.628	11933.51
467.833	12169.03
468.038	11736.91
468.244	11409.23
