Data from USB4F104151__210__14-21-07-553.txt Node

Date: Thu Mar 13 14:21:07 EDT 2025
User: louis
Spectrometer: USB4F10415
Trigger mode: 4
Integration Time (sec): 2.000000E-2
Scans to average: 1
Electric dark correction enabled: true
Nonlinearity correction enabled: false
Boxcar width: 0
XAxis mode: Wavelengths
Number of Pixels in Spectrum: 3648
>>>>>Begin Spectral Data<<<<<
178.204	-99.84
178.424	-99.84
178.644	-99.84
178.864	-132.61
179.084	-73.21
179.304	-13.82
179.524	-7.68
179.744	-19.97
179.964	41.47
180.184	-7.68
180.404	-22.02
180.624	29.18
180.844	41.47
181.064	16.9
181.283	-13.82
181.503	-30.21
181.723	-13.82
181.943	-15.87
182.163	59.9
182.383	-79.36
182.602	-30.21
182.822	-24.06
183.042	12.8
183.262	-32.26
183.482	-73.21
183.701	33.28
183.921	33.28
184.141	-54.78
184.361	6.66
184.58	37.38
184.8	18.94
185.02	-24.06
185.239	59.9
185.459	37.38
185.679	64
185.898	-24.06
186.118	29.18
186.338	-15.87
186.557	41.47
186.777	-7.68
186.997	-15.87
187.216	25.09
187.436	-15.87
187.655	35.33
187.875	100.86
188.095	14.85
188.314	37.38
188.534	107.01
188.753	4.61
188.973	10.75
189.192	-22.02
189.412	33.28
189.631	8.7
189.851	6.66
190.07	16.9
190.29	29.18
190.509	18.94
190.729	57.86
190.948	2.56
191.168	45.57
191.387	59.9
191.607	-44.54
191.826	49.66
192.045	-7.68
192.265	70.14
192.484	33.28
192.704	27.14
192.923	-19.97
193.142	66.05
193.362	12.8
193.581	102.91
193.8	29.18
194.02	18.94
194.239	25.09
194.458	45.57
194.678	-69.12
194.897	74.24
195.116	41.47
195.335	-13.82
195.555	31.23
195.774	-40.45
195.993	66.05
196.212	2.56
196.432	49.66
196.651	27.14
196.87	4.61
197.089	107.01
197.308	41.47
197.528	-5.63
197.747	-48.64
197.966	66.05
198.185	45.57
198.404	-24.06
198.623	57.86
198.842	0.51
199.062	57.86
199.281	41.47
199.5	-22.02
199.719	-56.83
199.938	72.19
200.157	-5.63
200.376	31.23
200.595	37.38
200.814	2.56
201.033	-22.02
201.252	16.9
201.471	74.24
201.69	31.23
201.909	49.66
202.128	0.51
202.347	14.85
202.566	27.14
202.785	-30.21
203.004	-38.4
203.223	61.95
203.442	2.56
203.661	-46.59
203.879	-15.87
204.098	43.52
204.317	-7.68
204.536	31.23
204.755	-9.73
204.974	-5.63
205.193	12.8
205.411	125.44
205.63	2.56
205.849	-52.74
206.068	12.8
206.287	35.33
206.505	23.04
206.724	-11.78
206.943	29.18
207.162	-22.02
207.381	57.86
207.599	8.7
207.818	23.04
208.037	8.7
208.255	25.09
208.474	41.47
208.693	-3.58
208.911	-44.54
209.13	-7.68
209.349	86.53
209.567	66.05
209.786	66.05
210.005	59.9
210.223	-5.63
210.442	8.7
210.661	37.38
210.879	2.56
211.098	8.7
211.316	41.47
211.535	115.2
211.753	0.51
211.972	33.28
212.191	-32.26
212.409	14.85
212.628	72.19
212.846	33.28
213.065	96.77
213.283	-13.82
213.502	2.56
213.72	-46.59
213.938	0.51
214.157	-7.68
214.375	45.57
214.594	66.05
214.812	47.62
215.031	29.18
215.249	0.51
215.467	43.52
215.686	10.75
215.904	20.99
216.122	0.51
216.341	29.18
216.559	35.33
216.778	31.23
216.996	-17.92
217.214	27.14
217.432	-24.06
217.651	4.61
217.869	-13.82
218.087	47.62
218.306	14.85
218.524	-36.35
218.742	0.51
218.96	20.99
219.179	39.42
219.397	-32.26
219.615	37.38
219.833	86.53
220.051	14.85
220.27	39.42
220.488	10.75
220.706	-17.92
220.924	-46.59
221.142	20.99
221.36	-13.82
221.578	98.81
221.796	-30.21
222.015	55.81
222.233	-48.64
222.451	98.81
222.669	-32.26
222.887	74.24
223.105	0.51
223.323	51.71
223.541	-30.21
223.759	51.71
223.977	27.14
224.195	57.86
224.413	45.57
224.631	53.76
224.849	29.18
225.067	-13.82
225.285	-15.87
225.503	20.99
225.721	4.61
225.939	0.51
226.157	-13.82
226.375	-17.92
226.592	16.9
226.81	8.7
227.028	-26.11
227.246	152.06
227.464	6.66
227.682	125.44
227.9	80.38
228.117	-11.78
228.335	-69.12
228.553	2.56
228.771	51.71
228.989	43.52
229.206	-5.63
229.424	-56.83
229.642	4.61
229.86	39.42
230.077	-36.35
230.295	43.52
230.513	18.94
230.731	33.28
230.948	41.47
231.166	16.9
231.384	-32.26
231.601	-15.87
231.819	43.52
232.037	41.47
232.254	25.09
232.472	59.9
232.689	0.51
232.907	39.42
233.125	-7.68
233.342	-22.02
233.56	-67.07
233.777	-19.97
233.995	6.66
234.213	55.81
234.43	51.71
234.648	61.95
234.865	8.7
235.083	51.71
235.3	33.28
235.518	27.14
235.735	-5.63
235.953	25.09
236.17	16.9
236.388	8.7
236.605	74.24
236.822	123.39
237.04	31.23
237.257	16.9
237.475	-1.54
237.692	20.99
237.909	33.28
238.127	-19.97
238.344	-13.82
238.562	-13.82
238.779	-15.87
238.996	74.24
239.214	-40.45
239.431	43.52
239.648	18.94
239.865	-3.58
240.083	76.29
240.3	84.48
240.517	23.04
240.735	39.42
240.952	25.09
241.169	61.95
241.386	41.47
241.603	18.94
241.821	-26.11
242.038	35.33
242.255	29.18
242.472	45.57
242.689	2.56
242.907	43.52
243.124	-40.45
243.341	70.14
243.558	16.9
243.775	-30.21
243.992	8.7
244.209	-40.45
244.426	64
244.643	43.52
244.86	2.56
245.078	84.48
245.295	66.05
245.512	35.33
245.729	57.86
245.946	16.9
246.163	20.99
246.38	35.33
246.597	20.99
246.814	53.76
247.031	35.33
247.248	-15.87
247.464	8.7
247.681	-32.26
247.898	8.7
248.115	27.14
248.332	2.56
248.549	2.56
248.766	41.47
248.983	-7.68
249.2	20.99
249.417	25.09
249.633	-13.82
249.85	57.86
250.067	35.33
250.284	72.19
250.501	29.18
250.717	-24.06
250.934	51.71
251.151	53.76
251.368	16.9
251.585	10.75
251.801	-22.02
252.018	-19.97
252.235	29.18
252.451	-7.68
252.668	20.99
252.885	41.47
253.102	20.99
253.318	-22.02
253.535	-54.78
253.752	8.7
253.968	25.09
254.185	-3.58
254.401	66.05
254.618	72.19
254.835	0.51
255.051	82.43
255.268	29.18
255.484	-7.68
255.701	35.33
255.917	45.57
256.134	-40.45
256.351	18.94
256.567	0.51
256.784	29.18
257	-54.78
257.217	143.87
257.433	45.57
257.65	47.62
257.866	-11.78
258.082	33.28
258.299	27.14
258.515	-15.87
258.732	51.71
258.948	29.18
259.165	84.48
259.381	25.09
259.597	41.47
259.814	-56.83
260.03	4.61
260.246	6.66
260.463	-26.11
260.679	82.43
260.895	41.47
261.112	27.14
261.328	98.81
261.544	10.75
261.761	74.24
261.977	25.09
262.193	55.81
262.409	23.04
262.626	-40.45
262.842	66.05
263.058	-56.83
263.274	102.91
263.49	-42.5
263.707	90.62
263.923	25.09
264.139	-11.78
264.355	-15.87
264.571	33.28
264.787	20.99
265.004	0.51
265.22	61.95
265.436	-11.78
265.652	-28.16
265.868	57.86
266.084	-17.92
266.3	55.81
266.516	29.18
266.732	61.95
266.948	-67.07
267.164	61.95
267.38	-32.26
267.596	18.94
267.812	76.29
268.028	35.33
268.244	33.28
268.46	25.09
268.676	53.76
268.892	-32.26
269.108	-7.68
269.324	8.7
269.54	-77.31
269.756	27.14
269.972	-42.5
270.188	-7.68
270.403	-28.16
270.619	55.81
270.835	59.9
271.051	-19.97
271.267	66.05
271.483	25.09
271.698	33.28
271.914	84.48
272.13	-26.11
272.346	10.75
272.562	16.9
272.777	94.72
272.993	-15.87
273.209	-22.02
273.425	51.71
273.64	43.52
273.856	109.05
274.072	8.7
274.287	33.28
274.503	74.24
274.719	49.66
274.934	0.51
275.15	37.38
275.366	92.67
275.581	74.24
275.797	16.9
276.012	-5.63
276.228	74.24
276.444	27.14
276.659	131.58
276.875	31.23
277.09	-11.78
277.306	14.85
277.521	4.61
277.737	23.04
277.952	37.38
278.168	29.18
278.383	4.61
278.599	0.51
278.814	4.61
279.03	4.61
279.245	80.38
279.461	98.81
279.676	12.8
279.892	10.75
280.107	18.94
280.322	53.76
280.538	-5.63
280.753	-11.78
280.969	82.43
281.184	0.51
281.399	-15.87
281.615	53.76
281.83	-13.82
282.045	4.61
282.26	-75.26
282.476	-1.54
282.691	14.85
282.906	-32.26
283.122	49.66
283.337	68.09
283.552	90.62
283.767	-26.11
283.983	59.9
284.198	68.09
284.413	68.09
284.628	-101.89
284.843	35.33
285.058	53.76
285.274	2.56
285.489	0.51
285.704	33.28
285.919	10.75
286.134	88.57
286.349	-24.06
286.564	16.9
286.779	74.24
286.995	-17.92
287.21	-24.06
287.425	53.76
287.64	25.09
287.855	23.04
288.07	-9.73
288.285	59.9
288.5	-24.06
288.715	16.9
288.93	-38.4
289.145	2.56
289.36	66.05
289.575	2.56
289.79	-36.35
290.004	16.9
290.219	70.14
290.434	59.9
290.649	57.86
290.864	-32.26
291.079	37.38
291.294	-36.35
291.509	14.85
291.724	-15.87
291.938	25.09
292.153	10.75
292.368	12.8
292.583	2.56
292.798	-7.68
293.012	10.75
293.227	59.9
293.442	16.9
293.657	8.7
293.871	94.72
294.086	35.33
294.301	29.18
294.516	47.62
294.73	-17.92
294.945	-30.21
295.16	27.14
295.374	41.47
295.589	117.25
295.804	14.85
296.018	49.66
296.233	-13.82
296.447	23.04
296.662	8.7
296.877	16.9
297.091	61.95
297.306	-7.68
297.52	80.38
297.735	4.61
297.949	61.95
298.164	98.81
298.378	-42.5
298.593	51.71
298.807	-5.63
299.022	68.09
299.236	94.72
299.451	-13.82
299.665	39.42
299.88	41.47
300.094	-28.16
300.309	41.47
300.523	10.75
300.737	6.66
300.952	-24.06
301.166	-32.26
301.381	-28.16
301.595	10.75
301.809	37.38
302.024	51.71
302.238	61.95
302.452	53.76
302.667	-34.3
302.881	70.14
303.095	47.62
303.309	10.75
303.524	0.51
303.738	41.47
303.952	18.94
304.166	-65.02
304.381	-30.21
304.595	27.14
304.809	12.8
305.023	-13.82
305.237	-36.35
305.452	-48.64
305.666	-40.45
305.88	12.8
306.094	18.94
306.308	29.18
306.522	-28.16
306.736	25.09
306.95	-24.06
307.164	18.94
307.379	55.81
307.593	4.61
307.807	20.99
308.021	66.05
308.235	16.9
308.449	23.04
308.663	-44.54
308.877	20.99
309.091	-69.12
309.305	29.18
309.519	78.33
309.733	2.56
309.947	14.85
310.161	68.09
310.374	25.09
310.588	43.52
310.802	18.94
311.016	-40.45
311.23	47.62
311.444	43.52
311.658	78.33
311.872	12.8
312.085	74.24
312.299	33.28
312.513	-38.4
312.727	25.09
312.941	-7.68
313.154	68.09
313.368	4.61
313.582	33.28
313.796	35.33
314.009	25.09
314.223	18.94
314.437	31.23
314.651	45.57
314.864	68.09
315.078	-3.58
315.292	-5.63
315.505	33.28
315.719	84.48
315.933	53.76
316.146	16.9
316.36	-13.82
316.573	-30.21
316.787	29.18
317.001	74.24
317.214	45.57
317.428	18.94
317.641	-89.6
317.855	66.05
318.068	23.04
318.282	43.52
318.495	20.99
318.709	45.57
318.922	12.8
319.136	102.91
319.349	23.04
319.563	2.56
319.776	49.66
319.99	33.28
320.203	82.43
320.417	82.43
320.63	10.75
320.843	68.09
321.057	-7.68
321.27	57.86
321.483	20.99
321.697	35.33
321.91	-44.54
322.124	18.94
322.337	41.47
322.55	-19.97
322.763	0.51
322.977	39.42
323.19	-5.63
323.403	10.75
323.617	37.38
323.83	102.91
324.043	18.94
324.256	25.09
324.469	39.42
324.683	104.96
324.896	57.86
325.109	-28.16
325.322	33.28
325.535	86.53
325.748	64
325.962	64
326.175	-7.68
326.388	64
326.601	25.09
326.814	74.24
327.027	61.95
327.24	61.95
327.453	37.38
327.666	43.52
327.879	53.76
328.092	55.81
328.305	2.56
328.518	-15.87
328.731	8.7
328.944	-22.02
329.157	0.51
329.37	41.47
329.583	135.68
329.796	78.33
330.009	-13.82
330.222	8.7
330.435	-19.97
330.648	-19.97
330.861	12.8
331.073	-38.4
331.286	45.57
331.499	35.33
331.712	12.8
331.925	41.47
332.138	-15.87
332.35	33.28
332.563	-30.21
332.776	53.76
332.989	4.61
333.202	-40.45
333.414	31.23
333.627	8.7
333.84	25.09
334.053	49.66
334.265	-24.06
334.478	49.66
334.691	57.86
334.903	-7.68
335.116	-38.4
335.329	-11.78
335.541	4.61
335.754	-7.68
335.966	35.33
336.179	-19.97
336.392	4.61
336.604	109.05
336.817	39.42
337.029	45.57
337.242	53.76
337.454	66.05
337.667	70.14
337.88	29.18
338.092	33.28
338.305	10.75
338.517	-9.73
338.729	-1.54
338.942	20.99
339.154	-17.92
339.367	12.8
339.579	49.66
339.792	29.18
340.004	55.81
340.217	-32.26
340.429	49.66
340.641	0.51
340.854	-1.54
341.066	-24.06
341.278	90.62
341.491	115.2
341.703	45.57
341.915	8.7
342.128	2.56
342.34	-5.63
342.552	74.24
342.764	45.57
342.977	-3.58
343.189	125.44
343.401	-17.92
343.613	41.47
343.826	8.7
344.038	-15.87
344.25	20.99
344.462	-22.02
344.674	8.7
344.886	31.23
345.099	25.09
345.311	92.67
345.523	86.53
345.735	16.9
345.947	41.47
346.159	70.14
346.371	-5.63
346.583	86.53
346.795	113.15
347.007	-3.58
347.219	137.73
347.431	57.86
347.643	61.95
347.855	10.75
348.067	127.49
348.279	-7.68
348.491	49.66
348.703	-71.17
348.915	10.75
349.127	33.28
349.339	-11.78
349.551	8.7
349.763	4.61
349.975	74.24
350.187	78.33
350.399	72.19
350.61	117.25
350.822	68.09
351.034	59.9
351.246	25.09
351.458	84.48
351.669	31.23
351.881	29.18
352.093	49.66
352.305	35.33
352.517	2.56
352.728	115.2
352.94	39.42
353.152	82.43
353.363	10.75
353.575	20.99
353.787	27.14
353.999	49.66
354.21	20.99
354.422	41.47
354.633	49.66
354.845	74.24
355.057	47.62
355.268	64
355.48	8.7
355.692	45.57
355.903	-19.97
356.115	12.8
356.326	-9.73
356.538	131.58
356.749	115.2
356.961	49.66
357.172	70.14
357.384	8.7
357.595	74.24
357.807	0.51
358.018	4.61
358.23	82.43
358.441	53.76
358.653	78.33
358.864	41.47
359.075	37.38
359.287	59.9
359.498	59.9
359.709	111.1
359.921	33.28
360.132	25.09
360.344	82.43
360.555	-7.68
360.766	2.56
360.977	66.05
361.189	41.47
361.4	92.67
361.611	37.38
361.823	45.57
362.034	23.04
362.245	-91.65
362.456	-3.58
362.667	8.7
362.879	-7.68
363.09	47.62
363.301	82.43
363.512	74.24
363.723	80.38
363.935	-5.63
364.146	6.66
364.357	37.38
364.568	57.86
364.779	-58.88
364.99	90.62
365.201	-11.78
365.412	64
365.623	-67.07
365.834	82.43
366.045	57.86
366.256	39.42
366.467	111.1
366.678	74.24
366.889	61.95
367.1	25.09
367.311	31.23
367.522	41.47
367.733	135.68
367.944	53.76
368.155	18.94
368.366	8.7
368.577	16.9
368.788	90.62
368.999	-32.26
369.209	18.94
369.42	82.43
369.631	59.9
369.842	4.61
370.053	43.52
370.264	41.47
370.474	20.99
370.685	16.9
370.896	82.43
371.107	92.67
371.317	8.7
371.528	70.14
371.739	20.99
371.95	20.99
372.16	37.38
372.371	8.7
372.582	-22.02
372.792	49.66
373.003	41.47
373.214	41.47
373.424	16.9
373.635	51.71
373.846	70.14
374.056	33.28
374.267	66.05
374.477	49.66
374.688	25.09
374.898	68.09
375.109	41.47
375.319	-7.68
375.53	68.09
375.74	14.85
375.951	74.24
376.161	33.28
376.372	23.04
376.582	-26.11
376.793	27.14
377.003	61.95
377.214	-3.58
377.424	76.29
377.635	0.51
377.845	25.09
378.055	49.66
378.266	33.28
378.476	66.05
378.686	-32.26
378.897	92.67
379.107	66.05
379.317	41.47
379.528	59.9
379.738	70.14
379.948	49.66
380.158	66.05
380.369	90.62
380.579	41.47
380.789	0.51
380.999	86.53
381.21	4.61
381.42	147.97
381.63	25.09
381.84	147.97
382.05	-32.26
382.261	72.19
382.471	-3.58
382.681	18.94
382.891	72.19
383.101	43.52
383.311	86.53
383.521	-15.87
383.731	96.77
383.941	84.48
384.151	0.51
384.361	59.9
384.571	76.29
384.781	49.66
384.991	8.7
385.201	102.91
385.411	66.05
385.621	8.7
385.831	33.28
386.041	-24.06
386.251	66.05
386.461	68.09
386.671	43.52
386.881	-42.5
387.091	41.47
387.301	88.57
387.511	49.66
387.72	45.57
387.93	53.76
388.14	14.85
388.35	57.86
388.56	76.29
388.769	84.48
388.979	35.33
389.189	6.66
389.399	82.43
389.609	72.19
389.818	-11.78
390.028	10.75
390.238	68.09
390.447	25.09
390.657	-3.58
390.867	35.33
391.076	45.57
391.286	96.77
391.496	57.86
391.705	61.95
391.915	29.18
392.125	72.19
392.334	35.33
392.544	74.24
392.753	61.95
392.963	-3.58
393.172	51.71
393.382	47.62
393.591	51.71
393.801	0.51
394.01	117.25
394.22	53.76
394.429	2.56
394.639	152.06
394.848	102.91
395.058	90.62
395.267	150.01
395.477	121.34
395.686	164.35
395.895	88.57
396.105	123.39
396.314	111.1
396.524	84.48
396.733	61.95
396.942	86.53
397.152	147.97
397.361	117.25
397.57	107.01
397.78	64
397.989	190.97
398.198	168.45
398.407	57.86
398.617	41.47
398.826	64
399.035	98.81
399.244	109.05
399.453	70.14
399.663	43.52
399.872	188.93
400.081	45.57
400.29	49.66
400.499	43.52
400.708	90.62
400.917	127.49
401.127	141.82
401.336	168.45
401.545	168.45
401.754	113.15
401.963	170.49
402.172	100.86
402.381	78.33
402.59	107.01
402.799	158.21
403.008	92.67
403.217	139.77
403.426	57.86
403.635	107.01
403.844	74.24
404.053	111.1
404.262	145.92
404.471	109.05
404.68	119.29
404.888	84.48
405.097	123.39
405.306	166.4
405.515	143.87
405.724	152.06
405.933	147.97
406.142	139.77
406.35	190.97
406.559	107.01
406.768	96.77
406.977	229.88
407.185	190.97
407.394	125.44
407.603	135.68
407.812	150.01
408.02	221.69
408.229	217.6
408.438	197.12
408.646	219.64
408.855	219.64
409.064	197.12
409.272	172.54
409.481	285.18
409.69	223.74
409.898	197.12
410.107	205.31
410.315	297.47
410.524	272.89
410.733	303.61
410.941	281.08
411.15	387.58
411.358	363
411.567	346.62
411.775	313.85
411.984	328.19
412.192	346.62
412.401	406.01
412.609	393.72
412.818	442.87
413.026	420.35
413.234	453.11
413.443	463.35
413.651	455.16
413.86	535.03
414.068	508.41
414.276	602.61
414.485	502.26
414.693	582.14
414.901	639.48
415.11	561.66
415.318	641.53
415.526	580.09
415.734	696.82
415.943	653.81
416.151	750.07
416.359	782.84
416.567	764.4
416.776	750.07
416.984	799.22
417.192	852.47
417.4	938.48
417.608	748.02
417.817	893.43
418.025	963.06
418.233	1014.26
418.441	1057.26
418.649	1026.54
418.857	1065.46
419.065	1147.37
419.273	1073.65
419.481	1145.33
419.689	1298.92
419.897	1247.72
420.105	1343.98
420.313	1296.88
420.521	1520.1
420.729	1393.13
420.937	1460.71
421.145	1589.74
421.353	1606.12
421.561	1745.38
421.769	1702.37
421.977	1804.77
422.185	1800.68
422.393	1917.41
422.601	1999.33
422.809	1972.71
423.017	2077.15
423.224	2083.3
423.432	2105.82
423.64	2138.59
423.848	2396.64
424.056	2384.35
424.263	2597.34
424.471	2523.61
424.679	2507.23
424.887	2681.3
425.094	2716.12
425.302	2689.49
425.51	2765.27
425.718	2968.02
425.925	2984.4
426.133	3023.31
426.341	3158.48
426.548	3318.22
426.756	3457.48
426.964	3609.03
427.171	3582.41
427.379	3721.67
427.586	3783.11
427.794	3908.04
428.001	4176.32
428.209	4428.22
428.417	4282.81
428.624	4489.66
428.832	4549.05
429.039	4534.71
429.247	4516.28
429.454	4841.91
429.662	5161.39
429.869	4891.06
430.076	5308.85
430.284	5067.19
430.491	5335.47
430.699	5695.91
430.906	5525.93
431.114	5466.54
431.321	5853.61
431.528	5976.48
431.736	6390.17
431.943	6621.59
432.15	6392.22
432.358	6556.06
432.565	6951.32
432.772	6760.86
432.979	7143.83
433.187	7389.58
433.394	7565.71
433.601	7743.88
433.808	8006.02
434.016	8049.03
434.223	8210.82
434.43	8943.99
434.637	8573.31
434.844	8989.05
435.052	9322.87
435.259	9216.37
435.466	9398.64
435.673	9294.19
435.88	9609.58
436.087	10219.88
436.294	10207.59
436.501	10047.85
436.708	10062.18
436.915	10617.18
437.122	10996.06
437.329	11147.61
437.537	11270.48
437.743	11606.35
437.95	11409.75
438.157	12230.98
438.364	12482.88
438.571	12382.53
438.778	12513.6
438.985	13863.21
439.192	13330.74
439.399	13670.7
439.606	13132.09
439.813	13877.55
440.02	14895.39
440.227	14473.51
440.433	14555.43
440.64	15001.88
440.847	14844.19
441.054	15159.58
441.261	16156.94
441.467	15690
441.674	16392.45
441.881	16863.49
442.088	16826.62
442.294	16789.76
442.501	17109.24
442.708	17551.6
442.914	18067.69
443.121	18923.74
443.328	18391.27
443.534	19511.51
443.741	19239.13
443.948	18958.56
444.154	20035.79
444.361	20003.02
444.568	20072.65
444.774	20197.58
444.981	20390.09
445.187	21293.24
445.394	21790.9
445.6	21891.25
445.807	23634.07
446.013	22982.82
446.22	22884.51
446.426	24244.37
446.633	24502.41
446.839	24985.73
447.046	24084.62
447.252	25231.49
447.459	25147.52
447.665	25241.73
447.871	26304.62
448.078	27105.38
448.284	25784.44
448.491	26775.66
448.697	28074.07
448.903	28647.5
449.11	28565.58
449.316	27930.71
449.522	28551.24
449.728	29104.2
449.935	29208.64
450.141	29417.54
450.347	30021.69
450.553	28981.32
450.76	29878.33
450.966	30300.21
451.172	30199.86
451.378	30963.75
451.584	30283.83
451.791	31205.41
451.997	30908.46
452.203	31563.81
452.409	31789.08
452.615	31531.04
452.821	29929.53
453.027	29382.72
453.233	31557.66
453.44	30404.66
453.646	30283.83
453.852	31045.67
454.058	31352.87
454.264	30404.66
454.47	31211.56
454.676	29960.25
454.882	30851.11
455.088	28368.98
455.294	29282.37
455.5	29388.86
455.705	29511.74
455.911	28733.51
456.117	28078.16
456.323	27564.12
456.529	26302.57
456.735	27199.58
456.941	26497.13
457.147	26155.12
457.352	25413.76
457.558	25329.79
457.764	25200.77
457.97	24676.49
458.176	24182.93
458.381	24105.1
458.587	22941.86
458.793	23068.83
458.999	21872.82
459.204	23503
459.41	22993.06
459.616	21366.97
459.821	21323.96
460.027	21469.37
460.233	20588.74
460.438	19667.16
460.644	20326.6
460.85	19181.79
461.055	18725.09
461.261	18673.89
461.466	17258.74
461.672	16767.23
461.878	18108.65
462.083	17017.08
462.289	16736.51
462.494	16474.37
462.7	15747.34
462.905	15302.93
463.111	15630.61
463.316	15857.93
463.522	15405.33
463.727	15665.42
463.932	15429.91
464.138	15100.19
464.343	15458.58
464.549	15163.67
464.754	15632.66
464.959	15163.67
465.165	14985.5
465.37	14623.01
465.575	14078.25
465.781	14764.32
465.986	14674.21
466.191	14223.65
466.397	13918.51
466.602	13109.56
466.807	13846.83
467.012	13902.12
467.218	13730.09
467.423	13488.43
467.628	13812.01
467.833	14184.74
468.038	13664.56
