Data from USB4F104151__194__14-20-25-248.txt Node

Date: Thu Mar 13 14:20:25 EDT 2025
User: louis
Spectrometer: USB4F10415
Trigger mode: 4
Integration Time (sec): 2.000000E-2
Scans to average: 1
Electric dark correction enabled: true
Nonlinearity correction enabled: false
Boxcar width: 0
XAxis mode: Wavelengths
Number of Pixels in Spectrum: 3648
>>>>>Begin Spectral Data<<<<<
178.204	-160.08
178.424	-160.08
178.644	-160.08
178.864	-178.51
179.084	-92.5
179.304	-2.39
179.524	36.52
179.744	-31.06
179.964	85.67
180.184	-51.54
180.404	-16.73
180.624	-37.2
180.844	-20.82
181.064	-72.02
181.283	9.9
181.503	38.57
181.723	61.1
181.943	-20.82
182.163	20.14
182.383	-39.25
182.602	11.95
182.822	-18.77
183.042	-10.58
183.262	44.71
183.482	-4.44
183.701	7.85
183.921	-16.73
184.141	-20.82
184.361	-24.92
184.58	-2.39
184.8	112.3
185.02	63.15
185.239	52.91
185.459	40.62
185.679	61.1
185.898	5.8
186.118	30.38
186.338	-43.35
186.557	-8.53
186.777	-26.96
186.997	44.71
187.216	-8.53
187.436	61.1
187.655	52.91
187.875	40.62
188.095	-8.53
188.314	54.95
188.534	63.15
188.753	28.33
188.973	61.1
189.192	-16.73
189.412	-24.92
189.631	93.87
189.851	5.8
190.07	-4.44
190.29	11.95
190.509	13.99
190.729	40.62
190.948	-2.39
191.168	69.29
191.387	48.81
191.607	-33.11
191.826	-35.16
192.045	32.43
192.265	-29.01
192.484	-12.63
192.704	69.29
192.923	22.19
193.142	87.72
193.362	22.19
193.581	11.95
193.8	-10.58
194.02	-33.11
194.239	11.95
194.458	-16.73
194.678	46.76
194.897	-35.16
195.116	24.23
195.335	20.14
195.555	-86.36
195.774	24.23
195.993	22.19
196.212	46.76
196.432	-45.4
196.651	-0.34
196.87	-33.11
197.089	-12.63
197.308	28.33
197.528	-2.39
197.747	-59.73
197.966	40.62
198.185	44.71
198.404	46.76
198.623	-12.63
198.842	-4.44
199.062	77.48
199.281	20.14
199.5	-12.63
199.719	40.62
199.938	-45.4
200.157	48.81
200.376	7.85
200.595	77.48
200.814	46.76
201.033	13.99
201.252	7.85
201.471	5.8
201.69	5.8
201.909	54.95
202.128	32.43
202.347	13.99
202.566	20.14
202.785	30.38
203.004	42.67
203.223	93.87
203.442	28.33
203.661	18.09
203.879	3.75
204.098	13.99
204.317	22.19
204.536	1.71
204.755	42.67
204.974	28.33
205.193	-20.82
205.411	3.75
205.63	30.38
205.849	-41.3
206.068	85.67
206.287	-12.63
206.505	36.52
206.724	-12.63
206.943	-4.44
207.162	22.19
207.381	50.86
207.599	-41.3
207.818	71.34
208.037	-2.39
208.255	-35.16
208.474	-53.59
208.693	11.95
208.911	-69.97
209.13	50.86
209.349	-26.96
209.567	28.33
209.786	85.67
210.005	28.33
210.223	-74.07
210.442	28.33
210.661	-41.3
210.879	48.81
211.098	61.1
211.316	-8.53
211.535	38.57
211.753	-106.84
211.972	7.85
212.191	-16.73
212.409	32.43
212.628	-2.39
212.846	28.33
213.065	-33.11
213.283	79.53
213.502	1.71
213.72	9.9
213.938	16.04
214.157	63.15
214.375	18.09
214.594	-57.68
214.812	7.85
215.031	-0.34
215.249	-31.06
215.467	11.95
215.686	16.04
215.904	44.71
216.122	20.14
216.341	-43.35
216.559	-2.39
216.778	57
216.996	73.39
217.214	85.67
217.432	28.33
217.651	44.71
217.869	54.95
218.087	-41.3
218.306	38.57
218.524	73.39
218.742	-26.96
218.96	120.49
219.179	-29.01
219.397	-18.77
219.615	100.01
219.833	-4.44
220.051	-0.34
220.27	120.49
220.488	-20.82
220.706	26.28
220.924	28.33
221.142	30.38
221.36	59.05
221.578	61.1
221.796	71.34
222.015	77.48
222.233	3.75
222.451	52.91
222.669	22.19
222.887	52.91
223.105	-43.35
223.323	20.14
223.541	-43.35
223.759	42.67
223.977	5.8
224.195	85.67
224.413	61.1
224.631	36.52
224.849	-20.82
225.067	30.38
225.285	-24.92
225.503	57
225.721	7.85
225.939	18.09
226.157	81.58
226.375	40.62
226.592	5.8
226.81	-49.49
227.028	11.95
227.246	38.57
227.464	24.23
227.682	26.28
227.9	28.33
228.117	24.23
228.335	13.99
228.553	-24.92
228.771	44.71
228.989	5.8
229.206	52.91
229.424	50.86
229.642	7.85
229.86	-43.35
230.077	87.72
230.295	36.52
230.513	44.71
230.731	32.43
230.948	5.8
231.166	77.48
231.384	11.95
231.601	-22.87
231.819	85.67
232.037	-0.34
232.254	40.62
232.472	11.95
232.689	54.95
232.907	52.91
233.125	-18.77
233.342	-29.01
233.56	1.71
233.777	52.91
233.995	63.15
234.213	3.75
234.43	48.81
234.648	73.39
234.865	44.71
235.083	34.47
235.3	30.38
235.518	83.63
235.735	3.75
235.953	65.19
236.17	-26.96
236.388	-8.53
236.605	-4.44
236.822	48.81
237.04	46.76
237.257	69.29
237.475	7.85
237.692	3.75
237.909	52.91
238.127	-6.49
238.344	87.72
238.562	-31.06
238.779	32.43
238.996	-2.39
239.214	36.52
239.431	-6.49
239.648	-61.78
239.865	13.99
240.083	-12.63
240.3	44.71
240.517	-18.77
240.735	22.19
240.952	44.71
241.169	9.9
241.386	30.38
241.603	28.33
241.821	-10.58
242.038	65.19
242.255	44.71
242.472	-43.35
242.689	30.38
242.907	71.34
243.124	16.04
243.341	-76.12
243.558	11.95
243.775	-4.44
243.992	-8.53
244.209	16.04
244.426	63.15
244.643	13.99
244.86	3.75
245.078	30.38
245.295	26.28
245.512	54.95
245.729	-6.49
245.946	61.1
246.163	69.29
246.38	-10.58
246.597	-65.88
246.814	16.04
247.031	26.28
247.248	71.34
247.464	-26.96
247.681	-67.92
247.898	28.33
248.115	1.71
248.332	-2.39
248.549	112.3
248.766	71.34
248.983	28.33
249.2	-0.34
249.417	5.8
249.633	40.62
249.85	32.43
250.067	42.67
250.284	77.48
250.501	38.57
250.717	46.76
250.934	20.14
251.151	46.76
251.368	-12.63
251.585	-4.44
251.801	16.04
252.018	-29.01
252.235	11.95
252.451	20.14
252.668	-8.53
252.885	-4.44
253.102	-20.82
253.318	20.14
253.535	-10.58
253.752	28.33
253.968	11.95
254.185	69.29
254.401	-37.2
254.618	11.95
254.835	69.29
255.051	61.1
255.268	42.67
255.484	22.19
255.701	1.71
255.917	-24.92
256.134	18.09
256.351	65.19
256.567	-63.83
256.784	-4.44
257	-29.01
257.217	28.33
257.433	24.23
257.65	46.76
257.866	44.71
258.082	22.19
258.299	-18.77
258.515	44.71
258.732	16.04
258.948	-4.44
259.165	13.99
259.381	42.67
259.597	-12.63
259.814	36.52
260.03	-37.2
260.246	-16.73
260.463	18.09
260.679	52.91
260.895	7.85
261.112	44.71
261.328	-4.44
261.544	20.14
261.761	89.77
261.977	13.99
262.193	59.05
262.409	11.95
262.626	44.71
262.842	-37.2
263.058	-41.3
263.274	26.28
263.49	20.14
263.707	44.71
263.923	-0.34
264.139	-8.53
264.355	40.62
264.571	3.75
264.787	-45.4
265.004	65.19
265.22	65.19
265.436	5.8
265.652	46.76
265.868	-18.77
266.084	-35.16
266.3	-26.96
266.516	1.71
266.732	22.19
266.948	-6.49
267.164	-74.07
267.38	3.75
267.596	30.38
267.812	32.43
268.028	40.62
268.244	-18.77
268.46	-37.2
268.676	-16.73
268.892	-4.44
269.108	16.04
269.324	-57.68
269.54	16.04
269.756	52.91
269.972	-29.01
270.188	77.48
270.403	-10.58
270.619	-10.58
270.835	5.8
271.051	114.34
271.267	-20.82
271.483	52.91
271.698	-4.44
271.914	3.75
272.13	63.15
272.346	-80.21
272.562	9.9
272.777	-0.34
272.993	52.91
273.209	9.9
273.425	44.71
273.64	57
273.856	-18.77
274.072	26.28
274.287	-26.96
274.503	44.71
274.719	81.58
274.934	36.52
275.15	-45.4
275.366	-18.77
275.581	-12.63
275.797	24.23
276.012	54.95
276.228	-22.87
276.444	65.19
276.659	32.43
276.875	5.8
277.09	28.33
277.306	38.57
277.521	-76.12
277.737	28.33
277.952	108.2
278.168	1.71
278.383	44.71
278.599	-16.73
278.814	-10.58
279.03	11.95
279.245	79.53
279.461	-16.73
279.676	44.71
279.892	-82.26
280.107	40.62
280.322	-69.97
280.538	65.19
280.753	-33.11
280.969	3.75
281.184	3.75
281.399	93.87
281.615	20.14
281.83	22.19
282.045	-2.39
282.26	-16.73
282.476	9.9
282.691	57
282.906	81.58
283.122	-12.63
283.337	-65.88
283.552	95.91
283.767	-43.35
283.983	46.76
284.198	40.62
284.413	85.67
284.628	3.75
284.843	52.91
285.058	-31.06
285.274	44.71
285.489	-20.82
285.704	73.39
285.919	11.95
286.134	-16.73
286.349	73.39
286.564	-8.53
286.779	110.25
286.995	11.95
287.21	-45.4
287.425	28.33
287.64	48.81
287.855	48.81
288.07	26.28
288.285	30.38
288.5	65.19
288.715	22.19
288.93	36.52
289.145	7.85
289.36	75.43
289.575	-29.01
289.79	69.29
290.004	3.75
290.219	-12.63
290.434	50.86
290.649	-16.73
290.864	28.33
291.079	61.1
291.294	-57.68
291.509	46.76
291.724	-0.34
291.938	-55.64
292.153	36.52
292.368	-41.3
292.583	38.57
292.798	85.67
293.012	106.15
293.227	-12.63
293.442	16.04
293.657	40.62
293.871	54.95
294.086	7.85
294.301	5.8
294.516	67.24
294.73	57
294.945	-65.88
295.16	20.14
295.374	11.95
295.589	-12.63
295.804	24.23
296.018	22.19
296.233	65.19
296.447	61.1
296.662	73.39
296.877	40.62
297.091	30.38
297.306	36.52
297.52	5.8
297.735	20.14
297.949	65.19
298.164	69.29
298.378	36.52
298.593	52.91
298.807	-20.82
299.022	16.04
299.236	44.71
299.451	73.39
299.665	30.38
299.88	36.52
300.094	75.43
300.309	36.52
300.523	-12.63
300.737	67.24
300.952	3.75
301.166	79.53
301.381	-29.01
301.595	-49.49
301.809	-8.53
302.024	13.99
302.238	-49.49
302.452	77.48
302.667	36.52
302.881	18.09
303.095	-10.58
303.309	9.9
303.524	-10.58
303.738	5.8
303.952	-69.97
304.166	89.77
304.381	-10.58
304.595	69.29
304.809	20.14
305.023	-12.63
305.237	-69.97
305.452	3.75
305.666	61.1
305.88	30.38
306.094	40.62
306.308	16.04
306.522	44.71
306.736	-29.01
306.95	32.43
307.164	-22.87
307.379	-0.34
307.593	52.91
307.807	34.47
308.021	81.58
308.235	32.43
308.449	52.91
308.663	11.95
308.877	24.23
309.091	-18.77
309.305	20.14
309.519	-76.12
309.733	44.71
309.947	-2.39
310.161	22.19
310.374	-2.39
310.588	95.91
310.802	-35.16
311.016	79.53
311.23	-0.34
311.444	-12.63
311.658	-10.58
311.872	28.33
312.085	-4.44
312.299	61.1
312.513	36.52
312.727	-6.49
312.941	-14.68
313.154	-4.44
313.368	79.53
313.582	28.33
313.796	-4.44
314.009	13.99
314.223	59.05
314.437	48.81
314.651	-12.63
314.864	16.04
315.078	61.1
315.292	-41.3
315.505	9.9
315.719	-53.59
315.933	-4.44
316.146	36.52
316.36	11.95
316.573	3.75
316.787	28.33
317.001	65.19
317.214	-16.73
317.428	34.47
317.641	73.39
317.855	57
318.068	22.19
318.282	59.05
318.495	97.96
318.709	13.99
318.922	36.52
319.136	24.23
319.349	-24.92
319.563	24.23
319.776	7.85
319.99	-74.07
320.203	42.67
320.417	22.19
320.63	-29.01
320.843	-16.73
321.057	38.57
321.27	-14.68
321.483	38.57
321.697	36.52
321.91	110.25
322.124	65.19
322.337	38.57
322.55	5.8
322.763	32.43
322.977	16.04
323.19	32.43
323.403	-0.34
323.617	24.23
323.83	28.33
324.043	46.76
324.256	36.52
324.469	5.8
324.683	61.1
324.896	30.38
325.109	50.86
325.322	-57.68
325.535	61.1
325.748	30.38
325.962	28.33
326.175	26.28
326.388	30.38
326.601	11.95
326.814	36.52
327.027	28.33
327.24	20.14
327.453	-24.92
327.666	11.95
327.879	59.05
328.092	22.19
328.305	61.1
328.518	-16.73
328.731	16.04
328.944	3.75
329.157	44.71
329.37	61.1
329.583	69.29
329.796	71.34
330.009	-33.11
330.222	20.14
330.435	77.48
330.648	28.33
330.861	-12.63
331.073	71.34
331.286	28.33
331.499	16.04
331.712	32.43
331.925	48.81
332.138	9.9
332.35	48.81
332.563	24.23
332.776	42.67
332.989	-20.82
333.202	-4.44
333.414	24.23
333.627	118.44
333.84	-18.77
334.053	63.15
334.265	40.62
334.478	-12.63
334.691	26.28
334.903	54.95
335.116	-29.01
335.329	-2.39
335.541	-2.39
335.754	63.15
335.966	44.71
336.179	-4.44
336.392	26.28
336.604	38.57
336.817	89.77
337.029	13.99
337.242	9.9
337.454	57
337.667	11.95
337.88	-4.44
338.092	85.67
338.305	36.52
338.517	-20.82
338.729	22.19
338.942	36.52
339.154	-37.2
339.367	24.23
339.579	69.29
339.792	-8.53
340.004	-37.2
340.217	16.04
340.429	20.14
340.641	48.81
340.854	-22.87
341.066	-43.35
341.278	85.67
341.491	36.52
341.703	-20.82
341.915	20.14
342.128	22.19
342.34	16.04
342.552	-59.73
342.764	-59.73
342.977	73.39
343.189	73.39
343.401	22.19
343.613	28.33
343.826	65.19
344.038	-2.39
344.25	-0.34
344.462	-10.58
344.674	-59.73
344.886	22.19
345.099	77.48
345.311	-8.53
345.523	-53.59
345.735	32.43
345.947	-29.01
346.159	-18.77
346.371	24.23
346.583	20.14
346.795	59.05
347.007	3.75
347.219	20.14
347.431	93.87
347.643	30.38
347.855	87.72
348.067	65.19
348.279	-4.44
348.491	22.19
348.703	44.71
348.915	20.14
349.127	3.75
349.339	-43.35
349.551	46.76
349.763	30.38
349.975	-37.2
350.187	30.38
350.399	20.14
350.61	24.23
350.822	65.19
351.034	11.95
351.246	11.95
351.458	-8.53
351.669	89.77
351.881	138.92
352.093	28.33
352.305	91.82
352.517	54.95
352.728	110.25
352.94	7.85
353.152	61.1
353.363	-4.44
353.575	32.43
353.787	20.14
353.999	28.33
354.21	61.1
354.422	61.1
354.633	38.57
354.845	46.76
355.057	-0.34
355.268	44.71
355.48	46.76
355.692	54.95
355.903	18.09
356.115	-43.35
356.326	24.23
356.538	130.73
356.749	11.95
356.961	93.87
357.172	5.8
357.384	13.99
357.595	75.43
357.807	-51.54
358.018	48.81
358.23	69.29
358.441	44.71
358.653	-2.39
358.864	48.81
359.075	7.85
359.287	83.63
359.498	16.04
359.709	36.52
359.921	16.04
360.132	73.39
360.344	71.34
360.555	20.14
360.766	36.52
360.977	-37.2
361.189	24.23
361.4	38.57
361.611	24.23
361.823	48.81
362.034	52.91
362.245	-53.59
362.456	20.14
362.667	110.25
362.879	28.33
363.09	34.47
363.301	20.14
363.512	34.47
363.723	38.57
363.935	36.52
364.146	108.2
364.357	50.86
364.568	38.57
364.779	-24.92
364.99	153.26
365.201	24.23
365.412	52.91
365.623	48.81
365.834	63.15
366.045	-72.02
366.256	52.91
366.467	11.95
366.678	-20.82
366.889	3.75
367.1	24.23
367.311	20.14
367.522	42.67
367.733	69.29
367.944	63.15
368.155	26.28
368.366	11.95
368.577	46.76
368.788	-2.39
368.999	26.28
369.209	7.85
369.42	71.34
369.631	52.91
369.842	52.91
370.053	13.99
370.264	20.14
370.474	13.99
370.685	20.14
370.896	30.38
371.107	97.96
371.317	102.06
371.528	11.95
371.739	116.39
371.95	-20.82
372.16	77.48
372.371	-8.53
372.582	52.91
372.792	20.14
373.003	57
373.214	-10.58
373.424	61.1
373.635	38.57
373.846	18.09
374.056	-2.39
374.267	42.67
374.477	61.1
374.688	-14.68
374.898	61.1
375.109	20.14
375.319	44.71
375.53	16.04
375.74	149.16
375.951	5.8
376.161	57
376.372	28.33
376.582	13.99
376.793	61.1
377.003	30.38
377.214	30.38
377.424	87.72
377.635	120.49
377.845	-4.44
378.055	85.67
378.266	-2.39
378.476	-14.68
378.686	5.8
378.897	24.23
379.107	-37.2
379.317	89.77
379.528	-45.4
379.738	16.04
379.948	-18.77
380.158	73.39
380.369	44.71
380.579	54.95
380.789	69.29
380.999	44.71
381.21	83.63
381.42	46.76
381.63	36.52
381.84	30.38
382.05	5.8
382.261	44.71
382.471	-29.01
382.681	38.57
382.891	102.06
383.101	73.39
383.311	34.47
383.521	42.67
383.731	40.62
383.941	24.23
384.151	-37.2
384.361	114.34
384.571	30.38
384.781	71.34
384.991	61.1
385.201	153.26
385.411	54.95
385.621	22.19
385.831	75.43
386.041	30.38
386.251	13.99
386.461	112.3
386.671	-10.58
386.881	-4.44
387.091	122.54
387.301	16.04
387.511	83.63
387.72	95.91
387.93	52.91
388.14	-4.44
388.35	20.14
388.56	61.1
388.769	77.48
388.979	-10.58
389.189	24.23
389.399	-20.82
389.609	11.95
389.818	73.39
390.028	46.76
390.238	36.52
390.447	-59.73
390.657	-2.39
390.867	-12.63
391.076	38.57
391.286	44.71
391.496	102.06
391.705	77.48
391.915	102.06
392.125	63.15
392.334	22.19
392.544	32.43
392.753	46.76
392.963	16.04
393.172	61.1
393.382	-12.63
393.591	95.91
393.801	54.95
394.01	83.63
394.22	91.82
394.429	54.95
394.639	48.81
394.848	97.96
395.058	79.53
395.267	36.52
395.477	83.63
395.686	89.77
395.895	77.48
396.105	46.76
396.314	126.63
396.524	77.48
396.733	13.99
396.942	143.02
397.152	102.06
397.361	61.1
397.57	44.71
397.78	3.75
397.989	165.54
398.198	138.92
398.407	89.77
398.617	73.39
398.826	87.72
399.035	93.87
399.244	40.62
399.453	52.91
399.663	167.59
399.872	130.73
400.081	108.2
400.29	112.3
400.499	79.53
400.708	161.45
400.917	77.48
401.127	134.82
401.336	-10.58
401.545	126.63
401.754	54.95
401.963	112.3
402.172	114.34
402.381	52.91
402.59	102.06
402.799	69.29
403.008	122.54
403.217	79.53
403.426	179.88
403.635	95.91
403.844	95.91
404.053	69.29
404.262	97.96
404.471	159.4
404.68	210.6
404.888	153.26
405.097	100.01
405.306	138.92
405.515	179.88
405.724	155.3
405.933	126.63
406.142	220.84
406.35	110.25
406.559	163.5
406.768	175.78
406.977	206.5
407.185	179.88
407.394	241.32
407.603	169.64
407.812	192.17
408.02	179.88
408.229	188.07
408.438	247.46
408.646	196.26
408.855	249.51
409.064	286.37
409.272	210.6
409.481	265.89
409.69	259.75
409.898	216.74
410.107	249.51
410.315	241.32
410.524	298.66
410.733	423.59
410.941	278.18
411.15	343.72
411.358	325.29
411.567	370.34
411.775	380.58
411.984	339.62
412.192	374.44
412.401	382.63
412.609	487.08
412.818	503.46
413.026	513.7
413.234	519.84
413.443	476.84
413.651	515.75
413.86	505.51
414.068	593.57
414.276	618.15
414.485	571.04
414.693	667.3
414.901	747.17
415.11	722.59
415.318	712.35
415.526	683.68
415.734	738.98
415.943	749.22
416.151	857.76
416.359	888.48
416.567	804.51
416.776	849.57
416.984	980.64
417.192	939.68
417.4	929.44
417.608	997.02
417.817	941.72
418.025	1113.75
418.233	1154.71
418.441	1134.23
418.649	1197.72
418.857	1183.38
419.065	1406.61
419.273	1253.02
419.481	1357.46
419.689	1353.37
419.897	1441.43
420.105	1455.76
420.313	1562.26
420.521	1568.4
420.729	1625.75
420.937	1693.33
421.145	1756.82
421.353	1773.2
421.561	1912.46
421.769	1939.09
421.977	1986.19
422.185	2002.57
422.393	2129.55
422.601	2266.76
422.809	2244.23
423.017	2176.65
423.224	2279.05
423.432	2473.6
423.64	2449.03
423.848	2610.82
424.056	2576
424.263	2926.21
424.471	2700.93
424.679	2844.29
424.887	3061.37
425.094	3139.19
425.302	3049.08
425.51	3239.55
425.718	3284.6
425.925	3397.24
426.133	3518.07
426.341	3591.8
426.548	3763.83
426.756	3722.87
426.964	3788.4
427.171	4126.32
427.379	4257.39
427.586	4320.87
427.794	4419.18
428.001	4681.32
428.209	4681.32
428.417	4712.03
428.624	4968.03
428.832	5070.43
429.039	4974.17
429.247	5008.99
429.454	5434.97
429.662	5977.68
429.869	5410.39
430.076	5832.27
430.284	5656.15
430.491	6045.26
430.699	6346.31
430.906	6336.07
431.114	6315.59
431.321	6628.93
431.528	6786.63
431.736	7237.18
431.943	7501.37
432.15	7331.39
432.358	7329.34
432.565	7728.69
432.772	7759.41
432.979	8023.6
433.187	8322.6
433.394	8379.95
433.601	8762.92
433.808	8846.88
434.016	8779.3
434.223	9260.57
434.43	9766.42
434.637	9479.71
434.844	10116.62
435.052	10176.02
435.259	10122.77
435.466	10507.79
435.673	10108.43
435.88	10851.85
436.087	11615.74
436.294	11310.59
436.501	11275.77
436.708	11281.92
436.915	11886.07
437.122	12328.43
437.329	12223.98
437.537	12801.51
437.743	12938.73
437.95	12735.98
438.157	13372.89
438.364	13798.87
438.571	14132.69
438.778	13860.31
438.985	15240.64
439.192	14613.96
439.399	15087.04
439.606	14687.69
439.813	15871.42
440.02	16573.87
440.227	16133.56
440.433	16092.6
440.64	16676.27
440.847	16373.17
441.054	16967.08
441.261	18025.88
441.467	17790.36
441.674	18363.79
441.881	19209.61
442.088	18941.32
442.294	18382.23
442.501	19115.4
442.708	19563.9
442.914	20096.38
443.121	21237.09
443.328	20542.83
443.534	21943.64
443.741	21443.94
443.948	20829.55
444.154	22512.98
444.361	22422.87
444.568	22642
444.774	22541.65
444.981	22807.89
445.187	23500.1
445.394	24538.42
445.6	24155.45
445.807	26381.59
446.013	25351.46
446.22	25615.65
446.426	26719.51
446.633	26848.53
446.839	28069.12
447.046	26977.55
447.252	28341.5
447.459	28206.33
447.665	28105.98
447.871	29342.95
448.078	30526.68
448.284	29134.06
448.491	30043.36
448.697	31167.7
448.903	31644.87
449.11	31601.86
449.316	31286.48
449.522	31941.83
449.728	32543.93
449.935	32568.51
450.141	33012.91
450.347	33791.14
450.553	32584.89
450.76	33043.63
450.966	34479.26
451.172	33496.24
451.378	34608.28
451.584	33993.89
451.791	34690.2
451.997	34464.92
452.203	34903.19
452.409	35169.43
452.615	35202.19
452.821	33662.12
453.027	33436.84
453.233	35126.42
453.44	33809.57
453.646	34161.83
453.852	34391.2
454.058	35083.41
454.264	33756.33
454.47	34610.33
454.676	33553.58
454.882	34851.99
455.088	31907.01
455.294	31960.26
455.5	32779.45
455.705	33150.13
455.911	31839.43
456.117	31179.98
456.323	30588.12
456.529	28949.74
456.735	30248.16
456.941	29596.9
457.147	29070.58
457.352	28208.38
457.558	28026.11
457.764	28028.16
457.97	27446.54
458.176	27002.13
458.381	26944.78
458.587	25802.02
458.793	25580.84
458.999	24227.13
459.204	26144.03
459.41	25285.93
459.616	23512.39
459.821	23733.57
460.027	23682.37
460.233	23145.8
460.438	22091.1
460.644	22130.01
460.85	21097.83
461.055	21015.91
461.261	21095.78
461.466	19389.83
461.672	18824.59
461.878	19948.92
462.083	18859.4
462.289	18369.94
462.494	18290.07
462.7	17454.5
462.905	17001.9
463.111	17391.01
463.316	17657.25
463.522	17253.8
463.727	16962.98
463.932	17558.94
464.138	17163.68
464.343	17247.65
464.549	16407.98
464.754	17241.51
464.959	17053.09
465.165	16805.29
465.37	16262.58
465.575	15828.41
465.781	16393.65
465.986	16526.77
466.191	15936.95
466.397	15453.63
466.602	14722.51
466.807	15330.75
467.012	15179.2
467.218	15300.03
467.423	14974.41
