Data from USB4F104151__36__14-16-39-749.txt Node

Date: Thu Mar 13 14:16:39 EDT 2025
User: louis
Spectrometer: USB4F10415
Trigger mode: 4
Integration Time (sec): 2.000000E-2
Scans to average: 1
Electric dark correction enabled: true
Nonlinearity correction enabled: false
Boxcar width: 0
XAxis mode: Wavelengths
Number of Pixels in Spectrum: 3648
>>>>>Begin Spectral Data<<<<<
178.204	-138.41
178.424	-138.41
178.644	-138.41
178.864	-119.98
179.084	-87.21
179.304	-52.39
179.524	-29.87
179.744	-42.15
179.964	29.52
180.184	50
180.404	29.52
180.624	-60.59
180.844	43.86
181.064	-54.44
181.283	37.72
181.503	15.19
181.723	33.62
181.943	-58.54
182.163	82.77
182.383	-101.55
182.602	86.87
182.822	74.58
183.042	27.48
183.262	-5.29
183.482	-7.34
183.701	19.29
183.921	50
184.141	29.52
184.361	39.76
184.58	-21.67
184.8	68.44
185.02	80.72
185.239	23.38
185.459	13.14
185.679	84.82
185.898	0.85
186.118	33.62
186.338	-33.96
186.557	152.4
186.777	43.86
186.997	35.67
187.216	15.19
187.436	76.63
187.655	-9.39
187.875	50
188.095	52.05
188.314	27.48
188.534	54.1
188.753	-48.3
188.973	60.24
189.192	9.05
189.412	54.1
189.631	29.52
189.851	-44.2
190.07	27.48
190.29	56.15
190.509	52.05
190.729	31.57
190.948	43.86
191.168	133.97
191.387	27.48
191.607	113.49
191.826	27.48
192.045	88.92
192.265	60.24
192.484	23.38
192.704	35.67
192.923	-11.43
193.142	88.92
193.362	-13.48
193.581	121.68
193.8	-25.77
194.02	90.96
194.239	19.29
194.458	60.24
194.678	19.29
194.897	60.24
195.116	93.01
195.335	76.63
195.555	68.44
195.774	-5.29
195.993	41.81
196.212	39.76
196.432	-31.91
196.651	45.91
196.87	35.67
197.089	127.83
197.308	-21.67
197.528	47.96
197.747	23.38
197.966	52.05
198.185	70.48
198.404	29.52
198.623	68.44
198.842	60.24
199.062	4.95
199.281	78.68
199.5	-132.26
199.719	35.67
199.938	76.63
200.157	43.86
200.376	109.4
200.595	-27.82
200.814	11.09
201.033	31.57
201.252	-3.24
201.471	2.9
201.69	27.48
201.909	88.92
202.128	27.48
202.347	54.1
202.566	50
202.785	23.38
203.004	-33.96
203.223	78.68
203.442	-3.24
203.661	52.05
203.879	-19.63
204.098	31.57
204.317	37.72
204.536	113.49
204.755	84.82
204.974	37.72
205.193	-11.43
205.411	95.06
205.63	70.48
205.849	76.63
206.068	-62.63
206.287	-5.29
206.505	41.81
206.724	-1.19
206.943	-11.43
207.162	23.38
207.381	-36.01
207.599	52.05
207.818	-19.63
208.037	45.91
208.255	13.14
208.474	-3.24
208.693	-3.24
208.911	76.63
209.13	-1.19
209.349	50
209.567	97.11
209.786	97.11
210.005	66.39
210.223	31.57
210.442	4.95
210.661	68.44
210.879	60.24
211.098	31.57
211.316	35.67
211.535	52.05
211.753	-3.24
211.972	15.19
212.191	23.38
212.409	-19.63
212.628	35.67
212.846	-27.82
213.065	56.15
213.283	27.48
213.502	-31.91
213.72	86.87
213.938	74.58
214.157	35.67
214.375	47.96
214.594	29.52
214.812	23.38
215.031	80.72
215.249	37.72
215.467	76.63
215.686	-7.34
215.904	86.87
216.122	37.72
216.341	64.34
216.559	27.48
216.778	56.15
216.996	50
217.214	43.86
217.432	56.15
217.651	54.1
217.869	76.63
218.087	93.01
218.306	109.4
218.524	2.9
218.742	-42.15
218.96	68.44
219.179	13.14
219.397	78.68
219.615	56.15
219.833	133.97
220.051	-3.24
220.27	54.1
220.488	125.78
220.706	2.9
220.924	19.29
221.142	35.67
221.36	-1.19
221.578	78.68
221.796	-76.97
222.015	19.29
222.233	68.44
222.451	90.96
222.669	-36.01
222.887	62.29
223.105	19.29
223.323	-17.58
223.541	52.05
223.759	23.38
223.977	-9.39
224.195	68.44
224.413	54.1
224.631	142.16
224.849	43.86
225.067	93.01
225.285	2.9
225.503	105.3
225.721	-11.43
225.939	88.92
226.157	72.53
226.375	95.06
226.592	-13.48
226.81	15.19
227.028	62.29
227.246	86.87
227.464	78.68
227.682	82.77
227.9	72.53
228.117	121.68
228.335	99.16
228.553	33.62
228.771	15.19
228.989	27.48
229.206	60.24
229.424	11.09
229.642	29.52
229.86	-5.29
230.077	62.29
230.295	31.57
230.513	95.06
230.731	62.29
230.948	88.92
231.166	64.34
231.384	-5.29
231.601	-15.53
231.819	95.06
232.037	37.72
232.254	-60.59
232.472	23.38
232.689	15.19
232.907	-54.44
233.125	-38.06
233.342	4.95
233.56	-17.58
233.777	21.33
233.995	52.05
234.213	78.68
234.43	52.05
234.648	-1.19
234.865	23.38
235.083	-7.34
235.3	11.09
235.518	70.48
235.735	54.1
235.953	72.53
236.17	11.09
236.388	66.39
236.605	80.72
236.822	-13.48
237.04	29.52
237.257	39.76
237.475	-11.43
237.692	-19.63
237.909	29.52
238.127	43.86
238.344	52.05
238.562	31.57
238.779	25.43
238.996	-13.48
239.214	78.68
239.431	64.34
239.648	45.91
239.865	76.63
240.083	60.24
240.3	21.33
240.517	31.57
240.735	138.07
240.952	58.2
241.169	47.96
241.386	-19.63
241.603	33.62
241.821	-23.72
242.038	86.87
242.255	86.87
242.472	60.24
242.689	58.2
242.907	60.24
243.124	29.52
243.341	37.72
243.558	11.09
243.775	21.33
243.992	-58.54
244.209	-13.48
244.426	80.72
244.643	76.63
244.86	43.86
245.078	27.48
245.295	45.91
245.512	105.3
245.729	21.33
245.946	35.67
246.163	21.33
246.38	21.33
246.597	62.29
246.814	27.48
247.031	-15.53
247.248	31.57
247.464	45.91
247.681	39.76
247.898	35.67
248.115	47.96
248.332	23.38
248.549	86.87
248.766	84.82
248.983	60.24
249.2	13.14
249.417	23.38
249.633	4.95
249.85	52.05
250.067	-36.01
250.284	13.14
250.501	47.96
250.717	2.9
250.934	97.11
251.151	50
251.368	62.29
251.585	21.33
251.801	31.57
252.018	70.48
252.235	13.14
252.451	-31.91
252.668	2.9
252.885	54.1
253.102	66.39
253.318	-13.48
253.535	33.62
253.752	2.9
253.968	76.63
254.185	47.96
254.401	52.05
254.618	33.62
254.835	29.52
255.051	-7.34
255.268	41.81
255.484	45.91
255.701	11.09
255.917	68.44
256.134	4.95
256.351	56.15
256.567	19.29
256.784	27.48
257	-11.43
257.217	-9.39
257.433	64.34
257.65	80.72
257.866	58.2
258.082	21.33
258.299	-29.87
258.515	-46.25
258.732	4.95
258.948	19.29
259.165	35.67
259.381	-38.06
259.597	19.29
259.814	109.4
260.03	95.06
260.246	27.48
260.463	19.29
260.679	95.06
260.895	19.29
261.112	86.87
261.328	41.81
261.544	4.95
261.761	11.09
261.977	-25.77
262.193	41.81
262.409	43.86
262.626	68.44
262.842	27.48
263.058	-5.29
263.274	95.06
263.49	19.29
263.707	2.9
263.923	50
264.139	2.9
264.355	-31.91
264.571	127.83
264.787	78.68
265.004	29.52
265.22	11.09
265.436	119.64
265.652	74.58
265.868	45.91
266.084	11.09
266.3	109.4
266.516	7
266.732	2.9
266.948	35.67
267.164	35.67
267.38	109.4
267.596	64.34
267.812	62.29
268.028	56.15
268.244	31.57
268.46	62.29
268.676	-5.29
268.892	27.48
269.108	7
269.324	-56.49
269.54	-27.82
269.756	54.1
269.972	27.48
270.188	54.1
270.403	-1.19
270.619	84.82
270.835	43.86
271.051	58.2
271.267	23.38
271.483	11.09
271.698	11.09
271.914	47.96
272.13	21.33
272.346	93.01
272.562	-23.72
272.777	58.2
272.993	52.05
273.209	80.72
273.425	-1.19
273.64	27.48
273.856	2.9
274.072	11.09
274.287	7
274.503	47.96
274.719	107.35
274.934	78.68
275.15	-9.39
275.366	-5.29
275.581	-76.97
275.797	-21.67
276.012	15.19
276.228	86.87
276.444	35.67
276.659	70.48
276.875	47.96
277.09	56.15
277.306	-5.29
277.521	37.72
277.737	-46.25
277.952	43.86
278.168	84.82
278.383	56.15
278.599	35.67
278.814	45.91
279.03	62.29
279.245	101.2
279.461	68.44
279.676	80.72
279.892	-60.59
280.107	-5.29
280.322	27.48
280.538	70.48
280.753	-31.91
280.969	-15.53
281.184	70.48
281.399	-13.48
281.615	78.68
281.83	52.05
282.045	-42.15
282.26	-1.19
282.476	52.05
282.691	119.64
282.906	2.9
283.122	62.29
283.337	0.85
283.552	43.86
283.767	19.29
283.983	72.53
284.198	60.24
284.413	101.2
284.628	70.48
284.843	-27.82
285.058	33.62
285.274	-21.67
285.489	27.48
285.704	68.44
285.919	54.1
286.134	45.91
286.349	158.55
286.564	58.2
286.779	37.72
286.995	90.96
287.21	33.62
287.425	68.44
287.64	2.9
287.855	109.4
288.07	35.67
288.285	78.68
288.5	64.34
288.715	95.06
288.93	-13.48
289.145	13.14
289.36	43.86
289.575	78.68
289.79	35.67
290.004	23.38
290.219	119.64
290.434	82.77
290.649	97.11
290.864	-5.29
291.079	56.15
291.294	62.29
291.509	80.72
291.724	43.86
291.938	47.96
292.153	37.72
292.368	0.85
292.583	43.86
292.798	105.3
293.012	80.72
293.227	84.82
293.442	60.24
293.657	68.44
293.871	35.67
294.086	-13.48
294.301	60.24
294.516	-7.34
294.73	15.19
294.945	-15.53
295.16	68.44
295.374	54.1
295.589	121.68
295.804	76.63
296.018	13.14
296.233	39.76
296.447	-17.58
296.662	52.05
296.877	60.24
297.091	76.63
297.306	15.19
297.52	52.05
297.735	-17.58
297.949	66.39
298.164	97.11
298.378	60.24
298.593	37.72
298.807	27.48
299.022	72.53
299.236	25.43
299.451	-40.11
299.665	136.02
299.88	31.57
300.094	-7.34
300.309	17.24
300.523	21.33
300.737	-27.82
300.952	64.34
301.166	150.36
301.381	-46.25
301.595	47.96
301.809	7
302.024	84.82
302.238	29.52
302.452	56.15
302.667	62.29
302.881	90.96
303.095	136.02
303.309	95.06
303.524	31.57
303.738	82.77
303.952	45.91
304.166	7
304.381	-17.58
304.595	68.44
304.809	35.67
305.023	29.52
305.237	41.81
305.452	43.86
305.666	56.15
305.88	93.01
306.094	78.68
306.308	-5.29
306.522	19.29
306.736	-1.19
306.95	88.92
307.164	64.34
307.379	52.05
307.593	90.96
307.807	21.33
308.021	58.2
308.235	23.38
308.449	-3.24
308.663	13.14
308.877	80.72
309.091	56.15
309.305	-3.24
309.519	-62.63
309.733	93.01
309.947	19.29
310.161	54.1
310.374	60.24
310.588	119.64
310.802	11.09
311.016	52.05
311.23	35.67
311.444	101.2
311.658	17.24
311.872	35.67
312.085	93.01
312.299	33.62
312.513	7
312.727	29.52
312.941	-21.67
313.154	88.92
313.368	-27.82
313.582	47.96
313.796	11.09
314.009	52.05
314.223	43.86
314.437	52.05
314.651	43.86
314.864	11.09
315.078	31.57
315.292	27.48
315.505	82.77
315.719	-27.82
315.933	86.87
316.146	78.68
316.36	37.72
316.573	101.2
316.787	93.01
317.001	52.05
317.214	19.29
317.428	60.24
317.641	25.43
317.855	72.53
318.068	33.62
318.282	68.44
318.495	39.76
318.709	43.86
318.922	15.19
319.136	64.34
319.349	90.96
319.563	-3.24
319.776	-13.48
319.99	-5.29
320.203	99.16
320.417	47.96
320.63	27.48
320.843	52.05
321.057	2.9
321.27	31.57
321.483	140.12
321.697	39.76
321.91	-1.19
322.124	15.19
322.337	52.05
322.55	-13.48
322.763	60.24
322.977	43.86
323.19	74.58
323.403	2.9
323.617	39.76
323.83	29.52
324.043	39.76
324.256	125.78
324.469	60.24
324.683	119.64
324.896	19.29
325.109	45.91
325.322	7
325.535	35.67
325.748	41.81
325.962	31.57
326.175	90.96
326.388	68.44
326.601	80.72
326.814	29.52
327.027	-33.96
327.24	142.16
327.453	47.96
327.666	76.63
327.879	111.44
328.092	117.59
328.305	70.48
328.518	-5.29
328.731	52.05
328.944	35.67
329.157	45.91
329.37	31.57
329.583	80.72
329.796	88.92
330.009	13.14
330.222	52.05
330.435	2.9
330.648	101.2
330.861	33.62
331.073	78.68
331.286	56.15
331.499	52.05
331.712	47.96
331.925	13.14
332.138	99.16
332.35	97.11
332.563	39.76
332.776	37.72
332.989	15.19
333.202	68.44
333.414	117.59
333.627	74.58
333.84	82.77
334.053	119.64
334.265	95.06
334.478	-5.29
334.691	80.72
334.903	33.62
335.116	9.05
335.329	4.95
335.541	74.58
335.754	80.72
335.966	70.48
336.179	84.82
336.392	17.24
336.604	21.33
336.817	19.29
337.029	52.05
337.242	76.63
337.454	37.72
337.667	90.96
337.88	78.68
338.092	21.33
338.305	43.86
338.517	-25.77
338.729	52.05
338.942	156.5
339.154	21.33
339.367	-25.77
339.579	52.05
339.792	-7.34
340.004	11.09
340.217	84.82
340.429	80.72
340.641	21.33
340.854	-9.39
341.066	-52.39
341.278	76.63
341.491	121.68
341.703	60.24
341.915	76.63
342.128	68.44
342.34	105.3
342.552	23.38
342.764	39.76
342.977	-33.96
343.189	70.48
343.401	68.44
343.613	-3.24
343.826	45.91
344.038	41.81
344.25	93.01
344.462	78.68
344.674	19.29
344.886	29.52
345.099	93.01
345.311	7
345.523	2.9
345.735	15.19
345.947	29.52
346.159	45.91
346.371	19.29
346.583	86.87
346.795	54.1
347.007	29.52
347.219	-15.53
347.431	45.91
347.643	84.82
347.855	54.1
348.067	45.91
348.279	-13.48
348.491	93.01
348.703	76.63
348.915	19.29
349.127	-38.06
349.339	84.82
349.551	27.48
349.763	47.96
349.975	29.52
350.187	33.62
350.399	72.53
350.61	43.86
350.822	4.95
351.034	68.44
351.246	11.09
351.458	27.48
351.669	37.72
351.881	148.31
352.093	97.11
352.305	78.68
352.517	60.24
352.728	41.81
352.94	60.24
353.152	70.48
353.363	35.67
353.575	54.1
353.787	11.09
353.999	84.82
354.21	11.09
354.422	-15.53
354.633	39.76
354.845	76.63
355.057	11.09
355.268	62.29
355.48	58.2
355.692	41.81
355.903	33.62
356.115	62.29
356.326	19.29
356.538	90.96
356.749	52.05
356.961	103.25
357.172	101.2
357.384	45.91
357.595	142.16
357.807	68.44
358.018	0.85
358.23	111.44
358.441	86.87
358.653	37.72
358.864	-3.24
359.075	50
359.287	144.21
359.498	90.96
359.709	86.87
359.921	27.48
360.132	25.43
360.344	15.19
360.555	54.1
360.766	101.2
360.977	45.91
361.189	47.96
361.4	45.91
361.611	47.96
361.823	84.82
362.034	64.34
362.245	52.05
362.456	-1.19
362.667	80.72
362.879	72.53
363.09	52.05
363.301	117.59
363.512	27.48
363.723	93.01
363.935	95.06
364.146	133.97
364.357	9.05
364.568	109.4
364.779	101.2
364.99	78.68
365.201	35.67
365.412	117.59
365.623	76.63
365.834	76.63
366.045	84.82
366.256	11.09
366.467	95.06
366.678	43.86
366.889	129.88
367.1	21.33
367.311	17.24
367.522	76.63
367.733	-1.19
367.944	62.29
368.155	9.05
368.366	56.15
368.577	101.2
368.788	62.29
368.999	-1.19
369.209	78.68
369.42	164.69
369.631	93.01
369.842	84.82
370.053	43.86
370.264	33.62
370.474	64.34
370.685	68.44
370.896	93.01
371.107	86.87
371.317	39.76
371.528	105.3
371.739	95.06
371.95	90.96
372.16	43.86
372.371	31.57
372.582	43.86
372.792	33.62
373.003	105.3
373.214	76.63
373.424	64.34
373.635	-21.67
373.846	172.88
374.056	35.67
374.267	11.09
374.477	58.2
374.688	93.01
374.898	-1.19
375.109	33.62
375.319	93.01
375.53	115.54
375.74	54.1
375.951	64.34
376.161	43.86
376.372	43.86
376.582	74.58
376.793	25.43
377.003	29.52
377.214	97.11
377.424	97.11
377.635	43.86
377.845	2.9
378.055	121.68
378.266	37.72
378.476	39.76
378.686	88.92
378.897	117.59
379.107	64.34
379.317	84.82
379.528	4.95
379.738	103.25
379.948	45.91
380.158	70.48
380.369	117.59
380.579	125.78
380.789	90.96
380.999	76.63
381.21	56.15
381.42	109.4
381.63	37.72
381.84	72.53
382.05	84.82
382.261	70.48
382.471	119.64
382.681	56.15
382.891	60.24
383.101	2.9
383.311	21.33
383.521	66.39
383.731	129.88
383.941	148.31
384.151	27.48
384.361	68.44
384.571	93.01
384.781	86.87
384.991	78.68
385.201	74.58
385.411	117.59
385.621	97.11
385.831	93.01
386.041	101.2
386.251	52.05
386.461	47.96
386.671	107.35
386.881	76.63
387.091	-3.24
387.301	101.2
387.511	148.31
387.72	95.06
387.93	133.97
388.14	93.01
388.35	170.83
388.56	111.44
388.769	54.1
388.979	136.02
389.189	80.72
389.399	156.5
389.609	84.82
389.818	117.59
390.028	76.63
390.238	74.58
390.447	76.63
390.657	27.48
390.867	52.05
391.076	64.34
391.286	72.53
391.496	62.29
391.705	84.82
391.915	123.73
392.125	131.92
392.334	144.21
392.544	101.2
392.753	97.11
392.963	129.88
393.172	93.01
393.382	142.16
393.591	160.59
393.801	84.82
394.01	76.63
394.22	107.35
394.429	185.17
394.639	111.44
394.848	113.49
395.058	80.72
395.267	97.11
395.477	103.25
395.686	99.16
395.895	148.31
396.105	136.02
396.314	66.39
396.524	115.54
396.733	76.63
396.942	205.65
397.152	119.64
397.361	84.82
397.57	84.82
397.78	162.64
397.989	162.64
398.198	150.36
398.407	107.35
398.617	84.82
398.826	101.2
399.035	117.59
399.244	121.68
399.453	121.68
399.663	115.54
399.872	144.21
400.081	136.02
400.29	213.84
400.499	127.83
400.708	162.64
400.917	166.74
401.127	154.45
401.336	70.48
401.545	129.88
401.754	207.7
401.963	129.88
402.172	105.3
402.381	103.25
402.59	176.98
402.799	187.22
403.008	176.98
403.217	168.79
403.426	174.93
403.635	95.06
403.844	187.22
404.053	168.79
404.262	158.55
404.471	209.75
404.68	232.27
404.888	219.99
405.097	127.83
405.306	176.98
405.515	191.31
405.724	183.12
405.933	199.51
406.142	150.36
406.35	236.37
406.559	232.27
406.768	195.41
406.977	242.51
407.185	324.43
407.394	260.95
407.603	236.37
407.812	330.58
408.02	297.81
408.229	236.37
408.438	252.75
408.646	297.81
408.855	281.43
409.064	373.58
409.272	338.77
409.481	428.88
409.69	336.72
409.898	330.58
410.107	430.93
410.315	363.34
410.524	430.93
410.733	486.22
410.941	396.11
411.15	441.17
411.358	572.24
411.567	576.33
411.775	478.03
411.984	537.42
412.192	586.57
412.401	611.15
412.609	607.05
412.818	676.68
413.026	643.92
413.234	670.54
413.443	713.55
413.651	682.83
413.86	693.07
414.068	801.61
414.276	846.66
414.485	947.01
414.693	846.66
414.901	940.87
415.11	846.66
415.318	920.39
415.526	1014.6
415.734	1004.36
415.943	1035.08
416.151	1110.85
416.359	1082.18
416.567	1080.13
416.776	1145.67
416.984	1174.34
417.192	1256.26
417.4	1217.35
417.608	1280.83
417.817	1291.07
418.025	1459.01
418.233	1487.68
418.441	1442.62
418.649	1465.15
418.857	1610.56
419.065	1735.48
419.273	1667.9
419.481	1841.98
419.689	1942.33
419.897	2089.78
420.105	1964.86
420.313	2028.34
420.521	2052.92
420.729	2120.5
420.937	2263.86
421.145	2255.67
421.353	2329.39
421.561	2536.24
421.769	2591.53
421.977	2632.49
422.185	2517.81
422.393	2698.03
422.601	2941.74
422.809	2970.41
423.017	2935.59
423.224	2986.79
423.432	3066.66
423.64	3156.77
423.848	3574.56
424.056	3414.82
424.263	3640.09
424.471	3775.26
424.679	3805.98
424.887	3967.77
425.094	4115.22
425.302	4152.09
425.51	4317.97
425.718	4320.02
425.925	4557.58
426.133	4637.45
426.341	4838.16
426.548	5057.29
426.756	4883.21
426.964	5081.86
427.171	5290.76
427.379	5341.96
427.586	5663.49
427.794	5714.69
428.001	6116.09
428.209	6357.75
428.417	6228.73
428.624	6712.05
428.832	6691.57
429.039	6673.14
429.247	6642.42
429.454	7324.39
429.662	7746.27
429.869	7346.92
430.076	7787.23
430.284	7535.33
430.491	7936.73
430.699	8170.2
430.906	8284.89
431.114	8481.49
431.321	8866.51
431.528	8841.93
431.736	9431.75
431.943	10029.76
432.15	9462.47
432.358	9702.08
432.565	10144.44
432.772	10498.74
432.979	10640.05
433.187	10914.48
433.394	11082.41
433.601	11709.09
433.808	11954.85
434.016	11616.93
434.223	12212.89
434.43	12743.31
434.637	12634.77
434.844	13544.07
435.052	13578.89
435.259	13613.7
435.466	13707.91
435.673	13748.87
435.88	14523
436.087	15241.84
436.294	15129.2
436.501	14871.15
436.708	15075.95
436.915	15723.11
437.122	16360.03
437.329	16468.57
437.537	17162.83
437.743	17078.86
437.95	17199.69
438.157	17926.72
438.364	18444.86
438.571	18207.3
438.778	18500.16
438.985	20339.23
439.192	19319.34
439.399	20245.02
439.606	19720.74
439.813	20838.94
440.02	22112.77
440.227	21525
440.433	21101.08
440.64	22061.57
440.847	21932.55
441.054	22696.44
441.261	24060.39
441.467	23671.28
441.674	24418.78
441.881	25221.59
442.088	24838.62
442.294	24695.26
442.501	25256.4
442.708	25866.7
442.914	26929.59
443.121	27988.39
443.328	27457.97
443.534	29127.06
443.741	28273.06
443.948	27937.2
444.154	29882.77
444.361	29933.96
444.568	30048.65
444.774	30003.6
444.981	30169.48
445.187	30865.79
445.394	32528.74
445.6	32031.08
445.807	35139.9
446.013	33612.12
446.22	33962.32
446.426	35748.15
446.633	35844.4
446.839	36815.14
447.046	35424.57
447.252	37527.83
447.459	37091.62
447.665	37452.06
447.871	38949.12
448.078	40360.17
448.284	38713.61
448.491	40034.55
448.697	41103.59
448.903	42371.28
449.11	42275.02
449.316	41287.9
449.522	42016.98
449.728	43026.63
449.935	43364.54
450.141	43518.14
450.347	44617.9
450.553	42895.56
450.76	43600.06
450.966	45357.22
451.172	44570.8
451.378	45578.4
451.584	44798.12
451.791	45883.55
451.997	45727.9
452.203	46104.73
452.409	46235.8
452.615	46227.6
452.821	44046.52
453.027	44032.18
453.233	46364.82
453.44	44314.8
453.646	45203.62
453.852	45144.23
454.058	46020.76
454.264	44308.66
454.47	45230.24
454.676	44191.92
454.882	45613.21
455.088	41701.59
455.294	42520.78
455.5	43681.98
455.705	43962.55
455.911	41924.82
456.117	41177.31
456.323	40818.92
456.529	38508.81
456.735	40358.13
456.941	39411.96
457.147	38590.73
457.352	37671.19
457.558	37134.62
457.764	37204.25
457.97	36489.51
458.176	35842.35
458.381	36043.06
458.587	34052.43
458.793	33700.18
458.999	32504.17
459.204	34625.86
459.41	33280.35
459.616	31373.69
459.821	31449.46
460.027	31660.4
460.233	30583.17
460.438	29215.13
460.644	29655.44
460.85	28481.95
461.055	27589.04
461.261	27478.45
461.466	25584.08
461.672	24850.91
461.878	26462.66
462.083	24893.91
462.289	24472.03
462.494	24170.98
462.7	23427.57
462.905	22612.48
463.111	22948.34
463.316	23509.49
463.522	22784.51
463.727	22749.69
463.932	23157.24
464.138	22313.47
464.343	22825.47
464.549	21920.26
464.754	22839.8
464.959	22610.43
465.165	22415.87
465.37	21490.19
465.575	20791.83
465.781	21748.23
465.986	21869.06
466.191	20859.42
466.397	20828.7
466.602	19532.33
466.807	20550.17
467.012	20484.64
467.218	20154.91
