Data from USB4F104151__40__14-16-44-327.txt Node

Date: Thu Mar 13 14:16:44 EDT 2025
User: louis
Spectrometer: USB4F10415
Trigger mode: 4
Integration Time (sec): 2.000000E-2
Scans to average: 1
Electric dark correction enabled: true
Nonlinearity correction enabled: false
Boxcar width: 0
XAxis mode: Wavelengths
Number of Pixels in Spectrum: 3648
>>>>>Begin Spectral Data<<<<<
178.204	-44.37
178.424	-44.37
178.644	-44.37
178.864	-83.28
179.084	-111.96
179.304	6.83
179.524	45.74
179.744	-5.46
179.964	-3.41
180.184	-32.08
180.404	76.46
180.624	64.17
180.844	19.11
181.064	-40.28
181.283	2.73
181.503	-101.72
181.723	-32.08
181.943	-111.96
182.163	-40.28
182.383	-34.13
182.602	-17.75
182.822	8.87
183.042	39.59
183.262	35.5
183.482	-34.13
183.701	35.5
183.921	-30.04
184.141	19.11
184.361	72.36
184.58	31.4
184.8	72.36
185.02	8.87
185.239	0.68
185.459	39.59
185.679	6.83
185.898	-58.71
186.118	41.64
186.338	27.31
186.557	43.69
186.777	-25.94
186.997	-9.56
187.216	-36.18
187.436	58.03
187.655	0.68
187.875	55.98
188.095	10.92
188.314	60.07
188.534	82.6
188.753	23.21
188.973	39.59
189.192	10.92
189.412	17.07
189.631	23.21
189.851	8.87
190.07	92.84
190.29	33.45
190.509	-23.89
190.729	27.31
190.948	70.31
191.168	144.04
191.387	51.88
191.607	-15.7
191.826	-1.37
192.045	78.51
192.265	-17.75
192.484	23.21
192.704	-32.08
192.923	-13.65
193.142	64.17
193.362	49.83
193.581	70.31
193.8	23.21
194.02	58.03
194.239	37.55
194.458	-52.56
194.678	-81.24
194.897	25.26
195.116	23.21
195.335	19.11
195.555	31.4
195.774	2.73
195.993	-23.89
196.212	-21.85
196.432	23.21
196.651	27.31
196.87	74.41
197.089	39.59
197.308	12.97
197.528	47.79
197.747	-23.89
197.966	55.98
198.185	88.75
198.404	-1.37
198.623	113.32
198.842	-1.37
199.062	19.11
199.281	8.87
199.5	-1.37
199.719	21.16
199.938	84.65
200.157	43.69
200.376	-5.46
200.595	76.46
200.814	33.45
201.033	-9.56
201.252	27.31
201.471	15.02
201.69	60.07
201.909	27.31
202.128	66.22
202.347	47.79
202.566	60.07
202.785	-46.42
203.004	-23.89
203.223	55.98
203.442	105.13
203.661	4.78
203.879	0.68
204.098	10.92
204.317	-5.46
204.536	62.12
204.755	19.11
204.974	43.69
205.193	64.17
205.411	107.18
205.63	72.36
205.849	66.22
206.068	-25.94
206.287	37.55
206.505	15.02
206.724	66.22
206.943	25.26
207.162	117.42
207.381	35.5
207.599	51.88
207.818	0.68
208.037	64.17
208.255	-79.19
208.474	64.17
208.693	10.92
208.911	-21.85
209.13	15.02
209.349	8.87
209.567	15.02
209.786	33.45
210.005	43.69
210.223	-5.46
210.442	31.4
210.661	-48.47
210.879	-25.94
211.098	35.5
211.316	27.31
211.535	84.65
211.753	29.35
211.972	17.07
212.191	-32.08
212.409	55.98
212.628	39.59
212.846	-11.61
213.065	-1.37
213.283	15.02
213.502	37.55
213.72	21.16
213.938	33.45
214.157	-5.46
214.375	43.69
214.594	55.98
214.812	23.21
215.031	35.5
215.249	-7.51
215.467	-21.85
215.686	0.68
215.904	31.4
216.122	-54.61
216.341	51.88
216.559	-19.8
216.778	105.13
216.996	131.75
217.214	39.59
217.432	72.36
217.651	47.79
217.869	4.78
218.087	10.92
218.306	12.97
218.524	39.59
218.742	-23.89
218.96	23.21
219.179	-58.71
219.397	-38.23
219.615	96.94
219.833	64.17
220.051	0.68
220.27	27.31
220.488	37.55
220.706	23.21
220.924	31.4
221.142	33.45
221.36	-25.94
221.578	41.64
221.796	23.21
222.015	39.59
222.233	29.35
222.451	49.83
222.669	6.83
222.887	78.51
223.105	-17.75
223.323	31.4
223.541	-34.13
223.759	4.78
223.977	17.07
224.195	131.75
224.413	55.98
224.631	2.73
224.849	-7.51
225.067	101.03
225.285	-25.94
225.503	33.45
225.721	0.68
225.939	-7.51
226.157	33.45
226.375	76.46
226.592	-58.71
226.81	-1.37
227.028	21.16
227.246	-5.46
227.464	31.4
227.682	31.4
227.9	21.16
228.117	12.97
228.335	10.92
228.553	-15.7
228.771	10.92
228.989	15.02
229.206	80.55
229.424	15.02
229.642	8.87
229.86	70.31
230.077	35.5
230.295	66.22
230.513	-1.37
230.731	-1.37
230.948	-9.56
231.166	88.75
231.384	53.93
231.601	-13.65
231.819	94.89
232.037	-54.61
232.254	-1.37
232.472	90.79
232.689	-25.94
232.907	29.35
233.125	-5.46
233.342	55.98
233.56	-48.47
233.777	23.21
233.995	31.4
234.213	55.98
234.43	68.27
234.648	-64.85
234.865	78.51
235.083	51.88
235.3	55.98
235.518	-1.37
235.735	68.27
235.953	51.88
236.17	-17.75
236.388	37.55
236.605	0.68
236.822	33.45
237.04	70.31
237.257	39.59
237.475	27.31
237.692	64.17
237.909	21.16
238.127	-13.65
238.344	33.45
238.562	-15.7
238.779	-75.09
238.996	-34.13
239.214	0.68
239.431	43.69
239.648	31.4
239.865	23.21
240.083	72.36
240.3	33.45
240.517	23.21
240.735	23.21
240.952	-1.37
241.169	-13.65
241.386	33.45
241.603	25.26
241.821	2.73
242.038	-23.89
242.255	127.66
242.472	-1.37
242.689	64.17
242.907	37.55
243.124	-48.47
243.341	-9.56
243.558	-15.7
243.775	17.07
243.992	-17.75
244.209	109.22
244.426	35.5
244.643	64.17
244.86	-9.56
245.078	12.97
245.295	80.55
245.512	55.98
245.729	66.22
245.946	2.73
246.163	129.7
246.38	6.83
246.597	74.41
246.814	70.31
247.031	-32.08
247.248	-5.46
247.464	39.59
247.681	31.4
247.898	64.17
248.115	90.79
248.332	6.83
248.549	53.93
248.766	74.41
248.983	23.21
249.2	86.7
249.417	82.6
249.633	41.64
249.85	72.36
250.067	-50.52
250.284	15.02
250.501	35.5
250.717	84.65
250.934	-25.94
251.151	-5.46
251.368	-9.56
251.585	98.99
251.801	15.02
252.018	25.26
252.235	80.55
252.451	-3.41
252.668	-1.37
252.885	92.84
253.102	41.64
253.318	64.17
253.535	15.02
253.752	78.51
253.968	0.68
254.185	-40.28
254.401	47.79
254.618	-3.41
254.835	88.75
255.051	49.83
255.268	15.02
255.484	-30.04
255.701	15.02
255.917	33.45
256.134	-5.46
256.351	19.11
256.567	-32.08
256.784	35.5
257	6.83
257.217	35.5
257.433	98.99
257.65	-25.94
257.866	70.31
258.082	31.4
258.299	-5.46
258.515	64.17
258.732	-13.65
258.948	0.68
259.165	76.46
259.381	58.03
259.597	-52.56
259.814	55.98
260.03	17.07
260.246	31.4
260.463	64.17
260.679	82.6
260.895	35.5
261.112	8.87
261.328	31.4
261.544	92.84
261.761	47.79
261.977	-9.56
262.193	-17.75
262.409	17.07
262.626	55.98
262.842	64.17
263.058	51.88
263.274	82.6
263.49	17.07
263.707	58.03
263.923	15.02
264.139	-1.37
264.355	86.7
264.571	58.03
264.787	66.22
265.004	74.41
265.22	6.83
265.436	-9.56
265.652	-11.61
265.868	96.94
266.084	41.64
266.3	117.42
266.516	27.31
266.732	-62.8
266.948	-13.65
267.164	15.02
267.38	25.26
267.596	43.69
267.812	19.11
268.028	49.83
268.244	6.83
268.46	66.22
268.676	0.68
268.892	15.02
269.108	33.45
269.324	23.21
269.54	2.73
269.756	62.12
269.972	-36.18
270.188	19.11
270.403	66.22
270.619	47.79
270.835	47.79
271.051	90.79
271.267	25.26
271.483	-1.37
271.698	-5.46
271.914	72.36
272.13	70.31
272.346	58.03
272.562	39.59
272.777	64.17
272.993	-15.7
273.209	-9.56
273.425	78.51
273.64	-17.75
273.856	43.69
274.072	-32.08
274.287	82.6
274.503	4.78
274.719	64.17
274.934	19.11
275.15	23.21
275.366	33.45
275.581	-56.66
275.797	125.61
276.012	58.03
276.228	49.83
276.444	6.83
276.659	80.55
276.875	-46.42
277.09	-3.41
277.306	31.4
277.521	49.83
277.737	31.4
277.952	51.88
278.168	-7.51
278.383	17.07
278.599	82.6
278.814	66.22
279.03	10.92
279.245	45.74
279.461	60.07
279.676	39.59
279.892	15.02
280.107	-1.37
280.322	4.78
280.538	31.4
280.753	8.87
280.969	88.75
281.184	-66.9
281.399	15.02
281.615	0.68
281.83	84.65
282.045	-9.56
282.26	0.68
282.476	31.4
282.691	55.98
282.906	35.5
283.122	-1.37
283.337	-17.75
283.552	80.55
283.767	45.74
283.983	62.12
284.198	6.83
284.413	96.94
284.628	-5.46
284.843	-3.41
285.058	10.92
285.274	41.64
285.489	49.83
285.704	64.17
285.919	80.55
286.134	-5.46
286.349	39.59
286.564	-36.18
286.779	27.31
286.995	62.12
287.21	-9.56
287.425	86.7
287.64	72.36
287.855	55.98
288.07	-9.56
288.285	68.27
288.5	39.59
288.715	72.36
288.93	55.98
289.145	-15.7
289.36	35.5
289.575	23.21
289.79	15.02
290.004	31.4
290.219	37.55
290.434	10.92
290.649	4.78
290.864	-38.23
291.079	-19.8
291.294	35.5
291.509	72.36
291.724	64.17
291.938	31.4
292.153	72.36
292.368	6.83
292.583	37.55
292.798	8.87
293.012	-1.37
293.227	4.78
293.442	-32.08
293.657	-5.46
293.871	72.36
294.086	72.36
294.301	33.45
294.516	12.97
294.73	33.45
294.945	-13.65
295.16	6.83
295.374	90.79
295.589	68.27
295.804	35.5
296.018	8.87
296.233	-3.41
296.447	19.11
296.662	101.03
296.877	21.16
297.091	-1.37
297.306	6.83
297.52	-25.94
297.735	55.98
297.949	-9.56
298.164	43.69
298.378	47.79
298.593	15.02
298.807	15.02
299.022	15.02
299.236	107.18
299.451	0.68
299.665	-23.89
299.88	37.55
300.094	-9.56
300.309	-50.52
300.523	-9.56
300.737	-25.94
300.952	23.21
301.166	101.03
301.381	82.6
301.595	76.46
301.809	21.16
302.024	94.89
302.238	6.83
302.452	25.26
302.667	15.02
302.881	53.93
303.095	45.74
303.309	-48.47
303.524	39.59
303.738	35.5
303.952	-7.51
304.166	17.07
304.381	-1.37
304.595	25.26
304.809	-56.66
305.023	25.26
305.237	96.94
305.452	84.65
305.666	135.85
305.88	64.17
306.094	43.69
306.308	98.99
306.522	74.41
306.736	64.17
306.95	72.36
307.164	25.26
307.379	-50.52
307.593	8.87
307.807	76.46
308.021	6.83
308.235	15.02
308.449	-25.94
308.663	84.65
308.877	74.41
309.091	47.79
309.305	60.07
309.519	-87.38
309.733	109.22
309.947	39.59
310.161	64.17
310.374	-17.75
310.588	15.02
310.802	80.55
311.016	64.17
311.23	80.55
311.444	15.02
311.658	-15.7
311.872	33.45
312.085	64.17
312.299	80.55
312.513	47.79
312.727	19.11
312.941	-48.47
313.154	107.18
313.368	31.4
313.582	68.27
313.796	6.83
314.009	64.17
314.223	-25.94
314.437	2.73
314.651	60.07
314.864	76.46
315.078	2.73
315.292	17.07
315.505	35.5
315.719	17.07
315.933	25.26
316.146	72.36
316.36	0.68
316.573	-1.37
316.787	49.83
317.001	2.73
317.214	51.88
317.428	47.79
317.641	10.92
317.855	49.83
318.068	15.02
318.282	17.07
318.495	72.36
318.709	80.55
318.922	-25.94
319.136	92.84
319.349	72.36
319.563	6.83
319.776	4.78
319.99	-34.13
320.203	2.73
320.417	60.07
320.63	74.41
320.843	-3.41
321.057	-30.04
321.27	-23.89
321.483	51.88
321.697	76.46
321.91	51.88
322.124	0.68
322.337	-15.7
322.55	64.17
322.763	107.18
322.977	31.4
323.19	-25.94
323.403	-25.94
323.617	82.6
323.83	72.36
324.043	80.55
324.256	12.97
324.469	45.74
324.683	35.5
324.896	43.69
325.109	15.02
325.322	41.64
325.535	49.83
325.748	47.79
325.962	55.98
326.175	15.02
326.388	41.64
326.601	25.26
326.814	-17.75
327.027	-19.8
327.24	131.75
327.453	-54.61
327.666	-36.18
327.879	58.03
328.092	35.5
328.305	74.41
328.518	80.55
328.731	33.45
328.944	58.03
329.157	41.64
329.37	-5.46
329.583	80.55
329.796	105.13
330.009	49.83
330.222	37.55
330.435	-1.37
330.648	115.37
330.861	105.13
331.073	39.59
331.286	58.03
331.499	92.84
331.712	2.73
331.925	-40.28
332.138	64.17
332.35	88.75
332.563	49.83
332.776	68.27
332.989	19.11
333.202	105.13
333.414	139.94
333.627	64.17
333.84	-9.56
334.053	47.79
334.265	66.22
334.478	15.02
334.691	15.02
334.903	-34.13
335.116	-99.67
335.329	80.55
335.541	96.94
335.754	113.32
335.966	-5.46
336.179	55.98
336.392	35.5
336.604	31.4
336.817	-15.7
337.029	74.41
337.242	62.12
337.454	64.17
337.667	23.21
337.88	-11.61
338.092	55.98
338.305	88.75
338.517	41.64
338.729	-23.89
338.942	43.69
339.154	15.02
339.367	23.21
339.579	60.07
339.792	82.6
340.004	39.59
340.217	23.21
340.429	17.07
340.641	51.88
340.854	35.5
341.066	27.31
341.278	101.03
341.491	68.27
341.703	39.59
341.915	-58.71
342.128	15.02
342.34	12.97
342.552	55.98
342.764	55.98
342.977	82.6
343.189	60.07
343.401	107.18
343.613	10.92
343.826	98.99
344.038	47.79
344.25	88.75
344.462	-5.46
344.674	103.08
344.886	-9.56
345.099	80.55
345.311	-52.56
345.523	66.22
345.735	8.87
345.947	25.26
346.159	49.83
346.371	0.68
346.583	27.31
346.795	66.22
347.007	-21.85
347.219	35.5
347.431	23.21
347.643	119.46
347.855	-34.13
348.067	39.59
348.279	17.07
348.491	121.51
348.703	64.17
348.915	19.11
349.127	29.35
349.339	-1.37
349.551	47.79
349.763	70.31
349.975	27.31
350.187	105.13
350.399	15.02
350.61	58.03
350.822	2.73
351.034	41.64
351.246	33.45
351.458	43.69
351.669	47.79
351.881	55.98
352.093	55.98
352.305	101.03
352.517	-42.32
352.728	66.22
352.94	51.88
353.152	98.99
353.363	78.51
353.575	21.16
353.787	129.7
353.999	47.79
354.21	105.13
354.422	62.12
354.633	82.6
354.845	64.17
355.057	-7.51
355.268	90.79
355.48	17.07
355.692	25.26
355.903	101.03
356.115	66.22
356.326	-52.56
356.538	115.37
356.749	68.27
356.961	84.65
357.172	29.35
357.384	39.59
357.595	113.32
357.807	19.11
358.018	53.93
358.23	6.83
358.441	45.74
358.653	74.41
358.864	15.02
359.075	8.87
359.287	2.73
359.498	109.22
359.709	58.03
359.921	0.68
360.132	55.98
360.344	37.55
360.555	78.51
360.766	39.59
360.977	-17.75
361.189	35.5
361.4	33.45
361.611	90.79
361.823	60.07
362.034	64.17
362.245	19.11
362.456	107.18
362.667	105.13
362.879	49.83
363.09	64.17
363.301	82.6
363.512	64.17
363.723	98.99
363.935	21.16
364.146	129.7
364.357	88.75
364.568	-9.56
364.779	-3.41
364.99	58.03
365.201	-34.13
365.412	17.07
365.623	35.5
365.834	43.69
366.045	17.07
366.256	96.94
366.467	107.18
366.678	33.45
366.889	55.98
367.1	47.79
367.311	43.69
367.522	68.27
367.733	39.59
367.944	72.36
368.155	53.93
368.366	58.03
368.577	64.17
368.788	47.79
368.999	-32.08
369.209	66.22
369.42	76.46
369.631	141.99
369.842	29.35
370.053	35.5
370.264	6.83
370.474	92.84
370.685	43.69
370.896	35.5
371.107	148.14
371.317	84.65
371.528	35.5
371.739	23.21
371.95	43.69
372.16	72.36
372.371	72.36
372.582	-17.75
372.792	101.03
373.003	86.7
373.214	-3.41
373.424	111.27
373.635	74.41
373.846	49.83
374.056	23.21
374.267	39.59
374.477	15.02
374.688	86.7
374.898	72.36
375.109	15.02
375.319	84.65
375.53	115.37
375.74	84.65
375.951	64.17
376.161	88.75
376.372	146.09
376.582	58.03
376.793	64.17
377.003	-32.08
377.214	6.83
377.424	23.21
377.635	129.7
377.845	88.75
378.055	43.69
378.266	27.31
378.476	55.98
378.686	23.21
378.897	103.08
379.107	-1.37
379.317	6.83
379.528	55.98
379.738	82.6
379.948	15.02
380.158	58.03
380.369	17.07
380.579	49.83
380.789	84.65
380.999	96.94
381.21	-9.56
381.42	72.36
381.63	15.02
381.84	6.83
382.05	94.89
382.261	-9.56
382.471	27.31
382.681	35.5
382.891	66.22
383.101	2.73
383.311	2.73
383.521	39.59
383.731	121.51
383.941	101.03
384.151	55.98
384.361	80.55
384.571	25.26
384.781	2.73
384.991	43.69
385.201	137.9
385.411	129.7
385.621	70.31
385.831	27.31
386.041	66.22
386.251	27.31
386.461	121.51
386.671	88.75
386.881	107.18
387.091	-60.76
387.301	72.36
387.511	33.45
387.72	17.07
387.93	133.8
388.14	31.4
388.35	27.31
388.56	135.85
388.769	94.89
388.979	66.22
389.189	47.79
389.399	35.5
389.609	2.73
389.818	133.8
390.028	76.46
390.238	17.07
390.447	27.31
390.657	72.36
390.867	35.5
391.076	-34.13
391.286	41.64
391.496	-9.56
391.705	84.65
391.915	103.08
392.125	111.27
392.334	135.85
392.544	187.05
392.753	55.98
392.963	-13.65
393.172	17.07
393.382	15.02
393.591	74.41
393.801	39.59
394.01	115.37
394.22	129.7
394.429	74.41
394.639	82.6
394.848	19.11
395.058	96.94
395.267	150.18
395.477	78.51
395.686	117.42
395.895	72.36
396.105	121.51
396.314	72.36
396.524	70.31
396.733	80.55
396.942	141.99
397.152	66.22
397.361	117.42
397.57	107.18
397.78	133.8
397.989	146.09
398.198	215.72
398.407	58.03
398.617	105.13
398.826	170.66
399.035	96.94
399.244	166.57
399.453	98.99
399.663	119.46
399.872	146.09
400.081	121.51
400.29	146.09
400.499	135.85
400.708	51.88
400.917	47.79
401.127	66.22
401.336	107.18
401.545	141.99
401.754	146.09
401.963	166.57
402.172	58.03
402.381	154.28
402.59	141.99
402.799	146.09
403.008	211.62
403.217	187.05
403.426	180.9
403.635	182.95
403.844	174.76
404.053	144.04
404.262	178.86
404.471	164.52
404.68	180.9
404.888	154.28
405.097	228.01
405.306	174.76
405.515	205.48
405.724	193.19
405.933	201.38
406.142	240.29
406.35	252.58
406.559	240.29
406.768	205.48
406.977	232.1
407.185	170.66
407.394	262.82
407.603	213.67
407.812	275.11
408.02	262.82
408.229	244.39
408.438	211.62
408.646	301.73
408.855	277.16
409.064	256.68
409.272	234.15
409.481	383.65
409.69	289.45
409.898	330.41
410.107	422.56
410.315	350.89
410.524	367.27
410.733	395.94
410.941	377.51
411.15	481.96
411.358	420.52
411.567	494.24
411.775	486.05
411.984	533.15
412.192	490.15
412.401	475.81
412.609	490.15
412.818	625.31
413.026	596.64
413.234	647.84
413.443	563.87
413.651	629.41
413.86	653.98
414.068	664.22
414.276	684.7
414.485	737.95
414.693	744.1
414.901	871.07
415.11	889.5
415.318	821.92
415.526	909.98
415.734	836.25
415.943	967.32
416.151	1102.49
416.359	957.08
416.567	1055.39
416.776	996
416.984	1114.78
417.192	1067.67
417.4	1178.26
417.608	1145.5
417.817	1161.88
418.025	1262.23
418.233	1350.29
418.441	1338.01
418.649	1411.73
418.857	1393.3
419.065	1563.28
419.273	1571.47
419.481	1589.91
419.689	1694.35
419.897	1708.69
420.105	1786.51
420.313	1821.33
420.521	1882.77
420.729	1890.96
420.937	2108.04
421.145	2093.71
421.353	2198.15
421.561	2267.78
421.769	2228.87
421.977	2378.37
422.185	2275.98
422.393	2579.08
422.601	2685.57
422.809	2654.85
423.017	2777.73
423.224	2783.87
423.432	2964.09
423.64	3029.63
423.848	3218.04
424.056	3105.4
424.263	3422.84
424.471	3390.07
424.679	3416.69
424.887	3570.29
425.094	3627.64
425.302	3742.32
425.51	3787.38
425.718	4072.04
425.925	3992.17
426.133	4225.64
426.341	4520.55
426.548	4602.47
426.756	4590.18
426.964	4610.66
427.171	4883.04
427.379	5014.11
427.586	5022.3
427.794	5530.2
428.001	5622.36
428.209	5945.94
428.417	5778
428.624	6191.69
428.832	6140.49
429.039	6029.9
429.247	6126.16
429.454	6683.2
429.662	7105.09
429.869	6650.44
430.076	7213.63
430.284	6896.19
430.491	7027.26
430.699	7375.42
430.906	7643.7
431.114	7649.85
431.321	8112.69
431.528	8350.25
431.736	8673.83
431.943	8888.87
432.15	8708.65
432.358	8878.63
432.565	9302.56
432.772	9275.93
432.979	9812.5
433.187	10015.25
433.394	9955.86
433.601	10697.22
433.808	10848.77
434.016	10566.15
434.223	11166.21
434.43	11700.73
434.637	11495.93
434.844	12433.9
435.052	12601.83
435.259	12317.17
435.466	12380.65
435.673	12327.41
435.88	13140.45
436.087	13816.28
436.294	13730.27
436.501	13568.48
436.708	13890.01
436.915	14387.66
437.122	14918.09
437.329	14918.09
437.537	15374.78
437.743	15874.49
437.95	15479.23
438.157	16220.6
438.364	16669.1
438.571	16574.89
438.778	16751.02
438.985	18426.26
439.192	17598.88
439.399	18338.19
439.606	17619.36
439.813	18710.93
440.02	20099.45
440.227	19392.9
440.433	19495.3
440.64	20240.76
440.847	19870.08
441.054	20402.55
441.261	21844.32
441.467	21277.03
441.674	22104.41
441.881	22563.15
442.088	22772.05
442.294	22544.72
442.501	23320.9
442.708	23505.22
442.914	24082.75
443.121	25192.75
443.328	24635.7
443.534	26587.41
443.741	25608.48
443.948	25293.1
444.154	27465.99
444.361	26777.87
444.568	27343.11
444.774	27302.15
444.981	27515.14
445.187	27914.5
445.394	29808.87
445.6	29409.51
445.807	32198.85
446.013	30271.71
446.22	31432.91
446.426	32534.71
446.633	32458.94
446.839	33421.48
447.046	32147.65
447.252	34279.58
447.459	34545.82
447.665	33765.54
447.871	35641.48
448.078	37177.46
448.284	35283.09
448.491	36040.84
448.697	37488.75
448.903	37992.55
449.11	38336.61
449.316	37597.29
449.522	38557.79
449.728	39460.94
449.935	39747.66
450.141	39784.52
450.347	40343.62
450.553	39073.88
450.76	39542.86
450.966	41023.54
451.172	40648.77
451.378	42004.52
451.584	41125.94
451.791	41773.1
451.997	41670.7
452.203	42711.07
452.409	42156.07
452.615	42088.49
452.821	40747.07
453.027	40104.01
453.233	42371.11
453.44	40800.32
453.646	41166.9
453.852	41447.47
454.058	42387.49
454.264	40611.9
454.47	41426.99
454.676	40663.1
454.882	42098.73
455.088	38420.58
455.294	38811.74
455.5	39764.04
455.705	40058.95
455.911	38709.34
456.117	37490.8
456.323	37335.15
456.529	35274.9
456.735	37427.31
456.941	35924.1
457.147	35543.18
457.352	33968.29
457.558	34109.6
457.764	33775.78
457.97	33175.73
458.176	32665.78
458.381	32886.96
458.587	31221.97
458.793	31006.93
458.999	29544.68
459.204	31860.93
459.41	30494.94
459.616	28530.94
459.821	28786.93
460.027	28772.6
460.233	28145.92
460.438	26558.74
460.644	26765.59
460.85	25598.24
461.055	25641.25
461.261	25207.08
461.466	23574.85
461.672	22755.66
461.878	24510.77
462.083	22845.77
462.289	22274.39
462.494	22276.44
462.7	21135.72
462.905	20310.39
463.111	21213.54
463.316	21365.09
463.522	20762.99
463.727	20928.88
463.932	20926.83
464.138	20566.38
464.343	20609.39
464.549	19954.04
464.754	20963.69
464.959	20654.45
465.165	20627.82
465.37	19786.11
465.575	18913.67
465.781	19818.88
465.986	19890.56
466.191	18792.84
466.397	18823.56
466.602	17799.58
466.807	18702.73
467.012	18729.36
467.218	18608.53
467.423	18127.25
