Data from USB4F104151__182__14-20-13-372.txt Node

Date: Thu Mar 13 14:20:13 EDT 2025
User: louis
Spectrometer: USB4F10415
Trigger mode: 4
Integration Time (sec): 2.000000E-2
Scans to average: 1
Electric dark correction enabled: true
Nonlinearity correction enabled: false
Boxcar width: 0
XAxis mode: Wavelengths
Number of Pixels in Spectrum: 3648
>>>>>Begin Spectral Data<<<<<
178.204	-145.92
178.424	-145.92
178.644	-145.92
178.864	-168.45
179.084	-100.86
179.304	-12.8
179.524	3.58
179.744	11.78
179.964	44.54
180.184	-31.23
180.404	-43.52
180.624	-29.18
180.844	19.97
181.064	-20.99
181.283	-8.7
181.503	26.11
181.723	40.45
181.943	-41.47
182.163	67.07
182.383	-16.9
182.602	52.74
182.822	42.5
183.042	60.93
183.262	-41.47
183.482	52.74
183.701	44.54
183.921	-82.43
184.141	-18.94
184.361	81.41
184.58	-31.23
184.8	-8.7
185.02	11.78
185.239	-33.28
185.459	-14.85
185.679	40.45
185.898	-41.47
186.118	-0.51
186.338	-10.75
186.557	7.68
186.777	1.54
186.997	9.73
187.216	-20.99
187.436	114.17
187.655	-12.8
187.875	67.07
188.095	15.87
188.314	77.31
188.534	15.87
188.753	58.88
188.973	67.07
189.192	28.16
189.412	-31.23
189.631	-80.38
189.851	11.78
190.07	73.21
190.29	22.02
190.509	-16.9
190.729	-78.33
190.948	1.54
191.168	56.83
191.387	69.12
191.607	7.68
191.826	-45.57
192.045	15.87
192.265	-64
192.484	26.11
192.704	-20.99
192.923	-37.38
193.142	93.69
193.362	22.02
193.581	34.3
193.8	3.58
194.02	75.26
194.239	36.35
194.458	1.54
194.678	11.78
194.897	89.6
195.116	48.64
195.335	-25.09
195.555	7.68
195.774	24.06
195.993	3.58
196.212	-16.9
196.432	36.35
196.651	-37.38
196.87	-0.51
197.089	114.17
197.308	40.45
197.528	42.5
197.747	40.45
197.966	15.87
198.185	17.92
198.404	67.07
198.623	19.97
198.842	75.26
199.062	50.69
199.281	9.73
199.5	7.68
199.719	60.93
199.938	24.06
200.157	34.3
200.376	1.54
200.595	97.79
200.814	-43.52
201.033	3.58
201.252	58.88
201.471	50.69
201.69	79.36
201.909	-27.14
202.128	28.16
202.347	-49.66
202.566	48.64
202.785	11.78
203.004	-16.9
203.223	114.17
203.442	34.3
203.661	52.74
203.879	7.68
204.098	81.41
204.317	1.54
204.536	22.02
204.755	-49.66
204.974	87.55
205.193	32.26
205.411	73.21
205.63	89.6
205.849	34.3
206.068	50.69
206.287	44.54
206.505	26.11
206.724	-8.7
206.943	46.59
207.162	50.69
207.381	-41.47
207.599	-20.99
207.818	36.35
208.037	7.68
208.255	-12.8
208.474	19.97
208.693	87.55
208.911	9.73
209.13	50.69
209.349	48.64
209.567	-16.9
209.786	22.02
210.005	42.5
210.223	54.78
210.442	-39.42
210.661	46.59
210.879	-72.19
211.098	15.87
211.316	32.26
211.535	54.78
211.753	40.45
211.972	15.87
212.191	32.26
212.409	-16.9
212.628	17.92
212.846	85.5
213.065	56.83
213.283	40.45
213.502	93.69
213.72	-8.7
213.938	-68.09
214.157	13.82
214.375	-0.51
214.594	-43.52
214.812	56.83
215.031	11.78
215.249	-18.94
215.467	24.06
215.686	30.21
215.904	87.55
216.122	44.54
216.341	81.41
216.559	-29.18
216.778	40.45
216.996	-39.42
217.214	-68.09
217.432	-10.75
217.651	1.54
217.869	19.97
218.087	-43.52
218.306	34.3
218.524	32.26
218.742	-33.28
218.96	65.02
219.179	17.92
219.397	34.3
219.615	15.87
219.833	36.35
220.051	-64
220.27	89.6
220.488	3.58
220.706	17.92
220.924	-25.09
221.142	-90.62
221.36	77.31
221.578	3.58
221.796	-14.85
222.015	-14.85
222.233	17.92
222.451	-8.7
222.669	-37.38
222.887	-27.14
223.105	-39.42
223.323	15.87
223.541	-53.76
223.759	9.73
223.977	-8.7
224.195	93.69
224.413	19.97
224.631	48.64
224.849	-12.8
225.067	89.6
225.285	75.26
225.503	-0.51
225.721	-33.28
225.939	1.54
226.157	9.73
226.375	-2.56
226.592	24.06
226.81	17.92
227.028	-49.66
227.246	81.41
227.464	30.21
227.682	62.98
227.9	93.69
228.117	40.45
228.335	-43.52
228.553	-4.61
228.771	32.26
228.989	1.54
229.206	83.45
229.424	-29.18
229.642	-43.52
229.86	9.73
230.077	-8.7
230.295	11.78
230.513	93.69
230.731	67.07
230.948	75.26
231.166	7.68
231.384	-16.9
231.601	-14.85
231.819	-0.51
232.037	24.06
232.254	7.68
232.472	-33.28
232.689	-37.38
232.907	22.02
233.125	95.74
233.342	19.97
233.56	-61.95
233.777	11.78
233.995	1.54
234.213	11.78
234.43	24.06
234.648	-57.86
234.865	-23.04
235.083	17.92
235.3	-37.38
235.518	-29.18
235.735	-16.9
235.953	40.45
236.17	83.45
236.388	48.64
236.605	-35.33
236.822	79.36
237.04	26.11
237.257	56.83
237.475	-0.51
237.692	-0.51
237.909	91.65
238.127	-6.66
238.344	-72.19
238.562	11.78
238.779	-39.42
238.996	-12.8
239.214	1.54
239.431	40.45
239.648	40.45
239.865	-18.94
240.083	17.92
240.3	71.17
240.517	54.78
240.735	-16.9
240.952	73.21
241.169	15.87
241.386	30.21
241.603	-47.62
241.821	19.97
242.038	65.02
242.255	-33.28
242.472	40.45
242.689	79.36
242.907	-16.9
243.124	-25.09
243.341	19.97
243.558	-6.66
243.775	-68.09
243.992	-14.85
244.209	24.06
244.426	108.03
244.643	24.06
244.86	11.78
245.078	24.06
245.295	48.64
245.512	-41.47
245.729	-14.85
245.946	40.45
246.163	-37.38
246.38	38.4
246.597	19.97
246.814	46.59
247.031	-16.9
247.248	24.06
247.464	48.64
247.681	67.07
247.898	40.45
248.115	-0.51
248.332	-31.23
248.549	-12.8
248.766	24.06
248.983	17.92
249.2	-4.61
249.417	99.84
249.633	1.54
249.85	97.79
250.067	-29.18
250.284	48.64
250.501	-8.7
250.717	71.17
250.934	17.92
251.151	-66.05
251.368	17.92
251.585	73.21
251.801	34.3
252.018	-8.7
252.235	62.98
252.451	22.02
252.668	11.78
252.885	19.97
253.102	-41.47
253.318	26.11
253.535	48.64
253.752	-20.99
253.968	22.02
254.185	-43.52
254.401	103.93
254.618	32.26
254.835	-33.28
255.051	-25.09
255.268	-16.9
255.484	97.79
255.701	40.45
255.917	112.13
256.134	32.26
256.351	26.11
256.567	-43.52
256.784	24.06
257	32.26
257.217	30.21
257.433	140.8
257.65	32.26
257.866	56.83
258.082	-33.28
258.299	-8.7
258.515	48.64
258.732	32.26
258.948	32.26
259.165	40.45
259.381	28.16
259.597	19.97
259.814	-4.61
260.03	-4.61
260.246	24.06
260.463	5.63
260.679	17.92
260.895	30.21
261.112	67.07
261.328	22.02
261.544	-16.9
261.761	87.55
261.977	19.97
262.193	9.73
262.409	89.6
262.626	-16.9
262.842	19.97
263.058	13.82
263.274	40.45
263.49	-10.75
263.707	-0.51
263.923	85.5
264.139	32.26
264.355	7.68
264.571	62.98
264.787	-0.51
265.004	75.26
265.22	42.5
265.436	-0.51
265.652	15.87
265.868	42.5
266.084	44.54
266.3	17.92
266.516	7.68
266.732	67.07
266.948	60.93
267.164	32.26
267.38	22.02
267.596	65.02
267.812	110.08
268.028	-45.57
268.244	-37.38
268.46	24.06
268.676	7.68
268.892	24.06
269.108	22.02
269.324	-0.51
269.54	-31.23
269.756	15.87
269.972	28.16
270.188	65.02
270.403	56.83
270.619	-12.8
270.835	48.64
271.051	62.98
271.267	-45.57
271.483	-33.28
271.698	-23.04
271.914	36.35
272.13	24.06
272.346	3.58
272.562	9.73
272.777	52.74
272.993	3.58
273.209	-0.51
273.425	17.92
273.64	-47.62
273.856	44.54
274.072	-39.42
274.287	42.5
274.503	85.5
274.719	-33.28
274.934	-35.33
275.15	3.58
275.366	7.68
275.581	11.78
275.797	46.59
276.012	114.17
276.228	-0.51
276.444	-16.9
276.659	42.5
276.875	-27.14
277.09	34.3
277.306	-14.85
277.521	24.06
277.737	-4.61
277.952	67.07
278.168	30.21
278.383	17.92
278.599	105.98
278.814	26.11
279.03	3.58
279.245	13.82
279.461	58.88
279.676	75.26
279.892	-55.81
280.107	-0.51
280.322	-74.24
280.538	28.16
280.753	-16.9
280.969	7.68
281.184	-33.28
281.399	89.6
281.615	-16.9
281.83	40.45
282.045	-47.62
282.26	-20.99
282.476	28.16
282.691	50.69
282.906	73.21
283.122	-12.8
283.337	40.45
283.552	26.11
283.767	-41.47
283.983	69.12
284.198	24.06
284.413	50.69
284.628	-0.51
284.843	48.64
285.058	58.88
285.274	13.82
285.489	15.87
285.704	15.87
285.919	40.45
286.134	40.45
286.349	-20.99
286.564	22.02
286.779	105.98
286.995	79.36
287.21	-66.05
287.425	69.12
287.64	-23.04
287.855	28.16
288.07	38.4
288.285	40.45
288.5	24.06
288.715	24.06
288.93	-25.09
289.145	-35.33
289.36	34.3
289.575	24.06
289.79	83.45
290.004	28.16
290.219	-18.94
290.434	-0.51
290.649	-82.43
290.864	-41.47
291.079	-6.66
291.294	30.21
291.509	77.31
291.724	56.83
291.938	-8.7
292.153	75.26
292.368	-8.7
292.583	36.35
292.798	15.87
293.012	32.26
293.227	-16.9
293.442	56.83
293.657	112.13
293.871	11.78
294.086	69.12
294.301	87.55
294.516	-23.04
294.73	52.74
294.945	28.16
295.16	38.4
295.374	17.92
295.589	40.45
295.804	-23.04
296.018	-16.9
296.233	99.84
296.447	-0.51
296.662	32.26
296.877	67.07
297.091	-0.51
297.306	81.41
297.52	50.69
297.735	26.11
297.949	26.11
298.164	48.64
298.378	-31.23
298.593	9.73
298.807	24.06
299.022	7.68
299.236	30.21
299.451	40.45
299.665	11.78
299.88	81.41
300.094	19.97
300.309	1.54
300.523	85.5
300.737	62.98
300.952	7.68
301.166	36.35
301.381	3.58
301.595	48.64
301.809	71.17
302.024	-35.33
302.238	-25.09
302.452	9.73
302.667	24.06
302.881	81.41
303.095	65.02
303.309	24.06
303.524	11.78
303.738	52.74
303.952	15.87
304.166	44.54
304.381	7.68
304.595	40.45
304.809	24.06
305.023	-2.56
305.237	-43.52
305.452	-8.7
305.666	110.08
305.88	34.3
306.094	26.11
306.308	54.78
306.522	-8.7
306.736	93.69
306.95	38.4
307.164	11.78
307.379	15.87
307.593	50.69
307.807	32.26
308.021	44.54
308.235	-18.94
308.449	-31.23
308.663	36.35
308.877	42.5
309.091	-16.9
309.305	32.26
309.519	-66.05
309.733	-20.99
309.947	30.21
310.161	40.45
310.374	79.36
310.588	89.6
310.802	-64
311.016	-55.81
311.23	-25.09
311.444	1.54
311.658	9.73
311.872	-6.66
312.085	-55.81
312.299	89.6
312.513	118.27
312.727	58.88
312.941	1.54
313.154	9.73
313.368	83.45
313.582	108.03
313.796	1.54
314.009	1.54
314.223	46.59
314.437	24.06
314.651	56.83
314.864	26.11
315.078	-8.7
315.292	-49.66
315.505	54.78
315.719	81.41
315.933	11.78
316.146	38.4
316.36	22.02
316.573	17.92
316.787	17.92
317.001	60.93
317.214	11.78
317.428	44.54
317.641	77.31
317.855	-39.42
318.068	-16.9
318.282	15.87
318.495	97.79
318.709	38.4
318.922	67.07
319.136	48.64
319.349	24.06
319.563	83.45
319.776	-2.56
319.99	13.82
320.203	38.4
320.417	32.26
320.63	3.58
320.843	93.69
321.057	85.5
321.27	-12.8
321.483	-8.7
321.697	-27.14
321.91	-31.23
322.124	69.12
322.337	15.87
322.55	40.45
322.763	-39.42
322.977	-14.85
323.19	11.78
323.403	50.69
323.617	65.02
323.83	40.45
324.043	-57.86
324.256	79.36
324.469	24.06
324.683	15.87
324.896	-8.7
325.109	54.78
325.322	-29.18
325.535	71.17
325.748	89.6
325.962	30.21
326.175	-33.28
326.388	44.54
326.601	48.64
326.814	40.45
327.027	1.54
327.24	101.89
327.453	1.54
327.666	40.45
327.879	56.83
328.092	34.3
328.305	44.54
328.518	-33.28
328.731	-20.99
328.944	24.06
329.157	24.06
329.37	26.11
329.583	56.83
329.796	15.87
330.009	-47.62
330.222	67.07
330.435	38.4
330.648	58.88
330.861	40.45
331.073	40.45
331.286	26.11
331.499	56.83
331.712	1.54
331.925	34.3
332.138	28.16
332.35	65.02
332.563	-12.8
332.776	28.16
332.989	32.26
333.202	44.54
333.414	7.68
333.627	-25.09
333.84	32.26
334.053	114.17
334.265	-41.47
334.478	15.87
334.691	-29.18
334.903	65.02
335.116	58.88
335.329	40.45
335.541	56.83
335.754	54.78
335.966	9.73
336.179	-35.33
336.392	-37.38
336.604	-8.7
336.817	48.64
337.029	-12.8
337.242	-0.51
337.454	122.37
337.667	15.87
337.88	73.21
338.092	5.63
338.305	32.26
338.517	91.65
338.729	-12.8
338.942	34.3
339.154	11.78
339.367	32.26
339.579	65.02
339.792	34.3
340.004	52.74
340.217	11.78
340.429	73.21
340.641	7.68
340.854	105.98
341.066	65.02
341.278	-8.7
341.491	44.54
341.703	-8.7
341.915	36.35
342.128	24.06
342.34	1.54
342.552	-0.51
342.764	69.12
342.977	65.02
343.189	52.74
343.401	1.54
343.613	28.16
343.826	9.73
344.038	42.5
344.25	7.68
344.462	-16.9
344.674	73.21
344.886	97.79
345.099	40.45
345.311	38.4
345.523	-14.85
345.735	-45.57
345.947	89.6
346.159	-20.99
346.371	44.54
346.583	-20.99
346.795	103.93
347.007	69.12
347.219	7.68
347.431	11.78
347.643	28.16
347.855	7.68
348.067	60.93
348.279	36.35
348.491	24.06
348.703	-41.47
348.915	7.68
349.127	-8.7
349.339	32.26
349.551	17.92
349.763	77.31
349.975	48.64
350.187	-0.51
350.399	9.73
350.61	54.78
350.822	38.4
351.034	1.54
351.246	62.98
351.458	67.07
351.669	50.69
351.881	1.54
352.093	48.64
352.305	67.07
352.517	105.98
352.728	81.41
352.94	17.92
353.152	24.06
353.363	24.06
353.575	34.3
353.787	83.45
353.999	97.79
354.21	138.75
354.422	-10.75
354.633	-39.42
354.845	32.26
355.057	52.74
355.268	32.26
355.48	15.87
355.692	32.26
355.903	-6.66
356.115	46.59
356.326	1.54
356.538	44.54
356.749	-12.8
356.961	83.45
357.172	34.3
357.384	-16.9
357.595	52.74
357.807	99.84
358.018	-12.8
358.23	30.21
358.441	105.98
358.653	93.69
358.864	77.31
359.075	-41.47
359.287	11.78
359.498	108.03
359.709	42.5
359.921	65.02
360.132	11.78
360.344	5.63
360.555	89.6
360.766	30.21
360.977	42.5
361.189	28.16
361.4	24.06
361.611	118.27
361.823	-8.7
362.034	77.31
362.245	-18.94
362.456	7.68
362.667	-4.61
362.879	17.92
363.09	48.64
363.301	-39.42
363.512	7.68
363.723	13.82
363.935	5.63
364.146	5.63
364.357	36.35
364.568	48.64
364.779	3.58
364.99	122.37
365.201	40.45
365.412	126.46
365.623	-4.61
365.834	34.3
366.045	75.26
366.256	73.21
366.467	71.17
366.678	116.22
366.889	28.16
367.1	30.21
367.311	138.75
367.522	-37.38
367.733	83.45
367.944	73.21
368.155	-6.66
368.366	69.12
368.577	30.21
368.788	34.3
368.999	-0.51
369.209	-10.75
369.42	99.84
369.631	114.17
369.842	65.02
370.053	114.17
370.264	-8.7
370.474	42.5
370.685	44.54
370.896	48.64
371.107	38.4
371.317	83.45
371.528	15.87
371.739	79.36
371.95	-16.9
372.16	1.54
372.371	17.92
372.582	36.35
372.792	85.5
373.003	-25.09
373.214	36.35
373.424	24.06
373.635	67.07
373.846	114.17
374.056	24.06
374.267	75.26
374.477	40.45
374.688	26.11
374.898	19.97
375.109	-33.28
375.319	15.87
375.53	122.37
375.74	15.87
375.951	52.74
376.161	26.11
376.372	56.83
376.582	50.69
376.793	81.41
377.003	11.78
377.214	-6.66
377.424	122.37
377.635	22.02
377.845	52.74
378.055	40.45
378.266	32.26
378.476	116.22
378.686	32.26
378.897	34.3
379.107	19.97
379.317	1.54
379.528	103.93
379.738	50.69
379.948	46.59
380.158	-16.9
380.369	26.11
380.579	36.35
380.789	65.02
380.999	118.27
381.21	56.83
381.42	69.12
381.63	32.26
381.84	75.26
382.05	7.68
382.261	146.94
382.471	17.92
382.681	75.26
382.891	148.99
383.101	124.41
383.311	48.64
383.521	-8.7
383.731	62.98
383.941	73.21
384.151	-4.61
384.361	36.35
384.571	32.26
384.781	34.3
384.991	93.69
385.201	1.54
385.411	7.68
385.621	108.03
385.831	54.78
386.041	24.06
386.251	36.35
386.461	58.88
386.671	24.06
386.881	-14.85
387.091	52.74
387.301	50.69
387.511	52.74
387.72	15.87
387.93	56.83
388.14	-6.66
388.35	81.41
388.56	24.06
388.769	-0.51
388.979	56.83
389.189	-45.57
389.399	40.45
389.609	69.12
389.818	91.65
390.028	-45.57
390.238	97.79
390.447	34.3
390.657	42.5
390.867	15.87
391.076	5.63
391.286	67.07
391.496	11.78
391.705	15.87
391.915	81.41
392.125	91.65
392.334	148.99
392.544	93.69
392.753	69.12
392.963	24.06
393.172	56.83
393.382	-49.66
393.591	155.13
393.801	28.16
394.01	153.09
394.22	32.26
394.429	77.31
394.639	73.21
394.848	48.64
395.058	40.45
395.267	138.75
395.477	11.78
395.686	89.6
395.895	48.64
396.105	1.54
396.314	19.97
396.524	146.94
396.733	17.92
396.942	42.5
397.152	138.75
397.361	77.31
397.57	48.64
397.78	50.69
397.989	108.03
398.198	146.94
398.407	81.41
398.617	99.84
398.826	67.07
399.035	163.33
399.244	52.74
399.453	118.27
399.663	87.55
399.872	167.42
400.081	32.26
400.29	52.74
400.499	77.31
400.708	75.26
400.917	69.12
401.127	81.41
401.336	79.36
401.545	241.15
401.754	171.52
401.963	120.32
402.172	103.93
402.381	85.5
402.59	77.31
402.799	108.03
403.008	148.99
403.217	99.84
403.426	163.33
403.635	54.78
403.844	126.46
404.053	122.37
404.262	161.28
404.471	124.41
404.68	169.47
404.888	136.7
405.097	134.65
405.306	175.61
405.515	169.47
405.724	220.67
405.933	220.67
406.142	89.6
406.35	226.81
406.559	140.8
406.768	140.8
406.977	151.04
407.185	173.57
407.394	228.86
407.603	130.56
407.812	204.28
408.02	247.29
408.229	200.19
408.438	206.33
408.646	212.48
408.855	247.29
409.064	302.59
409.272	249.34
409.481	206.33
409.69	294.4
409.898	232.96
410.107	343.55
410.315	359.93
410.524	329.21
410.733	290.3
410.941	304.64
411.15	361.98
411.358	374.27
411.567	394.75
411.775	368.12
411.984	435.71
412.192	388.6
412.401	413.18
412.609	484.86
412.818	544.25
413.026	486.9
413.234	542.2
413.443	493.05
413.651	536.06
413.86	531.96
414.068	597.49
414.276	562.68
414.485	607.73
414.693	609.78
414.901	708.09
415.11	740.85
415.318	755.19
415.526	695.8
415.734	728.56
415.943	781.81
416.151	816.63
416.359	802.29
416.567	859.63
416.776	779.76
416.984	902.64
417.192	959.99
417.4	951.79
417.608	966.13
417.817	1019.38
418.025	1138.16
418.233	1162.73
418.441	1089.01
418.649	1158.64
418.857	1281.52
419.065	1279.47
419.273	1228.27
419.481	1435.11
419.689	1469.93
419.897	1416.68
420.105	1510.89
420.313	1566.18
420.521	1564.14
420.729	1629.67
420.937	1658.34
421.145	1732.07
421.353	1816.04
421.561	2014.69
421.769	1908.19
421.977	2119.14
422.185	2037.22
422.393	2112.99
422.601	2268.64
422.809	2194.91
423.017	2098.66
423.224	2309.6
423.432	2432.47
423.64	2455
423.848	2727.38
424.056	2579.93
424.263	2837.97
424.471	2792.92
424.679	2868.69
424.887	2989.52
425.094	3208.66
425.302	3042.77
425.51	3110.35
425.718	3241.42
425.925	3388.88
426.133	3567.05
426.341	3755.46
426.548	3755.46
426.756	3704.26
426.964	3857.86
427.171	4140.48
427.379	4277.69
427.586	4474.3
427.794	4431.29
428.001	4513.21
428.209	4926.9
428.417	4808.12
428.624	5062.07
428.832	5121.46
429.039	5154.23
429.247	5174.71
429.454	5668.27
429.662	6086.05
429.869	5496.24
430.076	5852.58
430.284	5586.35
430.491	6030.76
430.699	6262.18
430.906	6317.47
431.114	6456.73
431.321	6620.57
431.528	6886.81
431.736	7261.59
431.943	7591.31
432.15	7443.85
432.358	7454.09
432.565	7857.54
432.772	7908.74
432.979	8242.56
433.187	8301.95
433.394	8390.02
433.601	9084.28
433.808	8971.64
434.016	8832.38
434.223	9360.75
434.43	9850.22
434.637	9600.37
434.844	10282.34
435.052	10280.29
435.259	10485.09
435.466	10485.09
435.673	10153.32
435.88	11017.56
436.087	11529.55
436.294	11470.16
436.501	11324.76
436.708	11730.25
436.915	11865.42
437.122	12574.02
437.329	12334.4
437.537	12639.55
437.743	12907.84
437.95	12844.35
438.157	13813.04
438.364	13991.21
438.571	14099.75
438.778	13991.21
438.985	15228.18
439.192	14710.05
439.399	15197.46
439.606	14900.51
439.813	15662.35
440.02	16545.03
440.227	16502.02
440.433	16188.68
440.64	16719.1
440.847	16778.5
441.054	17306.87
441.261	18136.3
441.467	18013.42
441.674	18435.3
441.881	18947.29
442.088	19016.93
442.294	18904.29
442.501	19213.53
442.708	19727.57
442.914	20264.14
443.121	21253.31
443.328	20782.27
443.534	22004.91
443.741	21431.48
443.948	21048.51
444.154	22908.07
444.361	22631.59
444.568	22615.21
444.774	22609.06
444.981	22846.63
445.187	23825.56
445.394	24450.19
445.6	24140.94
445.807	26653.8
446.013	25547.9
446.22	25922.68
446.426	26954.85
446.633	27294.82
446.839	28283.98
447.046	27106.4
447.252	28417.1
447.459	28447.82
447.665	28275.79
447.871	29754.43
448.078	30581.81
448.284	29250.63
448.491	29987.89
448.697	31067.17
448.903	32013.34
449.11	32009.24
449.316	31384.61
449.522	31902.75
449.728	32934.92
449.935	33299.46
450.141	33070.09
450.347	33932.28
450.553	32678.93
450.76	33022.98
450.966	34204.66
451.172	33700.86
451.378	34499.57
451.584	34245.62
451.791	34911.21
451.997	34849.77
452.203	35466.21
452.409	35554.27
452.615	35312.61
452.821	34081.78
453.027	33385.47
453.233	35808.22
453.44	34018.3
453.646	34747.37
453.852	34823.15
454.058	34753.52
454.264	33960.95
454.47	35218.41
454.676	33924.09
454.882	35304.42
455.088	32375.83
455.294	32332.82
455.5	33008.65
455.705	33139.72
455.911	32082.97
456.117	31380.51
456.323	31048.74
456.529	29353.02
456.735	31054.89
456.941	30063.67
457.147	29725.75
457.352	28773.45
457.558	28413.01
457.764	28181.59
457.97	27829.34
458.176	27319.39
458.381	27485.28
458.587	25986.16
458.793	26012.79
458.999	24779.91
459.204	26582.12
459.41	25750.65
459.616	23909.52
459.821	24380.56
460.027	24128.66
460.233	23258.27
460.438	22535.34
460.644	22660.26
460.85	21329.08
461.055	21079.23
461.261	20980.93
461.466	19537.11
461.672	18857.18
461.878	20411.59
462.083	19152.09
462.289	18961.63
462.494	18377.96
462.7	17597.68
462.905	17325.3
463.111	17784.05
463.316	17849.58
463.522	17620.21
463.727	17483
463.932	17345.78
464.138	17276.15
464.343	17206.52
464.549	16571.65
464.754	17278.2
464.959	17138.94
465.165	17018.11
465.37	16454.92
465.575	15795.47
465.781	16448.77
465.986	16674.05
466.191	15951.12
466.397	15478.04
466.602	15129.88
466.807	15414.55
467.012	15695.12
467.218	15482.13
467.423	15121.69
467.628	15420.69
