Data from USB4F104151__106__14-18-12-715.txt Node

Date: Thu Mar 13 14:18:12 EDT 2025
User: louis
Spectrometer: USB4F10415
Trigger mode: 4
Integration Time (sec): 2.000000E-2
Scans to average: 1
Electric dark correction enabled: true
Nonlinearity correction enabled: false
Boxcar width: 0
XAxis mode: Wavelengths
Number of Pixels in Spectrum: 3648
>>>>>Begin Spectral Data<<<<<
178.204	-112.47
178.424	-112.47
178.644	-112.47
178.864	-96.08
179.084	-83.8
179.304	-26.45
179.524	8.36
179.744	12.46
179.964	-20.31
180.184	-32.6
180.404	-10.07
180.624	-59.22
180.844	-16.21
181.064	37.03
181.283	82.09
181.503	18.6
181.723	6.31
181.943	16.55
182.163	106.67
182.383	2.22
182.602	118.95
182.822	39.08
183.042	102.57
183.262	22.7
183.482	39.08
183.701	104.62
183.921	10.41
184.141	96.43
184.361	2.22
184.58	10.41
184.8	84.14
185.02	51.37
185.239	53.42
185.459	96.43
185.679	145.58
185.898	-40.79
186.118	80.04
186.338	26.79
186.557	57.51
186.777	8.36
186.997	34.99
187.216	39.08
187.436	67.75
187.655	55.47
187.875	82.09
188.095	106.67
188.314	34.99
188.534	133.29
188.753	10.41
188.973	106.67
189.192	14.51
189.412	69.8
189.631	88.23
189.851	45.23
190.07	-10.07
190.29	88.23
190.509	88.23
190.729	67.75
190.948	41.13
191.168	116.9
191.387	80.04
191.607	28.84
191.826	32.94
192.045	-44.88
192.265	-18.26
192.484	43.18
192.704	-10.07
192.923	-1.88
193.142	118.95
193.362	67.75
193.581	90.28
193.8	14.51
194.02	125.1
194.239	26.79
194.458	18.6
194.678	94.38
194.897	67.75
195.116	141.48
195.335	96.43
195.555	39.08
195.774	8.36
195.993	30.89
196.212	92.33
196.432	75.95
196.651	73.9
196.87	47.27
197.089	14.51
197.308	98.47
197.528	55.47
197.747	-10.07
197.966	-22.36
198.185	41.13
198.404	43.18
198.623	73.9
198.842	47.27
199.062	67.75
199.281	123.05
199.5	45.23
199.719	98.47
199.938	0.17
200.157	22.7
200.376	104.62
200.595	30.89
200.814	65.71
201.033	75.95
201.252	80.04
201.471	6.31
201.69	80.04
201.909	10.41
202.128	-3.93
202.347	65.71
202.566	178.34
202.785	20.65
203.004	10.41
203.223	106.67
203.442	37.03
203.661	88.23
203.879	86.19
204.098	82.09
204.317	-14.17
204.536	112.81
204.755	82.09
204.974	39.08
205.193	47.27
205.411	82.09
205.63	-1.88
205.849	88.23
206.068	-12.12
206.287	75.95
206.505	88.23
206.724	26.79
206.943	-18.26
207.162	69.8
207.381	63.66
207.599	88.23
207.818	75.95
208.037	30.89
208.255	59.56
208.474	41.13
208.693	129.19
208.911	32.94
209.13	104.62
209.349	-1.88
209.567	82.09
209.786	82.09
210.005	24.75
210.223	82.09
210.442	41.13
210.661	71.85
210.879	-22.36
211.098	57.51
211.316	75.95
211.535	67.75
211.753	49.32
211.972	80.04
212.191	65.71
212.409	51.37
212.628	41.13
212.846	24.75
213.065	22.7
213.283	137.38
213.502	47.27
213.72	-18.26
213.938	-10.07
214.157	129.19
214.375	39.08
214.594	6.31
214.812	73.9
215.031	65.71
215.249	82.09
215.467	45.23
215.686	30.89
215.904	137.38
216.122	65.71
216.341	112.81
216.559	63.66
216.778	63.66
216.996	100.52
217.214	43.18
217.432	49.32
217.651	59.56
217.869	22.7
218.087	98.47
218.306	34.99
218.524	14.51
218.742	55.47
218.96	73.9
219.179	2.22
219.397	45.23
219.615	145.58
219.833	43.18
220.051	8.36
220.27	49.32
220.488	96.43
220.706	30.89
220.924	71.85
221.142	106.67
221.36	57.51
221.578	92.33
221.796	-36.69
222.015	47.27
222.233	94.38
222.451	88.23
222.669	-3.93
222.887	18.6
223.105	39.08
223.323	51.37
223.541	20.65
223.759	28.84
223.977	-1.88
224.195	90.28
224.413	75.95
224.631	-5.97
224.849	-26.45
225.067	34.99
225.285	90.28
225.503	118.95
225.721	6.31
225.939	51.37
226.157	57.51
226.375	121
226.592	59.56
226.81	39.08
227.028	84.14
227.246	88.23
227.464	39.08
227.682	114.86
227.9	84.14
228.117	34.99
228.335	143.53
228.553	26.79
228.771	65.71
228.989	59.56
229.206	112.81
229.424	-10.07
229.642	-24.4
229.86	32.94
230.077	96.43
230.295	-14.17
230.513	67.75
230.731	114.86
230.948	80.04
231.166	145.58
231.384	110.76
231.601	41.13
231.819	88.23
232.037	63.66
232.254	2.22
232.472	6.31
232.689	6.31
232.907	55.47
233.125	84.14
233.342	92.33
233.56	16.55
233.777	2.22
233.995	0.17
234.213	51.37
234.43	-1.88
234.648	104.62
234.865	43.18
235.083	63.66
235.3	57.51
235.518	43.18
235.735	106.67
235.953	57.51
236.17	26.79
236.388	57.51
236.605	45.23
236.822	55.47
237.04	131.24
237.257	2.22
237.475	-18.26
237.692	51.37
237.909	84.14
238.127	88.23
238.344	10.41
238.562	34.99
238.779	2.22
238.996	41.13
239.214	86.19
239.431	94.38
239.648	51.37
239.865	80.04
240.083	0.17
240.3	39.08
240.517	14.51
240.735	14.51
240.952	192.68
241.169	129.19
241.386	-46.93
241.603	180.39
241.821	71.85
242.038	-8.02
242.255	47.27
242.472	-10.07
242.689	114.86
242.907	47.27
243.124	51.37
243.341	90.28
243.558	90.28
243.775	26.79
243.992	26.79
244.209	96.43
244.426	125.1
244.643	108.71
244.86	53.42
245.078	86.19
245.295	69.8
245.512	47.27
245.729	47.27
245.946	30.89
246.163	55.47
246.38	30.89
246.597	2.22
246.814	43.18
247.031	153.77
247.248	47.27
247.464	16.55
247.681	45.23
247.898	80.04
248.115	39.08
248.332	73.9
248.549	88.23
248.766	82.09
248.983	80.04
249.2	71.85
249.417	39.08
249.633	37.03
249.85	75.95
250.067	39.08
250.284	16.55
250.501	53.42
250.717	75.95
250.934	-3.93
251.151	71.85
251.368	73.9
251.585	43.18
251.801	82.09
252.018	32.94
252.235	71.85
252.451	2.22
252.668	12.46
252.885	88.23
253.102	98.47
253.318	26.79
253.535	118.95
253.752	82.09
253.968	106.67
254.185	61.61
254.401	34.99
254.618	80.04
254.835	94.38
255.051	161.96
255.268	14.51
255.484	121
255.701	59.56
255.917	94.38
256.134	41.13
256.351	73.9
256.567	98.47
256.784	59.56
257	22.7
257.217	116.9
257.433	63.66
257.65	10.41
257.866	51.37
258.082	18.6
258.299	-3.93
258.515	80.04
258.732	39.08
258.948	71.85
259.165	18.6
259.381	-5.97
259.597	43.18
259.814	49.32
260.03	6.31
260.246	30.89
260.463	61.61
260.679	53.42
260.895	73.9
261.112	14.51
261.328	-3.93
261.544	41.13
261.761	116.9
261.977	-10.07
262.193	63.66
262.409	43.18
262.626	145.58
262.842	73.9
263.058	45.23
263.274	69.8
263.49	121
263.707	49.32
263.923	84.14
264.139	37.03
264.355	98.47
264.571	59.56
264.787	49.32
265.004	55.47
265.22	55.47
265.436	32.94
265.652	57.51
265.868	106.67
266.084	32.94
266.3	65.71
266.516	57.51
266.732	98.47
266.948	178.34
267.164	88.23
267.38	55.47
267.596	121
267.812	153.77
268.028	96.43
268.244	69.8
268.46	43.18
268.676	53.42
268.892	80.04
269.108	14.51
269.324	98.47
269.54	57.51
269.756	55.47
269.972	0.17
270.188	-8.02
270.403	116.9
270.619	-42.84
270.835	90.28
271.051	20.65
271.267	39.08
271.483	51.37
271.698	80.04
271.914	47.27
272.13	47.27
272.346	75.95
272.562	61.61
272.777	96.43
272.993	73.9
273.209	41.13
273.425	6.31
273.64	39.08
273.856	108.71
274.072	22.7
274.287	-36.69
274.503	57.51
274.719	104.62
274.934	47.27
275.15	22.7
275.366	59.56
275.581	47.27
275.797	135.34
276.012	43.18
276.228	65.71
276.444	53.42
276.659	92.33
276.875	164.01
277.09	145.58
277.306	24.75
277.521	112.81
277.737	71.85
277.952	63.66
278.168	51.37
278.383	157.86
278.599	47.27
278.814	112.81
279.03	71.85
279.245	47.27
279.461	96.43
279.676	108.71
279.892	-12.12
280.107	133.29
280.322	24.75
280.538	153.77
280.753	59.56
280.969	88.23
281.184	61.61
281.399	49.32
281.615	53.42
281.83	26.79
282.045	41.13
282.26	88.23
282.476	96.43
282.691	71.85
282.906	37.03
283.122	98.47
283.337	63.66
283.552	43.18
283.767	75.95
283.983	112.81
284.198	39.08
284.413	71.85
284.628	114.86
284.843	178.34
285.058	88.23
285.274	6.31
285.489	96.43
285.704	26.79
285.919	108.71
286.134	98.47
286.349	73.9
286.564	18.6
286.779	90.28
286.995	90.28
287.21	69.8
287.425	121
287.64	67.75
287.855	14.51
288.07	-26.45
288.285	106.67
288.5	51.37
288.715	80.04
288.93	-30.55
289.145	90.28
289.36	108.71
289.575	18.6
289.79	90.28
290.004	30.89
290.219	65.71
290.434	39.08
290.649	-24.4
290.864	90.28
291.079	57.51
291.294	45.23
291.509	-1.88
291.724	6.31
291.938	104.62
292.153	112.81
292.368	-22.36
292.583	71.85
292.798	92.33
293.012	63.66
293.227	63.66
293.442	14.51
293.657	112.81
293.871	63.66
294.086	84.14
294.301	112.81
294.516	55.47
294.73	71.85
294.945	18.6
295.16	39.08
295.374	82.09
295.589	49.32
295.804	80.04
296.018	92.33
296.233	121
296.447	88.23
296.662	90.28
296.877	80.04
297.091	88.23
297.306	84.14
297.52	30.89
297.735	131.24
297.949	59.56
298.164	30.89
298.378	30.89
298.593	73.9
298.807	80.04
299.022	49.32
299.236	73.9
299.451	24.75
299.665	37.03
299.88	8.36
300.094	80.04
300.309	82.09
300.523	49.32
300.737	73.9
300.952	92.33
301.166	57.51
301.381	63.66
301.595	16.55
301.809	88.23
302.024	116.9
302.238	41.13
302.452	47.27
302.667	75.95
302.881	98.47
303.095	14.51
303.309	77.99
303.524	96.43
303.738	41.13
303.952	26.79
304.166	112.81
304.381	-18.26
304.595	88.23
304.809	6.31
305.023	110.76
305.237	96.43
305.452	84.14
305.666	14.51
305.88	63.66
306.094	80.04
306.308	47.27
306.522	10.41
306.736	182.44
306.95	106.67
307.164	84.14
307.379	106.67
307.593	86.19
307.807	139.43
308.021	39.08
308.235	157.86
308.449	94.38
308.663	82.09
308.877	155.82
309.091	20.65
309.305	41.13
309.519	61.61
309.733	98.47
309.947	75.95
310.161	153.77
310.374	82.09
310.588	118.95
310.802	18.6
311.016	98.47
311.23	61.61
311.444	75.95
311.658	10.41
311.872	100.52
312.085	114.86
312.299	12.46
312.513	129.19
312.727	24.75
312.941	30.89
313.154	90.28
313.368	67.75
313.582	-34.64
313.796	18.6
314.009	82.09
314.223	147.62
314.437	71.85
314.651	80.04
314.864	71.85
315.078	-1.88
315.292	80.04
315.505	67.75
315.719	80.04
315.933	82.09
316.146	96.43
316.36	10.41
316.573	71.85
316.787	75.95
317.001	53.42
317.214	108.71
317.428	65.71
317.641	90.28
317.855	30.89
318.068	90.28
318.282	67.75
318.495	116.9
318.709	86.19
318.922	22.7
319.136	112.81
319.349	141.48
319.563	39.08
319.776	63.66
319.99	34.99
320.203	88.23
320.417	88.23
320.63	108.71
320.843	129.19
321.057	102.57
321.27	80.04
321.483	116.9
321.697	34.99
321.91	147.62
322.124	49.32
322.337	55.47
322.55	20.65
322.763	106.67
322.977	39.08
323.19	16.55
323.403	104.62
323.617	84.14
323.83	112.81
324.043	92.33
324.256	106.67
324.469	34.99
324.683	88.23
324.896	125.1
325.109	108.71
325.322	30.89
325.535	180.39
325.748	123.05
325.962	92.33
326.175	98.47
326.388	-5.97
326.601	55.47
326.814	28.84
327.027	6.31
327.24	143.53
327.453	39.08
327.666	63.66
327.879	100.52
328.092	112.81
328.305	80.04
328.518	112.81
328.731	61.61
328.944	63.66
329.157	82.09
329.37	84.14
329.583	133.29
329.796	73.9
330.009	118.95
330.222	57.51
330.435	153.77
330.648	96.43
330.861	88.23
331.073	88.23
331.286	63.66
331.499	80.04
331.712	67.75
331.925	166.06
332.138	39.08
332.35	129.19
332.563	73.9
332.776	96.43
332.989	55.47
333.202	129.19
333.414	80.04
333.627	63.66
333.84	59.56
334.053	88.23
334.265	6.31
334.478	94.38
334.691	77.99
334.903	88.23
335.116	12.46
335.329	73.9
335.541	71.85
335.754	98.47
335.966	2.22
336.179	67.75
336.392	24.75
336.604	69.8
336.817	90.28
337.029	153.77
337.242	55.47
337.454	71.85
337.667	53.42
337.88	116.9
338.092	106.67
338.305	164.01
338.517	102.57
338.729	131.24
338.942	63.66
339.154	129.19
339.367	123.05
339.579	49.32
339.792	77.99
340.004	47.27
340.217	63.66
340.429	59.56
340.641	71.85
340.854	71.85
341.066	110.76
341.278	104.62
341.491	104.62
341.703	43.18
341.915	32.94
342.128	49.32
342.34	98.47
342.552	28.84
342.764	67.75
342.977	133.29
343.189	80.04
343.401	157.86
343.613	41.13
343.826	96.43
344.038	55.47
344.25	96.43
344.462	92.33
344.674	96.43
344.886	43.18
345.099	63.66
345.311	-24.4
345.523	90.28
345.735	82.09
345.947	108.71
346.159	47.27
346.371	69.8
346.583	43.18
346.795	63.66
347.007	100.52
347.219	57.51
347.431	20.65
347.643	39.08
347.855	-12.12
348.067	86.19
348.279	82.09
348.491	98.47
348.703	77.99
348.915	88.23
349.127	32.94
349.339	106.67
349.551	-18.26
349.763	77.99
349.975	73.9
350.187	102.57
350.399	98.47
350.61	145.58
350.822	24.75
351.034	104.62
351.246	43.18
351.458	145.58
351.669	39.08
351.881	22.7
352.093	125.1
352.305	90.28
352.517	145.58
352.728	8.36
352.94	53.42
353.152	37.03
353.363	26.79
353.575	51.37
353.787	123.05
353.999	84.14
354.21	92.33
354.422	147.62
354.633	112.81
354.845	71.85
355.057	71.85
355.268	63.66
355.48	67.75
355.692	47.27
355.903	71.85
356.115	121
356.326	26.79
356.538	88.23
356.749	0.17
356.961	94.38
357.172	92.33
357.384	129.19
357.595	143.53
357.807	108.71
358.018	37.03
358.23	131.24
358.441	88.23
358.653	223.4
358.864	77.99
359.075	26.79
359.287	47.27
359.498	131.24
359.709	110.76
359.921	55.47
360.132	14.51
360.344	88.23
360.555	100.52
360.766	106.67
360.977	164.01
361.189	98.47
361.4	112.81
361.611	145.58
361.823	116.9
362.034	75.95
362.245	98.47
362.456	73.9
362.667	47.27
362.879	86.19
363.09	65.71
363.301	131.24
363.512	172.2
363.723	100.52
363.935	20.65
364.146	30.89
364.357	84.14
364.568	65.71
364.779	24.75
364.99	155.82
365.201	73.9
365.412	186.54
365.623	41.13
365.834	59.56
366.045	88.23
366.256	131.24
366.467	14.51
366.678	73.9
366.889	104.62
367.1	106.67
367.311	106.67
367.522	129.19
367.733	67.75
367.944	125.1
368.155	51.37
368.366	129.19
368.577	125.1
368.788	63.66
368.999	24.75
369.209	161.96
369.42	139.43
369.631	88.23
369.842	63.66
370.053	39.08
370.264	114.86
370.474	34.99
370.685	6.31
370.896	80.04
371.107	127.14
371.317	80.04
371.528	102.57
371.739	147.62
371.95	75.95
372.16	63.66
372.371	65.71
372.582	67.75
372.792	112.81
373.003	96.43
373.214	161.96
373.424	129.19
373.635	147.62
373.846	112.81
374.056	57.51
374.267	82.09
374.477	102.57
374.688	84.14
374.898	139.43
375.109	108.71
375.319	59.56
375.53	145.58
375.74	94.38
375.951	90.28
376.161	55.47
376.372	135.34
376.582	170.15
376.793	112.81
377.003	139.43
377.214	123.05
377.424	82.09
377.635	57.51
377.845	84.14
378.055	112.81
378.266	22.7
378.476	77.99
378.686	123.05
378.897	90.28
379.107	116.9
379.317	71.85
379.528	121
379.738	61.61
379.948	121
380.158	88.23
380.369	118.95
380.579	82.09
380.789	77.99
380.999	129.19
381.21	96.43
381.42	159.91
381.63	71.85
381.84	88.23
382.05	155.82
382.261	88.23
382.471	161.96
382.681	49.32
382.891	104.62
383.101	84.14
383.311	37.03
383.521	30.89
383.731	112.81
383.941	110.76
384.151	92.33
384.361	121
384.571	133.29
384.781	131.24
384.991	137.38
385.201	198.82
385.411	129.19
385.621	123.05
385.831	139.43
386.041	151.72
386.251	30.89
386.461	131.24
386.671	174.25
386.881	108.71
387.091	57.51
387.301	121
387.511	114.86
387.72	88.23
387.93	98.47
388.14	80.04
388.35	161.96
388.56	121
388.769	114.86
388.979	131.24
389.189	-1.88
389.399	104.62
389.609	147.62
389.818	133.29
390.028	100.52
390.238	67.75
390.447	73.9
390.657	104.62
390.867	34.99
391.076	39.08
391.286	73.9
391.496	71.85
391.705	155.82
391.915	106.67
392.125	129.19
392.334	133.29
392.544	137.38
392.753	30.89
392.963	143.53
393.172	143.53
393.382	121
393.591	116.9
393.801	82.09
394.01	96.43
394.22	125.1
394.429	139.43
394.639	106.67
394.848	121
395.058	37.03
395.267	123.05
395.477	75.95
395.686	170.15
395.895	121
396.105	178.34
396.314	106.67
396.524	80.04
396.733	67.75
396.942	192.68
397.152	135.34
397.361	98.47
397.57	155.82
397.78	121
397.989	186.54
398.198	290.98
398.407	166.06
398.617	141.48
398.826	174.25
399.035	84.14
399.244	102.57
399.453	211.11
399.663	186.54
399.872	276.65
400.081	153.77
400.29	217.26
400.499	211.11
400.708	223.4
400.917	121
401.127	209.06
401.336	49.32
401.545	213.16
401.754	219.3
401.963	237.74
402.172	225.45
402.381	188.58
402.59	180.39
402.799	159.91
403.008	245.93
403.217	268.45
403.426	260.26
403.635	272.55
403.844	174.25
404.053	231.59
404.262	164.01
404.471	235.69
404.68	247.97
404.888	243.88
405.097	207.02
405.306	235.69
405.515	227.5
405.724	338.09
405.933	284.84
406.142	286.89
406.35	280.74
406.559	247.97
406.768	346.28
406.977	342.18
407.185	252.07
407.394	336.04
407.603	256.17
407.812	352.42
408.02	362.66
408.229	323.75
408.438	315.56
408.646	387.24
408.855	323.75
409.064	395.43
409.272	430.24
409.481	430.24
409.69	506.02
409.898	465.06
410.107	450.72
410.315	491.68
410.524	555.17
410.733	546.98
410.941	442.53
411.15	481.44
411.358	622.75
411.567	620.71
411.775	557.22
411.984	575.65
412.192	653.47
412.401	606.37
412.609	669.86
412.818	690.34
413.026	698.53
413.234	784.54
413.443	798.88
413.651	792.73
413.86	841.89
414.068	895.13
414.276	888.99
414.485	923.8
414.693	989.34
414.901	1030.3
415.11	1030.3
415.318	1046.68
415.526	1071.26
415.734	1056.92
415.943	1052.83
416.151	1153.18
416.359	1220.76
416.567	1214.62
416.776	1276.06
416.984	1347.73
417.192	1464.47
417.4	1400.98
417.608	1489.04
417.817	1452.18
418.025	1642.64
418.233	1681.55
418.441	1622.16
418.649	1695.89
418.857	1839.25
419.065	1984.65
419.273	1835.15
419.481	1878.16
419.689	1939.6
419.897	2046.09
420.105	2089.1
420.313	2279.56
420.521	2242.7
420.729	2277.51
420.937	2439.3
421.145	2611.33
421.353	2572.42
421.561	2764.93
421.769	2947.2
421.977	2914.43
422.185	2990.21
422.393	3100.8
422.601	3303.54
422.809	3264.63
423.017	3270.78
423.224	3358.84
423.432	3627.12
423.64	3539.06
423.848	3856.5
424.056	3766.39
424.263	4014.19
424.471	4108.4
424.679	4077.68
424.887	4391.02
425.094	4528.23
425.302	4456.55
425.51	4733.03
425.718	4753.51
425.925	4966.49
426.133	5120.09
426.341	5406.81
426.548	5572.69
426.756	5660.76
426.964	5724.24
427.171	5840.98
427.379	6021.2
427.586	6107.21
427.794	6305.87
428.001	6641.73
428.209	6885.44
428.417	6854.72
428.624	7387.19
428.832	7381.05
429.039	7309.37
429.247	7444.54
429.454	7938.1
429.662	8296.49
429.869	7938.1
430.076	8575.02
430.284	8312.88
430.491	8833.06
430.699	9162.78
430.906	8923.17
431.114	9281.57
431.321	9660.44
431.528	9973.78
431.736	10260.49
431.943	10965
432.15	10471.43
432.358	10645.51
432.565	11266.05
432.772	11335.68
432.979	11659.26
433.187	11911.16
433.394	11884.53
433.601	12980.2
433.808	12967.91
434.016	12736.49
434.223	13285.34
434.43	14045.14
434.637	13789.14
434.844	14720.97
435.052	15124.42
435.259	14874.57
435.466	15093.7
435.673	14825.42
435.88	16035.77
436.087	16441.26
436.294	16684.97
436.501	16132.02
436.708	16797.61
436.915	17266.6
437.122	18050.97
437.329	18012.06
437.537	18560.91
437.743	18683.79
437.95	18720.65
438.157	19480.45
438.364	20133.75
438.571	20187
438.778	20375.41
438.985	21968.73
439.192	21317.48
439.399	22284.12
439.606	21702.5
439.813	22914.89
440.02	24250.17
440.227	23371.59
440.433	23455.56
440.64	24037.18
440.847	23947.07
441.054	24657.71
441.261	26195.74
441.467	25917.22
441.674	26525.46
441.881	27350.79
442.088	27356.94
442.294	26918.67
442.501	27574.02
442.708	27877.12
442.914	29697.77
443.121	30482.14
443.328	29519.59
443.534	31704.77
443.741	30650.07
443.948	30306.01
444.154	32609.98
444.361	32558.78
444.568	32528.06
444.774	32566.97
444.981	33019.57
445.187	33978.02
445.394	35591.82
445.6	34616.99
445.807	38151.78
446.013	36382.34
446.22	37080.69
446.426	38620.77
446.633	38696.54
446.839	40152.65
447.046	38487.65
447.252	40521.28
447.459	40666.69
447.665	40642.11
447.871	41926.19
448.078	44144.14
448.284	42114.6
448.491	43001.37
448.697	44267.02
448.903	45547
449.11	45411.83
449.316	44467.72
449.522	45581.81
449.728	47015.39
449.935	46898.66
450.141	46771.68
450.347	48018.89
450.553	46761.44
450.76	47347.16
450.966	48674.24
451.172	48317.9
451.378	49485.24
451.584	48029.13
451.791	49515.96
451.997	48981.44
452.203	50384.3
452.409	50322.86
452.615	50079.15
452.821	48393.67
453.027	47711.7
453.233	50011.57
453.44	48238.03
453.646	48995.78
453.852	49046.97
454.058	49880.5
454.264	48047.57
454.47	49522.1
454.676	48158.16
454.882	49438.14
455.088	45557.24
455.294	45987.31
455.5	47388.12
455.705	47066.59
455.911	45268.47
456.117	44688.9
456.323	43957.77
456.529	41766.45
456.735	43705.87
456.941	42712.61
457.147	41606.7
457.352	40777.28
457.558	40070.73
457.764	40764.99
457.97	39632.46
458.176	39085.65
458.381	38968.92
458.587	37187.19
458.793	37017.21
458.999	34803.35
459.204	37707.37
459.41	36537.98
459.616	34184.87
459.821	34119.33
460.027	34018.98
460.233	33203.89
460.438	31735.49
460.644	32286.4
460.85	30731.99
461.055	30176.99
461.261	30222.05
461.466	27873.03
461.672	27352.84
461.878	28976.88
462.083	27471.62
462.289	26810.13
462.494	26459.93
462.7	25126.7
462.905	24502.07
463.111	25302.82
463.316	25632.55
463.522	24944.43
463.727	24774.45
463.932	24799.02
464.138	24917.81
464.343	25042.73
464.549	23942.97
464.754	24522.55
464.959	24540.98
465.165	24110.91
465.37	23312.2
465.575	22941.52
465.781	23889.73
465.986	23680.83
