Data from USB4F104151__183__14-20-13-792.txt Node

Date: Thu Mar 13 14:20:13 EDT 2025
User: louis
Spectrometer: USB4F10415
Trigger mode: 4
Integration Time (sec): 2.000000E-2
Scans to average: 1
Electric dark correction enabled: true
Nonlinearity correction enabled: false
Boxcar width: 0
XAxis mode: Wavelengths
Number of Pixels in Spectrum: 3648
>>>>>Begin Spectral Data<<<<<
178.204	-142.68
178.424	-142.68
178.644	-142.68
178.864	-122.2
179.084	-36.18
179.304	31.4
179.524	-1.37
179.744	-17.75
179.964	10.92
180.184	74.41
180.404	-3.41
180.624	-46.42
180.844	-58.71
181.064	-77.14
181.283	21.16
181.503	-9.56
181.723	76.46
181.943	-56.66
182.163	-21.85
182.383	-1.37
182.602	66.22
182.822	101.03
183.042	82.6
183.262	19.11
183.482	2.73
183.701	10.92
183.921	-3.41
184.141	-25.94
184.361	74.41
184.58	35.5
184.8	125.61
185.02	0.68
185.239	33.45
185.459	-3.41
185.679	-44.37
185.898	-48.47
186.118	60.07
186.338	27.31
186.557	60.07
186.777	12.97
186.997	45.74
187.216	-50.52
187.436	107.18
187.655	25.26
187.875	25.26
188.095	94.89
188.314	80.55
188.534	92.84
188.753	-7.51
188.973	74.41
189.192	131.75
189.412	60.07
189.631	-11.61
189.851	45.74
190.07	33.45
190.29	49.83
190.509	49.83
190.729	-27.99
190.948	111.27
191.168	117.42
191.387	82.6
191.607	8.87
191.826	41.64
192.045	66.22
192.265	4.78
192.484	17.07
192.704	25.26
192.923	-13.65
193.142	68.27
193.362	0.68
193.581	78.51
193.8	45.74
194.02	2.73
194.239	94.89
194.458	8.87
194.678	88.75
194.897	60.07
195.116	53.93
195.335	8.87
195.555	119.46
195.774	15.02
195.993	33.45
196.212	12.97
196.432	37.55
196.651	-11.61
196.87	17.07
197.089	74.41
197.308	119.46
197.528	94.89
197.747	-36.18
197.966	35.5
198.185	51.88
198.404	-15.7
198.623	98.99
198.842	43.69
199.062	0.68
199.281	101.03
199.5	115.37
199.719	8.87
199.938	68.27
200.157	74.41
200.376	10.92
200.595	76.46
200.814	68.27
201.033	51.88
201.252	107.18
201.471	41.64
201.69	43.69
201.909	82.6
202.128	-23.89
202.347	60.07
202.566	10.92
202.785	82.6
203.004	51.88
203.223	49.83
203.442	47.79
203.661	66.22
203.879	25.26
204.098	94.89
204.317	12.97
204.536	90.79
204.755	43.69
204.974	-5.46
205.193	74.41
205.411	123.56
205.63	70.31
205.849	53.93
206.068	29.35
206.287	8.87
206.505	70.31
206.724	49.83
206.943	45.74
207.162	43.69
207.381	66.22
207.599	64.17
207.818	103.08
208.037	74.41
208.255	66.22
208.474	29.35
208.693	17.07
208.911	68.27
209.13	17.07
209.349	10.92
209.567	129.7
209.786	76.46
210.005	68.27
210.223	10.92
210.442	-21.85
210.661	43.69
210.879	-1.37
211.098	12.97
211.316	-17.75
211.535	35.5
211.753	-3.41
211.972	68.27
212.191	-7.51
212.409	60.07
212.628	-48.47
212.846	27.31
213.065	47.79
213.283	58.03
213.502	-15.7
213.72	58.03
213.938	68.27
214.157	19.11
214.375	8.87
214.594	-62.8
214.812	68.27
215.031	31.4
215.249	76.46
215.467	12.97
215.686	27.31
215.904	129.7
216.122	133.8
216.341	66.22
216.559	41.64
216.778	66.22
216.996	35.5
217.214	-3.41
217.432	58.03
217.651	33.45
217.869	2.73
218.087	37.55
218.306	6.83
218.524	131.75
218.742	-30.04
218.96	68.27
219.179	25.26
219.397	62.12
219.615	51.88
219.833	76.46
220.051	17.07
220.27	74.41
220.488	-7.51
220.706	33.45
220.924	-7.51
221.142	19.11
221.36	35.5
221.578	53.93
221.796	66.22
222.015	27.31
222.233	78.51
222.451	146.09
222.669	29.35
222.887	49.83
223.105	33.45
223.323	109.22
223.541	33.45
223.759	8.87
223.977	37.55
224.195	82.6
224.413	41.64
224.631	12.97
224.849	43.69
225.067	111.27
225.285	10.92
225.503	43.69
225.721	17.07
225.939	8.87
226.157	25.26
226.375	195.24
226.592	-1.37
226.81	21.16
227.028	68.27
227.246	98.99
227.464	33.45
227.682	94.89
227.9	98.99
228.117	15.02
228.335	41.64
228.553	76.46
228.771	-27.99
228.989	74.41
229.206	12.97
229.424	2.73
229.642	60.07
229.86	-58.71
230.077	21.16
230.295	45.74
230.513	45.74
230.731	58.03
230.948	55.98
231.166	115.37
231.384	33.45
231.601	60.07
231.819	33.45
232.037	62.12
232.254	27.31
232.472	129.7
232.689	-40.28
232.907	60.07
233.125	-7.51
233.342	119.46
233.56	117.42
233.777	33.45
233.995	19.11
234.213	90.79
234.43	62.12
234.648	0.68
234.865	109.22
235.083	101.03
235.3	62.12
235.518	35.5
235.735	17.07
235.953	96.94
236.17	23.21
236.388	-13.65
236.605	135.85
236.822	66.22
237.04	90.79
237.257	4.78
237.475	90.79
237.692	98.99
237.909	4.78
238.127	23.21
238.344	-21.85
238.562	41.64
238.779	-23.89
238.996	0.68
239.214	58.03
239.431	-3.41
239.648	58.03
239.865	10.92
240.083	27.31
240.3	-56.66
240.517	109.22
240.735	35.5
240.952	35.5
241.169	90.79
241.386	27.31
241.603	12.97
241.821	27.31
242.038	45.74
242.255	41.64
242.472	12.97
242.689	2.73
242.907	150.18
243.124	-40.28
243.341	27.31
243.558	17.07
243.775	70.31
243.992	6.83
244.209	21.16
244.426	82.6
244.643	105.13
244.86	49.83
245.078	62.12
245.295	-5.46
245.512	68.27
245.729	45.74
245.946	25.26
246.163	10.92
246.38	27.31
246.597	49.83
246.814	-7.51
247.031	-5.46
247.248	60.07
247.464	41.64
247.681	66.22
247.898	49.83
248.115	35.5
248.332	0.68
248.549	115.37
248.766	68.27
248.983	76.46
249.2	94.89
249.417	78.51
249.633	31.4
249.85	8.87
250.067	12.97
250.284	21.16
250.501	-17.75
250.717	98.99
250.934	35.5
251.151	-40.28
251.368	-23.89
251.585	78.51
251.801	80.55
252.018	-15.7
252.235	121.51
252.451	41.64
252.668	-25.94
252.885	96.94
253.102	-21.85
253.318	41.64
253.535	35.5
253.752	-5.46
253.968	29.35
254.185	-42.32
254.401	74.41
254.618	96.94
254.835	139.94
255.051	41.64
255.268	39.59
255.484	41.64
255.701	33.45
255.917	66.22
256.134	37.55
256.351	76.46
256.567	-15.7
256.784	10.92
257	0.68
257.217	45.74
257.433	58.03
257.65	49.83
257.866	25.26
258.082	-3.41
258.299	58.03
258.515	74.41
258.732	37.55
258.948	49.83
259.165	101.03
259.381	12.97
259.597	37.55
259.814	-5.46
260.03	49.83
260.246	53.93
260.463	84.65
260.679	76.46
260.895	2.73
261.112	33.45
261.328	37.55
261.544	94.89
261.761	92.84
261.977	41.64
262.193	78.51
262.409	76.46
262.626	60.07
262.842	60.07
263.058	33.45
263.274	39.59
263.49	98.99
263.707	19.11
263.923	-3.41
264.139	2.73
264.355	-1.37
264.571	164.52
264.787	10.92
265.004	98.99
265.22	49.83
265.436	47.79
265.652	33.45
265.868	68.27
266.084	-13.65
266.3	-3.41
266.516	10.92
266.732	127.66
266.948	66.22
267.164	41.64
267.38	92.84
267.596	35.5
267.812	60.07
268.028	43.69
268.244	19.11
268.46	10.92
268.676	58.03
268.892	33.45
269.108	-3.41
269.324	66.22
269.54	84.65
269.756	60.07
269.972	-13.65
270.188	43.69
270.403	76.46
270.619	68.27
270.835	35.5
271.051	49.83
271.267	58.03
271.483	2.73
271.698	66.22
271.914	80.55
272.13	27.31
272.346	-38.23
272.562	8.87
272.777	68.27
272.993	23.21
273.209	68.27
273.425	0.68
273.64	43.69
273.856	98.99
274.072	70.31
274.287	35.5
274.503	55.98
274.719	45.74
274.934	17.07
275.15	17.07
275.366	12.97
275.581	33.45
275.797	-44.37
276.012	17.07
276.228	55.98
276.444	49.83
276.659	66.22
276.875	25.26
277.09	21.16
277.306	37.55
277.521	103.08
277.737	51.88
277.952	90.79
278.168	111.27
278.383	115.37
278.599	90.79
278.814	41.64
279.03	39.59
279.245	35.5
279.461	43.69
279.676	51.88
279.892	-21.85
280.107	66.22
280.322	98.99
280.538	29.35
280.753	86.7
280.969	33.45
281.184	41.64
281.399	8.87
281.615	111.27
281.83	60.07
282.045	-44.37
282.26	0.68
282.476	21.16
282.691	41.64
282.906	37.55
283.122	72.36
283.337	25.26
283.552	-19.8
283.767	53.93
283.983	92.84
284.198	135.85
284.413	109.22
284.628	53.93
284.843	53.93
285.058	37.55
285.274	-15.7
285.489	90.79
285.704	80.55
285.919	115.37
286.134	35.5
286.349	-27.99
286.564	49.83
286.779	103.08
286.995	-19.8
287.21	0.68
287.425	58.03
287.64	25.26
287.855	144.04
288.07	17.07
288.285	98.99
288.5	66.22
288.715	103.08
288.93	66.22
289.145	25.26
289.36	76.46
289.575	15.02
289.79	62.12
290.004	-7.51
290.219	25.26
290.434	101.03
290.649	55.98
290.864	76.46
291.079	10.92
291.294	66.22
291.509	51.88
291.724	19.11
291.938	68.27
292.153	74.41
292.368	41.64
292.583	66.22
292.798	33.45
293.012	55.98
293.227	35.5
293.442	25.26
293.657	25.26
293.871	37.55
294.086	17.07
294.301	64.17
294.516	41.64
294.73	33.45
294.945	96.94
295.16	68.27
295.374	49.83
295.589	27.31
295.804	8.87
296.018	98.99
296.233	17.07
296.447	103.08
296.662	-11.61
296.877	133.8
297.091	76.46
297.306	90.79
297.52	43.69
297.735	76.46
297.949	58.03
298.164	-3.41
298.378	-42.32
298.593	33.45
298.807	62.12
299.022	84.65
299.236	25.26
299.451	37.55
299.665	8.87
299.88	-5.46
300.094	68.27
300.309	21.16
300.523	27.31
300.737	51.88
300.952	92.84
301.166	68.27
301.381	-9.56
301.595	49.83
301.809	37.55
302.024	27.31
302.238	-11.61
302.452	33.45
302.667	49.83
302.881	156.33
303.095	105.13
303.309	4.78
303.524	-11.61
303.738	101.03
303.952	0.68
304.166	68.27
304.381	53.93
304.595	125.61
304.809	43.69
305.023	66.22
305.237	74.41
305.452	27.31
305.666	92.84
305.88	45.74
306.094	70.31
306.308	86.7
306.522	111.27
306.736	17.07
306.95	37.55
307.164	29.35
307.379	12.97
307.593	58.03
307.807	-21.85
308.021	51.88
308.235	17.07
308.449	60.07
308.663	60.07
308.877	90.79
309.091	107.18
309.305	41.64
309.519	19.11
309.733	70.31
309.947	60.07
310.161	66.22
310.374	-17.75
310.588	98.99
310.802	23.21
311.016	21.16
311.23	33.45
311.444	43.69
311.658	21.16
311.872	19.11
312.085	80.55
312.299	49.83
312.513	90.79
312.727	49.83
312.941	-11.61
313.154	12.97
313.368	0.68
313.582	55.98
313.796	53.93
314.009	68.27
314.223	109.22
314.437	94.89
314.651	33.45
314.864	-34.13
315.078	131.75
315.292	-7.51
315.505	8.87
315.719	60.07
315.933	86.7
316.146	37.55
316.36	27.31
316.573	101.03
316.787	-11.61
317.001	35.5
317.214	31.4
317.428	17.07
317.641	37.55
317.855	43.69
318.068	19.11
318.282	17.07
318.495	47.79
318.709	82.6
318.922	127.66
319.136	146.09
319.349	84.65
319.563	74.41
319.776	-15.7
319.99	115.37
320.203	53.93
320.417	41.64
320.63	4.78
320.843	90.79
321.057	51.88
321.27	43.69
321.483	84.65
321.697	53.93
321.91	8.87
322.124	2.73
322.337	98.99
322.55	25.26
322.763	0.68
322.977	37.55
323.19	-23.89
323.403	41.64
323.617	51.88
323.83	74.41
324.043	66.22
324.256	92.84
324.469	27.31
324.683	58.03
324.896	27.31
325.109	51.88
325.322	-56.66
325.535	60.07
325.748	33.45
325.962	37.55
326.175	47.79
326.388	37.55
326.601	82.6
326.814	127.66
327.027	76.46
327.24	107.18
327.453	-21.85
327.666	-9.56
327.879	47.79
328.092	141.99
328.305	49.83
328.518	98.99
328.731	78.51
328.944	41.64
329.157	74.41
329.37	68.27
329.583	41.64
329.796	51.88
330.009	17.07
330.222	86.7
330.435	47.79
330.648	8.87
330.861	49.83
331.073	41.64
331.286	84.65
331.499	17.07
331.712	33.45
331.925	19.11
332.138	51.88
332.35	33.45
332.563	58.03
332.776	111.27
332.989	37.55
333.202	-13.65
333.414	82.6
333.627	-5.46
333.84	35.5
334.053	19.11
334.265	39.59
334.478	70.31
334.691	15.02
334.903	35.5
335.116	0.68
335.329	45.74
335.541	68.27
335.754	117.42
335.966	39.59
336.179	31.4
336.392	0.68
336.604	139.94
336.817	15.02
337.029	51.88
337.242	37.55
337.454	45.74
337.667	15.02
337.88	70.31
338.092	47.79
338.305	94.89
338.517	78.51
338.729	74.41
338.942	68.27
339.154	58.03
339.367	53.93
339.579	96.94
339.792	-32.08
340.004	37.55
340.217	62.12
340.429	21.16
340.641	58.03
340.854	25.26
341.066	101.03
341.278	111.27
341.491	49.83
341.703	31.4
341.915	-38.23
342.128	107.18
342.34	45.74
342.552	78.51
342.764	62.12
342.977	58.03
343.189	33.45
343.401	86.7
343.613	43.69
343.826	58.03
344.038	88.75
344.25	58.03
344.462	86.7
344.674	60.07
344.886	78.51
345.099	39.59
345.311	4.78
345.523	21.16
345.735	4.78
345.947	92.84
346.159	66.22
346.371	12.97
346.583	94.89
346.795	76.46
347.007	12.97
347.219	72.36
347.431	74.41
347.643	88.75
347.855	-23.89
348.067	66.22
348.279	10.92
348.491	60.07
348.703	37.55
348.915	60.07
349.127	25.26
349.339	33.45
349.551	49.83
349.763	94.89
349.975	96.94
350.187	92.84
350.399	70.31
350.61	119.46
350.822	12.97
351.034	127.66
351.246	101.03
351.458	21.16
351.669	92.84
351.881	21.16
352.093	76.46
352.305	17.07
352.517	58.03
352.728	162.47
352.94	58.03
353.152	146.09
353.363	47.79
353.575	53.93
353.787	23.21
353.999	74.41
354.21	135.85
354.422	-13.65
354.633	35.5
354.845	74.41
355.057	103.08
355.268	82.6
355.48	76.46
355.692	-21.85
355.903	-7.51
356.115	17.07
356.326	17.07
356.538	111.27
356.749	66.22
356.961	21.16
357.172	125.61
357.384	60.07
357.595	158.38
357.807	-5.46
358.018	58.03
358.23	90.79
358.441	123.56
358.653	107.18
358.864	66.22
359.075	33.45
359.287	-15.7
359.498	115.37
359.709	127.66
359.921	58.03
360.132	139.94
360.344	39.59
360.555	29.35
360.766	19.11
360.977	123.56
361.189	68.27
361.4	19.11
361.611	86.7
361.823	115.37
362.034	74.41
362.245	49.83
362.456	51.88
362.667	90.79
362.879	-15.7
363.09	-30.04
363.301	82.6
363.512	82.6
363.723	123.56
363.935	0.68
364.146	133.8
364.357	60.07
364.568	82.6
364.779	21.16
364.99	90.79
365.201	41.64
365.412	139.94
365.623	-3.41
365.834	62.12
366.045	-36.18
366.256	17.07
366.467	45.74
366.678	25.26
366.889	-13.65
367.1	72.36
367.311	76.46
367.522	0.68
367.733	27.31
367.944	109.22
368.155	53.93
368.366	49.83
368.577	60.07
368.788	115.37
368.999	74.41
369.209	25.26
369.42	139.94
369.631	74.41
369.842	51.88
370.053	-13.65
370.264	72.36
370.474	25.26
370.685	43.69
370.896	62.12
371.107	62.12
371.317	49.83
371.528	6.83
371.739	84.65
371.95	170.66
372.16	55.98
372.371	66.22
372.582	58.03
372.792	39.59
373.003	62.12
373.214	58.03
373.424	103.08
373.635	58.03
373.846	39.59
374.056	90.79
374.267	84.65
374.477	131.75
374.688	39.59
374.898	27.31
375.109	53.93
375.319	70.31
375.53	123.56
375.74	49.83
375.951	51.88
376.161	127.66
376.372	90.79
376.582	35.5
376.793	98.99
377.003	27.31
377.214	33.45
377.424	29.35
377.635	78.51
377.845	25.26
378.055	66.22
378.266	-23.89
378.476	84.65
378.686	78.51
378.897	66.22
379.107	96.94
379.317	27.31
379.528	0.68
379.738	178.86
379.948	29.35
380.158	33.45
380.369	62.12
380.579	119.46
380.789	45.74
380.999	29.35
381.21	88.75
381.42	84.65
381.63	8.87
381.84	68.27
382.05	39.59
382.261	152.23
382.471	80.55
382.681	49.83
382.891	39.59
383.101	-7.51
383.311	-5.46
383.521	8.87
383.731	64.17
383.941	49.83
384.151	127.66
384.361	49.83
384.571	8.87
384.781	86.7
384.991	37.55
385.201	66.22
385.411	74.41
385.621	10.92
385.831	92.84
386.041	58.03
386.251	58.03
386.461	49.83
386.671	76.46
386.881	58.03
387.091	68.27
387.301	152.23
387.511	58.03
387.72	92.84
387.93	131.75
388.14	33.45
388.35	135.85
388.56	107.18
388.769	43.69
388.979	84.65
389.189	53.93
389.399	27.31
389.609	74.41
389.818	131.75
390.028	45.74
390.238	49.83
390.447	78.51
390.657	127.66
390.867	78.51
391.076	12.97
391.286	117.42
391.496	4.78
391.705	66.22
391.915	25.26
392.125	141.99
392.334	19.11
392.544	92.84
392.753	33.45
392.963	39.59
393.172	125.61
393.382	66.22
393.591	101.03
393.801	60.07
394.01	164.52
394.22	88.75
394.429	92.84
394.639	119.46
394.848	123.56
395.058	195.24
395.267	27.31
395.477	43.69
395.686	117.42
395.895	82.6
396.105	139.94
396.314	51.88
396.524	123.56
396.733	80.55
396.942	178.86
397.152	115.37
397.361	66.22
397.57	98.99
397.78	98.99
397.989	76.46
398.198	164.52
398.407	111.27
398.617	148.14
398.826	141.99
399.035	98.99
399.244	82.6
399.453	74.41
399.663	84.65
399.872	172.71
400.081	101.03
400.29	90.79
400.499	174.76
400.708	152.23
400.917	141.99
401.127	123.56
401.336	98.99
401.545	150.18
401.754	109.22
401.963	60.07
402.172	146.09
402.381	55.98
402.59	123.56
402.799	176.81
403.008	158.38
403.217	156.33
403.426	105.13
403.635	58.03
403.844	115.37
404.053	166.57
404.262	98.99
404.471	178.86
404.68	98.99
404.888	185
405.097	168.62
405.306	174.76
405.515	168.62
405.724	213.67
405.933	213.67
406.142	172.71
406.35	303.78
406.559	164.52
406.768	168.62
406.977	287.4
407.185	193.19
407.394	303.78
407.603	203.43
407.812	185
408.02	230.06
408.229	352.93
408.438	211.62
408.646	285.35
408.855	209.58
409.064	275.11
409.272	271.01
409.481	320.17
409.69	262.82
409.898	320.17
410.107	256.68
410.315	443.04
410.524	350.89
410.733	354.98
410.941	397.99
411.15	408.23
411.358	324.26
411.567	412.32
411.775	336.55
411.984	383.65
412.192	422.56
412.401	453.28
412.609	481.96
412.818	451.24
413.026	584.35
413.234	549.54
413.443	535.2
413.651	584.35
413.86	682.66
414.068	584.35
414.276	615.07
414.485	596.64
414.693	649.89
414.901	680.61
415.11	725.66
415.318	664.22
415.526	797.34
415.734	723.62
415.943	764.58
416.151	836.25
416.359	821.92
416.567	909.98
416.776	864.93
416.984	823.97
417.192	1041.05
417.4	1002.14
417.608	983.71
417.817	1014.43
418.025	1067.67
418.233	1196.7
418.441	1102.49
418.649	1278.62
418.857	1245.85
419.065	1266.33
419.273	1325.72
419.481	1323.67
419.689	1446.55
419.897	1532.56
420.105	1520.28
420.313	1565.33
420.521	1532.56
420.729	1581.71
420.937	1641.11
421.145	1720.98
421.353	1862.29
421.561	1970.83
421.769	2099.85
421.977	1991.31
422.185	2017.93
422.393	2179.72
422.601	2349.7
422.809	2171.53
423.017	2247.3
423.224	2427.53
423.432	2452.1
423.64	2495.11
423.848	2622.08
424.056	2587.27
424.263	2867.84
424.471	2794.11
424.679	2900.61
424.887	2968.19
425.094	3007.1
425.302	3177.08
425.51	3326.58
425.718	3392.12
425.925	3369.59
426.133	3576.44
426.341	3662.45
426.548	3754.61
426.756	3736.18
426.964	3932.78
427.171	4203.11
427.379	4227.69
427.586	4211.31
427.794	4346.47
428.001	4571.75
428.209	4751.97
428.417	4637.28
428.624	5010.01
428.832	5071.45
429.039	5177.95
429.247	5050.97
429.454	5573.21
429.662	5911.12
429.869	5524.05
430.076	5993.04
430.284	5823.06
430.491	5898.83
430.699	6324.81
430.906	6333
431.114	6554.18
431.321	6523.46
431.528	6758.98
431.736	7309.88
431.943	7660.09
432.15	7389.75
432.358	7434.81
432.565	7817.78
432.772	7737.91
432.979	8223.28
433.187	8348.2
433.394	8376.87
433.601	9071.14
433.808	8839.72
434.016	8987.17
434.223	9171.49
434.43	9953.81
434.637	9818.64
434.844	10144.27
435.052	10435.08
435.259	10385.93
435.466	10349.07
435.673	10232.33
435.88	10926.6
436.087	11588.09
436.294	11448.83
436.501	11217.41
436.708	11473.4
436.915	11727.35
437.122	12456.43
437.329	12317.17
437.537	12610.03
437.743	13033.96
437.95	13003.24
438.157	13771.22
438.364	14205.39
438.571	13959.64
438.778	14076.37
438.985	15290.82
439.192	14664.14
439.399	15362.5
439.606	14787.02
439.813	15540.67
440.02	16826.79
440.227	16286.13
440.433	16226.74
440.64	16888.23
440.847	16779.69
441.054	17197.48
441.261	18028.95
441.467	17813.91
441.674	18278.8
441.881	19284.36
442.088	18858.38
442.294	18657.68
442.501	19382.66
442.708	19538.3
442.914	20132.22
443.121	21217.64
443.328	20685.17
443.534	22137.18
443.741	21274.98
443.948	21025.13
444.154	22604.11
444.361	22442.32
444.568	22800.72
444.774	22405.46
444.981	22755.66
445.187	23464.26
445.394	24740.15
445.6	24400.18
445.807	26595.6
446.013	25385.26
446.22	25807.14
446.426	27003.15
446.633	27091.21
446.839	28401.91
447.046	26976.53
447.252	28188.92
447.459	28393.72
447.665	28000.51
447.871	29458.67
448.078	30513.37
448.284	28961.01
448.491	29755.62
448.697	30986.45
448.903	31918.28
449.11	31682.76
449.316	31359.18
449.522	31856.84
449.728	33036.47
449.935	33118.39
450.141	33009.84
450.347	33595.56
450.553	32641.21
450.76	33484.97
450.966	34244.77
451.172	33894.57
451.378	34658.46
451.584	33958.05
451.791	34637.98
451.997	34951.32
452.203	35309.71
452.409	35336.34
452.615	35106.96
452.821	33788.07
453.027	33831.08
453.233	35541.13
453.44	34060.45
453.646	34039.97
453.852	34336.93
454.058	35203.22
454.264	33413.29
454.47	34277.54
454.676	33931.43
454.882	35098.77
455.088	31942.85
455.294	32604.35
455.5	32768.18
455.705	33020.08
455.911	31817.93
456.117	31267.02
456.323	30826.71
456.529	29262.06
456.735	30544.09
456.941	29636.84
457.147	29303.02
457.352	28686.58
457.558	28143.87
457.764	28352.76
457.97	27719.94
458.176	27099.41
458.381	27244.81
458.587	25755.94
458.793	26077.47
458.999	24572.21
459.204	26394.9
459.41	25755.94
459.616	23849.28
459.821	23976.25
460.027	24142.14
460.233	23071.05
460.438	22294.87
460.644	22419.8
460.85	21485.92
461.055	21125.48
461.261	20894.06
461.466	19665.28
461.672	18934.15
461.878	20420.98
462.083	19196.29
462.289	18491.79
462.494	18297.24
462.7	17664.41
462.905	17125.8
463.111	17770.91
463.316	17504.67
463.522	17381.79
463.727	17428.9
463.932	17377.7
464.138	17258.92
464.343	17314.21
464.549	16796.07
464.754	17095.08
464.959	17322.4
465.165	16859.56
465.37	16128.44
465.575	15868.34
465.781	16654.76
465.986	16527.79
466.191	15958.46
466.397	15659.45
466.602	14895.56
466.807	15528.38
467.012	15333.82
