Data from USB4F104151__156__14-19-34-626.txt Node

Date: Thu Mar 13 14:19:34 EDT 2025
User: louis
Spectrometer: USB4F10415
Trigger mode: 4
Integration Time (sec): 2.000000E-2
Scans to average: 1
Electric dark correction enabled: true
Nonlinearity correction enabled: false
Boxcar width: 0
XAxis mode: Wavelengths
Number of Pixels in Spectrum: 3648
>>>>>Begin Spectral Data<<<<<
178.204	-143.19
178.424	-143.19
178.644	-143.19
178.864	-91.99
179.084	-100.18
179.304	-75.6
179.524	-65.36
179.744	18.6
179.964	10.41
180.184	20.65
180.404	-10.07
180.624	-16.21
180.844	6.31
181.064	-10.07
181.283	55.47
181.503	14.51
181.723	51.37
181.943	-77.65
182.163	34.99
182.383	-26.45
182.602	53.42
182.822	49.32
183.042	26.79
183.262	22.7
183.482	-12.12
183.701	-22.36
183.921	37.03
184.141	71.85
184.361	82.09
184.58	-10.07
184.8	88.23
185.02	-38.74
185.239	96.43
185.459	16.55
185.679	55.47
185.898	-73.56
186.118	96.43
186.338	39.08
186.557	-16.21
186.777	-10.07
186.997	30.89
187.216	47.27
187.436	18.6
187.655	80.04
187.875	6.31
188.095	47.27
188.314	39.08
188.534	59.56
188.753	14.51
188.973	-24.4
189.192	51.37
189.412	59.56
189.631	22.7
189.851	24.75
190.07	-26.45
190.29	-28.5
190.509	8.36
190.729	59.56
190.948	39.08
191.168	129.19
191.387	47.27
191.607	73.9
191.826	34.99
192.045	112.81
192.265	-18.26
192.484	2.22
192.704	55.47
192.923	49.32
193.142	14.51
193.362	41.13
193.581	-3.93
193.8	41.13
194.02	-40.79
194.239	6.31
194.458	-1.88
194.678	-10.07
194.897	49.32
195.116	-20.31
195.335	6.31
195.555	82.09
195.774	51.37
195.993	-55.12
196.212	-24.4
196.432	71.85
196.651	-67.41
196.87	37.03
197.089	104.62
197.308	6.31
197.528	39.08
197.747	-18.26
197.966	14.51
198.185	84.14
198.404	-24.4
198.623	-40.79
198.842	104.62
199.062	32.94
199.281	80.04
199.5	-22.36
199.719	30.89
199.938	0.17
200.157	65.71
200.376	51.37
200.595	59.56
200.814	47.27
201.033	65.71
201.252	65.71
201.471	47.27
201.69	67.75
201.909	39.08
202.128	-5.97
202.347	41.13
202.566	67.75
202.785	6.31
203.004	-14.17
203.223	112.81
203.442	-1.88
203.661	-16.21
203.879	22.7
204.098	88.23
204.317	-24.4
204.536	67.75
204.755	-40.79
204.974	28.84
205.193	104.62
205.411	82.09
205.63	22.7
205.849	22.7
206.068	-28.5
206.287	-8.02
206.505	65.71
206.724	63.66
206.943	32.94
207.162	59.56
207.381	-5.97
207.599	14.51
207.818	39.08
208.037	73.9
208.255	-51.03
208.474	30.89
208.693	43.18
208.911	-87.89
209.13	30.89
209.349	82.09
209.567	-8.02
209.786	71.85
210.005	51.37
210.223	-10.07
210.442	-30.55
210.661	-18.26
210.879	-34.64
211.098	18.6
211.316	-10.07
211.535	47.27
211.753	65.71
211.972	51.37
212.191	-5.97
212.409	2.22
212.628	20.65
212.846	34.99
213.065	57.51
213.283	18.6
213.502	80.04
213.72	2.22
213.938	14.51
214.157	16.55
214.375	-42.84
214.594	47.27
214.812	102.57
215.031	-1.88
215.249	-59.22
215.467	22.7
215.686	16.55
215.904	-42.84
216.122	-8.02
216.341	22.7
216.559	8.36
216.778	34.99
216.996	55.47
217.214	90.28
217.432	18.6
217.651	16.55
217.869	65.71
218.087	34.99
218.306	16.55
218.524	77.99
218.742	4.27
218.96	12.46
219.179	41.13
219.397	53.42
219.615	75.95
219.833	-12.12
220.051	-3.93
220.27	67.75
220.488	59.56
220.706	51.37
220.924	63.66
221.142	34.99
221.36	24.75
221.578	-1.88
221.796	16.55
222.015	100.52
222.233	20.65
222.451	55.47
222.669	4.27
222.887	-1.88
223.105	45.23
223.323	43.18
223.541	-38.74
223.759	65.71
223.977	59.56
224.195	98.47
224.413	26.79
224.631	24.75
224.849	-65.36
225.067	65.71
225.285	-79.7
225.503	47.27
225.721	32.94
225.939	61.61
226.157	51.37
226.375	18.6
226.592	10.41
226.81	-10.07
227.028	32.94
227.246	112.81
227.464	59.56
227.682	18.6
227.9	18.6
228.117	34.99
228.335	43.18
228.553	57.51
228.771	-51.03
228.989	28.84
229.206	2.22
229.424	-26.45
229.642	-18.26
229.86	16.55
230.077	6.31
230.295	82.09
230.513	34.99
230.731	24.75
230.948	59.56
231.166	69.8
231.384	71.85
231.601	14.51
231.819	18.6
232.037	-26.45
232.254	-30.55
232.472	63.66
232.689	-57.17
232.907	80.04
233.125	51.37
233.342	16.55
233.56	22.7
233.777	30.89
233.995	-24.4
234.213	75.95
234.43	0.17
234.648	39.08
234.865	0.17
235.083	90.28
235.3	6.31
235.518	28.84
235.735	69.8
235.953	-24.4
236.17	-24.4
236.388	32.94
236.605	16.55
236.822	14.51
237.04	-30.55
237.257	-36.69
237.475	-34.64
237.692	59.56
237.909	-5.97
238.127	59.56
238.344	-1.88
238.562	59.56
238.779	51.37
238.996	47.27
239.214	47.27
239.431	39.08
239.648	65.71
239.865	43.18
240.083	22.7
240.3	51.37
240.517	-22.36
240.735	-32.6
240.952	43.18
241.169	39.08
241.386	53.42
241.603	-8.02
241.821	41.13
242.038	26.79
242.255	10.41
242.472	30.89
242.689	80.04
242.907	10.41
243.124	-18.26
243.341	14.51
243.558	-55.12
243.775	41.13
243.992	-32.6
244.209	22.7
244.426	77.99
244.643	61.61
244.86	39.08
245.078	51.37
245.295	2.22
245.512	-22.36
245.729	-34.64
245.946	116.9
246.163	73.9
246.38	18.6
246.597	71.85
246.814	-5.97
247.031	-26.45
247.248	59.56
247.464	10.41
247.681	39.08
247.898	55.47
248.115	57.51
248.332	55.47
248.549	34.99
248.766	92.33
248.983	92.33
249.2	-46.93
249.417	22.7
249.633	30.89
249.85	-10.07
250.067	-16.21
250.284	73.9
250.501	-12.12
250.717	71.85
250.934	10.41
251.151	6.31
251.368	-91.99
251.585	37.03
251.801	45.23
252.018	-5.97
252.235	51.37
252.451	28.84
252.668	-36.69
252.885	45.23
253.102	67.75
253.318	51.37
253.535	82.09
253.752	18.6
253.968	14.51
254.185	-14.17
254.401	18.6
254.618	26.79
254.835	-14.17
255.051	59.56
255.268	16.55
255.484	67.75
255.701	6.31
255.917	39.08
256.134	-42.84
256.351	-18.26
256.567	-5.97
256.784	-1.88
257	6.31
257.217	30.89
257.433	49.32
257.65	34.99
257.866	112.81
258.082	55.47
258.299	-20.31
258.515	6.31
258.732	41.13
258.948	-3.93
259.165	55.47
259.381	14.51
259.597	82.09
259.814	55.47
260.03	6.31
260.246	-10.07
260.463	55.47
260.679	43.18
260.895	32.94
261.112	57.51
261.328	-34.64
261.544	-18.26
261.761	80.04
261.977	51.37
262.193	-18.26
262.409	20.65
262.626	30.89
262.842	37.03
263.058	-14.17
263.274	88.23
263.49	49.32
263.707	71.85
263.923	39.08
264.139	30.89
264.355	39.08
264.571	108.71
264.787	43.18
265.004	34.99
265.22	-10.07
265.436	41.13
265.652	-1.88
265.868	139.43
266.084	-48.98
266.3	28.84
266.516	-32.6
266.732	-10.07
266.948	-42.84
267.164	39.08
267.38	32.94
267.596	47.27
267.812	80.04
268.028	24.75
268.244	49.32
268.46	-1.88
268.676	88.23
268.892	82.09
269.108	18.6
269.324	34.99
269.54	6.31
269.756	104.62
269.972	-18.26
270.188	18.6
270.403	34.99
270.619	18.6
270.835	30.89
271.051	57.51
271.267	18.6
271.483	82.09
271.698	24.75
271.914	16.55
272.13	-18.26
272.346	39.08
272.562	39.08
272.777	26.79
272.993	-5.97
273.209	30.89
273.425	18.6
273.64	49.32
273.856	77.99
274.072	55.47
274.287	-16.21
274.503	71.85
274.719	49.32
274.934	26.79
275.15	-67.41
275.366	47.27
275.581	-1.88
275.797	71.85
276.012	30.89
276.228	30.89
276.444	-1.88
276.659	47.27
276.875	-14.17
277.09	26.79
277.306	63.66
277.521	30.89
277.737	-3.93
277.952	43.18
278.168	34.99
278.383	82.09
278.599	84.14
278.814	-18.26
279.03	22.7
279.245	110.76
279.461	20.65
279.676	65.71
279.892	-28.5
280.107	6.31
280.322	16.55
280.538	55.47
280.753	-16.21
280.969	71.85
281.184	22.7
281.399	71.85
281.615	71.85
281.83	100.52
282.045	-16.21
282.26	45.23
282.476	20.65
282.691	96.43
282.906	75.95
283.122	82.09
283.337	-5.97
283.552	49.32
283.767	39.08
283.983	63.66
284.198	-30.55
284.413	84.14
284.628	16.55
284.843	49.32
285.058	4.27
285.274	55.47
285.489	-42.84
285.704	30.89
285.919	-1.88
286.134	55.47
286.349	39.08
286.564	-1.88
286.779	65.71
286.995	14.51
287.21	49.32
287.425	18.6
287.64	80.04
287.855	6.31
288.07	-46.93
288.285	26.79
288.5	65.71
288.715	82.09
288.93	8.36
289.145	6.31
289.36	0.17
289.575	53.42
289.79	88.23
290.004	-28.5
290.219	51.37
290.434	26.79
290.649	47.27
290.864	57.51
291.079	28.84
291.294	49.32
291.509	-22.36
291.724	55.47
291.938	80.04
292.153	75.95
292.368	55.47
292.583	57.51
292.798	90.28
293.012	98.47
293.227	55.47
293.442	59.56
293.657	-38.74
293.871	49.32
294.086	80.04
294.301	-20.31
294.516	49.32
294.73	67.75
294.945	30.89
295.16	14.51
295.374	55.47
295.589	55.47
295.804	41.13
296.018	0.17
296.233	2.22
296.447	96.43
296.662	30.89
296.877	121
297.091	84.14
297.306	92.33
297.52	-8.02
297.735	51.37
297.949	88.23
298.164	8.36
298.378	41.13
298.593	-32.6
298.807	61.61
299.022	69.8
299.236	30.89
299.451	-10.07
299.665	0.17
299.88	86.19
300.094	22.7
300.309	39.08
300.523	10.41
300.737	-10.07
300.952	24.75
301.166	102.57
301.381	-67.41
301.595	88.23
301.809	-5.97
302.024	12.46
302.238	-24.4
302.452	-1.88
302.667	-24.4
302.881	49.32
303.095	92.33
303.309	118.95
303.524	-18.26
303.738	80.04
303.952	-32.6
304.166	30.89
304.381	-18.26
304.595	118.95
304.809	41.13
305.023	-18.26
305.237	96.43
305.452	41.13
305.666	28.84
305.88	26.79
306.094	34.99
306.308	24.75
306.522	86.19
306.736	39.08
306.95	26.79
307.164	24.75
307.379	75.95
307.593	71.85
307.807	92.33
308.021	8.36
308.235	22.7
308.449	10.41
308.663	10.41
308.877	71.85
309.091	16.55
309.305	12.46
309.519	-10.07
309.733	47.27
309.947	47.27
310.161	43.18
310.374	55.47
310.588	32.94
310.802	26.79
311.016	-57.17
311.23	0.17
311.444	14.51
311.658	12.46
311.872	55.47
312.085	80.04
312.299	69.8
312.513	41.13
312.727	6.31
312.941	-40.79
313.154	45.23
313.368	18.6
313.582	63.66
313.796	-63.32
314.009	151.72
314.223	71.85
314.437	30.89
314.651	39.08
314.864	0.17
315.078	6.31
315.292	-5.97
315.505	26.79
315.719	8.36
315.933	26.79
316.146	32.94
316.36	-26.45
316.573	24.75
316.787	-5.97
317.001	71.85
317.214	139.43
317.428	43.18
317.641	-67.41
317.855	8.36
318.068	67.75
318.282	32.94
318.495	-12.12
318.709	37.03
318.922	0.17
319.136	106.67
319.349	20.65
319.563	63.66
319.776	129.19
319.99	39.08
320.203	39.08
320.417	20.65
320.63	82.09
320.843	41.13
321.057	90.28
321.27	-1.88
321.483	2.22
321.697	80.04
321.91	-3.93
322.124	51.37
322.337	8.36
322.55	22.7
322.763	10.41
322.977	8.36
323.19	-42.84
323.403	88.23
323.617	-5.97
323.83	84.14
324.043	59.56
324.256	2.22
324.469	67.75
324.683	59.56
324.896	65.71
325.109	71.85
325.322	43.18
325.535	141.48
325.748	55.47
325.962	45.23
326.175	34.99
326.388	45.23
326.601	67.75
326.814	63.66
327.027	88.23
327.24	16.55
327.453	22.7
327.666	55.47
327.879	94.38
328.092	71.85
328.305	102.57
328.518	-1.88
328.731	-18.26
328.944	-5.97
329.157	16.55
329.37	30.89
329.583	121
329.796	18.6
330.009	47.27
330.222	-14.17
330.435	55.47
330.648	10.41
330.861	-44.88
331.073	-18.26
331.286	-1.88
331.499	59.56
331.712	-16.21
331.925	18.6
332.138	-20.31
332.35	22.7
332.563	34.99
332.776	39.08
332.989	73.9
333.202	34.99
333.414	18.6
333.627	71.85
333.84	59.56
334.053	51.37
334.265	49.32
334.478	63.66
334.691	-28.5
334.903	34.99
335.116	-10.07
335.329	51.37
335.541	-10.07
335.754	112.81
335.966	30.89
336.179	69.8
336.392	0.17
336.604	47.27
336.817	51.37
337.029	63.66
337.242	55.47
337.454	37.03
337.667	69.8
337.88	43.18
338.092	34.99
338.305	41.13
338.517	22.7
338.729	114.86
338.942	49.32
339.154	37.03
339.367	34.99
339.579	-34.64
339.792	30.89
340.004	96.43
340.217	24.75
340.429	71.85
340.641	6.31
340.854	-48.98
341.066	47.27
341.278	34.99
341.491	90.28
341.703	22.7
341.915	51.37
342.128	114.86
342.34	-28.5
342.552	10.41
342.764	63.66
342.977	71.85
343.189	55.47
343.401	114.86
343.613	2.22
343.826	114.86
344.038	32.94
344.25	41.13
344.462	-18.26
344.674	75.95
344.886	112.81
345.099	41.13
345.311	63.66
345.523	32.94
345.735	49.32
345.947	73.9
346.159	2.22
346.371	39.08
346.583	0.17
346.795	43.18
347.007	55.47
347.219	14.51
347.431	-38.74
347.643	10.41
347.855	106.67
348.067	104.62
348.279	47.27
348.491	77.99
348.703	106.67
348.915	39.08
349.127	22.7
349.339	10.41
349.551	2.22
349.763	-8.02
349.975	-34.64
350.187	112.81
350.399	77.99
350.61	88.23
350.822	22.7
351.034	73.9
351.246	45.23
351.458	-3.93
351.669	69.8
351.881	73.9
352.093	24.75
352.305	49.32
352.517	82.09
352.728	73.9
352.94	47.27
353.152	-42.84
353.363	28.84
353.575	20.65
353.787	55.47
353.999	2.22
354.21	131.24
354.422	-5.97
354.633	55.47
354.845	39.08
355.057	47.27
355.268	49.32
355.48	51.37
355.692	32.94
355.903	84.14
356.115	14.51
356.326	-26.45
356.538	28.84
356.749	57.51
356.961	96.43
357.172	26.79
357.384	59.56
357.595	67.75
357.807	-1.88
358.018	47.27
358.23	43.18
358.441	104.62
358.653	30.89
358.864	121
359.075	-30.55
359.287	6.31
359.498	39.08
359.709	47.27
359.921	28.84
360.132	37.03
360.344	34.99
360.555	41.13
360.766	88.23
360.977	-38.74
361.189	59.56
361.4	14.51
361.611	86.19
361.823	114.86
362.034	98.47
362.245	34.99
362.456	30.89
362.667	59.56
362.879	14.51
363.09	63.66
363.301	71.85
363.512	47.27
363.723	18.6
363.935	-38.74
364.146	59.56
364.357	-14.17
364.568	80.04
364.779	-10.07
364.99	69.8
365.201	30.89
365.412	137.38
365.623	-3.93
365.834	-14.17
366.045	45.23
366.256	100.52
366.467	16.55
366.678	16.55
366.889	96.43
367.1	65.71
367.311	82.09
367.522	32.94
367.733	63.66
367.944	0.17
368.155	65.71
368.366	37.03
368.577	133.29
368.788	37.03
368.999	22.7
369.209	125.1
369.42	82.09
369.631	16.55
369.842	96.43
370.053	65.71
370.264	92.33
370.474	55.47
370.685	55.47
370.896	75.95
371.107	71.85
371.317	49.32
371.528	69.8
371.739	166.06
371.95	90.28
372.16	32.94
372.371	-28.5
372.582	90.28
372.792	104.62
373.003	84.14
373.214	43.18
373.424	51.37
373.635	80.04
373.846	55.47
374.056	43.18
374.267	32.94
374.477	-8.02
374.688	67.75
374.898	88.23
375.109	63.66
375.319	69.8
375.53	80.04
375.74	39.08
375.951	73.9
376.161	-22.36
376.372	125.1
376.582	57.51
376.793	71.85
377.003	-5.97
377.214	18.6
377.424	65.71
377.635	6.31
377.845	20.65
378.055	100.52
378.266	20.65
378.476	75.95
378.686	71.85
378.897	49.32
379.107	63.66
379.317	77.99
379.528	24.75
379.738	14.51
379.948	63.66
380.158	59.56
380.369	82.09
380.579	88.23
380.789	63.66
380.999	96.43
381.21	39.08
381.42	84.14
381.63	47.27
381.84	59.56
382.05	71.85
382.261	118.95
382.471	65.71
382.681	39.08
382.891	131.24
383.101	112.81
383.311	82.09
383.521	47.27
383.731	57.51
383.941	114.86
384.151	104.62
384.361	63.66
384.571	0.17
384.781	82.09
384.991	127.14
385.201	104.62
385.411	57.51
385.621	80.04
385.831	100.52
386.041	41.13
386.251	67.75
386.461	139.43
386.671	-14.17
386.881	139.43
387.091	69.8
387.301	43.18
387.511	75.95
387.72	114.86
387.93	73.9
388.14	14.51
388.35	75.95
388.56	137.38
388.769	49.32
388.979	34.99
389.189	22.7
389.399	63.66
389.609	106.67
389.818	73.9
390.028	102.57
390.238	147.62
390.447	32.94
390.657	92.33
390.867	28.84
391.076	-20.31
391.286	90.28
391.496	2.22
391.705	71.85
391.915	80.04
392.125	116.9
392.334	24.75
392.544	118.95
392.753	104.62
392.963	92.33
393.172	121
393.382	-10.07
393.591	215.21
393.801	39.08
394.01	168.1
394.22	92.33
394.429	125.1
394.639	39.08
394.848	65.71
395.058	100.52
395.267	69.8
395.477	96.43
395.686	170.15
395.895	143.53
396.105	219.3
396.314	65.71
396.524	127.14
396.733	75.95
396.942	190.63
397.152	102.57
397.361	196.78
397.57	151.72
397.78	116.9
397.989	155.82
398.198	196.78
398.407	43.18
398.617	110.76
398.826	88.23
399.035	166.06
399.244	153.77
399.453	88.23
399.663	145.58
399.872	256.17
400.081	96.43
400.29	137.38
400.499	86.19
400.708	102.57
400.917	137.38
401.127	141.48
401.336	170.15
401.545	182.44
401.754	141.48
401.963	166.06
402.172	123.05
402.381	198.82
402.59	145.58
402.799	141.48
403.008	186.54
403.217	77.99
403.426	247.97
403.635	137.38
403.844	174.25
404.053	219.3
404.262	100.52
404.471	235.69
404.68	164.01
404.888	274.6
405.097	252.07
405.306	178.34
405.515	190.63
405.724	108.71
405.933	233.64
406.142	174.25
406.35	270.5
406.559	219.3
406.768	182.44
406.977	374.95
407.185	280.74
407.394	284.84
407.603	231.59
407.812	336.04
408.02	317.61
408.229	342.18
408.438	333.99
408.646	309.41
408.855	293.03
409.064	374.95
409.272	342.18
409.481	358.57
409.69	374.95
409.898	313.51
410.107	483.49
410.315	532.64
410.524	315.56
410.733	522.4
410.941	485.54
411.15	499.88
411.358	518.31
411.567	530.59
411.775	499.88
411.984	620.71
412.192	604.32
412.401	665.76
412.609	659.62
412.818	589.99
413.026	649.38
413.234	694.43
413.443	759.97
413.651	751.78
413.86	835.74
414.068	831.65
414.276	909.47
414.485	917.66
414.693	956.57
414.901	946.33
415.11	981.15
415.318	948.38
415.526	1065.11
415.734	1013.92
415.943	1075.35
416.151	1126.55
416.359	1153.18
416.567	1261.72
416.776	1341.59
416.984	1284.25
417.192	1349.78
417.4	1448.08
417.608	1464.47
417.817	1433.75
418.025	1542.29
418.233	1644.69
418.441	1620.11
418.649	1693.84
418.857	1804.43
419.065	1869.97
419.273	1779.86
419.481	1874.06
419.689	2060.43
419.897	2117.77
420.105	2031.76
420.313	2220.17
420.521	2130.06
420.729	2361.48
420.937	2367.62
421.145	2461.83
421.353	2584.71
421.561	2664.58
421.769	2668.67
421.977	2859.14
422.185	2789.5
422.393	2973.82
422.601	3086.46
422.809	3246.2
423.017	3168.38
423.224	3356.79
423.432	3414.13
423.64	3422.33
423.848	3731.57
424.056	3569.78
424.263	3975.28
424.471	3991.66
424.679	4175.98
424.887	4329.58
425.094	4436.07
425.302	4448.36
425.51	4593.76
425.718	4749.41
425.925	4837.47
426.133	5062.75
426.341	5226.59
426.548	5443.67
426.756	5568.6
426.964	5699.67
427.171	5847.12
427.379	5996.62
427.586	6176.84
427.794	6318.15
428.001	6717.51
428.209	6821.95
428.417	6637.64
428.624	7305.28
428.832	7182.4
429.039	7364.67
429.247	7317.56
429.454	7870.51
429.662	8595.5
429.869	7905.33
430.076	8458.28
430.284	8157.23
430.491	8445.99
430.699	9099.3
430.906	8982.56
431.114	9107.49
431.321	9584.66
431.528	9617.43
431.736	10319.89
431.943	10883.08
432.15	10541.07
432.358	10735.62
432.565	11161.6
432.772	11094.02
432.979	11587.58
433.187	11993.08
433.394	11982.84
433.601	12677.1
433.808	12550.12
434.016	12644.33
434.223	13516.76
434.43	14041.04
434.637	13684.7
434.844	14665.67
435.052	14911.43
435.259	14899.14
435.466	14997.45
435.673	14573.52
435.88	15632.32
436.087	16537.52
436.294	16570.29
436.501	16183.22
436.708	16388.02
436.915	17086.37
437.122	17557.41
437.329	17551.26
437.537	18466.7
437.743	18483.09
437.95	18429.84
438.157	19107.72
438.364	19971.96
438.571	19765.12
438.778	19787.64
438.985	21880.67
439.192	20967.27
439.399	21985.12
439.606	20985.71
439.813	22214.49
440.02	23879.49
440.227	23377.73
440.433	23119.69
440.64	24080.19
440.847	23598.91
441.054	24194.87
441.261	26062.62
441.467	25450.28
441.674	26011.42
441.881	26865.42
442.088	26795.79
442.294	26838.8
442.501	27301.64
442.708	27850.5
442.914	28718.84
443.121	30095.07
443.328	29488.87
443.534	31428.3
443.741	30383.84
443.948	30125.79
444.154	32149.18
444.361	31641.29
444.568	31872.71
444.774	32284.35
444.981	32722.62
445.187	33263.28
445.394	34877.08
445.6	34555.55
445.807	37430.9
446.013	36101.76
446.22	36879.99
446.426	38145.64
446.633	38303.33
446.839	40054.34
447.046	38147.68
447.252	40185.41
447.459	39878.22
447.665	40064.58
447.871	41901.61
448.078	43716.11
448.284	41367.09
448.491	42380.84
448.697	44060.17
448.903	44492.29
449.11	44813.82
449.316	44262.92
449.522	45340.15
449.728	46347.75
449.935	46296.55
450.141	46720.48
450.347	47730.13
450.553	45780.46
450.76	46368.23
450.966	48104.91
451.172	47537.62
451.378	48498.12
451.584	47730.13
451.791	49089.98
451.997	48541.13
452.203	49763.76
452.409	49864.11
452.615	49272.25
452.821	47576.53
453.027	47087.07
453.233	49362.36
453.44	47797.71
453.646	48010.7
453.852	48334.28
454.058	48883.14
454.264	47674.84
454.47	48606.66
454.676	47459.8
454.882	49061.31
455.088	44916.22
455.294	45780.46
455.5	45977.07
455.705	46958.05
455.911	44840.45
456.117	44140.04
456.323	43607.57
456.529	40951.35
456.735	42898.97
456.941	41731.63
457.147	41096.76
457.352	40302.15
457.558	39896.65
457.764	40205.89
457.97	39327.31
458.176	38243.94
458.381	38030.95
458.587	36044.42
458.793	36454.01
458.999	34358.94
459.204	37072.5
459.41	36253.31
459.616	33722.02
459.821	33386.16
460.027	33482.41
460.233	32689.85
460.438	31131.34
460.644	31426.25
460.85	30025.44
461.055	29669.09
461.261	29511.4
461.466	27318.03
461.672	26474.26
461.878	28505.85
462.083	26871.57
462.289	26214.17
462.494	26058.53
462.7	24653.62
462.905	24239.93
463.111	25175.85
463.316	25163.56
463.522	24371
463.727	24504.12
463.932	24309.56
464.138	24319.8
464.343	23983.93
464.549	23508.8
464.754	24280.89
464.959	24096.57
465.165	24168.25
465.37	22865.74
465.575	22482.77
465.781	23443.27
465.986	23547.72
466.191	22443.86
466.397	22116.19
466.602	21182.31
466.807	21911.39
