Data from USB4F104151__74__14-17-24-972.txt Node

Date: Thu Mar 13 14:17:24 EDT 2025
User: louis
Spectrometer: USB4F10415
Trigger mode: 4
Integration Time (sec): 2.000000E-2
Scans to average: 1
Electric dark correction enabled: true
Nonlinearity correction enabled: false
Boxcar width: 0
XAxis mode: Wavelengths
Number of Pixels in Spectrum: 3648
>>>>>Begin Spectral Data<<<<<
178.204	-38.74
178.424	-38.74
178.644	-38.74
178.864	-96.08
179.084	-120.66
179.304	-5.97
179.524	37.03
179.744	-94.04
179.964	14.51
180.184	-71.51
180.404	114.86
180.624	53.42
180.844	-5.97
181.064	-30.55
181.283	-38.74
181.503	30.89
181.723	-3.93
181.943	37.03
182.163	10.41
182.383	-48.98
182.602	-16.21
182.822	71.85
183.042	26.79
183.262	41.13
183.482	-1.88
183.701	77.99
183.921	67.75
184.141	-20.31
184.361	86.19
184.58	49.32
184.8	34.99
185.02	4.27
185.239	-30.55
185.459	34.99
185.679	47.27
185.898	-44.88
186.118	75.95
186.338	-40.79
186.557	80.04
186.777	6.31
186.997	-10.07
187.216	-5.97
187.436	43.18
187.655	61.61
187.875	22.7
188.095	-22.36
188.314	18.6
188.534	14.51
188.753	-12.12
188.973	84.14
189.192	6.31
189.412	55.47
189.631	-16.21
189.851	96.43
190.07	45.23
190.29	-73.56
190.509	67.75
190.729	14.51
190.948	65.71
191.168	51.37
191.387	92.33
191.607	61.61
191.826	12.46
192.045	10.41
192.265	53.42
192.484	-8.02
192.704	34.99
192.923	-34.64
193.142	28.84
193.362	12.46
193.581	53.42
193.8	18.6
194.02	63.66
194.239	-20.31
194.458	-22.36
194.678	110.76
194.897	45.23
195.116	34.99
195.335	26.79
195.555	94.38
195.774	47.27
195.993	98.47
196.212	-5.97
196.432	-32.6
196.651	-3.93
196.87	53.42
197.089	67.75
197.308	18.6
197.528	-42.84
197.747	-30.55
197.966	10.41
198.185	125.1
198.404	10.41
198.623	-5.97
198.842	55.47
199.062	20.65
199.281	43.18
199.5	26.79
199.719	75.95
199.938	28.84
200.157	145.58
200.376	39.08
200.595	20.65
200.814	43.18
201.033	39.08
201.252	49.32
201.471	51.37
201.69	63.66
201.909	10.41
202.128	71.85
202.347	-20.31
202.566	69.8
202.785	53.42
203.004	-22.36
203.223	51.37
203.442	2.22
203.661	18.6
203.879	18.6
204.098	47.27
204.317	10.41
204.536	118.95
204.755	77.99
204.974	69.8
205.193	6.31
205.411	34.99
205.63	53.42
205.849	75.95
206.068	47.27
206.287	6.31
206.505	98.47
206.724	20.65
206.943	6.31
207.162	16.55
207.381	57.51
207.599	-30.55
207.818	18.6
208.037	-14.17
208.255	18.6
208.474	108.71
208.693	61.61
208.911	39.08
209.13	63.66
209.349	84.14
209.567	16.55
209.786	39.08
210.005	92.33
210.223	14.51
210.442	-10.07
210.661	20.65
210.879	0.17
211.098	16.55
211.316	43.18
211.535	-34.64
211.753	55.47
211.972	-22.36
212.191	10.41
212.409	10.41
212.628	59.56
212.846	-14.17
213.065	-14.17
213.283	67.75
213.502	6.31
213.72	71.85
213.938	22.7
214.157	18.6
214.375	51.37
214.594	80.04
214.812	4.27
215.031	67.75
215.249	43.18
215.467	51.37
215.686	18.6
215.904	10.41
216.122	-5.97
216.341	51.37
216.559	-12.12
216.778	14.51
216.996	34.99
217.214	71.85
217.432	-10.07
217.651	-24.4
217.869	75.95
218.087	26.79
218.306	2.22
218.524	10.41
218.742	14.51
218.96	61.61
219.179	-3.93
219.397	18.6
219.615	67.75
219.833	55.47
220.051	53.42
220.27	75.95
220.488	-5.97
220.706	61.61
220.924	0.17
221.142	22.7
221.36	80.04
221.578	22.7
221.796	24.75
222.015	4.27
222.233	0.17
222.451	90.28
222.669	-3.93
222.887	86.19
223.105	6.31
223.323	32.94
223.541	-5.97
223.759	18.6
223.977	34.99
224.195	110.76
224.413	80.04
224.631	59.56
224.849	-22.36
225.067	88.23
225.285	41.13
225.503	-44.88
225.721	-51.03
225.939	39.08
226.157	63.66
226.375	125.1
226.592	-30.55
226.81	37.03
227.028	39.08
227.246	26.79
227.464	53.42
227.682	-20.31
227.9	80.04
228.117	51.37
228.335	20.65
228.553	30.89
228.771	22.7
228.989	-28.5
229.206	53.42
229.424	-22.36
229.642	125.1
229.86	-28.5
230.077	86.19
230.295	-28.5
230.513	2.22
230.731	-8.02
230.948	43.18
231.166	112.81
231.384	26.79
231.601	18.6
231.819	100.52
232.037	51.37
232.254	28.84
232.472	49.32
232.689	-10.07
232.907	18.6
233.125	92.33
233.342	12.46
233.56	37.03
233.777	47.27
233.995	86.19
234.213	26.79
234.43	112.81
234.648	63.66
234.865	51.37
235.083	18.6
235.3	14.51
235.518	86.19
235.735	69.8
235.953	51.37
236.17	-26.45
236.388	69.8
236.605	20.65
236.822	82.09
237.04	34.99
237.257	53.42
237.475	8.36
237.692	-34.64
237.909	-44.88
238.127	12.46
238.344	34.99
238.562	2.22
238.779	18.6
238.996	-24.4
239.214	-26.45
239.431	43.18
239.648	116.9
239.865	94.38
240.083	96.43
240.3	2.22
240.517	26.79
240.735	26.79
240.952	84.14
241.169	8.36
241.386	30.89
241.603	28.84
241.821	-40.79
242.038	-5.97
242.255	69.8
242.472	-3.93
242.689	96.43
242.907	28.84
243.124	59.56
243.341	55.47
243.558	4.27
243.775	26.79
243.992	-3.93
244.209	16.55
244.426	71.85
244.643	55.47
244.86	-5.97
245.078	34.99
245.295	-69.46
245.512	22.7
245.729	18.6
245.946	26.79
246.163	28.84
246.38	37.03
246.597	-32.6
246.814	45.23
247.031	26.79
247.248	14.51
247.464	-28.5
247.681	18.6
247.898	84.14
248.115	92.33
248.332	-38.74
248.549	69.8
248.766	-12.12
248.983	24.75
249.2	114.86
249.417	6.31
249.633	-34.64
249.85	94.38
250.067	51.37
250.284	51.37
250.501	59.56
250.717	18.6
250.934	6.31
251.151	45.23
251.368	53.42
251.585	43.18
251.801	39.08
252.018	-46.93
252.235	43.18
252.451	43.18
252.668	-14.17
252.885	24.75
253.102	10.41
253.318	12.46
253.535	116.9
253.752	2.22
253.968	43.18
254.185	18.6
254.401	12.46
254.618	-24.4
254.835	16.55
255.051	55.47
255.268	53.42
255.484	65.71
255.701	43.18
255.917	102.57
256.134	-34.64
256.351	-22.36
256.567	43.18
256.784	59.56
257	-20.31
257.217	47.27
257.433	88.23
257.65	14.51
257.866	47.27
258.082	-3.93
258.299	32.94
258.515	59.56
258.732	59.56
258.948	47.27
259.165	92.33
259.381	73.9
259.597	32.94
259.814	30.89
260.03	12.46
260.246	59.56
260.463	-14.17
260.679	43.18
260.895	96.43
261.112	67.75
261.328	-5.97
261.544	-3.93
261.761	67.75
261.977	4.27
262.193	39.08
262.409	18.6
262.626	45.23
262.842	114.86
263.058	86.19
263.274	100.52
263.49	20.65
263.707	100.52
263.923	98.47
264.139	2.22
264.355	80.04
264.571	0.17
264.787	-3.93
265.004	67.75
265.22	2.22
265.436	45.23
265.652	24.75
265.868	18.6
266.084	-55.12
266.3	-44.88
266.516	41.13
266.732	51.37
266.948	65.71
267.164	110.76
267.38	73.9
267.596	26.79
267.812	96.43
268.028	-42.84
268.244	-28.5
268.46	-5.97
268.676	69.8
268.892	65.71
269.108	-38.74
269.324	0.17
269.54	6.31
269.756	39.08
269.972	55.47
270.188	92.33
270.403	14.51
270.619	59.56
270.835	100.52
271.051	2.22
271.267	84.14
271.483	4.27
271.698	71.85
271.914	61.61
272.13	-1.88
272.346	6.31
272.562	63.66
272.777	53.42
272.993	63.66
273.209	45.23
273.425	61.61
273.64	67.75
273.856	92.33
274.072	32.94
274.287	8.36
274.503	84.14
274.719	26.79
274.934	26.79
275.15	8.36
275.366	61.61
275.581	-34.64
275.797	84.14
276.012	-51.03
276.228	55.47
276.444	10.41
276.659	67.75
276.875	43.18
277.09	37.03
277.306	10.41
277.521	100.52
277.737	12.46
277.952	61.61
278.168	-16.21
278.383	104.62
278.599	26.79
278.814	110.76
279.03	34.99
279.245	77.99
279.461	26.79
279.676	34.99
279.892	-51.03
280.107	57.51
280.322	55.47
280.538	4.27
280.753	16.55
280.969	88.23
281.184	8.36
281.399	98.47
281.615	86.19
281.83	59.56
282.045	-36.69
282.26	10.41
282.476	104.62
282.691	26.79
282.906	18.6
283.122	18.6
283.337	6.31
283.552	51.37
283.767	34.99
283.983	92.33
284.198	22.7
284.413	-5.97
284.628	-53.08
284.843	75.95
285.058	51.37
285.274	137.38
285.489	-30.55
285.704	104.62
285.919	-38.74
286.134	59.56
286.349	-1.88
286.564	-28.5
286.779	6.31
286.995	-10.07
287.21	37.03
287.425	65.71
287.64	43.18
287.855	6.31
288.07	14.51
288.285	69.8
288.5	-67.41
288.715	-10.07
288.93	47.27
289.145	71.85
289.36	94.38
289.575	-30.55
289.79	75.95
290.004	-18.26
290.219	18.6
290.434	28.84
290.649	-55.12
290.864	75.95
291.079	10.41
291.294	86.19
291.509	30.89
291.724	-55.12
291.938	26.79
292.153	69.8
292.368	69.8
292.583	94.38
292.798	53.42
293.012	39.08
293.227	86.19
293.442	2.22
293.657	59.56
293.871	-14.17
294.086	-3.93
294.301	18.6
294.516	104.62
294.73	45.23
294.945	112.81
295.16	-1.88
295.374	47.27
295.589	96.43
295.804	26.79
296.018	108.71
296.233	127.14
296.447	49.32
296.662	-16.21
296.877	80.04
297.091	59.56
297.306	59.56
297.52	65.71
297.735	45.23
297.949	63.66
298.164	94.38
298.378	16.55
298.593	8.36
298.807	20.65
299.022	100.52
299.236	24.75
299.451	77.99
299.665	26.79
299.88	75.95
300.094	8.36
300.309	-3.93
300.523	100.52
300.737	-38.74
300.952	12.46
301.166	22.7
301.381	39.08
301.595	37.03
301.809	24.75
302.024	-61.27
302.238	-34.64
302.452	75.95
302.667	92.33
302.881	75.95
303.095	61.61
303.309	37.03
303.524	-30.55
303.738	34.99
303.952	34.99
304.166	32.94
304.381	-32.6
304.595	43.18
304.809	10.41
305.023	-10.07
305.237	24.75
305.452	133.29
305.666	51.37
305.88	73.9
306.094	34.99
306.308	108.71
306.522	125.1
306.736	16.55
306.95	92.33
307.164	-1.88
307.379	6.31
307.593	6.31
307.807	6.31
308.021	82.09
308.235	26.79
308.449	37.03
308.663	2.22
308.877	26.79
309.091	24.75
309.305	106.67
309.519	57.51
309.733	125.1
309.947	6.31
310.161	-34.64
310.374	24.75
310.588	51.37
310.802	53.42
311.016	16.55
311.23	26.79
311.444	-40.79
311.658	92.33
311.872	77.99
312.085	-12.12
312.299	28.84
312.513	18.6
312.727	30.89
312.941	-1.88
313.154	96.43
313.368	-5.97
313.582	18.6
313.796	55.47
314.009	61.61
314.223	75.95
314.437	37.03
314.651	53.42
314.864	26.79
315.078	51.37
315.292	14.51
315.505	77.99
315.719	69.8
315.933	63.66
316.146	4.27
316.36	30.89
316.573	84.14
316.787	71.85
317.001	108.71
317.214	2.22
317.428	28.84
317.641	92.33
317.855	67.75
318.068	-5.97
318.282	39.08
318.495	18.6
318.709	86.19
318.922	24.75
319.136	75.95
319.349	53.42
319.563	0.17
319.776	67.75
319.99	20.65
320.203	-20.31
320.417	82.09
320.63	84.14
320.843	71.85
321.057	92.33
321.27	121
321.483	4.27
321.697	108.71
321.91	34.99
322.124	110.76
322.337	34.99
322.55	45.23
322.763	4.27
322.977	34.99
323.19	18.6
323.403	20.65
323.617	100.52
323.83	63.66
324.043	75.95
324.256	28.84
324.469	14.51
324.683	84.14
324.896	114.86
325.109	77.99
325.322	-40.79
325.535	10.41
325.748	69.8
325.962	2.22
326.175	34.99
326.388	75.95
326.601	26.79
326.814	-46.93
327.027	32.94
327.24	86.19
327.453	-1.88
327.666	18.6
327.879	69.8
328.092	20.65
328.305	22.7
328.518	0.17
328.731	34.99
328.944	39.08
329.157	71.85
329.37	61.61
329.583	180.39
329.796	94.38
330.009	71.85
330.222	53.42
330.435	28.84
330.648	69.8
330.861	39.08
331.073	37.03
331.286	82.09
331.499	145.58
331.712	75.95
331.925	2.22
332.138	69.8
332.35	53.42
332.563	67.75
332.776	22.7
332.989	-22.36
333.202	67.75
333.414	-12.12
333.627	43.18
333.84	8.36
334.053	51.37
334.265	20.65
334.478	30.89
334.691	-10.07
334.903	55.47
335.116	22.7
335.329	-1.88
335.541	14.51
335.754	18.6
335.966	-10.07
336.179	34.99
336.392	37.03
336.604	37.03
336.817	96.43
337.029	67.75
337.242	30.89
337.454	84.14
337.667	32.94
337.88	106.67
338.092	4.27
338.305	30.89
338.517	-3.93
338.729	6.31
338.942	133.29
339.154	18.6
339.367	-3.93
339.579	59.56
339.792	47.27
340.004	90.28
340.217	26.79
340.429	149.67
340.641	10.41
340.854	65.71
341.066	26.79
341.278	67.75
341.491	141.48
341.703	45.23
341.915	84.14
342.128	57.51
342.34	96.43
342.552	-14.17
342.764	26.79
342.977	110.76
343.189	53.42
343.401	34.99
343.613	51.37
343.826	61.61
344.038	80.04
344.25	51.37
344.462	47.27
344.674	10.41
344.886	67.75
345.099	61.61
345.311	-22.36
345.523	6.31
345.735	34.99
345.947	77.99
346.159	2.22
346.371	-28.5
346.583	6.31
346.795	92.33
347.007	41.13
347.219	26.79
347.431	55.47
347.643	71.85
347.855	34.99
348.067	-12.12
348.279	-20.31
348.491	2.22
348.703	-20.31
348.915	22.7
349.127	4.27
349.339	20.65
349.551	10.41
349.763	123.05
349.975	2.22
350.187	32.94
350.399	114.86
350.61	-5.97
350.822	20.65
351.034	82.09
351.246	14.51
351.458	61.61
351.669	26.79
351.881	-14.17
352.093	55.47
352.305	94.38
352.517	0.17
352.728	80.04
352.94	22.7
353.152	32.94
353.363	34.99
353.575	41.13
353.787	-14.17
353.999	125.1
354.21	53.42
354.422	16.55
354.633	20.65
354.845	10.41
355.057	61.61
355.268	116.9
355.48	51.37
355.692	22.7
355.903	75.95
356.115	-8.02
356.326	34.99
356.538	96.43
356.749	63.66
356.961	32.94
357.172	30.89
357.384	55.47
357.595	98.47
357.807	43.18
358.018	10.41
358.23	84.14
358.441	30.89
358.653	18.6
358.864	41.13
359.075	43.18
359.287	65.71
359.498	67.75
359.709	63.66
359.921	4.27
360.132	-16.21
360.344	57.51
360.555	18.6
360.766	2.22
360.977	43.18
361.189	90.28
361.4	-10.07
361.611	75.95
361.823	82.09
362.034	90.28
362.245	-26.45
362.456	26.79
362.667	12.46
362.879	45.23
363.09	57.51
363.301	63.66
363.512	-20.31
363.723	41.13
363.935	69.8
364.146	26.79
364.357	28.84
364.568	49.32
364.779	2.22
364.99	55.47
365.201	34.99
365.412	69.8
365.623	-16.21
365.834	61.61
366.045	4.27
366.256	118.95
366.467	84.14
366.678	63.66
366.889	28.84
367.1	53.42
367.311	8.36
367.522	94.38
367.733	94.38
367.944	75.95
368.155	10.41
368.366	80.04
368.577	112.81
368.788	39.08
368.999	67.75
369.209	104.62
369.42	55.47
369.631	104.62
369.842	51.37
370.053	88.23
370.264	92.33
370.474	-3.93
370.685	67.75
370.896	43.18
371.107	34.99
371.317	34.99
371.528	110.76
371.739	88.23
371.95	61.61
372.16	151.72
372.371	10.41
372.582	90.28
372.792	-38.74
373.003	80.04
373.214	34.99
373.424	12.46
373.635	6.31
373.846	114.86
374.056	49.32
374.267	30.89
374.477	92.33
374.688	53.42
374.898	75.95
375.109	84.14
375.319	57.51
375.53	112.81
375.74	32.94
375.951	2.22
376.161	26.79
376.372	69.8
376.582	86.19
376.793	8.36
377.003	51.37
377.214	-28.5
377.424	47.27
377.635	59.56
377.845	43.18
378.055	10.41
378.266	51.37
378.476	55.47
378.686	14.51
378.897	41.13
379.107	-3.93
379.317	26.79
379.528	6.31
379.738	28.84
379.948	10.41
380.158	94.38
380.369	30.89
380.579	57.51
380.789	2.22
380.999	69.8
381.21	45.23
381.42	139.43
381.63	-38.74
381.84	88.23
382.05	12.46
382.261	86.19
382.471	39.08
382.681	63.66
382.891	116.9
383.101	104.62
383.311	57.51
383.521	90.28
383.731	75.95
383.941	18.6
384.151	133.29
384.361	161.96
384.571	92.33
384.781	75.95
384.991	88.23
385.201	37.03
385.411	84.14
385.621	108.71
385.831	82.09
386.041	102.57
386.251	12.46
386.461	80.04
386.671	71.85
386.881	55.47
387.091	110.76
387.301	84.14
387.511	92.33
387.72	108.71
387.93	104.62
388.14	45.23
388.35	141.48
388.56	116.9
388.769	45.23
388.979	118.95
389.189	-18.26
389.399	41.13
389.609	65.71
389.818	49.32
390.028	10.41
390.238	135.34
390.447	92.33
390.657	96.43
390.867	108.71
391.076	82.09
391.286	90.28
391.496	61.61
391.705	139.43
391.915	157.86
392.125	47.27
392.334	100.52
392.544	133.29
392.753	94.38
392.963	59.56
393.172	77.99
393.382	100.52
393.591	141.48
393.801	86.19
394.01	94.38
394.22	86.19
394.429	34.99
394.639	110.76
394.848	47.27
395.058	155.82
395.267	34.99
395.477	51.37
395.686	112.81
395.895	161.96
396.105	47.27
396.314	75.95
396.524	75.95
396.733	149.67
396.942	143.53
397.152	125.1
397.361	133.29
397.57	51.37
397.78	51.37
397.989	127.14
398.198	131.24
398.407	90.28
398.617	137.38
398.826	110.76
399.035	47.27
399.244	108.71
399.453	141.48
399.663	94.38
399.872	127.14
400.081	112.81
400.29	137.38
400.499	59.56
400.708	94.38
400.917	174.25
401.127	108.71
401.336	53.42
401.545	184.49
401.754	125.1
401.963	135.34
402.172	39.08
402.381	26.79
402.59	159.91
402.799	141.48
403.008	108.71
403.217	149.67
403.426	166.06
403.635	104.62
403.844	123.05
404.053	88.23
404.262	135.34
404.471	104.62
404.68	149.67
404.888	108.71
405.097	129.19
405.306	194.73
405.515	127.14
405.724	194.73
405.933	211.11
406.142	215.21
406.35	202.92
406.559	166.06
406.768	247.97
406.977	235.69
407.185	262.31
407.394	243.88
407.603	217.26
407.812	207.02
408.02	288.93
408.229	231.59
408.438	258.21
408.646	282.79
408.855	235.69
409.064	379.04
409.272	284.84
409.481	329.89
409.69	288.93
409.898	305.32
410.107	428.2
410.315	424.1
410.524	293.03
410.733	411.81
410.941	383.14
411.15	456.87
411.358	438.44
411.567	409.76
411.775	428.2
411.984	411.81
412.192	442.53
412.401	422.05
412.609	489.64
412.818	583.84
413.026	573.6
413.234	575.65
413.443	567.46
413.651	567.46
413.86	571.55
414.068	706.72
414.276	620.71
414.485	723.1
414.693	745.63
414.901	739.49
415.11	839.84
415.318	770.21
415.526	759.97
415.734	850.08
415.943	800.93
416.151	944.28
416.359	833.69
416.567	936.09
416.776	983.2
416.984	1067.16
417.192	1089.69
417.4	1124.51
417.608	1026.2
417.817	1167.51
418.025	1071.26
418.233	1296.53
418.441	1288.34
418.649	1257.62
418.857	1429.65
419.065	1407.13
419.273	1411.22
419.481	1511.57
419.689	1566.87
419.897	1609.87
420.105	1689.74
420.313	1640.59
420.521	1822.86
420.729	1681.55
420.937	1845.39
421.145	1917.07
421.353	1945.74
421.561	2060.43
421.769	2150.54
421.977	2119.82
422.185	2195.59
422.393	2164.87
422.601	2345.09
422.809	2439.3
423.017	2394.25
423.224	2623.62
423.432	2674.82
423.64	2674.82
423.848	2943.1
424.056	2842.75
424.263	3096.7
424.471	2918.53
424.679	3207.29
424.887	3444.85
425.094	3305.59
425.302	3457.14
425.51	3680.37
425.718	3659.89
425.925	3704.95
426.133	3729.52
426.341	4061.29
426.548	4286.57
426.756	4280.43
426.964	4241.51
427.171	4583.52
427.379	4632.68
427.586	4614.24
427.794	4870.24
428.001	5165.15
428.209	5509.21
428.417	5255.26
428.624	5664.85
428.832	5558.36
429.039	5566.55
429.247	5671
429.454	6148.17
429.662	6289.48
429.869	6000.72
430.076	6465.61
430.284	6402.12
430.491	6590.53
430.699	6973.5
430.906	6981.7
431.114	7100.48
431.321	7481.4
431.528	7401.53
431.736	7821.36
431.943	8353.84
432.15	8142.89
432.358	8226.86
432.565	8626.22
432.772	8581.16
432.979	9039.9
433.187	9259.04
433.394	9332.76
433.601	9912.34
433.808	9947.15
434.016	9682.97
434.223	10166.29
434.43	10700.81
434.637	10713.1
434.844	11358.21
435.052	11458.56
435.259	11266.05
435.466	11413.5
435.673	11364.35
435.88	12230.64
436.087	12707.82
436.294	12754.92
436.501	12324.85
436.708	12494.83
436.915	13279.2
437.122	13758.42
437.329	13707.23
437.537	14110.68
437.743	14309.33
437.95	14073.81
438.157	15015.88
438.364	15433.66
438.571	15228.87
438.778	15706.04
438.985	16816.04
439.192	16242.61
439.399	16748.46
439.606	16416.69
439.813	17622.94
440.02	18595.73
440.227	17991.58
440.433	17805.21
440.64	18646.93
440.847	18220.95
441.054	19220.36
441.261	19969.91
441.467	19750.78
441.674	20375.41
441.881	20686.7
442.088	20729.71
442.294	20539.25
442.501	21342.05
442.708	21823.33
442.914	22407
443.121	23375.69
443.328	23131.98
443.534	24414.01
443.741	23713.6
443.948	23469.89
444.154	24915.76
444.361	25280.3
444.568	25249.58
444.774	25079.6
444.981	25562.92
445.187	25855.78
445.394	26941.2
445.6	26771.22
445.807	29177.58
446.013	28208.89
446.22	28342.01
446.426	29632.23
446.633	29898.47
446.839	31141.58
447.046	29576.94
447.252	31299.28
447.459	30947.03
447.665	31057.62
447.871	32495.29
448.078	33771.18
448.284	32171.71
448.491	33212.08
448.697	34424.48
448.903	35034.77
449.11	34956.95
449.316	34596.51
449.522	35262.1
449.728	35968.65
449.935	36361.86
450.141	36644.48
450.347	36927.1
450.553	36083.33
450.76	36337.28
450.966	37570.16
451.172	37047.93
451.378	38446.69
451.584	37330.55
451.791	38299.23
451.997	38119.01
452.203	38852.19
452.409	38973.02
452.615	38399.58
452.821	37312.11
453.027	37260.91
453.233	38936.15
453.44	37469.81
453.646	37682.8
453.852	38024.81
454.058	38178.4
454.264	36994.68
454.47	37869.16
454.676	37072.5
454.882	38280.8
455.088	35352.21
455.294	35901.06
455.5	36032.13
455.705	36699.77
455.911	34760.34
456.117	34399.9
456.323	33834.66
456.529	32126.66
456.735	33797.8
456.941	32593.59
457.147	32333.5
457.352	31211.21
457.558	31102.67
457.764	31217.36
457.97	30211.81
458.176	30084.83
458.381	29984.48
458.587	28358.39
458.793	28045.05
458.999	26935.06
459.204	28892.91
459.41	27479.82
459.616	26349.34
459.821	26070.81
460.027	26449.69
460.233	25372.46
460.438	24162.11
460.644	24373.05
460.85	23332.68
461.055	22845.26
461.261	23045.96
461.466	21106.54
461.672	20698.99
461.878	22105.95
462.083	20715.37
462.289	20320.12
462.494	20037.5
462.7	19140.49
462.905	18679.69
463.111	19480.45
463.316	19341.19
463.522	19023.75
463.727	19177.35
463.932	19031.94
464.138	18780.04
464.343	18806.67
464.549	18313.11
464.754	18773.9
464.959	18890.63
465.165	18575.25
465.37	17794.97
465.575	17461.15
465.781	17854.36
465.986	18325.4
466.191	17739.68
466.397	17307.55
466.602	16256.95
466.807	17074.09
467.012	16936.87
467.218	16764.84
467.423	16662.44
