Data from USB4F104151__218__14-21-19-928.txt Node

Date: Thu Mar 13 14:21:19 EDT 2025
User: louis
Spectrometer: USB4F10415
Trigger mode: 4
Integration Time (sec): 2.000000E-2
Scans to average: 1
Electric dark correction enabled: true
Nonlinearity correction enabled: false
Boxcar width: 0
XAxis mode: Wavelengths
Number of Pixels in Spectrum: 3648
>>>>>Begin Spectral Data<<<<<
178.204	-131.24
178.424	-131.24
178.644	-131.24
178.864	-127.14
179.084	-145.58
179.304	-26.79
179.524	-34.99
179.744	59.22
179.964	-12.46
180.184	57.17
180.404	-45.23
180.624	16.21
180.844	34.64
181.064	-12.46
181.283	-63.66
181.503	-73.9
181.723	102.23
181.943	-51.37
182.163	34.64
182.383	-10.41
182.602	-2.22
182.822	34.64
183.042	26.45
183.262	-39.08
183.482	-61.61
183.701	-30.89
183.921	38.74
184.141	-53.42
184.361	30.55
184.58	42.84
184.8	-32.94
185.02	61.27
185.239	69.46
185.459	-14.51
185.679	51.03
185.898	-51.37
186.118	-0.17
186.338	-26.79
186.557	36.69
186.777	-71.85
186.997	-18.6
187.216	10.07
187.436	34.64
187.655	-47.27
187.875	10.07
188.095	12.12
188.314	69.46
188.534	12.12
188.753	51.03
188.973	-30.89
189.192	10.07
189.412	30.55
189.631	36.69
189.851	-2.22
190.07	18.26
190.29	5.97
190.509	1.88
190.729	-18.6
190.948	-14.51
191.168	77.65
191.387	14.17
191.607	51.03
191.826	69.46
192.045	26.45
192.265	26.45
192.484	10.07
192.704	-47.27
192.923	-45.23
193.142	87.89
193.362	38.74
193.581	12.12
193.8	81.75
194.02	26.45
194.239	77.65
194.458	20.31
194.678	-8.36
194.897	87.89
195.116	40.79
195.335	-6.31
195.555	34.64
195.774	-14.51
195.993	42.84
196.212	-37.03
196.432	-39.08
196.651	-20.65
196.87	-10.41
197.089	77.65
197.308	28.5
197.528	40.79
197.747	-39.08
197.966	22.36
198.185	69.46
198.404	1.88
198.623	36.69
198.842	34.64
199.062	55.12
199.281	59.22
199.5	53.08
199.719	-4.27
199.938	67.41
200.157	36.69
200.376	69.46
200.595	75.6
200.814	30.55
201.033	-10.41
201.252	42.84
201.471	42.84
201.69	89.94
201.909	-8.36
202.128	34.64
202.347	91.99
202.566	71.51
202.785	-4.27
203.004	-47.27
203.223	85.84
203.442	51.03
203.661	8.02
203.879	34.64
204.098	48.98
204.317	1.88
204.536	36.69
204.755	46.93
204.974	18.26
205.193	-59.56
205.411	79.7
205.63	81.75
205.849	32.6
206.068	-32.94
206.287	-4.27
206.505	108.37
206.724	48.98
206.943	-4.27
207.162	-71.85
207.381	28.5
207.599	1.88
207.818	79.7
208.037	-2.22
208.255	34.64
208.474	42.84
208.693	38.74
208.911	-4.27
209.13	69.46
209.349	67.41
209.567	-14.51
209.786	44.88
210.005	44.88
210.223	18.26
210.442	-10.41
210.661	-86.19
210.879	44.88
211.098	-6.31
211.316	-10.41
211.535	102.23
211.753	30.55
211.972	73.56
212.191	-14.51
212.409	-28.84
212.628	63.32
212.846	-49.32
213.065	51.03
213.283	-47.27
213.502	-43.18
213.72	53.08
213.938	10.07
214.157	75.6
214.375	38.74
214.594	-47.27
214.812	-10.41
215.031	16.21
215.249	-28.84
215.467	91.99
215.686	-12.46
215.904	1.88
216.122	-4.27
216.341	36.69
216.559	-6.31
216.778	-34.99
216.996	51.03
217.214	18.26
217.432	75.6
217.651	-39.08
217.869	-18.6
218.087	-37.03
218.306	5.97
218.524	38.74
218.742	71.51
218.96	20.31
219.179	-26.79
219.397	-34.99
219.615	-0.17
219.833	46.93
220.051	20.31
220.27	44.88
220.488	-34.99
220.706	14.17
220.924	44.88
221.142	18.26
221.36	63.32
221.578	-28.84
221.796	55.12
222.015	-39.08
222.233	42.84
222.451	1.88
222.669	-6.31
222.887	-4.27
223.105	-51.37
223.323	20.31
223.541	-18.6
223.759	26.45
223.977	63.32
224.195	5.97
224.413	5.97
224.631	18.26
224.849	8.02
225.067	132.95
225.285	16.21
225.503	-4.27
225.721	-88.23
225.939	-18.6
226.157	32.6
226.375	51.03
226.592	-26.79
226.81	-20.65
227.028	51.03
227.246	63.32
227.464	59.22
227.682	-20.65
227.9	-14.51
228.117	108.37
228.335	28.5
228.553	-67.75
228.771	28.5
228.989	51.03
229.206	26.45
229.424	-18.6
229.642	-39.08
229.86	3.93
230.077	-30.89
230.295	-6.31
230.513	-6.31
230.731	-14.51
230.948	100.18
231.166	18.26
231.384	46.93
231.601	20.31
231.819	34.64
232.037	-47.27
232.254	26.45
232.472	67.41
232.689	26.45
232.907	38.74
233.125	5.97
233.342	-6.31
233.56	26.45
233.777	5.97
233.995	-12.46
234.213	-0.17
234.43	34.64
234.648	14.17
234.865	51.03
235.083	87.89
235.3	-86.19
235.518	-32.94
235.735	5.97
235.953	24.4
236.17	-0.17
236.388	12.12
236.605	12.12
236.822	5.97
237.04	77.65
237.257	18.26
237.475	-30.89
237.692	91.99
237.909	-18.6
238.127	36.69
238.344	8.02
238.562	5.97
238.779	-90.28
238.996	-20.65
239.214	116.56
239.431	24.4
239.648	-16.55
239.865	-39.08
240.083	-4.27
240.3	53.08
240.517	-51.37
240.735	1.88
240.952	67.41
241.169	110.42
241.386	-30.89
241.603	10.07
241.821	-22.7
242.038	26.45
242.255	34.64
242.472	59.22
242.689	-6.31
242.907	36.69
243.124	53.08
243.341	34.64
243.558	5.97
243.775	40.79
243.992	10.07
244.209	1.88
244.426	63.32
244.643	-37.03
244.86	34.64
245.078	42.84
245.295	-45.23
245.512	-12.46
245.729	-22.7
245.946	3.93
246.163	16.21
246.38	18.26
246.597	1.88
246.814	46.93
247.031	61.27
247.248	26.45
247.464	-61.61
247.681	10.07
247.898	26.45
248.115	94.04
248.332	48.98
248.549	26.45
248.766	53.08
248.983	38.74
249.2	-2.22
249.417	46.93
249.633	-30.89
249.85	48.98
250.067	-28.84
250.284	22.36
250.501	30.55
250.717	14.17
250.934	-43.18
251.151	51.03
251.368	28.5
251.585	-22.7
251.801	-18.6
252.018	18.26
252.235	10.07
252.451	-30.89
252.668	5.97
252.885	18.26
253.102	-55.47
253.318	-22.7
253.535	20.31
253.752	36.69
253.968	-26.79
254.185	-2.22
254.401	20.31
254.618	26.45
254.835	-37.03
255.051	34.64
255.268	-2.22
255.484	36.69
255.701	-24.75
255.917	-6.31
256.134	-75.95
256.351	-14.51
256.567	-55.47
256.784	-2.22
257	-37.03
257.217	-0.17
257.433	18.26
257.65	42.84
257.866	26.45
258.082	-26.79
258.299	65.36
258.515	44.88
258.732	53.08
258.948	-47.27
259.165	120.66
259.381	8.02
259.597	28.5
259.814	26.45
260.03	48.98
260.246	30.55
260.463	36.69
260.679	-37.03
260.895	-34.99
261.112	32.6
261.328	-4.27
261.544	-26.79
261.761	106.32
261.977	-12.46
262.193	-14.51
262.409	36.69
262.626	73.56
262.842	12.12
263.058	-39.08
263.274	67.41
263.49	-4.27
263.707	75.6
263.923	-30.89
264.139	10.07
264.355	32.6
264.571	55.12
264.787	18.26
265.004	110.42
265.22	59.22
265.436	-30.89
265.652	-37.03
265.868	36.69
266.084	3.93
266.3	44.88
266.516	-14.51
266.732	20.31
266.948	34.64
267.164	-14.51
267.38	14.17
267.596	83.8
267.812	44.88
268.028	5.97
268.244	-43.18
268.46	51.03
268.676	-37.03
268.892	46.93
269.108	-57.51
269.324	40.79
269.54	1.88
269.756	10.07
269.972	-24.75
270.188	-18.6
270.403	34.64
270.619	36.69
270.835	-20.65
271.051	-0.17
271.267	26.45
271.483	-55.47
271.698	-37.03
271.914	5.97
272.13	18.26
272.346	26.45
272.562	44.88
272.777	53.08
272.993	-20.65
273.209	-28.84
273.425	65.36
273.64	-4.27
273.856	42.84
274.072	-20.65
274.287	12.12
274.503	51.03
274.719	16.21
274.934	12.12
275.15	-39.08
275.366	83.8
275.581	20.31
275.797	63.32
276.012	3.93
276.228	3.93
276.444	22.36
276.659	44.88
276.875	-59.56
277.09	12.12
277.306	42.84
277.521	34.64
277.737	-16.55
277.952	44.88
278.168	1.88
278.383	42.84
278.599	10.07
278.814	22.36
279.03	46.93
279.245	83.8
279.461	108.37
279.676	44.88
279.892	-20.65
280.107	10.07
280.322	87.89
280.538	-30.89
280.753	5.97
280.969	-4.27
281.184	-26.79
281.399	91.99
281.615	40.79
281.83	28.5
282.045	-30.89
282.26	30.55
282.476	-20.65
282.691	46.93
282.906	-20.65
283.122	18.26
283.337	-37.03
283.552	36.69
283.767	-26.79
283.983	36.69
284.198	65.36
284.413	-41.13
284.628	10.07
284.843	34.64
285.058	20.31
285.274	-24.75
285.489	-55.47
285.704	32.6
285.919	1.88
286.134	28.5
286.349	22.36
286.564	59.22
286.779	12.12
286.995	10.07
287.21	8.02
287.425	-22.7
287.64	-12.46
287.855	-22.7
288.07	-53.42
288.285	26.45
288.5	14.17
288.715	59.22
288.93	-28.84
289.145	-6.31
289.36	67.41
289.575	71.51
289.79	30.55
290.004	-0.17
290.219	48.98
290.434	1.88
290.649	30.55
290.864	91.99
291.079	26.45
291.294	5.97
291.509	8.02
291.724	-26.79
291.938	-10.41
292.153	77.65
292.368	-30.89
292.583	100.18
292.798	30.55
293.012	10.07
293.227	-0.17
293.442	-96.43
293.657	85.84
293.871	12.12
294.086	12.12
294.301	77.65
294.516	34.64
294.73	57.17
294.945	51.03
295.16	-6.31
295.374	59.22
295.589	51.03
295.804	-6.31
296.018	-8.36
296.233	30.55
296.447	-0.17
296.662	-45.23
296.877	42.84
297.091	-4.27
297.306	94.04
297.52	20.31
297.735	20.31
297.949	26.45
298.164	-32.94
298.378	20.31
298.593	53.08
298.807	46.93
299.022	-30.89
299.236	36.69
299.451	36.69
299.665	42.84
299.88	89.94
300.094	59.22
300.309	-6.31
300.523	67.41
300.737	55.12
300.952	-22.7
301.166	30.55
301.381	-47.27
301.595	112.47
301.809	-14.51
302.024	44.88
302.238	28.5
302.452	40.79
302.667	44.88
302.881	59.22
303.095	-6.31
303.309	38.74
303.524	22.36
303.738	18.26
303.952	10.07
304.166	10.07
304.381	36.69
304.595	124.76
304.809	36.69
305.023	42.84
305.237	42.84
305.452	51.03
305.666	20.31
305.88	71.51
306.094	8.02
306.308	79.7
306.522	28.5
306.736	18.26
306.95	53.08
307.164	18.26
307.379	26.45
307.593	75.6
307.807	8.02
308.021	67.41
308.235	53.08
308.449	-34.99
308.663	69.46
308.877	75.6
309.091	22.36
309.305	-4.27
309.519	-47.27
309.733	5.97
309.947	-6.31
310.161	1.88
310.374	63.32
310.588	157.52
310.802	18.26
311.016	57.17
311.23	30.55
311.444	-43.18
311.658	44.88
311.872	79.7
312.085	55.12
312.299	38.74
312.513	22.36
312.727	48.98
312.941	-47.27
313.154	26.45
313.368	16.21
313.582	22.36
313.796	59.22
314.009	65.36
314.223	91.99
314.437	-22.7
314.651	42.84
314.864	-30.89
315.078	-8.36
315.292	79.7
315.505	1.88
315.719	-14.51
315.933	18.26
316.146	42.84
316.36	-8.36
316.573	55.12
316.787	5.97
317.001	59.22
317.214	22.36
317.428	14.17
317.641	-10.41
317.855	-6.31
318.068	48.98
318.282	61.27
318.495	75.6
318.709	81.75
318.922	12.12
319.136	34.64
319.349	89.94
319.563	42.84
319.776	10.07
319.99	83.8
320.203	67.41
320.417	38.74
320.63	14.17
320.843	104.28
321.057	-20.65
321.27	59.22
321.483	-22.7
321.697	63.32
321.91	51.03
322.124	81.75
322.337	-6.31
322.55	30.55
322.763	18.26
322.977	69.46
323.19	-6.31
323.403	8.02
323.617	94.04
323.83	63.32
324.043	59.22
324.256	12.12
324.469	83.8
324.683	51.03
324.896	67.41
325.109	69.46
325.322	-20.65
325.535	36.69
325.748	106.32
325.962	36.69
326.175	36.69
326.388	59.22
326.601	18.26
326.814	55.12
327.027	10.07
327.24	-14.51
327.453	-22.7
327.666	18.26
327.879	16.21
328.092	28.5
328.305	10.07
328.518	1.88
328.731	67.41
328.944	-69.8
329.157	42.84
329.37	36.69
329.583	30.55
329.796	67.41
330.009	30.55
330.222	59.22
330.435	12.12
330.648	67.41
330.861	63.32
331.073	-2.22
331.286	67.41
331.499	63.32
331.712	73.56
331.925	36.69
332.138	-84.14
332.35	87.89
332.563	12.12
332.776	28.5
332.989	-0.17
333.202	26.45
333.414	104.28
333.627	67.41
333.84	-12.46
334.053	69.46
334.265	-47.27
334.478	75.6
334.691	34.64
334.903	20.31
335.116	-28.84
335.329	44.88
335.541	77.65
335.754	69.46
335.966	59.22
336.179	28.5
336.392	75.6
336.604	-2.22
336.817	42.84
337.029	-6.31
337.242	32.6
337.454	75.6
337.667	38.74
337.88	59.22
338.092	28.5
338.305	42.84
338.517	14.17
338.729	124.76
338.942	94.04
339.154	-6.31
339.367	-16.55
339.579	53.08
339.792	3.93
340.004	69.46
340.217	-0.17
340.429	38.74
340.641	-41.13
340.854	8.02
341.066	51.03
341.278	126.8
341.491	38.74
341.703	100.18
341.915	14.17
342.128	24.4
342.34	36.69
342.552	28.5
342.764	5.97
342.977	42.84
343.189	34.64
343.401	51.03
343.613	1.88
343.826	77.65
344.038	-16.55
344.25	22.36
344.462	30.55
344.674	71.51
344.886	-53.42
345.099	75.6
345.311	42.84
345.523	51.03
345.735	-32.94
345.947	104.28
346.159	-4.27
346.371	63.32
346.583	28.5
346.795	79.7
347.007	1.88
347.219	91.99
347.431	-10.41
347.643	63.32
347.855	12.12
348.067	12.12
348.279	3.93
348.491	-20.65
348.703	59.22
348.915	75.6
349.127	-34.99
349.339	26.45
349.551	-6.31
349.763	18.26
349.975	-34.99
350.187	34.64
350.399	55.12
350.61	-12.46
350.822	-2.22
351.034	124.76
351.246	55.12
351.458	1.88
351.669	116.56
351.881	87.89
352.093	59.22
352.305	44.88
352.517	114.52
352.728	20.31
352.94	34.64
353.152	38.74
353.363	44.88
353.575	137.04
353.787	-10.41
353.999	26.45
354.21	36.69
354.422	55.12
354.633	53.08
354.845	77.65
355.057	34.64
355.268	12.12
355.48	102.23
355.692	-34.99
355.903	67.41
356.115	-16.55
356.326	42.84
356.538	34.64
356.749	-14.51
356.961	59.22
357.172	-39.08
357.384	-30.89
357.595	51.03
357.807	44.88
358.018	8.02
358.23	34.64
358.441	34.64
358.653	-20.65
358.864	-20.65
359.075	26.45
359.287	51.03
359.498	12.12
359.709	18.26
359.921	42.84
360.132	69.46
360.344	10.07
360.555	24.4
360.766	-14.51
360.977	26.45
361.189	34.64
361.4	38.74
361.611	34.64
361.823	44.88
362.034	51.03
362.245	-39.08
362.456	91.99
362.667	-4.27
362.879	12.12
363.09	18.26
363.301	48.98
363.512	-77.99
363.723	34.64
363.935	73.56
364.146	38.74
364.357	-4.27
364.568	61.27
364.779	-4.27
364.99	81.75
365.201	44.88
365.412	10.07
365.623	14.17
365.834	30.55
366.045	57.17
366.256	91.99
366.467	24.4
366.678	46.93
366.889	79.7
367.1	12.12
367.311	79.7
367.522	51.03
367.733	108.37
367.944	40.79
368.155	51.03
368.366	53.08
368.577	139.09
368.788	69.46
368.999	24.4
369.209	36.69
369.42	75.6
369.631	100.18
369.842	94.04
370.053	34.64
370.264	48.98
370.474	26.45
370.685	22.36
370.896	77.65
371.107	94.04
371.317	91.99
371.528	38.74
371.739	69.46
371.95	26.45
372.16	91.99
372.371	53.08
372.582	36.69
372.792	104.28
373.003	108.37
373.214	75.6
373.424	67.41
373.635	-43.18
373.846	28.5
374.056	67.41
374.267	57.17
374.477	36.69
374.688	-34.99
374.898	34.64
375.109	46.93
375.319	67.41
375.53	36.69
375.74	96.08
375.951	44.88
376.161	79.7
376.372	85.84
376.582	-24.75
376.793	-6.31
377.003	85.84
377.214	12.12
377.424	53.08
377.635	59.22
377.845	42.84
378.055	120.66
378.266	20.31
378.476	87.89
378.686	81.75
378.897	51.03
379.107	85.84
379.317	32.6
379.528	28.5
379.738	26.45
379.948	40.79
380.158	51.03
380.369	18.26
380.579	-22.7
380.789	16.21
380.999	53.08
381.21	51.03
381.42	55.12
381.63	57.17
381.84	-6.31
382.05	61.27
382.261	71.51
382.471	59.22
382.681	55.12
382.891	98.13
383.101	98.13
383.311	44.88
383.521	55.12
383.731	44.88
383.941	59.22
384.151	-20.65
384.361	91.99
384.571	-2.22
384.781	5.97
384.991	159.57
385.201	104.28
385.411	36.69
385.621	40.79
385.831	46.93
386.041	61.27
386.251	1.88
386.461	85.84
386.671	71.51
386.881	46.93
387.091	44.88
387.301	34.64
387.511	48.98
387.72	55.12
387.93	18.26
388.14	38.74
388.35	3.93
388.56	77.65
388.769	34.64
388.979	28.5
389.189	61.27
389.399	75.6
389.609	69.46
389.818	139.09
390.028	46.93
390.238	112.47
390.447	59.22
390.657	44.88
390.867	108.37
391.076	53.08
391.286	28.5
391.496	55.12
391.705	57.17
391.915	24.4
392.125	120.66
392.334	65.36
392.544	102.23
392.753	85.84
392.963	77.65
393.172	20.31
393.382	55.12
393.591	120.66
393.801	36.69
394.01	145.24
394.22	34.64
394.429	26.45
394.639	-20.65
394.848	108.37
395.058	71.51
395.267	59.22
395.477	100.18
395.686	24.4
395.895	83.8
396.105	141.14
396.314	44.88
396.524	89.94
396.733	42.84
396.942	120.66
397.152	55.12
397.361	139.09
397.57	51.03
397.78	91.99
397.989	100.18
398.198	171.86
398.407	59.22
398.617	124.76
398.826	120.66
399.035	104.28
399.244	143.19
399.453	165.71
399.663	59.22
399.872	110.42
400.081	98.13
400.29	96.08
400.499	104.28
400.708	89.94
400.917	208.72
401.127	135
401.336	91.99
401.545	167.76
401.754	120.66
401.963	135
402.172	83.8
402.381	110.42
402.59	110.42
402.799	153.43
403.008	112.47
403.217	124.76
403.426	116.56
403.635	135
403.844	128.85
404.053	163.67
404.262	114.52
404.471	208.72
404.68	116.56
404.888	130.9
405.097	77.65
405.306	190.29
405.515	182.1
405.724	169.81
405.933	257.87
406.142	157.52
406.35	208.72
406.559	167.76
406.768	239.44
406.977	235.35
407.185	171.86
407.394	214.87
407.603	227.15
407.812	208.72
408.02	304.98
408.229	280.4
408.438	216.91
408.646	190.29
408.855	317.26
409.064	337.74
409.272	286.54
409.481	390.99
409.69	298.83
409.898	366.42
410.107	331.6
410.315	399.18
410.524	382.8
410.733	337.74
410.941	452.43
411.15	524.11
411.358	501.58
411.567	421.71
411.775	501.58
411.984	436.05
412.192	534.35
412.401	495.44
412.609	554.83
412.818	579.4
413.026	571.21
413.234	681.8
413.443	608.08
413.651	661.32
413.86	689.99
414.068	708.43
414.276	679.75
414.485	716.62
414.693	780.11
414.901	825.16
415.11	841.54
415.318	864.07
415.526	853.83
415.734	915.27
415.943	1001.29
416.151	1040.2
416.359	1003.33
416.567	1019.72
416.776	1109.83
416.984	1095.49
417.192	1169.22
417.4	1214.27
417.608	1124.16
417.817	1197.89
418.025	1275.71
418.233	1431.36
418.441	1410.88
418.649	1388.35
418.857	1566.53
419.065	1568.57
419.273	1550.14
419.481	1673.02
419.689	1797.95
419.897	1748.79
420.105	1881.91
420.313	1857.34
420.521	1951.54
420.729	1896.25
420.937	2045.75
421.145	2090.81
421.353	2238.26
421.561	2369.33
421.769	2385.71
421.977	2443.06
422.185	2389.81
422.393	2520.88
422.601	2666.28
422.809	2535.21
423.017	2780.97
423.224	2770.73
423.432	2928.42
423.64	3059.49
423.848	3323.68
424.056	3032.87
424.263	3436.32
424.471	3393.31
424.679	3479.33
424.887	3661.6
425.094	3835.67
425.302	3856.15
425.51	3983.13
425.718	4099.86
425.925	4030.23
426.133	4151.06
426.341	4470.55
426.548	4712.21
426.756	4724.49
426.964	4765.45
427.171	5013.26
427.379	5170.95
427.586	5273.35
427.794	5410.56
428.001	5664.51
428.209	5771.01
428.417	5742.33
428.624	6133.5
428.832	6239.99
429.039	6237.94
429.247	6244.09
429.454	6639.34
429.662	7014.12
429.869	6745.84
430.076	7216.87
430.284	6958.83
430.491	7304.93
430.699	7661.28
430.906	7732.96
431.114	7706.34
431.321	8062.68
431.528	8212.18
431.736	8668.88
431.943	9148.11
432.15	8976.08
432.358	8990.41
432.565	9563.84
432.772	9572.04
432.979	9832.13
433.187	9909.95
433.394	10073.79
433.601	10839.73
433.808	11118.25
434.016	10714.8
434.223	11151.02
434.43	11677.35
434.637	11722.4
434.844	12562.07
435.052	12693.14
435.259	12609.17
435.466	12529.3
435.673	12547.73
435.88	13383.31
436.087	14061.18
436.294	13979.26
436.501	13772.42
436.708	14001.79
436.915	14651
437.122	15011.44
437.329	14970.48
437.537	15507.05
437.743	15910.5
437.95	15726.18
438.157	16467.55
438.364	17018.45
438.571	17026.64
438.778	17192.53
438.985	18722.36
439.192	17948.23
439.399	18525.75
439.606	18064.96
439.813	19138.1
440.02	20338.21
440.227	19928.61
440.433	19932.71
440.64	20594.2
440.847	20213.28
441.054	20626.97
441.261	22107.65
441.467	21777.93
441.674	22173.19
441.881	23365.1
442.088	23008.76
442.294	22883.83
442.501	23135.73
442.708	23993.83
442.914	24491.49
443.121	25800.14
443.328	24964.57
443.534	27069.88
443.741	26142.15
443.948	25492.94
444.154	27422.13
444.361	27342.26
444.568	27899.31
444.774	27706.8
444.981	28091.82
445.187	28679.58
445.394	29887.89
445.6	29330.84
445.807	32521.57
446.013	31178.11
446.22	31608.18
446.426	33187.16
446.633	33158.49
446.839	34405.7
447.046	32709.99
447.252	34370.89
447.459	34786.63
447.665	34409.8
447.871	35810.61
448.078	37575.96
448.284	35880.24
448.491	36926.75
448.697	37862.68
448.903	38323.47
449.11	38769.93
449.316	37887.25
449.522	39048.45
449.728	39881.97
449.935	40316.14
450.141	40232.18
450.347	41000.16
450.553	39970.04
450.76	40264.94
450.966	41483.48
451.172	41358.56
451.378	42339.54
451.584	41546.97
451.791	42542.28
451.997	42312.91
452.203	43015.36
452.409	42998.98
452.615	42472.65
452.821	40955.11
453.027	40731.88
453.233	43029.7
453.44	41295.07
453.646	41753.82
453.852	41893.08
454.058	42646.73
454.264	40914.15
454.47	41929.94
454.676	40598.76
454.882	42351.82
455.088	38509.83
455.294	39177.47
455.5	40353.01
455.705	40676.58
455.911	38620.42
456.117	37848.34
456.323	37547.29
456.529	35366.2
456.735	37197.09
456.941	36203.82
457.147	35976.5
457.352	34635.08
457.558	34248.01
457.764	34321.74
457.97	33514.84
458.176	32783.71
458.381	32986.46
458.587	31194.49
458.793	31180.15
458.999	29668.75
459.204	31884.65
459.41	31038.84
459.616	28685.73
459.821	29021.59
460.027	29207.96
460.233	28523.94
460.438	27252.15
460.644	27387.32
460.85	26283.46
461.055	26031.56
461.261	25638.35
461.466	23946.73
461.672	22763
461.878	24557.02
462.083	23066.1
462.289	22496.77
462.494	22214.15
462.7	21235.22
462.905	20825.62
463.111	21769.74
463.316	21593.61
463.522	21075.48
463.727	21188.11
463.932	20964.89
464.138	20778.52
464.343	20817.43
464.549	20266.53
464.754	21155.35
464.959	21110.29
465.165	20962.84
465.37	19971.62
465.575	19244.59
465.781	20045.35
465.986	20174.37
466.191	19338.8
466.397	19148.34
