Data from USB4F104151__204__14-20-38-943.txt Node

Date: Thu Mar 13 14:20:38 EDT 2025
User: louis
Spectrometer: USB4F10415
Trigger mode: 4
Integration Time (sec): 2.000000E-2
Scans to average: 1
Electric dark correction enabled: true
Nonlinearity correction enabled: false
Boxcar width: 0
XAxis mode: Wavelengths
Number of Pixels in Spectrum: 3648
>>>>>Begin Spectral Data<<<<<
178.204	-88.75
178.424	-88.75
178.644	-88.75
178.864	-137.9
179.084	-156.33
179.304	-58.03
179.524	48.47
179.744	66.9
179.964	-84.65
180.184	48.47
180.404	-0.68
180.624	11.61
180.844	13.65
181.064	30.04
181.283	3.41
181.503	-2.73
181.723	-76.46
181.943	-27.31
182.163	25.94
182.383	97.62
182.602	7.51
182.822	64.85
183.042	27.99
183.262	62.8
183.482	75.09
183.701	42.32
183.921	27.99
184.141	13.65
184.361	91.48
184.58	75.09
184.8	-60.07
185.02	40.28
185.239	79.19
185.459	52.56
185.679	52.56
185.898	13.65
186.118	71
186.338	38.23
186.557	54.61
186.777	7.51
186.997	1.37
187.216	13.65
187.436	40.28
187.655	62.8
187.875	32.08
188.095	17.75
188.314	48.47
188.534	13.65
188.753	17.75
188.973	89.43
189.192	19.8
189.412	-19.11
189.631	11.61
189.851	54.61
190.07	7.51
190.29	21.85
190.509	-15.02
190.729	83.28
190.948	103.76
191.168	62.8
191.387	32.08
191.607	36.18
191.826	34.13
192.045	-0.68
192.265	-15.02
192.484	-27.31
192.704	17.75
192.923	30.04
193.142	54.61
193.362	27.99
193.581	87.38
193.8	17.75
194.02	66.9
194.239	-47.79
194.458	-53.93
194.678	13.65
194.897	66.9
195.116	-45.74
195.335	56.66
195.555	64.85
195.774	9.56
195.993	118.1
196.212	5.46
196.432	-25.26
196.651	32.08
196.87	-39.59
197.089	105.81
197.308	-17.07
197.528	83.28
197.747	44.37
197.966	-39.59
198.185	42.32
198.404	64.85
198.623	56.66
198.842	73.04
199.062	48.47
199.281	30.04
199.5	17.75
199.719	-10.92
199.938	17.75
200.157	7.51
200.376	56.66
200.595	111.96
200.814	-12.97
201.033	-19.11
201.252	122.2
201.471	62.8
201.69	15.7
201.909	83.28
202.128	5.46
202.347	-33.45
202.566	15.7
202.785	30.04
203.004	-43.69
203.223	89.43
203.442	5.46
203.661	23.89
203.879	46.42
204.098	91.48
204.317	23.89
204.536	17.75
204.755	38.23
204.974	79.19
205.193	21.85
205.411	81.24
205.63	-25.26
205.849	48.47
206.068	5.46
206.287	36.18
206.505	48.47
206.724	-10.92
206.943	-60.07
207.162	5.46
207.381	42.32
207.599	-6.83
207.818	48.47
208.037	40.28
208.255	30.04
208.474	75.09
208.693	68.95
208.911	25.94
209.13	23.89
209.349	13.65
209.567	99.67
209.786	89.43
210.005	15.7
210.223	40.28
210.442	-27.31
210.661	38.23
210.879	52.56
211.098	68.95
211.316	99.67
211.535	54.61
211.753	23.89
211.972	62.8
212.191	-15.02
212.409	1.37
212.628	-17.07
212.846	13.65
213.065	77.14
213.283	89.43
213.502	-10.92
213.72	99.67
213.938	-23.21
214.157	7.51
214.375	17.75
214.594	30.04
214.812	21.85
215.031	71
215.249	21.85
215.467	56.66
215.686	32.08
215.904	62.8
216.122	46.42
216.341	7.51
216.559	81.24
216.778	30.04
216.996	21.85
217.214	5.46
217.432	40.28
217.651	-19.11
217.869	46.42
218.087	-2.73
218.306	21.85
218.524	1.37
218.742	-19.11
218.96	-29.35
219.179	-17.07
219.397	23.89
219.615	-29.35
219.833	38.23
220.051	21.85
220.27	58.71
220.488	54.61
220.706	77.14
220.924	23.89
221.142	21.85
221.36	25.94
221.578	32.08
221.796	-2.73
222.015	-27.31
222.233	-25.26
222.451	-8.87
222.669	3.41
222.887	38.23
223.105	7.51
223.323	25.94
223.541	15.7
223.759	42.32
223.977	3.41
224.195	9.56
224.413	17.75
224.631	44.37
224.849	21.85
225.067	50.52
225.285	-27.31
225.503	-35.5
225.721	21.85
225.939	50.52
226.157	7.51
226.375	17.75
226.592	30.04
226.81	13.65
227.028	64.85
227.246	42.32
227.464	38.23
227.682	13.65
227.9	77.14
228.117	68.95
228.335	7.51
228.553	87.38
228.771	56.66
228.989	30.04
229.206	30.04
229.424	-53.93
229.642	7.51
229.86	27.99
230.077	-10.92
230.295	81.24
230.513	7.51
230.731	-43.69
230.948	30.04
231.166	-27.31
231.384	83.28
231.601	44.37
231.819	64.85
232.037	1.37
232.254	5.46
232.472	46.42
232.689	50.52
232.907	9.56
233.125	23.89
233.342	32.08
233.56	5.46
233.777	3.41
233.995	103.76
234.213	27.99
234.43	15.7
234.648	66.9
234.865	11.61
235.083	73.04
235.3	-35.5
235.518	30.04
235.735	79.19
235.953	62.8
236.17	-2.73
236.388	42.32
236.605	19.8
236.822	62.8
237.04	23.89
237.257	44.37
237.475	15.7
237.692	5.46
237.909	-8.87
238.127	46.42
238.344	62.8
238.562	32.08
238.779	21.85
238.996	-43.69
239.214	40.28
239.431	-12.97
239.648	30.04
239.865	83.28
240.083	-23.21
240.3	27.99
240.517	50.52
240.735	85.33
240.952	3.41
241.169	-51.88
241.386	42.32
241.603	34.13
241.821	68.95
242.038	7.51
242.255	56.66
242.472	32.08
242.689	13.65
242.907	56.66
243.124	-51.88
243.341	97.62
243.558	-27.31
243.775	-0.68
243.992	-35.5
244.209	9.56
244.426	54.61
244.643	54.61
244.86	27.99
245.078	54.61
245.295	79.19
245.512	105.81
245.729	-25.26
245.946	36.18
246.163	56.66
246.38	36.18
246.597	13.65
246.814	40.28
247.031	-23.21
247.248	62.8
247.464	38.23
247.681	5.46
247.898	75.09
248.115	30.04
248.332	-8.87
248.549	62.8
248.766	71
248.983	34.13
249.2	64.85
249.417	13.65
249.633	75.09
249.85	1.37
250.067	97.62
250.284	-10.92
250.501	27.99
250.717	46.42
250.934	-35.5
251.151	42.32
251.368	15.7
251.585	-0.68
251.801	-27.31
252.018	27.99
252.235	25.94
252.451	-35.5
252.668	5.46
252.885	27.99
253.102	9.56
253.318	34.13
253.535	-47.79
253.752	56.66
253.968	-19.11
254.185	48.47
254.401	34.13
254.618	48.47
254.835	-37.55
255.051	62.8
255.268	3.41
255.484	99.67
255.701	-10.92
255.917	13.65
256.134	-15.02
256.351	50.52
256.567	62.8
256.784	32.08
257	-37.55
257.217	50.52
257.433	50.52
257.65	48.47
257.866	30.04
258.082	73.04
258.299	46.42
258.515	25.94
258.732	32.08
258.948	-10.92
259.165	23.89
259.381	17.75
259.597	71
259.814	-8.87
260.03	21.85
260.246	13.65
260.463	56.66
260.679	-6.83
260.895	23.89
261.112	50.52
261.328	-19.11
261.544	-23.21
261.761	120.15
261.977	21.85
262.193	79.19
262.409	5.46
262.626	36.18
262.842	34.13
263.058	38.23
263.274	46.42
263.49	5.46
263.707	5.46
263.923	5.46
264.139	34.13
264.355	23.89
264.571	27.99
264.787	71
265.004	79.19
265.22	73.04
265.436	30.04
265.652	58.71
265.868	1.37
266.084	5.46
266.3	-2.73
266.516	-27.31
266.732	13.65
266.948	48.47
267.164	-2.73
267.38	62.8
267.596	107.86
267.812	58.71
268.028	7.51
268.244	19.8
268.46	3.41
268.676	66.9
268.892	-8.87
269.108	-19.11
269.324	132.44
269.54	46.42
269.756	30.04
269.972	-27.31
270.188	9.56
270.403	-15.02
270.619	46.42
270.835	48.47
271.051	11.61
271.267	21.85
271.483	17.75
271.698	-4.78
271.914	79.19
272.13	-8.87
272.346	-0.68
272.562	46.42
272.777	30.04
272.993	46.42
273.209	27.99
273.425	30.04
273.64	1.37
273.856	-51.88
274.072	19.8
274.287	15.7
274.503	38.23
274.719	32.08
274.934	3.41
275.15	9.56
275.366	101.72
275.581	-10.92
275.797	7.51
276.012	-23.21
276.228	75.09
276.444	-2.73
276.659	21.85
276.875	13.65
277.09	75.09
277.306	-2.73
277.521	44.37
277.737	-0.68
277.952	42.32
278.168	30.04
278.383	50.52
278.599	7.51
278.814	50.52
279.03	81.24
279.245	40.28
279.461	-43.69
279.676	87.38
279.892	17.75
280.107	17.75
280.322	54.61
280.538	77.14
280.753	32.08
280.969	58.71
281.184	38.23
281.399	71
281.615	13.65
281.83	-21.16
282.045	13.65
282.26	97.62
282.476	23.89
282.691	95.57
282.906	-21.16
283.122	-82.6
283.337	-4.78
283.552	48.47
283.767	-17.07
283.983	48.47
284.198	7.51
284.413	68.95
284.628	27.99
284.843	40.28
285.058	46.42
285.274	-60.07
285.489	-8.87
285.704	48.47
285.919	-25.26
286.134	5.46
286.349	87.38
286.564	7.51
286.779	54.61
286.995	30.04
287.21	-53.93
287.425	91.48
287.64	101.72
287.855	1.37
288.07	17.75
288.285	91.48
288.5	21.85
288.715	97.62
288.93	91.48
289.145	1.37
289.36	21.85
289.575	-17.07
289.79	38.23
290.004	38.23
290.219	97.62
290.434	38.23
290.649	21.85
290.864	27.99
291.079	-15.02
291.294	21.85
291.509	50.52
291.724	-29.35
291.938	38.23
292.153	111.96
292.368	-2.73
292.583	-17.07
292.798	38.23
293.012	116.05
293.227	-17.07
293.442	71
293.657	5.46
293.871	146.77
294.086	54.61
294.301	48.47
294.516	9.56
294.73	25.94
294.945	-35.5
295.16	54.61
295.374	142.68
295.589	46.42
295.804	-17.07
296.018	68.95
296.233	30.04
296.447	9.56
296.662	-29.35
296.877	17.75
297.091	7.51
297.306	83.28
297.52	85.33
297.735	5.46
297.949	-8.87
298.164	25.94
298.378	7.51
298.593	38.23
298.807	-10.92
299.022	44.37
299.236	5.46
299.451	38.23
299.665	11.61
299.88	40.28
300.094	17.75
300.309	97.62
300.523	79.19
300.737	54.61
300.952	9.56
301.166	58.71
301.381	79.19
301.595	-10.92
301.809	3.41
302.024	15.7
302.238	50.52
302.452	13.65
302.667	62.8
302.881	30.04
303.095	48.47
303.309	-39.59
303.524	13.65
303.738	58.71
303.952	95.57
304.166	42.32
304.381	-76.46
304.595	27.99
304.809	32.08
305.023	68.95
305.237	13.65
305.452	-19.11
305.666	44.37
305.88	52.56
306.094	5.46
306.308	95.57
306.522	42.32
306.736	66.9
306.95	-55.98
307.164	11.61
307.379	40.28
307.593	15.7
307.807	15.7
308.021	48.47
308.235	21.85
308.449	64.85
308.663	52.56
308.877	107.86
309.091	62.8
309.305	81.24
309.519	-0.68
309.733	56.66
309.947	-21.16
310.161	91.48
310.374	68.95
310.588	81.24
310.802	46.42
311.016	48.47
311.23	34.13
311.444	62.8
311.658	-25.26
311.872	21.85
312.085	30.04
312.299	111.96
312.513	101.72
312.727	-19.11
312.941	9.56
313.154	21.85
313.368	32.08
313.582	79.19
313.796	19.8
314.009	5.46
314.223	50.52
314.437	46.42
314.651	75.09
314.864	73.04
315.078	-21.16
315.292	-107.18
315.505	13.65
315.719	5.46
315.933	62.8
316.146	71
316.36	-45.74
316.573	17.75
316.787	120.15
317.001	-2.73
317.214	21.85
317.428	15.7
317.641	71
317.855	9.56
318.068	91.48
318.282	-21.16
318.495	75.09
318.709	-43.69
318.922	34.13
319.136	81.24
319.349	101.72
319.563	56.66
319.776	62.8
319.99	38.23
320.203	32.08
320.417	21.85
320.63	-10.92
320.843	21.85
321.057	99.67
321.27	13.65
321.483	79.19
321.697	64.85
321.91	34.13
322.124	64.85
322.337	34.13
322.55	71
322.763	21.85
322.977	38.23
323.19	73.04
323.403	62.8
323.617	118.1
323.83	136.53
324.043	46.42
324.256	44.37
324.469	83.28
324.683	64.85
324.896	7.51
325.109	21.85
325.322	-2.73
325.535	95.57
325.748	46.42
325.962	38.23
326.175	42.32
326.388	101.72
326.601	19.8
326.814	54.61
327.027	36.18
327.24	111.96
327.453	-47.79
327.666	62.8
327.879	79.19
328.092	75.09
328.305	23.89
328.518	73.04
328.731	-19.11
328.944	38.23
329.157	7.51
329.37	1.37
329.583	17.75
329.796	89.43
330.009	7.51
330.222	85.33
330.435	58.71
330.648	52.56
330.861	46.42
331.073	42.32
331.286	42.32
331.499	3.41
331.712	60.76
331.925	56.66
332.138	23.89
332.35	46.42
332.563	46.42
332.776	87.38
332.989	-47.79
333.202	9.56
333.414	30.04
333.627	-41.64
333.84	46.42
334.053	-6.83
334.265	71
334.478	-2.73
334.691	40.28
334.903	103.76
335.116	50.52
335.329	-15.02
335.541	52.56
335.754	91.48
335.966	50.52
336.179	60.76
336.392	11.61
336.604	89.43
336.817	36.18
337.029	38.23
337.242	30.04
337.454	46.42
337.667	7.51
337.88	87.38
338.092	58.71
338.305	-17.07
338.517	1.37
338.729	34.13
338.942	15.7
339.154	-25.26
339.367	87.38
339.579	50.52
339.792	134.48
340.004	91.48
340.217	36.18
340.429	136.53
340.641	79.19
340.854	-25.26
341.066	75.09
341.278	32.08
341.491	87.38
341.703	5.46
341.915	-8.87
342.128	34.13
342.34	-19.11
342.552	-27.31
342.764	40.28
342.977	75.09
343.189	56.66
343.401	-6.83
343.613	-0.68
343.826	75.09
344.038	3.41
344.25	52.56
344.462	5.46
344.674	21.85
344.886	5.46
345.099	40.28
345.311	97.62
345.523	58.71
345.735	-64.17
345.947	23.89
346.159	54.61
346.371	38.23
346.583	107.86
346.795	128.34
347.007	103.76
347.219	56.66
347.431	30.04
347.643	73.04
347.855	5.46
348.067	89.43
348.279	56.66
348.491	5.46
348.703	54.61
348.915	83.28
349.127	58.71
349.339	21.85
349.551	23.89
349.763	87.38
349.975	62.8
350.187	36.18
350.399	68.95
350.61	48.47
350.822	89.43
351.034	128.34
351.246	-6.83
351.458	5.46
351.669	62.8
351.881	107.86
352.093	89.43
352.305	73.04
352.517	-33.45
352.728	111.96
352.94	36.18
353.152	111.96
353.363	58.71
353.575	30.04
353.787	75.09
353.999	116.05
354.21	73.04
354.422	62.8
354.633	52.56
354.845	54.61
355.057	-12.97
355.268	54.61
355.48	75.09
355.692	21.85
355.903	25.94
356.115	58.71
356.326	23.89
356.538	140.63
356.749	50.52
356.961	111.96
357.172	-23.21
357.384	-15.02
357.595	87.38
357.807	48.47
358.018	62.8
358.23	30.04
358.441	107.86
358.653	68.95
358.864	23.89
359.075	46.42
359.287	79.19
359.498	148.82
359.709	40.28
359.921	32.08
360.132	62.8
360.344	-8.87
360.555	71
360.766	71
360.977	66.9
361.189	87.38
361.4	95.57
361.611	109.91
361.823	38.23
362.034	87.38
362.245	40.28
362.456	3.41
362.667	34.13
362.879	93.52
363.09	-8.87
363.301	40.28
363.512	71
363.723	-51.88
363.935	89.43
364.146	40.28
364.357	48.47
364.568	83.28
364.779	44.37
364.99	-21.16
365.201	46.42
365.412	71
365.623	38.23
365.834	68.95
366.045	19.8
366.256	38.23
366.467	66.9
366.678	46.42
366.889	5.46
367.1	79.19
367.311	42.32
367.522	40.28
367.733	79.19
367.944	21.85
368.155	5.46
368.366	99.67
368.577	-10.92
368.788	89.43
368.999	-2.73
369.209	1.37
369.42	83.28
369.631	56.66
369.842	71
370.053	79.19
370.264	58.71
370.474	46.42
370.685	46.42
370.896	34.13
371.107	99.67
371.317	71
371.528	25.94
371.739	130.39
371.95	56.66
372.16	83.28
372.371	62.8
372.582	-10.92
372.792	50.52
373.003	5.46
373.214	-0.68
373.424	79.19
373.635	30.04
373.846	46.42
374.056	38.23
374.267	91.48
374.477	120.15
374.688	40.28
374.898	-2.73
375.109	48.47
375.319	30.04
375.53	89.43
375.74	30.04
375.951	62.8
376.161	52.56
376.372	46.42
376.582	42.32
376.793	79.19
377.003	124.24
377.214	46.42
377.424	13.65
377.635	50.52
377.845	48.47
378.055	79.19
378.266	50.52
378.476	77.14
378.686	87.38
378.897	71
379.107	-0.68
379.317	95.57
379.528	64.85
379.738	122.2
379.948	42.32
380.158	38.23
380.369	36.18
380.579	95.57
380.789	-35.5
380.999	91.48
381.21	114
381.42	40.28
381.63	7.51
381.84	120.15
382.05	87.38
382.261	138.58
382.471	50.52
382.681	13.65
382.891	152.92
383.101	138.58
383.311	89.43
383.521	52.56
383.731	120.15
383.941	40.28
384.151	75.09
384.361	54.61
384.571	122.2
384.781	62.8
384.991	154.96
385.201	58.71
385.411	64.85
385.621	87.38
385.831	46.42
386.041	52.56
386.251	71
386.461	87.38
386.671	116.05
386.881	48.47
387.091	79.19
387.301	71
387.511	56.66
387.72	62.8
387.93	62.8
388.14	66.9
388.35	48.47
388.56	87.38
388.769	95.57
388.979	109.91
389.189	87.38
389.399	62.8
389.609	30.04
389.818	118.1
390.028	66.9
390.238	128.34
390.447	89.43
390.657	79.19
390.867	58.71
391.076	81.24
391.286	122.2
391.496	116.05
391.705	23.89
391.915	71
392.125	105.81
392.334	7.51
392.544	111.96
392.753	95.57
392.963	71
393.172	81.24
393.382	54.61
393.591	165.2
393.801	85.33
394.01	177.49
394.22	79.19
394.429	73.04
394.639	71
394.848	89.43
395.058	99.67
395.267	138.58
395.477	79.19
395.686	71
395.895	163.15
396.105	97.62
396.314	105.81
396.524	62.8
396.733	107.86
396.942	87.38
397.152	62.8
397.361	185.68
397.57	54.61
397.78	122.2
397.989	140.63
398.198	161.11
398.407	148.82
398.617	75.09
398.826	150.87
399.035	105.81
399.244	111.96
399.453	101.72
399.663	81.24
399.872	62.8
400.081	111.96
400.29	140.63
400.499	107.86
400.708	97.62
400.917	146.77
401.127	161.11
401.336	124.24
401.545	136.53
401.754	177.49
401.963	197.97
402.172	109.91
402.381	62.8
402.59	124.24
402.799	87.38
403.008	107.86
403.217	142.68
403.426	161.11
403.635	179.54
403.844	253.27
404.053	120.15
404.262	116.05
404.471	234.83
404.68	150.87
404.888	283.99
405.097	154.96
405.306	216.4
405.515	259.41
405.724	116.05
405.933	230.74
406.142	226.64
406.35	224.59
406.559	171.35
406.768	271.7
406.977	333.14
407.185	261.46
407.394	200.02
407.603	283.99
407.812	296.27
408.02	275.79
408.229	310.61
408.438	302.42
408.646	318.8
408.855	318.8
409.064	351.57
409.272	261.46
409.481	398.67
409.69	275.79
409.898	431.44
410.107	431.44
410.315	484.69
410.524	482.64
410.733	423.25
410.941	466.25
411.15	572.75
411.358	472.4
411.567	503.12
411.775	533.84
411.984	462.16
412.192	597.32
412.401	597.32
412.609	615.76
412.818	601.42
413.026	691.53
413.234	669
413.443	630.09
413.651	783.69
413.86	793.93
414.068	746.83
414.276	920.9
414.485	865.61
414.693	820.55
414.901	970.05
415.11	888.14
415.318	787.79
415.526	1008.97
415.734	1078.6
415.943	976.2
416.151	1006.92
416.359	1099.08
416.567	1039.69
416.776	1094.98
416.984	1217.86
417.192	1316.16
417.4	1277.25
417.608	1350.98
417.817	1428.8
418.025	1400.13
418.233	1623.36
418.441	1496.38
418.649	1594.69
418.857	1660.22
419.065	1735.99
419.273	1709.37
419.481	1779
419.689	1924.41
419.897	1938.74
420.105	1989.94
420.313	1977.66
420.521	2145.59
420.729	2102.58
420.937	2186.55
421.145	2340.15
421.353	2366.77
421.561	2522.41
421.769	2590
421.977	2741.55
422.185	2686.25
422.393	2696.49
422.601	2960.68
422.809	2913.58
423.017	3142.95
423.224	3179.81
423.432	3134.76
423.64	3226.92
423.848	3378.47
424.056	3405.09
424.263	3693.85
424.471	3781.92
424.679	3683.61
424.887	4078.87
425.094	4193.56
425.302	4062.49
425.51	4308.24
425.718	4379.92
425.925	4496.66
426.133	4683.02
426.341	4846.86
426.548	5027.08
426.756	5143.81
426.964	5133.57
427.171	5516.55
427.379	5639.42
427.586	5717.25
427.794	5860.6
428.001	6132.98
428.209	6477.04
428.417	6212.85
428.624	6833.39
428.832	6653.17
429.039	6561.01
429.247	6821.1
429.454	7171.3
429.662	7898.33
429.869	7353.57
430.076	7947.48
430.284	7714.02
430.491	8058.07
430.699	8459.48
430.906	8482
431.114	8400.09
431.321	8748.24
431.528	8826.06
431.736	9600.19
431.943	9972.93
432.15	9792.7
432.358	9598.15
432.565	10241.21
432.772	10310.84
432.979	10859.7
433.187	10982.57
433.394	10974.38
433.601	12016.8
433.808	11908.26
434.016	11674.79
434.223	12055.71
434.43	13083.79
434.637	12819.6
434.844	13649.03
435.052	13841.54
435.259	13847.68
435.466	13728.9
435.673	13567.11
435.88	14652.53
436.087	15170.67
436.294	15291.5
436.501	15015.02
436.708	15320.17
436.915	16028.77
437.122	16643.16
437.329	16491.61
437.537	16905.3
437.743	17333.32
437.95	17241.17
438.157	18050.11
438.364	18570.3
438.571	18426.94
438.778	18793.53
438.985	20550.68
439.192	19577.9
439.399	20208.67
439.606	19737.64
439.813	20732.95
440.02	22166.53
440.227	21566.48
440.433	21562.38
440.64	22281.22
440.847	22316.03
441.054	22694.91
441.261	24110.05
441.467	23921.64
441.674	24302.56
441.881	25107.41
442.088	24812.51
442.294	24765.4
442.501	25514.96
442.708	25881.55
442.914	26524.61
443.121	27818.92
443.328	27241.4
443.534	29178.78
443.741	28509.09
443.948	27765.68
444.154	30149.51
444.361	30006.16
444.568	29977.48
444.774	29965.2
444.981	30251.91
445.187	31073.15
445.394	32582.5
445.6	32217.96
445.807	35068.73
446.013	33278.81
446.22	34173.77
446.426	35353.4
446.633	36141.87
446.839	36952.87
447.046	35437.37
447.252	37438.23
447.459	37266.2
447.665	37538.58
447.871	38740.74
448.078	40358.64
448.284	38621.96
448.491	39576.31
448.697	41212.64
448.903	41738.97
449.11	42158.8
449.316	41304.8
449.522	42060.5
449.728	43104.96
449.935	43307.71
450.141	43481.79
450.347	44284.59
450.553	43027.14
450.76	43201.22
450.966	44681.9
451.172	44534.45
451.378	45281.95
451.584	44542.64
451.791	45712.03
451.997	45435.55
452.203	45972.12
452.409	46107.29
452.615	46232.21
452.821	44341.94
453.027	44049.08
453.233	46197.4
453.44	44026.55
453.646	45050.53
453.852	45507.23
454.058	45949.59
454.264	44456.62
454.47	45398.69
454.676	43909.82
454.882	45683.36
455.088	41677.53
455.294	42891.97
455.5	43141.83
455.705	43184.83
455.911	42134.23
456.117	41546.46
456.323	40407.79
456.529	38441.74
456.735	40159.98
456.941	39203.58
457.147	38515.47
457.352	37516.06
457.558	36760.36
457.764	37063.46
457.97	36356.91
458.176	35586.87
458.381	35824.43
458.587	33807.19
458.793	33954.64
458.999	32256.87
459.204	34562.89
459.41	33512.28
459.616	31058.81
459.821	31474.55
460.027	31060.86
460.233	30706.56
460.438	29207.45
460.644	29361.05
460.85	27952.04
461.055	27567.02
461.261	27407.28
461.466	25347.03
461.672	24685.53
461.878	26549.18
462.083	24929.24
462.289	24245.22
462.494	24308.71
462.7	22940.66
462.905	22207.49
463.111	23309.3
463.316	23479.28
463.522	22895.61
463.727	22825.98
463.932	22907.9
464.138	22430.72
464.343	22653.95
464.549	21845
464.754	22625.28
464.959	22557.69
465.165	22313.98
465.37	21586.96
465.575	20743.19
465.781	21560.33
465.986	21668.87
466.191	21072.92
466.397	20470.81
466.602	19371.05
466.807	20505.63
467.012	20151.33
467.218	20386.85
467.423	19688.49
467.628	20059.17
467.833	21083.16
468.038	20171.81
468.244	19428.4
468.449	20493.34
