Data from USB4F104151__72__14-17-24-113.txt Node

Date: Thu Mar 13 14:17:24 EDT 2025
User: louis
Spectrometer: USB4F10415
Trigger mode: 4
Integration Time (sec): 2.000000E-2
Scans to average: 1
Electric dark correction enabled: true
Nonlinearity correction enabled: false
Boxcar width: 0
XAxis mode: Wavelengths
Number of Pixels in Spectrum: 3648
>>>>>Begin Spectral Data<<<<<
178.204	-49.49
178.424	-49.49
178.644	-49.49
178.864	-108.88
179.084	-51.54
179.304	-72.02
179.524	-33.11
179.744	20.14
179.964	-18.77
180.184	-37.2
180.404	100.01
180.624	-20.82
180.844	-29.01
181.064	-47.44
181.283	54.95
181.503	79.53
181.723	3.75
181.943	1.71
182.163	85.67
182.383	-0.34
182.602	44.71
182.822	48.81
183.042	7.85
183.262	-33.11
183.482	-10.58
183.701	-67.92
183.921	13.99
184.141	-84.31
184.361	79.53
184.58	61.1
184.8	91.82
185.02	-0.34
185.239	44.71
185.459	57
185.679	3.75
185.898	24.23
186.118	-53.59
186.338	36.52
186.557	77.48
186.777	3.75
186.997	63.15
187.216	-18.77
187.436	67.24
187.655	85.67
187.875	77.48
188.095	-31.06
188.314	28.33
188.534	63.15
188.753	9.9
188.973	13.99
189.192	79.53
189.412	-35.16
189.631	18.09
189.851	52.91
190.07	69.29
190.29	36.52
190.509	-0.34
190.729	24.23
190.948	138.92
191.168	61.1
191.387	20.14
191.607	30.38
191.826	11.95
192.045	26.28
192.265	-2.39
192.484	44.71
192.704	52.91
192.923	-6.49
193.142	20.14
193.362	-29.01
193.581	28.33
193.8	11.95
194.02	44.71
194.239	9.9
194.458	48.81
194.678	-22.87
194.897	-8.53
195.116	61.1
195.335	36.52
195.555	61.1
195.774	59.05
195.993	83.63
196.212	44.71
196.432	-4.44
196.651	-4.44
196.87	5.8
197.089	32.43
197.308	28.33
197.528	52.91
197.747	-20.82
197.966	-4.44
198.185	118.44
198.404	77.48
198.623	24.23
198.842	-4.44
199.062	36.52
199.281	54.95
199.5	42.67
199.719	-45.4
199.938	-45.4
200.157	69.29
200.376	38.57
200.595	81.58
200.814	44.71
201.033	77.48
201.252	30.38
201.471	22.19
201.69	34.47
201.909	71.34
202.128	44.71
202.347	26.28
202.566	61.1
202.785	-14.68
203.004	22.19
203.223	145.06
203.442	-16.73
203.661	-31.06
203.879	59.05
204.098	65.19
204.317	11.95
204.536	44.71
204.755	13.99
204.974	18.09
205.193	28.33
205.411	110.25
205.63	30.38
205.849	-20.82
206.068	-2.39
206.287	-20.82
206.505	48.81
206.724	11.95
206.943	-4.44
207.162	7.85
207.381	-24.92
207.599	57
207.818	22.19
208.037	61.1
208.255	75.43
208.474	73.39
208.693	40.62
208.911	-53.59
209.13	5.8
209.349	85.67
209.567	93.87
209.786	102.06
210.005	69.29
210.223	61.1
210.442	-8.53
210.661	151.21
210.879	-24.92
211.098	11.95
211.316	-37.2
211.535	28.33
211.753	3.75
211.972	16.04
212.191	-72.02
212.409	73.39
212.628	85.67
212.846	-45.4
213.065	-22.87
213.283	61.1
213.502	-59.73
213.72	48.81
213.938	106.15
214.157	16.04
214.375	44.71
214.594	-55.64
214.812	57
215.031	44.71
215.249	16.04
215.467	30.38
215.686	61.1
215.904	73.39
216.122	77.48
216.341	26.28
216.559	28.33
216.778	93.87
216.996	28.33
217.214	11.95
217.432	22.19
217.651	5.8
217.869	-8.53
218.087	13.99
218.306	69.29
218.524	57
218.742	52.91
218.96	22.19
219.179	61.1
219.397	3.75
219.615	69.29
219.833	24.23
220.051	20.14
220.27	-37.2
220.488	44.71
220.706	26.28
220.924	77.48
221.142	-6.49
221.36	44.71
221.578	22.19
221.796	34.47
222.015	-10.58
222.233	-55.64
222.451	71.34
222.669	-59.73
222.887	38.57
223.105	22.19
223.323	-24.92
223.541	1.71
223.759	116.39
223.977	7.85
224.195	122.54
224.413	118.44
224.631	30.38
224.849	-8.53
225.067	48.81
225.285	77.48
225.503	50.86
225.721	-26.96
225.939	20.14
226.157	-4.44
226.375	32.43
226.592	13.99
226.81	36.52
227.028	87.72
227.246	24.23
227.464	69.29
227.682	110.25
227.9	65.19
228.117	81.58
228.335	38.57
228.553	50.86
228.771	-47.44
228.989	77.48
229.206	5.8
229.424	20.14
229.642	73.39
229.86	61.1
230.077	69.29
230.295	-2.39
230.513	87.72
230.731	85.67
230.948	32.43
231.166	36.52
231.384	93.87
231.601	46.76
231.819	-10.58
232.037	85.67
232.254	20.14
232.472	54.95
232.689	-16.73
232.907	28.33
233.125	75.43
233.342	61.1
233.56	102.06
233.777	5.8
233.995	48.81
234.213	130.73
234.43	46.76
234.648	69.29
234.865	26.28
235.083	83.63
235.3	-65.88
235.518	95.91
235.735	110.25
235.953	-29.01
236.17	-0.34
236.388	69.29
236.605	-2.39
236.822	30.38
237.04	16.04
237.257	-4.44
237.475	61.1
237.692	81.58
237.909	81.58
238.127	30.38
238.344	-14.68
238.562	-4.44
238.779	46.76
238.996	-20.82
239.214	63.15
239.431	77.48
239.648	61.1
239.865	38.57
240.083	1.71
240.3	-12.63
240.517	13.99
240.735	36.52
240.952	52.91
241.169	24.23
241.386	28.33
241.603	7.85
241.821	-26.96
242.038	124.58
242.255	-2.39
242.472	30.38
242.689	112.3
242.907	-18.77
243.124	3.75
243.341	16.04
243.558	20.14
243.775	77.48
243.992	22.19
244.209	13.99
244.426	108.2
244.643	40.62
244.86	-8.53
245.078	-24.92
245.295	-12.63
245.512	5.8
245.729	5.8
245.946	73.39
246.163	65.19
246.38	44.71
246.597	38.57
246.814	69.29
247.031	-10.58
247.248	34.47
247.464	71.34
247.681	24.23
247.898	38.57
248.115	11.95
248.332	67.24
248.549	22.19
248.766	89.77
248.983	30.38
249.2	-10.58
249.417	-12.63
249.633	57
249.85	24.23
250.067	-0.34
250.284	30.38
250.501	-12.63
250.717	112.3
250.934	-0.34
251.151	18.09
251.368	69.29
251.585	20.14
251.801	5.8
252.018	42.67
252.235	71.34
252.451	24.23
252.668	24.23
252.885	65.19
253.102	-10.58
253.318	26.28
253.535	61.1
253.752	-14.68
253.968	3.75
254.185	5.8
254.401	40.62
254.618	40.62
254.835	-35.16
255.051	48.81
255.268	54.95
255.484	65.19
255.701	28.33
255.917	20.14
256.134	65.19
256.351	73.39
256.567	110.25
256.784	100.01
257	-8.53
257.217	97.96
257.433	61.1
257.65	7.85
257.866	50.86
258.082	65.19
258.299	-74.07
258.515	-16.73
258.732	7.85
258.948	-37.2
259.165	3.75
259.381	59.05
259.597	20.14
259.814	44.71
260.03	77.48
260.246	79.53
260.463	77.48
260.679	95.91
260.895	13.99
261.112	34.47
261.328	40.62
261.544	22.19
261.761	69.29
261.977	1.71
262.193	11.95
262.409	69.29
262.626	57
262.842	30.38
263.058	5.8
263.274	32.43
263.49	122.54
263.707	18.09
263.923	87.72
264.139	36.52
264.355	30.38
264.571	24.23
264.787	59.05
265.004	91.82
265.22	-0.34
265.436	7.85
265.652	11.95
265.868	13.99
266.084	-16.73
266.3	112.3
266.516	42.67
266.732	46.76
266.948	24.23
267.164	36.52
267.38	57
267.596	42.67
267.812	54.95
268.028	46.76
268.244	3.75
268.46	36.52
268.676	77.48
268.892	36.52
269.108	24.23
269.324	-4.44
269.54	36.52
269.756	61.1
269.972	38.57
270.188	61.1
270.403	-10.58
270.619	28.33
270.835	3.75
271.051	44.71
271.267	28.33
271.483	13.99
271.698	26.28
271.914	3.75
272.13	30.38
272.346	28.33
272.562	38.57
272.777	69.29
272.993	65.19
273.209	28.33
273.425	24.23
273.64	-18.77
273.856	20.14
274.072	71.34
274.287	57
274.503	38.57
274.719	7.85
274.934	22.19
275.15	22.19
275.366	52.91
275.581	54.95
275.797	7.85
276.012	-53.59
276.228	87.72
276.444	81.58
276.659	85.67
276.875	61.1
277.09	24.23
277.306	81.58
277.521	18.09
277.737	65.19
277.952	57
278.168	46.76
278.383	61.1
278.599	40.62
278.814	63.15
279.03	-2.39
279.245	61.1
279.461	22.19
279.676	3.75
279.892	-20.82
280.107	32.43
280.322	61.1
280.538	104.11
280.753	26.28
280.969	71.34
281.184	65.19
281.399	54.95
281.615	28.33
281.83	52.91
282.045	7.85
282.26	52.91
282.476	65.19
282.691	65.19
282.906	36.52
283.122	7.85
283.337	1.71
283.552	126.63
283.767	46.76
283.983	13.99
284.198	44.71
284.413	20.14
284.628	-51.54
284.843	-53.59
285.058	5.8
285.274	52.91
285.489	16.04
285.704	69.29
285.919	44.71
286.134	-4.44
286.349	77.48
286.564	65.19
286.779	97.96
286.995	81.58
287.21	30.38
287.425	5.8
287.64	77.48
287.855	44.71
288.07	-39.25
288.285	50.86
288.5	65.19
288.715	79.53
288.93	24.23
289.145	40.62
289.36	20.14
289.575	69.29
289.79	69.29
290.004	85.67
290.219	7.85
290.434	32.43
290.649	-53.59
290.864	18.09
291.079	-35.16
291.294	85.67
291.509	24.23
291.724	34.47
291.938	38.57
292.153	79.53
292.368	44.71
292.583	3.75
292.798	52.91
293.012	61.1
293.227	28.33
293.442	-0.34
293.657	38.57
293.871	63.15
294.086	-37.2
294.301	16.04
294.516	110.25
294.73	7.85
294.945	-20.82
295.16	-26.96
295.374	81.58
295.589	73.39
295.804	93.87
296.018	-49.49
296.233	54.95
296.447	81.58
296.662	1.71
296.877	11.95
297.091	26.28
297.306	46.76
297.52	50.86
297.735	87.72
297.949	54.95
298.164	26.28
298.378	54.95
298.593	36.52
298.807	13.99
299.022	71.34
299.236	69.29
299.451	44.71
299.665	54.95
299.88	28.33
300.094	1.71
300.309	75.43
300.523	42.67
300.737	-35.16
300.952	28.33
301.166	3.75
301.381	61.1
301.595	3.75
301.809	36.52
302.024	87.72
302.238	46.76
302.452	46.76
302.667	40.62
302.881	122.54
303.095	126.63
303.309	3.75
303.524	36.52
303.738	-20.82
303.952	65.19
304.166	42.67
304.381	-4.44
304.595	106.15
304.809	-18.77
305.023	32.43
305.237	97.96
305.452	28.33
305.666	13.99
305.88	87.72
306.094	42.67
306.308	59.05
306.522	61.1
306.736	28.33
306.95	22.19
307.164	-16.73
307.379	28.33
307.593	71.34
307.807	69.29
308.021	83.63
308.235	20.14
308.449	28.33
308.663	54.95
308.877	85.67
309.091	42.67
309.305	20.14
309.519	1.71
309.733	38.57
309.947	-53.59
310.161	-16.73
310.374	63.15
310.588	-20.82
310.802	20.14
311.016	36.52
311.23	30.38
311.444	-14.68
311.658	-4.44
311.872	57
312.085	61.1
312.299	3.75
312.513	44.71
312.727	87.72
312.941	-43.35
313.154	91.82
313.368	36.52
313.582	36.52
313.796	71.34
314.009	44.71
314.223	32.43
314.437	30.38
314.651	102.06
314.864	54.95
315.078	3.75
315.292	28.33
315.505	44.71
315.719	38.57
315.933	44.71
316.146	71.34
316.36	-53.59
316.573	50.86
316.787	81.58
317.001	-8.53
317.214	40.62
317.428	120.49
317.641	26.28
317.855	-8.53
318.068	20.14
318.282	32.43
318.495	59.05
318.709	32.43
318.922	89.77
319.136	63.15
319.349	57
319.563	63.15
319.776	28.33
319.99	38.57
320.203	77.48
320.417	-4.44
320.63	30.38
320.843	102.06
321.057	126.63
321.27	85.67
321.483	57
321.697	93.87
321.91	-12.63
322.124	102.06
322.337	77.48
322.55	61.1
322.763	-26.96
322.977	38.57
323.19	-18.77
323.403	52.91
323.617	73.39
323.83	83.63
324.043	-0.34
324.256	93.87
324.469	65.19
324.683	38.57
324.896	-31.06
325.109	83.63
325.322	-12.63
325.535	3.75
325.748	48.81
325.962	3.75
326.175	-4.44
326.388	-20.82
326.601	40.62
326.814	5.8
327.027	-12.63
327.24	104.11
327.453	24.23
327.666	106.15
327.879	104.11
328.092	28.33
328.305	114.34
328.518	71.34
328.731	83.63
328.944	-2.39
329.157	102.06
329.37	46.76
329.583	97.96
329.796	112.3
330.009	36.52
330.222	36.52
330.435	100.01
330.648	48.81
330.861	5.8
331.073	77.48
331.286	36.52
331.499	-8.53
331.712	13.99
331.925	110.25
332.138	61.1
332.35	87.72
332.563	-8.53
332.776	69.29
332.989	-65.88
333.202	-43.35
333.414	48.81
333.627	-10.58
333.84	44.71
334.053	57
334.265	28.33
334.478	1.71
334.691	46.76
334.903	-10.58
335.116	-24.92
335.329	30.38
335.541	24.23
335.754	34.47
335.966	5.8
336.179	85.67
336.392	44.71
336.604	73.39
336.817	85.67
337.029	-4.44
337.242	71.34
337.454	28.33
337.667	44.71
337.88	52.91
338.092	-29.01
338.305	114.34
338.517	40.62
338.729	85.67
338.942	69.29
339.154	102.06
339.367	-6.49
339.579	61.1
339.792	-24.92
340.004	65.19
340.217	18.09
340.429	40.62
340.641	-16.73
340.854	52.91
341.066	22.19
341.278	77.48
341.491	61.1
341.703	93.87
341.915	71.34
342.128	81.58
342.34	57
342.552	44.71
342.764	1.71
342.977	-12.63
343.189	28.33
343.401	71.34
343.613	28.33
343.826	44.71
344.038	67.24
344.25	54.95
344.462	77.48
344.674	48.81
344.886	81.58
345.099	46.76
345.311	89.77
345.523	16.04
345.735	34.47
345.947	63.15
346.159	114.34
346.371	24.23
346.583	48.81
346.795	38.57
347.007	28.33
347.219	143.02
347.431	81.58
347.643	44.71
347.855	63.15
348.067	138.92
348.279	-24.92
348.491	20.14
348.703	54.95
348.915	5.8
349.127	-8.53
349.339	22.19
349.551	-33.11
349.763	-35.16
349.975	52.91
350.187	89.77
350.399	42.67
350.61	54.95
350.822	-33.11
351.034	93.87
351.246	61.1
351.458	-2.39
351.669	120.49
351.881	79.53
352.093	104.11
352.305	106.15
352.517	42.67
352.728	151.21
352.94	77.48
353.152	61.1
353.363	13.99
353.575	36.52
353.787	30.38
353.999	71.34
354.21	110.25
354.422	85.67
354.633	46.76
354.845	67.24
355.057	67.24
355.268	30.38
355.48	69.29
355.692	48.81
355.903	5.8
356.115	40.62
356.326	36.52
356.538	77.48
356.749	73.39
356.961	5.8
357.172	13.99
357.384	7.85
357.595	75.43
357.807	11.95
358.018	46.76
358.23	81.58
358.441	118.44
358.653	-2.39
358.864	7.85
359.075	13.99
359.287	54.95
359.498	122.54
359.709	57
359.921	81.58
360.132	122.54
360.344	108.2
360.555	44.71
360.766	63.15
360.977	16.04
361.189	95.91
361.4	28.33
361.611	97.96
361.823	108.2
362.034	104.11
362.245	-24.92
362.456	89.77
362.667	40.62
362.879	20.14
363.09	16.04
363.301	112.3
363.512	65.19
363.723	73.39
363.935	63.15
364.146	54.95
364.357	93.87
364.568	69.29
364.779	13.99
364.99	151.21
365.201	-18.77
365.412	102.06
365.623	85.67
365.834	110.25
366.045	20.14
366.256	118.44
366.467	54.95
366.678	28.33
366.889	48.81
367.1	36.52
367.311	46.76
367.522	-0.34
367.733	128.68
367.944	81.58
368.155	5.8
368.366	69.29
368.577	65.19
368.788	118.44
368.999	54.95
369.209	46.76
369.42	73.39
369.631	147.11
369.842	-12.63
370.053	65.19
370.264	61.1
370.474	28.33
370.685	102.06
370.896	102.06
371.107	38.57
371.317	48.81
371.528	44.71
371.739	59.05
371.95	46.76
372.16	147.11
372.371	42.67
372.582	-18.77
372.792	81.58
373.003	44.71
373.214	38.57
373.424	85.67
373.635	-65.88
373.846	36.52
374.056	36.52
374.267	87.72
374.477	97.96
374.688	71.34
374.898	-37.2
375.109	116.39
375.319	83.63
375.53	61.1
375.74	46.76
375.951	20.14
376.161	42.67
376.372	108.2
376.582	79.53
376.793	36.52
377.003	85.67
377.214	32.43
377.424	46.76
377.635	48.81
377.845	61.1
378.055	32.43
378.266	100.01
378.476	20.14
378.686	32.43
378.897	91.82
379.107	38.57
379.317	44.71
379.528	13.99
379.738	5.8
379.948	-14.68
380.158	89.77
380.369	-2.39
380.579	38.57
380.789	73.39
380.999	71.34
381.21	106.15
381.42	112.3
381.63	-24.92
381.84	3.75
382.05	85.67
382.261	104.11
382.471	147.11
382.681	-2.39
382.891	71.34
383.101	87.72
383.311	3.75
383.521	87.72
383.731	126.63
383.941	13.99
384.151	69.29
384.361	32.43
384.571	40.62
384.781	81.58
384.991	59.05
385.201	5.8
385.411	69.29
385.621	95.91
385.831	93.87
386.041	46.76
386.251	20.14
386.461	104.11
386.671	11.95
386.881	116.39
387.091	75.43
387.301	61.1
387.511	36.52
387.72	87.72
387.93	71.34
388.14	-20.82
388.35	36.52
388.56	149.16
388.769	130.73
388.979	65.19
389.189	-2.39
389.399	44.71
389.609	44.71
389.818	106.15
390.028	50.86
390.238	54.95
390.447	7.85
390.657	114.34
390.867	73.39
391.076	46.76
391.286	50.86
391.496	44.71
391.705	-4.44
391.915	65.19
392.125	147.11
392.334	16.04
392.544	71.34
392.753	85.67
392.963	95.91
393.172	46.76
393.382	57
393.591	102.06
393.801	11.95
394.01	69.29
394.22	100.01
394.429	52.91
394.639	61.1
394.848	89.77
395.058	52.91
395.267	89.77
395.477	161.45
395.686	69.29
395.895	167.59
396.105	114.34
396.314	173.74
396.524	140.97
396.733	50.86
396.942	145.06
397.152	145.06
397.361	93.87
397.57	122.54
397.78	81.58
397.989	147.11
398.198	120.49
398.407	48.81
398.617	145.06
398.826	126.63
399.035	134.82
399.244	69.29
399.453	151.21
399.663	91.82
399.872	102.06
400.081	102.06
400.29	71.34
400.499	69.29
400.708	134.82
400.917	102.06
401.127	145.06
401.336	54.95
401.545	147.11
401.754	155.3
401.963	128.68
402.172	147.11
402.381	89.77
402.59	136.87
402.799	161.45
403.008	188.07
403.217	167.59
403.426	169.64
403.635	44.71
403.844	247.46
404.053	110.25
404.262	136.87
404.471	169.64
404.68	226.98
404.888	163.5
405.097	143.02
405.306	218.79
405.515	124.58
405.724	147.11
405.933	126.63
406.142	237.22
406.35	165.54
406.559	208.55
406.768	134.82
406.977	241.32
407.185	179.88
407.394	202.41
407.603	253.61
407.812	276.13
408.02	241.32
408.229	241.32
408.438	298.66
408.646	241.32
408.855	304.81
409.064	356.01
409.272	294.57
409.481	394.92
409.69	288.42
409.898	224.94
410.107	300.71
410.315	358.05
410.524	372.39
410.733	405.16
410.941	388.77
411.15	362.15
411.358	456.36
411.567	396.96
411.775	470.69
411.984	478.88
412.192	485.03
412.401	509.6
412.609	564.9
412.818	571.04
413.026	474.79
413.234	636.58
413.443	589.47
413.651	573.09
413.86	587.43
414.068	669.34
414.276	700.06
414.485	655.01
414.693	732.83
414.901	757.41
415.11	822.94
415.318	741.02
415.526	835.23
415.734	779.93
415.943	962.2
416.151	947.87
416.359	913.05
416.567	913.05
416.776	1035.93
416.984	1085.08
417.192	1050.27
417.4	1091.23
417.608	1042.07
417.817	1177.24
418.025	1273.5
418.233	1314.45
418.441	1250.97
418.649	1250.97
418.857	1379.99
419.065	1406.61
419.273	1474.2
419.481	1535.64
419.689	1511.06
419.897	1588.88
420.105	1728.14
420.313	1789.58
420.521	1762.96
420.729	1781.39
420.937	1820.3
421.145	1914.51
421.353	2027.15
421.561	2141.83
421.769	2166.41
421.977	2233.99
422.185	2182.79
422.393	2309.77
422.601	2420.36
422.809	2485.89
423.017	2596.48
423.224	2643.59
423.432	2688.64
423.64	2768.51
423.848	3010.17
424.056	2961.02
424.263	3176.06
424.471	3102.33
424.679	3178.11
424.887	3399.29
425.094	3430.01
425.302	3341.94
425.51	3690.1
425.718	3774.07
425.925	3804.78
426.133	3845.74
426.341	4058.73
426.548	4290.15
426.756	4302.44
426.964	4271.72
427.171	4525.67
427.379	4738.66
427.586	4916.83
427.794	4918.88
428.001	5150.3
428.209	5328.47
428.417	5224.03
428.624	5559.89
428.832	5547.61
429.039	5639.76
429.247	5635.67
429.454	6231.63
429.662	6430.28
429.869	6026.83
430.076	6551.11
430.284	6346.31
430.491	6710.85
430.699	6950.46
430.906	6921.79
431.114	7009.86
431.321	7456.31
431.528	7605.81
431.736	8052.27
431.943	8474.15
432.15	8017.46
432.358	8306.22
432.565	8848.93
432.772	8803.88
432.979	8945.19
433.187	9227.81
433.394	9508.38
433.601	9981.46
433.808	9856.53
434.016	9803.29
434.223	10227.21
434.43	10874.37
434.637	10733.06
434.844	11326.97
435.052	11496.96
435.259	11505.15
435.466	11316.73
435.673	11396.6
435.88	12223.98
436.087	12801.51
436.294	12842.47
436.501	12502.51
436.708	12797.42
436.915	13280.74
437.122	13815.26
437.329	13835.74
437.537	14122.45
437.743	14501.33
437.95	14484.94
438.157	15134.15
438.364	15777.21
438.571	15406.53
438.778	15420.86
438.985	16872.87
439.192	16494
439.399	17094.05
439.606	16518.57
439.813	17565.09
440.02	18640.27
440.227	18156.95
440.433	18226.58
440.64	18691.47
440.847	18529.68
441.054	19008.9
441.261	20075.9
441.467	19844.48
441.674	20346.23
441.881	20960.62
442.088	20841.84
442.294	20852.08
442.501	21151.08
442.708	21747.04
442.914	22496.6
443.121	23475.52
443.328	22975.82
443.534	24563
443.741	24053.05
443.948	23506.24
444.154	25009.45
444.361	24796.46
444.568	25056.56
444.774	25136.43
444.981	25517.35
445.187	26293.53
445.394	27254.03
445.6	27102.48
445.807	29437.16
446.013	28517.62
446.22	28806.39
446.426	30299.36
446.633	30076.13
446.839	31245.52
447.046	30047.46
447.252	31587.53
447.459	31446.22
447.665	31472.84
447.871	32982.2
448.078	34225.31
448.284	32582.84
448.491	33676.46
448.697	34397.34
448.903	35146.9
449.11	35597.45
449.316	34911.38
449.522	35429.52
449.728	36856.95
449.935	36658.3
450.141	36373.63
450.347	37661.8
450.553	36125.83
450.76	36621.44
450.966	37923.94
451.172	37254.26
451.378	38769.76
451.584	37598.32
451.791	38859.87
451.997	38259.81
452.203	39246.93
452.409	38798.43
452.615	39113.81
452.821	37592.17
453.027	36936.82
453.233	39167.06
453.44	37512.3
453.646	38169.7
453.852	38300.77
454.058	38716.51
454.264	37352.56
454.47	38421.6
454.676	37235.83
454.882	38663.26
455.088	35675.27
455.294	36230.27
455.5	36287.62
455.705	36693.11
455.911	35411.09
456.117	34487.45
456.323	34256.03
456.529	32476.35
456.735	33946.79
456.941	33092.79
457.147	32443.58
457.352	31335.63
457.558	31261.9
457.764	31177.93
457.97	30487.77
458.176	29811.94
458.381	30153.95
458.587	28521.72
458.793	28689.65
458.999	27059.47
459.204	28779.76
459.41	27909.38
459.616	26598.68
459.821	26379.54
460.027	26395.93
460.233	25902.37
460.438	24550.71
460.644	24886.57
460.85	23680.32
461.055	23182.66
461.261	23285.06
461.466	21230.95
461.672	20872.56
461.878	22265.17
462.083	20974.95
462.289	20518.26
462.494	20393.33
462.7	19574.14
462.905	18802.06
463.111	19611.01
463.316	19424.64
463.522	19117.45
463.727	19158.41
463.932	19244.42
464.138	19090.82
464.343	18838.92
464.549	18492.82
464.754	19156.36
464.959	18879.88
465.165	18541.97
465.37	17814.94
465.575	17317.28
465.781	17989.02
465.986	18361.75
466.191	17634.72
466.397	17481.12
466.602	16426.42
466.807	17253.8
467.012	17272.23
467.218	16993.7
467.423	16926.12
467.628	16952.74
