Data from USB4F104151__135__14-19-07-936.txt Node

Date: Thu Mar 13 14:19:07 EDT 2025
User: louis
Spectrometer: USB4F10415
Trigger mode: 4
Integration Time (sec): 2.000000E-2
Scans to average: 1
Electric dark correction enabled: true
Nonlinearity correction enabled: false
Boxcar width: 0
XAxis mode: Wavelengths
Number of Pixels in Spectrum: 3648
>>>>>Begin Spectral Data<<<<<
178.204	-109.57
178.424	-109.57
178.644	-109.57
178.864	-146.43
179.084	-56.32
179.304	17.41
179.524	1.02
179.744	-27.65
179.964	39.94
180.184	41.98
180.404	-23.55
180.624	-7.17
180.844	-44.03
181.064	-72.7
181.283	74.75
181.503	27.65
181.723	-27.65
181.943	-35.84
182.163	17.41
182.383	35.84
182.602	15.36
182.822	29.7
183.042	33.79
183.262	-56.32
183.482	-44.03
183.701	-35.84
183.921	72.7
184.141	-27.65
184.361	56.32
184.58	-13.31
184.8	5.12
185.02	-39.94
185.239	39.94
185.459	17.41
185.679	-33.79
185.898	-1.02
186.118	101.37
186.338	29.7
186.557	21.5
186.777	-13.31
186.997	-17.41
187.216	-31.74
187.436	91.13
187.655	82.94
187.875	25.6
188.095	66.56
188.314	1.02
188.534	23.55
188.753	11.26
188.973	33.79
189.192	105.47
189.412	-7.17
189.631	27.65
189.851	56.32
190.07	82.94
190.29	29.7
190.509	-19.46
190.729	27.65
190.948	68.61
191.168	84.99
191.387	46.08
191.607	35.84
191.826	21.5
192.045	39.94
192.265	66.56
192.484	1.02
192.704	13.31
192.923	-11.26
193.142	41.98
193.362	-29.7
193.581	37.89
193.8	17.41
194.02	37.89
194.239	48.13
194.458	41.98
194.678	99.33
194.897	41.98
195.116	-39.94
195.335	11.26
195.555	13.31
195.774	15.36
195.993	52.22
196.212	-15.36
196.432	19.46
196.651	7.17
196.87	21.5
197.089	62.46
197.308	-1.02
197.528	-11.26
197.747	1.02
197.966	25.6
198.185	74.75
198.404	52.22
198.623	25.6
198.842	1.02
199.062	11.26
199.281	33.79
199.5	-7.17
199.719	3.07
199.938	74.75
200.157	72.7
200.376	39.94
200.595	17.41
200.814	52.22
201.033	25.6
201.252	48.13
201.471	84.99
201.69	158.72
201.909	41.98
202.128	33.79
202.347	9.22
202.566	-3.07
202.785	60.42
203.004	-3.07
203.223	101.37
203.442	31.74
203.661	19.46
203.879	21.5
204.098	11.26
204.317	72.7
204.536	19.46
204.755	62.46
204.974	74.75
205.193	41.98
205.411	9.22
205.63	1.02
205.849	54.27
206.068	1.02
206.287	17.41
206.505	1.02
206.724	41.98
206.943	-35.84
207.162	-5.12
207.381	-15.36
207.599	48.13
207.818	7.17
208.037	21.5
208.255	-29.7
208.474	3.07
208.693	29.7
208.911	41.98
209.13	-15.36
209.349	44.03
209.567	29.7
209.786	1.02
210.005	44.03
210.223	-64.51
210.442	-29.7
210.661	91.13
210.879	25.6
211.098	25.6
211.316	33.79
211.535	44.03
211.753	33.79
211.972	9.22
212.191	17.41
212.409	-15.36
212.628	39.94
212.846	-87.04
213.065	58.37
213.283	-1.02
213.502	19.46
213.72	21.5
213.938	80.89
214.157	107.52
214.375	33.79
214.594	33.79
214.812	68.61
215.031	115.71
215.249	78.85
215.467	41.98
215.686	68.61
215.904	74.75
216.122	103.42
216.341	91.13
216.559	76.8
216.778	62.46
216.996	39.94
217.214	62.46
217.432	5.12
217.651	35.84
217.869	-23.55
218.087	-19.46
218.306	37.89
218.524	3.07
218.742	25.6
218.96	35.84
219.179	19.46
219.397	99.33
219.615	76.8
219.833	37.89
220.051	-11.26
220.27	74.75
220.488	66.56
220.706	78.85
220.924	-44.03
221.142	33.79
221.36	68.61
221.578	29.7
221.796	17.41
222.015	97.28
222.233	-15.36
222.451	-3.07
222.669	23.55
222.887	54.27
223.105	-13.31
223.323	74.75
223.541	33.79
223.759	-7.17
223.977	35.84
224.195	154.62
224.413	66.56
224.631	66.56
224.849	58.37
225.067	119.81
225.285	-46.08
225.503	-121.85
225.721	-11.26
225.939	97.28
226.157	95.23
226.375	84.99
226.592	-23.55
226.81	54.27
227.028	109.57
227.246	54.27
227.464	27.65
227.682	87.04
227.9	17.41
228.117	35.84
228.335	56.32
228.553	74.75
228.771	27.65
228.989	89.09
229.206	82.94
229.424	-13.31
229.642	31.74
229.86	62.46
230.077	62.46
230.295	54.27
230.513	5.12
230.731	74.75
230.948	31.74
231.166	99.33
231.384	17.41
231.601	13.31
231.819	87.04
232.037	41.98
232.254	9.22
232.472	37.89
232.689	-58.37
232.907	35.84
233.125	9.22
233.342	15.36
233.56	-35.84
233.777	21.5
233.995	13.31
234.213	58.37
234.43	-7.17
234.648	13.31
234.865	29.7
235.083	31.74
235.3	50.18
235.518	23.55
235.735	115.71
235.953	97.28
236.17	-48.13
236.388	13.31
236.605	5.12
236.822	25.6
237.04	93.18
237.257	39.94
237.475	62.46
237.692	11.26
237.909	13.31
238.127	3.07
238.344	70.65
238.562	84.99
238.779	-13.31
238.996	1.02
239.214	82.94
239.431	-3.07
239.648	29.7
239.865	93.18
240.083	13.31
240.3	-44.03
240.517	-52.22
240.735	-9.22
240.952	9.22
241.169	54.27
241.386	-11.26
241.603	33.79
241.821	19.46
242.038	87.04
242.255	66.56
242.472	-19.46
242.689	33.79
242.907	37.89
243.124	-56.32
243.341	37.89
243.558	19.46
243.775	-13.31
243.992	-72.7
244.209	-23.55
244.426	103.42
244.643	62.46
244.86	19.46
245.078	3.07
245.295	1.02
245.512	-21.5
245.729	15.36
245.946	-56.32
246.163	87.04
246.38	60.42
246.597	66.56
246.814	64.51
247.031	29.7
247.248	95.23
247.464	82.94
247.681	39.94
247.898	-15.36
248.115	-3.07
248.332	-66.56
248.549	56.32
248.766	125.95
248.983	68.61
249.2	11.26
249.417	39.94
249.633	21.5
249.85	134.14
250.067	17.41
250.284	-39.94
250.501	64.51
250.717	19.46
250.934	-44.03
251.151	31.74
251.368	7.17
251.585	140.29
251.801	44.03
252.018	1.02
252.235	87.04
252.451	46.08
252.668	41.98
252.885	23.55
253.102	54.27
253.318	-13.31
253.535	35.84
253.752	23.55
253.968	-23.55
254.185	3.07
254.401	52.22
254.618	-3.07
254.835	21.5
255.051	64.51
255.268	50.18
255.484	37.89
255.701	33.79
255.917	70.65
256.134	9.22
256.351	31.74
256.567	50.18
256.784	64.51
257	-54.27
257.217	50.18
257.433	21.5
257.65	11.26
257.866	107.52
258.082	-84.99
258.299	11.26
258.515	-15.36
258.732	21.5
258.948	74.75
259.165	50.18
259.381	21.5
259.597	25.6
259.814	113.66
260.03	-39.94
260.246	-15.36
260.463	91.13
260.679	82.94
260.895	23.55
261.112	105.47
261.328	27.65
261.544	17.41
261.761	84.99
261.977	25.6
262.193	70.65
262.409	50.18
262.626	-44.03
262.842	27.65
263.058	19.46
263.274	19.46
263.49	17.41
263.707	-3.07
263.923	17.41
264.139	27.65
264.355	41.98
264.571	107.52
264.787	41.98
265.004	44.03
265.22	60.42
265.436	35.84
265.652	-1.02
265.868	58.37
266.084	17.41
266.3	-23.55
266.516	19.46
266.732	17.41
266.948	17.41
267.164	87.04
267.38	66.56
267.596	50.18
267.812	95.23
268.028	50.18
268.244	25.6
268.46	50.18
268.676	52.22
268.892	29.7
269.108	-3.07
269.324	39.94
269.54	-48.13
269.756	37.89
269.972	-7.17
270.188	-35.84
270.403	-5.12
270.619	87.04
270.835	-39.94
271.051	-31.74
271.267	-27.65
271.483	5.12
271.698	-33.79
271.914	64.51
272.13	19.46
272.346	37.89
272.562	41.98
272.777	17.41
272.993	82.94
273.209	68.61
273.425	99.33
273.64	-15.36
273.856	76.8
274.072	17.41
274.287	-44.03
274.503	44.03
274.719	70.65
274.934	3.07
275.15	-5.12
275.366	31.74
275.581	52.22
275.797	58.37
276.012	74.75
276.228	54.27
276.444	-39.94
276.659	101.37
276.875	-13.31
277.09	37.89
277.306	-25.6
277.521	78.85
277.737	25.6
277.952	-17.41
278.168	41.98
278.383	144.38
278.599	93.18
278.814	56.32
279.03	-19.46
279.245	25.6
279.461	33.79
279.676	35.84
279.892	-31.74
280.107	35.84
280.322	-44.03
280.538	37.89
280.753	41.98
280.969	-15.36
281.184	41.98
281.399	87.04
281.615	-29.7
281.83	29.7
282.045	44.03
282.26	-13.31
282.476	-1.02
282.691	82.94
282.906	33.79
283.122	-13.31
283.337	84.99
283.552	50.18
283.767	27.65
283.983	115.71
284.198	11.26
284.413	84.99
284.628	35.84
284.843	103.42
285.058	-3.07
285.274	19.46
285.489	21.5
285.704	54.27
285.919	-56.32
286.134	62.46
286.349	95.23
286.564	82.94
286.779	119.81
286.995	3.07
287.21	48.13
287.425	58.37
287.64	-74.75
287.855	66.56
288.07	41.98
288.285	76.8
288.5	-3.07
288.715	35.84
288.93	31.74
289.145	-5.12
289.36	89.09
289.575	33.79
289.79	-48.13
290.004	-31.74
290.219	76.8
290.434	68.61
290.649	70.65
290.864	31.74
291.079	-19.46
291.294	109.57
291.509	11.26
291.724	15.36
291.938	33.79
292.153	115.71
292.368	-64.51
292.583	107.52
292.798	68.61
293.012	48.13
293.227	84.99
293.442	-46.08
293.657	46.08
293.871	46.08
294.086	-15.36
294.301	80.89
294.516	80.89
294.73	3.07
294.945	21.5
295.16	66.56
295.374	146.43
295.589	37.89
295.804	48.13
296.018	15.36
296.233	89.09
296.447	54.27
296.662	17.41
296.877	37.89
297.091	76.8
297.306	82.94
297.52	68.61
297.735	91.13
297.949	74.75
298.164	21.5
298.378	-23.55
298.593	-37.89
298.807	62.46
299.022	33.79
299.236	70.65
299.451	9.22
299.665	-17.41
299.88	37.89
300.094	115.71
300.309	1.02
300.523	64.51
300.737	-3.07
300.952	91.13
301.166	101.37
301.381	-3.07
301.595	66.56
301.809	52.22
302.024	46.08
302.238	-7.17
302.452	80.89
302.667	54.27
302.881	113.66
303.095	58.37
303.309	41.98
303.524	103.42
303.738	-17.41
303.952	33.79
304.166	60.42
304.381	31.74
304.595	46.08
304.809	119.81
305.023	-5.12
305.237	56.32
305.452	97.28
305.666	7.17
305.88	-13.31
306.094	52.22
306.308	64.51
306.522	-17.41
306.736	101.37
306.95	93.18
307.164	23.55
307.379	13.31
307.593	37.89
307.807	52.22
308.021	62.46
308.235	68.61
308.449	-1.02
308.663	82.94
308.877	29.7
309.091	44.03
309.305	39.94
309.519	19.46
309.733	113.66
309.947	-7.17
310.161	84.99
310.374	89.09
310.588	66.56
310.802	37.89
311.016	125.95
311.23	19.46
311.444	17.41
311.658	66.56
311.872	1.02
312.085	25.6
312.299	156.67
312.513	72.7
312.727	64.51
312.941	17.41
313.154	-1.02
313.368	35.84
313.582	-5.12
313.796	-3.07
314.009	17.41
314.223	60.42
314.437	33.79
314.651	-23.55
314.864	62.46
315.078	41.98
315.292	-7.17
315.505	7.17
315.719	35.84
315.933	33.79
316.146	1.02
316.36	33.79
316.573	41.98
316.787	95.23
317.001	5.12
317.214	29.7
317.428	82.94
317.641	78.85
317.855	52.22
318.068	58.37
318.282	37.89
318.495	189.44
318.709	60.42
318.922	50.18
319.136	58.37
319.349	50.18
319.563	44.03
319.776	5.12
319.99	11.26
320.203	70.65
320.417	148.48
320.63	19.46
320.843	74.75
321.057	50.18
321.27	35.84
321.483	97.28
321.697	37.89
321.91	50.18
322.124	66.56
322.337	25.6
322.55	41.98
322.763	31.74
322.977	84.99
323.19	-21.5
323.403	21.5
323.617	-44.03
323.83	5.12
324.043	-29.7
324.256	-29.7
324.469	15.36
324.683	68.61
324.896	25.6
325.109	82.94
325.322	-31.74
325.535	62.46
325.748	91.13
325.962	11.26
326.175	29.7
326.388	64.51
326.601	17.41
326.814	-17.41
327.027	52.22
327.24	33.79
327.453	-11.26
327.666	41.98
327.879	62.46
328.092	52.22
328.305	60.42
328.518	82.94
328.731	17.41
328.944	11.26
329.157	-70.65
329.37	1.02
329.583	39.94
329.796	50.18
330.009	33.79
330.222	44.03
330.435	7.17
330.648	48.13
330.861	-11.26
331.073	76.8
331.286	19.46
331.499	50.18
331.712	-64.51
331.925	46.08
332.138	37.89
332.35	107.52
332.563	29.7
332.776	41.98
332.989	-19.46
333.202	64.51
333.414	31.74
333.627	-19.46
333.84	82.94
334.053	111.61
334.265	23.55
334.478	50.18
334.691	9.22
334.903	70.65
335.116	-37.89
335.329	46.08
335.541	33.79
335.754	128
335.966	31.74
336.179	13.31
336.392	7.17
336.604	33.79
336.817	54.27
337.029	-13.31
337.242	-13.31
337.454	76.8
337.667	52.22
337.88	9.22
338.092	62.46
338.305	62.46
338.517	17.41
338.729	23.55
338.942	5.12
339.154	58.37
339.367	35.84
339.579	58.37
339.792	-1.02
340.004	58.37
340.217	41.98
340.429	101.37
340.641	-7.17
340.854	13.31
341.066	74.75
341.278	68.61
341.491	78.85
341.703	128
341.915	41.98
342.128	68.61
342.34	13.31
342.552	33.79
342.764	-35.84
342.977	109.57
343.189	29.7
343.401	-1.02
343.613	-15.36
343.826	125.95
344.038	-7.17
344.25	76.8
344.462	21.5
344.674	-15.36
344.886	68.61
345.099	39.94
345.311	5.12
345.523	52.22
345.735	25.6
345.947	15.36
346.159	17.41
346.371	25.6
346.583	9.22
346.795	128
347.007	17.41
347.219	37.89
347.431	1.02
347.643	46.08
347.855	60.42
348.067	35.84
348.279	-13.31
348.491	46.08
348.703	125.95
348.915	68.61
349.127	33.79
349.339	68.61
349.551	107.52
349.763	48.13
349.975	35.84
350.187	17.41
350.399	58.37
350.61	-3.07
350.822	-11.26
351.034	52.22
351.246	19.46
351.458	19.46
351.669	60.42
351.881	91.13
352.093	91.13
352.305	99.33
352.517	107.52
352.728	80.89
352.94	115.71
353.152	17.41
353.363	44.03
353.575	82.94
353.787	74.75
353.999	70.65
354.21	29.7
354.422	44.03
354.633	35.84
354.845	31.74
355.057	58.37
355.268	21.5
355.48	-5.12
355.692	15.36
355.903	70.65
356.115	41.98
356.326	37.89
356.538	125.95
356.749	115.71
356.961	33.79
357.172	78.85
357.384	13.31
357.595	68.61
357.807	-15.36
358.018	44.03
358.23	78.85
358.441	134.14
358.653	15.36
358.864	41.98
359.075	21.5
359.287	56.32
359.498	107.52
359.709	17.41
359.921	66.56
360.132	41.98
360.344	39.94
360.555	44.03
360.766	62.46
360.977	52.22
361.189	-19.46
361.4	19.46
361.611	91.13
361.823	-11.26
362.034	66.56
362.245	21.5
362.456	111.61
362.667	80.89
362.879	11.26
363.09	64.51
363.301	5.12
363.512	21.5
363.723	48.13
363.935	27.65
364.146	56.32
364.357	21.5
364.568	15.36
364.779	58.37
364.99	148.48
365.201	15.36
365.412	39.94
365.623	46.08
365.834	27.65
366.045	76.8
366.256	95.23
366.467	1.02
366.678	72.7
366.889	58.37
367.1	17.41
367.311	107.52
367.522	-21.5
367.733	66.56
367.944	66.56
368.155	41.98
368.366	37.89
368.577	27.65
368.788	46.08
368.999	48.13
369.209	58.37
369.42	25.6
369.631	95.23
369.842	25.6
370.053	70.65
370.264	93.18
370.474	17.41
370.685	27.65
370.896	-15.36
371.107	50.18
371.317	50.18
371.528	17.41
371.739	68.61
371.95	91.13
372.16	74.75
372.371	52.22
372.582	52.22
372.792	58.37
373.003	13.31
373.214	23.55
373.424	68.61
373.635	-29.7
373.846	95.23
374.056	25.6
374.267	50.18
374.477	128
374.688	9.22
374.898	50.18
375.109	50.18
375.319	19.46
375.53	68.61
375.74	37.89
375.951	89.09
376.161	70.65
376.372	87.04
376.582	33.79
376.793	140.29
377.003	-13.31
377.214	13.31
377.424	13.31
377.635	17.41
377.845	11.26
378.055	128
378.266	-44.03
378.476	25.6
378.686	9.22
378.897	80.89
379.107	140.29
379.317	29.7
379.528	7.17
379.738	117.76
379.948	-62.46
380.158	101.37
380.369	95.23
380.579	29.7
380.789	78.85
380.999	7.17
381.21	68.61
381.42	58.37
381.63	25.6
381.84	25.6
382.05	-39.94
382.261	115.71
382.471	66.56
382.681	17.41
382.891	113.66
383.101	78.85
383.311	-5.12
383.521	66.56
383.731	50.18
383.941	52.22
384.151	11.26
384.361	66.56
384.571	74.75
384.781	111.61
384.991	9.22
385.201	134.14
385.411	82.94
385.621	58.37
385.831	82.94
386.041	101.37
386.251	29.7
386.461	103.42
386.671	91.13
386.881	78.85
387.091	72.7
387.301	101.37
387.511	78.85
387.72	50.18
387.93	44.03
388.14	5.12
388.35	-15.36
388.56	93.18
388.769	41.98
388.979	39.94
389.189	29.7
389.399	117.76
389.609	111.61
389.818	140.29
390.028	74.75
390.238	54.27
390.447	68.61
390.657	70.65
390.867	117.76
391.076	74.75
391.286	58.37
391.496	-48.13
391.705	82.94
391.915	60.42
392.125	144.38
392.334	82.94
392.544	123.9
392.753	107.52
392.963	82.94
393.172	39.94
393.382	70.65
393.591	93.18
393.801	3.07
394.01	132.09
394.22	115.71
394.429	27.65
394.639	-7.17
394.848	103.42
395.058	70.65
395.267	68.61
395.477	44.03
395.686	105.47
395.895	162.81
396.105	134.14
396.314	111.61
396.524	140.29
396.733	95.23
396.942	152.57
397.152	132.09
397.361	144.38
397.57	154.62
397.78	132.09
397.989	107.52
398.198	95.23
398.407	119.81
398.617	101.37
398.826	89.09
399.035	107.52
399.244	158.72
399.453	103.42
399.663	125.95
399.872	66.56
400.081	64.51
400.29	183.29
400.499	74.75
400.708	50.18
400.917	74.75
401.127	66.56
401.336	5.12
401.545	201.72
401.754	119.81
401.963	123.9
402.172	76.8
402.381	74.75
402.59	105.47
402.799	64.51
403.008	144.38
403.217	140.29
403.426	197.63
403.635	78.85
403.844	123.9
404.053	95.23
404.262	93.18
404.471	183.29
404.68	166.91
404.888	105.47
405.097	99.33
405.306	166.91
405.515	140.29
405.724	166.91
405.933	115.71
406.142	191.49
406.35	140.29
406.559	205.82
406.768	181.25
406.977	216.06
407.185	263.16
407.394	209.92
407.603	214.01
407.812	222.2
408.02	226.3
408.229	179.2
408.438	205.82
408.646	240.64
408.855	328.7
409.064	226.3
409.272	222.2
409.481	263.16
409.69	191.49
409.898	199.68
410.107	242.68
410.315	275.45
410.524	261.12
410.733	312.32
410.941	353.27
411.15	377.85
411.358	332.79
411.567	445.43
411.775	414.71
411.984	386.04
412.192	429.05
412.401	508.92
412.609	459.77
412.818	443.39
413.026	451.58
413.234	445.43
413.443	398.33
413.651	496.63
413.86	533.5
414.068	594.93
414.276	566.26
414.485	564.22
414.693	515.06
414.901	656.37
415.11	642.04
415.318	699.38
415.526	713.72
415.734	625.65
415.943	728.05
416.151	783.35
416.359	750.58
416.567	820.21
416.776	828.4
416.984	852.98
417.192	918.51
417.4	943.09
417.608	838.64
417.817	963.57
418.025	1037.3
418.233	1045.49
418.441	1057.78
418.649	1102.83
418.857	1154.03
419.065	1186.8
419.273	1219.57
419.481	1262.57
419.689	1334.25
419.897	1336.3
420.105	1334.25
420.313	1448.94
420.521	1459.18
420.729	1606.63
420.937	1534.95
421.145	1618.92
421.353	1706.98
421.561	1766.37
421.769	1606.63
421.977	1745.89
422.185	1872.87
422.393	1985.51
422.601	2057.18
422.809	2108.38
423.017	2077.66
423.224	2188.25
423.432	2221.02
423.64	2214.88
423.848	2452.44
424.056	2307.04
424.263	2593.75
424.471	2669.53
424.679	2616.28
424.887	2720.73
425.094	2778.07
425.302	2919.38
425.51	2917.33
425.718	3115.98
425.925	3105.74
426.133	3245.01
426.341	3394.51
426.548	3597.26
426.756	3548.11
426.964	3638.22
427.171	3859.4
427.379	3822.53
427.586	3926.98
427.794	4107.2
428.001	4305.85
428.209	4512.7
428.417	4494.27
428.624	4565.95
428.832	4735.93
429.039	4752.31
429.247	4666.3
429.454	5082.03
429.662	5243.82
429.869	5032.88
430.076	5417.9
430.284	5327.79
430.491	5460.91
430.699	5870.5
430.906	5675.95
431.114	5929.89
431.321	6134.69
431.528	6134.69
431.736	6638.49
431.943	6857.62
432.15	6579.1
432.358	6687.64
432.565	7097.24
432.772	6992.79
432.979	7594.89
433.187	7732.11
433.394	7687.05
433.601	8002.44
433.808	8168.32
434.016	8209.28
434.223	8375.17
434.43	9020.28
434.637	8856.44
434.844	9163.64
435.052	9614.19
435.259	9565.04
435.466	9440.11
435.673	9493.36
435.88	10031.97
436.087	10562.4
436.294	10556.25
436.501	10318.69
436.708	10548.06
436.915	11039.58
437.122	11400.02
437.329	11361.11
437.537	11764.56
437.743	12231.49
437.95	11801.42
438.157	12378.95
438.364	12700.48
438.571	12979
438.778	13067.06
438.985	14240.55
439.192	13351.73
439.399	14109.48
439.606	13792.05
439.813	14347.05
440.02	15315.73
440.227	15276.82
440.433	14940.96
440.64	15340.31
440.847	15479.57
441.054	15852.3
441.261	16507.65
441.467	16530.18
441.674	16788.22
441.881	17396.47
442.088	17496.82
442.294	17083.13
442.501	17691.38
442.708	17902.32
442.914	18733.79
443.121	19428.06
443.328	18901.73
443.534	20202.19
443.741	19718.87
443.948	19436.25
444.154	20636.36
444.361	20595.4
444.568	20904.64
444.774	20904.64
444.981	20925.12
445.187	21840.56
445.394	22215.34
445.6	22231.72
445.807	24672.9
446.013	23567
446.22	23945.87
446.426	24341.13
446.633	24836.74
446.839	25940.6
447.046	24470.15
447.252	25916.02
447.459	25856.63
447.665	26014.32
447.871	27212.38
448.078	28297.81
448.284	26954.34
448.491	27312.74
448.697	28435.02
448.903	29473.34
449.11	29246.02
449.316	28656.2
449.522	29469.25
449.728	30057.01
449.935	30464.56
450.141	30267.95
450.347	31326.75
450.553	30073.4
450.76	30401.07
450.966	31558.17
451.172	30880.3
451.378	31834.65
451.584	31222.31
451.791	31998.49
451.997	31726.11
452.203	32459.28
452.409	32244.24
452.615	32553.49
452.821	30947.88
453.027	30962.22
453.233	32485.9
453.44	31478.3
453.646	31736.35
453.852	31619.61
454.058	32170.52
454.264	31279.65
454.47	32092.69
454.676	31502.88
454.882	32291.35
455.088	29686.33
455.294	29889.08
455.5	30714.41
455.705	31035.94
455.911	29430.33
456.117	29436.48
456.323	28541.52
456.529	27048.55
456.735	28336.72
456.941	27699.8
457.147	27222.62
457.352	26450.54
457.558	25948.79
457.764	26380.91
457.97	25594.49
458.176	25199.23
458.381	25174.66
458.587	24083.09
458.793	23923.35
458.999	22700.71
459.204	24593.03
459.41	23671.45
459.616	22143.66
459.821	21926.58
460.027	22055.6
460.233	21668.53
460.438	20574.92
460.644	20968.13
460.85	20003.53
461.055	19563.22
461.261	19559.13
461.466	18031.34
461.672	17593.08
461.878	18662.12
462.083	17406.71
462.289	17222.39
462.494	16757.5
462.7	16259.85
462.905	15680.27
463.111	16417.54
463.316	16540.42
463.522	15966.99
463.727	16192.26
463.932	15985.42
464.138	15895.31
464.343	15954.7
464.549	15532.82
464.754	16188.17
464.959	15911.69
465.165	15887.12
465.37	15153.94
465.575	14756.64
465.781	15467.28
465.986	15340.31
466.191	14625.57
466.397	14269.22
466.602	13937.45
466.807	14383.91
467.012	14222.12
467.218	14181.16
467.423	13939.5
