Data from USB4F104151__304__14-24-08-529.txt Node

Date: Thu Mar 13 14:24:08 EDT 2025
User: louis
Spectrometer: USB4F10415
Trigger mode: 4
Integration Time (sec): 2.000000E-2
Scans to average: 1
Electric dark correction enabled: true
Nonlinearity correction enabled: false
Boxcar width: 0
XAxis mode: Wavelengths
Number of Pixels in Spectrum: 3648
>>>>>Begin Spectral Data<<<<<
178.204	-69.97
178.424	-69.97
178.644	-69.97
178.864	-129.36
179.084	-53.59
179.304	-14.68
179.524	-47.44
179.744	-4.44
179.964	50.86
180.184	-26.96
180.404	-14.68
180.624	75.43
180.844	9.9
181.064	-74.07
181.283	34.47
181.503	-22.87
181.723	34.47
181.943	-31.06
182.163	71.34
182.383	13.99
182.602	44.71
182.822	-0.34
183.042	11.95
183.262	20.14
183.482	-45.4
183.701	-6.49
183.921	22.19
184.141	-2.39
184.361	40.62
184.58	-6.49
184.8	22.19
185.02	52.91
185.239	3.75
185.459	44.71
185.679	7.85
185.898	-6.49
186.118	102.06
186.338	57
186.557	104.11
186.777	-82.26
186.997	59.05
187.216	-4.44
187.436	87.72
187.655	-26.96
187.875	9.9
188.095	1.71
188.314	46.76
188.534	-16.73
188.753	18.09
188.973	-4.44
189.192	-8.53
189.412	30.38
189.631	7.85
189.851	18.09
190.07	9.9
190.29	48.81
190.509	73.39
190.729	-22.87
190.948	100.01
191.168	134.82
191.387	50.86
191.607	9.9
191.826	95.91
192.045	87.72
192.265	1.71
192.484	-12.63
192.704	63.15
192.923	-72.02
193.142	110.25
193.362	71.34
193.581	52.91
193.8	61.1
194.02	69.29
194.239	5.8
194.458	26.28
194.678	-6.49
194.897	91.82
195.116	-74.07
195.335	42.67
195.555	36.52
195.774	26.28
195.993	3.75
196.212	34.47
196.432	-72.02
196.651	1.71
196.87	20.14
197.089	67.24
197.308	16.04
197.528	-26.96
197.747	-78.16
197.966	-80.21
198.185	42.67
198.404	-14.68
198.623	9.9
198.842	22.19
199.062	9.9
199.281	108.2
199.5	-8.53
199.719	73.39
199.938	-16.73
200.157	95.91
200.376	22.19
200.595	89.77
200.814	75.43
201.033	44.71
201.252	69.29
201.471	-45.4
201.69	3.75
201.909	36.52
202.128	50.86
202.347	-12.63
202.566	22.19
202.785	-33.11
203.004	7.85
203.223	71.34
203.442	-6.49
203.661	3.75
203.879	50.86
204.098	75.43
204.317	46.76
204.536	-6.49
204.755	-26.96
204.974	28.33
205.193	24.23
205.411	42.67
205.63	-14.68
205.849	-31.06
206.068	71.34
206.287	-22.87
206.505	83.63
206.724	52.91
206.943	34.47
207.162	87.72
207.381	-14.68
207.599	18.09
207.818	-51.54
208.037	34.47
208.255	50.86
208.474	40.62
208.693	52.91
208.911	-14.68
209.13	71.34
209.349	71.34
209.567	28.33
209.786	13.99
210.005	9.9
210.223	-14.68
210.442	-26.96
210.661	-22.87
210.879	-2.39
211.098	-45.4
211.316	108.2
211.535	30.38
211.753	73.39
211.972	46.76
212.191	-14.68
212.409	-22.87
212.628	20.14
212.846	102.06
213.065	83.63
213.283	22.19
213.502	-45.4
213.72	3.75
213.938	-59.73
214.157	1.71
214.375	-22.87
214.594	-53.59
214.812	69.29
215.031	-18.77
215.249	34.47
215.467	-35.16
215.686	5.8
215.904	5.8
216.122	71.34
216.341	-35.16
216.559	-20.82
216.778	65.19
216.996	44.71
217.214	-110.93
217.432	-39.25
217.651	-26.96
217.869	-51.54
218.087	5.8
218.306	-55.64
218.524	42.67
218.742	7.85
218.96	26.28
219.179	-53.59
219.397	-55.64
219.615	5.8
219.833	-6.49
220.051	24.23
220.27	-16.73
220.488	50.86
220.706	69.29
220.924	-45.4
221.142	1.71
221.36	-18.77
221.578	11.95
221.796	-53.59
222.015	26.28
222.233	34.47
222.451	52.91
222.669	-39.25
222.887	59.05
223.105	-35.16
223.323	42.67
223.541	42.67
223.759	52.91
223.977	34.47
224.195	71.34
224.413	1.71
224.631	126.63
224.849	16.04
225.067	79.53
225.285	28.33
225.503	26.28
225.721	18.09
225.939	-6.49
226.157	-39.25
226.375	153.26
226.592	-37.2
226.81	32.43
227.028	59.05
227.246	91.82
227.464	-29.01
227.682	40.62
227.9	71.34
228.117	79.53
228.335	42.67
228.553	-18.77
228.771	26.28
228.989	-33.11
229.206	26.28
229.424	42.67
229.642	22.19
229.86	18.09
230.077	-47.44
230.295	48.81
230.513	26.28
230.731	67.24
230.948	30.38
231.166	52.91
231.384	1.71
231.601	83.63
231.819	-20.82
232.037	-51.54
232.254	38.57
232.472	-14.68
232.689	-2.39
232.907	67.24
233.125	16.04
233.342	22.19
233.56	-14.68
233.777	-20.82
233.995	3.75
234.213	9.9
234.43	54.95
234.648	-39.25
234.865	3.75
235.083	67.24
235.3	22.19
235.518	46.76
235.735	20.14
235.953	11.95
236.17	-53.59
236.388	-47.44
236.605	-14.68
236.822	-4.44
237.04	79.53
237.257	36.52
237.475	38.57
237.692	3.75
237.909	83.63
238.127	50.86
238.344	9.9
238.562	30.38
238.779	-94.55
238.996	26.28
239.214	9.9
239.431	91.82
239.648	-16.73
239.865	67.24
240.083	7.85
240.3	28.33
240.517	9.9
240.735	-20.82
240.952	34.47
241.169	79.53
241.386	20.14
241.603	11.95
241.821	20.14
242.038	-2.39
242.255	116.39
242.472	28.33
242.689	36.52
242.907	-39.25
243.124	22.19
243.341	42.67
243.558	-14.68
243.775	22.19
243.992	-22.87
244.209	16.04
244.426	34.47
244.643	18.09
244.86	32.43
245.078	26.28
245.295	-2.39
245.512	-0.34
245.729	-12.63
245.946	22.19
246.163	-4.44
246.38	9.9
246.597	65.19
246.814	-76.12
247.031	79.53
247.248	5.8
247.464	1.71
247.681	11.95
247.898	52.91
248.115	77.48
248.332	-6.49
248.549	75.43
248.766	26.28
248.983	87.72
249.2	-39.25
249.417	5.8
249.633	22.19
249.85	38.57
250.067	-31.06
250.284	54.95
250.501	11.95
250.717	3.75
250.934	-65.88
251.151	-51.54
251.368	36.52
251.585	95.91
251.801	13.99
252.018	-6.49
252.235	24.23
252.451	-26.96
252.668	-61.78
252.885	54.95
253.102	20.14
253.318	61.1
253.535	-8.53
253.752	18.09
253.968	-14.68
254.185	16.04
254.401	34.47
254.618	42.67
254.835	9.9
255.051	100.01
255.268	34.47
255.484	-6.49
255.701	61.1
255.917	9.9
256.134	-4.44
256.351	-14.68
256.567	26.28
256.784	42.67
257	-53.59
257.217	67.24
257.433	91.82
257.65	26.28
257.866	30.38
258.082	42.67
258.299	-29.01
258.515	63.15
258.732	-43.35
258.948	-14.68
259.165	114.34
259.381	-4.44
259.597	-8.53
259.814	42.67
260.03	16.04
260.246	59.05
260.463	26.28
260.679	108.2
260.895	-24.92
261.112	11.95
261.328	9.9
261.544	44.71
261.761	75.43
261.977	-45.4
262.193	44.71
262.409	36.52
262.626	5.8
262.842	24.23
263.058	20.14
263.274	11.95
263.49	7.85
263.707	-22.87
263.923	20.14
264.139	-55.64
264.355	-51.54
264.571	28.33
264.787	16.04
265.004	26.28
265.22	-67.92
265.436	11.95
265.652	-6.49
265.868	-6.49
266.084	-47.44
266.3	18.09
266.516	-33.11
266.732	83.63
266.948	67.24
267.164	20.14
267.38	59.05
267.596	52.91
267.812	44.71
268.028	59.05
268.244	-8.53
268.46	-29.01
268.676	-18.77
268.892	36.52
269.108	-0.34
269.324	44.71
269.54	13.99
269.756	-8.53
269.972	-24.92
270.188	42.67
270.403	-47.44
270.619	69.29
270.835	-4.44
271.051	1.71
271.267	-4.44
271.483	38.57
271.698	22.19
271.914	52.91
272.13	-22.87
272.346	-78.16
272.562	42.67
272.777	11.95
272.993	-51.54
273.209	20.14
273.425	32.43
273.64	77.48
273.856	32.43
274.072	28.33
274.287	1.71
274.503	-10.58
274.719	-0.34
274.934	67.24
275.15	-47.44
275.366	22.19
275.581	-20.82
275.797	44.71
276.012	3.75
276.228	-22.87
276.444	71.34
276.659	18.09
276.875	-53.59
277.09	26.28
277.306	18.09
277.521	54.95
277.737	-84.31
277.952	1.71
278.168	-22.87
278.383	-45.4
278.599	-6.49
278.814	28.33
279.03	13.99
279.245	22.19
279.461	42.67
279.676	63.15
279.892	50.86
280.107	22.19
280.322	30.38
280.538	85.67
280.753	-12.63
280.969	-12.63
281.184	71.34
281.399	42.67
281.615	18.09
281.83	83.63
282.045	40.62
282.26	52.91
282.476	9.9
282.691	36.52
282.906	-20.82
283.122	28.33
283.337	87.72
283.552	65.19
283.767	18.09
283.983	42.67
284.198	42.67
284.413	26.28
284.628	52.91
284.843	128.68
285.058	26.28
285.274	-14.68
285.489	-14.68
285.704	-14.68
285.919	34.47
286.134	-63.83
286.349	-4.44
286.564	95.91
286.779	71.34
286.995	-29.01
287.21	1.71
287.425	7.85
287.64	-12.63
287.855	16.04
288.07	-31.06
288.285	18.09
288.5	34.47
288.715	40.62
288.93	57
289.145	24.23
289.36	16.04
289.575	7.85
289.79	20.14
290.004	9.9
290.219	3.75
290.434	44.71
290.649	-47.44
290.864	-18.77
291.079	34.47
291.294	30.38
291.509	20.14
291.724	50.86
291.938	1.71
292.153	-29.01
292.368	5.8
292.583	5.8
292.798	30.38
293.012	24.23
293.227	11.95
293.442	3.75
293.657	42.67
293.871	75.43
294.086	42.67
294.301	52.91
294.516	-33.11
294.73	28.33
294.945	-14.68
295.16	9.9
295.374	42.67
295.589	69.29
295.804	-6.49
296.018	18.09
296.233	48.81
296.447	67.24
296.662	-12.63
296.877	50.86
297.091	-10.58
297.306	9.9
297.52	3.75
297.735	75.43
297.949	42.67
298.164	-4.44
298.378	54.95
298.593	-26.96
298.807	1.71
299.022	30.38
299.236	-14.68
299.451	-10.58
299.665	-29.01
299.88	28.33
300.094	16.04
300.309	42.67
300.523	46.76
300.737	-12.63
300.952	83.63
301.166	85.67
301.381	18.09
301.595	40.62
301.809	9.9
302.024	20.14
302.238	-31.06
302.452	26.28
302.667	-6.49
302.881	26.28
303.095	71.34
303.309	16.04
303.524	-63.83
303.738	-16.73
303.952	22.19
304.166	1.71
304.381	7.85
304.595	13.99
304.809	-20.82
305.023	59.05
305.237	-18.77
305.452	18.09
305.666	-14.68
305.88	112.3
306.094	26.28
306.308	50.86
306.522	59.05
306.736	28.33
306.95	-2.39
307.164	83.63
307.379	50.86
307.593	36.52
307.807	93.87
308.021	9.9
308.235	38.57
308.449	9.9
308.663	36.52
308.877	116.39
309.091	-63.83
309.305	5.8
309.519	-6.49
309.733	34.47
309.947	-53.59
310.161	102.06
310.374	50.86
310.588	-37.2
310.802	71.34
311.016	-39.25
311.23	67.24
311.444	16.04
311.658	-12.63
311.872	44.71
312.085	-24.92
312.299	73.39
312.513	52.91
312.727	-22.87
312.941	-20.82
313.154	22.19
313.368	11.95
313.582	-14.68
313.796	-39.25
314.009	40.62
314.223	75.43
314.437	83.63
314.651	44.71
314.864	-22.87
315.078	26.28
315.292	-35.16
315.505	-22.87
315.719	-12.63
315.933	85.67
316.146	30.38
316.36	26.28
316.573	77.48
316.787	28.33
317.001	3.75
317.214	-24.92
317.428	26.28
317.641	-20.82
317.855	-12.63
318.068	42.67
318.282	20.14
318.495	1.71
318.709	77.48
318.922	36.52
319.136	59.05
319.349	112.3
319.563	83.63
319.776	67.24
319.99	-22.87
320.203	-39.25
320.417	22.19
320.63	40.62
320.843	54.95
321.057	97.96
321.27	-47.44
321.483	13.99
321.697	28.33
321.91	34.47
322.124	46.76
322.337	-12.63
322.55	13.99
322.763	38.57
322.977	38.57
323.19	-63.83
323.403	-20.82
323.617	-4.44
323.83	-12.63
324.043	63.15
324.256	18.09
324.469	26.28
324.683	50.86
324.896	1.71
325.109	-10.58
325.322	-10.58
325.535	95.91
325.748	46.76
325.962	61.1
326.175	69.29
326.388	28.33
326.601	79.53
326.814	13.99
327.027	42.67
327.24	91.82
327.453	-22.87
327.666	54.95
327.879	50.86
328.092	54.95
328.305	-2.39
328.518	-20.82
328.731	-6.49
328.944	38.57
329.157	-16.73
329.37	24.23
329.583	-4.44
329.796	67.24
330.009	-14.68
330.222	42.67
330.435	11.95
330.648	1.71
330.861	-14.68
331.073	59.05
331.286	52.91
331.499	75.43
331.712	-2.39
331.925	-26.96
332.138	59.05
332.35	85.67
332.563	-4.44
332.776	54.95
332.989	-49.49
333.202	22.19
333.414	26.28
333.627	11.95
333.84	122.54
334.053	89.77
334.265	20.14
334.478	3.75
334.691	-6.49
334.903	-14.68
335.116	20.14
335.329	18.09
335.541	67.24
335.754	75.43
335.966	-72.02
336.179	-51.54
336.392	-12.63
336.604	-26.96
336.817	9.9
337.029	108.2
337.242	46.76
337.454	28.33
337.667	-37.2
337.88	81.58
338.092	52.91
338.305	18.09
338.517	24.23
338.729	20.14
338.942	34.47
339.154	3.75
339.367	-39.25
339.579	36.52
339.792	67.24
340.004	50.86
340.217	36.52
340.429	26.28
340.641	-63.83
340.854	-22.87
341.066	38.57
341.278	11.95
341.491	93.87
341.703	-37.2
341.915	1.71
342.128	32.43
342.34	122.54
342.552	22.19
342.764	-4.44
342.977	-2.39
343.189	63.15
343.401	20.14
343.613	30.38
343.826	22.19
344.038	-14.68
344.25	-2.39
344.462	-14.68
344.674	-37.2
344.886	5.8
345.099	59.05
345.311	36.52
345.523	28.33
345.735	71.34
345.947	-6.49
346.159	-47.44
346.371	-26.96
346.583	57
346.795	7.85
347.007	-12.63
347.219	59.05
347.431	-45.4
347.643	9.9
347.855	-10.58
348.067	153.26
348.279	-53.59
348.491	9.9
348.703	50.86
348.915	59.05
349.127	-59.73
349.339	-45.4
349.551	13.99
349.763	28.33
349.975	-2.39
350.187	3.75
350.399	77.48
350.61	42.67
350.822	-14.68
351.034	59.05
351.246	32.43
351.458	-12.63
351.669	93.87
351.881	42.67
352.093	-26.96
352.305	102.06
352.517	-6.49
352.728	11.95
352.94	-6.49
353.152	1.71
353.363	20.14
353.575	-2.39
353.787	52.91
353.999	61.1
354.21	77.48
354.422	-2.39
354.633	59.05
354.845	1.71
355.057	-31.06
355.268	-14.68
355.48	-29.01
355.692	30.38
355.903	-74.07
356.115	3.75
356.326	-78.16
356.538	46.76
356.749	18.09
356.961	34.47
357.172	32.43
357.384	9.9
357.595	93.87
357.807	44.71
358.018	28.33
358.23	-10.58
358.441	28.33
358.653	5.8
358.864	28.33
359.075	36.52
359.287	16.04
359.498	69.29
359.709	75.43
359.921	22.19
360.132	69.29
360.344	13.99
360.555	116.39
360.766	42.67
360.977	34.47
361.189	3.75
361.4	-4.44
361.611	71.34
361.823	28.33
362.034	20.14
362.245	-31.06
362.456	-6.49
362.667	-37.2
362.879	26.28
363.09	67.24
363.301	-22.87
363.512	-6.49
363.723	30.38
363.935	28.33
364.146	26.28
364.357	42.67
364.568	36.52
364.779	-0.34
364.99	93.87
365.201	-22.87
365.412	77.48
365.623	-26.96
365.834	1.71
366.045	91.82
366.256	1.71
366.467	34.47
366.678	-22.87
366.889	59.05
367.1	52.91
367.311	26.28
367.522	3.75
367.733	13.99
367.944	13.99
368.155	-57.68
368.366	106.15
368.577	16.04
368.788	100.01
368.999	34.47
369.209	-12.63
369.42	134.82
369.631	116.39
369.842	7.85
370.053	57
370.264	106.15
370.474	13.99
370.685	61.1
370.896	5.8
371.107	67.24
371.317	-6.49
371.528	46.76
371.739	69.29
371.95	87.72
372.16	81.58
372.371	-20.82
372.582	20.14
372.792	24.23
373.003	42.67
373.214	30.38
373.424	28.33
373.635	1.71
373.846	11.95
374.056	7.85
374.267	77.48
374.477	22.19
374.688	42.67
374.898	-72.02
375.109	-4.44
375.319	38.57
375.53	22.19
375.74	5.8
375.951	26.28
376.161	42.67
376.372	77.48
376.582	30.38
376.793	59.05
377.003	95.91
377.214	61.1
377.424	42.67
377.635	42.67
377.845	-14.68
378.055	61.1
378.266	-61.78
378.476	75.43
378.686	7.85
378.897	54.95
379.107	-4.44
379.317	65.19
379.528	9.9
379.738	26.28
379.948	52.91
380.158	-45.4
380.369	-0.34
380.579	52.91
380.789	69.29
380.999	59.05
381.21	61.1
381.42	59.05
381.63	3.75
381.84	42.67
382.05	100.01
382.261	38.57
382.471	44.71
382.681	79.53
382.891	48.81
383.101	57
383.311	61.1
383.521	38.57
383.731	22.19
383.941	36.52
384.151	44.71
384.361	89.77
384.571	18.09
384.781	16.04
384.991	81.58
385.201	93.87
385.411	59.05
385.621	89.77
385.831	91.82
386.041	61.1
386.251	40.62
386.461	30.38
386.671	71.34
386.881	61.1
387.091	50.86
387.301	22.19
387.511	34.47
387.72	69.29
387.93	65.19
388.14	5.8
388.35	-67.92
388.56	65.19
388.769	28.33
388.979	3.75
389.189	-0.34
389.399	100.01
389.609	48.81
389.818	38.57
390.028	89.77
390.238	34.47
390.447	-43.35
390.657	100.01
390.867	-33.11
391.076	52.91
391.286	28.33
391.496	-6.49
391.705	-22.87
391.915	95.91
392.125	40.62
392.334	50.86
392.544	102.06
392.753	18.09
392.963	22.19
393.172	50.86
393.382	73.39
393.591	118.44
393.801	-39.25
394.01	124.58
394.22	9.9
394.429	61.1
394.639	87.72
394.848	91.82
395.058	-43.35
395.267	67.24
395.477	65.19
395.686	112.3
395.895	16.04
396.105	87.72
396.314	34.47
396.524	38.57
396.733	69.29
396.942	18.09
397.152	128.68
397.361	149.16
397.57	38.57
397.78	30.38
397.989	104.11
398.198	126.63
398.407	26.28
398.617	50.86
398.826	93.87
399.035	128.68
399.244	52.91
399.453	59.05
399.663	132.78
399.872	132.78
400.081	69.29
400.29	151.21
400.499	42.67
400.708	108.2
400.917	91.82
401.127	52.91
401.336	26.28
401.545	71.34
401.754	108.2
401.963	126.63
402.172	69.29
402.381	132.78
402.59	50.86
402.799	22.19
403.008	36.52
403.217	59.05
403.426	120.49
403.635	63.15
403.844	83.63
404.053	126.63
404.262	155.3
404.471	167.59
404.68	177.83
404.888	104.11
405.097	-2.39
405.306	73.39
405.515	126.63
405.724	128.68
405.933	173.74
406.142	93.87
406.35	222.89
406.559	140.97
406.768	192.17
406.977	192.17
407.185	91.82
407.394	118.44
407.603	116.39
407.812	143.02
408.02	190.12
408.229	120.49
408.438	210.6
408.646	161.45
408.855	198.31
409.064	149.16
409.272	132.78
409.481	259.75
409.69	218.79
409.898	196.26
410.107	169.64
410.315	274.09
410.524	208.55
410.733	224.94
410.941	239.27
411.15	304.81
411.358	292.52
411.567	251.56
411.775	272.04
411.984	378.53
412.192	419.49
412.401	259.75
412.609	313
412.818	452.26
413.026	421.54
413.234	370.34
413.443	370.34
413.651	380.58
413.86	405.16
414.068	476.84
414.276	405.16
414.485	470.69
414.693	503.46
414.901	554.66
415.11	532.13
415.318	523.94
415.526	542.37
415.734	652.96
415.943	562.85
416.151	714.4
416.359	550.56
416.567	632.48
416.776	642.72
416.984	708.26
417.192	773.79
417.4	716.45
417.608	632.48
417.817	722.59
418.025	853.66
418.233	919.2
418.441	755.36
418.649	917.15
418.857	888.48
419.065	888.48
419.273	902.81
419.481	970.4
419.689	984.73
419.897	1087.13
420.105	1093.27
420.313	1136.28
420.521	1117.85
420.729	1191.58
420.937	1240.73
421.145	1265.3
421.353	1267.35
421.561	1353.37
421.769	1451.67
421.977	1429.14
422.185	1427.09
422.393	1578.64
422.601	1738.38
422.809	1609.36
423.017	1666.71
423.224	1693.33
423.432	1857.17
423.64	1775.25
423.848	1902.22
424.056	1787.54
424.263	2117.26
424.471	2139.79
424.679	2037.39
424.887	2119.31
425.094	2309.77
425.302	2311.82
425.51	2442.89
425.718	2449.03
425.925	2537.09
426.133	2485.89
426.341	2639.49
426.548	2793.09
426.756	2698.88
426.964	2764.42
427.171	2903.68
427.379	2967.17
427.586	3075.71
427.794	3163.77
428.001	3262.07
428.209	3550.84
428.417	3491.45
428.624	3790.45
428.832	3579.51
429.039	3636.85
429.247	3649.14
429.454	4023.92
429.662	4187.75
429.869	3944.05
430.076	4351.59
430.284	4114.03
430.491	4304.49
430.699	4527.72
430.906	4699.75
431.114	4703.84
431.321	4761.19
431.528	4925.02
431.736	5271.13
431.943	5416.54
432.15	5252.7
432.358	5467.74
432.565	5641.81
432.772	5623.38
432.979	5967.44
433.187	6067.79
433.394	6047.31
433.601	6383.18
433.808	6540.87
434.016	6379.08
434.223	6571.59
434.43	7116.35
434.637	7038.53
434.844	7390.78
435.052	7550.52
435.259	7628.34
435.466	7523.9
435.673	7493.18
435.88	8025.65
436.087	8353.32
436.294	8263.21
436.501	8064.56
436.708	8377.9
436.915	8599.08
437.122	8957.47
437.329	8924.71
437.537	9176.61
437.743	9424.41
437.95	9274.91
438.157	9586.2
438.364	10255.89
438.571	10067.47
438.778	10331.66
438.985	11046.4
439.192	10581.51
439.399	11118.08
439.606	10892.8
439.813	11478.52
440.02	11937.27
440.227	11912.69
440.433	11845.11
440.64	12340.72
440.847	12131.83
441.054	12348.91
441.261	13207.01
441.467	12918.25
441.674	13098.47
441.881	13819.35
442.088	13594.08
442.294	13579.74
442.501	13921.75
442.708	13979.09
442.914	14781.9
443.121	15173.06
443.328	15019.46
443.534	15893.94
443.741	15506.88
443.948	15097.28
444.154	16356.79
444.361	16250.29
444.568	16309.68
444.774	16330.16
444.981	16539.05
445.187	17190.31
445.394	17501.6
445.6	17534.37
445.807	19228.04
446.013	18312.6
446.22	18908.55
446.426	19529.09
446.633	19580.29
446.839	20501.87
447.046	19651.97
447.252	20299.12
447.459	20407.67
447.665	20563.31
447.871	21214.57
448.078	22113.63
448.284	21278.05
448.491	21796.19
448.697	22685.01
448.903	23346.5
449.11	23098.7
449.316	22863.18
449.522	23250.25
449.728	23676.23
449.935	24184.12
450.141	24010.04
450.347	24560.95
450.553	23831.87
450.76	23825.73
450.966	25171.24
451.172	24431.93
451.378	25550.12
451.584	24485.17
451.791	25337.13
451.997	25341.22
452.203	25419.05
452.409	25785.63
452.615	25421.09
452.821	24855.86
453.027	24339.77
453.233	25957.66
453.44	24519.99
453.646	24859.95
453.852	25007.41
454.058	25722.15
454.264	24245.56
454.47	25210.15
454.676	24712.5
454.882	25769.25
455.088	23526.72
455.294	23688.51
455.5	23752
455.705	24450.36
455.911	23162.19
456.117	22469.97
456.323	22596.95
456.529	21546.34
456.735	22277.46
456.941	21796.19
457.147	21628.26
457.352	20737.39
457.558	20485.49
457.764	20598.13
457.97	20278.65
458.176	19680.64
458.381	19731.84
458.587	18867.59
458.793	19017.1
458.999	17952.15
459.204	19258.76
459.41	18398.61
459.616	17552.8
459.821	17491.36
460.027	17493.41
460.233	16922.02
460.438	16459.18
460.644	16557.49
460.85	15504.83
461.055	15422.91
461.261	15263.17
461.466	14304.72
461.672	13624.79
461.878	14699.98
462.083	13725.15
462.289	13675.99
462.494	13420
462.7	12873.19
462.905	12484.08
463.111	12895.72
463.316	12883.43
463.522	12664.3
463.727	12535.28
463.932	12498.41
464.138	12649.96
464.343	12715.5
464.549	12213.74
464.754	12420.59
464.959	12522.99
465.165	12305.9
465.37	12000.76
465.575	11468.28
465.781	12047.86
465.986	11976.18
466.191	11781.62
466.397	11480.57
466.602	10814.98
466.807	11343.36
467.012	11535.87
467.218	11206.14
467.423	11093.51
467.628	11230.72
