Data from USB4F104151__192__14-20-24-428.txt Node

Date: Thu Mar 13 14:20:24 EDT 2025
User: louis
Spectrometer: USB4F10415
Trigger mode: 4
Integration Time (sec): 2.000000E-2
Scans to average: 1
Electric dark correction enabled: true
Nonlinearity correction enabled: false
Boxcar width: 0
XAxis mode: Wavelengths
Number of Pixels in Spectrum: 3648
>>>>>Begin Spectral Data<<<<<
178.204	-82.09
178.424	-82.09
178.644	-82.09
178.864	-200.87
179.084	-151.72
179.304	8.02
179.524	12.12
179.744	44.88
179.964	32.6
180.184	-28.84
180.404	-63.66
180.624	12.12
180.844	1.88
181.064	-61.61
181.283	-0.17
181.503	14.17
181.723	28.5
181.943	-55.47
182.163	20.31
182.383	57.17
182.602	79.7
182.822	61.27
183.042	16.21
183.262	-8.36
183.482	-8.36
183.701	10.07
183.921	20.31
184.141	-28.84
184.361	-30.89
184.58	26.45
184.8	32.6
185.02	44.88
185.239	16.21
185.459	-0.17
185.679	34.64
185.898	40.79
186.118	85.84
186.338	53.08
186.557	34.64
186.777	40.79
186.997	1.88
187.216	32.6
187.436	34.64
187.655	16.21
187.875	61.27
188.095	16.21
188.314	100.18
188.534	83.8
188.753	69.46
188.973	-6.31
189.192	3.93
189.412	40.79
189.631	40.79
189.851	-0.17
190.07	14.17
190.29	24.4
190.509	-26.79
190.729	94.04
190.948	48.98
191.168	139.09
191.387	26.45
191.607	-4.27
191.826	89.94
192.045	122.71
192.265	-18.6
192.484	32.6
192.704	22.36
192.923	-45.23
193.142	118.61
193.362	57.17
193.581	40.79
193.8	30.55
194.02	34.64
194.239	-16.55
194.458	81.75
194.678	24.4
194.897	-32.94
195.116	48.98
195.335	65.36
195.555	42.84
195.774	-8.36
195.993	102.23
196.212	26.45
196.432	18.26
196.651	8.02
196.87	38.74
197.089	94.04
197.308	3.93
197.528	-16.55
197.747	18.26
197.966	-37.03
198.185	44.88
198.404	12.12
198.623	-2.22
198.842	10.07
199.062	81.75
199.281	77.65
199.5	-0.17
199.719	1.88
199.938	42.84
200.157	26.45
200.376	42.84
200.595	83.8
200.814	85.84
201.033	85.84
201.252	28.5
201.471	-16.55
201.69	94.04
201.909	24.4
202.128	-41.13
202.347	40.79
202.566	42.84
202.785	-8.36
203.004	-6.31
203.223	85.84
203.442	91.99
203.661	8.02
203.879	104.28
204.098	65.36
204.317	8.02
204.536	40.79
204.755	126.8
204.974	3.93
205.193	-10.41
205.411	81.75
205.63	67.41
205.849	81.75
206.068	18.26
206.287	1.88
206.505	55.12
206.724	1.88
206.943	73.56
207.162	-73.9
207.381	32.6
207.599	75.6
207.818	42.84
208.037	73.56
208.255	81.75
208.474	-22.7
208.693	-4.27
208.911	-26.79
209.13	36.69
209.349	-24.75
209.567	48.98
209.786	114.52
210.005	57.17
210.223	-20.65
210.442	-30.89
210.661	57.17
210.879	42.84
211.098	40.79
211.316	118.61
211.535	98.13
211.753	-65.71
211.972	-90.28
212.191	28.5
212.409	44.88
212.628	57.17
212.846	-16.55
213.065	48.98
213.283	28.5
213.502	-6.31
213.72	-8.36
213.938	59.22
214.157	34.64
214.375	98.13
214.594	16.21
214.812	28.5
215.031	44.88
215.249	34.64
215.467	51.03
215.686	77.65
215.904	85.84
216.122	-16.55
216.341	81.75
216.559	73.56
216.778	59.22
216.996	14.17
217.214	18.26
217.432	-10.41
217.651	75.6
217.869	53.08
218.087	40.79
218.306	67.41
218.524	8.02
218.742	57.17
218.96	20.31
219.179	71.51
219.397	1.88
219.615	114.52
219.833	-37.03
220.051	-57.51
220.27	26.45
220.488	44.88
220.706	40.79
220.924	32.6
221.142	34.64
221.36	1.88
221.578	57.17
221.796	-16.55
222.015	16.21
222.233	-4.27
222.451	67.41
222.669	-41.13
222.887	42.84
223.105	38.74
223.323	18.26
223.541	32.6
223.759	63.32
223.977	53.08
224.195	55.12
224.413	73.56
224.631	73.56
224.849	30.55
225.067	114.52
225.285	28.5
225.503	42.84
225.721	-26.79
225.939	83.8
226.157	24.4
226.375	69.46
226.592	48.98
226.81	20.31
227.028	81.75
227.246	28.5
227.464	-8.36
227.682	91.99
227.9	-22.7
228.117	59.22
228.335	24.4
228.553	-12.46
228.771	42.84
228.989	89.94
229.206	32.6
229.424	-0.17
229.642	24.4
229.86	-55.47
230.077	73.56
230.295	-6.31
230.513	-6.31
230.731	77.65
230.948	61.27
231.166	85.84
231.384	8.02
231.601	81.75
231.819	161.62
232.037	24.4
232.254	67.41
232.472	-57.51
232.689	53.08
232.907	46.93
233.125	-0.17
233.342	77.65
233.56	57.17
233.777	-0.17
233.995	81.75
234.213	122.71
234.43	32.6
234.648	48.98
234.865	57.17
235.083	57.17
235.3	32.6
235.518	10.07
235.735	192.34
235.953	98.13
236.17	65.36
236.388	69.46
236.605	51.03
236.822	16.21
237.04	26.45
237.257	26.45
237.475	-16.55
237.692	57.17
237.909	53.08
238.127	28.5
238.344	73.56
238.562	-0.17
238.779	5.97
238.996	42.84
239.214	55.12
239.431	73.56
239.648	-41.13
239.865	67.41
240.083	28.5
240.3	112.47
240.517	-16.55
240.735	-82.09
240.952	48.98
241.169	69.46
241.386	-39.08
241.603	59.22
241.821	-0.17
242.038	59.22
242.255	67.41
242.472	32.6
242.689	32.6
242.907	36.69
243.124	-8.36
243.341	-32.94
243.558	48.98
243.775	40.79
243.992	57.17
244.209	16.21
244.426	57.17
244.643	44.88
244.86	51.03
245.078	89.94
245.295	108.37
245.512	51.03
245.729	-22.7
245.946	73.56
246.163	75.6
246.38	8.02
246.597	38.74
246.814	65.36
247.031	-4.27
247.248	67.41
247.464	57.17
247.681	44.88
247.898	89.94
248.115	40.79
248.332	40.79
248.549	108.37
248.766	85.84
248.983	42.84
249.2	18.26
249.417	69.46
249.633	100.18
249.85	110.42
250.067	14.17
250.284	16.21
250.501	57.17
250.717	53.08
250.934	-16.55
251.151	32.6
251.368	32.6
251.585	38.74
251.801	65.36
252.018	18.26
252.235	18.26
252.451	-16.55
252.668	-4.27
252.885	24.4
253.102	61.27
253.318	53.08
253.535	18.26
253.752	91.99
253.968	71.51
254.185	-39.08
254.401	77.65
254.618	16.21
254.835	36.69
255.051	106.32
255.268	42.84
255.484	-12.46
255.701	18.26
255.917	46.93
256.134	91.99
256.351	32.6
256.567	-12.46
256.784	8.02
257	-20.65
257.217	42.84
257.433	20.31
257.65	53.08
257.866	85.84
258.082	32.6
258.299	44.88
258.515	40.79
258.732	57.17
258.948	44.88
259.165	-41.13
259.381	18.26
259.597	-14.51
259.814	8.02
260.03	20.31
260.246	-32.94
260.463	48.98
260.679	30.55
260.895	59.22
261.112	69.46
261.328	44.88
261.544	38.74
261.761	91.99
261.977	5.97
262.193	3.93
262.409	104.28
262.626	42.84
262.842	116.56
263.058	-41.13
263.274	20.31
263.49	-32.94
263.707	98.13
263.923	67.41
264.139	32.6
264.355	16.21
264.571	46.93
264.787	-37.03
265.004	83.8
265.22	40.79
265.436	-24.75
265.652	-32.94
265.868	40.79
266.084	3.93
266.3	44.88
266.516	10.07
266.732	48.98
266.948	-0.17
267.164	-14.51
267.38	18.26
267.596	94.04
267.812	114.52
268.028	79.7
268.244	-0.17
268.46	53.08
268.676	53.08
268.892	26.45
269.108	-32.94
269.324	3.93
269.54	-37.03
269.756	28.5
269.972	12.12
270.188	32.6
270.403	40.79
270.619	24.4
270.835	34.64
271.051	67.41
271.267	5.97
271.483	61.27
271.698	36.69
271.914	46.93
272.13	44.88
272.346	63.32
272.562	89.94
272.777	65.36
272.993	67.41
273.209	-14.51
273.425	-30.89
273.64	34.64
273.856	57.17
274.072	51.03
274.287	-0.17
274.503	65.36
274.719	44.88
274.934	-0.17
275.15	-0.17
275.366	57.17
275.581	18.26
275.797	28.5
276.012	5.97
276.228	28.5
276.444	24.4
276.659	100.18
276.875	26.45
277.09	8.02
277.306	3.93
277.521	36.69
277.737	44.88
277.952	3.93
278.168	28.5
278.383	-0.17
278.599	85.84
278.814	53.08
279.03	30.55
279.245	65.36
279.461	48.98
279.676	40.79
279.892	-0.17
280.107	-14.51
280.322	-49.32
280.538	122.71
280.753	-69.8
280.969	16.21
281.184	53.08
281.399	40.79
281.615	59.22
281.83	-0.17
282.045	-71.85
282.26	28.5
282.476	141.14
282.691	42.84
282.906	122.71
283.122	18.26
283.337	1.88
283.552	89.94
283.767	-0.17
283.983	102.23
284.198	48.98
284.413	67.41
284.628	-28.84
284.843	44.88
285.058	69.46
285.274	-67.75
285.489	22.36
285.704	57.17
285.919	-12.46
286.134	69.46
286.349	57.17
286.564	61.27
286.779	61.27
286.995	-4.27
287.21	3.93
287.425	51.03
287.64	65.36
287.855	16.21
288.07	-28.84
288.285	73.56
288.5	1.88
288.715	16.21
288.93	-41.13
289.145	18.26
289.36	40.79
289.575	-45.23
289.79	73.56
290.004	20.31
290.219	16.21
290.434	8.02
290.649	34.64
290.864	57.17
291.079	83.8
291.294	-28.84
291.509	34.64
291.724	73.56
291.938	94.04
292.153	122.71
292.368	40.79
292.583	12.12
292.798	-49.32
293.012	83.8
293.227	63.32
293.442	112.47
293.657	34.64
293.871	100.18
294.086	-10.41
294.301	91.99
294.516	42.84
294.73	26.45
294.945	3.93
295.16	65.36
295.374	110.42
295.589	132.95
295.804	12.12
296.018	-32.94
296.233	30.55
296.447	91.99
296.662	40.79
296.877	-10.41
297.091	28.5
297.306	40.79
297.52	16.21
297.735	130.9
297.949	28.5
298.164	-0.17
298.378	24.4
298.593	20.31
298.807	-0.17
299.022	34.64
299.236	48.98
299.451	135
299.665	-20.65
299.88	48.98
300.094	32.6
300.309	81.75
300.523	38.74
300.737	12.12
300.952	32.6
301.166	48.98
301.381	-30.89
301.595	16.21
301.809	26.45
302.024	48.98
302.238	-30.89
302.452	77.65
302.667	24.4
302.881	-8.36
303.095	-8.36
303.309	65.36
303.524	-20.65
303.738	57.17
303.952	-12.46
304.166	-32.94
304.381	18.26
304.595	147.28
304.809	53.08
305.023	108.37
305.237	20.31
305.452	89.94
305.666	57.17
305.88	102.23
306.094	51.03
306.308	8.02
306.522	89.94
306.736	48.98
306.95	98.13
307.164	34.64
307.379	28.5
307.593	73.56
307.807	16.21
308.021	89.94
308.235	94.04
308.449	3.93
308.663	-24.75
308.877	106.32
309.091	79.7
309.305	59.22
309.519	40.79
309.733	98.13
309.947	18.26
310.161	81.75
310.374	63.32
310.588	53.08
310.802	57.17
311.016	24.4
311.23	46.93
311.444	-6.31
311.658	26.45
311.872	32.6
312.085	89.94
312.299	75.6
312.513	51.03
312.727	40.79
312.941	24.4
313.154	-16.55
313.368	-8.36
313.582	61.27
313.796	44.88
314.009	61.27
314.223	57.17
314.437	100.18
314.651	26.45
314.864	91.99
315.078	8.02
315.292	-8.36
315.505	24.4
315.719	91.99
315.933	36.69
316.146	51.03
316.36	14.17
316.573	65.36
316.787	104.28
317.001	36.69
317.214	32.6
317.428	48.98
317.641	3.93
317.855	67.41
318.068	40.79
318.282	34.64
318.495	61.27
318.709	57.17
318.922	-30.89
319.136	159.57
319.349	108.37
319.563	5.97
319.776	67.41
319.99	36.69
320.203	81.75
320.417	26.45
320.63	40.79
320.843	100.18
321.057	67.41
321.27	89.94
321.483	44.88
321.697	51.03
321.91	38.74
322.124	46.93
322.337	8.02
322.55	16.21
322.763	32.6
322.977	36.69
323.19	-37.03
323.403	102.23
323.617	20.31
323.83	81.75
324.043	-55.47
324.256	73.56
324.469	28.5
324.683	147.28
324.896	14.17
325.109	98.13
325.322	10.07
325.535	-24.75
325.748	69.46
325.962	61.27
326.175	5.97
326.388	-16.55
326.601	59.22
326.814	32.6
327.027	-51.37
327.24	75.6
327.453	-34.99
327.666	10.07
327.879	48.98
328.092	-0.17
328.305	34.64
328.518	65.36
328.731	83.8
328.944	-12.46
329.157	83.8
329.37	40.79
329.583	34.64
329.796	91.99
330.009	8.02
330.222	42.84
330.435	32.6
330.648	55.12
330.861	-20.65
331.073	20.31
331.286	20.31
331.499	22.36
331.712	71.51
331.925	32.6
332.138	110.42
332.35	122.71
332.563	44.88
332.776	85.84
332.989	-41.13
333.202	67.41
333.414	22.36
333.627	83.8
333.84	28.5
334.053	67.41
334.265	26.45
334.478	20.31
334.691	73.56
334.903	48.98
335.116	-32.94
335.329	38.74
335.541	57.17
335.754	108.37
335.966	30.55
336.179	65.36
336.392	75.6
336.604	26.45
336.817	-24.75
337.029	106.32
337.242	38.74
337.454	59.22
337.667	28.5
337.88	83.8
338.092	114.52
338.305	26.45
338.517	48.98
338.729	98.13
338.942	42.84
339.154	-24.75
339.367	10.07
339.579	69.46
339.792	65.36
340.004	114.52
340.217	32.6
340.429	40.79
340.641	24.4
340.854	89.94
341.066	26.45
341.278	65.36
341.491	89.94
341.703	32.6
341.915	16.21
342.128	51.03
342.34	79.7
342.552	42.84
342.764	-49.32
342.977	40.79
343.189	178
343.401	94.04
343.613	-51.37
343.826	24.4
344.038	-0.17
344.25	61.27
344.462	-63.66
344.674	69.46
344.886	65.36
345.099	-4.27
345.311	120.66
345.523	51.03
345.735	3.93
345.947	-14.51
346.159	26.45
346.371	149.33
346.583	-6.31
346.795	94.04
347.007	22.36
347.219	22.36
347.431	40.79
347.643	112.47
347.855	-24.75
348.067	81.75
348.279	18.26
348.491	32.6
348.703	85.84
348.915	26.45
349.127	-30.89
349.339	30.55
349.551	102.23
349.763	106.32
349.975	81.75
350.187	32.6
350.399	73.56
350.61	94.04
350.822	65.36
351.034	73.56
351.246	130.9
351.458	98.13
351.669	75.6
351.881	40.79
352.093	89.94
352.305	32.6
352.517	34.64
352.728	75.6
352.94	126.8
353.152	-0.17
353.363	-32.94
353.575	28.5
353.787	151.38
353.999	139.09
354.21	96.08
354.422	5.97
354.633	20.31
354.845	98.13
355.057	63.32
355.268	61.27
355.48	77.65
355.692	-22.7
355.903	98.13
356.115	28.5
356.326	44.88
356.538	155.47
356.749	8.02
356.961	40.79
357.172	20.31
357.384	-16.55
357.595	110.42
357.807	57.17
358.018	8.02
358.23	87.89
358.441	143.19
358.653	89.94
358.864	26.45
359.075	61.27
359.287	147.28
359.498	73.56
359.709	102.23
359.921	44.88
360.132	-8.36
360.344	8.02
360.555	108.37
360.766	65.36
360.977	12.12
361.189	51.03
361.4	36.69
361.611	1.88
361.823	77.65
362.034	65.36
362.245	12.12
362.456	81.75
362.667	16.21
362.879	102.23
363.09	26.45
363.301	83.8
363.512	114.52
363.723	48.98
363.935	42.84
364.146	46.93
364.357	48.98
364.568	122.71
364.779	32.6
364.99	122.71
365.201	8.02
365.412	89.94
365.623	12.12
365.834	-2.22
366.045	98.13
366.256	100.18
366.467	69.46
366.678	48.98
366.889	12.12
367.1	53.08
367.311	85.84
367.522	69.46
367.733	24.4
367.944	100.18
368.155	-0.17
368.366	8.02
368.577	77.65
368.788	57.17
368.999	40.79
369.209	48.98
369.42	120.66
369.631	98.13
369.842	75.6
370.053	73.56
370.264	81.75
370.474	40.79
370.685	94.04
370.896	51.03
371.107	51.03
371.317	77.65
371.528	73.56
371.739	110.42
371.95	38.74
372.16	3.93
372.371	42.84
372.582	57.17
372.792	20.31
373.003	24.4
373.214	24.4
373.424	-12.46
373.635	77.65
373.846	118.61
374.056	126.8
374.267	61.27
374.477	69.46
374.688	-20.65
374.898	137.04
375.109	108.37
375.319	40.79
375.53	57.17
375.74	28.5
375.951	18.26
376.161	114.52
376.372	106.32
376.582	65.36
376.793	71.51
377.003	40.79
377.214	-28.84
377.424	75.6
377.635	75.6
377.845	-16.55
378.055	20.31
378.266	-2.22
378.476	114.52
378.686	48.98
378.897	36.69
379.107	98.13
379.317	114.52
379.528	3.93
379.738	55.12
379.948	48.98
380.158	67.41
380.369	67.41
380.579	75.6
380.789	36.69
380.999	-2.22
381.21	130.9
381.42	143.19
381.63	98.13
381.84	81.75
382.05	89.94
382.261	100.18
382.471	77.65
382.681	40.79
382.891	98.13
383.101	151.38
383.311	55.12
383.521	48.98
383.731	89.94
383.941	40.79
384.151	48.98
384.361	81.75
384.571	3.93
384.781	65.36
384.991	57.17
385.201	94.04
385.411	122.71
385.621	108.37
385.831	104.28
386.041	-0.17
386.251	44.88
386.461	59.22
386.671	157.52
386.881	59.22
387.091	106.32
387.301	-37.03
387.511	57.17
387.72	-4.27
387.93	91.99
388.14	32.6
388.35	87.89
388.56	114.52
388.769	116.56
388.979	124.76
389.189	106.32
389.399	10.07
389.609	26.45
389.818	98.13
390.028	1.88
390.238	28.5
390.447	100.18
390.657	67.41
390.867	65.36
391.076	8.02
391.286	120.66
391.496	67.41
391.705	79.7
391.915	118.61
392.125	40.79
392.334	57.17
392.544	36.69
392.753	32.6
392.963	48.98
393.172	114.52
393.382	79.7
393.591	139.09
393.801	102.23
394.01	89.94
394.22	139.09
394.429	42.84
394.639	124.76
394.848	122.71
395.058	24.4
395.267	55.12
395.477	75.6
395.686	175.95
395.895	59.22
396.105	126.8
396.314	73.56
396.524	143.19
396.733	81.75
396.942	165.71
397.152	83.8
397.361	79.7
397.57	106.32
397.78	118.61
397.989	57.17
398.198	163.67
398.407	112.47
398.617	40.79
398.826	100.18
399.035	192.34
399.244	167.76
399.453	151.38
399.663	200.53
399.872	16.21
400.081	159.57
400.29	157.52
400.499	32.6
400.708	132.95
400.917	106.32
401.127	81.75
401.336	116.56
401.545	157.52
401.754	190.29
401.963	204.63
402.172	114.52
402.381	116.56
402.59	141.14
402.799	130.9
403.008	91.99
403.217	110.42
403.426	137.04
403.635	124.76
403.844	36.69
404.053	126.8
404.262	98.13
404.471	231.25
404.68	141.14
404.888	108.37
405.097	122.71
405.306	171.86
405.515	167.76
405.724	147.28
405.933	194.39
406.142	159.57
406.35	208.72
406.559	139.09
406.768	221.01
406.977	204.63
407.185	180.05
407.394	212.82
407.603	255.83
407.812	178
408.02	272.21
408.229	278.35
408.438	290.64
408.646	124.76
408.855	235.35
409.064	212.82
409.272	231.25
409.481	245.59
409.69	339.79
409.898	319.31
410.107	321.36
410.315	302.93
410.524	319.31
410.733	409.42
410.941	337.74
411.15	362.32
411.358	384.85
411.567	382.8
411.775	401.23
411.984	390.99
412.192	442.19
412.401	450.38
412.609	472.91
412.818	501.58
413.026	540.49
413.234	509.77
413.443	501.58
413.651	528.21
413.86	614.22
414.068	622.41
414.276	640.84
414.485	606.03
414.693	636.75
414.901	657.23
415.11	704.33
415.318	696.14
415.526	720.71
415.734	749.39
415.943	728.91
416.151	909.13
416.359	819.02
416.567	915.27
416.776	982.85
416.984	986.95
417.192	1007.43
417.4	974.66
417.608	964.42
417.817	1048.39
418.025	1120.07
418.233	1181.51
418.441	1154.88
418.649	1253.19
418.857	1222.47
419.065	1310.53
419.273	1265.47
419.481	1400.64
419.689	1447.74
419.897	1562.43
420.105	1533.76
420.313	1580.86
420.521	1537.85
420.729	1572.67
420.937	1568.57
421.145	1724.22
421.353	1826.62
421.561	1898.3
421.769	1959.74
421.977	2035.51
422.185	2027.32
422.393	2164.53
422.601	2416.43
422.809	2195.25
423.017	2350.9
423.224	2416.43
423.432	2531.12
423.64	2594.61
423.848	2658.09
424.056	2680.62
424.263	2766.64
424.471	2754.35
424.679	2885.42
424.887	3071.78
425.094	3206.95
425.302	3211.04
425.51	3174.18
425.718	3270.44
425.925	3307.3
426.133	3520.29
426.341	3653.41
426.548	3893.02
426.756	3860.25
426.964	3929.88
427.171	4132.63
427.379	4351.76
427.586	4200.21
427.794	4423.44
428.001	4667.15
428.209	4716.3
428.417	4734.73
428.624	5054.22
428.832	5070.6
429.039	5177.09
429.247	5021.45
429.454	5547.78
429.662	5906.17
429.869	5721.85
430.076	5783.29
430.284	5791.48
430.491	6043.39
430.699	6512.37
430.906	6149.88
431.114	6266.61
431.321	6573.81
431.528	6852.33
431.736	7276.26
431.943	7683.81
432.15	7356.13
432.358	7288.55
432.565	7829.21
432.772	7708.38
432.979	8199.9
433.187	8318.68
433.394	8210.14
433.601	8898.25
433.808	8920.78
434.016	8756.94
434.223	9303.75
434.43	9635.52
434.637	9543.36
434.844	10073.79
435.052	10518.2
435.259	10389.17
435.466	10612.4
435.673	10274.49
435.88	11167.4
436.087	11597.48
436.294	11556.52
436.501	11173.55
436.708	11472.55
436.915	11767.46
437.122	12353.18
437.329	12633.75
437.537	12787.35
437.743	12811.92
437.95	12963.47
438.157	13362.83
438.364	13995.65
438.571	13995.65
438.778	14126.72
438.985	15433.32
439.192	14720.63
439.399	15240.81
439.606	14753.4
439.813	15697.51
440.02	16836.18
440.227	16334.43
440.433	16055.9
440.64	16688.73
440.847	16678.49
441.054	17032.79
441.261	18347.58
441.467	18044.48
441.674	18058.82
441.881	18783.8
442.088	19158.58
442.294	18646.58
442.501	19033.65
442.708	19564.07
442.914	20078.11
443.121	20971.03
443.328	20534.81
443.534	21986.82
443.741	21487.12
443.948	20762.14
444.154	22466.05
444.361	22382.08
444.568	22691.32
444.774	22625.79
444.981	22605.31
445.187	23291.38
445.394	24479.2
445.6	24356.32
445.807	26668.48
446.013	25167.32
446.22	26029.51
446.426	26785.21
446.633	27131.32
446.839	27860.4
447.046	26686.91
447.252	28413.35
447.459	28480.93
447.665	28048.81
447.871	29386.13
448.078	30418.31
448.284	29095.32
448.491	29922.7
448.697	31321.46
448.903	31812.98
449.11	31901.04
449.316	31280.5
449.522	31585.65
449.728	32920.93
449.935	32761.19
450.141	32890.21
450.347	33639.76
450.553	33238.36
450.76	32935.26
450.966	34217.29
451.172	33869.14
451.378	34864.45
451.584	33936.72
451.791	34706.76
451.997	34469.19
452.203	35016
452.409	35634.49
452.615	35228.99
452.821	33850.7
453.027	33275.23
453.233	35233.08
453.44	33500.5
453.646	34352.46
453.852	34377.03
454.058	34823.49
454.264	33705.3
454.47	34594.12
454.676	33619.28
454.882	35167.55
455.088	31776.11
455.294	32777.57
455.5	32806.24
455.705	33076.57
455.911	31796.59
456.117	31393.14
456.323	30942.59
456.529	29244.82
456.735	30850.43
456.941	29603.22
457.147	29519.25
457.352	28552.61
457.558	28376.48
457.764	28214.69
457.97	27323.83
458.176	27241.91
458.381	27065.78
458.587	25794
458.793	25843.15
458.999	24659.42
459.204	26273.22
459.41	25529.81
459.616	23758.31
459.821	23942.63
460.027	23551.47
460.233	23467.5
460.438	22054.4
460.644	22359.55
460.85	21392.91
461.055	20741.66
461.261	20622.87
461.466	19287.6
461.672	18802.23
461.878	20006.44
462.083	19007.03
462.289	18558.52
462.494	18273.85
462.7	17481.29
462.905	17186.38
463.111	17647.18
463.316	17536.59
463.522	17346.12
463.727	17358.41
463.932	17432.14
464.138	16852.56
464.343	17208.91
464.549	16866.9
464.754	17225.29
464.959	16985.68
465.165	16973.39
465.37	16338.52
465.575	15842.92
465.781	16461.4
465.986	16422.49
466.191	15851.11
466.397	15515.24
466.602	14689.91
466.807	15484.52
467.012	15570.54
467.218	15318.64
467.423	15337.07
