Data from USB4F104151__112__14-18-18-913.txt Node

Date: Thu Mar 13 14:18:18 EDT 2025
User: louis
Spectrometer: USB4F10415
Trigger mode: 4
Integration Time (sec): 2.000000E-2
Scans to average: 1
Electric dark correction enabled: true
Nonlinearity correction enabled: false
Boxcar width: 0
XAxis mode: Wavelengths
Number of Pixels in Spectrum: 3648
>>>>>Begin Spectral Data<<<<<
178.204	-125.27
178.424	-125.27
178.644	-125.27
178.864	-145.75
179.084	-51.54
179.304	-24.92
179.524	18.09
179.744	-16.73
179.964	-4.44
180.184	-57.68
180.404	52.91
180.624	20.14
180.844	54.95
181.064	-31.06
181.283	-31.06
181.503	-10.58
181.723	30.38
181.943	-59.73
182.163	67.24
182.383	-2.39
182.602	67.24
182.822	-22.87
183.042	50.86
183.262	36.52
183.482	48.81
183.701	20.14
183.921	18.09
184.141	20.14
184.361	61.1
184.58	22.19
184.8	30.38
185.02	22.19
185.239	110.25
185.459	-4.44
185.679	-4.44
185.898	-57.68
186.118	-2.39
186.338	93.87
186.557	61.1
186.777	79.53
186.997	9.9
187.216	44.71
187.436	138.92
187.655	22.19
187.875	85.67
188.095	11.95
188.314	106.15
188.534	38.57
188.753	102.06
188.973	44.71
189.192	61.1
189.412	32.43
189.631	3.75
189.851	57
190.07	71.34
190.29	-4.44
190.509	26.28
190.729	36.52
190.948	38.57
191.168	91.82
191.387	110.25
191.607	30.38
191.826	3.75
192.045	32.43
192.265	34.47
192.484	59.05
192.704	1.71
192.923	9.9
193.142	52.91
193.362	59.05
193.581	16.04
193.8	38.57
194.02	93.87
194.239	7.85
194.458	134.82
194.678	-18.77
194.897	50.86
195.116	-26.96
195.335	30.38
195.555	18.09
195.774	-35.16
195.993	30.38
196.212	-20.82
196.432	85.67
196.651	42.67
196.87	42.67
197.089	85.67
197.308	-12.63
197.528	91.82
197.747	9.9
197.966	97.96
198.185	104.11
198.404	-55.64
198.623	91.82
198.842	77.48
199.062	59.05
199.281	102.06
199.5	91.82
199.719	104.11
199.938	18.09
200.157	91.82
200.376	-31.06
200.595	13.99
200.814	71.34
201.033	67.24
201.252	110.25
201.471	26.28
201.69	112.3
201.909	24.23
202.128	26.28
202.347	26.28
202.566	61.1
202.785	44.71
203.004	13.99
203.223	108.2
203.442	69.29
203.661	22.19
203.879	83.63
204.098	36.52
204.317	-2.39
204.536	61.1
204.755	38.57
204.974	52.91
205.193	7.85
205.411	75.43
205.63	104.11
205.849	59.05
206.068	54.95
206.287	93.87
206.505	91.82
206.724	59.05
206.943	57
207.162	79.53
207.381	26.28
207.599	30.38
207.818	18.09
208.037	7.85
208.255	50.86
208.474	42.67
208.693	59.05
208.911	83.63
209.13	34.47
209.349	30.38
209.567	61.1
209.786	134.82
210.005	50.86
210.223	34.47
210.442	7.85
210.661	13.99
210.879	77.48
211.098	42.67
211.316	38.57
211.535	24.23
211.753	112.3
211.972	42.67
212.191	59.05
212.409	57
212.628	50.86
212.846	1.71
213.065	61.1
213.283	75.43
213.502	13.99
213.72	126.63
213.938	13.99
214.157	77.48
214.375	13.99
214.594	30.38
214.812	83.63
215.031	-6.49
215.249	34.47
215.467	13.99
215.686	46.76
215.904	110.25
216.122	59.05
216.341	83.63
216.559	85.67
216.778	30.38
216.996	120.49
217.214	5.8
217.432	93.87
217.651	36.52
217.869	18.09
218.087	22.19
218.306	26.28
218.524	54.95
218.742	42.67
218.96	50.86
219.179	32.43
219.397	-8.53
219.615	157.35
219.833	36.52
220.051	-18.77
220.27	75.43
220.488	52.91
220.706	-14.68
220.924	9.9
221.142	48.81
221.36	52.91
221.578	65.19
221.796	100.01
222.015	65.19
222.233	-29.01
222.451	67.24
222.669	50.86
222.887	42.67
223.105	44.71
223.323	50.86
223.541	75.43
223.759	124.58
223.977	-31.06
224.195	61.1
224.413	81.58
224.631	-4.44
224.849	59.05
225.067	118.44
225.285	20.14
225.503	61.1
225.721	30.38
225.939	108.2
226.157	-2.39
226.375	77.48
226.592	-37.2
226.81	85.67
227.028	20.14
227.246	108.2
227.464	102.06
227.682	61.1
227.9	77.48
228.117	5.8
228.335	57
228.553	34.47
228.771	93.87
228.989	36.52
229.206	44.71
229.424	108.2
229.642	38.57
229.86	13.99
230.077	34.47
230.295	42.67
230.513	1.71
230.731	16.04
230.948	34.47
231.166	75.43
231.384	59.05
231.601	-0.34
231.819	91.82
232.037	42.67
232.254	-10.58
232.472	13.99
232.689	34.47
232.907	122.54
233.125	77.48
233.342	20.14
233.56	18.09
233.777	11.95
233.995	95.91
234.213	120.49
234.43	-29.01
234.648	42.67
234.865	93.87
235.083	61.1
235.3	44.71
235.518	69.29
235.735	102.06
235.953	7.85
236.17	59.05
236.388	54.95
236.605	34.47
236.822	124.58
237.04	54.95
237.257	5.8
237.475	38.57
237.692	7.85
237.909	61.1
238.127	20.14
238.344	11.95
238.562	38.57
238.779	34.47
238.996	22.19
239.214	38.57
239.431	57
239.648	26.28
239.865	36.52
240.083	13.99
240.3	-4.44
240.517	1.71
240.735	36.52
240.952	143.02
241.169	13.99
241.386	48.81
241.603	67.24
241.821	32.43
242.038	108.2
242.255	-6.49
242.472	18.09
242.689	91.82
242.907	69.29
243.124	-55.64
243.341	3.75
243.558	67.24
243.775	-14.68
243.992	18.09
244.209	108.2
244.426	126.63
244.643	83.63
244.86	52.91
245.078	42.67
245.295	16.04
245.512	34.47
245.729	-12.63
245.946	-31.06
246.163	26.28
246.38	22.19
246.597	48.81
246.814	71.34
247.031	18.09
247.248	106.15
247.464	26.28
247.681	42.67
247.898	42.67
248.115	106.15
248.332	18.09
248.549	110.25
248.766	67.24
248.983	38.57
249.2	18.09
249.417	40.62
249.633	77.48
249.85	83.63
250.067	52.91
250.284	28.33
250.501	38.57
250.717	-31.06
250.934	50.86
251.151	34.47
251.368	11.95
251.585	75.43
251.801	61.1
252.018	20.14
252.235	52.91
252.451	-4.44
252.668	40.62
252.885	83.63
253.102	-22.87
253.318	28.33
253.535	32.43
253.752	46.76
253.968	13.99
254.185	-22.87
254.401	20.14
254.618	65.19
254.835	18.09
255.051	93.87
255.268	83.63
255.484	57
255.701	30.38
255.917	89.77
256.134	38.57
256.351	108.2
256.567	48.81
256.784	-4.44
257	-18.77
257.217	22.19
257.433	67.24
257.65	-4.44
257.866	151.21
258.082	-4.44
258.299	13.99
258.515	30.38
258.732	-8.53
258.948	16.04
259.165	26.28
259.381	77.48
259.597	77.48
259.814	-10.58
260.03	67.24
260.246	46.76
260.463	110.25
260.679	120.49
260.895	44.71
261.112	91.82
261.328	20.14
261.544	-2.39
261.761	59.05
261.977	77.48
262.193	-0.34
262.409	67.24
262.626	16.04
262.842	24.23
263.058	42.67
263.274	69.29
263.49	40.62
263.707	83.63
263.923	61.1
264.139	52.91
264.355	75.43
264.571	79.53
264.787	28.33
265.004	91.82
265.22	18.09
265.436	-14.68
265.652	34.47
265.868	69.29
266.084	44.71
266.3	59.05
266.516	52.91
266.732	34.47
266.948	65.19
267.164	50.86
267.38	75.43
267.596	-2.39
267.812	97.96
268.028	61.1
268.244	59.05
268.46	54.95
268.676	42.67
268.892	67.24
269.108	9.9
269.324	11.95
269.54	-26.96
269.756	9.9
269.972	54.95
270.188	9.9
270.403	83.63
270.619	18.09
270.835	30.38
271.051	54.95
271.267	34.47
271.483	42.67
271.698	132.78
271.914	-12.63
272.13	18.09
272.346	46.76
272.562	9.9
272.777	87.72
272.993	67.24
273.209	16.04
273.425	87.72
273.64	9.9
273.856	59.05
274.072	-14.68
274.287	-22.87
274.503	75.43
274.719	67.24
274.934	42.67
275.15	46.76
275.366	59.05
275.581	22.19
275.797	-4.44
276.012	-6.49
276.228	83.63
276.444	38.57
276.659	22.19
276.875	11.95
277.09	-16.73
277.306	52.91
277.521	20.14
277.737	89.77
277.952	-2.39
278.168	61.1
278.383	22.19
278.599	9.9
278.814	48.81
279.03	67.24
279.245	61.1
279.461	40.62
279.676	128.68
279.892	91.82
280.107	40.62
280.322	-14.68
280.538	87.72
280.753	-8.53
280.969	44.71
281.184	140.97
281.399	34.47
281.615	38.57
281.83	112.3
282.045	54.95
282.26	71.34
282.476	73.39
282.691	61.1
282.906	59.05
283.122	95.91
283.337	-2.39
283.552	83.63
283.767	5.8
283.983	28.33
284.198	-8.53
284.413	116.39
284.628	-2.39
284.843	36.52
285.058	81.58
285.274	79.53
285.489	46.76
285.704	110.25
285.919	13.99
286.134	91.82
286.349	71.34
286.564	69.29
286.779	91.82
286.995	75.43
287.21	16.04
287.425	91.82
287.64	44.71
287.855	110.25
288.07	26.28
288.285	114.34
288.5	108.2
288.715	26.28
288.93	50.86
289.145	-6.49
289.36	85.67
289.575	1.71
289.79	18.09
290.004	59.05
290.219	79.53
290.434	18.09
290.649	50.86
290.864	93.87
291.079	28.33
291.294	59.05
291.509	75.43
291.724	50.86
291.938	67.24
292.153	24.23
292.368	67.24
292.583	69.29
292.798	124.58
293.012	75.43
293.227	40.62
293.442	1.71
293.657	63.15
293.871	18.09
294.086	65.19
294.301	134.82
294.516	95.91
294.73	32.43
294.945	61.1
295.16	61.1
295.374	116.39
295.589	67.24
295.804	61.1
296.018	18.09
296.233	46.76
296.447	13.99
296.662	26.28
296.877	75.43
297.091	83.63
297.306	124.58
297.52	54.95
297.735	57
297.949	52.91
298.164	20.14
298.378	83.63
298.593	63.15
298.807	-2.39
299.022	106.15
299.236	34.47
299.451	5.8
299.665	9.9
299.88	61.1
300.094	63.15
300.309	87.72
300.523	61.1
300.737	3.75
300.952	71.34
301.166	36.52
301.381	-4.44
301.595	18.09
301.809	83.63
302.024	-12.63
302.238	91.82
302.452	128.68
302.667	71.34
302.881	116.39
303.095	69.29
303.309	46.76
303.524	-26.96
303.738	79.53
303.952	100.01
304.166	34.47
304.381	44.71
304.595	50.86
304.809	38.57
305.023	48.81
305.237	63.15
305.452	110.25
305.666	40.62
305.88	50.86
306.094	61.1
306.308	75.43
306.522	136.87
306.736	-55.64
306.95	116.39
307.164	59.05
307.379	61.1
307.593	112.3
307.807	69.29
308.021	83.63
308.235	32.43
308.449	5.8
308.663	50.86
308.877	91.82
309.091	59.05
309.305	9.9
309.519	-2.39
309.733	75.43
309.947	34.47
310.161	69.29
310.374	34.47
310.588	91.82
310.802	38.57
311.016	26.28
311.23	28.33
311.444	3.75
311.658	-24.92
311.872	77.48
312.085	83.63
312.299	18.09
312.513	42.67
312.727	83.63
312.941	1.71
313.154	9.9
313.368	75.43
313.582	75.43
313.796	147.11
314.009	-12.63
314.223	104.11
314.437	91.82
314.651	30.38
314.864	13.99
315.078	7.85
315.292	79.53
315.505	3.75
315.719	34.47
315.933	63.15
316.146	87.72
316.36	3.75
316.573	196.26
316.787	108.2
317.001	28.33
317.214	34.47
317.428	93.87
317.641	75.43
317.855	83.63
318.068	57
318.282	87.72
318.495	116.39
318.709	93.87
318.922	3.75
319.136	163.5
319.349	124.58
319.563	46.76
319.776	-14.68
319.99	69.29
320.203	30.38
320.417	87.72
320.63	71.34
320.843	132.78
321.057	110.25
321.27	116.39
321.483	-8.53
321.697	-10.58
321.91	83.63
322.124	102.06
322.337	67.24
322.55	42.67
322.763	11.95
322.977	36.52
323.19	-4.44
323.403	67.24
323.617	5.8
323.83	79.53
324.043	67.24
324.256	67.24
324.469	11.95
324.683	26.28
324.896	-6.49
325.109	69.29
325.322	18.09
325.535	95.91
325.748	13.99
325.962	91.82
326.175	-20.82
326.388	95.91
326.601	110.25
326.814	108.2
327.027	65.19
327.24	104.11
327.453	1.71
327.666	59.05
327.879	63.15
328.092	108.2
328.305	28.33
328.518	9.9
328.731	85.67
328.944	16.04
329.157	81.58
329.37	20.14
329.583	61.1
329.796	138.92
330.009	-0.34
330.222	61.1
330.435	40.62
330.648	108.2
330.861	38.57
331.073	50.86
331.286	89.77
331.499	-6.49
331.712	9.9
331.925	-37.2
332.138	38.57
332.35	83.63
332.563	18.09
332.776	9.9
332.989	5.8
333.202	5.8
333.414	83.63
333.627	77.48
333.84	18.09
334.053	32.43
334.265	91.82
334.478	77.48
334.691	40.62
334.903	87.72
335.116	83.63
335.329	44.71
335.541	26.28
335.754	38.57
335.966	18.09
336.179	30.38
336.392	40.62
336.604	26.28
336.817	100.01
337.029	44.71
337.242	97.96
337.454	91.82
337.667	13.99
337.88	63.15
338.092	7.85
338.305	83.63
338.517	38.57
338.729	13.99
338.942	97.96
339.154	52.91
339.367	3.75
339.579	95.91
339.792	-6.49
340.004	22.19
340.217	36.52
340.429	85.67
340.641	-14.68
340.854	-2.39
341.066	42.67
341.278	71.34
341.491	108.2
341.703	75.43
341.915	13.99
342.128	192.17
342.34	-4.44
342.552	116.39
342.764	73.39
342.977	132.78
343.189	38.57
343.401	52.91
343.613	93.87
343.826	124.58
344.038	-31.06
344.25	1.71
344.462	67.24
344.674	81.58
344.886	108.2
345.099	77.48
345.311	67.24
345.523	-10.58
345.735	75.43
345.947	54.95
346.159	54.95
346.371	52.91
346.583	75.43
346.795	134.82
347.007	71.34
347.219	85.67
347.431	3.75
347.643	122.54
347.855	42.67
348.067	120.49
348.279	59.05
348.491	63.15
348.703	26.28
348.915	9.9
349.127	75.43
349.339	20.14
349.551	-26.96
349.763	77.48
349.975	124.58
350.187	145.06
350.399	104.11
350.61	110.25
350.822	54.95
351.034	69.29
351.246	40.62
351.458	77.48
351.669	85.67
351.881	48.81
352.093	71.34
352.305	81.58
352.517	79.53
352.728	95.91
352.94	73.39
353.152	71.34
353.363	24.23
353.575	159.4
353.787	22.19
353.999	108.2
354.21	54.95
354.422	102.06
354.633	9.9
354.845	85.67
355.057	30.38
355.268	38.57
355.48	71.34
355.692	69.29
355.903	16.04
356.115	13.99
356.326	36.52
356.538	46.76
356.749	61.1
356.961	20.14
357.172	95.91
357.384	106.15
357.595	145.06
357.807	104.11
358.018	91.82
358.23	50.86
358.441	85.67
358.653	104.11
358.864	7.85
359.075	67.24
359.287	-39.25
359.498	110.25
359.709	75.43
359.921	108.2
360.132	79.53
360.344	106.15
360.555	104.11
360.766	28.33
360.977	59.05
361.189	126.63
361.4	42.67
361.611	132.78
361.823	100.01
362.034	91.82
362.245	-37.2
362.456	108.2
362.667	34.47
362.879	91.82
363.09	67.24
363.301	79.53
363.512	91.82
363.723	50.86
363.935	124.58
364.146	128.68
364.357	-6.49
364.568	42.67
364.779	-14.68
364.99	52.91
365.201	110.25
365.412	89.77
365.623	34.47
365.834	44.71
366.045	36.52
366.256	100.01
366.467	67.24
366.678	112.3
366.889	79.53
367.1	71.34
367.311	130.73
367.522	128.68
367.733	112.3
367.944	87.72
368.155	59.05
368.366	69.29
368.577	50.86
368.788	100.01
368.999	59.05
369.209	83.63
369.42	171.69
369.631	73.39
369.842	22.19
370.053	59.05
370.264	91.82
370.474	-0.34
370.685	-8.53
370.896	34.47
371.107	18.09
371.317	95.91
371.528	71.34
371.739	50.86
371.95	63.15
372.16	112.3
372.371	77.48
372.582	122.54
372.792	44.71
373.003	100.01
373.214	118.44
373.424	116.39
373.635	30.38
373.846	108.2
374.056	85.67
374.267	67.24
374.477	36.52
374.688	52.91
374.898	54.95
375.109	100.01
375.319	75.43
375.53	75.43
375.74	124.58
375.951	97.96
376.161	93.87
376.372	42.67
376.582	50.86
376.793	44.71
377.003	52.91
377.214	83.63
377.424	138.92
377.635	75.43
377.845	42.67
378.055	95.91
378.266	5.8
378.476	91.82
378.686	128.68
378.897	1.71
379.107	54.95
379.317	67.24
379.528	46.76
379.738	59.05
379.948	57
380.158	104.11
380.369	89.77
380.579	97.96
380.789	77.48
380.999	108.2
381.21	149.16
381.42	194.22
381.63	77.48
381.84	104.11
382.05	110.25
382.261	106.15
382.471	87.72
382.681	34.47
382.891	116.39
383.101	128.68
383.311	59.05
383.521	67.24
383.731	104.11
383.941	112.3
384.151	32.43
384.361	73.39
384.571	77.48
384.781	85.67
384.991	116.39
385.201	63.15
385.411	134.82
385.621	102.06
385.831	112.3
386.041	100.01
386.251	100.01
386.461	81.58
386.671	87.72
386.881	159.4
387.091	75.43
387.301	91.82
387.511	50.86
387.72	50.86
387.93	124.58
388.14	67.24
388.35	149.16
388.56	124.58
388.769	108.2
388.979	79.53
389.189	9.9
389.399	81.58
389.609	71.34
389.818	134.82
390.028	93.87
390.238	83.63
390.447	71.34
390.657	106.15
390.867	116.39
391.076	36.52
391.286	95.91
391.496	67.24
391.705	102.06
391.915	97.96
392.125	157.35
392.334	118.44
392.544	57
392.753	87.72
392.963	52.91
393.172	116.39
393.382	118.44
393.591	149.16
393.801	118.44
394.01	114.34
394.22	153.26
394.429	128.68
394.639	67.24
394.848	165.54
395.058	132.78
395.267	136.87
395.477	132.78
395.686	204.46
395.895	220.84
396.105	143.02
396.314	50.86
396.524	132.78
396.733	143.02
396.942	108.2
397.152	149.16
397.361	157.35
397.57	61.1
397.78	149.16
397.989	151.21
398.198	169.64
398.407	116.39
398.617	124.58
398.826	95.91
399.035	181.93
399.244	183.98
399.453	190.12
399.663	83.63
399.872	145.06
400.081	81.58
400.29	239.27
400.499	171.69
400.708	198.31
400.917	138.92
401.127	173.74
401.336	216.74
401.545	136.87
401.754	165.54
401.963	175.78
402.172	130.73
402.381	151.21
402.59	198.31
402.799	147.11
403.008	214.7
403.217	216.74
403.426	190.12
403.635	151.21
403.844	243.37
404.053	237.22
404.262	157.35
404.471	224.94
404.68	286.37
404.888	259.75
405.097	173.74
405.306	247.46
405.515	202.41
405.724	235.18
405.933	306.85
406.142	253.61
406.35	255.65
406.559	272.04
406.768	329.38
406.977	292.52
407.185	265.89
407.394	272.04
407.603	243.37
407.812	403.11
408.02	349.86
408.229	362.15
408.438	315.05
408.646	370.34
408.855	310.95
409.064	392.87
409.272	317.09
409.481	448.16
409.69	382.63
409.898	343.72
410.107	501.41
410.315	511.65
410.524	431.78
410.733	466.6
410.941	435.88
411.15	501.41
411.358	552.61
411.567	568.99
411.775	599.71
411.984	624.29
412.192	657.06
412.401	521.89
412.609	679.58
412.818	730.78
413.026	698.02
413.234	786.08
413.443	652.96
413.651	730.78
413.86	841.37
414.068	857.76
414.276	829.09
414.485	894.62
414.693	911
414.901	994.97
415.11	954.01
415.318	1099.42
415.526	1037.98
415.734	1021.6
415.943	1083.03
416.151	1123.99
416.359	1197.72
416.567	1234.58
416.776	1248.92
416.984	1336.98
417.192	1386.13
417.4	1275.54
417.608	1334.93
417.817	1496.72
418.025	1492.63
418.233	1666.71
418.441	1652.37
418.649	1613.46
418.857	1689.23
419.065	1900.17
419.273	1732.24
419.481	1848.97
419.689	2023.05
419.897	1961.61
420.105	2123.4
420.313	2135.69
420.521	2168.46
420.729	2270.86
420.937	2360.97
421.145	2440.84
421.353	2504.32
421.561	2557.57
421.769	2590.34
421.977	2836.1
422.185	2729.6
422.393	3028.6
422.601	3090.04
422.809	3090.04
423.017	3124.86
423.224	3257.98
423.432	3544.69
423.64	3473.01
423.848	3786.35
424.056	3720.82
424.263	3851.89
424.471	3948.14
424.679	4093.55
424.887	4288.11
425.094	4261.48
425.302	4353.64
425.51	4505.19
425.718	4677.22
425.925	4681.32
426.133	4836.96
426.341	5056.09
426.548	5365.34
426.756	5523.03
426.964	5449.3
427.171	5760.59
427.379	5729.88
427.586	6157.9
427.794	6141.52
428.001	6268.49
428.209	6719.04
428.417	6786.63
428.624	7134.78
428.832	7185.98
429.039	7087.68
429.247	7243.32
429.454	7751.22
429.662	8363.56
429.869	7843.38
430.076	8185.39
430.284	8152.62
430.491	8508.97
430.699	9014.82
430.906	8951.33
431.114	8896.03
431.321	9442.84
431.528	9469.47
431.736	9971.22
431.943	10749.45
432.15	10434.06
432.358	10286.61
432.565	11007.49
432.772	10876.42
432.979	11429.37
433.187	11488.76
433.394	11634.17
433.601	12428.78
433.808	12666.35
434.016	12369.39
434.223	12879.33
434.43	13565.4
434.637	13559.26
434.844	14312.91
435.052	14618.06
435.259	14298.58
435.466	14538.19
435.673	14446.03
435.88	15439.3
436.087	16254.39
436.294	16221.62
436.501	15771.07
436.708	16219.57
436.915	16600.49
437.122	17348
437.329	17393.06
437.537	17941.91
437.743	18052.5
437.95	17792.41
438.157	18990.47
438.364	19559.81
438.571	19768.7
438.778	19563.9
438.985	21249.38
439.192	20460.91
439.399	21319.01
439.606	20721.01
439.813	22107.48
440.02	23242.06
440.227	22738.26
440.433	22551.89
440.64	23254.34
440.847	23149.9
441.054	23639.36
441.261	25474.34
441.467	25011.5
441.674	25648.42
441.881	26203.42
442.088	26297.63
442.294	25845.02
442.501	26662.16
442.708	27305.23
442.914	28431.61
443.121	29568.23
443.328	28806.39
443.534	30362.84
443.741	29908.19
443.948	29445.35
444.154	31696.07
444.361	31171.79
444.568	31646.92
444.774	31603.91
444.981	32089.28
445.187	32824.5
445.394	34176.16
445.6	33750.18
445.807	36863.1
446.013	35755.15
446.22	35929.22
446.426	37323.89
446.633	37516.4
446.839	38968.41
447.046	37256.31
447.252	39511.12
447.459	39756.88
447.665	39193.68
447.871	40836.16
448.078	42695.71
448.284	40737.85
448.491	41626.67
448.697	43037.72
448.903	43807.76
449.11	44383.24
449.316	43615.25
449.522	43858.96
449.728	45167.61
449.935	45749.23
450.141	45816.82
450.347	46506.98
450.553	45079.55
450.76	45861.87
450.966	47186.91
451.172	47057.88
451.378	48186.32
451.584	46930.91
451.791	48051.15
451.997	47883.22
452.203	48630.72
452.409	49189.82
452.615	48454.6
452.821	46691.3
453.027	46558.18
453.233	48577.48
453.44	46685.15
453.646	47008.73
453.852	47498.2
454.058	48376.78
454.264	46492.65
454.47	47723.47
454.676	46302.18
454.882	47815.63
455.088	44102.67
455.294	44983.29
455.5	45628.4
455.705	45882.35
455.911	43873.29
456.117	43103.26
456.323	42896.41
456.529	40604.74
456.735	42349.6
456.941	41161.78
457.147	40582.21
457.352	39484.5
457.558	39009.37
457.764	39351.38
457.97	38833.24
458.176	37407.86
458.381	37670
458.587	35689.61
458.793	35775.62
458.999	34315.42
459.204	36531.33
459.41	35177.62
459.616	32808.12
459.821	33160.37
460.027	33248.43
460.233	32433.34
460.438	31038.67
460.644	31423.69
460.85	29947.11
461.055	29127.92
461.261	29404.39
461.466	26936.59
461.672	26326.3
461.878	28431.61
462.083	26127.64
462.289	25949.47
462.494	25494.82
462.7	24069.44
462.905	23735.62
463.111	24552.76
463.316	24716.59
463.522	23887.17
463.727	24048.96
463.932	24239.42
464.138	23493.96
464.343	24159.55
464.549	23412.04
464.754	23901.5
464.959	23803.2
465.165	23569.73
465.37	22478.16
465.575	21890.4
465.781	22799.69
465.986	23070.03
466.191	22132.06
466.397	21929.31
466.602	20723.05
466.807	21661.02
467.012	21628.26
