Data from USB4F104151__2__14-15-50-076.txt Node

Date: Thu Mar 13 14:15:50 EDT 2025
User: louis
Spectrometer: USB4F10415
Trigger mode: 4
Integration Time (sec): 2.000000E-2
Scans to average: 1
Electric dark correction enabled: true
Nonlinearity correction enabled: false
Boxcar width: 0
XAxis mode: Wavelengths
Number of Pixels in Spectrum: 3648
>>>>>Begin Spectral Data<<<<<
178.204	-79.53
178.424	-79.53
178.644	-79.53
178.864	-91.82
179.084	-122.54
179.304	-7.85
179.524	-13.99
179.744	82.26
179.964	-34.47
180.184	16.73
180.404	-1.71
180.624	22.87
180.844	-22.19
181.064	-34.47
181.283	-54.95
181.503	-18.09
181.723	65.88
181.943	-118.44
182.163	65.88
182.383	-34.47
182.602	82.26
182.822	39.25
183.042	-1.71
183.262	39.25
183.482	-7.85
183.701	-9.9
183.921	-34.47
184.141	-16.04
184.361	14.68
184.58	45.4
184.8	-1.71
185.02	31.06
185.239	53.59
185.459	-1.71
185.679	47.44
185.898	-40.62
186.118	2.39
186.338	26.96
186.557	65.88
186.777	-13.99
186.997	51.54
187.216	-1.71
187.436	39.25
187.655	22.87
187.875	22.87
188.095	26.96
188.314	96.6
188.534	35.16
188.753	-48.81
188.973	43.35
189.192	74.07
189.412	45.4
189.631	63.83
189.851	-9.9
190.07	72.02
190.29	39.25
190.509	-34.47
190.729	47.44
190.948	74.07
191.168	121.17
191.387	72.02
191.607	39.25
191.826	74.07
192.045	-34.47
192.265	-1.71
192.484	-22.19
192.704	82.26
192.923	16.73
193.142	63.83
193.362	6.49
193.581	57.68
193.8	51.54
194.02	22.87
194.239	35.16
194.458	51.54
194.678	61.78
194.897	100.69
195.116	41.3
195.335	-1.71
195.555	12.63
195.774	24.92
195.993	41.3
196.212	65.88
196.432	0.34
196.651	37.2
196.87	26.96
197.089	67.92
197.308	33.11
197.528	-32.43
197.747	6.49
197.966	63.83
198.185	65.88
198.404	-30.38
198.623	51.54
198.842	-1.71
199.062	12.63
199.281	6.49
199.5	-26.28
199.719	35.16
199.938	51.54
200.157	74.07
200.376	14.68
200.595	63.83
200.814	88.4
201.033	47.44
201.252	26.96
201.471	31.06
201.69	47.44
201.909	49.49
202.128	18.77
202.347	8.53
202.566	-3.75
202.785	24.92
203.004	-36.52
203.223	72.02
203.442	-34.47
203.661	-20.14
203.879	33.11
204.098	49.49
204.317	6.49
204.536	8.53
204.755	12.63
204.974	-24.23
205.193	22.87
205.411	47.44
205.63	26.96
205.849	96.6
206.068	92.5
206.287	18.77
206.505	49.49
206.724	-75.43
206.943	55.64
207.162	47.44
207.381	-24.23
207.599	-1.71
207.818	-18.09
208.037	0.34
208.255	2.39
208.474	39.25
208.693	45.4
208.911	63.83
209.13	31.06
209.349	67.92
209.567	41.3
209.786	18.77
210.005	14.68
210.223	-9.9
210.442	-7.85
210.661	43.35
210.879	10.58
211.098	55.64
211.316	72.02
211.535	22.87
211.753	74.07
211.972	33.11
212.191	-11.95
212.409	-5.8
212.628	22.87
212.846	18.77
213.065	29.01
213.283	49.49
213.502	-18.09
213.72	51.54
213.938	22.87
214.157	-24.23
214.375	16.73
214.594	41.3
214.812	-24.23
215.031	31.06
215.249	22.87
215.467	-79.53
215.686	-7.85
215.904	47.44
216.122	0.34
216.341	4.44
216.559	10.58
216.778	82.26
216.996	110.93
217.214	31.06
217.432	26.96
217.651	76.12
217.869	-1.71
218.087	0.34
218.306	6.49
218.524	94.55
218.742	-24.23
218.96	12.63
219.179	-13.99
219.397	47.44
219.615	43.35
219.833	22.87
220.051	-1.71
220.27	12.63
220.488	53.59
220.706	31.06
220.924	37.2
221.142	12.63
221.36	6.49
221.578	41.3
221.796	74.07
222.015	33.11
222.233	-18.09
222.451	104.79
222.669	-1.71
222.887	63.83
223.105	-57
223.323	135.51
223.541	26.96
223.759	55.64
223.977	-16.04
224.195	45.4
224.413	63.83
224.631	53.59
224.849	-7.85
225.067	100.69
225.285	57.68
225.503	-22.19
225.721	-1.71
225.939	82.26
226.157	-13.99
226.375	45.4
226.592	-34.47
226.81	98.64
227.028	67.92
227.246	59.73
227.464	55.64
227.682	22.87
227.9	84.31
228.117	-34.47
228.335	45.4
228.553	16.73
228.771	-50.86
228.989	65.88
229.206	31.06
229.424	14.68
229.642	-22.19
229.86	63.83
230.077	24.92
230.295	31.06
230.513	-9.9
230.731	29.01
230.948	74.07
231.166	96.6
231.384	0.34
231.601	55.64
231.819	-1.71
232.037	18.77
232.254	22.87
232.472	90.45
232.689	12.63
232.907	49.49
233.125	14.68
233.342	41.3
233.56	33.11
233.777	12.63
233.995	26.96
234.213	59.73
234.43	39.25
234.648	37.2
234.865	-38.57
235.083	37.2
235.3	82.26
235.518	69.97
235.735	104.79
235.953	112.98
236.17	-18.09
236.388	47.44
236.605	125.27
236.822	8.53
237.04	31.06
237.257	57.68
237.475	10.58
237.692	55.64
237.909	33.11
238.127	39.25
238.344	12.63
238.562	-5.8
238.779	53.59
238.996	-46.76
239.214	22.87
239.431	47.44
239.648	61.78
239.865	-1.71
240.083	65.88
240.3	110.93
240.517	10.58
240.735	47.44
240.952	102.74
241.169	14.68
241.386	26.96
241.603	-24.23
241.821	-1.71
242.038	20.82
242.255	72.02
242.472	-26.28
242.689	51.54
242.907	-5.8
243.124	137.56
243.341	14.68
243.558	18.77
243.775	63.83
243.992	4.44
244.209	82.26
244.426	49.49
244.643	57.68
244.86	-42.67
245.078	14.68
245.295	-7.85
245.512	18.77
245.729	-59.05
245.946	-9.9
246.163	55.64
246.38	24.92
246.597	-26.28
246.814	16.73
247.031	98.64
247.248	6.49
247.464	-18.09
247.681	-7.85
247.898	51.54
248.115	104.79
248.332	37.2
248.549	57.68
248.766	82.26
248.983	35.16
249.2	-18.09
249.417	33.11
249.633	-65.19
249.85	84.31
250.067	-24.23
250.284	-40.62
250.501	-11.95
250.717	16.73
250.934	-30.38
251.151	31.06
251.368	55.64
251.585	100.69
251.801	22.87
252.018	31.06
252.235	-7.85
252.451	24.92
252.668	-100.01
252.885	41.3
253.102	45.4
253.318	110.93
253.535	76.12
253.752	-3.75
253.968	-5.8
254.185	14.68
254.401	-5.8
254.618	16.73
254.835	41.3
255.051	96.6
255.268	-7.85
255.484	39.25
255.701	10.58
255.917	49.49
256.134	18.77
256.351	-1.71
256.567	88.4
256.784	0.34
257	33.11
257.217	-24.23
257.433	-42.67
257.65	-16.04
257.866	16.73
258.082	-7.85
258.299	31.06
258.515	39.25
258.732	-3.75
258.948	6.49
259.165	16.73
259.381	49.49
259.597	-16.04
259.814	-16.04
260.03	92.5
260.246	41.3
260.463	-3.75
260.679	90.45
260.895	35.16
261.112	57.68
261.328	14.68
261.544	-3.75
261.761	16.73
261.977	16.73
262.193	6.49
262.409	155.99
262.626	-54.95
262.842	39.25
263.058	-18.09
263.274	-13.99
263.49	35.16
263.707	0.34
263.923	-16.04
264.139	-48.81
264.355	14.68
264.571	33.11
264.787	26.96
265.004	57.68
265.22	82.26
265.436	67.92
265.652	-26.28
265.868	18.77
266.084	-34.47
266.3	39.25
266.516	-22.19
266.732	-5.8
266.948	14.68
267.164	33.11
267.38	-1.71
267.596	18.77
267.812	16.73
268.028	104.79
268.244	26.96
268.46	31.06
268.676	31.06
268.892	49.49
269.108	-42.67
269.324	-11.95
269.54	31.06
269.756	39.25
269.972	6.49
270.188	65.88
270.403	-11.95
270.619	37.2
270.835	69.97
271.051	31.06
271.267	0.34
271.483	43.35
271.698	6.49
271.914	88.4
272.13	24.92
272.346	16.73
272.562	10.58
272.777	55.64
272.993	65.88
273.209	-3.75
273.425	41.3
273.64	-11.95
273.856	55.64
274.072	57.68
274.287	18.77
274.503	43.35
274.719	115.03
274.934	22.87
275.15	-34.47
275.366	35.16
275.581	18.77
275.797	45.4
276.012	72.02
276.228	-1.71
276.444	-26.28
276.659	121.17
276.875	-22.19
277.09	-42.67
277.306	0.34
277.521	53.59
277.737	-9.9
277.952	137.56
278.168	39.25
278.383	22.87
278.599	63.83
278.814	16.73
279.03	35.16
279.245	57.68
279.461	59.73
279.676	55.64
279.892	45.4
280.107	33.11
280.322	51.54
280.538	-5.8
280.753	43.35
280.969	88.4
281.184	43.35
281.399	26.96
281.615	55.64
281.83	43.35
282.045	78.16
282.26	-65.19
282.476	14.68
282.691	33.11
282.906	53.59
283.122	53.59
283.337	-79.53
283.552	115.03
283.767	49.49
283.983	106.84
284.198	6.49
284.413	-18.09
284.628	45.4
284.843	10.58
285.058	98.64
285.274	98.64
285.489	6.49
285.704	16.73
285.919	-3.75
286.134	61.78
286.349	-40.62
286.564	14.68
286.779	-34.47
286.995	96.6
287.21	41.3
287.425	76.12
287.64	-46.76
287.855	39.25
288.07	47.44
288.285	20.82
288.5	35.16
288.715	31.06
288.93	-16.04
289.145	-1.71
289.36	82.26
289.575	22.87
289.79	18.77
290.004	31.06
290.219	14.68
290.434	45.4
290.649	-13.99
290.864	0.34
291.079	26.96
291.294	6.49
291.509	-46.76
291.724	-7.85
291.938	-42.67
292.153	43.35
292.368	59.73
292.583	49.49
292.798	20.82
293.012	59.73
293.227	31.06
293.442	65.88
293.657	41.3
293.871	88.4
294.086	-24.23
294.301	0.34
294.516	78.16
294.73	31.06
294.945	35.16
295.16	61.78
295.374	74.07
295.589	-13.99
295.804	33.11
296.018	22.87
296.233	55.64
296.447	65.88
296.662	33.11
296.877	80.21
297.091	8.53
297.306	-42.67
297.52	2.39
297.735	18.77
297.949	14.68
298.164	72.02
298.378	16.73
298.593	-18.09
298.807	-13.99
299.022	86.36
299.236	78.16
299.451	47.44
299.665	35.16
299.88	22.87
300.094	45.4
300.309	22.87
300.523	31.06
300.737	29.01
300.952	82.26
301.166	0.34
301.381	22.87
301.595	-7.85
301.809	51.54
302.024	-1.71
302.238	6.49
302.452	6.49
302.667	-1.71
302.881	14.68
303.095	108.88
303.309	63.83
303.524	-1.71
303.738	55.64
303.952	65.88
304.166	39.25
304.381	-7.85
304.595	65.88
304.809	33.11
305.023	22.87
305.237	55.64
305.452	55.64
305.666	12.63
305.88	80.21
306.094	-26.28
306.308	37.2
306.522	61.78
306.736	108.88
306.95	45.4
307.164	14.68
307.379	37.2
307.593	41.3
307.807	63.83
308.021	22.87
308.235	-16.04
308.449	45.4
308.663	31.06
308.877	-5.8
309.091	47.44
309.305	-1.71
309.519	18.77
309.733	-34.47
309.947	-50.86
310.161	121.17
310.374	61.78
310.588	80.21
310.802	6.49
311.016	49.49
311.23	-44.71
311.444	12.63
311.658	-7.85
311.872	18.77
312.085	55.64
312.299	82.26
312.513	22.87
312.727	53.59
312.941	-22.19
313.154	35.16
313.368	67.92
313.582	-9.9
313.796	8.53
314.009	98.64
314.223	33.11
314.437	112.98
314.651	14.68
314.864	39.25
315.078	35.16
315.292	35.16
315.505	45.4
315.719	76.12
315.933	41.3
316.146	22.87
316.36	-26.28
316.573	65.88
316.787	29.01
317.001	82.26
317.214	-9.9
317.428	47.44
317.641	39.25
317.855	22.87
318.068	22.87
318.282	22.87
318.495	26.96
318.709	61.78
318.922	26.96
319.136	90.45
319.349	102.74
319.563	24.92
319.776	100.69
319.99	51.54
320.203	55.64
320.417	4.44
320.63	-1.71
320.843	76.12
321.057	51.54
321.27	29.01
321.483	35.16
321.697	102.74
321.91	39.25
322.124	65.88
322.337	67.92
322.55	24.92
322.763	-11.95
322.977	49.49
323.19	6.49
323.403	47.44
323.617	57.68
323.83	43.35
324.043	55.64
324.256	43.35
324.469	22.87
324.683	92.5
324.896	18.77
325.109	76.12
325.322	-18.09
325.535	137.56
325.748	72.02
325.962	-32.43
326.175	0.34
326.388	96.6
326.601	43.35
326.814	-18.09
327.027	45.4
327.24	49.49
327.453	-9.9
327.666	8.53
327.879	29.01
328.092	0.34
328.305	108.88
328.518	16.73
328.731	31.06
328.944	100.69
329.157	69.97
329.37	-44.71
329.583	72.02
329.796	76.12
330.009	39.25
330.222	74.07
330.435	115.03
330.648	-34.47
330.861	59.73
331.073	49.49
331.286	-5.8
331.499	74.07
331.712	-61.1
331.925	59.73
332.138	12.63
332.35	-22.19
332.563	43.35
332.776	90.45
332.989	26.96
333.202	12.63
333.414	-24.23
333.627	35.16
333.84	31.06
334.053	33.11
334.265	33.11
334.478	41.3
334.691	59.73
334.903	33.11
335.116	-13.99
335.329	39.25
335.541	6.49
335.754	121.17
335.966	-24.23
336.179	16.73
336.392	41.3
336.604	-20.14
336.817	59.73
337.029	-34.47
337.242	55.64
337.454	-3.75
337.667	16.73
337.88	4.44
338.092	0.34
338.305	115.03
338.517	6.49
338.729	22.87
338.942	69.97
339.154	47.44
339.367	45.4
339.579	123.22
339.792	-1.71
340.004	80.21
340.217	-26.28
340.429	-67.24
340.641	10.58
340.854	-16.04
341.066	43.35
341.278	112.98
341.491	55.64
341.703	33.11
341.915	24.92
342.128	104.79
342.34	92.5
342.552	57.68
342.764	4.44
342.977	16.73
343.189	41.3
343.401	6.49
343.613	-40.62
343.826	82.26
344.038	-9.9
344.25	33.11
344.462	6.49
344.674	31.06
344.886	22.87
345.099	78.16
345.311	92.5
345.523	0.34
345.735	41.3
345.947	-1.71
346.159	51.54
346.371	76.12
346.583	8.53
346.795	80.21
347.007	67.92
347.219	90.45
347.431	63.83
347.643	39.25
347.855	8.53
348.067	8.53
348.279	57.68
348.491	57.68
348.703	90.45
348.915	-50.86
349.127	31.06
349.339	18.77
349.551	31.06
349.763	63.83
349.975	26.96
350.187	49.49
350.399	74.07
350.61	16.73
350.822	94.55
351.034	45.4
351.246	18.77
351.458	45.4
351.669	-26.28
351.881	22.87
352.093	117.08
352.305	88.4
352.517	98.64
352.728	117.08
352.94	65.88
353.152	31.06
353.363	45.4
353.575	115.03
353.787	69.97
353.999	55.64
354.21	90.45
354.422	26.96
354.633	-13.99
354.845	112.98
355.057	72.02
355.268	108.88
355.48	8.53
355.692	88.4
355.903	65.88
356.115	55.64
356.326	-34.47
356.538	31.06
356.749	-1.71
356.961	65.88
357.172	16.73
357.384	49.49
357.595	65.88
357.807	92.5
358.018	37.2
358.23	96.6
358.441	184.66
358.653	80.21
358.864	57.68
359.075	51.54
359.287	92.5
359.498	80.21
359.709	80.21
359.921	47.44
360.132	51.54
360.344	104.79
360.555	22.87
360.766	106.84
360.977	0.34
361.189	-42.67
361.4	12.63
361.611	145.75
361.823	84.31
362.034	33.11
362.245	12.63
362.456	33.11
362.667	78.16
362.879	72.02
363.09	76.12
363.301	76.12
363.512	14.68
363.723	-7.85
363.935	76.12
364.146	104.79
364.357	-42.67
364.568	90.45
364.779	26.96
364.99	76.12
365.201	10.58
365.412	145.75
365.623	47.44
365.834	37.2
366.045	-3.75
366.256	82.26
366.467	14.68
366.678	31.06
366.889	59.73
367.1	92.5
367.311	72.02
367.522	76.12
367.733	33.11
367.944	8.53
368.155	14.68
368.366	16.73
368.577	100.69
368.788	80.21
368.999	-13.99
369.209	6.49
369.42	84.31
369.631	123.22
369.842	84.31
370.053	31.06
370.264	22.87
370.474	84.31
370.685	22.87
370.896	88.4
371.107	82.26
371.317	53.59
371.528	76.12
371.739	22.87
371.95	49.49
372.16	102.74
372.371	63.83
372.582	59.73
372.792	33.11
373.003	72.02
373.214	41.3
373.424	47.44
373.635	-7.85
373.846	108.88
374.056	112.98
374.267	-1.71
374.477	26.96
374.688	67.92
374.898	63.83
375.109	104.79
375.319	31.06
375.53	82.26
375.74	139.6
375.951	88.4
376.161	49.49
376.372	112.98
376.582	26.96
376.793	57.68
377.003	8.53
377.214	80.21
377.424	86.36
377.635	-22.19
377.845	65.88
378.055	59.73
378.266	74.07
378.476	39.25
378.686	76.12
378.897	55.64
379.107	20.82
379.317	98.64
379.528	24.92
379.738	33.11
379.948	6.49
380.158	125.27
380.369	33.11
380.579	80.21
380.789	88.4
380.999	121.17
381.21	133.46
381.42	143.7
381.63	80.21
381.84	112.98
382.05	43.35
382.261	24.92
382.471	72.02
382.681	47.44
382.891	102.74
383.101	47.44
383.311	33.11
383.521	33.11
383.731	133.46
383.941	63.83
384.151	22.87
384.361	22.87
384.571	20.82
384.781	-5.8
384.991	65.88
385.201	92.5
385.411	29.01
385.621	55.64
385.831	80.21
386.041	106.84
386.251	45.4
386.461	69.97
386.671	22.87
386.881	-20.14
387.091	57.68
387.301	55.64
387.511	-16.04
387.72	33.11
387.93	29.01
388.14	-9.9
388.35	8.53
388.56	170.32
388.769	22.87
388.979	47.44
389.189	84.31
389.399	43.35
389.609	106.84
389.818	31.06
390.028	94.55
390.238	67.92
390.447	92.5
390.657	67.92
390.867	80.21
391.076	-7.85
391.286	-18.09
391.496	26.96
391.705	131.41
391.915	108.88
392.125	96.6
392.334	67.92
392.544	59.73
392.753	59.73
392.963	74.07
393.172	112.98
393.382	14.68
393.591	59.73
393.801	53.59
394.01	129.36
394.22	-5.8
394.429	98.64
394.639	57.68
394.848	88.4
395.058	2.39
395.267	115.03
395.477	98.64
395.686	86.36
395.895	106.84
396.105	149.84
396.314	41.3
396.524	76.12
396.733	55.64
396.942	96.6
397.152	110.93
397.361	131.41
397.57	125.27
397.78	121.17
397.989	104.79
398.198	166.23
398.407	86.36
398.617	80.21
398.826	98.64
399.035	98.64
399.244	129.36
399.453	59.73
399.663	74.07
399.872	94.55
400.081	94.55
400.29	112.98
400.499	80.21
400.708	155.99
400.917	123.22
401.127	65.88
401.336	147.8
401.545	153.94
401.754	131.41
401.963	55.64
402.172	117.08
402.381	170.32
402.59	176.47
402.799	153.94
403.008	76.12
403.217	123.22
403.426	223.57
403.635	80.21
403.844	125.27
404.053	129.36
404.262	182.61
404.471	209.23
404.68	155.99
404.888	108.88
405.097	205.14
405.306	190.8
405.515	155.99
405.724	172.37
405.933	178.51
406.142	162.13
406.35	262.48
406.559	219.47
406.768	287.06
406.977	250.19
407.185	203.09
407.394	231.76
407.603	211.28
407.812	188.75
408.02	246.1
408.229	196.95
408.438	244.05
408.646	311.63
408.855	344.4
409.064	270.67
409.272	354.64
409.481	360.78
409.69	299.34
409.898	330.06
410.107	301.39
410.315	409.94
410.524	422.22
410.733	465.23
410.941	360.78
411.15	436.56
411.358	518.48
411.567	457.04
411.775	344.4
411.984	440.65
412.192	500.05
412.401	532.81
412.609	577.87
412.818	588.11
413.026	696.65
413.234	661.84
413.443	670.03
413.651	631.12
413.86	776.52
414.068	682.31
414.276	780.62
414.485	702.79
414.693	833.86
414.901	831.82
415.11	850.25
415.318	932.17
415.526	956.74
415.734	964.93
415.943	934.22
416.151	1053
416.359	1077.57
416.567	1038.66
416.776	1087.81
416.984	1149.25
417.192	1247.55
417.4	1204.55
417.608	1186.12
417.817	1259.84
418.025	1386.82
418.233	1399.1
418.441	1417.54
418.649	1550.65
418.857	1562.94
419.065	1698.11
419.273	1603.9
419.481	1620.28
419.689	1734.97
419.897	1863.99
420.105	1859.9
420.313	1820.99
420.521	1964.34
420.729	2169.14
420.937	2101.56
421.145	2240.82
421.353	2232.63
421.561	2386.22
421.769	2464.05
421.977	2515.25
422.185	2537.77
422.393	2758.96
422.601	2795.82
422.809	2769.2
423.017	2879.79
423.224	2955.56
423.432	2988.33
423.64	3203.36
423.848	3385.63
424.056	3350.82
424.263	3539.23
424.471	3688.73
424.679	3619.1
424.887	3754.27
425.094	3850.52
425.302	3948.83
425.51	3987.74
425.718	4184.34
425.925	4301.08
426.133	4258.07
426.341	4532.5
426.548	4815.12
426.756	4956.43
426.964	4841.74
427.171	5161.22
427.379	5351.68
427.586	5349.64
427.794	5402.88
428.001	5777.66
428.209	5996.79
428.417	5951.74
428.624	6398.2
428.832	6582.51
429.039	6299.89
429.247	6291.7
429.454	6904.04
429.662	7450.85
429.869	6904.04
430.076	7420.13
430.284	7278.82
430.491	7647.46
430.699	7827.68
430.906	7825.63
431.114	8089.82
431.321	8304.85
431.528	8351.96
431.736	9017.55
431.943	9652.42
432.15	9423.05
432.358	9298.12
432.565	9896.13
432.772	9834.69
432.979	10305.72
433.187	10537.14
433.394	10379.45
433.601	10967.21
433.808	11503.78
434.016	11352.23
434.223	11679.91
434.43	12533.91
434.637	12165.28
434.844	12888.21
435.052	13142.16
435.259	13027.47
435.466	13006.99
435.673	12753.04
435.88	13777.03
436.087	14450.81
436.294	14454.9
436.501	14268.54
436.708	14565.5
436.915	15075.44
437.122	15671.4
437.329	15677.54
437.537	16119.9
437.743	16685.14
437.95	16265.31
438.157	17113.17
438.364	17518.67
438.571	17535.05
438.778	17846.34
438.985	19367.98
439.192	18608.19
439.399	19384.37
439.606	18475.07
439.813	19955.75
440.02	21139.47
440.227	20557.85
440.433	20359.2
440.64	21078.04
440.847	20750.36
441.054	21274.64
441.261	22962.17
441.467	22491.13
441.674	23144.44
441.881	23865.32
442.088	23787.5
442.294	23922.66
442.501	24119.27
442.708	24516.58
442.914	25626.57
443.121	26804.16
443.328	25944.01
443.534	27895.72
443.741	26640.32
443.948	26613.7
444.154	28649.38
444.361	28346.28
444.568	28600.22
444.774	28321.7
444.981	28641.18
445.187	29530
445.394	30934.91
445.6	30443.4
445.807	33183.58
446.013	31946.61
446.22	32446.31
446.426	33656.66
446.633	33812.31
446.839	35374.91
447.046	33468.25
447.252	35327.8
447.459	35682.1
447.665	35362.62
447.871	36906.79
448.078	38522.63
448.284	36529.96
448.491	37580.57
448.697	38975.23
448.903	39833.33
449.11	39761.65
449.316	39180.03
449.522	39862.01
449.728	40867.56
449.935	41201.38
450.141	41144.03
450.347	41985.75
450.553	40754.92
450.76	41213.66
450.966	42483.41
451.172	42387.15
451.378	43425.47
451.584	42198.74
451.791	43079.36
451.997	43161.28
452.203	43841.21
452.409	44232.37
452.615	43564.73
452.821	41690.84
453.027	41701.08
453.233	43779.77
453.44	42235.6
453.646	42411.73
453.852	42817.22
454.058	43497.15
454.264	41748.18
454.47	42903.24
454.676	41705.18
454.882	43087.56
455.088	39003.91
455.294	40081.14
455.5	40969.96
455.705	41268.96
455.911	39182.08
456.117	38725.38
456.323	38551.31
456.529	36146.99
456.735	37818.13
456.941	36919.07
457.147	36077.36
457.352	34840.39
457.558	34783.04
457.764	34946.88
457.97	34367.3
458.176	33154.91
458.381	33455.96
458.587	31872.88
458.793	31860.59
458.999	29931.4
459.204	32120.68
459.41	31467.38
459.616	29153.18
459.821	29968.27
460.027	29071.26
460.233	28878.75
460.438	27348.92
460.644	27813.8
460.85	26179.53
461.055	25944.01
461.261	25919.43
461.466	24010.73
461.672	23492.59
461.878	24645.6
462.083	23513.07
462.289	22870.01
462.494	22595.58
462.7	21700.62
462.905	21184.53
463.111	21905.42
463.316	21895.18
463.522	21428.24
463.727	21805.06
463.932	21575.69
464.138	21377.04
464.343	21403.66
464.549	20625.43
464.754	21278.74
464.959	21334.03
465.165	20842.52
465.37	20176.93
465.575	19365.93
465.781	20545.56
465.986	20738.07
466.191	19775.53
466.397	19576.87
466.602	18552.89
466.807	19210.29
467.012	19259.44
467.218	19064.88
467.423	19087.41
