Data from USB4F104151__220__14-21-20-988.txt Node

Date: Thu Mar 13 14:21:20 EDT 2025
User: louis
Spectrometer: USB4F10415
Trigger mode: 4
Integration Time (sec): 2.000000E-2
Scans to average: 1
Electric dark correction enabled: true
Nonlinearity correction enabled: false
Boxcar width: 0
XAxis mode: Wavelengths
Number of Pixels in Spectrum: 3648
>>>>>Begin Spectral Data<<<<<
178.204	-44.37
178.424	-44.37
178.644	-44.37
178.864	-81.24
179.084	-64.85
179.304	-50.52
179.524	-15.7
179.744	-42.32
179.964	39.59
180.184	21.16
180.404	12.97
180.624	-7.51
180.844	2.73
181.064	-30.04
181.283	-15.7
181.503	72.36
181.723	12.97
181.943	-58.71
182.163	51.88
182.383	103.08
182.602	68.27
182.822	47.79
183.042	2.73
183.262	-11.61
183.482	-15.7
183.701	90.79
183.921	0.68
184.141	58.03
184.361	25.26
184.58	8.87
184.8	35.5
185.02	-23.89
185.239	29.35
185.459	41.64
185.679	53.93
185.898	68.27
186.118	51.88
186.338	23.21
186.557	74.41
186.777	-1.37
186.997	25.26
187.216	31.4
187.436	94.89
187.655	-5.46
187.875	82.6
188.095	17.07
188.314	119.46
188.534	43.69
188.753	-7.51
188.973	-3.41
189.192	49.83
189.412	51.88
189.631	39.59
189.851	33.45
190.07	25.26
190.29	-15.7
190.509	-3.41
190.729	-36.18
190.948	-30.04
191.168	139.94
191.387	98.99
191.607	10.92
191.826	-5.46
192.045	82.6
192.265	66.22
192.484	31.4
192.704	49.83
192.923	-9.56
193.142	144.04
193.362	68.27
193.581	8.87
193.8	25.26
194.02	4.78
194.239	92.84
194.458	6.83
194.678	49.83
194.897	33.45
195.116	-7.51
195.335	8.87
195.555	-19.8
195.774	53.93
195.993	51.88
196.212	10.92
196.432	-40.28
196.651	84.65
196.87	39.59
197.089	119.46
197.308	103.08
197.528	125.61
197.747	-23.89
197.966	4.78
198.185	166.57
198.404	17.07
198.623	33.45
198.842	55.98
199.062	35.5
199.281	76.46
199.5	98.99
199.719	0.68
199.938	58.03
200.157	35.5
200.376	45.74
200.595	10.92
200.814	68.27
201.033	6.83
201.252	55.98
201.471	51.88
201.69	103.08
201.909	84.65
202.128	82.6
202.347	17.07
202.566	-7.51
202.785	-58.71
203.004	-13.65
203.223	98.99
203.442	23.21
203.661	0.68
203.879	72.36
204.098	58.03
204.317	43.69
204.536	90.79
204.755	64.17
204.974	47.79
205.193	25.26
205.411	41.64
205.63	29.35
205.849	84.65
206.068	115.37
206.287	-11.61
206.505	103.08
206.724	-58.71
206.943	58.03
207.162	90.79
207.381	115.37
207.599	-5.46
207.818	45.74
208.037	90.79
208.255	41.64
208.474	-5.46
208.693	51.88
208.911	66.22
209.13	27.31
209.349	94.89
209.567	51.88
209.786	101.03
210.005	49.83
210.223	49.83
210.442	-15.7
210.661	82.6
210.879	25.26
211.098	17.07
211.316	53.93
211.535	68.27
211.753	43.69
211.972	76.46
212.191	33.45
212.409	53.93
212.628	41.64
212.846	8.87
213.065	51.88
213.283	80.55
213.502	-19.8
213.72	76.46
213.938	-15.7
214.157	23.21
214.375	-11.61
214.594	41.64
214.812	55.98
215.031	-23.89
215.249	58.03
215.467	33.45
215.686	96.94
215.904	33.45
216.122	43.69
216.341	41.64
216.559	4.78
216.778	117.42
216.996	107.18
217.214	49.83
217.432	33.45
217.651	17.07
217.869	58.03
218.087	43.69
218.306	84.65
218.524	-15.7
218.742	27.31
218.96	47.79
219.179	25.26
219.397	82.6
219.615	66.22
219.833	8.87
220.051	-19.8
220.27	29.35
220.488	17.07
220.706	70.31
220.924	10.92
221.142	21.16
221.36	103.08
221.578	49.83
221.796	76.46
222.015	51.88
222.233	10.92
222.451	17.07
222.669	-34.13
222.887	47.79
223.105	8.87
223.323	33.45
223.541	8.87
223.759	86.7
223.977	94.89
224.195	31.4
224.413	-17.75
224.631	25.26
224.849	41.64
225.067	92.84
225.285	37.55
225.503	8.87
225.721	12.97
225.939	-9.56
226.157	17.07
226.375	131.75
226.592	70.31
226.81	33.45
227.028	17.07
227.246	148.14
227.464	-17.75
227.682	41.64
227.9	33.45
228.117	53.93
228.335	68.27
228.553	66.22
228.771	47.79
228.989	25.26
229.206	43.69
229.424	78.51
229.642	-105.81
229.86	0.68
230.077	19.11
230.295	74.41
230.513	-3.41
230.731	101.03
230.948	29.35
231.166	25.26
231.384	39.59
231.601	25.26
231.819	37.55
232.037	41.64
232.254	70.31
232.472	58.03
232.689	12.97
232.907	86.7
233.125	58.03
233.342	-15.7
233.56	111.27
233.777	-3.41
233.995	43.69
234.213	92.84
234.43	23.21
234.648	2.73
234.865	33.45
235.083	107.18
235.3	-5.46
235.518	29.35
235.735	86.7
235.953	37.55
236.17	78.51
236.388	27.31
236.605	43.69
236.822	41.64
237.04	-38.23
237.257	25.26
237.475	33.45
237.692	-32.08
237.909	66.22
238.127	-11.61
238.344	62.12
238.562	58.03
238.779	25.26
238.996	8.87
239.214	41.64
239.431	55.98
239.648	74.41
239.865	17.07
240.083	49.83
240.3	41.64
240.517	51.88
240.735	25.26
240.952	68.27
241.169	76.46
241.386	45.74
241.603	62.12
241.821	8.87
242.038	66.22
242.255	115.37
242.472	17.07
242.689	4.78
242.907	141.99
243.124	68.27
243.341	60.07
243.558	78.51
243.775	41.64
243.992	33.45
244.209	68.27
244.426	51.88
244.643	68.27
244.86	-32.08
245.078	123.56
245.295	43.69
245.512	103.08
245.729	60.07
245.946	72.36
246.163	53.93
246.38	-15.7
246.597	0.68
246.814	51.88
247.031	-50.52
247.248	78.51
247.464	45.74
247.681	98.99
247.898	66.22
248.115	53.93
248.332	25.26
248.549	101.03
248.766	37.55
248.983	12.97
249.2	80.55
249.417	-7.51
249.633	21.16
249.85	17.07
250.067	66.22
250.284	17.07
250.501	35.5
250.717	8.87
250.934	-62.8
251.151	-15.7
251.368	90.79
251.585	21.16
251.801	66.22
252.018	70.31
252.235	70.31
252.451	10.92
252.668	62.12
252.885	158.38
253.102	27.31
253.318	29.35
253.535	115.37
253.752	82.6
253.968	19.11
254.185	60.07
254.401	92.84
254.618	2.73
254.835	0.68
255.051	62.12
255.268	78.51
255.484	115.37
255.701	60.07
255.917	94.89
256.134	2.73
256.351	125.61
256.567	41.64
256.784	-5.46
257	-73.04
257.217	17.07
257.433	86.7
257.65	23.21
257.866	49.83
258.082	41.64
258.299	-11.61
258.515	17.07
258.732	33.45
258.948	90.79
259.165	70.31
259.381	53.93
259.597	82.6
259.814	29.35
260.03	60.07
260.246	39.59
260.463	80.55
260.679	90.79
260.895	49.83
261.112	25.26
261.328	90.79
261.544	29.35
261.761	33.45
261.977	-5.46
262.193	-17.75
262.409	-5.46
262.626	47.79
262.842	35.5
263.058	-1.37
263.274	33.45
263.49	4.78
263.707	33.45
263.923	25.26
264.139	-81.24
264.355	27.31
264.571	107.18
264.787	25.26
265.004	125.61
265.22	15.02
265.436	43.69
265.652	17.07
265.868	-11.61
266.084	45.74
266.3	0.68
266.516	-11.61
266.732	2.73
266.948	90.79
267.164	17.07
267.38	88.75
267.596	107.18
267.812	0.68
268.028	-7.51
268.244	31.4
268.46	19.11
268.676	84.65
268.892	60.07
269.108	21.16
269.324	156.33
269.54	8.87
269.756	164.52
269.972	-15.7
270.188	62.12
270.403	21.16
270.619	0.68
270.835	33.45
271.051	60.07
271.267	-27.99
271.483	25.26
271.698	-27.99
271.914	35.5
272.13	90.79
272.346	25.26
272.562	35.5
272.777	78.51
272.993	25.26
273.209	2.73
273.425	62.12
273.64	49.83
273.856	51.88
274.072	51.88
274.287	101.03
274.503	76.46
274.719	62.12
274.934	37.55
275.15	-52.56
275.366	-13.65
275.581	88.75
275.797	39.59
276.012	43.69
276.228	43.69
276.444	19.11
276.659	92.84
276.875	76.46
277.09	139.94
277.306	-21.85
277.521	-7.51
277.737	51.88
277.952	113.32
278.168	72.36
278.383	27.31
278.599	10.92
278.814	41.64
279.03	68.27
279.245	58.03
279.461	29.35
279.676	101.03
279.892	19.11
280.107	55.98
280.322	105.13
280.538	35.5
280.753	66.22
280.969	84.65
281.184	62.12
281.399	62.12
281.615	6.83
281.83	-5.46
282.045	17.07
282.26	31.4
282.476	125.61
282.691	45.74
282.906	66.22
283.122	21.16
283.337	-11.61
283.552	76.46
283.767	29.35
283.983	68.27
284.198	66.22
284.413	82.6
284.628	0.68
284.843	-21.85
285.058	94.89
285.274	25.26
285.489	10.92
285.704	27.31
285.919	0.68
286.134	37.55
286.349	0.68
286.564	66.22
286.779	17.07
286.995	15.02
287.21	47.79
287.425	41.64
287.64	49.83
287.855	123.56
288.07	8.87
288.285	80.55
288.5	74.41
288.715	33.45
288.93	35.5
289.145	-7.51
289.36	49.83
289.575	25.26
289.79	92.84
290.004	41.64
290.219	68.27
290.434	33.45
290.649	37.55
290.864	21.16
291.079	133.8
291.294	76.46
291.509	2.73
291.724	58.03
291.938	90.79
292.153	123.56
292.368	-40.28
292.583	35.5
292.798	35.5
293.012	49.83
293.227	8.87
293.442	25.26
293.657	107.18
293.871	19.11
294.086	70.31
294.301	107.18
294.516	72.36
294.73	35.5
294.945	76.46
295.16	27.31
295.374	123.56
295.589	125.61
295.804	-32.08
296.018	-38.23
296.233	0.68
296.447	21.16
296.662	2.73
296.877	111.27
297.091	-52.56
297.306	27.31
297.52	37.55
297.735	51.88
297.949	2.73
298.164	53.93
298.378	78.51
298.593	41.64
298.807	33.45
299.022	43.69
299.236	45.74
299.451	66.22
299.665	10.92
299.88	-46.42
300.094	55.98
300.309	72.36
300.523	107.18
300.737	8.87
300.952	58.03
301.166	58.03
301.381	84.65
301.595	-38.23
301.809	6.83
302.024	53.93
302.238	55.98
302.452	60.07
302.667	41.64
302.881	-13.65
303.095	43.69
303.309	88.75
303.524	29.35
303.738	72.36
303.952	-21.85
304.166	74.41
304.381	2.73
304.595	137.9
304.809	68.27
305.023	90.79
305.237	-19.8
305.452	82.6
305.666	117.42
305.88	137.9
306.094	19.11
306.308	58.03
306.522	58.03
306.736	115.37
306.95	90.79
307.164	21.16
307.379	6.83
307.593	51.88
307.807	29.35
308.021	58.03
308.235	-48.47
308.449	45.74
308.663	80.55
308.877	98.99
309.091	51.88
309.305	74.41
309.519	60.07
309.733	90.79
309.947	25.26
310.161	58.03
310.374	66.22
310.588	84.65
310.802	8.87
311.016	19.11
311.23	39.59
311.444	37.55
311.658	39.59
311.872	21.16
312.085	76.46
312.299	64.17
312.513	103.08
312.727	27.31
312.941	4.78
313.154	68.27
313.368	66.22
313.582	-40.28
313.796	33.45
314.009	17.07
314.223	29.35
314.437	92.84
314.651	25.26
314.864	68.27
315.078	82.6
315.292	55.98
315.505	19.11
315.719	111.27
315.933	58.03
316.146	21.16
316.36	-32.08
316.573	90.79
316.787	74.41
317.001	86.7
317.214	98.99
317.428	17.07
317.641	23.21
317.855	49.83
318.068	94.89
318.282	53.93
318.495	133.8
318.709	66.22
318.922	76.46
319.136	74.41
319.349	66.22
319.563	33.45
319.776	-21.85
319.99	90.79
320.203	62.12
320.417	76.46
320.63	90.79
320.843	64.17
321.057	139.94
321.27	86.7
321.483	74.41
321.697	125.61
321.91	53.93
322.124	49.83
322.337	78.51
322.55	64.17
322.763	41.64
322.977	92.84
323.19	51.88
323.403	8.87
323.617	68.27
323.83	17.07
324.043	10.92
324.256	29.35
324.469	4.78
324.683	117.42
324.896	15.02
325.109	131.75
325.322	31.4
325.535	74.41
325.748	92.84
325.962	80.55
326.175	4.78
326.388	68.27
326.601	51.88
326.814	8.87
327.027	51.88
327.24	148.14
327.453	19.11
327.666	82.6
327.879	82.6
328.092	115.37
328.305	12.97
328.518	33.45
328.731	74.41
328.944	103.08
329.157	53.93
329.37	41.64
329.583	125.61
329.796	94.89
330.009	53.93
330.222	55.98
330.435	4.78
330.648	90.79
330.861	43.69
331.073	82.6
331.286	64.17
331.499	17.07
331.712	35.5
331.925	-19.8
332.138	90.79
332.35	49.83
332.563	10.92
332.776	72.36
332.989	94.89
333.202	27.31
333.414	-19.8
333.627	33.45
333.84	21.16
334.053	66.22
334.265	92.84
334.478	0.68
334.691	84.65
334.903	64.17
335.116	43.69
335.329	51.88
335.541	49.83
335.754	58.03
335.966	25.26
336.179	98.99
336.392	86.7
336.604	74.41
336.817	17.07
337.029	92.84
337.242	84.65
337.454	35.5
337.667	53.93
337.88	109.22
338.092	209.58
338.305	70.31
338.517	76.46
338.729	41.64
338.942	82.6
339.154	90.79
339.367	-13.65
339.579	68.27
339.792	45.74
340.004	60.07
340.217	60.07
340.429	62.12
340.641	-13.65
340.854	58.03
341.066	78.51
341.278	78.51
341.491	82.6
341.703	27.31
341.915	94.89
342.128	17.07
342.34	25.26
342.552	45.74
342.764	51.88
342.977	53.93
343.189	113.32
343.401	115.37
343.613	86.7
343.826	8.87
344.038	8.87
344.25	70.31
344.462	17.07
344.674	68.27
344.886	-15.7
345.099	123.56
345.311	33.45
345.523	78.51
345.735	72.36
345.947	90.79
346.159	29.35
346.371	74.41
346.583	12.97
346.795	68.27
347.007	33.45
347.219	101.03
347.431	84.65
347.643	84.65
347.855	27.31
348.067	66.22
348.279	60.07
348.491	35.5
348.703	45.74
348.915	8.87
349.127	68.27
349.339	21.16
349.551	53.93
349.763	144.04
349.975	51.88
350.187	25.26
350.399	84.65
350.61	76.46
350.822	-7.51
351.034	66.22
351.246	10.92
351.458	107.18
351.669	60.07
351.881	92.84
352.093	33.45
352.305	148.14
352.517	62.12
352.728	158.38
352.94	133.8
353.152	92.84
353.363	33.45
353.575	33.45
353.787	0.68
353.999	133.8
354.21	107.18
354.422	53.93
354.633	111.27
354.845	47.79
355.057	80.55
355.268	-7.51
355.48	82.6
355.692	6.83
355.903	43.69
356.115	86.7
356.326	33.45
356.538	60.07
356.749	119.46
356.961	133.8
357.172	19.11
357.384	27.31
357.595	148.14
357.807	-1.37
358.018	47.79
358.23	127.66
358.441	84.65
358.653	33.45
358.864	162.47
359.075	43.69
359.287	-7.51
359.498	35.5
359.709	37.55
359.921	58.03
360.132	94.89
360.344	2.73
360.555	66.22
360.766	37.55
360.977	82.6
361.189	82.6
361.4	0.68
361.611	21.16
361.823	156.33
362.034	117.42
362.245	-3.41
362.456	107.18
362.667	-9.56
362.879	41.64
363.09	78.51
363.301	41.64
363.512	82.6
363.723	62.12
363.935	-38.23
364.146	90.79
364.357	51.88
364.568	58.03
364.779	41.64
364.99	64.17
365.201	-3.41
365.412	45.74
365.623	80.55
365.834	98.99
366.045	4.78
366.256	82.6
366.467	10.92
366.678	19.11
366.889	70.31
367.1	133.8
367.311	51.88
367.522	66.22
367.733	94.89
367.944	107.18
368.155	55.98
368.366	139.94
368.577	74.41
368.788	105.13
368.999	27.31
369.209	68.27
369.42	31.4
369.631	133.8
369.842	115.37
370.053	10.92
370.264	62.12
370.474	141.99
370.685	25.26
370.896	29.35
371.107	107.18
371.317	103.08
371.528	82.6
371.739	133.8
371.95	94.89
372.16	33.45
372.371	86.7
372.582	76.46
372.792	152.23
373.003	55.98
373.214	111.27
373.424	64.17
373.635	41.64
373.846	15.02
374.056	58.03
374.267	53.93
374.477	109.22
374.688	41.64
374.898	55.98
375.109	84.65
375.319	164.52
375.53	84.65
375.74	146.09
375.951	68.27
376.161	94.89
376.372	144.04
376.582	58.03
376.793	92.84
377.003	2.73
377.214	70.31
377.424	72.36
377.635	115.37
377.845	47.79
378.055	98.99
378.266	70.31
378.476	66.22
378.686	41.64
378.897	107.18
379.107	92.84
379.317	58.03
379.528	123.56
379.738	131.75
379.948	-32.08
380.158	127.66
380.369	49.83
380.579	141.99
380.789	10.92
380.999	60.07
381.21	49.83
381.42	146.09
381.63	6.83
381.84	66.22
382.05	60.07
382.261	49.83
382.471	0.68
382.681	55.98
382.891	96.94
383.101	90.79
383.311	2.73
383.521	49.83
383.731	189.1
383.941	105.13
384.151	168.62
384.361	74.41
384.571	70.31
384.781	41.64
384.991	127.66
385.201	144.04
385.411	58.03
385.621	123.56
385.831	17.07
386.041	98.99
386.251	27.31
386.461	154.28
386.671	41.64
386.881	76.46
387.091	72.36
387.301	172.71
387.511	49.83
387.72	62.12
387.93	64.17
388.14	60.07
388.35	172.71
388.56	86.7
388.769	94.89
388.979	103.08
389.189	90.79
389.399	76.46
389.609	68.27
389.818	123.56
390.028	80.55
390.238	107.18
390.447	127.66
390.657	94.89
390.867	25.26
391.076	19.11
391.286	98.99
391.496	88.75
391.705	2.73
391.915	74.41
392.125	70.31
392.334	80.55
392.544	123.56
392.753	58.03
392.963	58.03
393.172	139.94
393.382	76.46
393.591	166.57
393.801	33.45
394.01	103.08
394.22	47.79
394.429	148.14
394.639	86.7
394.848	60.07
395.058	129.7
395.267	141.99
395.477	90.79
395.686	164.52
395.895	72.36
396.105	168.62
396.314	152.23
396.524	98.99
396.733	119.46
396.942	139.94
397.152	195.24
397.361	195.24
397.57	164.52
397.78	45.74
397.989	92.84
398.198	197.29
398.407	115.37
398.617	158.38
398.826	189.1
399.035	150.18
399.244	115.37
399.453	166.57
399.663	160.42
399.872	164.52
400.081	76.46
400.29	164.52
400.499	82.6
400.708	162.47
400.917	182.95
401.127	205.48
401.336	215.72
401.545	225.96
401.754	189.1
401.963	207.53
402.172	144.04
402.381	182.95
402.59	178.86
402.799	166.57
403.008	139.94
403.217	123.56
403.426	141.99
403.635	174.76
403.844	123.56
404.053	111.27
404.262	98.99
404.471	258.73
404.68	187.05
404.888	148.14
405.097	178.86
405.306	172.71
405.515	193.19
405.724	232.1
405.933	271.01
406.142	156.33
406.35	197.29
406.559	201.38
406.768	131.75
406.977	279.21
407.185	258.73
407.394	209.58
407.603	236.2
407.812	207.53
408.02	250.53
408.229	361.13
408.438	322.21
408.646	326.31
408.855	279.21
409.064	385.7
409.272	357.03
409.481	328.36
409.69	322.21
409.898	369.32
410.107	350.89
410.315	426.66
410.524	434.85
410.733	383.65
410.941	381.6
411.15	430.76
411.358	510.63
411.567	524.96
411.775	418.47
411.984	508.58
412.192	574.11
412.401	565.92
412.609	584.35
412.818	576.16
413.026	604.83
413.234	576.16
413.443	647.84
413.651	680.61
413.86	694.94
414.068	766.62
414.276	744.1
414.485	780.96
414.693	811.68
414.901	795.29
415.11	873.12
415.318	950.94
415.526	869.02
415.734	979.61
415.943	852.64
416.151	1010.33
416.359	971.42
416.567	1077.91
416.776	1014.43
416.984	1200.79
417.192	1204.89
417.4	1196.7
417.608	1153.69
417.817	1254.04
418.025	1340.05
418.233	1446.55
418.441	1329.81
418.649	1415.83
418.857	1577.62
419.065	1546.9
419.273	1614.48
419.481	1548.95
419.689	1729.17
419.897	1827.47
420.105	1821.33
420.313	1890.96
420.521	2028.17
420.729	2036.36
420.937	1970.83
421.145	2099.85
421.353	2286.22
421.561	2298.5
421.769	2419.33
421.977	2458.25
422.185	2499.2
422.393	2683.52
422.601	2761.34
422.809	2720.39
423.017	2781.82
423.224	2837.12
423.432	3003
423.64	3070.59
423.848	3261.05
424.056	3158.65
424.263	3412.6
424.471	3492.47
424.679	3564.15
424.887	3822.19
425.094	3920.49
425.302	3826.29
425.51	4055.66
425.718	3959.41
425.925	4123.24
426.133	4303.47
426.341	4596.32
426.548	4663.91
426.756	4754.02
426.964	4788.83
427.171	5128.8
427.379	5139.04
427.586	5247.58
427.794	5450.33
428.001	5735
428.209	5882.45
428.417	5749.33
428.624	6148.68
428.832	6091.34
429.039	6251.08
429.247	6185.55
429.454	6679.11
429.662	7156.29
429.869	6695.49
430.076	7127.61
430.284	7123.52
430.491	7365.18
430.699	7696.95
430.906	7815.73
431.114	7922.23
431.321	7995.95
431.528	8401.45
431.736	8727.08
431.943	9136.67
432.15	8868.39
432.358	9028.13
432.565	9468.44
432.772	9587.22
432.979	9861.65
433.187	10068.5
433.394	10349.07
433.601	10865.16
433.808	10955.27
434.016	10850.82
434.223	11293.18
434.43	11839.99
434.637	11788.79
434.844	12724.71
435.052	12485.1
435.259	12677.61
435.466	12804.58
435.673	12567.02
435.88	13541.85
436.087	14105.04
436.294	14010.84
436.501	13898.2
436.708	14143.95
436.915	14498.25
437.122	15354.3
437.329	15088.07
437.537	15598.01
437.743	15983.03
437.95	15534.53
438.157	16634.28
438.364	17142.18
438.571	17203.62
438.778	17068.45
438.985	18864.52
439.192	17795.48
439.399	18530.7
439.606	18131.35
439.813	19292.55
440.02	20408.69
440.227	20138.36
440.433	19644.8
440.64	20568.43
440.847	20369.78
441.054	20793.71
441.261	22167.9
441.467	22020.44
441.674	22270.29
441.881	22722.9
442.088	22937.93
442.294	22962.51
442.501	23478.6
442.708	23998.78
442.914	25000.24
443.121	25952.54
443.328	24949.04
443.534	27150.6
443.741	26040.61
443.948	25751.84
444.154	27535.62
444.361	27599.11
444.568	27883.78
444.774	27721.99
444.981	27658.5
445.187	28780.79
445.394	30011.62
445.6	29692.13
445.807	32395.45
446.013	30793.94
446.22	31754.44
446.426	32663.74
446.633	33257.65
446.839	34263.2
447.046	32827.57
447.252	34429.09
447.459	34723.99
447.665	34592.92
447.871	35715.21
448.078	37453.94
448.284	35870.86
448.491	36886.65
448.697	38060.13
448.903	38479.97
449.11	39041.11
449.316	38250.6
449.522	38848.6
449.728	39807.05
449.935	39981.13
450.141	39936.07
450.347	41474.1
450.553	39848.01
450.76	40136.77
450.966	41730.09
451.172	41363.51
451.378	42082.34
451.584	41592.88
451.791	42237.99
451.997	42274.85
452.203	42879
452.409	42698.78
452.615	42706.97
452.821	40984.63
453.027	40392.77
453.233	43276.31
453.44	41314.36
453.646	41467.95
453.852	42121.26
454.058	42504.23
454.264	41218.1
454.47	42119.21
454.676	41068.6
454.882	42790.94
455.088	38946.9
455.294	39391.31
455.5	40271.94
455.705	40595.52
455.911	38643.81
456.117	38197.35
456.323	37787.75
456.529	35565.71
456.735	37136.5
456.941	36444.29
457.147	35735.69
457.352	34949.27
457.558	34289.82
457.764	34447.52
457.97	33700.01
458.176	33185.97
458.381	33169.58
458.587	31279.31
458.793	31459.53
458.999	29974.75
459.204	31660.23
459.41	30646.49
459.616	28889.33
459.821	29229.29
460.027	29108.46
460.233	28477.69
460.438	27283.72
460.644	27578.63
460.85	26388.76
461.055	25760.03
461.261	25631.01
461.466	24006.97
461.672	23216.46
461.878	24654.13
462.083	23210.31
462.289	22712.66
462.494	22661.46
462.7	21449.06
462.905	20793.71
463.111	21723.49
463.316	21766.49
463.522	21303.65
463.727	21270.89
463.932	21295.46
464.138	21082.47
464.343	21139.82
464.549	20590.96
464.754	21121.38
464.959	21076.33
465.165	20988.27
465.37	19661.18
465.575	19466.63
465.781	20214.13
465.986	20416.88
466.191	19415.43
466.397	19208.58
466.602	18131.35
466.807	19052.94
467.012	19069.32
