Data from USB4F104151__196__14-20-26-088.txt Node

Date: Thu Mar 13 14:20:26 EDT 2025
User: louis
Spectrometer: USB4F10415
Trigger mode: 4
Integration Time (sec): 2.000000E-2
Scans to average: 1
Electric dark correction enabled: true
Nonlinearity correction enabled: false
Boxcar width: 0
XAxis mode: Wavelengths
Number of Pixels in Spectrum: 3648
>>>>>Begin Spectral Data<<<<<
178.204	-83.11
178.424	-83.11
178.644	-83.11
178.864	-111.78
179.084	-158.89
179.304	27.48
179.524	-13.48
179.744	15.19
179.964	15.19
180.184	-74.92
180.404	19.29
180.624	-11.43
180.844	-42.15
181.064	-27.82
181.283	60.24
181.503	-3.24
181.723	35.67
181.943	-89.26
182.163	29.52
182.383	23.38
182.602	7
182.822	31.57
183.042	-38.06
183.262	-21.67
183.482	-29.87
183.701	-9.39
183.921	58.2
184.141	-1.19
184.361	-5.29
184.58	45.91
184.8	21.33
185.02	-33.96
185.239	39.76
185.459	35.67
185.679	2.9
185.898	66.39
186.118	41.81
186.338	52.05
186.557	11.09
186.777	-7.34
186.997	21.33
187.216	-46.25
187.436	33.62
187.655	17.24
187.875	76.63
188.095	52.05
188.314	45.91
188.534	117.59
188.753	2.9
188.973	-38.06
189.192	84.82
189.412	0.85
189.631	15.19
189.851	4.95
190.07	11.09
190.29	-60.59
190.509	4.95
190.729	52.05
190.948	35.67
191.168	176.98
191.387	74.58
191.607	17.24
191.826	88.92
192.045	-36.01
192.265	-9.39
192.484	19.29
192.704	-3.24
192.923	-5.29
193.142	62.29
193.362	37.72
193.581	15.19
193.8	52.05
194.02	47.96
194.239	-15.53
194.458	-3.24
194.678	-64.68
194.897	-9.39
195.116	31.57
195.335	27.48
195.555	35.67
195.774	-11.43
195.993	37.72
196.212	45.91
196.432	37.72
196.651	2.9
196.87	-5.29
197.089	131.92
197.308	56.15
197.528	-3.24
197.747	-87.21
197.966	9.05
198.185	150.36
198.404	31.57
198.623	72.53
198.842	25.43
199.062	43.86
199.281	43.86
199.5	35.67
199.719	70.48
199.938	95.06
200.157	117.59
200.376	103.25
200.595	54.1
200.814	52.05
201.033	-40.11
201.252	-13.48
201.471	45.91
201.69	74.58
201.909	43.86
202.128	58.2
202.347	70.48
202.566	72.53
202.785	-5.29
203.004	-50.35
203.223	80.72
203.442	33.62
203.661	-3.24
203.879	70.48
204.098	54.1
204.317	2.9
204.536	111.44
204.755	52.05
204.974	-25.77
205.193	-9.39
205.411	54.1
205.63	25.43
205.849	62.29
206.068	0.85
206.287	101.2
206.505	50
206.724	35.67
206.943	-87.21
207.162	7
207.381	56.15
207.599	52.05
207.818	35.67
208.037	19.29
208.255	-48.3
208.474	47.96
208.693	-15.53
208.911	39.76
209.13	2.9
209.349	45.91
209.567	-13.48
209.786	45.91
210.005	19.29
210.223	27.48
210.442	23.38
210.661	37.72
210.879	15.19
211.098	-3.24
211.316	-5.29
211.535	37.72
211.753	-62.63
211.972	-21.67
212.191	4.95
212.409	60.24
212.628	62.29
212.846	-52.39
213.065	68.44
213.283	13.14
213.502	11.09
213.72	43.86
213.938	-23.72
214.157	-3.24
214.375	39.76
214.594	-29.87
214.812	4.95
215.031	19.29
215.249	52.05
215.467	11.09
215.686	-5.29
215.904	56.15
216.122	27.48
216.341	-9.39
216.559	50
216.778	62.29
216.996	27.48
217.214	-9.39
217.432	25.43
217.651	-87.21
217.869	-1.19
218.087	19.29
218.306	35.67
218.524	45.91
218.742	-1.19
218.96	-5.29
219.179	54.1
219.397	68.44
219.615	41.81
219.833	4.95
220.051	15.19
220.27	52.05
220.488	-5.29
220.706	37.72
220.924	-5.29
221.142	66.39
221.36	29.52
221.578	43.86
221.796	-1.19
222.015	27.48
222.233	7
222.451	-1.19
222.669	11.09
222.887	109.4
223.105	-46.25
223.323	19.29
223.541	-52.39
223.759	13.14
223.977	7
224.195	7
224.413	54.1
224.631	19.29
224.849	39.76
225.067	11.09
225.285	17.24
225.503	47.96
225.721	21.33
225.939	35.67
226.157	15.19
226.375	136.02
226.592	-36.01
226.81	19.29
227.028	27.48
227.246	21.33
227.464	58.2
227.682	68.44
227.9	-46.25
228.117	7
228.335	21.33
228.553	43.86
228.771	-7.34
228.989	72.53
229.206	37.72
229.424	-58.54
229.642	0.85
229.86	4.95
230.077	62.29
230.295	43.86
230.513	-13.48
230.731	-52.39
230.948	2.9
231.166	86.87
231.384	-60.59
231.601	-5.29
231.819	68.44
232.037	33.62
232.254	-9.39
232.472	25.43
232.689	27.48
232.907	60.24
233.125	-11.43
233.342	2.9
233.56	-31.91
233.777	76.63
233.995	47.96
234.213	45.91
234.43	29.52
234.648	76.63
234.865	33.62
235.083	-42.15
235.3	-13.48
235.518	11.09
235.735	33.62
235.953	-15.53
236.17	2.9
236.388	60.24
236.605	11.09
236.822	66.39
237.04	37.72
237.257	78.68
237.475	-27.82
237.692	29.52
237.909	45.91
238.127	90.96
238.344	-13.48
238.562	-72.87
238.779	2.9
238.996	0.85
239.214	19.29
239.431	25.43
239.648	7
239.865	54.1
240.083	27.48
240.3	21.33
240.517	7
240.735	66.39
240.952	37.72
241.169	2.9
241.386	31.57
241.603	-19.63
241.821	56.15
242.038	-1.19
242.255	-5.29
242.472	-11.43
242.689	27.48
242.907	31.57
243.124	52.05
243.341	35.67
243.558	-25.77
243.775	-27.82
243.992	-66.73
244.209	37.72
244.426	37.72
244.643	31.57
244.86	-11.43
245.078	21.33
245.295	121.68
245.512	-1.19
245.729	2.9
245.946	2.9
246.163	70.48
246.38	13.14
246.597	54.1
246.814	21.33
247.031	47.96
247.248	29.52
247.464	64.34
247.681	-62.63
247.898	11.09
248.115	-17.58
248.332	-76.97
248.549	111.44
248.766	133.97
248.983	-15.53
249.2	2.9
249.417	60.24
249.633	13.14
249.85	31.57
250.067	4.95
250.284	23.38
250.501	47.96
250.717	52.05
250.934	-7.34
251.151	60.24
251.368	21.33
251.585	43.86
251.801	-13.48
252.018	-52.39
252.235	45.91
252.451	-19.63
252.668	29.52
252.885	60.24
253.102	2.9
253.318	-3.24
253.535	2.9
253.752	2.9
253.968	-19.63
254.185	21.33
254.401	4.95
254.618	-29.87
254.835	-21.67
255.051	35.67
255.268	68.44
255.484	35.67
255.701	52.05
255.917	31.57
256.134	31.57
256.351	33.62
256.567	-25.77
256.784	41.81
257	27.48
257.217	123.73
257.433	-13.48
257.65	60.24
257.866	52.05
258.082	39.76
258.299	-3.24
258.515	101.2
258.732	2.9
258.948	43.86
259.165	-9.39
259.381	21.33
259.597	39.76
259.814	27.48
260.03	45.91
260.246	47.96
260.463	56.15
260.679	15.19
260.895	19.29
261.112	68.44
261.328	60.24
261.544	88.92
261.761	95.06
261.977	68.44
262.193	0.85
262.409	37.72
262.626	-25.77
262.842	45.91
263.058	7
263.274	-9.39
263.49	19.29
263.707	11.09
263.923	-3.24
264.139	-44.2
264.355	117.59
264.571	43.86
264.787	11.09
265.004	80.72
265.22	-5.29
265.436	27.48
265.652	66.39
265.868	-33.96
266.084	29.52
266.3	93.01
266.516	-9.39
266.732	84.82
266.948	21.33
267.164	25.43
267.38	70.48
267.596	29.52
267.812	45.91
268.028	4.95
268.244	-17.58
268.46	-5.29
268.676	-11.43
268.892	-42.15
269.108	-11.43
269.324	-7.34
269.54	11.09
269.756	11.09
269.972	11.09
270.188	11.09
270.403	43.86
270.619	39.76
270.835	27.48
271.051	11.09
271.267	25.43
271.483	-13.48
271.698	39.76
271.914	21.33
272.13	4.95
272.346	11.09
272.562	54.1
272.777	52.05
272.993	2.9
273.209	-15.53
273.425	29.52
273.64	-27.82
273.856	50
274.072	-33.96
274.287	7
274.503	52.05
274.719	9.05
274.934	4.95
275.15	-9.39
275.366	15.19
275.581	-13.48
275.797	80.72
276.012	37.72
276.228	-21.67
276.444	-5.29
276.659	27.48
276.875	-42.15
277.09	-38.06
277.306	-21.67
277.521	86.87
277.737	-11.43
277.952	-11.43
278.168	45.91
278.383	68.44
278.599	21.33
278.814	7
279.03	88.92
279.245	39.76
279.461	-54.44
279.676	27.48
279.892	35.67
280.107	-9.39
280.322	-15.53
280.538	23.38
280.753	45.91
280.969	43.86
281.184	70.48
281.399	35.67
281.615	86.87
281.83	-29.87
282.045	21.33
282.26	-103.59
282.476	105.3
282.691	31.57
282.906	70.48
283.122	39.76
283.337	-48.3
283.552	29.52
283.767	103.25
283.983	54.1
284.198	39.76
284.413	11.09
284.628	39.76
284.843	29.52
285.058	-19.63
285.274	88.92
285.489	29.52
285.704	-19.63
285.919	4.95
286.134	64.34
286.349	-5.29
286.564	68.44
286.779	-38.06
286.995	-27.82
287.21	4.95
287.425	19.29
287.64	13.14
287.855	117.59
288.07	2.9
288.285	133.97
288.5	-29.87
288.715	58.2
288.93	11.09
289.145	-5.29
289.36	29.52
289.575	-5.29
289.79	66.39
290.004	11.09
290.219	68.44
290.434	11.09
290.649	27.48
290.864	-3.24
291.079	2.9
291.294	43.86
291.509	-52.39
291.724	25.43
291.938	-38.06
292.153	74.58
292.368	-54.44
292.583	93.01
292.798	43.86
293.012	-1.19
293.227	76.63
293.442	-7.34
293.657	68.44
293.871	64.34
294.086	39.76
294.301	50
294.516	86.87
294.73	105.3
294.945	29.52
295.16	60.24
295.374	2.9
295.589	56.15
295.804	50
296.018	21.33
296.233	111.44
296.447	27.48
296.662	11.09
296.877	39.76
297.091	11.09
297.306	33.62
297.52	-54.44
297.735	19.29
297.949	-54.44
298.164	11.09
298.378	27.48
298.593	7
298.807	-9.39
299.022	29.52
299.236	19.29
299.451	60.24
299.665	-40.11
299.88	-21.67
300.094	52.05
300.309	-9.39
300.523	7
300.737	-1.19
300.952	39.76
301.166	35.67
301.381	-19.63
301.595	2.9
301.809	-3.24
302.024	11.09
302.238	-36.01
302.452	35.67
302.667	-36.01
302.881	13.14
303.095	60.24
303.309	11.09
303.524	78.68
303.738	27.48
303.952	-97.45
304.166	-13.48
304.381	-25.77
304.595	27.48
304.809	-29.87
305.023	52.05
305.237	7
305.452	93.01
305.666	11.09
305.88	31.57
306.094	19.29
306.308	80.72
306.522	15.19
306.736	72.53
306.95	39.76
307.164	31.57
307.379	-36.01
307.593	-1.19
307.807	45.91
308.021	95.06
308.235	21.33
308.449	27.48
308.663	-52.39
308.877	62.29
309.091	23.38
309.305	0.85
309.519	-21.67
309.733	64.34
309.947	-33.96
310.161	-5.29
310.374	-29.87
310.588	56.15
310.802	-21.67
311.016	39.76
311.23	47.96
311.444	23.38
311.658	68.44
311.872	68.44
312.085	84.82
312.299	86.87
312.513	78.68
312.727	43.86
312.941	-21.67
313.154	-13.48
313.368	70.48
313.582	41.81
313.796	-21.67
314.009	7
314.223	84.82
314.437	68.44
314.651	80.72
314.864	47.96
315.078	17.24
315.292	19.29
315.505	-23.72
315.719	50
315.933	52.05
316.146	68.44
316.36	-1.19
316.573	60.24
316.787	-1.19
317.001	68.44
317.214	9.05
317.428	35.67
317.641	13.14
317.855	84.82
318.068	13.14
318.282	133.97
318.495	52.05
318.709	60.24
318.922	68.44
319.136	27.48
319.349	47.96
319.563	19.29
319.776	50
319.99	-70.83
320.203	-13.48
320.417	33.62
320.63	41.81
320.843	52.05
321.057	31.57
321.27	-15.53
321.483	-11.43
321.697	56.15
321.91	7
322.124	76.63
322.337	58.2
322.55	2.9
322.763	62.29
322.977	7
323.19	68.44
323.403	45.91
323.617	-29.87
323.83	7
324.043	29.52
324.256	-62.63
324.469	35.67
324.683	-5.29
324.896	-13.48
325.109	76.63
325.322	-5.29
325.535	60.24
325.748	-17.58
325.962	-60.59
326.175	43.86
326.388	-70.83
326.601	0.85
326.814	-40.11
327.027	-58.54
327.24	21.33
327.453	-56.49
327.666	82.77
327.879	0.85
328.092	2.9
328.305	-11.43
328.518	-17.58
328.731	19.29
328.944	66.39
329.157	19.29
329.37	35.67
329.583	68.44
329.796	45.91
330.009	88.92
330.222	60.24
330.435	-25.77
330.648	2.9
330.861	15.19
331.073	64.34
331.286	43.86
331.499	84.82
331.712	-38.06
331.925	41.81
332.138	31.57
332.35	56.15
332.563	41.81
332.776	25.43
332.989	37.72
333.202	37.72
333.414	54.1
333.627	-33.96
333.84	-5.29
334.053	68.44
334.265	52.05
334.478	2.9
334.691	29.52
334.903	97.11
335.116	47.96
335.329	29.52
335.541	66.39
335.754	-27.82
335.966	-21.67
336.179	54.1
336.392	-7.34
336.604	17.24
336.817	70.48
337.029	21.33
337.242	119.64
337.454	35.67
337.667	76.63
337.88	31.57
338.092	58.2
338.305	27.48
338.517	31.57
338.729	58.2
338.942	17.24
339.154	76.63
339.367	-29.87
339.579	23.38
339.792	-27.82
340.004	97.11
340.217	11.09
340.429	70.48
340.641	76.63
340.854	11.09
341.066	84.82
341.278	109.4
341.491	74.58
341.703	50
341.915	-31.91
342.128	76.63
342.34	60.24
342.552	13.14
342.764	60.24
342.977	43.86
343.189	76.63
343.401	54.1
343.613	43.86
343.826	68.44
344.038	52.05
344.25	29.52
344.462	23.38
344.674	7
344.886	45.91
345.099	72.53
345.311	-5.29
345.523	37.72
345.735	37.72
345.947	66.39
346.159	31.57
346.371	43.86
346.583	39.76
346.795	70.48
347.007	-9.39
347.219	23.38
347.431	17.24
347.643	76.63
347.855	62.29
348.067	58.2
348.279	17.24
348.491	37.72
348.703	-23.72
348.915	35.67
349.127	-25.77
349.339	60.24
349.551	-9.39
349.763	54.1
349.975	25.43
350.187	9.05
350.399	54.1
350.61	21.33
350.822	-33.96
351.034	37.72
351.246	-9.39
351.458	56.15
351.669	2.9
351.881	62.29
352.093	33.62
352.305	13.14
352.517	21.33
352.728	62.29
352.94	27.48
353.152	62.29
353.363	11.09
353.575	4.95
353.787	43.86
353.999	146.26
354.21	80.72
354.422	-19.63
354.633	78.68
354.845	21.33
355.057	90.96
355.268	11.09
355.48	93.01
355.692	60.24
355.903	-15.53
356.115	97.11
356.326	-33.96
356.538	50
356.749	11.09
356.961	66.39
357.172	76.63
357.384	62.29
357.595	111.44
357.807	-11.43
358.018	-3.24
358.23	15.19
358.441	62.29
358.653	11.09
358.864	68.44
359.075	35.67
359.287	21.33
359.498	-13.48
359.709	64.34
359.921	76.63
360.132	11.09
360.344	11.09
360.555	-7.34
360.766	80.72
360.977	4.95
361.189	-3.24
361.4	60.24
361.611	43.86
361.823	52.05
362.034	60.24
362.245	-29.87
362.456	52.05
362.667	23.38
362.879	-38.06
363.09	27.48
363.301	21.33
363.512	9.05
363.723	-5.29
363.935	47.96
364.146	82.77
364.357	39.76
364.568	60.24
364.779	43.86
364.99	103.25
365.201	47.96
365.412	19.29
365.623	93.01
365.834	60.24
366.045	64.34
366.256	80.72
366.467	45.91
366.678	-1.19
366.889	39.76
367.1	-9.39
367.311	58.2
367.522	7
367.733	64.34
367.944	80.72
368.155	-76.97
368.366	97.11
368.577	54.1
368.788	35.67
368.999	54.1
369.209	-21.67
369.42	60.24
369.631	88.92
369.842	0.85
370.053	-52.39
370.264	80.72
370.474	4.95
370.685	43.86
370.896	35.67
371.107	90.96
371.317	56.15
371.528	41.81
371.739	93.01
371.95	25.43
372.16	23.38
372.371	-13.48
372.582	-29.87
372.792	-3.24
373.003	78.68
373.214	103.25
373.424	31.57
373.635	7
373.846	-3.24
374.056	60.24
374.267	84.82
374.477	52.05
374.688	35.67
374.898	133.97
375.109	13.14
375.319	11.09
375.53	54.1
375.74	11.09
375.951	68.44
376.161	37.72
376.372	31.57
376.582	56.15
376.793	125.78
377.003	-11.43
377.214	60.24
377.424	76.63
377.635	50
377.845	35.67
378.055	72.53
378.266	-38.06
378.476	82.77
378.686	17.24
378.897	4.95
379.107	56.15
379.317	13.14
379.528	-11.43
379.738	23.38
379.948	-13.48
380.158	7
380.369	60.24
380.579	35.67
380.789	-13.48
380.999	7
381.21	54.1
381.42	121.68
381.63	80.72
381.84	47.96
382.05	68.44
382.261	76.63
382.471	37.72
382.681	43.86
382.891	56.15
383.101	68.44
383.311	35.67
383.521	103.25
383.731	60.24
383.941	27.48
384.151	82.77
384.361	62.29
384.571	43.86
384.781	31.57
384.991	125.78
385.201	70.48
385.411	35.67
385.621	144.21
385.831	68.44
386.041	60.24
386.251	76.63
386.461	113.49
386.671	117.59
386.881	4.95
387.091	-44.2
387.301	68.44
387.511	2.9
387.72	101.2
387.93	41.81
388.14	37.72
388.35	47.96
388.56	27.48
388.769	-7.34
388.979	43.86
389.189	78.68
389.399	54.1
389.609	54.1
389.818	64.34
390.028	52.05
390.238	80.72
390.447	19.29
390.657	35.67
390.867	27.48
391.076	68.44
391.286	97.11
391.496	54.1
391.705	-19.63
391.915	29.52
392.125	123.73
392.334	11.09
392.544	-3.24
392.753	35.67
392.963	54.1
393.172	19.29
393.382	31.57
393.591	82.77
393.801	19.29
394.01	62.29
394.22	90.96
394.429	47.96
394.639	125.78
394.848	52.05
395.058	-15.53
395.267	86.87
395.477	33.62
395.686	43.86
395.895	174.93
396.105	119.64
396.314	148.31
396.524	105.3
396.733	119.64
396.942	93.01
397.152	109.4
397.361	37.72
397.57	93.01
397.78	60.24
397.989	105.3
398.198	144.21
398.407	62.29
398.617	123.73
398.826	101.2
399.035	111.44
399.244	119.64
399.453	43.86
399.663	76.63
399.872	203.6
400.081	88.92
400.29	119.64
400.499	101.2
400.708	78.68
400.917	39.76
401.127	176.98
401.336	-3.24
401.545	152.4
401.754	97.11
401.963	119.64
402.172	107.35
402.381	121.68
402.59	82.77
402.799	174.93
403.008	127.83
403.217	80.72
403.426	168.79
403.635	80.72
403.844	84.82
404.053	93.01
404.262	142.16
404.471	162.64
404.68	203.6
404.888	195.41
405.097	93.01
405.306	162.64
405.515	140.12
405.724	103.25
405.933	170.83
406.142	144.21
406.35	179.03
406.559	156.5
406.768	252.75
406.977	254.8
407.185	197.46
407.394	166.74
407.603	166.74
407.812	215.89
408.02	349.01
408.229	142.16
408.438	195.41
408.646	199.51
408.855	254.8
409.064	236.37
409.272	203.6
409.481	242.51
409.69	262.99
409.898	310.1
410.107	334.67
410.315	248.66
410.524	355.15
410.733	365.39
410.941	373.58
411.15	371.54
411.358	334.67
411.567	385.87
411.775	365.39
411.984	420.69
412.192	463.69
412.401	383.82
412.609	529.23
412.818	432.97
413.026	502.61
413.234	441.17
413.443	531.28
413.651	578.38
413.86	609.1
414.068	631.63
414.276	600.91
414.485	502.61
414.693	607.05
414.901	734.03
415.11	699.21
415.318	668.49
415.526	805.71
415.734	793.42
415.943	760.65
416.151	863.05
416.359	830.28
416.567	815.94
416.776	838.47
416.984	971.59
417.192	867.14
417.4	1051.46
417.608	955.21
417.817	1028.93
418.025	1053.51
418.233	1176.39
418.441	1141.57
418.649	1139.52
418.857	1211.2
419.065	1190.72
419.273	1164.1
419.481	1338.18
419.689	1397.57
419.897	1473.34
420.105	1362.75
420.313	1583.93
420.521	1524.54
420.729	1534.78
420.937	1641.28
421.145	1684.28
421.353	1837.88
421.561	1864.5
421.769	1985.34
421.977	2028.34
422.185	1989.43
422.393	2087.73
422.601	2177.84
422.809	2263.86
423.017	2280.24
423.224	2366.26
423.432	2478.9
423.64	2476.85
423.848	2669.36
424.056	2738.99
424.263	2747.18
424.471	2757.42
424.679	2822.95
424.887	3035.94
425.094	3126.05
425.302	3175.2
425.51	3232.55
425.718	3312.42
425.925	3543.84
426.133	3423.01
426.341	3687.2
426.548	3795.74
426.756	3816.22
426.964	3951.39
427.171	4041.5
427.379	4195.09
427.586	4184.85
427.794	4471.57
428.001	4719.37
428.209	4848.4
428.417	4936.46
428.624	5114.63
428.832	5073.67
429.039	4999.95
429.247	4930.31
429.454	5520.13
429.662	6054.65
429.869	5559.04
430.076	5876.48
430.284	5688.06
430.491	5827.32
430.699	6269.69
430.906	6355.7
431.114	6474.48
431.321	6603.5
431.528	6843.12
431.736	7097.07
431.943	7490.28
432.15	7193.32
432.358	7295.72
432.565	7746.27
432.772	7619.3
432.979	8037.08
433.187	8311.51
433.394	8291.03
433.601	8678.1
433.808	8975.05
434.016	8809.17
434.223	9210.57
434.43	9568.96
434.637	9726.66
434.844	10218.17
435.052	10273.46
435.259	10214.07
435.466	10572.47
435.673	10295.99
435.88	11164.33
436.087	11803.3
436.294	11467.43
436.501	11131.56
436.708	11416.23
436.915	12028.57
437.122	12401.3
437.329	12257.95
437.537	12851.86
437.743	12921.49
437.95	12794.51
438.157	13568.65
438.364	13904.51
438.571	13875.84
438.778	13738.63
438.985	15262.32
439.192	14621.3
439.399	15022.7
439.606	14690.93
439.813	15655.53
440.02	16462.43
440.227	16206.43
440.433	16065.12
440.64	16745.05
440.847	16525.91
441.054	17078.86
441.261	17977.92
441.467	17873.48
441.674	18418.24
441.881	18750.01
442.088	18752.06
442.294	18657.85
442.501	18995.76
442.708	19452.46
442.914	20474.4
443.121	21244.43
443.328	20541.98
443.534	21840.39
443.741	21293.58
443.948	20793.88
444.154	22645.24
444.361	22499.84
444.568	22436.35
444.774	22751.74
444.981	22669.82
445.187	23298.55
445.394	24326.63
445.6	24068.58
445.807	26536.38
446.013	25233.88
446.22	25897.42
446.426	26880.44
446.633	26870.2
446.839	28006.83
447.046	26505.66
447.252	28154.28
447.459	28475.81
447.665	28027.31
447.871	29331.86
448.078	30517.64
448.284	29260.18
448.491	30134.67
448.697	31187.32
448.903	31603.06
449.11	31791.47
449.316	31043.96
449.522	31805.81
449.728	32913.76
449.935	32717.15
450.141	32981.34
450.347	33700.18
450.553	32524.65
450.76	33204.57
450.966	34148.68
451.172	33669.46
451.378	34371.91
451.584	33782.1
451.791	34726.21
451.997	34793.79
452.203	34957.63
452.409	35240.25
452.615	35137.85
452.821	33759.57
453.027	33300.83
453.233	34943.3
453.44	33691.99
453.646	33958.22
453.852	34318.67
454.058	35027.26
454.264	33683.8
454.47	34515.27
454.676	33575.25
454.882	35066.17
455.088	31617.39
455.294	32340.33
455.5	32702.82
455.705	33145.18
455.911	31820.14
456.117	30962.04
456.323	30634.37
456.529	29274.52
456.735	30505.35
456.941	29295
457.147	29557.14
457.352	28314.02
457.558	28281.25
457.764	28258.73
457.97	27619.76
458.176	26905.02
458.381	27066.81
458.587	25657.81
458.793	25498.06
458.999	24302.05
459.204	26208.71
459.41	25264.6
459.616	23810.54
459.821	23681.52
460.027	23702
460.233	23130.61
460.438	21756.43
460.644	22274.56
460.85	21535.24
461.055	21328.4
461.261	20621.85
461.466	19372.59
461.672	18680.38
461.878	20070.95
462.083	18672.18
462.289	18473.53
462.494	18412.09
462.7	17414.73
462.905	16894.55
463.111	17619.53
463.316	17558.09
463.522	17373.77
463.727	17136.21
463.932	17261.13
464.138	16878.16
464.343	16949.84
464.549	16454.23
464.754	17128.02
464.959	17074.77
465.165	16923.22
465.37	16157.28
465.575	15743.59
465.781	16628.31
465.986	16493.15
466.191	15796.84
466.397	15649.38
466.602	15078
466.807	15495.78
467.012	15415.91
467.218	15315.56
467.423	15014.51
467.628	15096.43
467.833	15856.23
468.038	15108.72
468.244	14914.16
468.449	15297.13
468.654	14809.72
