Data from USB4F104151__129__14-19-01-738.txt Node

Date: Thu Mar 13 14:19:01 EDT 2025
User: louis
Spectrometer: USB4F10415
Trigger mode: 4
Integration Time (sec): 2.000000E-2
Scans to average: 1
Electric dark correction enabled: true
Nonlinearity correction enabled: false
Boxcar width: 0
XAxis mode: Wavelengths
Number of Pixels in Spectrum: 3648
>>>>>Begin Spectral Data<<<<<
178.204	-108.88
178.424	-108.88
178.644	-108.88
178.864	-65.88
179.084	-57.68
179.304	3.75
179.524	-0.34
179.744	-18.77
179.964	54.95
180.184	-26.96
180.404	52.91
180.624	3.75
180.844	54.95
181.064	-65.88
181.283	24.23
181.503	-57.68
181.723	-24.92
181.943	-76.12
182.163	-6.49
182.383	-57.68
182.602	120.49
182.822	59.05
183.042	38.57
183.262	54.95
183.482	69.29
183.701	24.23
183.921	20.14
184.141	11.95
184.361	40.62
184.58	-8.53
184.8	-10.58
185.02	57
185.239	30.38
185.459	65.19
185.679	38.57
185.898	26.28
186.118	61.1
186.338	-18.77
186.557	13.99
186.777	24.23
186.997	65.19
187.216	-16.73
187.436	-10.58
187.655	52.91
187.875	65.19
188.095	24.23
188.314	-10.58
188.534	63.15
188.753	13.99
188.973	40.62
189.192	73.39
189.412	11.95
189.631	36.52
189.851	18.09
190.07	110.25
190.29	13.99
190.509	-4.44
190.729	13.99
190.948	40.62
191.168	143.02
191.387	22.19
191.607	54.95
191.826	61.1
192.045	-37.2
192.265	-0.34
192.484	97.96
192.704	22.19
192.923	28.33
193.142	57
193.362	7.85
193.581	79.53
193.8	104.11
194.02	36.52
194.239	20.14
194.458	69.29
194.678	3.75
194.897	46.76
195.116	54.95
195.335	-6.49
195.555	48.81
195.774	-2.39
195.993	22.19
196.212	-2.39
196.432	-0.34
196.651	26.28
196.87	69.29
197.089	65.19
197.308	24.23
197.528	5.8
197.747	-69.97
197.966	5.8
198.185	11.95
198.404	3.75
198.623	5.8
198.842	57
199.062	-47.44
199.281	52.91
199.5	40.62
199.719	147.11
199.938	54.95
200.157	-4.44
200.376	13.99
200.595	73.39
200.814	32.43
201.033	40.62
201.252	79.53
201.471	36.52
201.69	79.53
201.909	36.52
202.128	79.53
202.347	22.19
202.566	44.71
202.785	-29.01
203.004	59.05
203.223	69.29
203.442	44.71
203.661	-59.73
203.879	24.23
204.098	77.48
204.317	-0.34
204.536	3.75
204.755	28.33
204.974	11.95
205.193	34.47
205.411	73.39
205.63	26.28
205.849	-47.44
206.068	11.95
206.287	-20.82
206.505	54.95
206.724	13.99
206.943	-4.44
207.162	-33.11
207.381	-0.34
207.599	13.99
207.818	-6.49
208.037	-22.87
208.255	7.85
208.474	-51.54
208.693	24.23
208.911	69.29
209.13	3.75
209.349	83.63
209.567	-8.53
209.786	-43.35
210.005	1.71
210.223	40.62
210.442	-69.97
210.661	36.52
210.879	75.43
211.098	-20.82
211.316	46.76
211.535	30.38
211.753	7.85
211.972	61.1
212.191	-8.53
212.409	-29.01
212.628	11.95
212.846	57
213.065	71.34
213.283	32.43
213.502	22.19
213.72	-18.77
213.938	24.23
214.157	20.14
214.375	52.91
214.594	54.95
214.812	85.67
215.031	106.15
215.249	61.1
215.467	69.29
215.686	18.09
215.904	16.04
216.122	34.47
216.341	-12.63
216.559	-8.53
216.778	57
216.996	-4.44
217.214	83.63
217.432	7.85
217.651	34.47
217.869	46.76
218.087	38.57
218.306	28.33
218.524	13.99
218.742	-76.12
218.96	97.96
219.179	26.28
219.397	3.75
219.615	11.95
219.833	24.23
220.051	3.75
220.27	32.43
220.488	44.71
220.706	32.43
220.924	52.91
221.142	7.85
221.36	34.47
221.578	36.52
221.796	-29.01
222.015	22.19
222.233	11.95
222.451	30.38
222.669	95.91
222.887	65.19
223.105	7.85
223.323	-10.58
223.541	26.28
223.759	-35.16
223.977	11.95
224.195	71.34
224.413	36.52
224.631	81.58
224.849	59.05
225.067	44.71
225.285	7.85
225.503	77.48
225.721	-45.4
225.939	-10.58
226.157	61.1
226.375	97.96
226.592	11.95
226.81	32.43
227.028	11.95
227.246	16.04
227.464	5.8
227.682	81.58
227.9	-51.54
228.117	22.19
228.335	61.1
228.553	44.71
228.771	81.58
228.989	36.52
229.206	36.52
229.424	54.95
229.642	38.57
229.86	-29.01
230.077	-6.49
230.295	13.99
230.513	54.95
230.731	48.81
230.948	67.24
231.166	13.99
231.384	40.62
231.601	20.14
231.819	81.58
232.037	26.28
232.254	-78.16
232.472	5.8
232.689	71.34
232.907	20.14
233.125	-37.2
233.342	1.71
233.56	-35.16
233.777	61.1
233.995	106.15
234.213	57
234.43	22.19
234.648	34.47
234.865	11.95
235.083	-8.53
235.3	9.9
235.518	-12.63
235.735	22.19
235.953	87.72
236.17	48.81
236.388	-26.96
236.605	-31.06
236.822	42.67
237.04	83.63
237.257	65.19
237.475	22.19
237.692	69.29
237.909	57
238.127	-78.16
238.344	3.75
238.562	81.58
238.779	3.75
238.996	-51.54
239.214	22.19
239.431	3.75
239.648	63.15
239.865	95.91
240.083	79.53
240.3	-45.4
240.517	20.14
240.735	20.14
240.952	7.85
241.169	3.75
241.386	-0.34
241.603	44.71
241.821	5.8
242.038	30.38
242.255	48.81
242.472	-43.35
242.689	54.95
242.907	61.1
243.124	-20.82
243.341	-10.58
243.558	-67.92
243.775	-29.01
243.992	1.71
244.209	46.76
244.426	81.58
244.643	48.81
244.86	42.67
245.078	63.15
245.295	-8.53
245.512	22.19
245.729	-2.39
245.946	69.29
246.163	30.38
246.38	-2.39
246.597	40.62
246.814	-0.34
247.031	32.43
247.248	-35.16
247.464	-43.35
247.681	38.57
247.898	30.38
248.115	32.43
248.332	-10.58
248.549	11.95
248.766	40.62
248.983	-26.96
249.2	3.75
249.417	52.91
249.633	-8.53
249.85	-18.77
250.067	32.43
250.284	40.62
250.501	-22.87
250.717	11.95
250.934	-20.82
251.151	20.14
251.368	69.29
251.585	13.99
251.801	-47.44
252.018	-4.44
252.235	18.09
252.451	3.75
252.668	48.81
252.885	112.3
253.102	20.14
253.318	75.43
253.535	-12.63
253.752	44.71
253.968	13.99
254.185	-0.34
254.401	38.57
254.618	46.76
254.835	3.75
255.051	52.91
255.268	-12.63
255.484	1.71
255.701	52.91
255.917	87.72
256.134	57
256.351	69.29
256.567	-14.68
256.784	79.53
257	-0.34
257.217	7.85
257.433	32.43
257.65	-2.39
257.866	48.81
258.082	63.15
258.299	65.19
258.515	69.29
258.732	-8.53
258.948	46.76
259.165	44.71
259.381	-12.63
259.597	1.71
259.814	44.71
260.03	-2.39
260.246	5.8
260.463	65.19
260.679	36.52
260.895	102.06
261.112	7.85
261.328	11.95
261.544	-57.68
261.761	20.14
261.977	104.11
262.193	-24.92
262.409	71.34
262.626	32.43
262.842	28.33
263.058	46.76
263.274	32.43
263.49	81.58
263.707	59.05
263.923	1.71
264.139	-18.77
264.355	20.14
264.571	30.38
264.787	13.99
265.004	20.14
265.22	59.05
265.436	46.76
265.652	24.23
265.868	95.91
266.084	42.67
266.3	54.95
266.516	20.14
266.732	-4.44
266.948	36.52
267.164	-8.53
267.38	46.76
267.596	22.19
267.812	71.34
268.028	-53.59
268.244	28.33
268.46	73.39
268.676	7.85
268.892	44.71
269.108	-84.31
269.324	16.04
269.54	-20.82
269.756	116.39
269.972	63.15
270.188	-4.44
270.403	-8.53
270.619	5.8
270.835	67.24
271.051	79.53
271.267	-20.82
271.483	-43.35
271.698	44.71
271.914	-4.44
272.13	1.71
272.346	28.33
272.562	20.14
272.777	85.67
272.993	69.29
273.209	5.8
273.425	13.99
273.64	-2.39
273.856	71.34
274.072	40.62
274.287	9.9
274.503	-4.44
274.719	108.2
274.934	-4.44
275.15	-18.77
275.366	20.14
275.581	13.99
275.797	18.09
276.012	-2.39
276.228	5.8
276.444	28.33
276.659	61.1
276.875	30.38
277.09	52.91
277.306	-51.54
277.521	89.77
277.737	52.91
277.952	-16.73
278.168	7.85
278.383	102.06
278.599	28.33
278.814	67.24
279.03	61.1
279.245	59.05
279.461	65.19
279.676	71.34
279.892	-0.34
280.107	61.1
280.322	61.1
280.538	48.81
280.753	40.62
280.969	52.91
281.184	44.71
281.399	13.99
281.615	26.28
281.83	11.95
282.045	20.14
282.26	50.86
282.476	5.8
282.691	40.62
282.906	61.1
283.122	44.71
283.337	-35.16
283.552	20.14
283.767	-4.44
283.983	52.91
284.198	3.75
284.413	30.38
284.628	-57.68
284.843	40.62
285.058	-10.58
285.274	-4.44
285.489	38.57
285.704	7.85
285.919	-78.16
286.134	26.28
286.349	44.71
286.564	44.71
286.779	48.81
286.995	-0.34
287.21	13.99
287.425	87.72
287.64	24.23
287.855	52.91
288.07	-4.44
288.285	11.95
288.5	52.91
288.715	93.87
288.93	-10.58
289.145	-26.96
289.36	73.39
289.575	46.76
289.79	24.23
290.004	22.19
290.219	24.23
290.434	69.29
290.649	63.15
290.864	7.85
291.079	52.91
291.294	97.96
291.509	54.95
291.724	32.43
291.938	52.91
292.153	20.14
292.368	32.43
292.583	20.14
292.798	7.85
293.012	30.38
293.227	-41.3
293.442	24.23
293.657	38.57
293.871	100.01
294.086	22.19
294.301	61.1
294.516	36.52
294.73	71.34
294.945	-20.82
295.16	54.95
295.374	32.43
295.589	54.95
295.804	-29.01
296.018	22.19
296.233	83.63
296.447	-4.44
296.662	22.19
296.877	52.91
297.091	102.06
297.306	18.09
297.52	44.71
297.735	11.95
297.949	22.19
298.164	44.71
298.378	-90.45
298.593	3.75
298.807	30.38
299.022	30.38
299.236	118.44
299.451	-20.82
299.665	11.95
299.88	-35.16
300.094	42.67
300.309	-4.44
300.523	-29.01
300.737	65.19
300.952	77.48
301.166	28.33
301.381	1.71
301.595	-65.88
301.809	67.24
302.024	61.1
302.238	50.86
302.452	110.25
302.667	9.9
302.881	36.52
303.095	65.19
303.309	34.47
303.524	-20.82
303.738	34.47
303.952	97.96
304.166	11.95
304.381	-59.73
304.595	110.25
304.809	-0.34
305.023	61.1
305.237	9.9
305.452	104.11
305.666	57
305.88	54.95
306.094	28.33
306.308	93.87
306.522	-20.82
306.736	11.95
306.95	-37.2
307.164	52.91
307.379	73.39
307.593	3.75
307.807	57
308.021	54.95
308.235	20.14
308.449	-92.5
308.663	22.19
308.877	122.54
309.091	87.72
309.305	63.15
309.519	95.91
309.733	83.63
309.947	59.05
310.161	63.15
310.374	79.53
310.588	36.52
310.802	-10.58
311.016	54.95
311.23	52.91
311.444	46.76
311.658	24.23
311.872	-26.96
312.085	97.96
312.299	59.05
312.513	122.54
312.727	26.28
312.941	48.81
313.154	-24.92
313.368	36.52
313.582	5.8
313.796	71.34
314.009	102.06
314.223	46.76
314.437	57
314.651	-69.97
314.864	-10.58
315.078	16.04
315.292	32.43
315.505	30.38
315.719	7.85
315.933	30.38
316.146	5.8
316.36	-0.34
316.573	54.95
316.787	3.75
317.001	71.34
317.214	-14.68
317.428	22.19
317.641	-2.39
317.855	16.04
318.068	-2.39
318.282	-33.11
318.495	83.63
318.709	40.62
318.922	61.1
319.136	40.62
319.349	50.86
319.563	13.99
319.776	-22.87
319.99	-4.44
320.203	3.75
320.417	-4.44
320.63	11.95
320.843	30.38
321.057	54.95
321.27	46.76
321.483	79.53
321.697	34.47
321.91	9.9
322.124	42.67
322.337	32.43
322.55	-2.39
322.763	-0.34
322.977	-59.73
323.19	-51.54
323.403	-12.63
323.617	-8.53
323.83	46.76
324.043	52.91
324.256	54.95
324.469	-65.88
324.683	46.76
324.896	28.33
325.109	28.33
325.322	-26.96
325.535	81.58
325.748	93.87
325.962	54.95
326.175	65.19
326.388	-18.77
326.601	26.28
326.814	57
327.027	-29.01
327.24	11.95
327.453	-12.63
327.666	-33.11
327.879	3.75
328.092	11.95
328.305	3.75
328.518	85.67
328.731	-12.63
328.944	77.48
329.157	16.04
329.37	81.58
329.583	100.01
329.796	97.96
330.009	9.9
330.222	52.91
330.435	-10.58
330.648	36.52
330.861	114.34
331.073	-26.96
331.286	48.81
331.499	26.28
331.712	16.04
331.925	81.58
332.138	108.2
332.35	102.06
332.563	16.04
332.776	93.87
332.989	20.14
333.202	57
333.414	40.62
333.627	46.76
333.84	26.28
334.053	75.43
334.265	36.52
334.478	22.19
334.691	44.71
334.903	61.1
335.116	22.19
335.329	-59.73
335.541	110.25
335.754	61.1
335.966	-57.68
336.179	67.24
336.392	40.62
336.604	11.95
336.817	44.71
337.029	69.29
337.242	9.9
337.454	73.39
337.667	-16.73
337.88	54.95
338.092	34.47
338.305	40.62
338.517	-10.58
338.729	5.8
338.942	18.09
339.154	-37.2
339.367	20.14
339.579	102.06
339.792	38.57
340.004	108.2
340.217	28.33
340.429	-8.53
340.641	30.38
340.854	-8.53
341.066	-43.35
341.278	77.48
341.491	57
341.703	91.82
341.915	48.81
342.128	54.95
342.34	-4.44
342.552	3.75
342.764	108.2
342.977	16.04
343.189	36.52
343.401	16.04
343.613	-0.34
343.826	18.09
344.038	52.91
344.25	42.67
344.462	9.9
344.674	44.71
344.886	48.81
345.099	104.11
345.311	79.53
345.523	11.95
345.735	7.85
345.947	61.1
346.159	112.3
346.371	-18.77
346.583	24.23
346.795	118.44
347.007	112.3
347.219	44.71
347.431	97.96
347.643	-2.39
347.855	65.19
348.067	83.63
348.279	102.06
348.491	3.75
348.703	18.09
348.915	5.8
349.127	85.67
349.339	-16.73
349.551	3.75
349.763	73.39
349.975	-39.25
350.187	104.11
350.399	22.19
350.61	44.71
350.822	71.34
351.034	20.14
351.246	-24.92
351.458	63.15
351.669	7.85
351.881	50.86
352.093	83.63
352.305	57
352.517	38.57
352.728	16.04
352.94	52.91
353.152	1.71
353.363	71.34
353.575	73.39
353.787	59.05
353.999	77.48
354.21	32.43
354.422	20.14
354.633	-43.35
354.845	48.81
355.057	-20.82
355.268	65.19
355.48	40.62
355.692	44.71
355.903	-0.34
356.115	16.04
356.326	-55.64
356.538	54.95
356.749	69.29
356.961	161.45
357.172	54.95
357.384	42.67
357.595	40.62
357.807	54.95
358.018	38.57
358.23	28.33
358.441	61.1
358.653	-4.44
358.864	59.05
359.075	26.28
359.287	48.81
359.498	-10.58
359.709	-39.25
359.921	-10.58
360.132	52.91
360.344	-8.53
360.555	36.52
360.766	30.38
360.977	13.99
361.189	65.19
361.4	65.19
361.611	63.15
361.823	-2.39
362.034	118.44
362.245	48.81
362.456	22.19
362.667	124.58
362.879	46.76
363.09	-67.92
363.301	73.39
363.512	79.53
363.723	28.33
363.935	52.91
364.146	130.73
364.357	-2.39
364.568	13.99
364.779	46.76
364.99	65.19
365.201	13.99
365.412	46.76
365.623	11.95
365.834	30.38
366.045	30.38
366.256	102.06
366.467	-20.82
366.678	-18.77
366.889	61.1
367.1	65.19
367.311	69.29
367.522	48.81
367.733	36.52
367.944	69.29
368.155	-29.01
368.366	77.48
368.577	63.15
368.788	1.71
368.999	118.44
369.209	77.48
369.42	44.71
369.631	89.77
369.842	20.14
370.053	30.38
370.264	52.91
370.474	71.34
370.685	54.95
370.896	52.91
371.107	36.52
371.317	16.04
371.528	52.91
371.739	-8.53
371.95	73.39
372.16	67.24
372.371	-4.44
372.582	44.71
372.792	48.81
373.003	52.91
373.214	112.3
373.424	65.19
373.635	67.24
373.846	59.05
374.056	3.75
374.267	128.68
374.477	89.77
374.688	-37.2
374.898	61.1
375.109	102.06
375.319	48.81
375.53	79.53
375.74	30.38
375.951	28.33
376.161	24.23
376.372	13.99
376.582	28.33
376.793	69.29
377.003	-4.44
377.214	32.43
377.424	50.86
377.635	50.86
377.845	-2.39
378.055	118.44
378.266	3.75
378.476	20.14
378.686	81.58
378.897	69.29
379.107	44.71
379.317	57
379.528	63.15
379.738	89.77
379.948	30.38
380.158	63.15
380.369	89.77
380.579	32.43
380.789	63.15
380.999	95.91
381.21	97.96
381.42	85.67
381.63	-4.44
381.84	93.87
382.05	30.38
382.261	77.48
382.471	95.91
382.681	52.91
382.891	95.91
383.101	108.2
383.311	54.95
383.521	54.95
383.731	11.95
383.941	89.77
384.151	87.72
384.361	-8.53
384.571	-63.83
384.781	44.71
384.991	81.58
385.201	77.48
385.411	122.54
385.621	108.2
385.831	44.71
386.041	77.48
386.251	77.48
386.461	81.58
386.671	52.91
386.881	-2.39
387.091	36.52
387.301	46.76
387.511	61.1
387.72	-0.34
387.93	149.16
388.14	52.91
388.35	67.24
388.56	57
388.769	87.72
388.979	28.33
389.189	106.15
389.399	32.43
389.609	34.47
389.818	11.95
390.028	22.19
390.238	57
390.447	79.53
390.657	54.95
390.867	50.86
391.076	63.15
391.286	71.34
391.496	71.34
391.705	71.34
391.915	136.87
392.125	87.72
392.334	38.57
392.544	104.11
392.753	143.02
392.963	22.19
393.172	42.67
393.382	81.58
393.591	130.73
393.801	-20.82
394.01	116.39
394.22	97.96
394.429	-6.49
394.639	36.52
394.848	5.8
395.058	1.71
395.267	-0.34
395.477	61.1
395.686	83.63
395.895	114.34
396.105	165.54
396.314	71.34
396.524	145.06
396.733	28.33
396.942	67.24
397.152	24.23
397.361	106.15
397.57	61.1
397.78	81.58
397.989	79.53
398.198	118.44
398.407	118.44
398.617	75.43
398.826	110.25
399.035	110.25
399.244	167.59
399.453	128.68
399.663	16.04
399.872	102.06
400.081	-6.49
400.29	81.58
400.499	69.29
400.708	108.2
400.917	75.43
401.127	118.44
401.336	81.58
401.545	116.39
401.754	85.67
401.963	87.72
402.172	81.58
402.381	118.44
402.59	126.63
402.799	188.07
403.008	77.48
403.217	143.02
403.426	71.34
403.635	93.87
403.844	71.34
404.053	138.92
404.262	104.11
404.471	161.45
404.68	175.78
404.888	171.69
405.097	134.82
405.306	151.21
405.515	143.02
405.724	132.78
405.933	165.54
406.142	157.35
406.35	134.82
406.559	151.21
406.768	224.94
406.977	159.4
407.185	167.59
407.394	161.45
407.603	192.17
407.812	216.74
408.02	237.22
408.229	198.31
408.438	204.46
408.646	290.47
408.855	151.21
409.064	202.41
409.272	241.32
409.481	259.75
409.69	249.51
409.898	194.22
410.107	356.01
410.315	308.9
410.524	315.05
410.733	388.77
410.941	376.48
411.15	349.86
411.358	298.66
411.567	466.6
411.775	374.44
411.984	366.25
412.192	382.63
412.401	327.33
412.609	382.63
412.818	476.84
413.026	456.36
413.234	485.03
413.443	468.64
413.651	462.5
413.86	540.32
414.068	493.22
414.276	544.42
414.485	536.23
414.693	634.53
414.901	597.67
415.11	708.26
415.318	618.15
415.526	716.45
415.734	693.92
415.943	650.91
416.151	667.3
416.359	777.89
416.567	880.29
416.776	824.99
416.984	843.42
417.192	855.71
417.4	925.34
417.608	904.86
417.817	880.29
418.025	919.2
418.233	1005.21
418.441	1021.6
418.649	1072.79
418.857	1201.82
419.065	1203.86
419.273	1140.38
419.481	1205.91
419.689	1216.15
419.897	1314.45
420.105	1363.61
420.313	1400.47
420.521	1545.88
420.729	1527.44
420.937	1531.54
421.145	1601.17
421.353	1664.66
421.561	1748.62
421.769	1717.9
421.977	1816.21
422.185	1767.06
422.393	1953.42
422.601	2002.57
422.809	2012.81
423.017	2031.24
423.224	2190.99
423.432	2305.67
423.64	2262.66
423.848	2481.8
424.056	2428.55
424.263	2330.25
424.471	2561.67
424.679	2492.04
424.887	2680.45
425.094	2965.12
425.302	2870.91
425.51	2961.02
425.718	3053.18
425.925	3044.99
426.133	3223.16
426.341	3360.38
426.548	3593.84
426.756	3485.3
426.964	3509.88
427.171	3581.56
427.379	3855.98
427.586	3960.43
427.794	4097.64
428.001	4157.04
428.209	4421.22
428.417	4316.78
428.624	4656.74
428.832	4548.2
429.039	4468.33
429.247	4607.59
429.454	5021.28
429.662	5385.82
429.869	5017.18
430.076	5254.75
430.284	5226.07
430.491	5477.98
430.699	5748.31
430.906	5828.18
431.114	5844.56
431.321	6065.74
431.528	6252.11
431.736	6696.52
431.943	6690.37
432.15	6604.36
432.358	6753.86
432.565	6993.47
432.772	6989.38
432.979	7505.46
433.187	7597.62
433.394	7650.87
433.601	8033.84
433.808	8039.98
434.016	8064.56
434.223	8377.9
434.43	8988.19
434.637	8668.71
434.844	9383.45
435.052	9422.36
435.259	9356.83
435.466	9571.86
435.673	9506.33
435.88	10055.19
436.087	10446.35
436.294	10477.07
436.501	10380.81
436.708	10493.45
436.915	10948.1
437.122	11318.78
437.329	11320.83
437.537	11589.11
437.743	12002.8
437.95	11767.29
438.157	12367.34
438.364	12760.55
438.571	12707.3
438.778	12656.11
438.985	14087.64
439.192	13491.68
439.399	14024.15
439.606	13493.72
439.813	14403.02
440.02	15381.95
440.227	15023.56
440.433	14939.59
440.64	15263.17
440.847	14886.34
441.054	15414.72
441.261	16459.18
441.467	16215.48
441.674	16799.15
441.881	17323.43
442.088	17296.8
442.294	17003.94
442.501	17540.51
442.708	17864.09
442.914	18812.3
443.121	19365.25
443.328	18845.07
443.534	20295.03
443.741	19361.16
443.948	19385.73
444.154	20645.23
444.361	20366.71
444.568	20909.42
444.774	20890.99
444.981	21130.6
445.187	21327.21
445.394	22490.45
445.6	22281.56
445.807	24319.29
446.013	23047.5
446.22	23676.23
446.426	24792.37
446.633	24894.77
446.839	25554.21
447.046	24692.02
447.252	25664.8
447.459	26041.63
447.665	25984.29
447.871	26758.42
448.078	28220.67
448.284	27059.47
448.491	27405.58
448.697	28792.05
448.903	29213.93
449.11	29480.17
449.316	28787.96
449.522	29211.88
449.728	30190.81
449.935	30215.39
450.141	30061.79
450.347	31210.7
450.553	30043.36
450.76	30385.37
450.966	31468.75
451.172	31143.12
451.378	31859.91
451.584	31155.41
451.791	31950.02
451.997	32183.49
452.203	32435.39
452.409	32459.96
452.615	32095.42
452.821	31253.71
453.027	30749.91
453.233	32765.11
453.44	31415.5
453.646	31818.95
453.852	31829.19
454.058	32199.87
454.264	31362.25
454.47	32212.16
454.676	31347.92
454.882	32308.41
455.088	29717.73
455.294	30026.98
455.5	30663.89
455.705	30670.04
455.911	29295.85
456.117	28884.21
456.323	28499.19
456.529	27211.02
456.735	28161.28
456.941	27675.91
457.147	27366.67
457.352	26570.01
457.558	26291.48
457.764	26408.22
457.97	25779.49
458.176	25091.37
458.381	25302.31
458.587	24134.97
458.793	24141.11
458.999	22842.7
459.204	24507.7
459.41	23704.9
459.616	22211.93
459.821	22334.81
460.027	22064.47
460.233	21742.94
460.438	20428.15
460.644	20893.04
460.85	19772.8
461.055	19713.41
461.261	19711.36
461.466	18042.26
461.672	17569.18
461.878	18658.7
462.083	17499.55
462.289	17022.37
462.494	17057.19
462.7	16131.51
462.905	15889.85
463.111	16321.97
463.316	16453.04
463.522	16137.65
463.727	15955.38
463.932	16070.07
464.138	16108.98
464.343	15900.09
464.549	15656.38
464.754	15887.8
464.959	15943.1
465.165	15701.44
465.37	15353.28
465.575	14906.82
465.781	15220.16
465.986	15414.72
466.191	14790.09
466.397	14382.54
466.602	13635.03
466.807	14577.1
467.012	14388.69
467.218	14405.07
467.423	13991.38
467.628	14294.48
467.833	14675.4
468.038	14210.51
