Data from USB4F104151__46__14-16-48-726.txt Node

Date: Thu Mar 13 14:16:48 EDT 2025
User: louis
Spectrometer: USB4F10415
Trigger mode: 4
Integration Time (sec): 2.000000E-2
Scans to average: 1
Electric dark correction enabled: true
Nonlinearity correction enabled: false
Boxcar width: 0
XAxis mode: Wavelengths
Number of Pixels in Spectrum: 3648
>>>>>Begin Spectral Data<<<<<
178.204	-73.9
178.424	-73.9
178.644	-73.9
178.864	-159.91
179.084	-139.43
179.304	30.55
179.524	-28.84
179.744	16.21
179.964	20.31
180.184	-49.32
180.404	40.79
180.624	3.93
180.844	-37.03
181.064	-45.23
181.283	-8.36
181.503	-8.36
181.723	65.36
181.943	-20.65
182.163	85.84
182.383	59.22
182.602	59.22
182.822	26.45
183.042	69.46
183.262	12.12
183.482	24.4
183.701	73.56
183.921	18.26
184.141	-8.36
184.361	14.17
184.58	28.5
184.8	34.64
185.02	48.98
185.239	85.84
185.459	1.88
185.679	-30.89
185.898	30.55
186.118	81.75
186.338	26.45
186.557	94.04
186.777	5.97
186.997	73.56
187.216	-41.13
187.436	89.94
187.655	83.8
187.875	59.22
188.095	-8.36
188.314	32.6
188.534	-12.46
188.753	83.8
188.973	18.26
189.192	98.13
189.412	-12.46
189.631	59.22
189.851	42.84
190.07	81.75
190.29	-47.27
190.509	-8.36
190.729	-53.42
190.948	65.36
191.168	77.65
191.387	89.94
191.607	57.17
191.826	73.56
192.045	102.23
192.265	61.27
192.484	36.69
192.704	59.22
192.923	-57.51
193.142	155.47
193.362	3.93
193.581	42.84
193.8	1.88
194.02	16.21
194.239	-18.6
194.458	16.21
194.678	3.93
194.897	44.88
195.116	20.31
195.335	69.46
195.555	73.56
195.774	-8.36
195.993	20.31
196.212	-8.36
196.432	20.31
196.651	26.45
196.87	5.97
197.089	106.32
197.308	40.79
197.528	69.46
197.747	40.79
197.966	59.22
198.185	61.27
198.404	-73.9
198.623	98.13
198.842	40.79
199.062	51.03
199.281	116.56
199.5	53.08
199.719	57.17
199.938	130.9
200.157	55.12
200.376	12.12
200.595	69.46
200.814	59.22
201.033	12.12
201.252	44.88
201.471	16.21
201.69	102.23
201.909	81.75
202.128	-6.31
202.347	51.03
202.566	65.36
202.785	89.94
203.004	36.69
203.223	28.5
203.442	65.36
203.661	38.74
203.879	42.84
204.098	69.46
204.317	-24.75
204.536	48.98
204.755	42.84
204.974	89.94
205.193	28.5
205.411	145.24
205.63	32.6
205.849	8.02
206.068	40.79
206.287	8.02
206.505	106.32
206.724	42.84
206.943	-10.41
207.162	32.6
207.381	34.64
207.599	-12.46
207.818	16.21
208.037	-14.51
208.255	5.97
208.474	81.75
208.693	24.4
208.911	51.03
209.13	24.4
209.349	26.45
209.567	51.03
209.786	63.32
210.005	61.27
210.223	14.17
210.442	-16.55
210.661	46.93
210.879	1.88
211.098	22.36
211.316	34.64
211.535	26.45
211.753	-8.36
211.972	12.12
212.191	-0.17
212.409	-41.13
212.628	24.4
212.846	-41.13
213.065	53.08
213.283	32.6
213.502	42.84
213.72	40.79
213.938	16.21
214.157	22.36
214.375	10.07
214.594	-8.36
214.812	53.08
215.031	-8.36
215.249	12.12
215.467	-14.51
215.686	-0.17
215.904	26.45
216.122	-16.55
216.341	16.21
216.559	53.08
216.778	44.88
216.996	65.36
217.214	20.31
217.432	-2.22
217.651	42.84
217.869	32.6
218.087	-22.7
218.306	-30.89
218.524	67.41
218.742	63.32
218.96	-0.17
219.179	55.12
219.397	98.13
219.615	139.09
219.833	24.4
220.051	26.45
220.27	32.6
220.488	-12.46
220.706	65.36
220.924	8.02
221.142	5.97
221.36	79.7
221.578	73.56
221.796	-0.17
222.015	3.93
222.233	26.45
222.451	87.89
222.669	-39.08
222.887	77.65
223.105	16.21
223.323	24.4
223.541	-2.22
223.759	40.79
223.977	-4.27
224.195	53.08
224.413	48.98
224.631	65.36
224.849	24.4
225.067	122.71
225.285	24.4
225.503	-0.17
225.721	44.88
225.939	12.12
226.157	12.12
226.375	145.24
226.592	-6.31
226.81	32.6
227.028	48.98
227.246	79.7
227.464	98.13
227.682	16.21
227.9	26.45
228.117	14.17
228.335	57.17
228.553	79.7
228.771	36.69
228.989	75.6
229.206	73.56
229.424	-37.03
229.642	75.6
229.86	34.64
230.077	126.8
230.295	-0.17
230.513	108.37
230.731	28.5
230.948	24.4
231.166	55.12
231.384	53.08
231.601	10.07
231.819	87.89
232.037	65.36
232.254	-59.56
232.472	32.6
232.689	3.93
232.907	51.03
233.125	48.98
233.342	-6.31
233.56	42.84
233.777	14.17
233.995	42.84
234.213	116.56
234.43	-26.79
234.648	83.8
234.865	1.88
235.083	40.79
235.3	-32.94
235.518	8.02
235.735	48.98
235.953	147.28
236.17	-6.31
236.388	32.6
236.605	36.69
236.822	46.93
237.04	36.69
237.257	77.65
237.475	-37.03
237.692	73.56
237.909	36.69
238.127	36.69
238.344	75.6
238.562	30.55
238.779	61.27
238.996	42.84
239.214	77.65
239.431	91.99
239.648	55.12
239.865	3.93
240.083	12.12
240.3	57.17
240.517	24.4
240.735	81.75
240.952	36.69
241.169	48.98
241.386	-2.22
241.603	81.75
241.821	48.98
242.038	59.22
242.255	61.27
242.472	-8.36
242.689	57.17
242.907	32.6
243.124	16.21
243.341	5.97
243.558	-0.17
243.775	1.88
243.992	42.84
244.209	116.56
244.426	46.93
244.643	112.47
244.86	12.12
245.078	89.94
245.295	-18.6
245.512	57.17
245.729	18.26
245.946	36.69
246.163	63.32
246.38	65.36
246.597	24.4
246.814	-0.17
247.031	18.26
247.248	53.08
247.464	51.03
247.681	106.32
247.898	57.17
248.115	73.56
248.332	24.4
248.549	48.98
248.766	55.12
248.983	110.42
249.2	24.4
249.417	89.94
249.633	89.94
249.85	102.23
250.067	20.31
250.284	51.03
250.501	55.12
250.717	77.65
250.934	42.84
251.151	8.02
251.368	57.17
251.585	24.4
251.801	59.22
252.018	8.02
252.235	69.46
252.451	16.21
252.668	-12.46
252.885	69.46
253.102	53.08
253.318	34.64
253.535	126.8
253.752	-61.61
253.968	-10.41
254.185	-37.03
254.401	34.64
254.618	48.98
254.835	55.12
255.051	65.36
255.268	42.84
255.484	5.97
255.701	16.21
255.917	100.18
256.134	8.02
256.351	59.22
256.567	30.55
256.784	-37.03
257	36.69
257.217	-30.89
257.433	87.89
257.65	34.64
257.866	89.94
258.082	10.07
258.299	48.98
258.515	16.21
258.732	44.88
258.948	28.5
259.165	57.17
259.381	51.03
259.597	57.17
259.814	59.22
260.03	24.4
260.246	75.6
260.463	83.8
260.679	18.26
260.895	44.88
261.112	100.18
261.328	65.36
261.544	51.03
261.761	67.41
261.977	65.36
262.193	18.26
262.409	26.45
262.626	153.43
262.842	59.22
263.058	48.98
263.274	46.93
263.49	85.84
263.707	98.13
263.923	81.75
264.139	20.31
264.355	14.17
264.571	48.98
264.787	34.64
265.004	94.04
265.22	-4.27
265.436	67.41
265.652	55.12
265.868	20.31
266.084	114.52
266.3	-0.17
266.516	-8.36
266.732	83.8
266.948	10.07
267.164	-14.51
267.38	22.36
267.596	53.08
267.812	77.65
268.028	48.98
268.244	57.17
268.46	75.6
268.676	59.22
268.892	135
269.108	3.93
269.324	8.02
269.54	1.88
269.756	42.84
269.972	1.88
270.188	24.4
270.403	24.4
270.619	40.79
270.835	16.21
271.051	114.52
271.267	44.88
271.483	98.13
271.698	8.02
271.914	24.4
272.13	-10.41
272.346	-16.55
272.562	3.93
272.777	36.69
272.993	116.56
273.209	5.97
273.425	-20.65
273.64	65.36
273.856	42.84
274.072	73.56
274.287	42.84
274.503	102.23
274.719	98.13
274.934	89.94
275.15	-24.75
275.366	67.41
275.581	59.22
275.797	44.88
276.012	81.75
276.228	8.02
276.444	42.84
276.659	85.84
276.875	-84.14
277.09	-0.17
277.306	69.46
277.521	30.55
277.737	36.69
277.952	65.36
278.168	135
278.383	-8.36
278.599	1.88
278.814	59.22
279.03	44.88
279.245	114.52
279.461	24.4
279.676	51.03
279.892	-28.84
280.107	32.6
280.322	-61.61
280.538	94.04
280.753	16.21
280.969	59.22
281.184	20.31
281.399	42.84
281.615	1.88
281.83	57.17
282.045	71.51
282.26	-47.27
282.476	85.84
282.691	36.69
282.906	69.46
283.122	-0.17
283.337	-8.36
283.552	83.8
283.767	22.36
283.983	77.65
284.198	42.84
284.413	83.8
284.628	-37.03
284.843	48.98
285.058	57.17
285.274	32.6
285.489	28.5
285.704	40.79
285.919	-0.17
286.134	44.88
286.349	-22.7
286.564	44.88
286.779	59.22
286.995	46.93
287.21	-61.61
287.425	-24.75
287.64	24.4
287.855	89.94
288.07	12.12
288.285	26.45
288.5	40.79
288.715	91.99
288.93	32.6
289.145	67.41
289.36	5.97
289.575	55.12
289.79	18.26
290.004	-22.7
290.219	34.64
290.434	16.21
290.649	28.5
290.864	-12.46
291.079	18.26
291.294	69.46
291.509	61.27
291.724	69.46
291.938	57.17
292.153	32.6
292.368	-14.51
292.583	110.42
292.798	48.98
293.012	98.13
293.227	42.84
293.442	51.03
293.657	48.98
293.871	18.26
294.086	32.6
294.301	143.19
294.516	22.36
294.73	30.55
294.945	26.45
295.16	89.94
295.374	16.21
295.589	16.21
295.804	44.88
296.018	16.21
296.233	65.36
296.447	48.98
296.662	-12.46
296.877	55.12
297.091	79.7
297.306	59.22
297.52	57.17
297.735	77.65
297.949	-26.79
298.164	30.55
298.378	51.03
298.593	-63.66
298.807	79.7
299.022	51.03
299.236	38.74
299.451	73.56
299.665	26.45
299.88	40.79
300.094	65.36
300.309	85.84
300.523	48.98
300.737	10.07
300.952	28.5
301.166	28.5
301.381	8.02
301.595	12.12
301.809	8.02
302.024	48.98
302.238	32.6
302.452	122.71
302.667	48.98
302.881	30.55
303.095	20.31
303.309	98.13
303.524	34.64
303.738	32.6
303.952	-22.7
304.166	75.6
304.381	12.12
304.595	65.36
304.809	-6.31
305.023	30.55
305.237	44.88
305.452	67.41
305.666	-2.22
305.88	32.6
306.094	159.57
306.308	57.17
306.522	36.69
306.736	16.21
306.95	32.6
307.164	34.64
307.379	73.56
307.593	73.56
307.807	77.65
308.021	69.46
308.235	63.32
308.449	67.41
308.663	-0.17
308.877	44.88
309.091	-4.27
309.305	10.07
309.519	-2.22
309.733	122.71
309.947	16.21
310.161	42.84
310.374	20.31
310.588	10.07
310.802	-63.66
311.016	16.21
311.23	-4.27
311.444	42.84
311.658	153.43
311.872	67.41
312.085	28.5
312.299	-0.17
312.513	79.7
312.727	75.6
312.941	89.94
313.154	75.6
313.368	38.74
313.582	67.41
313.796	87.89
314.009	14.17
314.223	118.61
314.437	98.13
314.651	106.32
314.864	-32.94
315.078	10.07
315.292	-8.36
315.505	51.03
315.719	89.94
315.933	48.98
316.146	75.6
316.36	-41.13
316.573	83.8
316.787	36.69
317.001	83.8
317.214	34.64
317.428	46.93
317.641	59.22
317.855	26.45
318.068	67.41
318.282	24.4
318.495	57.17
318.709	91.99
318.922	46.93
319.136	98.13
319.349	-18.6
319.563	75.6
319.776	12.12
319.99	24.4
320.203	32.6
320.417	30.55
320.63	57.17
320.843	40.79
321.057	116.56
321.27	16.21
321.483	-20.65
321.697	106.32
321.91	16.21
322.124	98.13
322.337	57.17
322.55	12.12
322.763	65.36
322.977	71.51
323.19	130.9
323.403	89.94
323.617	46.93
323.83	116.56
324.043	48.98
324.256	124.76
324.469	-12.46
324.683	22.36
324.896	32.6
325.109	40.79
325.322	32.6
325.535	94.04
325.748	48.98
325.962	55.12
326.175	36.69
326.388	69.46
326.601	-10.41
326.814	46.93
327.027	28.5
327.24	77.65
327.453	22.36
327.666	106.32
327.879	59.22
328.092	5.97
328.305	53.08
328.518	-8.36
328.731	69.46
328.944	91.99
329.157	126.8
329.37	-14.51
329.583	130.9
329.796	85.84
330.009	-8.36
330.222	106.32
330.435	81.75
330.648	30.55
330.861	26.45
331.073	5.97
331.286	36.69
331.499	-0.17
331.712	8.02
331.925	59.22
332.138	51.03
332.35	73.56
332.563	32.6
332.776	12.12
332.989	44.88
333.202	75.6
333.414	48.98
333.627	34.64
333.84	26.45
334.053	65.36
334.265	85.84
334.478	48.98
334.691	75.6
334.903	65.36
335.116	-0.17
335.329	65.36
335.541	51.03
335.754	75.6
335.966	24.4
336.179	40.79
336.392	59.22
336.604	65.36
336.817	34.64
337.029	102.23
337.242	24.4
337.454	81.75
337.667	36.69
337.88	89.94
338.092	36.69
338.305	53.08
338.517	-0.17
338.729	87.89
338.942	69.46
339.154	32.6
339.367	-8.36
339.579	24.4
339.792	36.69
340.004	67.41
340.217	40.79
340.429	30.55
340.641	8.02
340.854	40.79
341.066	87.89
341.278	65.36
341.491	-0.17
341.703	34.64
341.915	8.02
342.128	10.07
342.34	32.6
342.552	-0.17
342.764	81.75
342.977	28.5
343.189	8.02
343.401	67.41
343.613	44.88
343.826	57.17
344.038	40.79
344.25	57.17
344.462	67.41
344.674	69.46
344.886	12.12
345.099	63.32
345.311	48.98
345.523	143.19
345.735	24.4
345.947	24.4
346.159	98.13
346.371	106.32
346.583	32.6
346.795	118.61
347.007	8.02
347.219	85.84
347.431	81.75
347.643	106.32
347.855	10.07
348.067	42.84
348.279	32.6
348.491	67.41
348.703	59.22
348.915	57.17
349.127	81.75
349.339	28.5
349.551	69.46
349.763	71.51
349.975	67.41
350.187	48.98
350.399	53.08
350.61	-6.31
350.822	89.94
351.034	94.04
351.246	51.03
351.458	81.75
351.669	24.4
351.881	98.13
352.093	40.79
352.305	63.32
352.517	40.79
352.728	106.32
352.94	59.22
353.152	24.4
353.363	32.6
353.575	85.84
353.787	75.6
353.999	57.17
354.21	94.04
354.422	24.4
354.633	124.76
354.845	98.13
355.057	69.46
355.268	81.75
355.48	132.95
355.692	53.08
355.903	55.12
356.115	87.89
356.326	-37.03
356.538	69.46
356.749	20.31
356.961	69.46
357.172	-2.22
357.384	-34.99
357.595	67.41
357.807	3.93
358.018	18.26
358.23	108.37
358.441	81.75
358.653	106.32
358.864	87.89
359.075	147.28
359.287	89.94
359.498	83.8
359.709	87.89
359.921	48.98
360.132	40.79
360.344	65.36
360.555	48.98
360.766	59.22
360.977	-24.75
361.189	118.61
361.4	51.03
361.611	110.42
361.823	24.4
362.034	73.56
362.245	36.69
362.456	75.6
362.667	38.74
362.879	94.04
363.09	18.26
363.301	48.98
363.512	61.27
363.723	57.17
363.935	61.27
364.146	63.32
364.357	59.22
364.568	53.08
364.779	53.08
364.99	91.99
365.201	91.99
365.412	94.04
365.623	3.93
365.834	100.18
366.045	8.02
366.256	69.46
366.467	40.79
366.678	40.79
366.889	83.8
367.1	51.03
367.311	98.13
367.522	57.17
367.733	67.41
367.944	128.85
368.155	73.56
368.366	-0.17
368.577	69.46
368.788	79.7
368.999	5.97
369.209	89.94
369.42	126.8
369.631	104.28
369.842	61.27
370.053	73.56
370.264	36.69
370.474	61.27
370.685	77.65
370.896	-4.27
371.107	63.32
371.317	67.41
371.528	53.08
371.739	81.75
371.95	40.79
372.16	83.8
372.371	14.17
372.582	106.32
372.792	106.32
373.003	85.84
373.214	57.17
373.424	87.89
373.635	61.27
373.846	173.91
374.056	65.36
374.267	1.88
374.477	40.79
374.688	18.26
374.898	91.99
375.109	65.36
375.319	40.79
375.53	75.6
375.74	71.51
375.951	18.26
376.161	40.79
376.372	149.33
376.582	122.71
376.793	128.85
377.003	141.14
377.214	67.41
377.424	57.17
377.635	79.7
377.845	77.65
378.055	42.84
378.266	94.04
378.476	38.74
378.686	151.38
378.897	124.76
379.107	48.98
379.317	106.32
379.528	104.28
379.738	61.27
379.948	38.74
380.158	104.28
380.369	61.27
380.579	116.56
380.789	20.31
380.999	108.37
381.21	171.86
381.42	155.47
381.63	75.6
381.84	79.7
382.05	73.56
382.261	59.22
382.471	167.76
382.681	85.84
382.891	59.22
383.101	94.04
383.311	38.74
383.521	65.36
383.731	77.65
383.941	108.37
384.151	75.6
384.361	59.22
384.571	126.8
384.781	32.6
384.991	132.95
385.201	126.8
385.411	122.71
385.621	40.79
385.831	61.27
386.041	8.02
386.251	20.31
386.461	155.47
386.671	10.07
386.881	94.04
387.091	40.79
387.301	100.18
387.511	114.52
387.72	71.51
387.93	-2.22
388.14	57.17
388.35	67.41
388.56	24.4
388.769	139.09
388.979	69.46
389.189	44.88
389.399	184.15
389.609	75.6
389.818	73.56
390.028	53.08
390.238	139.09
390.447	-12.46
390.657	143.19
390.867	114.52
391.076	79.7
391.286	36.69
391.496	-2.22
391.705	69.46
391.915	151.38
392.125	126.8
392.334	106.32
392.544	130.9
392.753	128.85
392.963	114.52
393.172	94.04
393.382	75.6
393.591	132.95
393.801	102.23
394.01	106.32
394.22	114.52
394.429	69.46
394.639	81.75
394.848	67.41
395.058	65.36
395.267	81.75
395.477	116.56
395.686	122.71
395.895	204.63
396.105	163.67
396.314	73.56
396.524	126.8
396.733	128.85
396.942	104.28
397.152	122.71
397.361	89.94
397.57	96.08
397.78	106.32
397.989	151.38
398.198	153.43
398.407	106.32
398.617	116.56
398.826	202.58
399.035	147.28
399.244	89.94
399.453	114.52
399.663	114.52
399.872	126.8
400.081	118.61
400.29	149.33
400.499	5.97
400.708	114.52
400.917	155.47
401.127	194.39
401.336	104.28
401.545	223.06
401.754	178
401.963	122.71
402.172	184.15
402.381	96.08
402.59	155.47
402.799	141.14
403.008	155.47
403.217	130.9
403.426	231.25
403.635	91.99
403.844	89.94
404.053	186.19
404.262	196.43
404.471	196.43
404.68	223.06
404.888	139.09
405.097	157.52
405.306	212.82
405.515	143.19
405.724	208.72
405.933	149.33
406.142	302.93
406.35	245.59
406.559	253.78
406.768	214.87
406.977	186.19
407.185	233.3
407.394	319.31
407.603	171.86
407.812	331.6
408.02	204.63
408.229	274.26
408.438	233.3
408.646	280.4
408.855	268.11
409.064	329.55
409.272	374.61
409.481	327.5
409.69	319.31
409.898	370.51
410.107	345.94
410.315	376.66
410.524	384.85
410.733	401.23
410.941	423.76
411.15	460.62
411.358	470.86
411.567	491.34
411.775	513.87
411.984	526.16
412.192	546.64
412.401	522.06
412.609	575.31
412.818	606.03
413.026	626.51
413.234	642.89
413.443	649.04
413.651	657.23
413.86	718.67
414.068	745.29
414.276	753.48
414.485	798.54
414.693	872.26
414.901	935.75
415.11	835.4
415.318	827.21
415.526	931.66
415.734	954.18
415.943	911.18
416.151	1046.34
416.359	980.81
416.567	1115.97
416.776	1075.01
416.984	1101.64
417.192	1191.75
417.4	1279.81
417.608	1154.88
417.817	1212.23
418.025	1363.78
418.233	1429.31
418.441	1408.83
418.649	1509.18
418.857	1570.62
419.065	1548.09
419.273	1605.44
419.481	1625.92
419.689	1756.99
419.897	1851.19
420.105	1779.51
420.313	1908.54
420.521	1877.82
420.729	1996.6
420.937	1961.78
421.145	2088.76
421.353	2277.17
421.561	2285.36
421.769	2383.66
421.977	2422.58
422.185	2457.39
422.393	2613.04
422.601	2733.87
422.809	2768.68
423.017	2877.23
423.224	2901.8
423.432	3049.25
423.64	3057.45
423.848	3315.49
424.056	3122.98
424.263	3346.21
424.471	3342.11
424.679	3462.94
424.887	3669.79
425.094	3860.25
425.302	3743.52
425.51	4046.62
425.718	4036.38
425.925	4210.45
426.133	4243.22
426.341	4480.78
426.548	4785.93
426.756	4615.95
426.964	4808.46
427.171	5070.6
427.379	5310.21
427.586	5234.44
427.794	5443.33
428.001	5517.06
428.209	5897.98
428.417	5918.46
428.624	6135.54
428.832	6342.39
429.039	6110.97
429.247	6106.87
429.454	6594.29
429.662	6999.79
429.869	6661.87
430.076	7339.75
430.284	7130.86
430.491	7431.91
430.699	7894.75
430.906	7878.37
431.114	7741.15
431.321	8150.74
431.528	8171.22
431.736	8699.6
431.943	9264.84
432.15	8885.97
432.358	9070.28
432.565	9596.61
432.772	9518.79
432.979	10053.31
433.187	10016.44
433.394	10358.46
433.601	10966.7
433.808	11019.95
434.016	10997.42
434.223	11208.36
434.43	12035.74
434.637	11728.55
434.844	12467.86
435.052	12607.12
435.259	12273.31
435.466	12803.73
435.673	12557.97
435.88	13584.01
436.087	14069.37
436.294	14079.61
436.501	13829.76
436.708	13946.5
436.915	14640.76
437.122	14988.91
437.329	15298.16
437.537	15607.4
437.743	15992.42
437.95	16021.09
438.157	16604.76
438.364	17239.63
438.571	17077.84
438.778	17303.12
438.985	18828.85
439.192	18038.34
439.399	18710.07
439.606	18032.19
439.813	19146.29
440.02	20557.34
440.227	20033.06
440.433	19795.5
440.64	20239.9
440.847	20239.9
441.054	21089.81
441.261	22103.56
441.467	21681.67
441.674	22396.42
441.881	23137.78
442.088	23139.83
442.294	22994.42
442.501	23334.39
442.708	23586.29
442.914	24778.2
443.121	26086.86
443.328	25163.22
443.534	26938.81
443.741	26277.32
443.948	25482.7
444.154	27721.13
444.361	27671.98
444.568	27844.01
444.774	27811.24
444.981	28130.73
445.187	28800.41
445.394	30070.15
445.6	29969.8
445.807	32322.92
446.013	31124.86
446.22	31868.27
446.426	32730.47
446.633	33148.25
446.839	34405.7
447.046	32947.55
447.252	34458.95
447.459	34647.36
447.665	34649.41
447.871	36130.09
448.078	37680.41
448.284	35964.21
448.491	36832.55
448.697	38065.42
448.903	38733.06
449.11	39097.6
449.316	38341.9
449.522	38753.54
449.728	39752.95
449.935	40416.49
450.141	40518.89
450.347	41213.15
450.553	39869.68
450.76	40697.06
450.966	41743.58
451.172	41356.51
451.378	42360.01
451.584	41516.25
451.791	42693.83
451.997	42527.95
452.203	42792.14
452.409	42988.74
452.615	42939.59
452.821	41215.2
453.027	40879.33
453.233	42960.07
453.44	41372.89
453.646	42007.76
453.852	42257.62
454.058	42702.03
454.264	40946.92
454.47	41929.94
454.676	40895.72
454.882	42486.99
455.088	38970.63
455.294	39417.08
455.5	39937.27
455.705	40461.55
455.911	39193.86
456.117	38221.07
456.323	37696.79
456.529	35460.41
456.735	37418.27
456.941	36015.41
457.147	35466.55
457.352	34594.12
457.558	34280.78
457.764	34196.81
457.97	33525.08
458.176	33299.8
458.381	33334.62
458.587	31376.76
458.793	31350.13
458.999	29881.74
459.204	31974.77
459.41	30850.43
459.616	29164.95
459.821	28890.52
460.027	29013.4
460.233	28198.31
460.438	27246.01
460.644	27538.87
460.85	25939.4
461.055	25755.08
461.261	25607.63
461.466	23805.42
461.672	22959.61
461.878	24616.41
462.083	22957.56
462.289	22584.83
462.494	22216.19
462.7	21354
462.905	20837.91
463.111	21499.41
463.316	21397.01
463.522	21227.03
463.727	21065.24
463.932	21224.98
464.138	20833.82
464.343	20985.37
464.549	20448.8
464.754	20997.65
464.959	20889.11
465.165	20588.06
465.37	19840.55
465.575	19146.29
465.781	20018.72
465.986	20074.02
466.191	19369.52
466.397	18990.64
466.602	18167.36
466.807	18882.1
467.012	19052.08
467.218	18531.9
467.423	18513.47
467.628	18589.24
467.833	19512.88
