Data from USB4F104151__184__14-20-14-232.txt Node

Date: Thu Mar 13 14:20:14 EDT 2025
User: louis
Spectrometer: USB4F10415
Trigger mode: 4
Integration Time (sec): 2.000000E-2
Scans to average: 1
Electric dark correction enabled: true
Nonlinearity correction enabled: false
Boxcar width: 0
XAxis mode: Wavelengths
Number of Pixels in Spectrum: 3648
>>>>>Begin Spectral Data<<<<<
178.204	-89.43
178.424	-89.43
178.644	-89.43
178.864	-75.09
179.084	-62.8
179.304	-40.28
179.524	-34.13
179.744	37.55
179.964	4.78
180.184	-15.7
180.404	47.79
180.624	10.92
180.844	41.64
181.064	-32.08
181.283	35.5
181.503	-48.47
181.723	-7.51
181.943	21.16
182.163	17.07
182.383	-21.85
182.602	33.45
182.822	-36.18
183.042	-5.46
183.262	51.88
183.482	76.46
183.701	-23.89
183.921	19.11
184.141	-25.94
184.361	2.73
184.58	-54.61
184.8	62.12
185.02	12.97
185.239	-5.46
185.459	-32.08
185.679	47.79
185.898	-38.23
186.118	-38.23
186.338	6.83
186.557	78.51
186.777	15.02
186.997	-73.04
187.216	-21.85
187.436	68.27
187.655	19.11
187.875	-32.08
188.095	-93.52
188.314	70.31
188.534	64.17
188.753	-56.66
188.973	12.97
189.192	-1.37
189.412	-25.94
189.631	58.03
189.851	2.73
190.07	27.31
190.29	-13.65
190.509	-32.08
190.729	-21.85
190.948	78.51
191.168	31.4
191.387	-9.56
191.607	8.87
191.826	92.84
192.045	-27.99
192.265	-32.08
192.484	25.26
192.704	2.73
192.923	-40.28
193.142	29.35
193.362	45.74
193.581	31.4
193.8	-11.61
194.02	29.35
194.239	39.59
194.458	0.68
194.678	43.69
194.897	-42.32
195.116	4.78
195.335	-30.04
195.555	4.78
195.774	12.97
195.993	0.68
196.212	17.07
196.432	8.87
196.651	-13.65
196.87	27.31
197.089	90.79
197.308	27.31
197.528	-19.8
197.747	-21.85
197.966	-7.51
198.185	58.03
198.404	15.02
198.623	19.11
198.842	-15.7
199.062	-46.42
199.281	-5.46
199.5	-7.51
199.719	10.92
199.938	19.11
200.157	-1.37
200.376	10.92
200.595	76.46
200.814	12.97
201.033	-7.51
201.252	27.31
201.471	-83.28
201.69	-7.51
201.909	33.45
202.128	-19.8
202.347	-17.75
202.566	-11.61
202.785	17.07
203.004	45.74
203.223	109.22
203.442	8.87
203.661	-11.61
203.879	17.07
204.098	27.31
204.317	-11.61
204.536	-38.23
204.755	10.92
204.974	17.07
205.193	17.07
205.411	111.27
205.63	19.11
205.849	66.22
206.068	-27.99
206.287	-15.7
206.505	4.78
206.724	-46.42
206.943	0.68
207.162	15.02
207.381	19.11
207.599	-19.8
207.818	-54.61
208.037	-21.85
208.255	-11.61
208.474	4.78
208.693	58.03
208.911	-17.75
209.13	94.89
209.349	-56.66
209.567	-23.89
209.786	58.03
210.005	33.45
210.223	-13.65
210.442	-54.61
210.661	-15.7
210.879	-32.08
211.098	33.45
211.316	25.26
211.535	23.21
211.753	60.07
211.972	0.68
212.191	-7.51
212.409	17.07
212.628	-21.85
212.846	25.26
213.065	39.59
213.283	60.07
213.502	-17.75
213.72	12.97
213.938	27.31
214.157	74.41
214.375	-27.99
214.594	-79.19
214.812	-23.89
215.031	41.64
215.249	-36.18
215.467	-15.7
215.686	55.98
215.904	-25.94
216.122	-40.28
216.341	43.69
216.559	-5.46
216.778	-19.8
216.996	-5.46
217.214	-21.85
217.432	74.41
217.651	27.31
217.869	2.73
218.087	-23.89
218.306	-40.28
218.524	27.31
218.742	29.35
218.96	6.83
219.179	19.11
219.397	-23.89
219.615	90.79
219.833	8.87
220.051	-3.41
220.27	17.07
220.488	41.64
220.706	25.26
220.924	-17.75
221.142	-3.41
221.36	-52.56
221.578	-21.85
221.796	6.83
222.015	0.68
222.233	-60.76
222.451	47.79
222.669	-19.8
222.887	49.83
223.105	29.35
223.323	-81.24
223.541	-44.37
223.759	-30.04
223.977	-13.65
224.195	49.83
224.413	31.4
224.631	12.97
224.849	-23.89
225.067	-5.46
225.285	-15.7
225.503	53.93
225.721	-60.76
225.939	39.59
226.157	70.31
226.375	51.88
226.592	-11.61
226.81	-21.85
227.028	-3.41
227.246	53.93
227.464	4.78
227.682	41.64
227.9	-36.18
228.117	58.03
228.335	-34.13
228.553	19.11
228.771	-3.41
228.989	-73.04
229.206	129.7
229.424	41.64
229.642	-27.99
229.86	-11.61
230.077	21.16
230.295	2.73
230.513	45.74
230.731	76.46
230.948	62.12
231.166	53.93
231.384	-36.18
231.601	-46.42
231.819	92.84
232.037	10.92
232.254	0.68
232.472	-40.28
232.689	49.83
232.907	8.87
233.125	31.4
233.342	21.16
233.56	-32.08
233.777	29.35
233.995	74.41
234.213	8.87
234.43	-32.08
234.648	27.31
234.865	-11.61
235.083	-9.56
235.3	68.27
235.518	35.5
235.735	4.78
235.953	33.45
236.17	33.45
236.388	17.07
236.605	25.26
236.822	53.93
237.04	80.55
237.257	-40.28
237.475	-40.28
237.692	68.27
237.909	2.73
238.127	2.73
238.344	4.78
238.562	55.98
238.779	-66.9
238.996	-7.51
239.214	70.31
239.431	8.87
239.648	-40.28
239.865	43.69
240.083	92.84
240.3	-7.51
240.517	23.21
240.735	58.03
240.952	0.68
241.169	25.26
241.386	58.03
241.603	-19.8
241.821	33.45
242.038	49.83
242.255	49.83
242.472	-46.42
242.689	12.97
242.907	27.31
243.124	66.22
243.341	94.89
243.558	8.87
243.775	19.11
243.992	10.92
244.209	41.64
244.426	107.18
244.643	2.73
244.86	-3.41
245.078	8.87
245.295	66.22
245.512	41.64
245.729	60.07
245.946	29.35
246.163	-32.08
246.38	0.68
246.597	-23.89
246.814	-36.18
247.031	-15.7
247.248	51.88
247.464	51.88
247.681	15.02
247.898	25.26
248.115	-64.85
248.332	-5.46
248.549	43.69
248.766	78.51
248.983	25.26
249.2	4.78
249.417	37.55
249.633	39.59
249.85	-3.41
250.067	-81.24
250.284	-46.42
250.501	-13.65
250.717	0.68
250.934	74.41
251.151	23.21
251.368	-15.7
251.585	0.68
251.801	-5.46
252.018	-17.75
252.235	82.6
252.451	-38.23
252.668	-21.85
252.885	49.83
253.102	43.69
253.318	33.45
253.535	17.07
253.752	0.68
253.968	-13.65
254.185	-15.7
254.401	41.64
254.618	17.07
254.835	-56.66
255.051	78.51
255.268	49.83
255.484	-5.46
255.701	27.31
255.917	8.87
256.134	-7.51
256.351	-23.89
256.567	39.59
256.784	6.83
257	-62.8
257.217	0.68
257.433	-17.75
257.65	17.07
257.866	12.97
258.082	-62.8
258.299	-32.08
258.515	33.45
258.732	17.07
258.948	98.99
259.165	-5.46
259.381	-32.08
259.597	23.21
259.814	60.07
260.03	-9.56
260.246	10.92
260.463	33.45
260.679	39.59
260.895	-21.85
261.112	53.93
261.328	10.92
261.544	35.5
261.761	123.56
261.977	2.73
262.193	-3.41
262.409	10.92
262.626	-23.89
262.842	-15.7
263.058	4.78
263.274	37.55
263.49	0.68
263.707	60.07
263.923	4.78
264.139	-32.08
264.355	-5.46
264.571	55.98
264.787	-36.18
265.004	47.79
265.22	-7.51
265.436	-7.51
265.652	35.5
265.868	-56.66
266.084	8.87
266.3	17.07
266.516	27.31
266.732	74.41
266.948	-7.51
267.164	60.07
267.38	27.31
267.596	62.12
267.812	10.92
268.028	21.16
268.244	-9.56
268.46	25.26
268.676	37.55
268.892	8.87
269.108	21.16
269.324	25.26
269.54	33.45
269.756	12.97
269.972	2.73
270.188	49.83
270.403	-46.42
270.619	-23.89
270.835	82.6
271.051	-15.7
271.267	66.22
271.483	-32.08
271.698	45.74
271.914	49.83
272.13	-46.42
272.346	10.92
272.562	-7.51
272.777	47.79
272.993	25.26
273.209	-23.89
273.425	29.35
273.64	-17.75
273.856	80.55
274.072	49.83
274.287	-66.9
274.503	-5.46
274.719	35.5
274.934	12.97
275.15	-11.61
275.366	109.22
275.581	-23.89
275.797	74.41
276.012	-48.47
276.228	-27.99
276.444	41.64
276.659	2.73
276.875	0.68
277.09	82.6
277.306	29.35
277.521	74.41
277.737	17.07
277.952	10.92
278.168	60.07
278.383	-7.51
278.599	8.87
278.814	6.83
279.03	15.02
279.245	43.69
279.461	-9.56
279.676	25.26
279.892	-27.99
280.107	-13.65
280.322	4.78
280.538	-36.18
280.753	39.59
280.969	-9.56
281.184	62.12
281.399	27.31
281.615	-3.41
281.83	-25.94
282.045	-5.46
282.26	-52.56
282.476	109.22
282.691	8.87
282.906	43.69
283.122	-7.51
283.337	27.31
283.552	109.22
283.767	-11.61
283.983	55.98
284.198	-23.89
284.413	66.22
284.628	8.87
284.843	-15.7
285.058	-5.46
285.274	6.83
285.489	0.68
285.704	8.87
285.919	15.02
286.134	12.97
286.349	12.97
286.564	70.31
286.779	8.87
286.995	31.4
287.21	-79.19
287.425	21.16
287.64	35.5
287.855	-54.61
288.07	-23.89
288.285	62.12
288.5	0.68
288.715	33.45
288.93	-30.04
289.145	-23.89
289.36	41.64
289.575	39.59
289.79	21.16
290.004	-23.89
290.219	53.93
290.434	-36.18
290.649	-73.04
290.864	6.83
291.079	-9.56
291.294	15.02
291.509	-5.46
291.724	-7.51
291.938	53.93
292.153	-32.08
292.368	49.83
292.583	-5.46
292.798	23.21
293.012	6.83
293.227	21.16
293.442	43.69
293.657	-21.85
293.871	-30.04
294.086	-27.99
294.301	55.98
294.516	43.69
294.73	-13.65
294.945	-15.7
295.16	68.27
295.374	101.03
295.589	41.64
295.804	12.97
296.018	-21.85
296.233	43.69
296.447	23.21
296.662	29.35
296.877	47.79
297.091	45.74
297.306	-30.04
297.52	-23.89
297.735	49.83
297.949	23.21
298.164	41.64
298.378	27.31
298.593	-71
298.807	0.68
299.022	66.22
299.236	49.83
299.451	-54.61
299.665	51.88
299.88	10.92
300.094	-3.41
300.309	101.03
300.523	-1.37
300.737	-40.28
300.952	17.07
301.166	33.45
301.381	-54.61
301.595	-11.61
301.809	-32.08
302.024	49.83
302.238	-30.04
302.452	-40.28
302.667	-7.51
302.881	2.73
303.095	25.26
303.309	-42.32
303.524	39.59
303.738	-23.89
303.952	8.87
304.166	107.18
304.381	-46.42
304.595	35.5
304.809	25.26
305.023	33.45
305.237	33.45
305.452	8.87
305.666	29.35
305.88	-23.89
306.094	-40.28
306.308	17.07
306.522	41.64
306.736	66.22
306.95	98.99
307.164	8.87
307.379	8.87
307.593	64.17
307.807	60.07
308.021	41.64
308.235	17.07
308.449	-116.05
308.663	-40.28
308.877	98.99
309.091	-27.99
309.305	82.6
309.519	-27.99
309.733	12.97
309.947	-56.66
310.161	35.5
310.374	23.21
310.588	-21.85
310.802	53.93
311.016	33.45
311.23	-9.56
311.444	0.68
311.658	15.02
311.872	70.31
312.085	45.74
312.299	74.41
312.513	-7.51
312.727	45.74
312.941	2.73
313.154	0.68
313.368	64.17
313.582	115.37
313.796	-7.51
314.009	60.07
314.223	55.98
314.437	-15.7
314.651	8.87
314.864	-23.89
315.078	-7.51
315.292	8.87
315.505	-7.51
315.719	58.03
315.933	2.73
316.146	0.68
316.36	-23.89
316.573	25.26
316.787	27.31
317.001	-15.7
317.214	35.5
317.428	29.35
317.641	33.45
317.855	-23.89
318.068	33.45
318.282	98.99
318.495	33.45
318.709	33.45
318.922	-3.41
319.136	0.68
319.349	41.64
319.563	29.35
319.776	33.45
319.99	33.45
320.203	17.07
320.417	60.07
320.63	-13.65
320.843	12.97
321.057	29.35
321.27	51.88
321.483	58.03
321.697	29.35
321.91	12.97
322.124	-32.08
322.337	-3.41
322.55	107.18
322.763	43.69
322.977	51.88
323.19	-3.41
323.403	43.69
323.617	-77.14
323.83	-40.28
324.043	39.59
324.256	-13.65
324.469	-58.71
324.683	43.69
324.896	68.27
325.109	29.35
325.322	-19.8
325.535	-17.75
325.748	-11.61
325.962	58.03
326.175	19.11
326.388	-7.51
326.601	33.45
326.814	-13.65
327.027	21.16
327.24	105.13
327.453	-3.41
327.666	2.73
327.879	43.69
328.092	62.12
328.305	25.26
328.518	-5.46
328.731	-73.04
328.944	0.68
329.157	70.31
329.37	17.07
329.583	45.74
329.796	53.93
330.009	31.4
330.222	25.26
330.435	41.64
330.648	17.07
330.861	45.74
331.073	-21.85
331.286	33.45
331.499	35.5
331.712	-25.94
331.925	12.97
332.138	37.55
332.35	27.31
332.563	31.4
332.776	49.83
332.989	-52.56
333.202	51.88
333.414	10.92
333.627	0.68
333.84	41.64
334.053	-40.28
334.265	35.5
334.478	35.5
334.691	4.78
334.903	-5.46
335.116	47.79
335.329	4.78
335.541	-7.51
335.754	86.7
335.966	-7.51
336.179	43.69
336.392	82.6
336.604	19.11
336.817	29.35
337.029	109.22
337.242	-7.51
337.454	17.07
337.667	84.65
337.88	35.5
338.092	76.46
338.305	-13.65
338.517	33.45
338.729	29.35
338.942	66.22
339.154	-25.94
339.367	23.21
339.579	60.07
339.792	35.5
340.004	27.31
340.217	23.21
340.429	62.12
340.641	-21.85
340.854	8.87
341.066	-9.56
341.278	68.27
341.491	53.93
341.703	-7.51
341.915	6.83
342.128	92.84
342.34	53.93
342.552	49.83
342.764	66.22
342.977	-54.61
343.189	41.64
343.401	17.07
343.613	6.83
343.826	53.93
344.038	-32.08
344.25	-11.61
344.462	-32.08
344.674	76.46
344.886	33.45
345.099	-19.8
345.311	66.22
345.523	58.03
345.735	-13.65
345.947	60.07
346.159	-36.18
346.371	8.87
346.583	-48.47
346.795	66.22
347.007	23.21
347.219	62.12
347.431	25.26
347.643	12.97
347.855	-68.95
348.067	72.36
348.279	41.64
348.491	-11.61
348.703	23.21
348.915	25.26
349.127	45.74
349.339	31.4
349.551	-48.47
349.763	70.31
349.975	58.03
350.187	141.99
350.399	-11.61
350.61	39.59
350.822	-40.28
351.034	-23.89
351.246	2.73
351.458	43.69
351.669	-1.37
351.881	33.45
352.093	21.16
352.305	62.12
352.517	27.31
352.728	84.65
352.94	94.89
353.152	103.08
353.363	-64.85
353.575	0.68
353.787	19.11
353.999	25.26
354.21	8.87
354.422	62.12
354.633	-11.61
354.845	2.73
355.057	-19.8
355.268	35.5
355.48	51.88
355.692	-19.8
355.903	-91.48
356.115	-19.8
356.326	-23.89
356.538	62.12
356.749	-11.61
356.961	33.45
357.172	29.35
357.384	-52.56
357.595	49.83
357.807	4.78
358.018	0.68
358.23	0.68
358.441	115.37
358.653	-21.85
358.864	45.74
359.075	51.88
359.287	-21.85
359.498	96.94
359.709	-38.23
359.921	15.02
360.132	43.69
360.344	51.88
360.555	31.4
360.766	17.07
360.977	12.97
361.189	21.16
361.4	-3.41
361.611	49.83
361.823	90.79
362.034	33.45
362.245	-38.23
362.456	55.98
362.667	68.27
362.879	-32.08
363.09	49.83
363.301	98.99
363.512	66.22
363.723	70.31
363.935	2.73
364.146	66.22
364.357	68.27
364.568	-1.37
364.779	4.78
364.99	37.55
365.201	53.93
365.412	41.64
365.623	17.07
365.834	-81.24
366.045	27.31
366.256	0.68
366.467	-64.85
366.678	-7.51
366.889	66.22
367.1	-1.37
367.311	17.07
367.522	-1.37
367.733	72.36
367.944	58.03
368.155	-9.56
368.366	123.56
368.577	68.27
368.788	53.93
368.999	41.64
369.209	62.12
369.42	41.64
369.631	94.89
369.842	135.85
370.053	12.97
370.264	33.45
370.474	68.27
370.685	80.55
370.896	62.12
371.107	4.78
371.317	17.07
371.528	-5.46
371.739	74.41
371.95	29.35
372.16	31.4
372.371	-15.7
372.582	33.45
372.792	60.07
373.003	12.97
373.214	43.69
373.424	78.51
373.635	23.21
373.846	23.21
374.056	41.64
374.267	78.51
374.477	62.12
374.688	21.16
374.898	-19.8
375.109	76.46
375.319	0.68
375.53	82.6
375.74	4.78
375.951	76.46
376.161	8.87
376.372	72.36
376.582	8.87
376.793	-13.65
377.003	4.78
377.214	-3.41
377.424	39.59
377.635	-30.04
377.845	45.74
378.055	82.6
378.266	58.03
378.476	70.31
378.686	53.93
378.897	-3.41
379.107	37.55
379.317	37.55
379.528	-32.08
379.738	70.31
379.948	-66.9
380.158	66.22
380.369	17.07
380.579	21.16
380.789	17.07
380.999	70.31
381.21	45.74
381.42	43.69
381.63	27.31
381.84	123.56
382.05	33.45
382.261	25.26
382.471	41.64
382.681	29.35
382.891	39.59
383.101	10.92
383.311	-30.04
383.521	49.83
383.731	-48.47
383.941	66.22
384.151	-38.23
384.361	35.5
384.571	74.41
384.781	-13.65
384.991	90.79
385.201	47.79
385.411	17.07
385.621	82.6
385.831	37.55
386.041	27.31
386.251	90.79
386.461	45.74
386.671	72.36
386.881	62.12
387.091	33.45
387.301	90.79
387.511	0.68
387.72	53.93
387.93	23.21
388.14	21.16
388.35	2.73
388.56	74.41
388.769	90.79
388.979	66.22
389.189	-11.61
389.399	84.65
389.609	103.08
389.818	58.03
390.028	2.73
390.238	-27.99
390.447	12.97
390.657	148.14
390.867	49.83
391.076	-52.56
391.286	58.03
391.496	17.07
391.705	17.07
391.915	101.03
392.125	43.69
392.334	74.41
392.544	45.74
392.753	21.16
392.963	92.84
393.172	47.79
393.382	-13.65
393.591	82.6
393.801	55.98
394.01	76.46
394.22	39.59
394.429	66.22
394.639	0.68
394.848	101.03
395.058	-21.85
395.267	-36.18
395.477	150.18
395.686	68.27
395.895	47.79
396.105	47.79
396.314	66.22
396.524	-32.08
396.733	33.45
396.942	98.99
397.152	37.55
397.361	37.55
397.57	66.22
397.78	98.99
397.989	172.71
398.198	209.58
398.407	0.68
398.617	92.84
398.826	101.03
399.035	131.75
399.244	62.12
399.453	82.6
399.663	84.65
399.872	127.66
400.081	17.07
400.29	152.23
400.499	4.78
400.708	139.94
400.917	12.97
401.127	78.51
401.336	41.64
401.545	111.27
401.754	123.56
401.963	84.65
402.172	45.74
402.381	121.51
402.59	141.99
402.799	37.55
403.008	115.37
403.217	103.08
403.426	119.46
403.635	115.37
403.844	82.6
404.053	127.66
404.262	64.17
404.471	107.18
404.68	94.89
404.888	103.08
405.097	191.14
405.306	141.99
405.515	119.46
405.724	156.33
405.933	123.56
406.142	148.14
406.35	215.72
406.559	185
406.768	148.14
406.977	209.58
407.185	193.19
407.394	209.58
407.603	195.24
407.812	211.62
408.02	314.02
408.229	189.1
408.438	172.71
408.646	172.71
408.855	213.67
409.064	125.61
409.272	262.82
409.481	170.66
409.69	201.38
409.898	225.96
410.107	301.73
410.315	334.5
410.524	256.68
410.733	344.74
410.941	221.86
411.15	365.22
411.358	422.56
411.567	395.94
411.775	377.51
411.984	357.03
412.192	402.08
412.401	434.85
412.609	516.77
412.818	504.48
413.026	508.58
413.234	443.04
413.443	484
413.651	524.96
413.86	641.7
414.068	610.98
414.276	639.65
414.485	600.74
414.693	676.51
414.901	694.94
415.11	699.04
415.318	643.74
415.526	656.03
415.734	783.01
415.943	723.62
416.151	721.57
416.359	774.81
416.567	852.64
416.776	871.07
416.984	893.6
417.192	901.79
417.4	901.79
417.608	893.6
417.817	1065.63
418.025	1061.53
418.233	1073.82
418.441	1102.49
418.649	1084.06
418.857	1247.9
419.065	1323.67
419.273	1303.19
419.481	1372.82
419.689	1356.44
419.897	1467.03
420.105	1442.45
420.313	1507.99
420.521	1616.53
420.729	1507.99
420.937	1675.92
421.145	1708.69
421.353	1899.15
421.561	1864.33
421.769	1884.81
421.977	2040.46
422.185	1886.86
422.393	2015.88
422.601	2214.54
422.809	2163.34
423.017	2222.73
423.224	2306.7
423.432	2351.75
423.64	2480.77
423.848	2632.32
424.056	2581.12
424.263	2736.77
424.471	2712.19
424.679	2892.41
424.887	2900.61
425.094	3093.12
425.302	3017.34
425.51	3109.5
425.718	3336.82
425.925	3277.43
426.133	3359.35
426.341	3676.79
426.548	3922.54
426.756	3846.77
426.964	3932.78
427.171	4113
427.379	4203.11
427.586	4358.76
427.794	4317.8
428.001	4500.07
428.209	4889.18
428.417	4684.39
428.624	5087.84
428.832	5173.85
429.039	4973.15
429.247	5024.35
429.454	5472.86
429.662	5794.39
429.869	5423.7
430.076	5902.93
430.284	5681.75
430.491	5911.12
430.699	6328.91
430.906	6218.32
431.114	6333
431.321	6507.08
431.528	6685.25
431.736	7115.33
431.943	7430.71
432.15	7184.96
432.358	7254.59
432.565	7420.47
432.772	7690.81
432.979	8110.64
433.187	8096.3
433.394	8268.33
433.601	8798.76
433.808	8759.85
434.016	8765.99
434.223	9294.36
434.43	9650.71
434.637	9464.35
434.844	10117.65
435.052	10363.4
435.259	10140.18
435.466	10258.96
435.673	10248.72
435.88	10830.34
436.087	11569.66
436.294	11444.73
436.501	11137.54
436.708	11465.21
436.915	12009.97
437.122	12337.65
437.329	12337.65
437.537	12501.48
437.743	12904.93
437.95	12693.99
438.157	13292
438.364	13945.3
438.571	13763.03
438.778	13904.34
438.985	15262.15
439.192	14498.25
439.399	15073.73
439.606	14723.53
439.813	15704.51
440.02	16691.63
440.227	16142.77
440.433	16179.64
440.64	16527.79
440.847	16499.12
441.054	17037.73
441.261	18178.45
441.467	17736.09
441.674	18047.38
441.881	18833.8
442.088	18854.28
442.294	18835.85
442.501	19106.18
442.708	19564.93
442.914	20214.13
443.121	20803.95
443.328	20668.78
443.534	21786.97
443.741	21129.58
443.948	20834.67
444.154	22567.25
444.361	22505.81
444.568	22602.07
444.774	22427.99
444.981	22602.07
445.187	23341.38
445.394	24488.24
445.6	24054.08
445.807	26384.66
446.013	25157.93
446.22	25958.69
446.426	26667.28
446.633	27025.68
446.839	28010.75
447.046	26749.2
447.252	28354.81
447.459	28221.69
447.665	28051.71
447.871	29280.49
448.078	30740.69
448.284	29118.7
448.491	29743.33
448.697	31017.17
448.903	31807.69
449.11	31920.32
449.316	31582.41
449.522	31738.05
449.728	32547
449.935	32989.36
450.141	32856.25
450.347	33958.05
450.553	32522.43
450.76	33079.47
450.966	34574.49
451.172	33964.2
451.378	34744.47
451.584	33872.04
451.791	34271.39
451.997	34642.07
452.203	35133.59
452.409	35109.01
452.615	35047.57
452.821	33560.75
453.027	33480.88
453.233	35328.14
453.44	33521.84
453.646	34386.08
453.852	34435.23
454.058	34934.93
454.264	33769.64
454.47	34545.82
454.676	33618.09
454.882	34879.64
455.088	32088.26
455.294	32350.4
455.5	32729.27
455.705	33278.13
455.911	31684.81
456.117	30939.35
456.323	30804.18
456.529	29434.09
456.735	30267.61
456.941	29618.41
457.147	29477.1
457.352	28614.9
457.558	28084.48
457.764	28188.92
457.97	27709.7
458.176	27230.48
458.381	27435.27
458.587	25839.9
458.793	25655.59
458.999	24357.17
459.204	26435.86
459.41	25401.64
459.616	23904.57
459.821	24041.79
460.027	23875.9
460.233	23341.38
460.438	22292.82
460.644	22192.47
460.85	21178.73
461.055	21180.78
461.261	21016.94
461.466	19614.08
461.672	18819.47
461.878	20228.47
462.083	18827.66
462.289	18491.79
462.494	18157.97
462.7	17338.79
462.905	16996.78
463.111	17752.48
463.316	17764.76
463.522	17357.22
463.727	17363.36
463.932	17349.03
464.138	17164.71
464.343	17088.93
464.549	16409.01
464.754	17138.09
464.959	17060.26
465.165	16939.43
465.37	16191.92
465.575	15751.61
465.781	16419.25
465.986	16447.92
466.191	15770.04
466.397	15778.23
466.602	14682.57
466.807	15616.44
467.012	15512
