Data from USB4F104151__29__14-16-27-733.txt Node

Date: Thu Mar 13 14:16:27 EDT 2025
User: louis
Spectrometer: USB4F10415
Trigger mode: 4
Integration Time (sec): 2.000000E-2
Scans to average: 1
Electric dark correction enabled: true
Nonlinearity correction enabled: false
Boxcar width: 0
XAxis mode: Wavelengths
Number of Pixels in Spectrum: 3648
>>>>>Begin Spectral Data<<<<<
178.204	-126.46
178.424	-126.46
178.644	-126.46
178.864	-32.26
179.084	-108.03
179.304	-9.73
179.524	33.28
179.744	-19.97
179.964	47.62
180.184	12.8
180.404	39.42
180.624	4.61
180.844	49.66
181.064	-97.79
181.283	-50.69
181.503	-40.45
181.723	31.23
181.943	47.62
182.163	154.11
182.383	8.7
182.602	55.81
182.822	53.76
183.042	107.01
183.262	20.99
183.482	31.23
183.701	-13.82
183.921	-34.3
184.141	-19.97
184.361	117.25
184.58	61.95
184.8	55.81
185.02	6.66
185.239	37.38
185.459	-7.68
185.679	4.61
185.898	4.61
186.118	16.9
186.338	-13.82
186.557	102.91
186.777	18.94
186.997	29.18
187.216	64
187.436	94.72
187.655	49.66
187.875	37.38
188.095	4.61
188.314	78.33
188.534	84.48
188.753	6.66
188.973	72.19
189.192	59.9
189.412	86.53
189.631	45.57
189.851	55.81
190.07	129.53
190.29	33.28
190.509	90.62
190.729	6.66
190.948	53.76
191.168	127.49
191.387	45.57
191.607	20.99
191.826	59.9
192.045	57.86
192.265	12.8
192.484	53.76
192.704	20.99
192.923	12.8
193.142	47.62
193.362	-1.54
193.581	96.77
193.8	33.28
194.02	113.15
194.239	18.94
194.458	29.18
194.678	4.61
194.897	49.66
195.116	-11.78
195.335	74.24
195.555	70.14
195.774	29.18
195.993	61.95
196.212	45.57
196.432	37.38
196.651	127.49
196.87	-13.82
197.089	78.33
197.308	-11.78
197.528	111.1
197.747	-15.87
197.966	68.09
198.185	127.49
198.404	-32.26
198.623	66.05
198.842	111.1
199.062	68.09
199.281	8.7
199.5	29.18
199.719	31.23
199.938	111.1
200.157	76.29
200.376	64
200.595	74.24
200.814	82.43
201.033	88.57
201.252	66.05
201.471	94.72
201.69	55.81
201.909	23.04
202.128	113.15
202.347	-3.58
202.566	41.47
202.785	47.62
203.004	31.23
203.223	115.2
203.442	57.86
203.661	27.14
203.879	70.14
204.098	6.66
204.317	-17.92
204.536	86.53
204.755	53.76
204.974	61.95
205.193	20.99
205.411	90.62
205.63	12.8
205.849	4.61
206.068	18.94
206.287	-28.16
206.505	92.67
206.724	68.09
206.943	86.53
207.162	39.42
207.381	88.57
207.599	39.42
207.818	59.9
208.037	59.9
208.255	72.19
208.474	82.43
208.693	27.14
208.911	20.99
209.13	23.04
209.349	20.99
209.567	45.57
209.786	41.47
210.005	29.18
210.223	64
210.442	-9.73
210.661	86.53
210.879	12.8
211.098	78.33
211.316	-7.68
211.535	41.47
211.753	-15.87
211.972	152.06
212.191	-9.73
212.409	41.47
212.628	78.33
212.846	33.28
213.065	98.81
213.283	78.33
213.502	4.61
213.72	72.19
213.938	2.56
214.157	47.62
214.375	86.53
214.594	49.66
214.812	70.14
215.031	70.14
215.249	23.04
215.467	45.57
215.686	-28.16
215.904	70.14
216.122	70.14
216.341	39.42
216.559	55.81
216.778	102.91
216.996	94.72
217.214	4.61
217.432	51.71
217.651	86.53
217.869	125.44
218.087	-24.06
218.306	70.14
218.524	-13.82
218.742	12.8
218.96	72.19
219.179	45.57
219.397	45.57
219.615	37.38
219.833	-32.26
220.051	-19.97
220.27	168.45
220.488	51.71
220.706	109.05
220.924	57.86
221.142	64
221.36	90.62
221.578	53.76
221.796	27.14
222.015	94.72
222.233	68.09
222.451	111.1
222.669	23.04
222.887	31.23
223.105	31.23
223.323	45.57
223.541	-19.97
223.759	107.01
223.977	37.38
224.195	25.09
224.413	43.52
224.631	47.62
224.849	64
225.067	96.77
225.285	25.09
225.503	14.85
225.721	66.05
225.939	55.81
226.157	45.57
226.375	41.47
226.592	12.8
226.81	64
227.028	51.71
227.246	102.91
227.464	94.72
227.682	8.7
227.9	55.81
228.117	64
228.335	82.43
228.553	18.94
228.771	115.2
228.989	53.76
229.206	18.94
229.424	12.8
229.642	53.76
229.86	-36.35
230.077	12.8
230.295	23.04
230.513	33.28
230.731	80.38
230.948	86.53
231.166	82.43
231.384	39.42
231.601	70.14
231.819	33.28
232.037	45.57
232.254	4.61
232.472	53.76
232.689	70.14
232.907	109.05
233.125	70.14
233.342	-26.11
233.56	25.09
233.777	-7.68
233.995	8.7
234.213	16.9
234.43	53.76
234.648	98.81
234.865	72.19
235.083	70.14
235.3	47.62
235.518	61.95
235.735	6.66
235.953	55.81
236.17	31.23
236.388	68.09
236.605	6.66
236.822	74.24
237.04	25.09
237.257	16.9
237.475	-15.87
237.692	25.09
237.909	-3.58
238.127	84.48
238.344	47.62
238.562	70.14
238.779	-28.16
238.996	29.18
239.214	37.38
239.431	25.09
239.648	-9.73
239.865	64
240.083	80.38
240.3	6.66
240.517	92.67
240.735	-7.68
240.952	61.95
241.169	-28.16
241.386	20.99
241.603	78.33
241.821	4.61
242.038	29.18
242.255	82.43
242.472	39.42
242.689	61.95
242.907	72.19
243.124	33.28
243.341	72.19
243.558	72.19
243.775	29.18
243.992	25.09
244.209	0.51
244.426	8.7
244.643	123.39
244.86	45.57
245.078	86.53
245.295	-3.58
245.512	25.09
245.729	98.81
245.946	80.38
246.163	10.75
246.38	-9.73
246.597	66.05
246.814	74.24
247.031	4.61
247.248	61.95
247.464	-40.45
247.681	86.53
247.898	135.68
248.115	119.29
248.332	12.8
248.549	37.38
248.766	113.15
248.983	20.99
249.2	39.42
249.417	94.72
249.633	20.99
249.85	6.66
250.067	0.51
250.284	57.86
250.501	127.49
250.717	74.24
250.934	37.38
251.151	4.61
251.368	-3.58
251.585	55.81
251.801	78.33
252.018	16.9
252.235	72.19
252.451	70.14
252.668	35.33
252.885	66.05
253.102	37.38
253.318	-24.06
253.535	-28.16
253.752	29.18
253.968	-32.26
254.185	25.09
254.401	64
254.618	111.1
254.835	-5.63
255.051	119.29
255.268	74.24
255.484	23.04
255.701	68.09
255.917	86.53
256.134	64
256.351	98.81
256.567	-1.54
256.784	45.57
257	-5.63
257.217	76.29
257.433	82.43
257.65	47.62
257.866	92.67
258.082	-50.69
258.299	20.99
258.515	37.38
258.732	-40.45
258.948	70.14
259.165	45.57
259.381	53.76
259.597	16.9
259.814	86.53
260.03	6.66
260.246	16.9
260.463	117.25
260.679	47.62
260.895	4.61
261.112	70.14
261.328	31.23
261.544	66.05
261.761	119.29
261.977	70.14
262.193	-15.87
262.409	57.86
262.626	-7.68
262.842	12.8
263.058	6.66
263.274	-44.54
263.49	53.76
263.707	53.76
263.923	39.42
264.139	16.9
264.355	61.95
264.571	133.63
264.787	78.33
265.004	115.2
265.22	59.9
265.436	49.66
265.652	12.8
265.868	113.15
266.084	47.62
266.3	70.14
266.516	66.05
266.732	45.57
266.948	37.38
267.164	37.38
267.38	70.14
267.596	137.73
267.812	88.57
268.028	29.18
268.244	-7.68
268.46	119.29
268.676	45.57
268.892	47.62
269.108	33.28
269.324	6.66
269.54	8.7
269.756	-3.58
269.972	45.57
270.188	72.19
270.403	10.75
270.619	10.75
270.835	70.14
271.051	-3.58
271.267	68.09
271.483	37.38
271.698	39.42
271.914	-15.87
272.13	70.14
272.346	-34.3
272.562	12.8
272.777	-7.68
272.993	47.62
273.209	55.81
273.425	88.57
273.64	4.61
273.856	43.52
274.072	57.86
274.287	12.8
274.503	102.91
274.719	20.99
274.934	31.23
275.15	-17.92
275.366	61.95
275.581	-9.73
275.797	72.19
276.012	45.57
276.228	115.2
276.444	57.86
276.659	96.77
276.875	57.86
277.09	14.85
277.306	37.38
277.521	29.18
277.737	0.51
277.952	-38.4
278.168	53.76
278.383	31.23
278.599	49.66
278.814	61.95
279.03	45.57
279.245	78.33
279.461	51.71
279.676	-52.74
279.892	37.38
280.107	8.7
280.322	41.47
280.538	6.66
280.753	68.09
280.969	70.14
281.184	64
281.399	10.75
281.615	47.62
281.83	72.19
282.045	45.57
282.26	10.75
282.476	49.66
282.691	80.38
282.906	121.34
283.122	39.42
283.337	100.86
283.552	115.2
283.767	94.72
283.983	47.62
284.198	0.51
284.413	102.91
284.628	51.71
284.843	55.81
285.058	133.63
285.274	88.57
285.489	16.9
285.704	61.95
285.919	51.71
286.134	16.9
286.349	39.42
286.564	6.66
286.779	82.43
286.995	82.43
287.21	53.76
287.425	12.8
287.64	4.61
287.855	78.33
288.07	23.04
288.285	96.77
288.5	86.53
288.715	33.28
288.93	47.62
289.145	16.9
289.36	23.04
289.575	64
289.79	154.11
290.004	55.81
290.219	37.38
290.434	49.66
290.649	4.61
290.864	27.14
291.079	45.57
291.294	-15.87
291.509	64
291.724	37.38
291.938	37.38
292.153	115.2
292.368	29.18
292.583	72.19
292.798	74.24
293.012	78.33
293.227	49.66
293.442	113.15
293.657	31.23
293.871	109.05
294.086	35.33
294.301	119.29
294.516	25.09
294.73	96.77
294.945	12.8
295.16	96.77
295.374	113.15
295.589	20.99
295.804	45.57
296.018	12.8
296.233	111.1
296.447	49.66
296.662	-15.87
296.877	-40.45
297.091	31.23
297.306	88.57
297.52	49.66
297.735	35.33
297.949	-19.97
298.164	53.76
298.378	20.99
298.593	47.62
298.807	53.76
299.022	12.8
299.236	61.95
299.451	107.01
299.665	51.71
299.88	113.15
300.094	-13.82
300.309	84.48
300.523	74.24
300.737	96.77
300.952	57.86
301.166	45.57
301.381	45.57
301.595	20.99
301.809	55.81
302.024	55.81
302.238	31.23
302.452	96.77
302.667	-1.54
302.881	123.39
303.095	102.91
303.309	20.99
303.524	78.33
303.738	64
303.952	12.8
304.166	39.42
304.381	-24.06
304.595	98.81
304.809	39.42
305.023	4.61
305.237	59.9
305.452	64
305.666	47.62
305.88	57.86
306.094	127.49
306.308	59.9
306.522	39.42
306.736	129.53
306.95	35.33
307.164	64
307.379	59.9
307.593	61.95
307.807	53.76
308.021	55.81
308.235	29.18
308.449	49.66
308.663	-28.16
308.877	82.43
309.091	86.53
309.305	86.53
309.519	-54.78
309.733	35.33
309.947	16.9
310.161	-3.58
310.374	-3.58
310.588	39.42
310.802	37.38
311.016	96.77
311.23	64
311.444	29.18
311.658	61.95
311.872	74.24
312.085	64
312.299	70.14
312.513	18.94
312.727	59.9
312.941	49.66
313.154	53.76
313.368	39.42
313.582	111.1
313.796	70.14
314.009	53.76
314.223	86.53
314.437	61.95
314.651	70.14
314.864	53.76
315.078	117.25
315.292	4.61
315.505	12.8
315.719	39.42
315.933	70.14
316.146	53.76
316.36	-5.63
316.573	-5.63
316.787	55.81
317.001	156.16
317.214	-75.26
317.428	66.05
317.641	74.24
317.855	61.95
318.068	53.76
318.282	37.38
318.495	107.01
318.709	0.51
318.922	35.33
319.136	90.62
319.349	51.71
319.563	49.66
319.776	33.28
319.99	-52.74
320.203	90.62
320.417	12.8
320.63	45.57
320.843	39.42
321.057	94.72
321.27	23.04
321.483	115.2
321.697	111.1
321.91	88.57
322.124	23.04
322.337	18.94
322.55	37.38
322.763	104.96
322.977	41.47
323.19	29.18
323.403	86.53
323.617	66.05
323.83	96.77
324.043	61.95
324.256	80.38
324.469	31.23
324.683	-1.54
324.896	119.29
325.109	98.81
325.322	39.42
325.535	61.95
325.748	94.72
325.962	82.43
326.175	131.58
326.388	20.99
326.601	135.68
326.814	33.28
327.027	90.62
327.24	131.58
327.453	4.61
327.666	145.92
327.879	80.38
328.092	82.43
328.305	-17.92
328.518	14.85
328.731	-3.58
328.944	70.14
329.157	-17.92
329.37	14.85
329.583	119.29
329.796	59.9
330.009	16.9
330.222	90.62
330.435	27.14
330.648	102.91
330.861	29.18
331.073	90.62
331.286	31.23
331.499	51.71
331.712	76.29
331.925	111.1
332.138	-3.58
332.35	119.29
332.563	66.05
332.776	49.66
332.989	76.29
333.202	88.57
333.414	31.23
333.627	-11.78
333.84	70.14
334.053	25.09
334.265	70.14
334.478	37.38
334.691	74.24
334.903	31.23
335.116	111.1
335.329	20.99
335.541	66.05
335.754	29.18
335.966	0.51
336.179	82.43
336.392	123.39
336.604	80.38
336.817	0.51
337.029	74.24
337.242	49.66
337.454	94.72
337.667	16.9
337.88	37.38
338.092	-3.58
338.305	14.85
338.517	39.42
338.729	109.05
338.942	70.14
339.154	29.18
339.367	-46.59
339.579	111.1
339.792	10.75
340.004	47.62
340.217	37.38
340.429	57.86
340.641	-15.87
340.854	90.62
341.066	23.04
341.278	61.95
341.491	94.72
341.703	20.99
341.915	45.57
342.128	53.76
342.34	92.67
342.552	82.43
342.764	57.86
342.977	70.14
343.189	-3.58
343.401	82.43
343.613	-44.54
343.826	78.33
344.038	12.8
344.25	74.24
344.462	6.66
344.674	127.49
344.886	49.66
345.099	113.15
345.311	84.48
345.523	78.33
345.735	55.81
345.947	115.2
346.159	-9.73
346.371	53.76
346.583	107.01
346.795	90.62
347.007	84.48
347.219	102.91
347.431	27.14
347.643	107.01
347.855	64
348.067	55.81
348.279	-3.58
348.491	160.25
348.703	45.57
348.915	70.14
349.127	37.38
349.339	109.05
349.551	25.09
349.763	104.96
349.975	16.9
350.187	94.72
350.399	47.62
350.61	25.09
350.822	47.62
351.034	78.33
351.246	66.05
351.458	43.52
351.669	53.76
351.881	135.68
352.093	55.81
352.305	131.58
352.517	-9.73
352.728	88.57
352.94	168.45
353.152	88.57
353.363	29.18
353.575	31.23
353.787	121.34
353.999	47.62
354.21	23.04
354.422	137.73
354.633	55.81
354.845	94.72
355.057	82.43
355.268	57.86
355.48	41.47
355.692	61.95
355.903	74.24
356.115	94.72
356.326	55.81
356.538	102.91
356.749	102.91
356.961	76.29
357.172	20.99
357.384	14.85
357.595	113.15
357.807	8.7
358.018	57.86
358.23	55.81
358.441	53.76
358.653	55.81
358.864	51.71
359.075	66.05
359.287	82.43
359.498	102.91
359.709	115.2
359.921	137.73
360.132	-1.54
360.344	61.95
360.555	2.56
360.766	113.15
360.977	45.57
361.189	158.21
361.4	59.9
361.611	78.33
361.823	80.38
362.034	57.86
362.245	25.09
362.456	94.72
362.667	-7.68
362.879	23.04
363.09	43.52
363.301	33.28
363.512	74.24
363.723	25.09
363.935	23.04
364.146	90.62
364.357	72.19
364.568	104.96
364.779	39.42
364.99	94.72
365.201	68.09
365.412	141.82
365.623	-9.73
365.834	102.91
366.045	49.66
366.256	92.67
366.467	107.01
366.678	57.86
366.889	41.47
367.1	102.91
367.311	74.24
367.522	29.18
367.733	86.53
367.944	61.95
368.155	111.1
368.366	94.72
368.577	61.95
368.788	117.25
368.999	4.61
369.209	90.62
369.42	127.49
369.631	96.77
369.842	45.57
370.053	37.38
370.264	59.9
370.474	135.68
370.685	16.9
370.896	131.58
371.107	86.53
371.317	14.85
371.528	66.05
371.739	16.9
371.95	96.77
372.16	57.86
372.371	47.62
372.582	47.62
372.792	70.14
373.003	12.8
373.214	57.86
373.424	74.24
373.635	88.57
373.846	115.2
374.056	115.2
374.267	61.95
374.477	127.49
374.688	131.58
374.898	66.05
375.109	78.33
375.319	49.66
375.53	53.76
375.74	78.33
375.951	16.9
376.161	74.24
376.372	70.14
376.582	123.39
376.793	107.01
377.003	-1.54
377.214	98.81
377.424	-1.54
377.635	78.33
377.845	119.29
378.055	33.28
378.266	53.76
378.476	70.14
378.686	55.81
378.897	0.51
379.107	51.71
379.317	94.72
379.528	137.73
379.738	86.53
379.948	-17.92
380.158	66.05
380.369	12.8
380.579	37.38
380.789	27.14
380.999	80.38
381.21	102.91
381.42	147.97
381.63	2.56
381.84	88.57
382.05	59.9
382.261	72.19
382.471	55.81
382.681	10.75
382.891	135.68
383.101	25.09
383.311	57.86
383.521	80.38
383.731	70.14
383.941	88.57
384.151	59.9
384.361	66.05
384.571	29.18
384.781	86.53
384.991	49.66
385.201	98.81
385.411	127.49
385.621	61.95
385.831	53.76
386.041	80.38
386.251	53.76
386.461	121.34
386.671	66.05
386.881	102.91
387.091	49.66
387.301	115.2
387.511	55.81
387.72	164.35
387.93	94.72
388.14	111.1
388.35	25.09
388.56	115.2
388.769	195.07
388.979	10.75
389.189	55.81
389.399	47.62
389.609	121.34
389.818	49.66
390.028	78.33
390.238	143.87
390.447	80.38
390.657	78.33
390.867	82.43
391.076	88.57
391.286	141.82
391.496	53.76
391.705	72.19
391.915	78.33
392.125	37.38
392.334	78.33
392.544	143.87
392.753	72.19
392.963	78.33
393.172	78.33
393.382	20.99
393.591	104.96
393.801	123.39
394.01	90.62
394.22	51.71
394.429	94.72
394.639	49.66
394.848	88.57
395.058	-9.73
395.267	78.33
395.477	119.29
395.686	127.49
395.895	78.33
396.105	96.77
396.314	104.96
396.524	98.81
396.733	78.33
396.942	111.1
397.152	127.49
397.361	76.29
397.57	137.73
397.78	135.68
397.989	135.68
398.198	162.3
398.407	121.34
398.617	61.95
398.826	78.33
399.035	66.05
399.244	131.58
399.453	98.81
399.663	125.44
399.872	78.33
400.081	102.91
400.29	154.11
400.499	53.76
400.708	160.25
400.917	96.77
401.127	127.49
401.336	119.29
401.545	152.06
401.754	127.49
401.963	47.62
402.172	158.21
402.381	98.81
402.59	121.34
402.799	94.72
403.008	117.25
403.217	111.1
403.426	143.87
403.635	178.69
403.844	127.49
404.053	276.99
404.262	115.2
404.471	180.73
404.68	213.5
404.888	119.29
405.097	186.88
405.306	178.69
405.515	199.16
405.724	178.69
405.933	254.46
406.142	201.21
406.35	193.02
406.559	217.6
406.768	233.98
406.977	242.17
407.185	225.79
407.394	180.73
407.603	168.45
407.812	262.65
408.02	213.5
408.229	203.26
408.438	274.94
408.646	276.99
408.855	346.62
409.064	197.12
409.272	190.97
409.481	287.23
409.69	320
409.898	287.23
410.107	229.88
410.315	326.14
410.524	279.04
410.733	397.82
410.941	262.65
411.15	350.71
411.358	438.78
411.567	453.11
411.775	350.71
411.984	248.32
412.192	414.2
412.401	416.25
412.609	467.45
412.818	545.27
413.026	434.68
413.234	500.22
413.443	479.74
413.651	508.41
413.86	575.99
414.068	537.08
414.276	672.25
414.485	629.24
414.693	647.67
414.901	713.21
415.11	616.95
415.318	684.53
415.526	743.92
415.734	776.69
415.943	741.88
416.151	760.31
416.359	795.12
416.567	889.33
416.776	872.95
416.984	877.04
417.192	1044.98
417.4	997.87
417.608	1038.83
417.817	1075.7
418.025	1128.94
418.233	1118.7
418.441	1130.99
418.649	1085.94
418.857	1262.06
419.065	1300.97
419.273	1276.4
419.481	1331.69
419.689	1374.7
419.897	1479.15
420.105	1507.82
420.313	1626.6
420.521	1626.6
420.729	1614.31
420.937	1665.51
421.145	1751.53
421.353	1761.77
421.561	1876.45
421.769	1905.12
421.977	1950.18
422.185	1970.66
422.393	2150.88
422.601	2218.46
422.809	2144.74
423.017	2322.91
423.224	2255.33
423.432	2486.75
423.64	2413.02
423.848	2560.47
424.056	2503.13
424.263	2650.58
424.471	2724.31
424.679	2798.04
424.887	2972.11
425.094	3051.99
425.302	3097.04
425.51	3158.48
425.718	3394
425.925	3269.07
426.133	3383.76
426.341	3557.83
426.548	3838.41
426.756	3813.83
426.964	3805.64
427.171	3938.76
427.379	4141.5
427.586	4198.85
427.794	4323.77
428.001	4561.34
428.209	4651.45
428.417	4452.8
428.624	5011.89
428.832	4848.05
429.039	4891.06
429.247	4882.87
429.454	5384.62
429.662	5781.93
429.869	5394.86
430.076	5804.46
430.284	5616.04
430.491	5896.61
430.699	6087.08
430.906	6320.54
431.114	6216.1
431.321	6463.9
431.528	6566.3
431.736	6977.94
431.943	7522.7
432.15	7176.59
432.358	7336.34
432.565	7639.44
432.772	7721.35
432.979	7948.68
433.187	7915.91
433.394	8020.36
433.601	8862.07
433.808	8601.98
434.016	8614.27
434.223	9142.64
434.43	9376.11
434.637	9386.35
434.844	9970.02
435.052	9916.78
435.259	10035.56
435.466	10162.53
435.673	10047.85
435.88	10592.61
436.087	11180.37
436.294	11250
436.501	11049.3
436.708	11231.57
436.915	11755.85
437.122	12108.1
437.329	12155.21
437.537	12527.94
437.743	12661.05
437.95	12452.16
438.157	13199.67
438.364	13750.57
438.571	13572.4
438.778	13699.37
438.985	15022.36
439.192	14397.73
439.399	14852.38
439.606	14217.51
439.813	15251.74
440.02	16277.77
440.227	16034.06
440.433	15651.09
440.64	15954.19
440.847	16212.23
441.054	16726.27
441.261	17799.41
441.467	17572.08
441.674	17711.35
441.881	18622.69
442.088	18438.37
442.294	18364.65
442.501	18667.75
442.708	19202.27
442.914	19826.9
443.121	20695.24
443.328	20256.97
443.534	21348.54
443.741	20746.44
443.948	20510.92
444.154	22161.58
444.361	21827.76
444.568	22290.6
444.774	22085.81
444.981	22425.77
445.187	23134.37
445.394	24148.11
445.6	23558.3
445.807	26228.85
446.013	24754.31
446.22	25024.64
446.426	26499.18
446.633	26546.28
446.839	27576.41
447.046	26255.47
447.252	28121.17
447.459	27899.99
447.665	27682.91
447.871	28858.44
448.078	30068.79
448.284	28461.13
448.491	29632.57
448.697	30949.42
448.903	31287.33
449.11	31199.27
449.316	30898.22
449.522	31170.6
449.728	32141.33
449.935	32301.08
450.141	32206.87
450.347	33339.4
450.553	31850.52
450.76	32450.58
450.966	33243.14
451.172	32872.46
451.378	34162.68
451.584	33349.64
451.791	34035.7
451.997	34138.1
452.203	34607.09
452.409	34508.79
452.615	34373.62
452.821	32868.36
453.027	32813.07
453.233	34242.55
453.44	32770.06
453.646	33306.63
453.852	33662.97
454.058	33898.49
454.264	33134.6
454.47	33699.84
454.676	32851.98
454.882	34004.99
455.088	31029.29
455.294	31209.51
455.5	31985.69
455.705	32026.65
455.911	31129.64
456.117	30613.55
456.323	30167.09
456.529	28596.3
456.735	29708.35
456.941	28946.5
457.147	28516.43
457.352	27795.54
457.558	27549.79
457.764	27674.71
457.97	26947.68
458.176	26202.22
458.381	26417.26
458.587	25157.76
458.793	25043.07
458.999	23761.05
459.204	25950.32
459.41	24809.61
459.616	23257.25
459.821	23277.72
460.027	23355.55
460.233	22640.81
460.438	21674.17
460.644	21862.58
460.85	20764.87
461.055	20340.94
461.261	20551.88
461.466	18800.87
461.672	18235.63
461.878	19755.22
462.083	18352.36
462.289	18376.94
462.494	18127.08
462.7	17010.94
462.905	16554.24
463.111	17285.37
463.316	17074.43
463.522	16957.69
463.727	16943.36
463.932	16931.07
464.138	16441.61
464.343	16781.57
464.549	16216.33
464.754	16625.92
464.959	16756.99
465.165	16648.45
465.37	15921.42
465.575	15581.46
465.781	16281.86
465.986	16075.02
466.191	15618.32
466.397	15286.55
466.602	14629.15
466.807	15298.84
467.012	14905.63
467.218	14987.55
467.423	14807.33
467.628	14987.55
467.833	15165.72
468.038	14924.06
