Data from USB4F104151__125__14-18-55-440.txt Node

Date: Thu Mar 13 14:18:55 EDT 2025
User: louis
Spectrometer: USB4F10415
Trigger mode: 4
Integration Time (sec): 2.000000E-2
Scans to average: 1
Electric dark correction enabled: true
Nonlinearity correction enabled: false
Boxcar width: 0
XAxis mode: Wavelengths
Number of Pixels in Spectrum: 3648
>>>>>Begin Spectral Data<<<<<
178.204	-160.77
178.424	-160.77
178.644	-160.77
178.864	-33.79
179.084	-74.75
179.304	-48.13
179.524	50.18
179.744	-33.79
179.964	-5.12
180.184	17.41
180.404	-7.17
180.624	11.26
180.844	-15.36
181.064	-27.65
181.283	9.22
181.503	-25.6
181.723	74.75
181.943	-97.28
182.163	33.79
182.383	-1.02
182.602	1.02
182.822	84.99
183.042	1.02
183.262	-29.7
183.482	27.65
183.701	-15.36
183.921	-58.37
184.141	15.36
184.361	1.02
184.58	-15.36
184.8	-41.98
185.02	29.7
185.239	48.13
185.459	-58.37
185.679	56.32
185.898	48.13
186.118	76.8
186.338	115.71
186.557	25.6
186.777	31.74
186.997	-1.02
187.216	-7.17
187.436	64.51
187.655	17.41
187.875	19.46
188.095	-13.31
188.314	31.74
188.534	64.51
188.753	11.26
188.973	109.57
189.192	5.12
189.412	39.94
189.631	-7.17
189.851	7.17
190.07	-9.22
190.29	19.46
190.509	1.02
190.729	33.79
190.948	87.04
191.168	130.05
191.387	97.28
191.607	-9.22
191.826	-9.22
192.045	-15.36
192.265	-11.26
192.484	7.17
192.704	39.94
192.923	-1.02
193.142	76.8
193.362	25.6
193.581	101.37
193.8	66.56
194.02	56.32
194.239	-17.41
194.458	52.22
194.678	-46.08
194.897	-3.07
195.116	70.65
195.335	25.6
195.555	56.32
195.774	31.74
195.993	15.36
196.212	7.17
196.432	-58.37
196.651	-41.98
196.87	89.09
197.089	97.28
197.308	-50.18
197.528	27.65
197.747	33.79
197.966	-33.79
198.185	54.27
198.404	15.36
198.623	31.74
198.842	72.7
199.062	15.36
199.281	111.61
199.5	15.36
199.719	31.74
199.938	-3.07
200.157	13.31
200.376	-13.31
200.595	-25.6
200.814	56.32
201.033	41.98
201.252	105.47
201.471	105.47
201.69	25.6
201.909	-17.41
202.128	23.55
202.347	162.81
202.566	58.37
202.785	-1.02
203.004	-41.98
203.223	35.84
203.442	-25.6
203.661	7.17
203.879	29.7
204.098	-9.22
204.317	-33.79
204.536	9.22
204.755	-17.41
204.974	17.41
205.193	-17.41
205.411	150.53
205.63	66.56
205.849	-5.12
206.068	39.94
206.287	15.36
206.505	41.98
206.724	23.55
206.943	-23.55
207.162	-3.07
207.381	-58.37
207.599	-7.17
207.818	17.41
208.037	27.65
208.255	39.94
208.474	11.26
208.693	142.33
208.911	97.28
209.13	-7.17
209.349	27.65
209.567	70.65
209.786	-5.12
210.005	33.79
210.223	-7.17
210.442	89.09
210.661	50.18
210.879	82.94
211.098	-41.98
211.316	-13.31
211.535	54.27
211.753	56.32
211.972	7.17
212.191	29.7
212.409	19.46
212.628	74.75
212.846	15.36
213.065	-7.17
213.283	64.51
213.502	-41.98
213.72	19.46
213.938	15.36
214.157	66.56
214.375	11.26
214.594	7.17
214.812	7.17
215.031	64.51
215.249	44.03
215.467	25.6
215.686	23.55
215.904	7.17
216.122	9.22
216.341	15.36
216.559	27.65
216.778	15.36
216.996	-11.26
217.214	-58.37
217.432	-46.08
217.651	-9.22
217.869	-7.17
218.087	-25.6
218.306	52.22
218.524	37.89
218.742	64.51
218.96	-31.74
219.179	-41.98
219.397	87.04
219.615	13.31
219.833	33.79
220.051	9.22
220.27	25.6
220.488	48.13
220.706	-97.28
220.924	-31.74
221.142	23.55
221.36	-23.55
221.578	-17.41
221.796	9.22
222.015	72.7
222.233	31.74
222.451	-13.31
222.669	15.36
222.887	27.65
223.105	1.02
223.323	-23.55
223.541	-37.89
223.759	-1.02
223.977	-17.41
224.195	33.79
224.413	15.36
224.631	80.89
224.849	-37.89
225.067	56.32
225.285	-41.98
225.503	-41.98
225.721	-29.7
225.939	-50.18
226.157	-1.02
226.375	84.99
226.592	19.46
226.81	-21.5
227.028	39.94
227.246	130.05
227.464	41.98
227.682	25.6
227.9	-1.02
228.117	46.08
228.335	60.42
228.553	17.41
228.771	39.94
228.989	-9.22
229.206	-27.65
229.424	5.12
229.642	7.17
229.86	-15.36
230.077	41.98
230.295	35.84
230.513	80.89
230.731	-19.46
230.948	44.03
231.166	84.99
231.384	1.02
231.601	-58.37
231.819	13.31
232.037	19.46
232.254	27.65
232.472	64.51
232.689	25.6
232.907	50.18
233.125	35.84
233.342	5.12
233.56	-3.07
233.777	-7.17
233.995	-33.79
234.213	27.65
234.43	-17.41
234.648	62.46
234.865	11.26
235.083	25.6
235.3	7.17
235.518	87.04
235.735	64.51
235.953	25.6
236.17	-5.12
236.388	25.6
236.605	80.89
236.822	58.37
237.04	-33.79
237.257	52.22
237.475	-66.56
237.692	9.22
237.909	78.85
238.127	115.71
238.344	9.22
238.562	107.52
238.779	11.26
238.996	48.13
239.214	52.22
239.431	-1.02
239.648	1.02
239.865	35.84
240.083	39.94
240.3	48.13
240.517	-23.55
240.735	-15.36
240.952	48.13
241.169	-13.31
241.386	3.07
241.603	-9.22
241.821	25.6
242.038	31.74
242.255	-9.22
242.472	-19.46
242.689	7.17
242.907	17.41
243.124	-41.98
243.341	9.22
243.558	44.03
243.775	-33.79
243.992	7.17
244.209	56.32
244.426	1.02
244.643	99.33
244.86	27.65
245.078	76.8
245.295	-3.07
245.512	58.37
245.729	-15.36
245.946	-3.07
246.163	31.74
246.38	1.02
246.597	-29.7
246.814	23.55
247.031	-44.03
247.248	138.24
247.464	-17.41
247.681	25.6
247.898	-25.6
248.115	23.55
248.332	-56.32
248.549	25.6
248.766	23.55
248.983	72.7
249.2	23.55
249.417	-9.22
249.633	-37.89
249.85	56.32
250.067	-17.41
250.284	-7.17
250.501	23.55
250.717	68.61
250.934	11.26
251.151	15.36
251.368	-7.17
251.585	64.51
251.801	-17.41
252.018	-37.89
252.235	9.22
252.451	21.5
252.668	-19.46
252.885	39.94
253.102	7.17
253.318	29.7
253.535	27.65
253.752	21.5
253.968	-13.31
254.185	-91.13
254.401	7.17
254.618	113.66
254.835	7.17
255.051	31.74
255.268	-15.36
255.484	60.42
255.701	33.79
255.917	78.85
256.134	74.75
256.351	56.32
256.567	7.17
256.784	7.17
257	-37.89
257.217	72.7
257.433	31.74
257.65	80.89
257.866	46.08
258.082	1.02
258.299	-64.51
258.515	72.7
258.732	-21.5
258.948	-1.02
259.165	1.02
259.381	7.17
259.597	-1.02
259.814	7.17
260.03	-48.13
260.246	27.65
260.463	15.36
260.679	105.47
260.895	-31.74
261.112	46.08
261.328	74.75
261.544	48.13
261.761	3.07
261.977	-37.89
262.193	-15.36
262.409	-1.02
262.626	76.8
262.842	39.94
263.058	50.18
263.274	-25.6
263.49	27.65
263.707	72.7
263.923	46.08
264.139	-97.28
264.355	39.94
264.571	56.32
264.787	-11.26
265.004	-21.5
265.22	17.41
265.436	3.07
265.652	15.36
265.868	35.84
266.084	27.65
266.3	64.51
266.516	-39.94
266.732	7.17
266.948	-9.22
267.164	-23.55
267.38	-48.13
267.596	11.26
267.812	66.56
268.028	54.27
268.244	31.74
268.46	15.36
268.676	-19.46
268.892	76.8
269.108	-41.98
269.324	9.22
269.54	48.13
269.756	136.19
269.972	48.13
270.188	78.85
270.403	-31.74
270.619	103.42
270.835	3.07
271.051	64.51
271.267	-13.31
271.483	15.36
271.698	56.32
271.914	35.84
272.13	-9.22
272.346	-15.36
272.562	76.8
272.777	46.08
272.993	37.89
273.209	-54.27
273.425	1.02
273.64	31.74
273.856	64.51
274.072	-33.79
274.287	19.46
274.503	74.75
274.719	37.89
274.934	-41.98
275.15	41.98
275.366	-13.31
275.581	-25.6
275.797	23.55
276.012	-5.12
276.228	-23.55
276.444	64.51
276.659	58.37
276.875	-31.74
277.09	-13.31
277.306	-64.51
277.521	7.17
277.737	-7.17
277.952	138.24
278.168	-7.17
278.383	56.32
278.599	-9.22
278.814	80.89
279.03	52.22
279.245	-1.02
279.461	-74.75
279.676	3.07
279.892	44.03
280.107	-21.5
280.322	-27.65
280.538	-31.74
280.753	37.89
280.969	15.36
281.184	9.22
281.399	33.79
281.615	5.12
281.83	9.22
282.045	25.6
282.26	-13.31
282.476	31.74
282.691	19.46
282.906	13.31
283.122	-25.6
283.337	7.17
283.552	-50.18
283.767	-29.7
283.983	-17.41
284.198	-15.36
284.413	31.74
284.628	9.22
284.843	-29.7
285.058	-41.98
285.274	15.36
285.489	-21.5
285.704	-1.02
285.919	31.74
286.134	5.12
286.349	62.46
286.564	-31.74
286.779	72.7
286.995	-1.02
287.21	-13.31
287.425	1.02
287.64	-56.32
287.855	23.55
288.07	11.26
288.285	27.65
288.5	-3.07
288.715	15.36
288.93	19.46
289.145	-25.6
289.36	72.7
289.575	56.32
289.79	7.17
290.004	74.75
290.219	72.7
290.434	-29.7
290.649	-9.22
290.864	-17.41
291.079	-50.18
291.294	41.98
291.509	7.17
291.724	-89.09
291.938	72.7
292.153	31.74
292.368	-1.02
292.583	31.74
292.798	105.47
293.012	31.74
293.227	39.94
293.442	25.6
293.657	64.51
293.871	48.13
294.086	15.36
294.301	64.51
294.516	48.13
294.73	29.7
294.945	-13.31
295.16	-13.31
295.374	60.42
295.589	31.74
295.804	5.12
296.018	97.28
296.233	41.98
296.447	15.36
296.662	23.55
296.877	7.17
297.091	72.7
297.306	23.55
297.52	31.74
297.735	64.51
297.949	-23.55
298.164	31.74
298.378	-3.07
298.593	-9.22
298.807	27.65
299.022	64.51
299.236	84.99
299.451	15.36
299.665	-15.36
299.88	-1.02
300.094	-15.36
300.309	58.37
300.523	17.41
300.737	15.36
300.952	23.55
301.166	39.94
301.381	-33.79
301.595	56.32
301.809	54.27
302.024	7.17
302.238	-72.7
302.452	25.6
302.667	46.08
302.881	44.03
303.095	48.13
303.309	17.41
303.524	-23.55
303.738	27.65
303.952	-13.31
304.166	58.37
304.381	-29.7
304.595	23.55
304.809	-46.08
305.023	23.55
305.237	-1.02
305.452	56.32
305.666	27.65
305.88	-66.56
306.094	72.7
306.308	1.02
306.522	68.61
306.736	27.65
306.95	11.26
307.164	7.17
307.379	33.79
307.593	7.17
307.807	66.56
308.021	31.74
308.235	21.5
308.449	-7.17
308.663	15.36
308.877	44.03
309.091	-5.12
309.305	48.13
309.519	-3.07
309.733	58.37
309.947	1.02
310.161	-3.07
310.374	97.28
310.588	52.22
310.802	1.02
311.016	3.07
311.23	105.47
311.444	-13.31
311.658	52.22
311.872	25.6
312.085	68.61
312.299	31.74
312.513	-15.36
312.727	1.02
312.941	-25.6
313.154	70.65
313.368	-19.46
313.582	-39.94
313.796	17.41
314.009	74.75
314.223	-19.46
314.437	68.61
314.651	-50.18
314.864	-3.07
315.078	-33.79
315.292	5.12
315.505	-37.89
315.719	35.84
315.933	48.13
316.146	19.46
316.36	-74.75
316.573	25.6
316.787	15.36
317.001	33.79
317.214	3.07
317.428	-1.02
317.641	13.31
317.855	15.36
318.068	19.46
318.282	25.6
318.495	-29.7
318.709	23.55
318.922	11.26
319.136	-11.26
319.349	25.6
319.563	-9.22
319.776	23.55
319.99	-37.89
320.203	64.51
320.417	41.98
320.63	23.55
320.843	31.74
321.057	91.13
321.27	27.65
321.483	17.41
321.697	31.74
321.91	5.12
322.124	-15.36
322.337	-39.94
322.55	-13.31
322.763	-31.74
322.977	-58.37
323.19	-15.36
323.403	41.98
323.617	-84.99
323.83	1.02
324.043	25.6
324.256	7.17
324.469	58.37
324.683	39.94
324.896	-72.7
325.109	-1.02
325.322	33.79
325.535	-44.03
325.748	-27.65
325.962	15.36
326.175	46.08
326.388	91.13
326.601	-1.02
326.814	33.79
327.027	39.94
327.24	31.74
327.453	-1.02
327.666	50.18
327.879	-37.89
328.092	82.94
328.305	93.18
328.518	46.08
328.731	-11.26
328.944	7.17
329.157	101.37
329.37	19.46
329.583	74.75
329.796	23.55
330.009	19.46
330.222	13.31
330.435	-35.84
330.648	72.7
330.861	58.37
331.073	-33.79
331.286	-25.6
331.499	72.7
331.712	-37.89
331.925	9.22
332.138	17.41
332.35	74.75
332.563	-13.31
332.776	93.18
332.989	-9.22
333.202	-56.32
333.414	-66.56
333.627	-15.36
333.84	11.26
334.053	82.94
334.265	1.02
334.478	-1.02
334.691	15.36
334.903	48.13
335.116	-11.26
335.329	-29.7
335.541	23.55
335.754	-56.32
335.966	23.55
336.179	-3.07
336.392	15.36
336.604	-9.22
336.817	74.75
337.029	46.08
337.242	-1.02
337.454	15.36
337.667	66.56
337.88	29.7
338.092	-29.7
338.305	128
338.517	-60.42
338.729	54.27
338.942	-41.98
339.154	-56.32
339.367	13.31
339.579	64.51
339.792	-62.46
340.004	-7.17
340.217	93.18
340.429	39.94
340.641	35.84
340.854	-5.12
341.066	23.55
341.278	9.22
341.491	105.47
341.703	-41.98
341.915	-25.6
342.128	9.22
342.34	-25.6
342.552	-82.94
342.764	13.31
342.977	50.18
343.189	11.26
343.401	74.75
343.613	-25.6
343.826	89.09
344.038	-23.55
344.25	64.51
344.462	-1.02
344.674	37.89
344.886	56.32
345.099	48.13
345.311	5.12
345.523	-29.7
345.735	-27.65
345.947	25.6
346.159	48.13
346.371	52.22
346.583	9.22
346.795	33.79
347.007	-31.74
347.219	41.98
347.431	1.02
347.643	60.42
347.855	39.94
348.067	52.22
348.279	62.46
348.491	-17.41
348.703	78.85
348.915	82.94
349.127	-17.41
349.339	48.13
349.551	-11.26
349.763	-13.31
349.975	35.84
350.187	-15.36
350.399	35.84
350.61	39.94
350.822	29.7
351.034	66.56
351.246	-13.31
351.458	1.02
351.669	13.31
351.881	60.42
352.093	33.79
352.305	66.56
352.517	107.52
352.728	97.28
352.94	39.94
353.152	23.55
353.363	27.65
353.575	-9.22
353.787	39.94
353.999	56.32
354.21	27.65
354.422	-15.36
354.633	-17.41
354.845	23.55
355.057	31.74
355.268	64.51
355.48	-21.5
355.692	-23.55
355.903	31.74
356.115	52.22
356.326	-1.02
356.538	21.5
356.749	52.22
356.961	-56.32
357.172	7.17
357.384	1.02
357.595	41.98
357.807	31.74
358.018	-25.6
358.23	15.36
358.441	56.32
358.653	74.75
358.864	11.26
359.075	-1.02
359.287	60.42
359.498	72.7
359.709	62.46
359.921	7.17
360.132	31.74
360.344	41.98
360.555	-1.02
360.766	60.42
360.977	11.26
361.189	89.09
361.4	-54.27
361.611	68.61
361.823	54.27
362.034	41.98
362.245	-1.02
362.456	27.65
362.667	66.56
362.879	3.07
363.09	29.7
363.301	76.8
363.512	74.75
363.723	101.37
363.935	76.8
364.146	56.32
364.357	3.07
364.568	58.37
364.779	25.6
364.99	72.7
365.201	-13.31
365.412	62.46
365.623	11.26
365.834	37.89
366.045	35.84
366.256	80.89
366.467	15.36
366.678	11.26
366.889	31.74
367.1	31.74
367.311	44.03
367.522	78.85
367.733	9.22
367.944	23.55
368.155	37.89
368.366	60.42
368.577	-21.5
368.788	39.94
368.999	33.79
369.209	33.79
369.42	66.56
369.631	23.55
369.842	33.79
370.053	70.65
370.264	48.13
370.474	7.17
370.685	37.89
370.896	-54.27
371.107	58.37
371.317	44.03
371.528	-11.26
371.739	25.6
371.95	74.75
372.16	31.74
372.371	-91.13
372.582	76.8
372.792	25.6
373.003	15.36
373.214	130.05
373.424	15.36
373.635	56.32
373.846	70.65
374.056	-35.84
374.267	132.09
374.477	48.13
374.688	44.03
374.898	-27.65
375.109	9.22
375.319	27.65
375.53	39.94
375.74	64.51
375.951	44.03
376.161	-13.31
376.372	132.09
376.582	3.07
376.793	-17.41
377.003	105.47
377.214	1.02
377.424	44.03
377.635	7.17
377.845	31.74
378.055	72.7
378.266	-9.22
378.476	-25.6
378.686	72.7
378.897	80.89
379.107	33.79
379.317	91.13
379.528	-21.5
379.738	7.17
379.948	60.42
380.158	3.07
380.369	23.55
380.579	39.94
380.789	72.7
380.999	-1.02
381.21	-66.56
381.42	82.94
381.63	-27.65
381.84	56.32
382.05	50.18
382.261	66.56
382.471	82.94
382.681	60.42
382.891	82.94
383.101	148.48
383.311	-7.17
383.521	39.94
383.731	23.55
383.941	107.52
384.151	25.6
384.361	19.46
384.571	-7.17
384.781	19.46
384.991	50.18
385.201	70.65
385.411	-41.98
385.621	46.08
385.831	-23.55
386.041	52.22
386.251	58.37
386.461	27.65
386.671	76.8
386.881	89.09
387.091	7.17
387.301	19.46
387.511	11.26
387.72	84.99
387.93	9.22
388.14	21.5
388.35	113.66
388.56	39.94
388.769	80.89
388.979	31.74
389.189	-25.6
389.399	11.26
389.609	97.28
389.818	56.32
390.028	39.94
390.238	97.28
390.447	5.12
390.657	-17.41
390.867	54.27
391.076	3.07
391.286	48.13
391.496	29.7
391.705	23.55
391.915	41.98
392.125	70.65
392.334	74.75
392.544	101.37
392.753	41.98
392.963	56.32
393.172	15.36
393.382	27.65
393.591	123.9
393.801	17.41
394.01	68.61
394.22	105.47
394.429	64.51
394.639	39.94
394.848	76.8
395.058	70.65
395.267	39.94
395.477	31.74
395.686	48.13
395.895	9.22
396.105	166.91
396.314	123.9
396.524	17.41
396.733	35.84
396.942	60.42
397.152	66.56
397.361	72.7
397.57	54.27
397.78	56.32
397.989	39.94
398.198	72.7
398.407	64.51
398.617	121.85
398.826	58.37
399.035	89.09
399.244	148.48
399.453	50.18
399.663	27.65
399.872	148.48
400.081	-27.65
400.29	109.57
400.499	72.7
400.708	144.38
400.917	142.33
401.127	72.7
401.336	19.46
401.545	150.53
401.754	19.46
401.963	91.13
402.172	123.9
402.381	41.98
402.59	125.95
402.799	48.13
403.008	105.47
403.217	148.48
403.426	152.57
403.635	54.27
403.844	158.72
404.053	58.37
404.262	123.9
404.471	171.01
404.68	123.9
404.888	21.5
405.097	27.65
405.306	-9.22
405.515	119.81
405.724	113.66
405.933	162.81
406.142	84.99
406.35	236.54
406.559	136.19
406.768	76.8
406.977	48.13
407.185	97.28
407.394	154.62
407.603	125.95
407.812	164.86
408.02	171.01
408.229	187.39
408.438	164.86
408.646	173.05
408.855	168.96
409.064	162.81
409.272	146.43
409.481	240.64
409.69	121.85
409.898	207.87
410.107	209.92
410.315	230.4
410.524	197.63
410.733	343.03
410.941	252.92
411.15	238.59
411.358	263.16
411.567	349.18
411.775	271.36
411.984	269.31
412.192	345.08
412.401	334.84
412.609	359.42
412.818	424.95
413.026	383.99
413.234	414.71
413.443	451.58
413.651	377.85
413.86	394.23
414.068	508.92
414.276	465.91
414.485	402.43
414.693	461.82
414.901	551.93
415.11	513.02
415.318	531.45
415.526	523.26
415.734	605.17
415.943	631.8
416.151	590.84
416.359	654.33
416.567	619.51
416.776	662.52
416.984	687.09
417.192	746.48
417.4	746.48
417.608	740.34
417.817	746.48
418.025	822.26
418.233	832.5
418.441	850.93
418.649	826.36
418.857	1025.01
419.065	965.62
419.273	990.19
419.481	975.86
419.689	1088.5
419.897	1055.73
420.105	1207.28
420.313	1209.33
420.521	1207.28
420.729	1227.76
420.937	1149.93
421.145	1338.35
421.353	1385.45
421.561	1424.36
421.769	1391.59
421.977	1573.86
422.185	1475.56
422.393	1547.24
422.601	1842.15
422.809	1704.93
423.017	1735.65
423.224	1735.65
423.432	1926.11
423.64	1852.39
423.848	2030.56
424.056	1915.87
424.263	2030.56
424.471	2169.82
424.679	2169.82
424.887	2218.97
425.094	2315.23
425.302	2243.55
425.51	2384.86
425.718	2563.03
425.925	2489.31
426.133	2669.53
426.341	2859.99
426.548	2855.89
426.756	2972.63
426.964	2859.99
427.171	3027.92
427.379	3165.14
427.586	3320.78
427.794	3333.07
428.001	3535.82
428.209	3681.22
428.417	3568.59
428.624	3767.24
428.832	3828.68
429.039	3834.82
429.247	3777.48
429.454	4174.78
429.662	4553.66
429.869	4078.53
430.076	4576.19
430.284	4414.4
430.491	4432.83
430.699	4731.83
430.906	4680.63
431.114	4934.58
431.321	4901.81
431.528	5151.67
431.736	5409.71
431.943	5694.38
432.15	5561.26
432.358	5634.99
432.565	5946.28
432.772	5876.65
432.979	6259.62
433.187	6288.29
433.394	6230.94
433.601	6769.56
433.808	6763.42
434.016	6677.4
434.223	7154.58
434.43	7463.82
434.637	7261.07
434.844	7676.81
435.052	7758.73
435.259	7852.94
435.466	7846.79
435.673	7820.17
435.88	8473.47
436.087	8960.89
436.294	8756.09
436.501	8395.65
436.708	8670.08
436.915	8874.87
437.122	9403.25
437.329	9452.4
437.537	9591.66
437.743	9755.5
437.95	9825.13
438.157	10347.36
438.364	10515.3
438.571	10550.11
438.778	10750.81
438.985	11664.21
439.192	11221.84
439.399	11490.13
439.606	11225.94
439.813	11881.29
440.02	12626.75
440.227	12440.39
440.433	12122.95
440.64	12634.94
440.847	12559.17
441.054	12970.81
441.261	13740.85
441.467	13517.62
441.674	13765.42
441.881	14383.91
442.088	14457.64
442.294	14205.74
442.501	14672.67
442.708	15063.83
442.914	15272.73
443.121	16007.95
443.328	15545.11
443.534	16708.35
443.741	16472.84
443.948	15932.17
444.154	17558.26
444.361	16919.29
444.568	17208.06
444.774	17201.91
444.981	17552.12
445.187	17767.15
445.394	18701.03
445.6	18393.83
445.807	20523.72
446.013	19004.13
446.22	19661.52
446.426	20447.94
446.633	20609.73
446.839	21058.24
447.046	20388.55
447.252	21629.62
447.459	21787.32
447.665	21611.19
447.871	22530.73
448.078	23478.94
448.284	22381.23
448.491	22946.47
448.697	23992.98
448.903	24433.29
449.11	24042.13
449.316	23937.68
449.522	24355.47
449.728	25197.18
449.935	25246.33
450.141	25279.1
450.347	25731.7
450.553	25240.19
450.76	25197.18
450.966	26225.26
451.172	25825.91
451.378	26491.5
451.584	25901.68
451.791	26591.85
451.997	26686.06
452.203	27021.92
452.409	27331.17
452.615	27339.36
452.821	25696.89
453.027	25721.46
453.233	27329.12
453.44	25981.56
453.646	26460.78
453.852	26129.01
454.058	26972.77
454.264	26249.84
454.47	27077.22
454.676	25995.89
454.882	27073.12
455.088	24484.49
455.294	25029.25
455.5	25428.6
455.705	26042.99
455.911	24750.73
456.117	24150.67
456.323	23712.41
456.529	22747.81
456.735	23659.16
456.941	22987.43
457.147	22786.72
457.352	22110.89
457.558	21818.04
457.764	21750.45
457.97	21404.35
458.176	20937.41
458.381	21084.86
458.587	20220.62
458.793	20124.36
458.999	18764.51
459.204	20437.7
459.41	19559.13
459.616	18264.81
459.821	18524.9
460.027	18488.04
460.233	18316.01
460.438	17140.47
460.644	17496.82
460.85	16384.77
461.055	16003.85
461.261	16341.77
461.466	15043.35
461.672	14484.26
461.878	15768.34
462.083	14822.17
462.289	14424.87
462.494	14215.98
462.7	13628.21
462.905	13163.32
463.111	13607.73
463.316	13654.83
463.522	13435.7
463.727	13519.67
463.932	13351.73
464.138	13304.63
464.343	13304.63
464.549	12757.82
464.754	13482.8
464.959	13253.43
465.165	13165.37
465.37	12522.3
465.575	12297.03
465.781	12708.67
465.986	12751.68
466.191	12168.01
466.397	12049.22
466.602	11303.76
466.807	12125
467.012	11948.87
467.218	11967.31
467.423	11742.03
467.628	11746.12
467.833	12122.95
