Data from USB4F104151__109__14-18-14-295.txt Node

Date: Thu Mar 13 14:18:14 EDT 2025
User: louis
Spectrometer: USB4F10415
Trigger mode: 4
Integration Time (sec): 2.000000E-2
Scans to average: 1
Electric dark correction enabled: true
Nonlinearity correction enabled: false
Boxcar width: 0
XAxis mode: Wavelengths
Number of Pixels in Spectrum: 3648
>>>>>Begin Spectral Data<<<<<
178.204	-65.54
178.424	-65.54
178.644	-65.54
178.864	-114.69
179.084	-71.68
179.304	49.15
179.524	32.77
179.744	-16.38
179.964	63.49
180.184	-30.72
180.404	0
180.624	-45.06
180.844	-32.77
181.064	-49.15
181.283	-20.48
181.503	-8.19
181.723	57.34
181.943	0
182.163	79.87
182.383	65.53
182.602	73.73
182.822	94.21
183.042	-6.14
183.262	-26.62
183.482	98.3
183.701	6.14
183.921	8.19
184.141	43.01
184.361	20.48
184.58	-16.38
184.8	45.06
185.02	-16.38
185.239	57.34
185.459	16.38
185.679	-16.38
185.898	-49.15
186.118	83.97
186.338	22.53
186.557	16.38
186.777	-28.67
186.997	26.62
187.216	53.25
187.436	40.96
187.655	4.1
187.875	63.49
188.095	-40.96
188.314	20.48
188.534	139.26
188.753	51.2
188.973	92.16
189.192	129.02
189.412	34.82
189.631	49.15
189.851	-16.38
190.07	77.82
190.29	0
190.509	4.1
190.729	24.58
190.948	14.34
191.168	102.4
191.387	10.24
191.607	61.44
191.826	-6.14
192.045	57.34
192.265	18.43
192.484	28.67
192.704	59.39
192.923	-8.19
193.142	73.73
193.362	30.72
193.581	122.88
193.8	102.4
194.02	73.73
194.239	24.58
194.458	43.01
194.678	133.12
194.897	24.58
195.116	71.68
195.335	8.19
195.555	98.3
195.774	22.53
195.993	12.29
196.212	8.19
196.432	34.82
196.651	65.53
196.87	-8.19
197.089	90.11
197.308	98.3
197.528	32.77
197.747	98.3
197.966	110.59
198.185	108.54
198.404	6.14
198.623	20.48
198.842	8.19
199.062	75.77
199.281	124.93
199.5	102.4
199.719	92.16
199.938	155.65
200.157	26.62
200.376	61.44
200.595	43.01
200.814	59.39
201.033	75.77
201.252	-16.38
201.471	69.63
201.69	65.53
201.909	73.73
202.128	61.44
202.347	36.86
202.566	51.2
202.785	59.39
203.004	47.1
203.223	34.82
203.442	83.97
203.661	57.34
203.879	-18.43
204.098	77.82
204.317	92.16
204.536	69.63
204.755	26.62
204.974	40.96
205.193	-40.96
205.411	57.34
205.63	4.1
205.849	165.89
206.068	57.34
206.287	16.38
206.505	63.49
206.724	-45.06
206.943	-2.05
207.162	26.62
207.381	51.2
207.599	57.34
207.818	118.78
208.037	-8.19
208.255	57.34
208.474	69.63
208.693	51.2
208.911	65.53
209.13	-8.19
209.349	40.96
209.567	-4.1
209.786	100.35
210.005	77.82
210.223	2.05
210.442	2.05
210.661	-16.38
210.879	79.87
211.098	-8.19
211.316	24.58
211.535	57.34
211.753	-4.1
211.972	75.77
212.191	0
212.409	-12.29
212.628	90.11
212.846	22.53
213.065	110.59
213.283	151.55
213.502	4.1
213.72	-6.14
213.938	18.43
214.157	92.16
214.375	-49.15
214.594	45.06
214.812	45.06
215.031	24.58
215.249	-22.53
215.467	53.25
215.686	104.45
215.904	67.58
216.122	102.4
216.341	18.43
216.559	65.53
216.778	-30.72
216.996	77.82
217.214	57.34
217.432	-38.91
217.651	51.2
217.869	55.3
218.087	2.05
218.306	90.11
218.524	28.67
218.742	73.73
218.96	51.2
219.179	-12.29
219.397	4.1
219.615	86.01
219.833	0
220.051	73.73
220.27	73.73
220.488	-32.77
220.706	10.24
220.924	49.15
221.142	-32.77
221.36	26.62
221.578	16.38
221.796	24.58
222.015	81.92
222.233	36.86
222.451	65.53
222.669	28.67
222.887	120.83
223.105	16.38
223.323	40.96
223.541	34.82
223.759	-2.05
223.977	43.01
224.195	28.67
224.413	73.73
224.631	36.86
224.849	24.58
225.067	108.54
225.285	-57.34
225.503	83.97
225.721	28.67
225.939	43.01
226.157	32.77
226.375	145.41
226.592	49.15
226.81	16.38
227.028	114.69
227.246	149.5
227.464	0
227.682	45.06
227.9	100.35
228.117	20.48
228.335	12.29
228.553	59.39
228.771	20.48
228.989	61.44
229.206	-30.72
229.424	143.36
229.642	0
229.86	-57.34
230.077	124.93
230.295	71.68
230.513	79.87
230.731	86.01
230.948	94.21
231.166	36.86
231.384	6.14
231.601	-40.96
231.819	73.73
232.037	73.73
232.254	-6.14
232.472	75.77
232.689	8.19
232.907	129.02
233.125	92.16
233.342	8.19
233.56	24.58
233.777	43.01
233.995	65.53
234.213	49.15
234.43	12.29
234.648	32.77
234.865	18.43
235.083	75.77
235.3	4.1
235.518	81.92
235.735	102.4
235.953	45.06
236.17	143.36
236.388	43.01
236.605	-2.05
236.822	40.96
237.04	32.77
237.257	65.53
237.475	32.77
237.692	88.06
237.909	36.86
238.127	100.35
238.344	51.2
238.562	43.01
238.779	-28.67
238.996	16.38
239.214	73.73
239.431	100.35
239.648	8.19
239.865	-2.05
240.083	32.77
240.3	-49.15
240.517	36.86
240.735	8.19
240.952	75.77
241.169	94.21
241.386	34.82
241.603	-14.34
241.821	24.58
242.038	149.5
242.255	81.92
242.472	24.58
242.689	110.59
242.907	59.39
243.124	49.15
243.341	77.82
243.558	83.97
243.775	8.19
243.992	24.58
244.209	28.67
244.426	53.25
244.643	77.82
244.86	-16.38
245.078	57.34
245.295	34.82
245.512	-24.58
245.729	32.77
245.946	28.67
246.163	108.54
246.38	26.62
246.597	-24.58
246.814	34.82
247.031	81.92
247.248	77.82
247.464	34.82
247.681	63.49
247.898	122.88
248.115	38.91
248.332	24.58
248.549	77.82
248.766	108.54
248.983	92.16
249.2	55.3
249.417	2.05
249.633	36.86
249.85	38.91
250.067	24.58
250.284	6.14
250.501	-6.14
250.717	114.69
250.934	-18.43
251.151	8.19
251.368	81.92
251.585	90.11
251.801	-22.53
252.018	34.82
252.235	43.01
252.451	59.39
252.668	18.43
252.885	4.1
253.102	10.24
253.318	-24.58
253.535	0
253.752	73.73
253.968	18.43
254.185	0
254.401	55.3
254.618	59.39
254.835	24.58
255.051	67.58
255.268	81.92
255.484	-22.53
255.701	-16.38
255.917	92.16
256.134	6.14
256.351	69.63
256.567	8.19
256.784	24.58
257	75.77
257.217	67.58
257.433	34.82
257.65	16.38
257.866	90.11
258.082	34.82
258.299	88.06
258.515	40.96
258.732	26.62
258.948	90.11
259.165	43.01
259.381	98.3
259.597	79.87
259.814	36.86
260.03	53.25
260.246	81.92
260.463	67.58
260.679	83.97
260.895	32.77
261.112	36.86
261.328	32.77
261.544	-86.01
261.761	-6.14
261.977	-24.58
262.193	38.91
262.409	65.53
262.626	114.69
262.842	106.49
263.058	63.49
263.274	55.3
263.49	36.86
263.707	57.34
263.923	32.77
264.139	-16.38
264.355	-6.14
264.571	8.19
264.787	40.96
265.004	59.39
265.22	43.01
265.436	32.77
265.652	10.24
265.868	-34.82
266.084	90.11
266.3	-8.19
266.516	4.1
266.732	81.92
266.948	6.14
267.164	63.49
267.38	-2.05
267.596	86.01
267.812	-47.1
268.028	51.2
268.244	8.19
268.46	32.77
268.676	32.77
268.892	18.43
269.108	57.34
269.324	59.39
269.54	-4.1
269.756	-24.58
269.972	-16.38
270.188	81.92
270.403	-30.72
270.619	26.62
270.835	-8.19
271.051	59.39
271.267	26.62
271.483	12.29
271.698	55.3
271.914	77.82
272.13	16.38
272.346	-4.1
272.562	57.34
272.777	73.73
272.993	40.96
273.209	24.58
273.425	36.86
273.64	-8.19
273.856	40.96
274.072	83.97
274.287	0
274.503	86.01
274.719	59.39
274.934	32.77
275.15	-30.72
275.366	4.1
275.581	-8.19
275.797	4.1
276.012	65.53
276.228	26.62
276.444	28.67
276.659	36.86
276.875	32.77
277.09	67.58
277.306	-12.29
277.521	30.72
277.737	38.91
277.952	110.59
278.168	26.62
278.383	57.34
278.599	-4.1
278.814	16.38
279.03	49.15
279.245	57.34
279.461	81.92
279.676	131.07
279.892	47.1
280.107	-24.58
280.322	-24.58
280.538	36.86
280.753	32.77
280.969	81.92
281.184	57.34
281.399	110.59
281.615	49.15
281.83	32.77
282.045	-28.67
282.26	49.15
282.476	106.49
282.691	65.53
282.906	-8.19
283.122	73.73
283.337	-30.72
283.552	-12.29
283.767	61.44
283.983	65.53
284.198	-10.24
284.413	73.73
284.628	-10.24
284.843	0
285.058	69.63
285.274	75.77
285.489	16.38
285.704	77.82
285.919	-8.19
286.134	16.38
286.349	0
286.564	61.44
286.779	71.68
286.995	59.39
287.21	51.2
287.425	92.16
287.64	-22.53
287.855	-12.29
288.07	47.1
288.285	159.74
288.5	129.02
288.715	77.82
288.93	83.97
289.145	-12.29
289.36	81.92
289.575	77.82
289.79	65.53
290.004	-8.19
290.219	83.97
290.434	12.29
290.649	45.06
290.864	-16.38
291.079	14.34
291.294	65.53
291.509	81.92
291.724	40.96
291.938	4.1
292.153	28.67
292.368	18.43
292.583	34.82
292.798	73.73
293.012	51.2
293.227	79.87
293.442	65.53
293.657	90.11
293.871	114.69
294.086	53.25
294.301	116.73
294.516	18.43
294.73	24.58
294.945	0
295.16	151.55
295.374	75.77
295.589	73.73
295.804	63.49
296.018	2.05
296.233	100.35
296.447	96.25
296.662	118.78
296.877	69.63
297.091	139.26
297.306	32.77
297.52	-12.29
297.735	43.01
297.949	81.92
298.164	81.92
298.378	67.58
298.593	114.69
298.807	-10.24
299.022	26.62
299.236	126.97
299.451	16.38
299.665	36.86
299.88	26.62
300.094	12.29
300.309	40.96
300.523	81.92
300.737	40.96
300.952	86.01
301.166	102.4
301.381	69.63
301.595	-45.06
301.809	10.24
302.024	16.38
302.238	51.2
302.452	65.53
302.667	53.25
302.881	69.63
303.095	51.2
303.309	131.07
303.524	49.15
303.738	75.77
303.952	-6.14
304.166	81.92
304.381	4.1
304.595	69.63
304.809	53.25
305.023	45.06
305.237	-22.53
305.452	-8.19
305.666	106.49
305.88	67.58
306.094	61.44
306.308	90.11
306.522	77.82
306.736	65.53
306.95	40.96
307.164	122.88
307.379	-14.34
307.593	100.35
307.807	65.53
308.021	120.83
308.235	24.58
308.449	94.21
308.663	88.06
308.877	118.78
309.091	94.21
309.305	16.38
309.519	51.2
309.733	94.21
309.947	-6.14
310.161	126.97
310.374	10.24
310.588	90.11
310.802	-45.06
311.016	45.06
311.23	-6.14
311.444	73.73
311.658	92.16
311.872	114.69
312.085	-26.62
312.299	90.11
312.513	114.69
312.727	77.82
312.941	51.2
313.154	71.68
313.368	61.44
313.582	34.82
313.796	61.44
314.009	100.35
314.223	38.91
314.437	106.49
314.651	108.54
314.864	53.25
315.078	32.77
315.292	114.69
315.505	28.67
315.719	51.2
315.933	53.25
316.146	98.3
316.36	36.86
316.573	18.43
316.787	4.1
317.001	73.73
317.214	45.06
317.428	34.82
317.641	32.77
317.855	-30.72
318.068	65.53
318.282	38.91
318.495	86.01
318.709	73.73
318.922	73.73
319.136	65.53
319.349	114.69
319.563	-6.14
319.776	98.3
319.99	90.11
320.203	73.73
320.417	67.58
320.63	18.43
320.843	114.69
321.057	83.97
321.27	18.43
321.483	4.1
321.697	86.01
321.91	67.58
322.124	73.73
322.337	94.21
322.55	151.55
322.763	-28.67
322.977	38.91
323.19	16.38
323.403	24.58
323.617	90.11
323.83	106.49
324.043	16.38
324.256	86.01
324.469	26.62
324.683	86.01
324.896	81.92
325.109	67.58
325.322	22.53
325.535	94.21
325.748	106.49
325.962	100.35
326.175	69.63
326.388	49.15
326.601	90.11
326.814	24.58
327.027	28.67
327.24	151.55
327.453	-20.48
327.666	24.58
327.879	116.73
328.092	65.53
328.305	22.53
328.518	75.77
328.731	0
328.944	106.49
329.157	94.21
329.37	26.62
329.583	83.97
329.796	34.82
330.009	51.2
330.222	163.84
330.435	57.34
330.648	92.16
330.861	59.39
331.073	57.34
331.286	40.96
331.499	57.34
331.712	24.58
331.925	86.01
332.138	116.73
332.35	122.88
332.563	143.36
332.776	55.3
332.989	102.4
333.202	61.44
333.414	110.59
333.627	67.58
333.84	51.2
334.053	-94.21
334.265	65.53
334.478	69.63
334.691	77.82
334.903	-16.38
335.116	-10.24
335.329	65.53
335.541	53.25
335.754	122.88
335.966	10.24
336.179	47.1
336.392	-10.24
336.604	34.82
336.817	-32.77
337.029	65.53
337.242	65.53
337.454	104.45
337.667	75.77
337.88	108.54
338.092	81.92
338.305	26.62
338.517	67.58
338.729	26.62
338.942	96.25
339.154	77.82
339.367	32.77
339.579	163.84
339.792	71.68
340.004	51.2
340.217	-30.72
340.429	96.25
340.641	24.58
340.854	0
341.066	28.67
341.278	69.63
341.491	98.3
341.703	69.63
341.915	45.06
342.128	45.06
342.34	75.77
342.552	51.2
342.764	-14.34
342.977	26.62
343.189	-6.14
343.401	6.14
343.613	-4.1
343.826	133.12
344.038	18.43
344.25	40.96
344.462	116.73
344.674	49.15
344.886	90.11
345.099	133.12
345.311	22.53
345.523	28.67
345.735	0
345.947	135.17
346.159	61.44
346.371	67.58
346.583	-63.49
346.795	116.73
347.007	20.48
347.219	139.26
347.431	106.49
347.643	135.17
347.855	90.11
348.067	32.77
348.279	75.77
348.491	65.53
348.703	102.4
348.915	-20.48
349.127	24.58
349.339	2.05
349.551	49.15
349.763	61.44
349.975	-12.29
350.187	65.53
350.399	67.58
350.61	65.53
350.822	63.49
351.034	57.34
351.246	-12.29
351.458	57.34
351.669	100.35
351.881	116.73
352.093	65.53
352.305	53.25
352.517	36.86
352.728	118.78
352.94	81.92
353.152	92.16
353.363	22.53
353.575	94.21
353.787	104.45
353.999	57.34
354.21	133.12
354.422	75.77
354.633	26.62
354.845	102.4
355.057	122.88
355.268	90.11
355.48	43.01
355.692	22.53
355.903	18.43
356.115	59.39
356.326	4.1
356.538	149.5
356.749	59.39
356.961	110.59
357.172	40.96
357.384	69.63
357.595	110.59
357.807	73.73
358.018	65.53
358.23	102.4
358.441	43.01
358.653	129.02
358.864	77.82
359.075	67.58
359.287	26.62
359.498	157.69
359.709	57.34
359.921	-12.29
360.132	69.63
360.344	26.62
360.555	32.77
360.766	110.59
360.977	43.01
361.189	40.96
361.4	69.63
361.611	57.34
361.823	69.63
362.034	10.24
362.245	4.1
362.456	43.01
362.667	63.49
362.879	81.92
363.09	129.02
363.301	55.3
363.512	86.01
363.723	79.87
363.935	-18.43
364.146	73.73
364.357	40.96
364.568	81.92
364.779	112.64
364.99	147.45
365.201	75.77
365.412	114.69
365.623	-8.19
365.834	90.11
366.045	67.58
366.256	65.53
366.467	108.54
366.678	24.58
366.889	126.97
367.1	40.96
367.311	36.86
367.522	0
367.733	141.31
367.944	104.45
368.155	129.02
368.366	141.31
368.577	102.4
368.788	131.07
368.999	69.63
369.209	75.77
369.42	86.01
369.631	215.04
369.842	79.87
370.053	40.96
370.264	75.77
370.474	57.34
370.685	40.96
370.896	88.06
371.107	75.77
371.317	67.58
371.528	57.34
371.739	116.73
371.95	57.34
372.16	114.69
372.371	75.77
372.582	96.25
372.792	63.49
373.003	73.73
373.214	139.26
373.424	57.34
373.635	45.06
373.846	90.11
374.056	59.39
374.267	98.3
374.477	137.21
374.688	40.96
374.898	79.87
375.109	90.11
375.319	65.53
375.53	165.89
375.74	98.3
375.951	67.58
376.161	67.58
376.372	169.98
376.582	24.58
376.793	16.38
377.003	12.29
377.214	71.68
377.424	67.58
377.635	81.92
377.845	86.01
378.055	135.17
378.266	71.68
378.476	116.73
378.686	112.64
378.897	-26.62
379.107	98.3
379.317	63.49
379.528	139.26
379.738	51.2
379.948	4.1
380.158	122.88
380.369	73.73
380.579	73.73
380.789	63.49
380.999	53.25
381.21	98.3
381.42	126.97
381.63	94.21
381.84	69.63
382.05	71.68
382.261	192.51
382.471	161.79
382.681	153.6
382.891	83.97
383.101	49.15
383.311	139.26
383.521	79.87
383.731	102.4
383.941	122.88
384.151	59.39
384.361	36.86
384.571	-28.67
384.781	151.55
384.991	45.06
385.201	98.3
385.411	110.59
385.621	129.02
385.831	106.49
386.041	102.4
386.251	57.34
386.461	94.21
386.671	65.53
386.881	81.92
387.091	135.17
387.301	90.11
387.511	139.26
387.72	86.01
387.93	120.83
388.14	114.69
388.35	180.22
388.56	151.55
388.769	167.93
388.979	67.58
389.189	34.82
389.399	98.3
389.609	81.92
389.818	131.07
390.028	112.64
390.238	63.49
390.447	57.34
390.657	90.11
390.867	139.26
391.076	43.01
391.286	155.65
391.496	77.82
391.705	159.74
391.915	172.03
392.125	114.69
392.334	143.36
392.544	133.12
392.753	75.77
392.963	124.93
393.172	59.39
393.382	75.77
393.591	131.07
393.801	94.21
394.01	143.36
394.22	133.12
394.429	131.07
394.639	73.73
394.848	118.78
395.058	139.26
395.267	174.08
395.477	92.16
395.686	153.6
395.895	139.26
396.105	157.69
396.314	145.41
396.524	155.65
396.733	141.31
396.942	116.73
397.152	147.45
397.361	163.84
397.57	104.45
397.78	161.79
397.989	114.69
398.198	172.03
398.407	165.89
398.617	172.03
398.826	133.12
399.035	122.88
399.244	153.6
399.453	118.78
399.663	200.7
399.872	155.65
400.081	131.07
400.29	165.89
400.499	143.36
400.708	182.27
400.917	141.31
401.127	172.03
401.336	161.79
401.545	206.84
401.754	155.65
401.963	212.99
402.172	174.08
402.381	141.31
402.59	192.51
402.799	204.8
403.008	169.98
403.217	294.91
403.426	157.69
403.635	141.31
403.844	163.84
404.053	241.66
404.262	204.8
404.471	225.28
404.68	270.33
404.888	204.8
405.097	198.65
405.306	237.56
405.515	190.46
405.724	237.56
405.933	198.65
406.142	303.1
406.35	233.47
406.559	280.57
406.768	268.28
406.977	288.76
407.185	253.95
407.394	448.51
407.603	301.05
407.812	301.05
408.02	376.83
408.229	376.83
408.438	323.58
408.646	305.15
408.855	278.52
409.064	460.79
409.272	364.54
409.481	344.06
409.69	364.54
409.898	425.98
410.107	395.26
410.315	507.9
410.524	442.36
410.733	483.32
410.941	571.38
411.15	536.57
411.358	509.94
411.567	614.39
411.775	520.18
411.984	606.2
412.192	655.35
412.401	622.58
412.609	663.54
412.818	698.36
413.026	665.59
413.234	677.88
413.443	784.37
413.651	774.13
413.86	765.94
414.068	888.82
414.276	937.97
414.485	843.76
414.693	942.07
414.901	950.26
415.11	1009.65
415.318	1058.8
415.526	1056.75
415.734	1091.57
415.943	1023.98
416.151	1128.43
416.359	1269.74
416.567	1286.12
416.776	1257.45
416.984	1339.37
417.192	1388.52
417.4	1320.94
417.608	1341.42
417.817	1497.07
418.025	1507.31
418.233	1732.58
418.441	1642.47
418.649	1671.14
418.857	1828.84
419.065	1941.47
419.273	1785.83
419.481	1974.24
419.689	1978.34
419.897	2088.93
420.105	2058.21
420.313	2205.66
420.521	2314.2
420.729	2351.07
420.937	2369.5
421.145	2484.19
421.353	2631.64
421.561	2752.47
421.769	2686.93
421.977	2916.31
422.185	2891.73
422.393	2983.89
422.601	3260.37
422.809	3137.49
423.017	3207.12
423.224	3479.5
423.432	3532.75
423.64	3604.42
423.848	3844.04
424.056	3661.77
424.263	4014.02
424.471	4079.55
424.679	4026.31
424.887	4302.78
425.094	4364.22
425.302	4743.1
425.51	4667.32
425.718	4882.36
425.925	4872.12
426.133	5095.35
426.341	5244.85
426.548	5515.18
426.756	5648.3
426.964	5613.48
427.171	5816.23
427.379	6299.55
427.586	6356.89
427.794	6475.68
428.001	6723.48
428.209	6903.7
428.417	6696.86
428.624	7444.37
428.832	7243.67
429.039	7245.71
429.247	7282.58
429.454	8167.3
429.662	8505.21
429.869	7888.78
430.076	8658.81
430.284	8181.64
430.491	8681.34
430.699	9267.06
430.906	9080.69
431.114	9265.01
431.321	9707.37
431.528	9867.11
431.736	10157.92
431.943	10841.95
432.15	10555.23
432.358	10721.12
432.565	11284.31
432.772	11124.57
432.979	11892.55
433.187	11878.22
433.394	11894.6
433.601	12912.44
433.808	12771.13
434.016	12896.06
434.223	13176.63
434.43	14081.83
434.637	13932.33
434.844	14536.48
435.052	14982.94
435.259	14825.25
435.466	15032.09
435.673	14991.13
435.88	15720.21
436.087	16680.71
436.294	16652.03
436.501	16162.57
436.708	16500.48
436.915	17209.08
437.122	17807.09
437.329	17874.67
437.537	18351.85
437.743	18953.95
437.95	18538.21
438.157	19171.04
438.364	20147.92
438.571	20227.79
438.778	20324.04
438.985	22048.43
439.192	21462.71
439.399	21776.05
439.606	21487.29
439.813	22662.82
440.02	24200.85
440.227	23645.85
440.433	23367.32
440.64	24127.12
440.847	23950.99
441.054	24874.63
441.261	26009.2
441.467	25894.52
441.674	26037.87
441.881	26994.28
442.088	27364.96
442.294	26887.78
442.501	27455.07
442.708	28106.32
442.914	29220.42
443.121	30553.65
443.328	29589.05
443.534	31372.83
443.741	30793.26
443.948	30414.38
444.154	32669.2
444.361	32458.26
444.568	32718.35
444.774	32710.16
444.981	32763.4
445.187	33627.65
445.394	35251.69
445.6	35028.46
445.807	38204.86
446.013	36392.4
446.22	36754.9
446.426	38526.39
446.633	39118.25
446.839	40146.33
447.046	38426.04
447.252	40482.2
447.459	40394.14
447.665	40535.45
447.871	41973.12
448.078	43840.87
448.284	41848.19
448.491	43226.48
448.697	44481.88
448.903	45536.59
449.11	45497.67
449.316	44287.32
449.522	45430.09
449.728	46976.31
449.935	47197.49
450.141	47199.54
450.347	48094.5
450.553	46280
450.76	47375.66
450.966	49181.97
451.172	48074.02
451.378	49419.53
451.584	48176.42
451.791	49870.09
451.997	49245.46
452.203	49915.14
452.409	50453.76
452.615	49913.09
452.821	47977.76
453.027	47652.14
453.233	49739.02
453.44	48252.19
453.646	48418.08
453.852	48968.98
454.058	49734.92
454.264	48395.55
454.47	49540.36
454.676	47836.45
454.882	49829.13
455.088	45280.59
455.294	46269.76
455.5	46644.54
455.705	47289.65
455.911	45559.11
456.117	44320.09
456.323	44232.03
456.529	41907.58
456.735	43693.41
456.941	42845.55
457.147	41876.86
457.352	40631.7
457.558	40301.98
457.764	40441.24
457.97	39904.67
458.176	38796.72
458.381	38798.77
458.587	36939.21
458.793	36609.49
458.999	34948.59
459.204	37561.79
459.41	36994.51
459.616	34213.37
459.821	34264.57
460.027	34532.85
460.233	33635.84
460.438	31745.56
460.644	32441.87
460.85	30893.61
461.055	30144.05
461.261	30092.85
461.466	27745.88
461.672	27434.59
461.878	29122.12
462.083	27297.38
462.289	26738.28
462.494	26543.72
462.7	25425.53
462.905	24434.32
463.111	25665.14
463.316	25345.66
463.522	25089.67
463.727	24882.82
463.932	25423.48
464.138	24757.89
464.343	24854.15
464.549	24170.13
464.754	24821.38
464.959	24604.3
465.165	24354.44
465.37	23318.17
465.575	23070.37
465.781	23793.3
465.986	23551.64
466.191	22873.76
466.397	22601.38
466.602	21315.26
