Data from USB4F104151__306__14-24-09-488.txt Node

Date: Thu Mar 13 14:24:09 EDT 2025
User: louis
Spectrometer: USB4F10415
Trigger mode: 4
Integration Time (sec): 2.000000E-2
Scans to average: 1
Electric dark correction enabled: true
Nonlinearity correction enabled: false
Boxcar width: 0
XAxis mode: Wavelengths
Number of Pixels in Spectrum: 3648
>>>>>Begin Spectral Data<<<<<
178.204	-65.54
178.424	-65.54
178.644	-65.54
178.864	-73.73
179.084	-124.93
179.304	-59.39
179.524	77.82
179.744	20.48
179.964	14.34
180.184	-20.48
180.404	-18.43
180.624	-61.44
180.844	28.67
181.064	-18.43
181.283	0
181.503	40.96
181.723	-4.1
181.943	-69.63
182.163	32.77
182.383	20.48
182.602	102.4
182.822	69.63
183.042	65.54
183.262	-26.62
183.482	38.91
183.701	69.63
183.921	-20.48
184.141	-12.29
184.361	94.21
184.58	28.67
184.8	-20.48
185.02	36.86
185.239	14.34
185.459	77.82
185.679	65.54
185.898	-69.63
186.118	96.25
186.338	30.72
186.557	47.1
186.777	53.25
186.997	-16.38
187.216	-61.44
187.436	36.86
187.655	-12.29
187.875	-49.15
188.095	-53.25
188.314	143.36
188.534	16.38
188.753	8.19
188.973	143.36
189.192	94.21
189.412	-38.91
189.631	4.1
189.851	45.06
190.07	135.17
190.29	47.1
190.509	4.1
190.729	-12.29
190.948	-2.05
191.168	88.06
191.387	47.1
191.607	-8.19
191.826	-20.48
192.045	30.72
192.265	45.06
192.484	28.67
192.704	67.58
192.923	40.96
193.142	77.82
193.362	73.73
193.581	6.14
193.8	6.14
194.02	73.73
194.239	-8.19
194.458	26.62
194.678	45.06
194.897	8.19
195.116	-4.1
195.335	22.53
195.555	30.72
195.774	12.29
195.993	49.15
196.212	-49.15
196.432	30.72
196.651	36.86
196.87	-20.48
197.089	34.82
197.308	79.87
197.528	73.73
197.747	-2.05
197.966	-8.19
198.185	55.3
198.404	-67.58
198.623	36.86
198.842	4.1
199.062	36.86
199.281	77.82
199.5	-32.77
199.719	-36.86
199.938	22.53
200.157	0
200.376	-4.1
200.595	51.2
200.814	6.14
201.033	55.3
201.252	30.72
201.471	53.25
201.69	55.3
201.909	14.34
202.128	20.48
202.347	53.25
202.566	-10.24
202.785	8.19
203.004	-10.24
203.223	137.21
203.442	53.25
203.661	-28.67
203.879	24.58
204.098	30.72
204.317	43.01
204.536	77.82
204.755	-14.34
204.974	8.19
205.193	26.62
205.411	71.68
205.63	77.82
205.849	22.53
206.068	32.77
206.287	-28.67
206.505	102.4
206.724	0
206.943	-43.01
207.162	-59.39
207.381	-28.67
207.599	-77.82
207.818	67.58
208.037	53.25
208.255	-49.15
208.474	63.49
208.693	-4.1
208.911	18.43
209.13	53.25
209.349	-16.38
209.567	32.77
209.786	77.82
210.005	88.06
210.223	14.34
210.442	-28.67
210.661	63.49
210.879	30.72
211.098	12.29
211.316	63.49
211.535	67.58
211.753	30.72
211.972	55.3
212.191	20.48
212.409	12.29
212.628	34.82
212.846	-8.19
213.065	-18.43
213.283	100.35
213.502	-92.16
213.72	32.77
213.938	4.1
214.157	77.82
214.375	8.19
214.594	45.06
214.812	4.1
215.031	32.77
215.249	-10.24
215.467	32.77
215.686	20.48
215.904	38.91
216.122	4.1
216.341	-20.48
216.559	-18.43
216.778	102.4
216.996	8.19
217.214	-45.06
217.432	32.77
217.651	8.19
217.869	30.72
218.087	30.72
218.306	6.14
218.524	16.38
218.742	-18.43
218.96	67.58
219.179	-40.96
219.397	73.73
219.615	47.1
219.833	32.77
220.051	-12.29
220.27	61.44
220.488	49.15
220.706	34.82
220.924	-12.29
221.142	53.25
221.36	57.34
221.578	16.38
221.796	4.1
222.015	-4.1
222.233	-2.05
222.451	47.1
222.669	-81.92
222.887	24.58
223.105	16.38
223.323	-12.29
223.541	22.53
223.759	20.48
223.977	61.44
224.195	22.53
224.413	36.86
224.631	98.3
224.849	53.25
225.067	86.01
225.285	-40.96
225.503	28.67
225.721	-16.38
225.939	30.72
226.157	69.63
226.375	81.92
226.592	-16.38
226.81	-34.82
227.028	79.87
227.246	45.06
227.464	90.11
227.682	24.58
227.9	-4.1
228.117	49.15
228.335	53.25
228.553	-10.24
228.771	71.68
228.989	-22.53
229.206	47.1
229.424	22.53
229.642	49.15
229.86	51.2
230.077	53.25
230.295	45.06
230.513	75.77
230.731	96.25
230.948	-2.05
231.166	77.82
231.384	38.91
231.601	-32.77
231.819	45.06
232.037	8.19
232.254	81.92
232.472	36.86
232.689	-16.38
232.907	86.01
233.125	-30.72
233.342	-20.48
233.56	32.77
233.777	32.77
233.995	51.2
234.213	22.53
234.43	-16.38
234.648	6.14
234.865	14.34
235.083	79.87
235.3	6.14
235.518	86.01
235.735	-8.19
235.953	59.39
236.17	-18.43
236.388	88.06
236.605	-12.29
236.822	96.25
237.04	55.3
237.257	-2.05
237.475	4.1
237.692	-28.67
237.909	120.83
238.127	49.15
238.344	63.49
238.562	32.77
238.779	-4.1
238.996	-2.05
239.214	96.25
239.431	28.67
239.648	-32.77
239.865	2.05
240.083	6.14
240.3	-24.58
240.517	12.29
240.735	-65.54
240.952	61.44
241.169	20.48
241.386	18.43
241.603	-30.72
241.821	6.14
242.038	43.01
242.255	75.77
242.472	-12.29
242.689	77.82
242.907	151.55
243.124	-18.43
243.341	22.53
243.558	-4.1
243.775	34.82
243.992	-16.38
244.209	57.34
244.426	26.62
244.643	86.01
244.86	36.86
245.078	34.82
245.295	90.11
245.512	73.73
245.729	20.48
245.946	61.44
246.163	12.29
246.38	4.1
246.597	20.48
246.814	-20.48
247.031	65.54
247.248	30.72
247.464	30.72
247.681	0
247.898	20.48
248.115	12.29
248.332	61.44
248.549	18.43
248.766	38.91
248.983	20.48
249.2	137.21
249.417	53.25
249.633	12.29
249.85	53.25
250.067	-8.19
250.284	-2.05
250.501	32.77
250.717	22.53
250.934	43.01
251.151	-2.05
251.368	30.72
251.585	192.51
251.801	28.67
252.018	6.14
252.235	34.82
252.451	-34.82
252.668	22.53
252.885	71.68
253.102	4.1
253.318	-20.48
253.535	-34.82
253.752	-2.05
253.968	-4.1
254.185	22.53
254.401	-2.05
254.618	45.06
254.835	26.62
255.051	86.01
255.268	28.67
255.484	38.91
255.701	-36.86
255.917	57.34
256.134	43.01
256.351	20.48
256.567	-49.15
256.784	122.88
257	-20.48
257.217	4.1
257.433	-16.38
257.65	12.29
257.866	59.39
258.082	-2.05
258.299	4.1
258.515	32.77
258.732	34.82
258.948	75.77
259.165	-49.15
259.381	73.73
259.597	-36.86
259.814	-4.1
260.03	26.62
260.246	75.77
260.463	28.67
260.679	81.92
260.895	102.4
261.112	49.15
261.328	12.29
261.544	30.72
261.761	49.15
261.977	-26.62
262.193	-26.62
262.409	30.72
262.626	0
262.842	-4.1
263.058	4.1
263.274	57.34
263.49	36.86
263.707	4.1
263.923	6.14
264.139	10.24
264.355	8.19
264.571	94.21
264.787	40.96
265.004	69.63
265.22	34.82
265.436	28.67
265.652	53.25
265.868	32.77
266.084	-26.62
266.3	30.72
266.516	24.58
266.732	-8.19
266.948	22.53
267.164	18.43
267.38	6.14
267.596	-90.11
267.812	59.39
268.028	53.25
268.244	14.34
268.46	-16.38
268.676	20.48
268.892	43.01
269.108	12.29
269.324	32.77
269.54	24.58
269.756	43.01
269.972	-28.67
270.188	-40.96
270.403	-12.29
270.619	26.62
270.835	6.14
271.051	4.1
271.267	-24.58
271.483	45.06
271.698	47.1
271.914	61.44
272.13	-8.19
272.346	4.1
272.562	36.86
272.777	49.15
272.993	-34.82
273.209	12.29
273.425	47.1
273.64	20.48
273.856	34.82
274.072	12.29
274.287	55.3
274.503	45.06
274.719	34.82
274.934	36.86
275.15	-4.1
275.366	-2.05
275.581	-16.38
275.797	30.72
276.012	-28.67
276.228	-40.96
276.444	28.67
276.659	53.25
276.875	-36.86
277.09	28.67
277.306	30.72
277.521	-4.1
277.737	-49.15
277.952	-4.1
278.168	-10.24
278.383	-18.43
278.599	4.1
278.814	-18.43
279.03	22.53
279.245	20.48
279.461	36.86
279.676	110.59
279.892	4.1
280.107	-57.34
280.322	8.19
280.538	32.77
280.753	77.82
280.969	34.82
281.184	-28.67
281.399	90.11
281.615	-53.25
281.83	-28.67
282.045	-67.58
282.26	8.19
282.476	-49.15
282.691	-2.05
282.906	20.48
283.122	-16.38
283.337	-40.96
283.552	-4.1
283.767	6.14
283.983	53.25
284.198	-6.14
284.413	69.63
284.628	-4.1
284.843	53.25
285.058	110.59
285.274	12.29
285.489	-12.29
285.704	2.05
285.919	34.82
286.134	-40.96
286.349	51.2
286.564	4.1
286.779	-12.29
286.995	-38.91
287.21	4.1
287.425	81.92
287.64	12.29
287.855	90.11
288.07	-20.48
288.285	49.15
288.5	18.43
288.715	22.53
288.93	2.05
289.145	28.67
289.36	-12.29
289.575	-12.29
289.79	63.49
290.004	69.63
290.219	63.49
290.434	47.1
290.649	36.86
290.864	40.96
291.079	61.44
291.294	55.3
291.509	8.19
291.724	40.96
291.938	55.3
292.153	28.67
292.368	0
292.583	-4.1
292.798	81.92
293.012	12.29
293.227	16.38
293.442	-10.24
293.657	28.67
293.871	86.01
294.086	4.1
294.301	86.01
294.516	49.15
294.73	12.29
294.945	-71.68
295.16	63.49
295.374	106.49
295.589	-12.29
295.804	12.29
296.018	-32.77
296.233	53.25
296.447	12.29
296.662	55.3
296.877	102.4
297.091	126.97
297.306	4.1
297.52	26.62
297.735	63.49
297.949	-40.96
298.164	104.45
298.378	-49.15
298.593	-36.86
298.807	-14.34
299.022	-4.1
299.236	88.06
299.451	-24.58
299.665	53.25
299.88	-69.63
300.094	-36.86
300.309	-12.29
300.523	-26.62
300.737	36.86
300.952	20.48
301.166	-10.24
301.381	24.58
301.595	-49.15
301.809	-36.86
302.024	-18.43
302.238	83.97
302.452	69.63
302.667	22.53
302.881	22.53
303.095	30.72
303.309	63.49
303.524	12.29
303.738	96.25
303.952	79.87
304.166	-36.86
304.381	-45.06
304.595	36.86
304.809	-28.67
305.023	-8.19
305.237	24.58
305.452	6.14
305.666	28.67
305.88	69.63
306.094	10.24
306.308	88.06
306.522	40.96
306.736	59.39
306.95	38.91
307.164	-22.53
307.379	59.39
307.593	22.53
307.807	32.77
308.021	55.3
308.235	59.39
308.449	-53.25
308.663	47.1
308.877	110.59
309.091	0
309.305	81.92
309.519	0
309.733	63.49
309.947	-32.77
310.161	65.54
310.374	36.86
310.588	47.1
310.802	12.29
311.016	28.67
311.23	-10.24
311.444	45.06
311.658	-26.62
311.872	69.63
312.085	40.96
312.299	45.06
312.513	53.25
312.727	90.11
312.941	0
313.154	53.25
313.368	26.62
313.582	-12.29
313.796	51.2
314.009	53.25
314.223	-20.48
314.437	14.34
314.651	36.86
314.864	-16.38
315.078	-51.2
315.292	-28.67
315.505	53.25
315.719	55.3
315.933	14.34
316.146	4.1
316.36	4.1
316.573	16.38
316.787	102.4
317.001	86.01
317.214	73.73
317.428	-45.06
317.641	18.43
317.855	-43.01
318.068	-61.44
318.282	-28.67
318.495	43.01
318.709	-18.43
318.922	71.68
319.136	32.77
319.349	49.15
319.563	26.62
319.776	20.48
319.99	-22.53
320.203	79.87
320.417	-18.43
320.63	28.67
320.843	45.06
321.057	59.39
321.27	8.19
321.483	69.63
321.697	102.4
321.91	32.77
322.124	24.58
322.337	38.91
322.55	-63.49
322.763	0
322.977	-8.19
323.19	6.14
323.403	22.53
323.617	-45.06
323.83	4.1
324.043	-51.2
324.256	16.38
324.469	-8.19
324.683	45.06
324.896	-16.38
325.109	14.34
325.322	-16.38
325.535	53.25
325.748	36.86
325.962	-16.38
326.175	20.48
326.388	30.72
326.601	-4.1
326.814	81.92
327.027	67.58
327.24	98.3
327.453	-20.48
327.666	131.07
327.879	67.58
328.092	94.21
328.305	12.29
328.518	-20.48
328.731	-16.38
328.944	-45.06
329.157	8.19
329.37	28.67
329.583	79.87
329.796	28.67
330.009	-69.63
330.222	36.86
330.435	59.39
330.648	12.29
330.861	49.15
331.073	-8.19
331.286	67.58
331.499	20.48
331.712	10.24
331.925	36.86
332.138	20.48
332.35	104.45
332.563	-32.77
332.776	65.54
332.989	14.34
333.202	94.21
333.414	18.43
333.627	86.01
333.84	24.58
334.053	-32.77
334.265	55.3
334.478	-36.86
334.691	61.44
334.903	24.58
335.116	-43.01
335.329	-10.24
335.541	18.43
335.754	69.63
335.966	-10.24
336.179	40.96
336.392	88.06
336.604	57.34
336.817	-43.01
337.029	20.48
337.242	0
337.454	12.29
337.667	36.86
337.88	75.77
338.092	-36.86
338.305	75.77
338.517	-32.77
338.729	67.58
338.942	20.48
339.154	32.77
339.367	0
339.579	98.3
339.792	-43.01
340.004	36.86
340.217	96.25
340.429	34.82
340.641	12.29
340.854	-45.06
341.066	-8.19
341.278	20.48
341.491	51.2
341.703	47.1
341.915	26.62
342.128	40.96
342.34	61.44
342.552	-18.43
342.764	83.97
342.977	61.44
343.189	24.58
343.401	88.06
343.613	-2.05
343.826	-28.67
344.038	-12.29
344.25	40.96
344.462	20.48
344.674	45.06
344.886	53.25
345.099	43.01
345.311	-10.24
345.523	-22.53
345.735	-26.62
345.947	36.86
346.159	55.3
346.371	-26.62
346.583	4.1
346.795	65.54
347.007	45.06
347.219	12.29
347.431	53.25
347.643	-18.43
347.855	6.14
348.067	116.73
348.279	-2.05
348.491	20.48
348.703	22.53
348.915	38.91
349.127	32.77
349.339	0
349.551	20.48
349.763	26.62
349.975	81.92
350.187	45.06
350.399	79.87
350.61	53.25
350.822	16.38
351.034	28.67
351.246	28.67
351.458	63.49
351.669	14.34
351.881	28.67
352.093	92.16
352.305	16.38
352.517	49.15
352.728	65.54
352.94	-45.06
353.152	14.34
353.363	32.77
353.575	79.87
353.787	2.05
353.999	59.39
354.21	51.2
354.422	-69.63
354.633	49.15
354.845	12.29
355.057	14.34
355.268	14.34
355.48	4.1
355.692	47.1
355.903	20.48
356.115	53.25
356.326	18.43
356.538	126.97
356.749	18.43
356.961	45.06
357.172	12.29
357.384	4.1
357.595	151.55
357.807	53.25
358.018	-28.67
358.23	30.72
358.441	63.49
358.653	16.38
358.864	22.53
359.075	30.72
359.287	53.25
359.498	-43.01
359.709	14.34
359.921	22.53
360.132	30.72
360.344	-32.77
360.555	-30.72
360.766	-10.24
360.977	79.87
361.189	22.53
361.4	55.3
361.611	-2.05
361.823	77.82
362.034	30.72
362.245	-45.06
362.456	16.38
362.667	10.24
362.879	45.06
363.09	22.53
363.301	135.17
363.512	-18.43
363.723	30.72
363.935	-24.58
364.146	145.41
364.357	-4.1
364.568	30.72
364.779	-10.24
364.99	75.77
365.201	45.06
365.412	69.63
365.623	49.15
365.834	28.67
366.045	108.54
366.256	59.39
366.467	96.25
366.678	53.25
366.889	86.01
367.1	10.24
367.311	-34.82
367.522	12.29
367.733	55.3
367.944	81.92
368.155	55.3
368.366	61.44
368.577	112.64
368.788	38.91
368.999	40.96
369.209	67.58
369.42	73.73
369.631	63.49
369.842	118.78
370.053	30.72
370.264	34.82
370.474	30.72
370.685	55.3
370.896	-4.1
371.107	96.25
371.317	71.68
371.528	12.29
371.739	28.67
371.95	30.72
372.16	77.82
372.371	2.05
372.582	65.54
372.792	4.1
373.003	55.3
373.214	26.62
373.424	63.49
373.635	4.1
373.846	65.54
374.056	28.67
374.267	57.34
374.477	4.1
374.688	-45.06
374.898	69.63
375.109	98.3
375.319	88.06
375.53	57.34
375.74	77.82
375.951	-12.29
376.161	53.25
376.372	104.45
376.582	10.24
376.793	77.82
377.003	20.48
377.214	10.24
377.424	14.34
377.635	90.11
377.845	-16.38
378.055	88.06
378.266	-34.82
378.476	-32.77
378.686	53.25
378.897	12.29
379.107	-26.62
379.317	14.34
379.528	-16.38
379.738	61.44
379.948	8.19
380.158	69.63
380.369	28.67
380.579	69.63
380.789	-20.48
380.999	6.14
381.21	77.82
381.42	90.11
381.63	28.67
381.84	22.53
382.05	43.01
382.261	28.67
382.471	49.15
382.681	-18.43
382.891	22.53
383.101	8.19
383.311	98.3
383.521	16.38
383.731	-22.53
383.941	151.55
384.151	61.44
384.361	36.86
384.571	57.34
384.781	67.58
384.991	67.58
385.201	67.58
385.411	32.77
385.621	69.63
385.831	28.67
386.041	36.86
386.251	59.39
386.461	77.82
386.671	38.91
386.881	40.96
387.091	-12.29
387.301	57.34
387.511	4.1
387.72	-12.29
387.93	40.96
388.14	28.67
388.35	-14.34
388.56	-45.06
388.769	40.96
388.979	65.54
389.189	-88.06
389.399	20.48
389.609	71.68
389.818	63.49
390.028	92.16
390.238	73.73
390.447	57.34
390.657	67.58
390.867	47.1
391.076	-32.77
391.286	20.48
391.496	86.01
391.705	-28.67
391.915	43.01
392.125	75.77
392.334	57.34
392.544	63.49
392.753	55.3
392.963	-34.82
393.172	47.1
393.382	65.54
393.591	69.63
393.801	63.49
394.01	98.3
394.22	110.59
394.429	92.16
394.639	-12.29
394.848	-12.29
395.058	75.77
395.267	51.2
395.477	77.82
395.686	94.21
395.895	133.12
396.105	61.44
396.314	10.24
396.524	67.58
396.733	73.73
396.942	135.17
397.152	47.1
397.361	98.3
397.57	88.06
397.78	118.78
397.989	94.21
398.198	73.73
398.407	32.77
398.617	14.34
398.826	63.49
399.035	94.21
399.244	129.02
399.453	104.45
399.663	32.77
399.872	104.45
400.081	155.65
400.29	96.25
400.499	81.92
400.708	129.02
400.917	69.63
401.127	45.06
401.336	30.72
401.545	114.69
401.754	83.97
401.963	75.77
402.172	77.82
402.381	104.45
402.59	81.92
402.799	55.3
403.008	100.35
403.217	61.44
403.426	83.97
403.635	49.15
403.844	102.4
404.053	28.67
404.262	79.87
404.471	174.08
404.68	94.21
404.888	137.21
405.097	137.21
405.306	149.5
405.515	61.44
405.724	104.45
405.933	210.94
406.142	131.07
406.35	104.45
406.559	83.97
406.768	145.41
406.977	106.49
407.185	178.17
407.394	155.65
407.603	63.49
407.812	176.13
408.02	143.36
408.229	145.41
408.438	176.13
408.646	112.64
408.855	143.36
409.064	161.79
409.272	192.51
409.481	145.41
409.69	266.24
409.898	167.93
410.107	204.8
410.315	190.46
410.524	235.52
410.733	258.04
410.941	229.37
411.15	235.52
411.358	260.09
411.567	350.2
411.775	309.24
411.984	239.61
412.192	321.53
412.401	301.05
412.609	307.2
412.818	421.88
413.026	303.1
413.234	311.29
413.443	331.77
413.651	380.92
413.86	380.92
414.068	475.13
414.276	380.92
414.485	471.03
414.693	530.42
414.901	561.14
415.11	430.07
415.318	464.89
415.526	593.91
415.734	552.95
415.943	653.3
416.151	585.72
416.359	561.14
416.567	659.45
416.776	649.21
416.984	638.97
417.192	692.21
417.4	720.88
417.608	751.6
417.817	757.75
418.025	792.56
418.233	946.16
418.441	866.29
418.649	808.95
418.857	972.79
419.065	995.31
419.273	892.91
419.481	989.17
419.689	1105.9
419.897	1177.58
420.105	1028.08
420.313	1126.38
420.521	1155.05
420.729	1134.57
420.937	1257.45
421.145	1366
421.353	1388.52
421.561	1376.24
421.769	1378.28
421.977	1437.67
422.185	1495.02
422.393	1583.08
422.601	1648.61
422.809	1753.06
423.017	1716.2
423.224	1728.49
423.432	1781.73
423.64	1814.5
423.848	1998.82
424.056	1888.23
424.263	1970.15
424.471	2002.91
424.679	2080.74
424.887	2158.56
425.094	2316.25
425.302	2355.16
425.51	2275.29
425.718	2484.19
425.925	2432.99
426.133	2445.27
426.341	2615.26
426.548	2791.38
426.756	2715.61
426.964	2777.05
427.171	3004.37
427.379	3174.35
427.586	3049.43
427.794	3198.93
428.001	3416.01
428.209	3413.96
428.417	3375.05
428.624	3719.11
428.832	3682.25
429.039	3436.49
429.247	3790.79
429.454	4005.83
429.662	4396.99
429.869	3985.35
430.076	4372.41
430.284	4190.14
430.491	4329.41
430.699	4657.08
430.906	4614.07
431.114	4775.86
431.321	4802.49
431.528	4847.54
431.736	5185.46
431.943	5511.08
432.15	5439.4
432.358	5425.07
432.565	5703.59
432.772	5650.35
432.979	5992.36
433.187	5926.82
433.394	5996.45
433.601	6524.83
433.808	6508.44
434.016	6447.01
434.223	6705.05
434.43	7384.98
434.637	6913.94
434.844	7514
435.052	7442.32
435.259	7462.8
435.466	7446.41
435.673	7315.34
435.88	8021.89
436.087	8671.1
436.294	8329.09
436.501	8236.93
436.708	8523.65
436.915	8685.44
437.122	9256.82
437.329	8877.94
437.537	9158.52
437.743	9326.45
437.95	9291.63
438.157	9721.71
438.364	10065.77
438.571	10082.15
438.778	10119.01
438.985	11263.83
439.192	10706.78
439.399	10968.92
439.606	10825.56
439.813	11628.37
440.02	11951.95
440.227	11896.65
440.433	11806.54
440.64	12173.13
440.847	11980.62
441.054	12339.01
441.261	13082.42
441.467	12951.35
441.674	13414.2
441.881	13733.68
442.088	13678.38
442.294	13627.18
442.501	13954.86
442.708	14335.78
442.914	14800.67
443.121	15324.95
443.328	14874.4
443.534	15943.44
443.741	15656.72
443.948	15488.79
444.154	16189.19
444.361	16228.1
444.568	16576.26
444.774	16303.88
444.981	16545.54
445.187	16944.89
445.394	17794.8
445.6	17852.14
445.807	19347.16
446.013	18411.24
446.22	19042.01
446.426	19601.11
446.633	19752.66
446.839	20586.18
447.046	19699.41
447.252	20432.58
447.459	20491.98
447.665	20598.47
447.871	21440.18
448.078	22529.7
448.284	21176
448.491	21468.86
448.697	22843.04
448.903	23223.97
449.11	23129.76
449.316	22761.12
449.522	23355.04
449.728	23967.38
449.935	24020.63
450.141	24020.63
450.347	24559.24
450.553	23950.99
450.76	24245.9
450.966	24761.99
451.172	24608.39
451.378	25400.96
451.584	24811.14
451.791	25542.27
451.997	25142.91
452.203	25624.18
452.409	25906.8
452.615	25470.59
452.821	24536.71
453.027	24555.15
453.233	25497.21
453.44	24782.47
453.646	25173.63
453.852	24919.68
454.058	25441.92
454.264	24635.02
454.47	25190.02
454.676	24530.57
454.882	25204.35
455.088	23307.93
455.294	23465.63
455.5	23864.98
455.705	24235.66
455.911	23117.47
456.117	23033.5
456.323	22613.67
456.529	21534.39
456.735	22486.7
456.941	21544.63
457.147	21198.52
457.352	20934.34
457.558	20637.38
457.764	20881.09
457.97	20426.44
458.176	20043.47
458.381	19814.1
458.587	18646.76
458.793	18763.49
458.999	18034.41
459.204	19283.67
459.41	18343.66
459.616	17655.54
459.821	17381.11
460.027	17614.58
460.233	17020.67
460.438	16338.69
460.644	16561.92
460.85	15679.25
461.055	15279.89
461.261	15472.4
461.466	14440.23
461.672	13637.42
461.878	14876.44
462.083	13922.09
462.289	13547.31
462.494	13391.67
462.7	12803.9
462.905	12646.21
463.111	12846.91
463.316	13014.84
463.522	12824.38
463.727	12652.35
463.932	12683.07
464.138	12547.9
464.343	12629.82
464.549	12175.17
464.754	12793.66
464.959	12576.58
465.165	12273.48
465.37	11964.23
465.575	11579.22
465.781	11972.43
465.986	12113.74
466.191	11636.56
466.397	11474.77
466.602	10800.99
466.807	11333.46
467.012	11243.35
467.218	11226.96
467.423	11134.81
467.628	11026.26
467.833	11392.85
468.038	11042.65
468.244	10907.48
