Data from USB4F104151__299__14-24-01-031.txt Node

Date: Thu Mar 13 14:24:01 EDT 2025
User: louis
Spectrometer: USB4F10415
Trigger mode: 4
Integration Time (sec): 2.000000E-2
Scans to average: 1
Electric dark correction enabled: true
Nonlinearity correction enabled: false
Boxcar width: 0
XAxis mode: Wavelengths
Number of Pixels in Spectrum: 3648
>>>>>Begin Spectral Data<<<<<
178.204	-64.17
178.424	-64.17
178.644	-64.17
178.864	-121.51
179.084	-135.85
179.304	-88.75
179.524	-39.59
179.744	-19.11
179.964	66.9
180.184	-17.07
180.404	-39.59
180.624	60.76
180.844	44.37
181.064	-2.73
181.283	-15.02
181.503	1.37
181.723	48.47
181.943	17.75
182.163	58.71
182.383	-23.21
182.602	91.48
182.822	95.57
183.042	40.28
183.262	-23.21
183.482	42.32
183.701	44.37
183.921	62.8
184.141	46.42
184.361	93.52
184.58	3.41
184.8	30.04
185.02	32.08
185.239	54.61
185.459	58.71
185.679	54.61
185.898	-39.59
186.118	83.28
186.338	54.61
186.557	107.86
186.777	-15.02
186.997	17.75
187.216	38.23
187.436	25.94
187.655	50.52
187.875	91.48
188.095	40.28
188.314	71
188.534	58.71
188.753	-31.4
188.973	66.9
189.192	97.62
189.412	19.8
189.631	25.94
189.851	99.67
190.07	58.71
190.29	-15.02
190.509	-10.92
190.729	54.61
190.948	42.32
191.168	126.29
191.387	68.95
191.607	36.18
191.826	46.42
192.045	-19.11
192.265	34.13
192.484	9.56
192.704	7.51
192.923	50.52
193.142	42.32
193.362	81.24
193.581	52.56
193.8	34.13
194.02	68.95
194.239	36.18
194.458	27.99
194.678	-6.83
194.897	17.75
195.116	27.99
195.335	99.67
195.555	73.04
195.774	-51.88
195.993	23.89
196.212	79.19
196.432	-47.79
196.651	71
196.87	25.94
197.089	99.67
197.308	71
197.528	38.23
197.747	11.61
197.966	1.37
198.185	107.86
198.404	-12.97
198.623	40.28
198.842	50.52
199.062	-21.16
199.281	46.42
199.5	3.41
199.719	21.85
199.938	75.09
200.157	17.75
200.376	-6.83
200.595	-6.83
200.814	-53.93
201.033	-78.51
201.252	58.71
201.471	120.15
201.69	27.99
201.909	21.85
202.128	85.33
202.347	66.9
202.566	52.56
202.785	-31.4
203.004	48.47
203.223	66.9
203.442	-4.78
203.661	62.8
203.879	-27.31
204.098	25.94
204.317	42.32
204.536	68.95
204.755	-0.68
204.974	42.32
205.193	122.2
205.411	85.33
205.63	46.42
205.849	34.13
206.068	58.71
206.287	15.7
206.505	107.86
206.724	93.52
206.943	27.99
207.162	46.42
207.381	3.41
207.599	73.04
207.818	-4.78
208.037	34.13
208.255	11.61
208.474	85.33
208.693	58.71
208.911	44.37
209.13	-8.87
209.349	34.13
209.567	-2.73
209.786	77.14
210.005	40.28
210.223	60.76
210.442	34.13
210.661	58.71
210.879	15.7
211.098	91.48
211.316	40.28
211.535	-8.87
211.753	91.48
211.972	38.23
212.191	-47.79
212.409	30.04
212.628	25.94
212.846	-15.02
213.065	44.37
213.283	83.28
213.502	3.41
213.72	75.09
213.938	-55.98
214.157	7.51
214.375	58.71
214.594	50.52
214.812	83.28
215.031	68.95
215.249	44.37
215.467	-27.31
215.686	9.56
215.904	34.13
216.122	17.75
216.341	9.56
216.559	9.56
216.778	36.18
216.996	140.63
217.214	9.56
217.432	95.57
217.651	9.56
217.869	79.19
218.087	34.13
218.306	13.65
218.524	66.9
218.742	9.56
218.96	1.37
219.179	-8.87
219.397	91.48
219.615	81.24
219.833	17.75
220.051	17.75
220.27	50.52
220.488	58.71
220.706	38.23
220.924	3.41
221.142	-4.78
221.36	21.85
221.578	-6.83
221.796	-15.02
222.015	60.76
222.233	-39.59
222.451	75.09
222.669	-45.74
222.887	66.9
223.105	-4.78
223.323	46.42
223.541	-10.92
223.759	32.08
223.977	-39.59
224.195	126.29
224.413	1.37
224.631	11.61
224.849	21.85
225.067	95.57
225.285	30.04
225.503	19.8
225.721	17.75
225.939	30.04
226.157	105.81
226.375	13.65
226.592	19.8
226.81	17.75
227.028	21.85
227.246	101.72
227.464	46.42
227.682	124.24
227.9	44.37
228.117	21.85
228.335	7.51
228.553	32.08
228.771	25.94
228.989	52.56
229.206	40.28
229.424	79.19
229.642	1.37
229.86	-6.83
230.077	107.86
230.295	1.37
230.513	60.76
230.731	89.43
230.948	-6.83
231.166	91.48
231.384	68.95
231.601	25.94
231.819	58.71
232.037	-6.83
232.254	17.75
232.472	25.94
232.689	19.8
232.907	66.9
233.125	-2.73
233.342	17.75
233.56	-6.83
233.777	5.46
233.995	58.71
234.213	36.18
234.43	9.56
234.648	11.61
234.865	13.65
235.083	66.9
235.3	105.81
235.518	5.46
235.735	56.66
235.953	64.85
236.17	58.71
236.388	-15.02
236.605	-15.02
236.822	34.13
237.04	25.94
237.257	60.76
237.475	-51.88
237.692	27.99
237.909	-4.78
238.127	-10.92
238.344	73.04
238.562	13.65
238.779	11.61
238.996	75.09
239.214	19.8
239.431	50.52
239.648	32.08
239.865	54.61
240.083	-64.17
240.3	11.61
240.517	-2.73
240.735	62.8
240.952	99.67
241.169	-47.79
241.386	38.23
241.603	1.37
241.821	-31.4
242.038	25.94
242.255	21.85
242.472	54.61
242.689	68.95
242.907	71
243.124	27.99
243.341	107.86
243.558	50.52
243.775	17.75
243.992	1.37
244.209	50.52
244.426	58.71
244.643	75.09
244.86	66.9
245.078	1.37
245.295	5.46
245.512	34.13
245.729	42.32
245.946	-15.02
246.163	17.75
246.38	116.05
246.597	17.75
246.814	25.94
247.031	79.19
247.248	66.9
247.464	54.61
247.681	87.38
247.898	48.47
248.115	40.28
248.332	-15.02
248.549	107.86
248.766	83.28
248.983	44.37
249.2	-17.07
249.417	81.24
249.633	30.04
249.85	38.23
250.067	75.09
250.284	50.52
250.501	95.57
250.717	44.37
250.934	1.37
251.151	-43.69
251.368	-51.88
251.585	91.48
251.801	9.56
252.018	-4.78
252.235	15.7
252.451	27.99
252.668	9.56
252.885	68.95
253.102	21.85
253.318	-10.92
253.535	52.56
253.752	46.42
253.968	19.8
254.185	17.75
254.401	-39.59
254.618	38.23
254.835	-6.83
255.051	44.37
255.268	34.13
255.484	38.23
255.701	58.71
255.917	66.9
256.134	62.8
256.351	19.8
256.567	30.04
256.784	66.9
257	1.37
257.217	-25.26
257.433	111.96
257.65	66.9
257.866	83.28
258.082	118.1
258.299	75.09
258.515	17.75
258.732	-45.74
258.948	97.62
259.165	5.46
259.381	27.99
259.597	-80.55
259.814	52.56
260.03	7.51
260.246	13.65
260.463	42.32
260.679	54.61
260.895	-21.16
261.112	103.76
261.328	42.32
261.544	9.56
261.761	42.32
261.977	9.56
262.193	-31.4
262.409	71
262.626	91.48
262.842	66.9
263.058	-25.26
263.274	58.71
263.49	-60.07
263.707	58.71
263.923	48.47
264.139	52.56
264.355	128.34
264.571	58.71
264.787	36.18
265.004	42.32
265.22	-15.02
265.436	42.32
265.652	75.09
265.868	23.89
266.084	-31.4
266.3	36.18
266.516	-2.73
266.732	-0.68
266.948	34.13
267.164	71
267.38	-15.02
267.596	60.76
267.812	42.32
268.028	68.95
268.244	15.7
268.46	21.85
268.676	7.51
268.892	23.89
269.108	25.94
269.324	40.28
269.54	17.75
269.756	25.94
269.972	-62.12
270.188	17.75
270.403	15.7
270.619	34.13
270.835	15.7
271.051	27.99
271.267	-2.73
271.483	75.09
271.698	64.85
271.914	42.32
272.13	85.33
272.346	19.8
272.562	64.85
272.777	11.61
272.993	83.28
273.209	85.33
273.425	50.52
273.64	-15.02
273.856	36.18
274.072	75.09
274.287	58.71
274.503	3.41
274.719	5.46
274.934	42.32
275.15	27.99
275.366	87.38
275.581	-21.16
275.797	85.33
276.012	5.46
276.228	9.56
276.444	11.61
276.659	54.61
276.875	54.61
277.09	3.41
277.306	21.85
277.521	21.85
277.737	75.09
277.952	52.56
278.168	-6.83
278.383	40.28
278.599	27.99
278.814	3.41
279.03	56.66
279.245	68.95
279.461	75.09
279.676	9.56
279.892	-10.92
280.107	11.61
280.322	85.33
280.538	34.13
280.753	-4.78
280.969	-31.4
281.184	66.9
281.399	50.52
281.615	-10.92
281.83	85.33
282.045	-10.92
282.26	-64.17
282.476	58.71
282.691	5.46
282.906	42.32
283.122	23.89
283.337	68.95
283.552	27.99
283.767	11.61
283.983	46.42
284.198	50.52
284.413	66.9
284.628	-27.31
284.843	1.37
285.058	52.56
285.274	1.37
285.489	-2.73
285.704	73.04
285.919	34.13
286.134	-39.59
286.349	32.08
286.564	11.61
286.779	34.13
286.995	60.76
287.21	50.52
287.425	-10.92
287.64	68.95
287.855	9.56
288.07	-33.45
288.285	54.61
288.5	58.71
288.715	75.09
288.93	58.71
289.145	68.95
289.36	-33.45
289.575	23.89
289.79	21.85
290.004	9.56
290.219	66.9
290.434	44.37
290.649	42.32
290.864	-8.87
291.079	87.38
291.294	89.43
291.509	5.46
291.724	62.8
291.938	17.75
292.153	111.96
292.368	44.37
292.583	34.13
292.798	79.19
293.012	19.8
293.227	21.85
293.442	91.48
293.657	19.8
293.871	107.86
294.086	83.28
294.301	27.99
294.516	122.2
294.73	46.42
294.945	64.85
295.16	34.13
295.374	-10.92
295.589	23.89
295.804	-31.4
296.018	11.61
296.233	87.38
296.447	25.94
296.662	-6.83
296.877	77.14
297.091	50.52
297.306	19.8
297.52	19.8
297.735	60.76
297.949	-25.26
298.164	9.56
298.378	36.18
298.593	5.46
298.807	17.75
299.022	52.56
299.236	34.13
299.451	50.52
299.665	13.65
299.88	75.09
300.094	9.56
300.309	93.52
300.523	66.9
300.737	19.8
300.952	25.94
301.166	50.52
301.381	9.56
301.595	-23.21
301.809	25.94
302.024	66.9
302.238	77.14
302.452	91.48
302.667	30.04
302.881	50.52
303.095	85.33
303.309	91.48
303.524	27.99
303.738	111.96
303.952	21.85
304.166	17.75
304.381	60.76
304.595	21.85
304.809	36.18
305.023	93.52
305.237	25.94
305.452	50.52
305.666	42.32
305.88	42.32
306.094	85.33
306.308	62.8
306.522	13.65
306.736	97.62
306.95	126.29
307.164	30.04
307.379	66.9
307.593	66.9
307.807	54.61
308.021	-12.97
308.235	38.23
308.449	-15.02
308.663	19.8
308.877	93.52
309.091	-2.73
309.305	17.75
309.519	-10.92
309.733	66.9
309.947	-19.11
310.161	25.94
310.374	58.71
310.588	75.09
310.802	15.7
311.016	-29.35
311.23	54.61
311.444	40.28
311.658	42.32
311.872	60.76
312.085	17.75
312.299	134.48
312.513	99.67
312.727	73.04
312.941	-45.74
313.154	99.67
313.368	-35.5
313.582	32.08
313.796	-47.79
314.009	60.76
314.223	118.1
314.437	3.41
314.651	68.95
314.864	34.13
315.078	71
315.292	52.56
315.505	-15.02
315.719	75.09
315.933	83.28
316.146	9.56
316.36	-43.69
316.573	91.48
316.787	68.95
317.001	30.04
317.214	68.95
317.428	136.53
317.641	-64.17
317.855	91.48
318.068	1.37
318.282	81.24
318.495	30.04
318.709	68.95
318.922	9.56
319.136	68.95
319.349	99.67
319.563	1.37
319.776	93.52
319.99	-68.27
320.203	93.52
320.417	54.61
320.63	27.99
320.843	42.32
321.057	-10.92
321.27	66.9
321.483	68.95
321.697	68.95
321.91	25.94
322.124	44.37
322.337	68.95
322.55	36.18
322.763	25.94
322.977	5.46
323.19	-23.21
323.403	27.99
323.617	38.23
323.83	116.05
324.043	-23.21
324.256	66.9
324.469	-12.97
324.683	50.52
324.896	11.61
325.109	34.13
325.322	3.41
325.535	27.99
325.748	75.09
325.962	-10.92
326.175	5.46
326.388	68.95
326.601	62.8
326.814	58.71
327.027	46.42
327.24	101.72
327.453	-19.11
327.666	60.76
327.879	56.66
328.092	1.37
328.305	9.56
328.518	73.04
328.731	7.51
328.944	71
329.157	-4.78
329.37	46.42
329.583	157.01
329.796	85.33
330.009	-21.16
330.222	142.68
330.435	27.99
330.648	89.43
330.861	17.75
331.073	5.46
331.286	9.56
331.499	62.8
331.712	83.28
331.925	46.42
332.138	-19.11
332.35	38.23
332.563	42.32
332.776	99.67
332.989	34.13
333.202	83.28
333.414	44.37
333.627	25.94
333.84	42.32
334.053	89.43
334.265	23.89
334.478	21.85
334.691	95.57
334.903	-21.16
335.116	-53.93
335.329	17.75
335.541	50.52
335.754	44.37
335.966	-37.55
336.179	36.18
336.392	-12.97
336.604	46.42
336.817	75.09
337.029	30.04
337.242	52.56
337.454	99.67
337.667	34.13
337.88	146.77
338.092	99.67
338.305	30.04
338.517	44.37
338.729	83.28
338.942	91.48
339.154	68.95
339.367	-64.17
339.579	83.28
339.792	-12.97
340.004	75.09
340.217	54.61
340.429	27.99
340.641	13.65
340.854	85.33
341.066	101.72
341.278	101.72
341.491	54.61
341.703	54.61
341.915	42.32
342.128	77.14
342.34	46.42
342.552	23.89
342.764	9.56
342.977	44.37
343.189	46.42
343.401	48.47
343.613	-29.35
343.826	71
344.038	30.04
344.25	-2.73
344.462	42.32
344.674	54.61
344.886	21.85
345.099	60.76
345.311	19.8
345.523	38.23
345.735	38.23
345.947	11.61
346.159	66.9
346.371	77.14
346.583	1.37
346.795	124.24
347.007	34.13
347.219	-2.73
347.431	58.71
347.643	142.68
347.855	36.18
348.067	15.7
348.279	-60.07
348.491	38.23
348.703	32.08
348.915	30.04
349.127	-39.59
349.339	91.48
349.551	-15.02
349.763	25.94
349.975	71
350.187	91.48
350.399	124.24
350.61	9.56
350.822	68.95
351.034	25.94
351.246	-41.64
351.458	85.33
351.669	64.85
351.881	91.48
352.093	58.71
352.305	140.63
352.517	60.76
352.728	148.82
352.94	30.04
353.152	50.52
353.363	-23.21
353.575	44.37
353.787	79.19
353.999	75.09
354.21	42.32
354.422	134.48
354.633	58.71
354.845	17.75
355.057	1.37
355.268	50.52
355.48	60.76
355.692	17.75
355.903	73.04
356.115	42.32
356.326	-62.12
356.538	99.67
356.749	9.56
356.961	42.32
357.172	25.94
357.384	11.61
357.595	183.63
357.807	54.61
358.018	32.08
358.23	99.67
358.441	126.29
358.653	44.37
358.864	-31.4
359.075	52.56
359.287	-2.73
359.498	81.24
359.709	66.9
359.921	58.71
360.132	9.56
360.344	1.37
360.555	-2.73
360.766	17.75
360.977	75.09
361.189	93.52
361.4	1.37
361.611	58.71
361.823	77.14
362.034	83.28
362.245	1.37
362.456	120.15
362.667	-15.02
362.879	5.46
363.09	87.38
363.301	27.99
363.512	-10.92
363.723	91.48
363.935	-23.21
364.146	-4.78
364.357	154.96
364.568	42.32
364.779	19.8
364.99	62.8
365.201	52.56
365.412	71
365.623	5.46
365.834	60.76
366.045	34.13
366.256	81.24
366.467	3.41
366.678	99.67
366.889	-31.4
367.1	71
367.311	83.28
367.522	5.46
367.733	-15.02
367.944	60.76
368.155	13.65
368.366	68.95
368.577	89.43
368.788	38.23
368.999	-72.36
369.209	71
369.42	52.56
369.631	62.8
369.842	42.32
370.053	7.51
370.264	91.48
370.474	9.56
370.685	27.99
370.896	34.13
371.107	42.32
371.317	42.32
371.528	34.13
371.739	48.47
371.95	38.23
372.16	50.52
372.371	23.89
372.582	93.52
372.792	52.56
373.003	99.67
373.214	107.86
373.424	126.29
373.635	-10.92
373.846	52.56
374.056	21.85
374.267	36.18
374.477	34.13
374.688	19.8
374.898	27.99
375.109	5.46
375.319	38.23
375.53	77.14
375.74	9.56
375.951	40.28
376.161	17.75
376.372	58.71
376.582	50.52
376.793	77.14
377.003	46.42
377.214	42.32
377.424	52.56
377.635	17.75
377.845	21.85
378.055	128.34
378.266	1.37
378.476	-21.16
378.686	54.61
378.897	1.37
379.107	157.01
379.317	93.52
379.528	56.66
379.738	99.67
379.948	-2.73
380.158	132.44
380.369	48.47
380.579	146.77
380.789	23.89
380.999	44.37
381.21	66.9
381.42	79.19
381.63	48.47
381.84	58.71
382.05	68.95
382.261	136.53
382.471	42.32
382.681	25.94
382.891	111.96
383.101	34.13
383.311	-15.02
383.521	75.09
383.731	79.19
383.941	62.8
384.151	107.86
384.361	62.8
384.571	93.52
384.781	71
384.991	34.13
385.201	150.87
385.411	75.09
385.621	34.13
385.831	58.71
386.041	50.52
386.251	-2.73
386.461	83.28
386.671	-4.78
386.881	17.75
387.091	-60.07
387.301	44.37
387.511	54.61
387.72	38.23
387.93	60.76
388.14	1.37
388.35	50.52
388.56	17.75
388.769	101.72
388.979	17.75
389.189	36.18
389.399	58.71
389.609	81.24
389.818	122.2
390.028	66.9
390.238	5.46
390.447	21.85
390.657	34.13
390.867	99.67
391.076	-10.92
391.286	91.48
391.496	116.05
391.705	77.14
391.915	99.67
392.125	87.38
392.334	1.37
392.544	62.8
392.753	38.23
392.963	68.95
393.172	97.62
393.382	15.7
393.591	52.56
393.801	38.23
394.01	62.8
394.22	-15.02
394.429	66.9
394.639	83.28
394.848	-6.83
395.058	-37.55
395.267	54.61
395.477	140.63
395.686	64.85
395.895	11.61
396.105	152.91
396.314	9.56
396.524	66.9
396.733	85.33
396.942	60.76
397.152	107.86
397.361	124.24
397.57	83.28
397.78	140.63
397.989	152.91
398.198	132.44
398.407	71
398.617	56.66
398.826	71
399.035	66.9
399.244	85.33
399.453	99.67
399.663	58.71
399.872	159.06
400.081	50.52
400.29	109.91
400.499	89.43
400.708	208.21
400.917	42.32
401.127	60.76
401.336	140.63
401.545	116.05
401.754	46.42
401.963	60.76
402.172	146.77
402.381	132.44
402.59	87.38
402.799	142.68
403.008	169.3
403.217	120.15
403.426	109.91
403.635	107.86
403.844	87.38
404.053	116.05
404.262	101.72
404.471	169.3
404.68	95.57
404.888	140.63
405.097	99.67
405.306	159.06
405.515	152.91
405.724	148.82
405.933	185.68
406.142	157.01
406.35	122.2
406.559	101.72
406.768	157.01
406.977	206.16
407.185	167.25
407.394	197.97
407.603	181.59
407.812	109.91
408.02	290.13
408.229	200.02
408.438	165.2
408.646	175.44
408.855	197.97
409.064	234.83
409.272	169.3
409.481	249.17
409.69	181.59
409.898	167.25
410.107	189.78
410.315	238.93
410.524	206.16
410.733	269.65
410.941	273.75
411.15	335.18
411.358	292.18
411.567	339.28
411.775	308.56
411.984	335.18
412.192	316.75
412.401	415.06
412.609	386.38
412.818	398.67
413.026	443.73
413.234	433.49
413.443	486.73
413.651	363.86
413.86	431.44
414.068	494.93
414.276	507.21
414.485	464.21
414.693	517.45
414.901	644.43
415.11	537.93
415.318	517.45
415.526	574.8
415.734	544.08
415.943	601.42
416.151	601.42
416.359	636.24
416.567	683.34
416.776	656.72
416.984	761.16
417.192	791.88
417.4	763.21
417.608	767.31
417.817	765.26
418.025	820.55
418.233	937.29
418.441	824.65
418.649	871.75
418.857	976.2
419.065	980.29
419.273	1000.77
419.481	1017.16
419.689	1037.64
419.897	1142.08
420.105	1201.48
420.313	1123.65
420.521	1181
420.729	1287.49
420.937	1334.59
421.145	1250.63
421.353	1441.09
421.561	1451.33
421.769	1529.15
421.977	1508.67
422.185	1541.44
422.393	1615.16
422.601	1692.99
422.809	1686.84
423.017	1770.81
423.224	1799.48
423.432	1873.21
423.64	1873.21
423.848	1967.42
424.056	1996.09
424.263	2090.29
424.471	2164.02
424.679	2131.25
424.887	2272.56
425.094	2297.14
425.302	2424.11
425.51	2409.78
425.718	2565.42
425.925	2522.41
426.133	2727.21
426.341	2915.62
426.548	2876.71
426.756	2848.04
426.964	2921.77
427.171	3089.7
427.379	3282.21
427.586	3196.2
427.794	3298.59
428.001	3345.7
428.209	3745.05
428.417	3568.93
428.624	3939.61
428.832	3872.03
429.039	3687.71
429.247	3783.96
429.454	4056.34
429.662	4314.39
429.869	4039.96
430.076	4416.79
430.284	4345.11
430.491	4320.53
430.699	4842.76
430.906	4672.78
431.114	4670.73
431.321	4908.3
431.528	5074.18
431.736	5358.85
431.943	5694.72
432.15	5457.15
432.358	5516.55
432.565	5866.75
432.772	5829.88
432.979	6022.39
433.187	6120.7
433.394	6219
433.601	6601.97
433.808	6595.82
434.016	6710.51
434.223	6853.87
434.43	7204.07
434.637	7070.95
434.844	7734.5
435.052	7773.41
435.259	7632.1
435.466	7603.43
435.673	7732.45
435.88	8101.08
436.087	8623.31
436.294	8678.61
436.501	8594.64
436.708	8537.3
436.915	8744.14
437.122	9073.87
437.329	9209.03
437.537	9510.08
437.743	9755.84
437.95	9651.39
438.157	9962.69
438.364	10398.9
438.571	10308.79
438.778	10482.87
438.985	11330.73
439.192	11015.34
439.399	11404.46
439.606	11050.16
439.813	11701.41
440.02	12459.16
440.227	12223.64
440.433	12014.75
440.64	12240.03
440.847	12518.55
441.054	12637.33
441.261	13589.64
441.467	13288.59
441.674	13528.2
441.881	13833.35
442.088	14062.72
442.294	13714.56
442.501	14050.43
442.708	14410.87
442.914	15123.57
443.121	15633.51
443.328	15389.8
443.534	16647.26
443.741	15737.96
443.948	15664.23
444.154	16925.78
444.361	16624.73
444.568	17052.75
444.774	16770.13
444.981	16757.85
445.187	17589.32
445.394	18070.59
445.6	17648.71
445.807	19711.02
446.013	19012.66
446.22	19205.17
446.426	19606.57
446.633	19868.71
446.839	20653.08
447.046	19809.32
447.252	21034
447.459	20745.24
447.665	20911.13
447.871	21589
448.078	22627.32
448.284	21769.23
448.491	22215.68
448.697	23401.46
448.903	23669.74
449.11	23737.32
449.316	23069.69
449.522	23741.42
449.728	24198.12
449.935	24527.84
450.141	24560.61
450.347	25107.41
450.553	24441.82
450.76	24658.91
450.966	25244.63
451.172	25410.51
451.378	25699.28
451.584	25332.69
451.791	25785.29
451.997	25871.31
452.203	26029
452.409	25998.28
452.615	26155.97
452.821	25011.16
453.027	24921.05
453.233	26399.68
453.44	25275.35
453.646	25662.41
453.852	25613.26
454.058	25981.9
454.264	25033.69
454.47	25865.16
454.676	25031.64
454.882	25762.76
455.088	23860.2
455.294	24060.9
455.5	24382.43
455.705	24740.83
455.911	23497.71
456.117	23346.16
456.323	22967.29
456.529	21726.22
456.735	22635.52
456.941	22090.76
457.147	21666.83
457.352	21226.51
457.558	20896.79
457.764	21238.8
457.97	20472.86
458.176	20247.58
458.381	20229.15
458.587	19047.47
458.793	19057.71
458.999	18050.11
459.204	19762.22
459.41	18988.08
459.616	17861.7
459.821	17816.65
460.027	17747.01
460.233	17390.67
460.438	16569.43
460.644	17056.85
460.85	15791.2
461.055	15680.61
461.261	15787.11
461.466	14609.53
461.672	14152.83
461.878	15217.77
462.083	14158.97
462.289	13821.06
462.494	13730.95
462.7	13128.84
462.905	12772.5
463.111	13096.08
463.316	13118.61
463.522	12876.94
463.727	12672.15
463.932	13048.97
464.138	12911.76
464.343	12801.17
464.549	12520.6
464.754	12887.18
464.959	12870.8
465.165	12694.68
465.37	12346.52
465.575	11840.67
465.781	12307.61
465.986	12285.08
466.191	12104.86
466.397	11590.82
466.602	11052.2
466.807	11732.13
467.012	11465.89
467.218	11531.43
467.423	11367.59
467.628	11363.5
467.833	11576.48
468.038	11318.44
468.244	11078.83
468.449	11521.19
468.654	11201.71
468.859	11107.5
