Data from USB4F104151__82__14-17-43-966.txt Node

Date: Thu Mar 13 14:17:43 EDT 2025
User: louis
Spectrometer: USB4F10415
Trigger mode: 4
Integration Time (sec): 2.000000E-2
Scans to average: 1
Electric dark correction enabled: true
Nonlinearity correction enabled: false
Boxcar width: 0
XAxis mode: Wavelengths
Number of Pixels in Spectrum: 3648
>>>>>Begin Spectral Data<<<<<
178.204	-86.36
178.424	-86.36
178.644	-86.36
178.864	-84.31
179.084	-80.21
179.304	-55.64
179.524	-29.01
179.744	13.99
179.964	22.19
180.184	42.67
180.404	-16.73
180.624	-6.49
180.844	22.19
181.064	-69.97
181.283	20.14
181.503	-2.39
181.723	59.05
181.943	-39.25
182.163	54.95
182.383	34.47
182.602	11.95
182.822	3.75
183.042	-10.58
183.262	-10.58
183.482	11.95
183.701	16.04
183.921	46.76
184.141	-69.97
184.361	89.77
184.58	-2.39
184.8	50.86
185.02	26.28
185.239	44.71
185.459	54.95
185.679	-31.06
185.898	22.19
186.118	18.09
186.338	18.09
186.557	57
186.777	59.05
186.997	-26.96
187.216	-8.53
187.436	54.95
187.655	-10.58
187.875	-14.68
188.095	-31.06
188.314	83.63
188.534	83.63
188.753	28.33
188.973	-22.87
189.192	18.09
189.412	11.95
189.631	44.71
189.851	-4.44
190.07	59.05
190.29	-49.49
190.509	-0.34
190.729	18.09
190.948	-6.49
191.168	100.01
191.387	54.95
191.607	13.99
191.826	20.14
192.045	-2.39
192.265	-18.77
192.484	-10.58
192.704	-35.16
192.923	26.28
193.142	91.82
193.362	42.67
193.581	52.91
193.8	77.48
194.02	-14.68
194.239	-6.49
194.458	26.28
194.678	75.43
194.897	40.62
195.116	26.28
195.335	42.67
195.555	52.91
195.774	30.38
195.993	65.19
196.212	-2.39
196.432	-61.78
196.651	-6.49
196.87	7.85
197.089	-20.82
197.308	1.71
197.528	38.57
197.747	-108.88
197.966	-22.87
198.185	3.75
198.404	24.23
198.623	-12.63
198.842	11.95
199.062	73.39
199.281	46.76
199.5	38.57
199.719	85.67
199.938	30.38
200.157	28.33
200.376	13.99
200.595	9.9
200.814	-18.77
201.033	-8.53
201.252	67.24
201.471	-41.3
201.69	20.14
201.909	44.71
202.128	69.29
202.347	106.15
202.566	-22.87
202.785	-8.53
203.004	46.76
203.223	1.71
203.442	5.8
203.661	71.34
203.879	-24.92
204.098	3.75
204.317	1.71
204.536	44.71
204.755	-4.44
204.974	18.09
205.193	26.28
205.411	77.48
205.63	26.28
205.849	7.85
206.068	-39.25
206.287	22.19
206.505	-20.82
206.724	44.71
206.943	28.33
207.162	-10.58
207.381	36.52
207.599	44.71
207.818	13.99
208.037	-31.06
208.255	36.52
208.474	20.14
208.693	18.09
208.911	28.33
209.13	83.63
209.349	32.43
209.567	59.05
209.786	-6.49
210.005	-10.58
210.223	38.57
210.442	-31.06
210.661	-37.2
210.879	-72.02
211.098	42.67
211.316	11.95
211.535	11.95
211.753	7.85
211.972	1.71
212.191	-53.59
212.409	11.95
212.628	-47.44
212.846	-29.01
213.065	102.06
213.283	-18.77
213.502	-0.34
213.72	50.86
213.938	-53.59
214.157	16.04
214.375	44.71
214.594	-82.26
214.812	-18.77
215.031	38.57
215.249	40.62
215.467	42.67
215.686	36.52
215.904	36.52
216.122	-22.87
216.341	3.75
216.559	-20.82
216.778	69.29
216.996	42.67
217.214	48.81
217.432	20.14
217.651	-12.63
217.869	-24.92
218.087	3.75
218.306	-26.96
218.524	13.99
218.742	28.33
218.96	54.95
219.179	-55.64
219.397	20.14
219.615	73.39
219.833	-22.87
220.051	-35.16
220.27	77.48
220.488	83.63
220.706	11.95
220.924	-14.68
221.142	-29.01
221.36	61.1
221.578	32.43
221.796	9.9
222.015	112.3
222.233	-43.35
222.451	-33.11
222.669	50.86
222.887	-22.87
223.105	42.67
223.323	87.72
223.541	59.05
223.759	38.57
223.977	3.75
224.195	9.9
224.413	40.62
224.631	59.05
224.849	-33.11
225.067	18.09
225.285	-2.39
225.503	9.9
225.721	-80.21
225.939	34.47
226.157	-39.25
226.375	26.28
226.592	9.9
226.81	-10.58
227.028	50.86
227.246	100.01
227.464	-20.82
227.682	149.16
227.9	5.8
228.117	9.9
228.335	22.19
228.553	42.67
228.771	36.52
228.989	28.33
229.206	-2.39
229.424	-6.49
229.642	36.52
229.86	34.47
230.077	52.91
230.295	71.34
230.513	24.23
230.731	-20.82
230.948	34.47
231.166	26.28
231.384	20.14
231.601	-0.34
231.819	59.05
232.037	44.71
232.254	40.62
232.472	32.43
232.689	-55.64
232.907	38.57
233.125	9.9
233.342	18.09
233.56	-61.78
233.777	40.62
233.995	67.24
234.213	26.28
234.43	44.71
234.648	5.8
234.865	-76.12
235.083	69.29
235.3	-31.06
235.518	13.99
235.735	34.47
235.953	102.06
236.17	26.28
236.388	30.38
236.605	69.29
236.822	24.23
237.04	87.72
237.257	50.86
237.475	26.28
237.692	93.87
237.909	20.14
238.127	-14.68
238.344	-10.58
238.562	1.71
238.779	52.91
238.996	-14.68
239.214	30.38
239.431	-18.77
239.648	-39.25
239.865	83.63
240.083	-26.96
240.3	71.34
240.517	26.28
240.735	-6.49
240.952	63.15
241.169	9.9
241.386	-14.68
241.603	44.71
241.821	-29.01
242.038	1.71
242.255	-43.35
242.472	61.1
242.689	46.76
242.907	11.95
243.124	30.38
243.341	100.01
243.558	9.9
243.775	-57.68
243.992	1.71
244.209	26.28
244.426	22.19
244.643	100.01
244.86	28.33
245.078	9.9
245.295	73.39
245.512	-39.25
245.729	-26.96
245.946	26.28
246.163	9.9
246.38	36.52
246.597	13.99
246.814	91.82
247.031	36.52
247.248	52.91
247.464	20.14
247.681	34.47
247.898	44.71
248.115	22.19
248.332	-20.82
248.549	1.71
248.766	140.97
248.983	57
249.2	18.09
249.417	26.28
249.633	22.19
249.85	5.8
250.067	59.05
250.284	18.09
250.501	71.34
250.717	3.75
250.934	-39.25
251.151	63.15
251.368	-10.58
251.585	52.91
251.801	-41.3
252.018	20.14
252.235	83.63
252.451	-2.39
252.668	42.67
252.885	73.39
253.102	18.09
253.318	79.53
253.535	69.29
253.752	-12.63
253.968	-14.68
254.185	20.14
254.401	42.67
254.618	-4.44
254.835	-55.64
255.051	9.9
255.268	108.2
255.484	22.19
255.701	65.19
255.917	85.67
256.134	26.28
256.351	34.47
256.567	32.43
256.784	11.95
257	-4.44
257.217	5.8
257.433	-4.44
257.65	22.19
257.866	34.47
258.082	5.8
258.299	59.05
258.515	36.52
258.732	-22.87
258.948	1.71
259.165	-47.44
259.381	59.05
259.597	52.91
259.814	-24.92
260.03	18.09
260.246	52.91
260.463	67.24
260.679	44.71
260.895	36.52
261.112	36.52
261.328	-45.4
261.544	9.9
261.761	42.67
261.977	-55.64
262.193	7.85
262.409	40.62
262.626	-6.49
262.842	-43.35
263.058	-6.49
263.274	22.19
263.49	30.38
263.707	75.43
263.923	-6.49
264.139	18.09
264.355	-24.92
264.571	69.29
264.787	-10.58
265.004	65.19
265.22	36.52
265.436	5.8
265.652	71.34
265.868	71.34
266.084	5.8
266.3	1.71
266.516	-26.96
266.732	38.57
266.948	100.01
267.164	67.24
267.38	-0.34
267.596	52.91
267.812	7.85
268.028	75.43
268.244	5.8
268.46	-8.53
268.676	52.91
268.892	50.86
269.108	18.09
269.324	44.71
269.54	-39.25
269.756	54.95
269.972	-18.77
270.188	-14.68
270.403	-4.44
270.619	9.9
270.835	42.67
271.051	48.81
271.267	75.43
271.483	-80.21
271.698	7.85
271.914	30.38
272.13	-20.82
272.346	54.95
272.562	5.8
272.777	-2.39
272.993	-24.92
273.209	34.47
273.425	-0.34
273.64	38.57
273.856	61.1
274.072	3.75
274.287	-39.25
274.503	34.47
274.719	36.52
274.934	9.9
275.15	-24.92
275.366	-22.87
275.581	-35.16
275.797	-22.87
276.012	7.85
276.228	-37.2
276.444	-2.39
276.659	65.19
276.875	38.57
277.09	34.47
277.306	-39.25
277.521	118.44
277.737	-10.58
277.952	118.44
278.168	61.1
278.383	71.34
278.599	-6.49
278.814	34.47
279.03	20.14
279.245	5.8
279.461	-0.34
279.676	3.75
279.892	20.14
280.107	11.95
280.322	28.33
280.538	24.23
280.753	-20.82
280.969	11.95
281.184	44.71
281.399	13.99
281.615	22.19
281.83	22.19
282.045	9.9
282.26	-31.06
282.476	-61.78
282.691	38.57
282.906	-6.49
283.122	83.63
283.337	77.48
283.552	110.25
283.767	-2.39
283.983	40.62
284.198	-76.12
284.413	18.09
284.628	-39.25
284.843	-49.49
285.058	54.95
285.274	24.23
285.489	11.95
285.704	5.8
285.919	-53.59
286.134	61.1
286.349	-4.44
286.564	16.04
286.779	-43.35
286.995	-31.06
287.21	-26.96
287.425	100.01
287.64	67.24
287.855	26.28
288.07	-72.02
288.285	26.28
288.5	-33.11
288.715	3.75
288.93	73.39
289.145	52.91
289.36	46.76
289.575	59.05
289.79	-67.92
290.004	13.99
290.219	79.53
290.434	20.14
290.649	50.86
290.864	20.14
291.079	-29.01
291.294	46.76
291.509	22.19
291.724	-4.44
291.938	22.19
292.153	124.58
292.368	-29.01
292.583	3.75
292.798	1.71
293.012	7.85
293.227	77.48
293.442	30.38
293.657	9.9
293.871	75.43
294.086	65.19
294.301	50.86
294.516	69.29
294.73	69.29
294.945	-37.2
295.16	50.86
295.374	52.91
295.589	83.63
295.804	-6.49
296.018	44.71
296.233	34.47
296.447	9.9
296.662	85.67
296.877	11.95
297.091	87.72
297.306	-4.44
297.52	-67.92
297.735	59.05
297.949	124.58
298.164	26.28
298.378	46.76
298.593	-57.68
298.807	13.99
299.022	91.82
299.236	57
299.451	-41.3
299.665	-12.63
299.88	73.39
300.094	26.28
300.309	34.47
300.523	9.9
300.737	83.63
300.952	11.95
301.166	3.75
301.381	1.71
301.595	1.71
301.809	1.71
302.024	61.1
302.238	75.43
302.452	-10.58
302.667	-51.54
302.881	-47.44
303.095	87.72
303.309	22.19
303.524	-4.44
303.738	79.53
303.952	-22.87
304.166	30.38
304.381	-53.59
304.595	69.29
304.809	-29.01
305.023	67.24
305.237	63.15
305.452	18.09
305.666	44.71
305.88	30.38
306.094	112.3
306.308	91.82
306.522	-2.39
306.736	-18.77
306.95	20.14
307.164	63.15
307.379	3.75
307.593	11.95
307.807	42.67
308.021	-14.68
308.235	67.24
308.449	50.86
308.663	61.1
308.877	-18.77
309.091	67.24
309.305	36.52
309.519	-61.78
309.733	42.67
309.947	-53.59
310.161	67.24
310.374	116.39
310.588	138.92
310.802	42.67
311.016	48.81
311.23	18.09
311.444	-6.49
311.658	-14.68
311.872	-10.58
312.085	67.24
312.299	34.47
312.513	42.67
312.727	61.1
312.941	-22.87
313.154	1.71
313.368	34.47
313.582	75.43
313.796	26.28
314.009	-26.96
314.223	-4.44
314.437	75.43
314.651	9.9
314.864	-63.83
315.078	1.71
315.292	30.38
315.505	-12.63
315.719	91.82
315.933	3.75
316.146	46.76
316.36	67.24
316.573	69.29
316.787	-22.87
317.001	120.49
317.214	-2.39
317.428	32.43
317.641	-65.88
317.855	26.28
318.068	28.33
318.282	104.11
318.495	61.1
318.709	-4.44
318.922	-6.49
319.136	124.58
319.349	34.47
319.563	26.28
319.776	63.15
319.99	-14.68
320.203	42.67
320.417	-53.59
320.63	59.05
320.843	100.01
321.057	63.15
321.27	-51.54
321.483	59.05
321.697	75.43
321.91	52.91
322.124	67.24
322.337	36.52
322.55	-4.44
322.763	50.86
322.977	42.67
323.19	50.86
323.403	75.43
323.617	-53.59
323.83	13.99
324.043	-12.63
324.256	-63.83
324.469	-35.16
324.683	91.82
324.896	-20.82
325.109	22.19
325.322	-41.3
325.535	26.28
325.748	9.9
325.962	36.52
326.175	-8.53
326.388	13.99
326.601	54.95
326.814	83.63
327.027	26.28
327.24	36.52
327.453	-43.35
327.666	46.76
327.879	48.81
328.092	30.38
328.305	-10.58
328.518	73.39
328.731	5.8
328.944	112.3
329.157	-14.68
329.37	-6.49
329.583	-22.87
329.796	85.67
330.009	26.28
330.222	24.23
330.435	-16.73
330.648	71.34
330.861	50.86
331.073	46.76
331.286	-10.58
331.499	3.75
331.712	-20.82
331.925	38.57
332.138	34.47
332.35	18.09
332.563	9.9
332.776	112.3
332.989	13.99
333.202	22.19
333.414	26.28
333.627	-12.63
333.84	11.95
334.053	13.99
334.265	61.1
334.478	26.28
334.691	77.48
334.903	112.3
335.116	1.71
335.329	42.67
335.541	73.39
335.754	52.91
335.966	11.95
336.179	11.95
336.392	-16.73
336.604	1.71
336.817	34.47
337.029	-20.82
337.242	59.05
337.454	9.9
337.667	28.33
337.88	69.29
338.092	9.9
338.305	87.72
338.517	-10.58
338.729	34.47
338.942	67.24
339.154	3.75
339.367	-37.2
339.579	7.85
339.792	26.28
340.004	-6.49
340.217	1.71
340.429	-33.11
340.641	54.95
340.854	50.86
341.066	-39.25
341.278	108.2
341.491	130.73
341.703	-18.77
341.915	46.76
342.128	40.62
342.34	57
342.552	-22.87
342.764	42.67
342.977	-14.68
343.189	65.19
343.401	-10.58
343.613	-59.73
343.826	3.75
344.038	-37.2
344.25	110.25
344.462	-37.2
344.674	32.43
344.886	-20.82
345.099	46.76
345.311	-4.44
345.523	34.47
345.735	44.71
345.947	50.86
346.159	28.33
346.371	67.24
346.583	-20.82
346.795	77.48
347.007	11.95
347.219	87.72
347.431	-2.39
347.643	147.11
347.855	-37.2
348.067	52.91
348.279	-10.58
348.491	36.52
348.703	38.57
348.915	13.99
349.127	-43.35
349.339	46.76
349.551	-4.44
349.763	18.09
349.975	36.52
350.187	50.86
350.399	63.15
350.61	3.75
350.822	-31.06
351.034	-24.92
351.246	24.23
351.458	-4.44
351.669	67.24
351.881	-24.92
352.093	22.19
352.305	75.43
352.517	-20.82
352.728	-10.58
352.94	52.91
353.152	95.91
353.363	16.04
353.575	63.15
353.787	3.75
353.999	83.63
354.21	128.68
354.422	46.76
354.633	30.38
354.845	1.71
355.057	36.52
355.268	26.28
355.48	9.9
355.692	-2.39
355.903	9.9
356.115	-10.58
356.326	-4.44
356.538	48.81
356.749	71.34
356.961	69.29
357.172	20.14
357.384	-26.96
357.595	108.2
357.807	42.67
358.018	-84.31
358.23	61.1
358.441	73.39
358.653	83.63
358.864	46.76
359.075	26.28
359.287	63.15
359.498	61.1
359.709	1.71
359.921	50.86
360.132	26.28
360.344	26.28
360.555	-31.06
360.766	-61.78
360.977	9.9
361.189	71.34
361.4	-67.92
361.611	13.99
361.823	16.04
362.034	-37.2
362.245	-37.2
362.456	69.29
362.667	46.76
362.879	16.04
363.09	-18.77
363.301	67.24
363.512	18.09
363.723	36.52
363.935	-10.58
364.146	48.81
364.357	54.95
364.568	63.15
364.779	71.34
364.99	93.87
365.201	73.39
365.412	-39.25
365.623	-31.06
365.834	67.24
366.045	57
366.256	50.86
366.467	9.9
366.678	26.28
366.889	67.24
367.1	-37.2
367.311	91.82
367.522	54.95
367.733	46.76
367.944	-22.87
368.155	59.05
368.366	7.85
368.577	57
368.788	124.58
368.999	-33.11
369.209	-20.82
369.42	50.86
369.631	104.11
369.842	-63.83
370.053	69.29
370.264	54.95
370.474	93.87
370.685	100.01
370.896	52.91
371.107	-59.73
371.317	5.8
371.528	42.67
371.739	120.49
371.95	42.67
372.16	75.43
372.371	46.76
372.582	32.43
372.792	116.39
373.003	-47.44
373.214	81.58
373.424	83.63
373.635	-20.82
373.846	59.05
374.056	1.71
374.267	26.28
374.477	40.62
374.688	-4.44
374.898	50.86
375.109	34.47
375.319	85.67
375.53	77.48
375.74	59.05
375.951	1.71
376.161	38.57
376.372	65.19
376.582	-6.49
376.793	16.04
377.003	85.67
377.214	-53.59
377.424	-10.58
377.635	-18.77
377.845	108.2
378.055	44.71
378.266	-10.58
378.476	-22.87
378.686	38.57
378.897	126.63
379.107	54.95
379.317	50.86
379.528	9.9
379.738	110.25
379.948	24.23
380.158	11.95
380.369	102.06
380.579	50.86
380.789	54.95
380.999	77.48
381.21	108.2
381.42	122.54
381.63	1.71
381.84	112.3
382.05	-45.4
382.261	100.01
382.471	63.15
382.681	93.87
382.891	54.95
383.101	67.24
383.311	3.75
383.521	1.71
383.731	30.38
383.941	20.14
384.151	-26.96
384.361	54.95
384.571	54.95
384.781	57
384.991	79.53
385.201	75.43
385.411	65.19
385.621	-0.34
385.831	-4.44
386.041	59.05
386.251	3.75
386.461	13.99
386.671	50.86
386.881	44.71
387.091	52.91
387.301	9.9
387.511	22.19
387.72	44.71
387.93	32.43
388.14	69.29
388.35	-22.87
388.56	-12.63
388.769	52.91
388.979	63.15
389.189	26.28
389.399	30.38
389.609	42.67
389.818	-6.49
390.028	24.23
390.238	93.87
390.447	32.43
390.657	30.38
390.867	85.67
391.076	50.86
391.286	87.72
391.496	38.57
391.705	65.19
391.915	18.09
392.125	42.67
392.334	50.86
392.544	18.09
392.753	63.15
392.963	104.11
393.172	11.95
393.382	91.82
393.591	157.35
393.801	44.71
394.01	91.82
394.22	159.4
394.429	130.73
394.639	67.24
394.848	73.39
395.058	77.48
395.267	1.71
395.477	9.9
395.686	-22.87
395.895	93.87
396.105	95.91
396.314	59.05
396.524	-6.49
396.733	38.57
396.942	104.11
397.152	79.53
397.361	22.19
397.57	149.16
397.78	18.09
397.989	85.67
398.198	124.58
398.407	36.52
398.617	18.09
398.826	11.95
399.035	112.3
399.244	128.68
399.453	79.53
399.663	116.39
399.872	63.15
400.081	9.9
400.29	81.58
400.499	65.19
400.708	79.53
400.917	71.34
401.127	159.4
401.336	85.67
401.545	132.78
401.754	100.01
401.963	114.34
402.172	100.01
402.381	52.91
402.59	73.39
402.799	145.06
403.008	130.73
403.217	104.11
403.426	42.67
403.635	79.53
403.844	122.54
404.053	67.24
404.262	112.3
404.471	100.01
404.68	65.19
404.888	59.05
405.097	28.33
405.306	159.4
405.515	190.12
405.724	89.77
405.933	177.83
406.142	54.95
406.35	132.78
406.559	75.43
406.768	145.06
406.977	206.5
407.185	145.06
407.394	167.59
407.603	222.89
407.812	251.56
408.02	218.79
408.229	138.92
408.438	208.55
408.646	118.44
408.855	132.78
409.064	247.46
409.272	288.42
409.481	304.81
409.69	235.18
409.898	233.13
410.107	243.37
410.315	325.29
410.524	306.85
410.733	255.65
410.941	263.85
411.15	294.57
411.358	321.19
411.567	415.4
411.775	308.9
411.984	347.81
412.192	415.4
412.401	333.48
412.609	423.59
412.818	425.64
413.026	353.96
413.234	378.53
413.443	536.23
413.651	489.12
413.86	489.12
414.068	550.56
414.276	536.23
414.485	495.27
414.693	530.08
414.901	632.48
415.11	511.65
415.318	552.61
415.526	620.19
415.734	632.48
415.943	702.11
416.151	714.4
416.359	726.69
416.567	747.17
416.776	863.9
416.984	755.36
417.192	820.89
417.4	781.98
417.608	861.85
417.817	902.81
418.025	892.57
418.233	1013.4
418.441	880.29
418.649	1050.27
418.857	1060.51
419.065	1187.48
419.273	1107.61
419.481	1226.39
419.689	1263.26
419.897	1201.82
420.105	1218.2
420.313	1322.65
420.521	1371.8
420.729	1431.19
420.937	1388.18
421.145	1420.95
421.353	1640.08
421.561	1638.03
421.769	1656.47
421.977	1711.76
422.185	1699.47
422.393	1779.34
422.601	1904.27
422.809	1978
423.017	1877.65
423.224	2025.1
423.432	2094.73
423.64	2137.74
423.848	2317.96
424.056	2246.28
424.263	2403.97
424.471	2410.12
424.679	2508.42
424.887	2666.11
425.094	2528.9
425.302	2623.11
425.51	2725.51
425.718	2932.35
425.925	2872.96
426.133	2967.17
426.341	3280.5
426.548	3270.26
426.756	3370.62
426.964	3384.95
427.171	3577.46
427.379	3583.6
427.586	3796.59
427.794	3819.12
428.001	3845.74
428.209	4126.32
428.417	4159.08
428.624	4460.13
428.832	4400.74
429.039	4466.28
429.247	4339.3
429.454	4679.27
429.662	5008.99
429.869	4847.2
430.076	4986.46
430.284	4826.72
430.491	5457.5
430.699	5426.78
430.906	5432.92
431.114	5650
431.321	5752.4
431.528	5740.12
431.736	6114.89
431.943	6549.06
432.15	6178.38
432.358	6411.85
432.565	6727.24
432.772	6698.56
432.979	7091.77
433.187	7210.56
433.394	7276.09
433.601	7726.64
433.808	7804.47
434.016	7775.8
434.223	7888.43
434.43	8551.98
434.637	8353.32
434.844	8914.47
435.052	8957.47
435.259	8871.46
435.466	9033.25
435.673	8633.89
435.88	9621.02
436.087	10069.52
436.294	9840.15
436.501	9770.52
436.708	10178.06
436.915	10438.16
437.122	10802.69
437.329	10825.22
437.537	11220.48
437.743	11216.38
437.95	11236.86
438.157	11922.93
438.364	12269.04
438.571	12105.2
438.778	12318.19
438.985	13481.44
439.192	12926.44
439.399	13293.02
439.606	13084.13
439.813	13862.36
440.02	14640.59
440.227	14069.2
440.433	14140.88
440.64	14693.83
440.847	14333.39
441.054	14960.07
441.261	16035.25
441.467	15613.37
441.674	16076.21
441.881	16434.61
442.088	16184.76
442.294	16117.17
442.501	16887.21
442.708	17028.52
442.914	17694.11
443.121	18607.5
443.328	17925.53
443.534	19053.96
443.741	18830.73
443.948	18283.92
444.154	19887.48
444.361	19993.98
444.568	19778.94
444.774	19842.43
444.981	19989.88
445.187	20637.04
445.394	21419.36
445.6	21099.88
445.807	23006.54
446.013	22029.66
446.22	22441.3
446.426	23577.92
446.633	24028.48
446.839	24575.28
447.046	23641.41
447.252	25011.5
447.459	24909.1
447.665	24761.65
447.871	25607.46
448.078	26653.97
448.284	25664.8
448.491	26570.01
448.697	27432.2
448.903	27665.67
449.11	27749.64
449.316	27575.56
449.522	28024.06
449.728	28560.63
449.935	28769.52
450.141	28898.55
450.347	29592.81
450.553	28814.58
450.76	29357.29
450.966	30045.41
451.172	29983.97
451.378	30520.54
451.584	29730.02
451.791	30504.15
451.997	30227.68
452.203	30487.77
452.409	31038.67
452.615	30598.36
452.821	29826.28
453.027	29496.55
453.233	31038.67
453.44	29807.84
453.646	30016.74
453.852	30022.88
454.058	30725.33
454.264	29865.19
454.47	30653.65
454.676	29375.72
454.882	30500.06
455.088	27942.14
455.294	28509.43
455.5	28849.39
455.705	29218.03
455.911	27819.27
456.117	27448.58
456.323	27526.41
456.529	25539.88
456.735	26836.24
456.941	25996.57
457.147	25677.09
457.352	24880.43
457.558	24747.31
457.764	24853.81
457.97	24159.55
458.176	23891.26
458.381	23848.25
458.587	22633.81
458.793	22730.06
458.999	21658.98
459.204	23033.16
459.41	22392.15
459.616	21093.74
459.821	21112.17
460.027	20948.33
460.233	20272.5
460.438	19436.93
460.644	19531.14
460.85	18914.7
461.055	18615.69
461.261	18546.06
461.466	17089.96
461.672	16276.91
461.878	17505.7
462.083	16494
462.289	16285.11
462.494	16068.02
462.7	15427.01
462.905	15136.2
463.111	15271.36
463.316	15656.38
463.522	15228.35
463.727	15142.34
463.932	15228.35
464.138	14732.75
464.343	15177.16
464.549	14552.52
464.754	14970.31
464.959	15105.48
465.165	14757.32
465.37	14210.51
465.575	13839.83
465.781	14468.56
465.986	14347.73
466.191	14034.39
466.397	13614.55
466.602	13061.6
466.807	13430.24
467.012	13487.58
467.218	13528.54
467.423	13348.32
467.628	13616.6
