Data from USB4F104151__165__14-19-43-683.txt Node

Date: Thu Mar 13 14:19:43 EDT 2025
User: louis
Spectrometer: USB4F10415
Trigger mode: 4
Integration Time (sec): 2.000000E-2
Scans to average: 1
Electric dark correction enabled: true
Nonlinearity correction enabled: false
Boxcar width: 0
XAxis mode: Wavelengths
Number of Pixels in Spectrum: 3648
>>>>>Begin Spectral Data<<<<<
178.204	-166.57
178.424	-166.57
178.644	-166.57
178.864	-129.7
179.084	-127.66
179.304	-27.31
179.524	-8.87
179.744	-0.68
179.964	44.37
180.184	1.37
180.404	-43.69
180.624	-27.31
180.844	3.41
181.064	46.42
181.283	15.7
181.503	30.04
181.723	-33.45
181.943	-0.68
182.163	48.47
182.383	-15.02
182.602	5.46
182.822	3.41
183.042	7.51
183.262	-17.07
183.482	32.08
183.701	-35.5
183.921	13.65
184.141	3.41
184.361	42.32
184.58	40.28
184.8	56.66
185.02	-0.68
185.239	-15.02
185.459	56.66
185.679	-2.73
185.898	-15.02
186.118	73.04
186.338	93.52
186.557	-6.83
186.777	48.47
186.997	83.28
187.216	-43.69
187.436	15.7
187.655	-21.16
187.875	50.52
188.095	-0.68
188.314	34.13
188.534	114
188.753	56.66
188.973	71
189.192	114
189.412	32.08
189.631	-6.83
189.851	62.8
190.07	48.47
190.29	56.66
190.509	-2.73
190.729	-90.79
190.948	64.85
191.168	124.24
191.387	7.51
191.607	60.76
191.826	11.61
192.045	75.09
192.265	50.52
192.484	7.51
192.704	-39.59
192.923	-27.31
193.142	97.62
193.362	64.85
193.581	114
193.8	32.08
194.02	52.56
194.239	3.41
194.458	25.94
194.678	-6.83
194.897	-0.68
195.116	68.95
195.335	34.13
195.555	23.89
195.774	15.7
195.993	40.28
196.212	-0.68
196.432	3.41
196.651	32.08
196.87	15.7
197.089	75.09
197.308	30.04
197.528	56.66
197.747	32.08
197.966	-21.16
198.185	42.32
198.404	-25.26
198.623	-17.07
198.842	58.71
199.062	-29.35
199.281	73.04
199.5	11.61
199.719	42.32
199.938	109.91
200.157	9.56
200.376	46.42
200.595	71
200.814	60.76
201.033	-33.45
201.252	66.9
201.471	-47.79
201.69	64.85
201.909	50.52
202.128	-45.74
202.347	42.32
202.566	27.99
202.785	-12.97
203.004	-33.45
203.223	36.18
203.442	40.28
203.661	1.37
203.879	13.65
204.098	60.76
204.317	48.47
204.536	25.94
204.755	-8.87
204.974	40.28
205.193	32.08
205.411	138.58
205.63	48.47
205.849	83.28
206.068	-12.97
206.287	23.89
206.505	75.09
206.724	36.18
206.943	66.9
207.162	-39.59
207.381	46.42
207.599	-0.68
207.818	1.37
208.037	-33.45
208.255	34.13
208.474	48.47
208.693	11.61
208.911	66.9
209.13	44.37
209.349	19.8
209.567	56.66
209.786	34.13
210.005	71
210.223	11.61
210.442	15.7
210.661	15.7
210.879	-0.68
211.098	25.94
211.316	-19.11
211.535	138.58
211.753	27.99
211.972	56.66
212.191	52.56
212.409	56.66
212.628	44.37
212.846	-62.12
213.065	44.37
213.283	83.28
213.502	23.89
213.72	25.94
213.938	-37.55
214.157	73.04
214.375	42.32
214.594	44.37
214.812	50.52
215.031	30.04
215.249	9.56
215.467	-17.07
215.686	-25.26
215.904	73.04
216.122	17.75
216.341	71
216.559	99.67
216.778	23.89
216.996	58.71
217.214	25.94
217.432	-19.11
217.651	64.85
217.869	-27.31
218.087	27.99
218.306	-0.68
218.524	32.08
218.742	71
218.96	97.62
219.179	93.52
219.397	89.43
219.615	56.66
219.833	21.85
220.051	-8.87
220.27	52.56
220.488	64.85
220.706	11.61
220.924	42.32
221.142	56.66
221.36	89.43
221.578	62.8
221.796	40.28
222.015	58.71
222.233	44.37
222.451	89.43
222.669	50.52
222.887	56.66
223.105	-23.21
223.323	40.28
223.541	7.51
223.759	25.94
223.977	25.94
224.195	32.08
224.413	9.56
224.631	89.43
224.849	19.8
225.067	58.71
225.285	17.75
225.503	-53.93
225.721	-21.16
225.939	52.56
226.157	89.43
226.375	89.43
226.592	11.61
226.81	15.7
227.028	27.99
227.246	66.9
227.464	-33.45
227.682	-6.83
227.9	40.28
228.117	9.56
228.335	23.89
228.553	48.47
228.771	7.51
228.989	23.89
229.206	36.18
229.424	99.67
229.642	-0.68
229.86	11.61
230.077	44.37
230.295	85.33
230.513	62.8
230.731	-15.02
230.948	87.38
231.166	30.04
231.384	30.04
231.601	40.28
231.819	48.47
232.037	9.56
232.254	-39.59
232.472	56.66
232.689	-49.83
232.907	-8.87
233.125	40.28
233.342	66.9
233.56	3.41
233.777	68.95
233.995	-8.87
234.213	-25.26
234.43	73.04
234.648	66.9
234.865	15.7
235.083	-15.02
235.3	77.14
235.518	54.61
235.735	48.47
235.953	40.28
236.17	-35.5
236.388	52.56
236.605	32.08
236.822	68.95
237.04	13.65
237.257	-17.07
237.475	-8.87
237.692	-0.68
237.909	25.94
238.127	36.18
238.344	99.67
238.562	15.7
238.779	-8.87
238.996	-4.78
239.214	-51.88
239.431	36.18
239.648	48.47
239.865	23.89
240.083	42.32
240.3	-31.4
240.517	-47.79
240.735	48.47
240.952	52.56
241.169	-0.68
241.386	23.89
241.603	9.56
241.821	1.37
242.038	83.28
242.255	23.89
242.472	9.56
242.689	34.13
242.907	23.89
243.124	-35.5
243.341	58.71
243.558	7.51
243.775	-58.03
243.992	-15.02
244.209	-49.83
244.426	75.09
244.643	9.56
244.86	64.85
245.078	77.14
245.295	15.7
245.512	-62.12
245.729	-17.07
245.946	73.04
246.163	1.37
246.38	50.52
246.597	-6.83
246.814	64.85
247.031	23.89
247.248	64.85
247.464	-0.68
247.681	3.41
247.898	15.7
248.115	56.66
248.332	7.51
248.549	64.85
248.766	107.86
248.983	75.09
249.2	3.41
249.417	-53.93
249.633	11.61
249.85	23.89
250.067	-21.16
250.284	3.41
250.501	15.7
250.717	7.51
250.934	93.52
251.151	15.7
251.368	23.89
251.585	1.37
251.801	-15.02
252.018	15.7
252.235	56.66
252.451	19.8
252.668	-27.31
252.885	52.56
253.102	42.32
253.318	3.41
253.535	48.47
253.752	-55.98
253.968	-4.78
254.185	44.37
254.401	-12.97
254.618	32.08
254.835	11.61
255.051	105.81
255.268	56.66
255.484	42.32
255.701	30.04
255.917	9.56
256.134	-0.68
256.351	48.47
256.567	-8.87
256.784	56.66
257	44.37
257.217	32.08
257.433	66.9
257.65	48.47
257.866	36.18
258.082	75.09
258.299	-6.83
258.515	58.71
258.732	40.28
258.948	-21.16
259.165	-17.07
259.381	36.18
259.597	58.71
259.814	-21.16
260.03	25.94
260.246	-12.97
260.463	23.89
260.679	56.66
260.895	25.94
261.112	138.58
261.328	89.43
261.544	-8.87
261.761	36.18
261.977	-62.12
262.193	60.76
262.409	89.43
262.626	89.43
262.842	75.09
263.058	13.65
263.274	1.37
263.49	116.05
263.707	68.95
263.923	3.41
264.139	15.7
264.355	36.18
264.571	7.51
264.787	15.7
265.004	79.19
265.22	27.99
265.436	-6.83
265.652	23.89
265.868	27.99
266.084	52.56
266.3	32.08
266.516	-8.87
266.732	-27.31
266.948	34.13
267.164	58.71
267.38	60.76
267.596	-12.97
267.812	107.86
268.028	40.28
268.244	-25.26
268.46	95.57
268.676	77.14
268.892	42.32
269.108	-55.98
269.324	17.75
269.54	-37.55
269.756	23.89
269.972	-66.22
270.188	50.52
270.403	23.89
270.619	44.37
270.835	36.18
271.051	81.24
271.267	17.75
271.483	89.43
271.698	81.24
271.914	66.9
272.13	44.37
272.346	40.28
272.562	-21.16
272.777	105.81
272.993	-0.68
273.209	54.61
273.425	17.75
273.64	44.37
273.856	32.08
274.072	-17.07
274.287	32.08
274.503	44.37
274.719	23.89
274.934	75.09
275.15	-17.07
275.366	56.66
275.581	52.56
275.797	5.46
276.012	44.37
276.228	-8.87
276.444	15.7
276.659	-8.87
276.875	-31.4
277.09	42.32
277.306	60.76
277.521	116.05
277.737	73.04
277.952	46.42
278.168	38.23
278.383	68.95
278.599	58.71
278.814	9.56
279.03	25.94
279.245	48.47
279.461	81.24
279.676	-12.97
279.892	-62.12
280.107	56.66
280.322	48.47
280.538	56.66
280.753	48.47
280.969	11.61
281.184	9.56
281.399	62.8
281.615	15.7
281.83	3.41
282.045	17.75
282.26	17.75
282.476	44.37
282.691	32.08
282.906	19.8
283.122	66.9
283.337	34.13
283.552	32.08
283.767	-29.35
283.983	77.14
284.198	9.56
284.413	25.94
284.628	1.37
284.843	52.56
285.058	-4.78
285.274	-25.26
285.489	75.09
285.704	66.9
285.919	11.61
286.134	91.48
286.349	56.66
286.564	-64.17
286.779	103.76
286.995	-0.68
287.21	38.23
287.425	56.66
287.64	7.51
287.855	58.71
288.07	42.32
288.285	42.32
288.5	81.24
288.715	-15.02
288.93	-4.78
289.145	111.96
289.36	101.72
289.575	-0.68
289.79	-33.45
290.004	-25.26
290.219	15.7
290.434	-6.83
290.649	44.37
290.864	3.41
291.079	97.62
291.294	27.99
291.509	-0.68
291.724	58.71
291.938	75.09
292.153	-39.59
292.368	7.51
292.583	23.89
292.798	-4.78
293.012	81.24
293.227	-25.26
293.442	56.66
293.657	73.04
293.871	105.81
294.086	-2.73
294.301	62.8
294.516	56.66
294.73	34.13
294.945	-15.02
295.16	17.75
295.374	42.32
295.589	97.62
295.804	7.51
296.018	3.41
296.233	89.43
296.447	32.08
296.662	15.7
296.877	58.71
297.091	64.85
297.306	77.14
297.52	64.85
297.735	32.08
297.949	81.24
298.164	32.08
298.378	89.43
298.593	48.47
298.807	3.41
299.022	56.66
299.236	77.14
299.451	32.08
299.665	32.08
299.88	89.43
300.094	-6.83
300.309	124.24
300.523	64.85
300.737	42.32
300.952	38.23
301.166	32.08
301.381	27.99
301.595	-51.88
301.809	23.89
302.024	-4.78
302.238	-25.26
302.452	60.76
302.667	1.37
302.881	56.66
303.095	54.61
303.309	25.94
303.524	40.28
303.738	48.47
303.952	19.8
304.166	58.71
304.381	-45.74
304.595	111.96
304.809	56.66
305.023	66.9
305.237	52.56
305.452	15.7
305.666	23.89
305.88	48.47
306.094	32.08
306.308	56.66
306.522	40.28
306.736	48.47
306.95	103.76
307.164	48.47
307.379	-55.98
307.593	25.94
307.807	73.04
308.021	83.28
308.235	-0.68
308.449	-17.07
308.663	23.89
308.877	136.53
309.091	36.18
309.305	52.56
309.519	11.61
309.733	23.89
309.947	23.89
310.161	36.18
310.374	15.7
310.588	85.33
310.802	15.7
311.016	-49.83
311.23	77.14
311.444	7.51
311.658	-0.68
311.872	122.2
312.085	93.52
312.299	75.09
312.513	36.18
312.727	34.13
312.941	97.62
313.154	62.8
313.368	-12.97
313.582	34.13
313.796	-31.4
314.009	13.65
314.223	81.24
314.437	27.99
314.651	58.71
314.864	52.56
315.078	36.18
315.292	64.85
315.505	-6.83
315.719	-21.16
315.933	34.13
316.146	32.08
316.36	-4.78
316.573	15.7
316.787	13.65
317.001	1.37
317.214	25.94
317.428	-21.16
317.641	-25.26
317.855	68.95
318.068	15.7
318.282	81.24
318.495	79.19
318.709	9.56
318.922	95.57
319.136	87.38
319.349	81.24
319.563	75.09
319.776	48.47
319.99	73.04
320.203	7.51
320.417	23.89
320.63	-4.78
320.843	105.81
321.057	54.61
321.27	-37.55
321.483	36.18
321.697	23.89
321.91	85.33
322.124	9.56
322.337	42.32
322.55	15.7
322.763	-27.31
322.977	83.28
323.19	83.28
323.403	-15.02
323.617	27.99
323.83	95.57
324.043	42.32
324.256	54.61
324.469	64.85
324.683	81.24
324.896	19.8
325.109	60.76
325.322	-55.98
325.535	11.61
325.748	56.66
325.962	-41.64
326.175	105.81
326.388	34.13
326.601	56.66
326.814	58.71
327.027	75.09
327.24	105.81
327.453	48.47
327.666	77.14
327.879	-62.12
328.092	25.94
328.305	87.38
328.518	81.24
328.731	-0.68
328.944	17.75
329.157	89.43
329.37	118.1
329.583	23.89
329.796	99.67
330.009	25.94
330.222	64.85
330.435	157.01
330.648	13.65
330.861	52.56
331.073	48.47
331.286	13.65
331.499	23.89
331.712	17.75
331.925	107.86
332.138	89.43
332.35	105.81
332.563	56.66
332.776	73.04
332.989	58.71
333.202	68.95
333.414	58.71
333.627	-53.93
333.84	81.24
334.053	23.89
334.265	1.37
334.478	107.86
334.691	7.51
334.903	83.28
335.116	56.66
335.329	83.28
335.541	93.52
335.754	93.52
335.966	-31.4
336.179	17.75
336.392	40.28
336.604	-4.78
336.817	-4.78
337.029	-0.68
337.242	93.52
337.454	116.05
337.667	9.56
337.88	124.24
338.092	-33.45
338.305	91.48
338.517	56.66
338.729	50.52
338.942	97.62
339.154	-41.64
339.367	27.99
339.579	54.61
339.792	44.37
340.004	58.71
340.217	-45.74
340.429	40.28
340.641	-6.83
340.854	34.13
341.066	40.28
341.278	89.43
341.491	132.44
341.703	32.08
341.915	-60.07
342.128	40.28
342.34	30.04
342.552	81.24
342.764	44.37
342.977	122.2
343.189	17.75
343.401	89.43
343.613	56.66
343.826	75.09
344.038	27.99
344.25	-33.45
344.462	32.08
344.674	-6.83
344.886	44.37
345.099	77.14
345.311	30.04
345.523	3.41
345.735	15.7
345.947	44.37
346.159	56.66
346.371	89.43
346.583	56.66
346.795	93.52
347.007	3.41
347.219	130.39
347.431	32.08
347.643	105.81
347.855	36.18
348.067	56.66
348.279	107.86
348.491	-8.87
348.703	77.14
348.915	89.43
349.127	40.28
349.339	11.61
349.551	-4.78
349.763	7.51
349.975	-10.92
350.187	56.66
350.399	42.32
350.61	97.62
350.822	62.8
351.034	103.76
351.246	77.14
351.458	58.71
351.669	77.14
351.881	91.48
352.093	89.43
352.305	101.72
352.517	34.13
352.728	58.71
352.94	79.19
353.152	42.32
353.363	64.85
353.575	34.13
353.787	27.99
353.999	79.19
354.21	85.33
354.422	-8.87
354.633	-8.87
354.845	109.91
355.057	40.28
355.268	64.85
355.48	-17.07
355.692	42.32
355.903	7.51
356.115	15.7
356.326	21.85
356.538	87.38
356.749	68.95
356.961	42.32
357.172	77.14
357.384	13.65
357.595	146.77
357.807	64.85
358.018	-2.73
358.23	-0.68
358.441	58.71
358.653	99.67
358.864	27.99
359.075	97.62
359.287	17.75
359.498	91.48
359.709	27.99
359.921	36.18
360.132	99.67
360.344	107.86
360.555	83.28
360.766	23.89
360.977	62.8
361.189	122.2
361.4	60.76
361.611	83.28
361.823	60.76
362.034	122.2
362.245	36.18
362.456	93.52
362.667	83.28
362.879	34.13
363.09	25.94
363.301	48.47
363.512	-8.87
363.723	15.7
363.935	15.7
364.146	44.37
364.357	19.8
364.568	91.48
364.779	15.7
364.99	107.86
365.201	50.52
365.412	118.1
365.623	17.75
365.834	25.94
366.045	-45.74
366.256	75.09
366.467	36.18
366.678	52.56
366.889	36.18
367.1	81.24
367.311	32.08
367.522	40.28
367.733	25.94
367.944	7.51
368.155	40.28
368.366	-25.26
368.577	81.24
368.788	109.91
368.999	81.24
369.209	83.28
369.42	89.43
369.631	58.71
369.842	-37.55
370.053	27.99
370.264	58.71
370.474	58.71
370.685	3.41
370.896	58.71
371.107	109.91
371.317	66.9
371.528	7.51
371.739	64.85
371.95	48.47
372.16	111.96
372.371	73.04
372.582	71
372.792	81.24
373.003	122.2
373.214	25.94
373.424	77.14
373.635	68.95
373.846	48.47
374.056	27.99
374.267	105.81
374.477	64.85
374.688	116.05
374.898	56.66
375.109	99.67
375.319	56.66
375.53	56.66
375.74	58.71
375.951	54.61
376.161	42.32
376.372	68.95
376.582	32.08
376.793	48.47
377.003	25.94
377.214	116.05
377.424	105.81
377.635	44.37
377.845	54.61
378.055	27.99
378.266	-15.02
378.476	42.32
378.686	46.42
378.897	21.85
379.107	-2.73
379.317	52.56
379.528	42.32
379.738	130.39
379.948	52.56
380.158	93.52
380.369	81.24
380.579	50.52
380.789	71
380.999	42.32
381.21	89.43
381.42	30.04
381.63	7.51
381.84	73.04
382.05	146.77
382.261	169.3
382.471	40.28
382.681	-6.83
382.891	87.38
383.101	52.56
383.311	42.32
383.521	17.75
383.731	40.28
383.941	85.33
384.151	40.28
384.361	56.66
384.571	75.09
384.781	30.04
384.991	40.28
385.201	128.34
385.411	19.8
385.621	93.52
385.831	15.7
386.041	107.86
386.251	-6.83
386.461	95.57
386.671	99.67
386.881	85.33
387.091	38.23
387.301	50.52
387.511	48.47
387.72	85.33
387.93	105.81
388.14	105.81
388.35	97.62
388.56	13.65
388.769	114
388.979	40.28
389.189	11.61
389.399	81.24
389.609	75.09
389.818	116.05
390.028	75.09
390.238	122.2
390.447	48.47
390.657	64.85
390.867	93.52
391.076	122.2
391.286	50.52
391.496	25.94
391.705	19.8
391.915	36.18
392.125	126.29
392.334	64.85
392.544	91.48
392.753	50.52
392.963	85.33
393.172	25.94
393.382	66.9
393.591	130.39
393.801	150.87
394.01	99.67
394.22	52.56
394.429	89.43
394.639	126.29
394.848	66.9
395.058	157.01
395.267	105.81
395.477	42.32
395.686	122.2
395.895	60.76
396.105	175.44
396.314	81.24
396.524	48.47
396.733	56.66
396.942	109.91
397.152	101.72
397.361	130.39
397.57	68.95
397.78	150.87
397.989	114
398.198	146.77
398.407	99.67
398.617	83.28
398.826	85.33
399.035	40.28
399.244	91.48
399.453	124.24
399.663	114
399.872	124.24
400.081	130.39
400.29	157.01
400.499	99.67
400.708	152.91
400.917	157.01
401.127	175.44
401.336	175.44
401.545	146.77
401.754	187.73
401.963	195.92
402.172	118.1
402.381	118.1
402.59	189.78
402.799	132.44
403.008	175.44
403.217	142.68
403.426	187.73
403.635	101.72
403.844	173.39
404.053	154.96
404.262	220.5
404.471	220.5
404.68	224.59
404.888	189.78
405.097	173.39
405.306	154.96
405.515	212.31
405.724	220.5
405.933	169.3
406.142	163.15
406.35	185.68
406.559	232.79
406.768	157.01
406.977	318.8
407.185	281.94
407.394	294.22
407.603	214.35
407.812	279.89
408.02	302.42
408.229	277.84
408.438	277.84
408.646	310.61
408.855	296.27
409.064	337.23
409.272	339.28
409.481	406.86
409.69	370
409.898	357.71
410.107	425.29
410.315	419.15
410.524	408.91
410.733	523.6
410.941	449.87
411.15	486.73
411.358	499.02
411.567	499.02
411.775	542.03
411.984	550.22
412.192	523.6
412.401	566.6
412.609	605.52
412.818	591.18
413.026	699.72
413.234	648.52
413.443	777.55
413.651	695.63
413.86	695.63
414.068	795.98
414.276	709.96
414.485	877.9
414.693	908.62
414.901	918.86
415.11	908.62
415.318	939.33
415.526	845.13
415.734	986.44
415.943	1029.45
416.151	1088.84
416.359	1033.54
416.567	1187.14
416.776	1172.8
416.984	1314.11
417.192	1316.16
417.4	1230.15
417.608	1277.25
417.817	1350.98
418.025	1469.76
418.233	1471.81
418.441	1494.33
418.649	1559.87
418.857	1639.74
419.065	1656.12
419.273	1660.22
419.481	1727.8
419.689	1899.83
419.897	1975.61
420.105	1989.94
420.313	2024.76
420.521	2243.89
420.729	2065.72
420.937	2268.47
421.145	2159.92
421.353	2434.35
421.561	2477.36
421.769	2528.56
421.977	2587.95
422.185	2512.17
422.393	2866.47
422.601	2995.5
422.809	3018.02
423.017	2936.1
423.224	3024.17
423.432	3347.75
423.64	3130.66
423.848	3611.93
424.056	3439.9
424.263	3599.65
424.471	3591.45
424.679	3859.74
424.887	4060.44
425.094	4044.06
425.302	4207.89
425.51	4113.69
425.718	4427.03
425.925	4488.46
426.133	4537.62
426.341	4824.33
426.548	5192.97
426.756	5094.66
426.964	5049.61
427.171	5481.73
427.379	5709.05
427.586	5745.92
427.794	5874.94
428.001	6020.35
428.209	6319.35
428.417	6241.53
428.624	6642.93
428.832	6634.74
429.039	6814.96
429.247	6692.08
429.454	7339.24
429.662	7759.07
429.869	7308.52
430.076	7732.45
430.284	7619.81
430.491	7806.17
430.699	8441.04
430.906	8281.3
431.114	8494.29
431.321	8762.58
431.528	8916.17
431.736	9452.74
431.943	9946.3
432.15	9659.59
432.358	9673.92
432.565	10288.31
432.772	10265.78
432.979	10822.83
433.187	10921.13
433.394	10892.46
433.601	11754.66
433.808	11861.15
434.016	11744.42
434.223	12154.01
434.43	12876.94
434.637	12579.99
434.844	13274.25
435.052	13773.96
435.259	13481.1
435.466	13614.21
435.673	13608.07
435.88	14441.59
436.087	15383.66
436.294	14951.54
436.501	14869.62
436.708	14986.35
436.915	15719.53
437.122	16276.57
437.329	16102.5
437.537	16948.31
437.743	17095.76
437.95	17048.66
438.157	17783.88
438.364	18445.37
438.571	18435.13
438.778	18517.05
438.985	20444.19
439.192	19266.61
439.399	19907.62
439.606	19719.21
439.813	20861.98
440.02	21926.92
440.227	21521.42
440.433	21230.61
440.64	21980.17
440.847	21928.97
441.054	22610.94
441.261	23727.08
441.467	23462.9
441.674	23823.34
441.881	25050.07
442.088	24798.17
442.294	24552.41
442.501	25093.08
442.708	25443.28
442.914	26485.7
443.121	27550.64
443.328	27255.73
443.534	28973.98
443.741	28005.29
443.948	27974.57
444.154	29707.15
444.361	29442.96
444.568	29971.34
444.774	29995.92
444.981	29909.9
445.187	30966.65
445.394	32502.63
445.6	31554.42
445.807	34966.34
446.013	33256.28
446.22	34171.72
446.426	35046.21
446.633	35167.04
446.839	36682.53
447.046	35083.07
447.252	36866.85
447.459	36819.75
447.665	36967.2
447.871	38777.61
448.078	40037.11
448.284	38400.78
448.491	39193.34
448.697	40798.95
448.903	41108.19
449.11	41915.09
449.316	40866.53
449.522	41560.8
449.728	42640.07
449.935	42957.51
450.141	42848.97
450.347	43870.9
450.553	42382.03
450.76	43313.86
450.966	44642.99
451.172	43932.34
451.378	45028.01
451.584	43975.35
451.791	45447.84
451.997	45077.16
452.203	45869.72
452.409	45869.72
452.615	45572.77
452.821	44182.2
453.027	43903.67
453.233	45583.01
453.44	44438.19
453.646	44833.45
453.852	45073.06
454.058	45820.57
454.264	43578.04
454.47	45091.49
454.676	43831.99
454.882	45376.16
455.088	41487.07
455.294	42369.74
455.5	42670.79
455.705	43246.27
455.911	41771.74
456.117	40809.19
456.323	40164.08
456.529	37894.93
456.735	40004.34
456.941	39142.14
457.147	38417.16
457.352	37344.03
457.558	36610.85
457.764	36770.6
457.97	35980.08
458.176	35849.01
458.381	35504.95
458.587	33651.54
458.793	33833.81
458.999	31873.9
459.204	34560.84
459.41	33317.72
459.616	31218.55
459.821	31294.33
460.027	30788.48
460.233	30124.94
460.438	28873.63
460.644	29176.73
460.85	27796.4
461.055	27612.08
461.261	27384.76
461.466	25471.95
461.672	24699.87
461.878	26575.81
462.083	24959.96
462.289	24581.09
462.494	23841.77
462.7	22957.05
462.905	22133.76
463.111	22889.46
463.316	23110.64
463.522	22443.01
463.727	22402.05
463.932	22477.82
464.138	22363.14
464.343	22551.55
464.549	21767.18
464.754	22574.08
464.959	22236.16
465.165	21879.82
465.37	21290
465.575	20761.62
465.781	21449.74
465.986	21705.74
466.191	20769.82
466.397	20298.78
466.602	19543.08
466.807	20237.34
467.012	19911.72
467.218	20024.36
467.423	19840.04
