Data from USB4F104151__61__14-17-11-058.txt Node

Date: Thu Mar 13 14:17:11 EDT 2025
User: louis
Spectrometer: USB4F10415
Trigger mode: 4
Integration Time (sec): 2.000000E-2
Scans to average: 1
Electric dark correction enabled: true
Nonlinearity correction enabled: false
Boxcar width: 0
XAxis mode: Wavelengths
Number of Pixels in Spectrum: 3648
>>>>>Begin Spectral Data<<<<<
178.204	-139.77
178.424	-139.77
178.644	-139.77
178.864	-104.96
179.084	-80.38
179.304	48.64
179.524	-53.76
179.744	-39.42
179.964	42.5
180.184	38.4
180.404	44.54
180.624	-33.28
180.844	-31.23
181.064	-27.14
181.283	-33.28
181.503	48.64
181.723	-4.61
181.943	-90.62
182.163	5.63
182.383	-43.52
182.602	52.74
182.822	-47.62
183.042	69.12
183.262	38.4
183.482	73.21
183.701	-31.23
183.921	24.06
184.141	112.13
184.361	46.59
184.58	26.11
184.8	24.06
185.02	87.55
185.239	36.35
185.459	9.73
185.679	79.36
185.898	30.21
186.118	34.3
186.338	3.58
186.557	101.89
186.777	15.87
186.997	17.92
187.216	48.64
187.436	81.41
187.655	-16.9
187.875	40.45
188.095	-0.51
188.314	99.84
188.534	36.35
188.753	-4.61
188.973	122.37
189.192	93.69
189.412	28.16
189.631	52.74
189.851	7.68
190.07	122.37
190.29	69.12
190.509	73.21
190.729	54.78
190.948	15.87
191.168	95.74
191.387	75.26
191.607	9.73
191.826	105.98
192.045	7.68
192.265	5.63
192.484	19.97
192.704	24.06
192.923	36.35
193.142	189.95
193.362	-16.9
193.581	87.55
193.8	-4.61
194.02	34.3
194.239	34.3
194.458	40.45
194.678	32.26
194.897	42.5
195.116	40.45
195.335	105.98
195.555	42.5
195.774	24.06
195.993	24.06
196.212	-4.61
196.432	9.73
196.651	-10.75
196.87	67.07
197.089	60.93
197.308	30.21
197.528	36.35
197.747	-12.8
197.966	-27.14
198.185	19.97
198.404	50.69
198.623	79.36
198.842	7.68
199.062	124.41
199.281	69.12
199.5	-10.75
199.719	124.41
199.938	32.26
200.157	73.21
200.376	15.87
200.595	62.98
200.814	81.41
201.033	54.78
201.252	85.5
201.471	1.54
201.69	81.41
201.909	71.17
202.128	77.31
202.347	48.64
202.566	22.02
202.785	50.69
203.004	-23.04
203.223	60.93
203.442	15.87
203.661	67.07
203.879	81.41
204.098	69.12
204.317	-45.57
204.536	105.98
204.755	-4.61
204.974	-55.81
205.193	-20.99
205.411	112.13
205.63	65.02
205.849	-4.61
206.068	46.59
206.287	40.45
206.505	28.16
206.724	36.35
206.943	32.26
207.162	42.5
207.381	38.4
207.599	46.59
207.818	11.78
208.037	58.88
208.255	19.97
208.474	11.78
208.693	52.74
208.911	34.3
209.13	-10.75
209.349	-31.23
209.567	91.65
209.786	146.94
210.005	124.41
210.223	81.41
210.442	34.3
210.661	108.03
210.879	17.92
211.098	32.26
211.316	26.11
211.535	69.12
211.753	26.11
211.972	54.78
212.191	32.26
212.409	130.56
212.628	32.26
212.846	7.68
213.065	110.08
213.283	58.88
213.502	54.78
213.72	48.64
213.938	32.26
214.157	73.21
214.375	50.69
214.594	-16.9
214.812	77.31
215.031	60.93
215.249	28.16
215.467	52.74
215.686	38.4
215.904	81.41
216.122	9.73
216.341	34.3
216.559	52.74
216.778	48.64
216.996	97.79
217.214	48.64
217.432	-16.9
217.651	65.02
217.869	56.83
218.087	52.74
218.306	38.4
218.524	138.75
218.742	110.08
218.96	24.06
219.179	56.83
219.397	28.16
219.615	67.07
219.833	36.35
220.051	24.06
220.27	83.45
220.488	24.06
220.706	15.87
220.924	11.78
221.142	28.16
221.36	11.78
221.578	54.78
221.796	97.79
222.015	83.45
222.233	58.88
222.451	28.16
222.669	15.87
222.887	97.79
223.105	9.73
223.323	42.5
223.541	40.45
223.759	9.73
223.977	-23.04
224.195	60.93
224.413	40.45
224.631	122.37
224.849	15.87
225.067	19.97
225.285	48.64
225.503	67.07
225.721	32.26
225.939	-2.56
226.157	-8.7
226.375	83.45
226.592	17.92
226.81	62.98
227.028	46.59
227.246	77.31
227.464	-18.94
227.682	60.93
227.9	38.4
228.117	36.35
228.335	58.88
228.553	-8.7
228.771	56.83
228.989	52.74
229.206	65.02
229.424	42.5
229.642	-0.51
229.86	-2.56
230.077	83.45
230.295	58.88
230.513	89.6
230.731	73.21
230.948	15.87
231.166	81.41
231.384	-0.51
231.601	-0.51
231.819	67.07
232.037	60.93
232.254	7.68
232.472	42.5
232.689	48.64
232.907	34.3
233.125	54.78
233.342	-10.75
233.56	65.02
233.777	30.21
233.995	85.5
234.213	116.22
234.43	36.35
234.648	-27.14
234.865	65.02
235.083	101.89
235.3	32.26
235.518	101.89
235.735	112.13
235.953	118.27
236.17	116.22
236.388	15.87
236.605	22.02
236.822	110.08
237.04	60.93
237.257	-23.04
237.475	1.54
237.692	15.87
237.909	73.21
238.127	67.07
238.344	-0.51
238.562	40.45
238.779	30.21
238.996	60.93
239.214	9.73
239.431	79.36
239.648	26.11
239.865	40.45
240.083	60.93
240.3	-4.61
240.517	-33.28
240.735	67.07
240.952	26.11
241.169	112.13
241.386	91.65
241.603	7.68
241.821	-4.61
242.038	52.74
242.255	56.83
242.472	5.63
242.689	67.07
242.907	38.4
243.124	99.84
243.341	52.74
243.558	26.11
243.775	83.45
243.992	-45.57
244.209	60.93
244.426	56.83
244.643	44.54
244.86	73.21
245.078	-14.85
245.295	46.59
245.512	73.21
245.729	34.3
245.946	19.97
246.163	-20.99
246.38	-37.38
246.597	7.68
246.814	40.45
247.031	71.17
247.248	77.31
247.464	11.78
247.681	34.3
247.898	60.93
248.115	7.68
248.332	77.31
248.549	7.68
248.766	122.37
248.983	69.12
249.2	85.5
249.417	67.07
249.633	32.26
249.85	54.78
250.067	28.16
250.284	56.83
250.501	26.11
250.717	62.98
250.934	-0.51
251.151	75.26
251.368	34.3
251.585	26.11
251.801	7.68
252.018	24.06
252.235	40.45
252.451	-29.18
252.668	-16.9
252.885	54.78
253.102	26.11
253.318	32.26
253.535	-31.23
253.752	73.21
253.968	65.02
254.185	34.3
254.401	101.89
254.618	65.02
254.835	-4.61
255.051	48.64
255.268	85.5
255.484	-10.75
255.701	91.65
255.917	30.21
256.134	28.16
256.351	67.07
256.567	-55.81
256.784	-10.75
257	-20.99
257.217	79.36
257.433	97.79
257.65	46.59
257.866	60.93
258.082	32.26
258.299	-14.85
258.515	56.83
258.732	15.87
258.948	-6.66
259.165	67.07
259.381	15.87
259.597	36.35
259.814	73.21
260.03	34.3
260.246	65.02
260.463	36.35
260.679	97.79
260.895	9.73
261.112	42.5
261.328	40.45
261.544	15.87
261.761	58.88
261.977	32.26
262.193	120.32
262.409	44.54
262.626	32.26
262.842	40.45
263.058	44.54
263.274	56.83
263.49	40.45
263.707	81.41
263.923	81.41
264.139	3.58
264.355	26.11
264.571	93.69
264.787	69.12
265.004	65.02
265.22	58.88
265.436	73.21
265.652	26.11
265.868	110.08
266.084	17.92
266.3	73.21
266.516	40.45
266.732	58.88
266.948	24.06
267.164	-20.99
267.38	81.41
267.596	32.26
267.812	71.17
268.028	52.74
268.244	-4.61
268.46	42.5
268.676	85.5
268.892	73.21
269.108	40.45
269.324	7.68
269.54	30.21
269.756	69.12
269.972	34.3
270.188	42.5
270.403	-6.66
270.619	42.5
270.835	95.74
271.051	24.06
271.267	36.35
271.483	85.5
271.698	67.07
271.914	89.6
272.13	-0.51
272.346	54.78
272.562	40.45
272.777	126.46
272.993	26.11
273.209	50.69
273.425	101.89
273.64	3.58
273.856	65.02
274.072	34.3
274.287	34.3
274.503	69.12
274.719	28.16
274.934	40.45
275.15	75.26
275.366	81.41
275.581	24.06
275.797	9.73
276.012	60.93
276.228	-12.8
276.444	52.74
276.659	101.89
276.875	60.93
277.09	26.11
277.306	48.64
277.521	56.83
277.737	-16.9
277.952	36.35
278.168	42.5
278.383	91.65
278.599	-0.51
278.814	19.97
279.03	54.78
279.245	83.45
279.461	34.3
279.676	97.79
279.892	52.74
280.107	15.87
280.322	7.68
280.538	83.45
280.753	28.16
280.969	42.5
281.184	36.35
281.399	69.12
281.615	15.87
281.83	65.02
282.045	19.97
282.26	24.06
282.476	15.87
282.691	7.68
282.906	58.88
283.122	36.35
283.337	32.26
283.552	118.27
283.767	-25.09
283.983	83.45
284.198	7.68
284.413	60.93
284.628	-14.85
284.843	26.11
285.058	24.06
285.274	17.92
285.489	28.16
285.704	58.88
285.919	48.64
286.134	1.54
286.349	15.87
286.564	24.06
286.779	69.12
286.995	56.83
287.21	40.45
287.425	7.68
287.64	48.64
287.855	65.02
288.07	15.87
288.285	105.98
288.5	91.65
288.715	-33.28
288.93	40.45
289.145	-45.57
289.36	34.3
289.575	24.06
289.79	26.11
290.004	50.69
290.219	81.41
290.434	-14.85
290.649	-12.8
290.864	34.3
291.079	11.78
291.294	69.12
291.509	81.41
291.724	83.45
291.938	30.21
292.153	26.11
292.368	54.78
292.583	26.11
292.798	15.87
293.012	-20.99
293.227	67.07
293.442	-29.18
293.657	95.74
293.871	65.02
294.086	73.21
294.301	73.21
294.516	56.83
294.73	62.98
294.945	-14.85
295.16	38.4
295.374	65.02
295.589	-2.56
295.804	81.41
296.018	73.21
296.233	157.18
296.447	46.59
296.662	56.83
296.877	11.78
297.091	-10.75
297.306	1.54
297.52	24.06
297.735	24.06
297.949	1.54
298.164	40.45
298.378	71.17
298.593	60.93
298.807	1.54
299.022	105.98
299.236	15.87
299.451	56.83
299.665	108.03
299.88	83.45
300.094	62.98
300.309	-49.66
300.523	69.12
300.737	40.45
300.952	83.45
301.166	-25.09
301.381	24.06
301.595	81.41
301.809	62.98
302.024	105.98
302.238	50.69
302.452	110.08
302.667	7.68
302.881	105.98
303.095	75.26
303.309	-0.51
303.524	-45.57
303.738	56.83
303.952	32.26
304.166	40.45
304.381	-8.7
304.595	103.93
304.809	77.31
305.023	15.87
305.237	17.92
305.452	48.64
305.666	60.93
305.88	15.87
306.094	138.75
306.308	73.21
306.522	93.69
306.736	124.41
306.95	46.59
307.164	69.12
307.379	48.64
307.593	140.8
307.807	65.02
308.021	36.35
308.235	52.74
308.449	105.98
308.663	40.45
308.877	15.87
309.091	7.68
309.305	65.02
309.519	-14.85
309.733	146.94
309.947	52.74
310.161	11.78
310.374	48.64
310.588	83.45
310.802	1.54
311.016	15.87
311.23	48.64
311.444	-8.7
311.658	17.92
311.872	44.54
312.085	124.41
312.299	-41.47
312.513	26.11
312.727	58.88
312.941	48.64
313.154	83.45
313.368	52.74
313.582	134.65
313.796	44.54
314.009	40.45
314.223	40.45
314.437	44.54
314.651	22.02
314.864	118.27
315.078	73.21
315.292	40.45
315.505	-4.61
315.719	48.64
315.933	91.65
316.146	65.02
316.36	17.92
316.573	81.41
316.787	132.61
317.001	7.68
317.214	15.87
317.428	32.26
317.641	44.54
317.855	116.22
318.068	83.45
318.282	75.26
318.495	30.21
318.709	56.83
318.922	30.21
319.136	101.89
319.349	112.13
319.563	101.89
319.776	7.68
319.99	22.02
320.203	87.55
320.417	97.79
320.63	79.36
320.843	138.75
321.057	97.79
321.27	42.5
321.483	-0.51
321.697	105.98
321.91	99.84
322.124	-6.66
322.337	17.92
322.55	36.35
322.763	3.58
322.977	48.64
323.19	-25.09
323.403	40.45
323.617	65.02
323.83	85.5
324.043	34.3
324.256	36.35
324.469	13.82
324.683	36.35
324.896	48.64
325.109	93.69
325.322	7.68
325.535	24.06
325.748	65.02
325.962	-20.99
326.175	118.27
326.388	85.5
326.601	52.74
326.814	77.31
327.027	-33.28
327.24	36.35
327.453	-49.66
327.666	38.4
327.879	17.92
328.092	11.78
328.305	58.88
328.518	15.87
328.731	-8.7
328.944	11.78
329.157	-10.75
329.37	-57.86
329.583	120.32
329.796	52.74
330.009	34.3
330.222	81.41
330.435	28.16
330.648	40.45
330.861	13.82
331.073	97.79
331.286	75.26
331.499	54.78
331.712	30.21
331.925	67.07
332.138	85.5
332.35	110.08
332.563	11.78
332.776	93.69
332.989	-39.42
333.202	-0.51
333.414	-25.09
333.627	26.11
333.84	42.5
334.053	9.73
334.265	28.16
334.478	75.26
334.691	11.78
334.903	-12.8
335.116	32.26
335.329	48.64
335.541	114.17
335.754	73.21
335.966	67.07
336.179	67.07
336.392	17.92
336.604	-16.9
336.817	134.65
337.029	38.4
337.242	60.93
337.454	48.64
337.667	81.41
337.88	130.56
338.092	58.88
338.305	146.94
338.517	26.11
338.729	11.78
338.942	138.75
339.154	26.11
339.367	40.45
339.579	71.17
339.792	22.02
340.004	122.37
340.217	56.83
340.429	54.78
340.641	87.55
340.854	52.74
341.066	46.59
341.278	116.22
341.491	118.27
341.703	97.79
341.915	26.11
342.128	81.41
342.34	58.88
342.552	56.83
342.764	48.64
342.977	60.93
343.189	52.74
343.401	108.03
343.613	87.55
343.826	7.68
344.038	38.4
344.25	62.98
344.462	77.31
344.674	99.84
344.886	77.31
345.099	103.93
345.311	58.88
345.523	83.45
345.735	-2.56
345.947	103.93
346.159	58.88
346.371	65.02
346.583	-0.51
346.795	95.74
347.007	5.63
347.219	15.87
347.431	65.02
347.643	38.4
347.855	28.16
348.067	187.9
348.279	54.78
348.491	56.83
348.703	42.5
348.915	118.27
349.127	-14.85
349.339	97.79
349.551	77.31
349.763	83.45
349.975	28.16
350.187	73.21
350.399	99.84
350.61	52.74
350.822	28.16
351.034	85.5
351.246	120.32
351.458	65.02
351.669	-10.75
351.881	75.26
352.093	97.79
352.305	42.5
352.517	52.74
352.728	81.41
352.94	75.26
353.152	56.83
353.363	22.02
353.575	32.26
353.787	11.78
353.999	110.08
354.21	79.36
354.422	56.83
354.633	58.88
354.845	24.06
355.057	81.41
355.268	42.5
355.48	97.79
355.692	93.69
355.903	105.98
356.115	42.5
356.326	7.68
356.538	75.26
356.749	67.07
356.961	144.89
357.172	52.74
357.384	60.93
357.595	3.58
357.807	81.41
358.018	-20.99
358.23	75.26
358.441	159.23
358.653	95.74
358.864	40.45
359.075	79.36
359.287	99.84
359.498	116.22
359.709	97.79
359.921	58.88
360.132	28.16
360.344	46.59
360.555	56.83
360.766	77.31
360.977	-59.9
361.189	140.8
361.4	15.87
361.611	-51.71
361.823	32.26
362.034	138.75
362.245	24.06
362.456	34.3
362.667	163.33
362.879	38.4
363.09	52.74
363.301	128.51
363.512	-16.9
363.723	34.3
363.935	73.21
364.146	38.4
364.357	3.58
364.568	75.26
364.779	44.54
364.99	91.65
365.201	52.74
365.412	75.26
365.623	34.3
365.834	60.93
366.045	83.45
366.256	79.36
366.467	15.87
366.678	97.79
366.889	56.83
367.1	32.26
367.311	40.45
367.522	87.55
367.733	97.79
367.944	124.41
368.155	97.79
368.366	71.17
368.577	101.89
368.788	52.74
368.999	54.78
369.209	42.5
369.42	83.45
369.631	169.47
369.842	75.26
370.053	-0.51
370.264	99.84
370.474	62.98
370.685	56.83
370.896	89.6
371.107	32.26
371.317	97.79
371.528	46.59
371.739	120.32
371.95	75.26
372.16	116.22
372.371	-8.7
372.582	75.26
372.792	65.02
373.003	101.89
373.214	67.07
373.424	7.68
373.635	26.11
373.846	9.73
374.056	77.31
374.267	42.5
374.477	36.35
374.688	26.11
374.898	50.69
375.109	67.07
375.319	69.12
375.53	75.26
375.74	97.79
375.951	58.88
376.161	73.21
376.372	75.26
376.582	9.73
376.793	116.22
377.003	65.02
377.214	7.68
377.424	1.54
377.635	48.64
377.845	71.17
378.055	187.9
378.266	11.78
378.476	81.41
378.686	9.73
378.897	36.35
379.107	81.41
379.317	56.83
379.528	95.74
379.738	44.54
379.948	19.97
380.158	65.02
380.369	108.03
380.579	120.32
380.789	67.07
380.999	69.12
381.21	52.74
381.42	97.79
381.63	99.84
381.84	56.83
382.05	83.45
382.261	151.04
382.471	110.08
382.681	75.26
382.891	171.52
383.101	89.6
383.311	32.26
383.521	89.6
383.731	81.41
383.941	52.74
384.151	48.64
384.361	99.84
384.571	73.21
384.781	24.06
384.991	11.78
385.201	144.89
385.411	128.51
385.621	75.26
385.831	40.45
386.041	85.5
386.251	65.02
386.461	40.45
386.671	65.02
386.881	34.3
387.091	-61.95
387.301	101.89
387.511	138.75
387.72	116.22
387.93	116.22
388.14	65.02
388.35	30.21
388.56	52.74
388.769	151.04
388.979	73.21
389.189	65.02
389.399	99.84
389.609	17.92
389.818	114.17
390.028	85.5
390.238	73.21
390.447	48.64
390.657	56.83
390.867	99.84
391.076	83.45
391.286	50.69
391.496	105.98
391.705	124.41
391.915	56.83
392.125	112.13
392.334	89.6
392.544	56.83
392.753	116.22
392.963	24.06
393.172	112.13
393.382	60.93
393.591	108.03
393.801	48.64
394.01	138.75
394.22	42.5
394.429	56.83
394.639	73.21
394.848	67.07
395.058	79.36
395.267	134.65
395.477	122.37
395.686	122.37
395.895	132.61
396.105	198.14
396.314	48.64
396.524	34.3
396.733	85.5
396.942	157.18
397.152	114.17
397.361	155.13
397.57	50.69
397.78	56.83
397.989	81.41
398.198	134.65
398.407	181.76
398.617	151.04
398.826	93.69
399.035	85.5
399.244	118.27
399.453	99.84
399.663	77.31
399.872	148.99
400.081	161.28
400.29	118.27
400.499	157.18
400.708	48.64
400.917	120.32
401.127	134.65
401.336	108.03
401.545	192
401.754	146.94
401.963	181.76
402.172	163.33
402.381	89.6
402.59	118.27
402.799	97.79
403.008	140.8
403.217	120.32
403.426	122.37
403.635	73.21
403.844	216.57
404.053	122.37
404.262	126.46
404.471	183.81
404.68	132.61
404.888	148.99
405.097	116.22
405.306	155.13
405.515	163.33
405.724	196.09
405.933	167.42
406.142	181.76
406.35	148.99
406.559	261.63
406.768	134.65
406.977	200.19
407.185	237.05
407.394	224.76
407.603	230.91
407.812	247.29
408.02	267.77
408.229	296.44
408.438	296.44
408.646	200.19
408.855	179.71
409.064	253.44
409.272	247.29
409.481	310.78
409.69	310.78
409.898	263.68
410.107	286.2
410.315	355.83
410.524	237.05
410.733	290.3
410.941	343.55
411.15	415.23
411.358	398.84
411.567	378.36
411.775	394.75
411.984	493.05
412.192	433.66
412.401	323.07
412.609	476.66
412.818	542.2
413.026	542.2
413.234	531.96
413.443	470.52
413.651	564.73
413.86	511.48
414.068	630.26
414.276	679.41
414.485	607.73
414.693	636.41
414.901	740.85
415.11	736.76
415.318	679.41
415.526	714.23
415.734	761.33
415.943	851.44
416.151	806.39
416.359	878.07
416.567	847.35
416.776	966.13
416.984	947.7
417.192	1013.23
417.4	1031.66
417.608	984.56
417.817	1007.09
418.025	972.27
418.233	1152.49
418.441	1136.11
418.649	1232.37
418.857	1185.26
419.065	1205.74
419.273	1279.47
419.481	1310.19
419.689	1463.79
419.897	1390.06
420.105	1525.22
420.313	1613.29
420.521	1646.05
420.729	1689.06
420.937	1648.1
421.145	1736.17
421.353	1842.66
421.561	1850.85
421.769	1902.05
421.977	2010.59
422.185	2063.84
422.393	2129.38
422.601	2219.49
422.809	2254.3
423.017	2244.06
423.224	2311.64
423.432	2397.66
423.64	2387.42
423.848	2649.56
424.056	2598.36
424.263	2770.39
424.471	2739.67
424.679	2923.99
424.887	2889.17
425.094	3112.4
425.302	3202.51
425.51	3204.56
425.718	3415.5
425.925	3417.55
426.133	3466.7
426.341	3653.06
426.548	3825.09
426.756	3876.29
426.964	3890.63
427.171	4158.91
427.379	4193.73
427.586	4324.8
427.794	4345.28
428.001	4701.62
428.209	4791.73
428.417	4754.87
428.624	5084.59
428.832	5010.87
429.039	5189.04
429.247	5014.96
429.454	5541.29
429.662	5864.87
429.869	5383.6
430.076	5883.3
430.284	5766.57
430.491	6061.48
430.699	6442.4
430.906	6368.67
431.114	6475.17
431.321	6651.29
431.528	6919.57
431.736	7234.96
431.943	7499.15
432.15	7327.12
432.358	7355.79
432.565	7906.7
432.772	7781.77
432.979	8240.51
433.187	8273.28
433.394	8430.98
433.601	8879.48
433.808	9035.13
434.016	9026.93
434.223	9207.16
434.43	9667.95
434.637	9612.65
434.844	10245.48
435.052	10485.09
435.259	10515.81
435.466	10362.21
435.673	10485.09
435.88	11103.57
436.087	11572.56
436.294	11650.38
436.501	11418.96
436.708	11386.19
436.915	11779.4
437.122	12467.52
437.329	12311.88
437.537	12821.82
437.743	13145.4
437.95	12913.98
438.157	13690.16
438.364	13933.87
438.571	14079.27
438.778	13985.07
438.985	15351.06
439.192	14689.57
439.399	15465.75
439.606	14910.75
439.813	15818
440.02	17011.96
440.227	16477.44
440.433	16405.77
440.64	16811.26
440.847	16645.38
441.054	17089.79
441.261	18001.13
441.467	17730.8
441.674	18244.84
441.881	19045.6
442.088	18830.56
442.294	18754.79
442.501	19449.05
442.708	19604.69
442.914	20219.08
443.121	21165.25
443.328	20677.83
443.534	22260.91
443.741	21208.25
443.948	21261.5
444.154	22863.01
444.361	22590.63
444.568	22953.12
444.774	22754.47
444.981	23147.68
445.187	23403.67
445.394	24659.08
445.6	24622.22
445.807	26666.09
446.013	25724.02
446.22	26063.99
446.426	27096.16
446.633	27464.8
446.839	28150.87
447.046	26819.69
447.252	28511.31
447.459	28218.45
447.665	28408.91
447.871	29817.91
448.078	30684.2
448.284	29316.16
448.491	30037.05
448.697	31593.5
448.903	31683.61
449.11	32398.35
449.316	31900.7
449.522	32236.56
449.728	32848.91
449.935	33217.54
450.141	33307.65
450.347	34221.05
450.553	32855.05
450.76	33762.3
450.966	34606.06
451.172	34067.45
451.378	34927.6
451.584	34266.1
451.791	34802.67
451.997	34999.27
452.203	35726.3
452.409	35498.98
452.615	35679.2
452.821	33958.91
453.027	33924.09
453.233	35523.55
453.44	33989.63
453.646	34612.21
453.852	34679.79
454.058	34905.07
454.264	34083.83
454.47	35632.1
454.676	34116.6
454.882	35347.43
455.088	32093.21
455.294	32437.27
455.5	33399.81
455.705	33907.71
455.911	32336.91
456.117	32031.77
456.323	30997.54
456.529	29301.82
456.735	30942.25
456.941	29967.41
457.147	29848.63
457.352	29201.47
457.558	28636.24
457.764	28542.03
457.97	28130.39
458.176	27442.27
458.381	27495.52
458.587	26145.91
458.793	25836.66
458.999	24919.17
459.204	26731.62
459.41	26115.19
459.616	24142.99
459.821	24253.58
460.027	23991.44
460.233	23424.15
460.438	22340.78
460.644	22781.09
460.85	21726.39
461.055	21054.65
461.261	21550.26
461.466	19688.66
461.672	19145.95
461.878	20417.74
462.083	18988.25
462.289	18744.55
462.494	18605.28
462.7	17900.78
462.905	17366.26
463.111	17534.2
463.316	17982.7
463.522	17655.03
463.727	17706.23
463.932	17661.17
464.138	17272.06
464.343	17702.13
464.549	16887.04
464.754	17560.82
464.959	17560.82
465.165	17116.41
465.37	16252.17
465.575	15979.79
465.781	16651.52
465.986	16829.7
466.191	16282.89
466.397	16104.71
466.602	15052.06
466.807	15486.23
467.012	15752.46
467.218	15680.78
467.423	15203.61
