Data from USB4F104151__216__14-21-13-871.txt Node

Date: Thu Mar 13 14:21:13 EDT 2025
User: louis
Spectrometer: USB4F10415
Trigger mode: 4
Integration Time (sec): 2.000000E-2
Scans to average: 1
Electric dark correction enabled: true
Nonlinearity correction enabled: false
Boxcar width: 0
XAxis mode: Wavelengths
Number of Pixels in Spectrum: 3648
>>>>>Begin Spectral Data<<<<<
178.204	-109.05
178.424	-109.05
178.644	-109.05
178.864	-150.01
179.084	-74.24
179.304	48.64
179.524	-41.47
179.744	-10.75
179.964	22.02
180.184	-2.56
180.404	3.58
180.624	5.63
180.844	11.78
181.064	-72.19
181.283	60.93
181.503	-53.76
181.723	28.16
181.943	13.82
182.163	103.93
182.383	11.78
182.602	140.8
182.822	46.59
183.042	-4.61
183.262	44.54
183.482	-16.9
183.701	28.16
183.921	69.12
184.141	22.02
184.361	120.32
184.58	46.59
184.8	5.63
185.02	52.74
185.239	85.5
185.459	30.21
185.679	73.21
185.898	36.35
186.118	22.02
186.338	81.41
186.557	95.74
186.777	-18.94
186.997	28.16
187.216	-4.61
187.436	65.02
187.655	60.93
187.875	60.93
188.095	3.58
188.314	30.21
188.534	40.45
188.753	-0.51
188.973	60.93
189.192	60.93
189.412	-0.51
189.631	103.93
189.851	11.78
190.07	40.45
190.29	36.35
190.509	73.21
190.729	-53.76
190.948	103.93
191.168	177.66
191.387	89.6
191.607	-8.7
191.826	69.12
192.045	-2.56
192.265	62.98
192.484	-16.9
192.704	93.69
192.923	87.55
193.142	134.65
193.362	73.21
193.581	130.56
193.8	50.69
194.02	71.17
194.239	130.56
194.458	56.83
194.678	48.64
194.897	79.36
195.116	-23.04
195.335	15.87
195.555	93.69
195.774	1.54
195.993	69.12
196.212	93.69
196.432	56.83
196.651	52.74
196.87	13.82
197.089	60.93
197.308	105.98
197.528	71.17
197.747	-37.38
197.966	75.26
198.185	126.46
198.404	60.93
198.623	48.64
198.842	60.93
199.062	65.02
199.281	101.89
199.5	-14.85
199.719	48.64
199.938	46.59
200.157	87.55
200.376	65.02
200.595	89.6
200.814	77.31
201.033	120.32
201.252	32.26
201.471	85.5
201.69	62.98
201.909	-25.09
202.128	13.82
202.347	60.93
202.566	118.27
202.785	19.97
203.004	-49.66
203.223	128.51
203.442	-16.9
203.661	44.54
203.879	44.54
204.098	62.98
204.317	-0.51
204.536	85.5
204.755	97.79
204.974	58.88
205.193	87.55
205.411	101.89
205.63	19.97
205.849	58.88
206.068	11.78
206.287	28.16
206.505	97.79
206.724	13.82
206.943	46.59
207.162	40.45
207.381	40.45
207.599	44.54
207.818	52.74
208.037	60.93
208.255	-16.9
208.474	28.16
208.693	32.26
208.911	69.12
209.13	81.41
209.349	28.16
209.567	60.93
209.786	114.17
210.005	56.83
210.223	40.45
210.442	62.98
210.661	28.16
210.879	46.59
211.098	48.64
211.316	85.5
211.535	46.59
211.753	42.5
211.972	60.93
212.191	-33.28
212.409	46.59
212.628	65.02
212.846	83.45
213.065	40.45
213.283	101.89
213.502	42.5
213.72	17.92
213.938	24.06
214.157	19.97
214.375	91.65
214.594	-25.09
214.812	36.35
215.031	44.54
215.249	36.35
215.467	79.36
215.686	50.69
215.904	85.5
216.122	11.78
216.341	-0.51
216.559	3.58
216.778	69.12
216.996	-16.9
217.214	5.63
217.432	-29.18
217.651	32.26
217.869	-18.94
218.087	19.97
218.306	-53.76
218.524	69.12
218.742	71.17
218.96	19.97
219.179	-0.51
219.397	87.55
219.615	-16.9
219.833	77.31
220.051	38.4
220.27	22.02
220.488	81.41
220.706	3.58
220.924	62.98
221.142	-12.8
221.36	50.69
221.578	97.79
221.796	79.36
222.015	44.54
222.233	-16.9
222.451	99.84
222.669	32.26
222.887	7.68
223.105	69.12
223.323	-10.75
223.541	17.92
223.759	24.06
223.977	52.74
224.195	50.69
224.413	54.78
224.631	77.31
224.849	65.02
225.067	118.27
225.285	81.41
225.503	22.02
225.721	-12.8
225.939	60.93
226.157	54.78
226.375	79.36
226.592	-20.99
226.81	19.97
227.028	108.03
227.246	103.93
227.464	28.16
227.682	40.45
227.9	95.74
228.117	93.69
228.335	32.26
228.553	60.93
228.771	58.88
228.989	30.21
229.206	32.26
229.424	19.97
229.642	28.16
229.86	77.31
230.077	69.12
230.295	54.78
230.513	58.88
230.731	52.74
230.948	142.85
231.166	77.31
231.384	34.3
231.601	26.11
231.819	128.51
232.037	-12.8
232.254	3.58
232.472	-16.9
232.689	69.12
232.907	112.13
233.125	95.74
233.342	85.5
233.56	-33.28
233.777	-16.9
233.995	5.63
234.213	65.02
234.43	126.46
234.648	54.78
234.865	36.35
235.083	65.02
235.3	65.02
235.518	134.65
235.735	71.17
235.953	120.32
236.17	28.16
236.388	42.5
236.605	7.68
236.822	62.98
237.04	60.93
237.257	15.87
237.475	-4.61
237.692	60.93
237.909	38.4
238.127	105.98
238.344	36.35
238.562	60.93
238.779	-39.42
238.996	44.54
239.214	79.36
239.431	77.31
239.648	32.26
239.865	-4.61
240.083	79.36
240.3	54.78
240.517	-20.99
240.735	44.54
240.952	79.36
241.169	48.64
241.386	93.69
241.603	13.82
241.821	40.45
242.038	15.87
242.255	97.79
242.472	13.82
242.689	71.17
242.907	75.26
243.124	40.45
243.341	48.64
243.558	30.21
243.775	56.83
243.992	9.73
244.209	30.21
244.426	60.93
244.643	95.74
244.86	62.98
245.078	58.88
245.295	60.93
245.512	83.45
245.729	15.87
245.946	28.16
246.163	44.54
246.38	-20.99
246.597	1.54
246.814	48.64
247.031	3.58
247.248	30.21
247.464	85.5
247.681	56.83
247.898	60.93
248.115	105.98
248.332	-18.94
248.549	81.41
248.766	159.23
248.983	56.83
249.2	95.74
249.417	60.93
249.633	132.61
249.85	95.74
250.067	32.26
250.284	32.26
250.501	73.21
250.717	99.84
250.934	1.54
251.151	34.3
251.368	19.97
251.585	60.93
251.801	103.93
252.018	54.78
252.235	34.3
252.451	36.35
252.668	3.58
252.885	52.74
253.102	9.73
253.318	40.45
253.535	28.16
253.752	32.26
253.968	52.74
254.185	30.21
254.401	13.82
254.618	60.93
254.835	-29.18
255.051	17.92
255.268	22.02
255.484	34.3
255.701	5.63
255.917	77.31
256.134	36.35
256.351	-10.75
256.567	24.06
256.784	28.16
257	11.78
257.217	79.36
257.433	38.4
257.65	101.89
257.866	126.46
258.082	36.35
258.299	34.3
258.515	56.83
258.732	75.26
258.948	-4.61
259.165	85.5
259.381	38.4
259.597	44.54
259.814	62.98
260.03	140.8
260.246	19.97
260.463	50.69
260.679	95.74
260.895	52.74
261.112	26.11
261.328	-10.75
261.544	91.65
261.761	132.61
261.977	30.21
262.193	97.79
262.409	130.56
262.626	69.12
262.842	30.21
263.058	11.78
263.274	13.82
263.49	-6.66
263.707	44.54
263.923	11.78
264.139	30.21
264.355	46.59
264.571	95.74
264.787	60.93
265.004	30.21
265.22	3.58
265.436	32.26
265.652	40.45
265.868	3.58
266.084	54.78
266.3	67.07
266.516	-20.99
266.732	142.85
266.948	60.93
267.164	22.02
267.38	118.27
267.596	1.54
267.812	142.85
268.028	52.74
268.244	11.78
268.46	52.74
268.676	46.59
268.892	146.94
269.108	-37.38
269.324	3.58
269.54	19.97
269.756	69.12
269.972	11.78
270.188	62.98
270.403	-29.18
270.619	126.46
270.835	101.89
271.051	52.74
271.267	54.78
271.483	-20.99
271.698	19.97
271.914	60.93
272.13	1.54
272.346	11.78
272.562	58.88
272.777	155.13
272.993	42.5
273.209	73.21
273.425	48.64
273.64	-12.8
273.856	54.78
274.072	22.02
274.287	40.45
274.503	-12.8
274.719	40.45
274.934	-25.09
275.15	22.02
275.366	103.93
275.581	30.21
275.797	19.97
276.012	79.36
276.228	40.45
276.444	52.74
276.659	101.89
276.875	-18.94
277.09	-4.61
277.306	44.54
277.521	93.69
277.737	24.06
277.952	110.08
278.168	130.56
278.383	52.74
278.599	85.5
278.814	81.41
279.03	-8.7
279.245	22.02
279.461	69.12
279.676	36.35
279.892	11.78
280.107	38.4
280.322	77.31
280.538	3.58
280.753	-12.8
280.969	60.93
281.184	93.69
281.399	38.4
281.615	9.73
281.83	77.31
282.045	28.16
282.26	77.31
282.476	83.45
282.691	110.08
282.906	89.6
283.122	15.87
283.337	40.45
283.552	95.74
283.767	73.21
283.983	32.26
284.198	-4.61
284.413	52.74
284.628	-84.48
284.843	42.5
285.058	40.45
285.274	36.35
285.489	-8.7
285.704	56.83
285.919	11.78
286.134	19.97
286.349	36.35
286.564	93.69
286.779	46.59
286.995	97.79
287.21	38.4
287.425	32.26
287.64	-20.99
287.855	73.21
288.07	-4.61
288.285	69.12
288.5	97.79
288.715	114.17
288.93	60.93
289.145	60.93
289.36	73.21
289.575	-55.81
289.79	7.68
290.004	11.78
290.219	11.78
290.434	67.07
290.649	-53.76
290.864	73.21
291.079	81.41
291.294	52.74
291.509	-16.9
291.724	103.93
291.938	28.16
292.153	15.87
292.368	5.63
292.583	52.74
292.798	81.41
293.012	81.41
293.227	48.64
293.442	48.64
293.657	138.75
293.871	81.41
294.086	-2.56
294.301	97.79
294.516	108.03
294.73	52.74
294.945	36.35
295.16	-37.38
295.374	50.69
295.589	71.17
295.804	13.82
296.018	38.4
296.233	110.08
296.447	71.17
296.662	69.12
296.877	52.74
297.091	69.12
297.306	38.4
297.52	9.73
297.735	73.21
297.949	122.37
298.164	95.74
298.378	65.02
298.593	38.4
298.807	-78.33
299.022	-29.18
299.236	3.58
299.451	22.02
299.665	30.21
299.88	-29.18
300.094	1.54
300.309	46.59
300.523	97.79
300.737	36.35
300.952	22.02
301.166	56.83
301.381	40.45
301.595	65.02
301.809	32.26
302.024	79.36
302.238	22.02
302.452	126.46
302.667	89.6
302.881	95.74
303.095	79.36
303.309	89.6
303.524	3.58
303.738	19.97
303.952	93.69
304.166	44.54
304.381	-35.33
304.595	77.31
304.809	44.54
305.023	140.8
305.237	146.94
305.452	105.98
305.666	46.59
305.88	97.79
306.094	126.46
306.308	-27.14
306.522	79.36
306.736	108.03
306.95	77.31
307.164	91.65
307.379	11.78
307.593	144.89
307.807	65.02
308.021	62.98
308.235	36.35
308.449	7.68
308.663	-4.61
308.877	11.78
309.091	85.5
309.305	22.02
309.519	-84.48
309.733	71.17
309.947	40.45
310.161	114.17
310.374	116.22
310.588	30.21
310.802	22.02
311.016	-41.47
311.23	81.41
311.444	-27.14
311.658	118.27
311.872	97.79
312.085	103.93
312.299	81.41
312.513	52.74
312.727	15.87
312.941	-10.75
313.154	79.36
313.368	114.17
313.582	13.82
313.796	-0.51
314.009	87.55
314.223	26.11
314.437	44.54
314.651	7.68
314.864	56.83
315.078	-10.75
315.292	19.97
315.505	38.4
315.719	69.12
315.933	44.54
316.146	105.98
316.36	42.5
316.573	73.21
316.787	54.78
317.001	-27.14
317.214	56.83
317.428	50.69
317.641	56.83
317.855	93.69
318.068	54.78
318.282	24.06
318.495	101.89
318.709	34.3
318.922	65.02
319.136	118.27
319.349	114.17
319.563	42.5
319.776	65.02
319.99	15.87
320.203	116.22
320.417	83.45
320.63	77.31
320.843	110.08
321.057	75.26
321.27	110.08
321.483	-12.8
321.697	69.12
321.91	52.74
322.124	56.83
322.337	32.26
322.55	22.02
322.763	52.74
322.977	52.74
323.19	54.78
323.403	-18.94
323.617	73.21
323.83	13.82
324.043	54.78
324.256	103.93
324.469	13.82
324.683	95.74
324.896	112.13
325.109	101.89
325.322	-29.18
325.535	110.08
325.748	60.93
325.962	87.55
326.175	87.55
326.388	81.41
326.601	97.79
326.814	95.74
327.027	62.98
327.24	99.84
327.453	26.11
327.666	52.74
327.879	75.26
328.092	54.78
328.305	81.41
328.518	28.16
328.731	44.54
328.944	24.06
329.157	60.93
329.37	50.69
329.583	38.4
329.796	118.27
330.009	34.3
330.222	46.59
330.435	56.83
330.648	52.74
330.861	28.16
331.073	87.55
331.286	95.74
331.499	77.31
331.712	112.13
331.925	95.74
332.138	-45.57
332.35	110.08
332.563	-0.51
332.776	65.02
332.989	44.54
333.202	60.93
333.414	44.54
333.627	-27.14
333.84	48.64
334.053	69.12
334.265	62.98
334.478	13.82
334.691	3.58
334.903	97.79
335.116	52.74
335.329	110.08
335.541	120.32
335.754	83.45
335.966	34.3
336.179	54.78
336.392	93.69
336.604	-12.8
336.817	30.21
337.029	95.74
337.242	77.31
337.454	128.51
337.667	44.54
337.88	206.33
338.092	42.5
338.305	62.98
338.517	-16.9
338.729	73.21
338.942	132.61
339.154	60.93
339.367	69.12
339.579	19.97
339.792	-0.51
340.004	126.46
340.217	-12.8
340.429	26.11
340.641	5.63
340.854	-4.61
341.066	30.21
341.278	52.74
341.491	83.45
341.703	3.58
341.915	50.69
342.128	79.36
342.34	1.54
342.552	83.45
342.764	52.74
342.977	48.64
343.189	62.98
343.401	11.78
343.613	-12.8
343.826	93.69
344.038	32.26
344.25	97.79
344.462	38.4
344.674	38.4
344.886	19.97
345.099	87.55
345.311	-16.9
345.523	77.31
345.735	112.13
345.947	112.13
346.159	58.88
346.371	22.02
346.583	54.78
346.795	159.23
347.007	3.58
347.219	44.54
347.431	99.84
347.643	101.89
347.855	19.97
348.067	118.27
348.279	52.74
348.491	79.36
348.703	97.79
348.915	19.97
349.127	36.35
349.339	40.45
349.551	30.21
349.763	56.83
349.975	28.16
350.187	67.07
350.399	9.73
350.61	46.59
350.822	67.07
351.034	50.69
351.246	46.59
351.458	85.5
351.669	60.93
351.881	3.58
352.093	99.84
352.305	77.31
352.517	11.78
352.728	77.31
352.94	58.88
353.152	105.98
353.363	22.02
353.575	103.93
353.787	75.26
353.999	30.21
354.21	93.69
354.422	19.97
354.633	112.13
354.845	67.07
355.057	81.41
355.268	114.17
355.48	77.31
355.692	50.69
355.903	32.26
356.115	87.55
356.326	-29.18
356.538	91.65
356.749	124.41
356.961	142.85
357.172	60.93
357.384	22.02
357.595	67.07
357.807	19.97
358.018	65.02
358.23	19.97
358.441	77.31
358.653	75.26
358.864	-51.71
359.075	38.4
359.287	5.63
359.498	60.93
359.709	48.64
359.921	11.78
360.132	93.69
360.344	93.69
360.555	91.65
360.766	42.5
360.977	15.87
361.189	77.31
361.4	32.26
361.611	85.5
361.823	105.98
362.034	69.12
362.245	69.12
362.456	93.69
362.667	48.64
362.879	19.97
363.09	75.26
363.301	79.36
363.512	81.41
363.723	40.45
363.935	71.17
364.146	85.5
364.357	81.41
364.568	101.89
364.779	54.78
364.99	73.21
365.201	28.16
365.412	97.79
365.623	7.68
365.834	44.54
366.045	36.35
366.256	120.32
366.467	112.13
366.678	52.74
366.889	105.98
367.1	32.26
367.311	105.98
367.522	54.78
367.733	159.23
367.944	-29.18
368.155	81.41
368.366	101.89
368.577	48.64
368.788	52.74
368.999	9.73
369.209	11.78
369.42	73.21
369.631	142.85
369.842	42.5
370.053	36.35
370.264	65.02
370.474	114.17
370.685	85.5
370.896	11.78
371.107	54.78
371.317	52.74
371.528	87.55
371.739	128.51
371.95	87.55
372.16	17.92
372.371	22.02
372.582	77.31
372.792	52.74
373.003	22.02
373.214	112.13
373.424	62.98
373.635	60.93
373.846	118.27
374.056	101.89
374.267	148.99
374.477	140.8
374.688	71.17
374.898	28.16
375.109	36.35
375.319	75.26
375.53	153.09
375.74	97.79
375.951	38.4
376.161	60.93
376.372	108.03
376.582	110.08
376.793	120.32
377.003	-29.18
377.214	-10.75
377.424	11.78
377.635	1.54
377.845	40.45
378.055	128.51
378.266	65.02
378.476	79.36
378.686	44.54
378.897	105.98
379.107	114.17
379.317	101.89
379.528	65.02
379.738	85.5
379.948	69.12
380.158	62.98
380.369	40.45
380.579	105.98
380.789	15.87
380.999	56.83
381.21	71.17
381.42	110.08
381.63	44.54
381.84	105.98
382.05	1.54
382.261	134.65
382.471	89.6
382.681	118.27
382.891	161.28
383.101	103.93
383.311	5.63
383.521	110.08
383.731	110.08
383.941	69.12
384.151	52.74
384.361	58.88
384.571	73.21
384.781	118.27
384.991	112.13
385.201	67.07
385.411	52.74
385.621	44.54
385.831	65.02
386.041	81.41
386.251	44.54
386.461	67.07
386.671	77.31
386.881	136.7
387.091	7.68
387.301	83.45
387.511	44.54
387.72	146.94
387.93	153.09
388.14	52.74
388.35	89.6
388.56	142.85
388.769	89.6
388.979	60.93
389.189	79.36
389.399	87.55
389.609	95.74
389.818	138.75
390.028	46.59
390.238	97.79
390.447	30.21
390.657	97.79
390.867	118.27
391.076	15.87
391.286	73.21
391.496	116.22
391.705	56.83
391.915	122.37
392.125	95.74
392.334	71.17
392.544	128.51
392.753	161.28
392.963	65.02
393.172	124.41
393.382	118.27
393.591	153.09
393.801	110.08
394.01	128.51
394.22	159.23
394.429	87.55
394.639	128.51
394.848	132.61
395.058	89.6
395.267	30.21
395.477	103.93
395.686	134.65
395.895	175.61
396.105	136.7
396.314	116.22
396.524	169.47
396.733	122.37
396.942	134.65
397.152	69.12
397.361	144.89
397.57	101.89
397.78	155.13
397.989	110.08
398.198	198.14
398.407	146.94
398.617	175.61
398.826	69.12
399.035	114.17
399.244	140.8
399.453	128.51
399.663	159.23
399.872	77.31
400.081	110.08
400.29	151.04
400.499	134.65
400.708	110.08
400.917	171.52
401.127	192
401.336	71.17
401.545	91.65
401.754	187.9
401.963	110.08
402.172	101.89
402.381	136.7
402.59	81.41
402.799	128.51
403.008	169.47
403.217	187.9
403.426	155.13
403.635	181.76
403.844	153.09
404.053	232.96
404.262	175.61
404.471	232.96
404.68	208.38
404.888	220.67
405.097	136.7
405.306	167.42
405.515	183.81
405.724	210.43
405.933	175.61
406.142	228.86
406.35	216.57
406.559	159.23
406.768	214.52
406.977	200.19
407.185	208.38
407.394	261.63
407.603	208.38
407.812	314.88
408.02	249.34
408.229	267.77
408.438	241.15
408.646	316.92
408.855	304.64
409.064	298.49
409.272	337.4
409.481	380.41
409.69	321.02
409.898	257.53
410.107	402.94
410.315	447.99
410.524	343.55
410.733	423.42
410.941	409.08
411.15	415.23
411.358	536.06
411.567	511.48
411.775	470.52
411.984	486.9
412.192	568.82
412.401	521.72
412.609	525.82
412.818	591.35
413.026	617.97
413.234	585.21
413.443	638.45
413.651	628.21
413.86	634.36
414.068	722.42
414.276	747
414.485	740.85
414.693	726.52
414.901	800.24
415.11	835.06
415.318	814.58
415.526	814.58
415.734	970.23
415.943	1000.94
416.151	871.92
416.359	941.55
416.567	1041.9
416.776	1035.76
416.984	1187.31
417.192	1152.49
417.4	1224.17
417.608	1119.73
417.817	1250.8
418.025	1269.23
418.233	1443.31
418.441	1297.9
418.649	1402.35
418.857	1510.89
419.065	1576.42
419.273	1508.84
419.481	1637.86
419.689	1684.97
419.897	1801.7
420.105	1762.79
420.313	1920.48
420.521	2002.4
420.729	1895.91
420.937	1994.21
421.145	2076.13
421.353	2215.39
421.561	2141.66
421.769	2346.46
421.977	2459.1
422.185	2475.48
422.393	2624.98
422.601	2862.55
422.809	2653.66
423.017	2829.78
423.224	2911.7
423.432	3014.1
423.64	2964.95
423.848	3153.36
424.056	3157.46
424.263	3268.05
424.471	3368.4
424.679	3409.36
424.887	3601.87
425.094	3816.9
425.302	3665.35
425.51	3808.71
425.718	3978.69
425.925	3993.03
426.133	4169.15
426.341	4355.52
426.548	4646.33
426.756	4586.94
426.964	4722.1
427.171	4885.94
427.379	4976.05
427.586	5119.41
427.794	5254.58
428.001	5506.48
428.209	5815.72
428.417	5508.52
428.624	5995.94
428.832	6174.11
429.039	6215.07
429.247	6106.53
429.454	6682.01
429.662	6913.43
429.869	6643.1
430.076	6991.25
430.284	6892.95
430.491	7130.52
430.699	7527.82
430.906	7673.23
431.114	7843.21
431.321	8015.24
431.528	7953.8
431.736	8613.24
431.943	8953.21
432.15	8693.12
432.358	8945.02
432.565	9282.93
432.772	9153.91
432.979	9901.42
433.187	9993.58
433.394	10048.87
433.601	10671.45
433.808	10923.35
434.016	10718.56
434.223	11072.86
434.43	11783.5
434.637	11474.26
434.844	12303.68
435.052	12449.09
435.259	12254.53
435.466	12367.17
435.673	12389.7
435.88	13083.96
436.087	13946.16
436.294	13667.63
436.501	13421.88
436.708	13907.24
436.915	14212.39
437.122	14972.19
437.329	15084.83
437.537	15584.53
437.743	15496.47
437.95	15346.97
438.157	16315.66
438.364	16979.2
438.571	16895.23
438.778	16993.53
438.985	18357.48
439.192	17695.99
439.399	18269.42
439.606	17933.55
439.813	19084.51
440.02	20018.38
440.227	19639.51
440.433	19430.62
440.64	20145.36
440.847	19999.95
441.054	20405.45
441.261	21959.86
441.467	21609.65
441.674	22115.5
441.881	22975.65
442.088	22328.49
442.294	22568.1
442.501	23028.9
442.708	23567.51
442.914	24368.27
443.121	25547.9
443.328	24489.1
443.534	26174.58
443.741	25945.2
443.948	25316.48
444.154	27149.41
444.361	26924.13
444.568	26926.18
444.774	27055.2
444.981	27444.32
445.187	28343.38
445.394	29760.57
445.6	29293.63
445.807	32111.64
446.013	30528.56
446.22	31208.48
446.426	32160.79
446.633	32504.85
446.839	33657.85
447.046	31976.47
447.252	33999.87
447.459	34292.72
447.665	33803.26
447.871	35492.83
448.078	36496.34
448.284	35281.89
448.491	36346.84
448.697	37252.04
448.903	38063.04
449.11	38564.79
449.316	37696.45
449.522	38249.4
449.728	39338.92
449.935	39672.74
450.141	39572.39
450.347	40561.56
450.553	39345.06
450.76	39848.86
450.966	40860.56
451.172	40696.72
451.378	41233.29
451.584	40844.18
451.791	41747.33
451.997	41823.11
452.203	42228.6
452.409	42521.46
452.615	42204.03
452.821	40899.47
453.027	40344.47
453.233	42517.37
453.44	40244.12
453.646	40688.53
453.852	41186.19
454.058	42048.38
454.264	40262.55
454.47	41472.9
454.676	40530.84
454.882	41700.23
455.088	37960.64
455.294	38775.73
455.5	39476.13
455.705	39932.83
455.911	38044.6
456.117	37051.34
456.323	36899.79
456.529	35228.65
456.735	36545.49
456.941	35720.16
457.147	35179.5
457.352	34245.62
457.558	33537.02
457.764	33528.83
457.97	33246.21
458.176	32504.85
458.381	32703.5
458.587	30759.98
458.793	30852.14
458.999	29480
459.204	31720.48
459.41	30417.97
459.616	28638.28
459.821	28570.7
460.027	28546.12
460.233	27815
460.438	26565.74
460.644	26842.21
460.85	25572.47
461.055	25367.68
461.261	25390.2
461.466	23420.06
461.672	22500.52
461.878	24415.37
462.083	22637.73
462.289	22123.69
462.494	22086.83
462.7	21046.46
462.905	20530.37
463.111	21112
463.316	21408.95
463.522	20808.9
463.727	20735.17
463.932	20952.26
464.138	20640.97
464.343	20745.41
464.549	20182.22
464.754	20794.56
464.959	20638.92
465.165	20315.34
465.37	19567.83
465.575	18961.63
465.781	19842.26
465.986	19940.56
466.191	19346.65
466.397	18973.92
466.602	17841.39
