Data from USB4F104151__162__14-19-42-503.txt Node

Date: Thu Mar 13 14:19:42 EDT 2025
User: louis
Spectrometer: USB4F10415
Trigger mode: 4
Integration Time (sec): 2.000000E-2
Scans to average: 1
Electric dark correction enabled: true
Nonlinearity correction enabled: false
Boxcar width: 0
XAxis mode: Wavelengths
Number of Pixels in Spectrum: 3648
>>>>>Begin Spectral Data<<<<<
178.204	-68.95
178.424	-68.95
178.644	-68.95
178.864	-97.62
179.084	-81.24
179.304	-38.23
179.524	17.07
179.744	45.74
179.964	-11.61
180.184	4.78
180.404	-23.89
180.624	-7.51
180.844	-27.99
181.064	-7.51
181.283	2.73
181.503	-3.41
181.723	49.83
181.943	-46.42
182.163	37.55
182.383	-3.41
182.602	68.27
182.822	-3.41
183.042	12.97
183.262	23.21
183.482	64.17
183.701	-27.99
183.921	31.4
184.141	-79.19
184.361	74.41
184.58	-73.04
184.8	15.02
185.02	-15.7
185.239	2.73
185.459	-32.08
185.679	29.35
185.898	-46.42
186.118	74.41
186.338	19.11
186.557	17.07
186.777	76.46
186.997	23.21
187.216	-15.7
187.436	74.41
187.655	49.83
187.875	74.41
188.095	51.88
188.314	49.83
188.534	4.78
188.753	45.74
188.973	53.93
189.192	53.93
189.412	29.35
189.631	17.07
189.851	8.87
190.07	29.35
190.29	25.26
190.509	21.16
190.729	25.26
190.948	2.73
191.168	178.86
191.387	43.69
191.607	15.02
191.826	4.78
192.045	17.07
192.265	19.11
192.484	-58.71
192.704	-1.37
192.923	29.35
193.142	17.07
193.362	37.55
193.581	33.45
193.8	-25.94
194.02	-38.23
194.239	-40.28
194.458	8.87
194.678	-30.04
194.897	86.7
195.116	51.88
195.335	-7.51
195.555	23.21
195.774	51.88
195.993	-3.41
196.212	21.16
196.432	29.35
196.651	33.45
196.87	8.87
197.089	43.69
197.308	4.78
197.528	-3.41
197.747	29.35
197.966	15.02
198.185	41.64
198.404	-30.04
198.623	84.65
198.842	10.92
199.062	8.87
199.281	107.18
199.5	-21.85
199.719	62.12
199.938	8.87
200.157	45.74
200.376	-15.7
200.595	98.99
200.814	68.27
201.033	33.45
201.252	35.5
201.471	47.79
201.69	37.55
201.909	-9.56
202.128	-23.89
202.347	10.92
202.566	58.03
202.785	49.83
203.004	27.31
203.223	82.6
203.442	-64.85
203.661	74.41
203.879	74.41
204.098	137.9
204.317	-1.37
204.536	41.64
204.755	43.69
204.974	117.42
205.193	15.02
205.411	107.18
205.63	41.64
205.849	58.03
206.068	-27.99
206.287	4.78
206.505	101.03
206.724	84.65
206.943	0.68
207.162	15.02
207.381	-15.7
207.599	45.74
207.818	43.69
208.037	27.31
208.255	25.26
208.474	-5.46
208.693	66.22
208.911	55.98
209.13	82.6
209.349	98.99
209.567	33.45
209.786	43.69
210.005	103.08
210.223	43.69
210.442	4.78
210.661	25.26
210.879	41.64
211.098	-32.08
211.316	82.6
211.535	146.09
211.753	-11.61
211.972	60.07
212.191	51.88
212.409	49.83
212.628	-13.65
212.846	-3.41
213.065	60.07
213.283	37.55
213.502	8.87
213.72	43.69
213.938	17.07
214.157	-36.18
214.375	107.18
214.594	-25.94
214.812	27.31
215.031	74.41
215.249	25.26
215.467	51.88
215.686	35.5
215.904	8.87
216.122	70.31
216.341	53.93
216.559	62.12
216.778	90.79
216.996	74.41
217.214	74.41
217.432	21.16
217.651	-21.85
217.869	8.87
218.087	37.55
218.306	10.92
218.524	17.07
218.742	94.89
218.96	76.46
219.179	58.03
219.397	119.46
219.615	137.9
219.833	29.35
220.051	-52.56
220.27	51.88
220.488	66.22
220.706	27.31
220.924	41.64
221.142	49.83
221.36	33.45
221.578	17.07
221.796	-15.7
222.015	33.45
222.233	-15.7
222.451	119.46
222.669	-11.61
222.887	164.52
223.105	101.03
223.323	-79.19
223.541	-52.56
223.759	41.64
223.977	-15.7
224.195	58.03
224.413	64.17
224.631	17.07
224.849	58.03
225.067	-13.65
225.285	49.83
225.503	60.07
225.721	-23.89
225.939	-7.51
226.157	74.41
226.375	4.78
226.592	2.73
226.81	62.12
227.028	74.41
227.246	113.32
227.464	53.93
227.682	103.08
227.9	-9.56
228.117	10.92
228.335	8.87
228.553	2.73
228.771	49.83
228.989	-7.51
229.206	10.92
229.424	84.65
229.642	25.26
229.86	21.16
230.077	-7.51
230.295	41.64
230.513	78.51
230.731	68.27
230.948	45.74
231.166	49.83
231.384	33.45
231.601	58.03
231.819	66.22
232.037	4.78
232.254	-7.51
232.472	-19.8
232.689	0.68
232.907	74.41
233.125	-3.41
233.342	-30.04
233.56	-48.47
233.777	-5.46
233.995	60.07
234.213	25.26
234.43	70.31
234.648	29.35
234.865	-34.13
235.083	74.41
235.3	41.64
235.518	49.83
235.735	37.55
235.953	41.64
236.17	-21.85
236.388	17.07
236.605	33.45
236.822	70.31
237.04	8.87
237.257	49.83
237.475	-7.51
237.692	39.59
237.909	29.35
238.127	68.27
238.344	-3.41
238.562	45.74
238.779	-15.7
238.996	-64.85
239.214	29.35
239.431	-38.23
239.648	49.83
239.865	47.79
240.083	-13.65
240.3	58.03
240.517	-32.08
240.735	10.92
240.952	39.59
241.169	43.69
241.386	12.97
241.603	51.88
241.821	37.55
242.038	17.07
242.255	21.16
242.472	-48.47
242.689	-13.65
242.907	10.92
243.124	111.27
243.341	23.21
243.558	64.17
243.775	10.92
243.992	60.07
244.209	21.16
244.426	23.21
244.643	117.42
244.86	-3.41
245.078	58.03
245.295	90.79
245.512	0.68
245.729	-1.37
245.946	23.21
246.163	45.74
246.38	-32.08
246.597	90.79
246.814	2.73
247.031	41.64
247.248	-15.7
247.464	12.97
247.681	17.07
247.898	96.94
248.115	82.6
248.332	-21.85
248.549	-15.7
248.766	74.41
248.983	84.65
249.2	6.83
249.417	60.07
249.633	53.93
249.85	96.94
250.067	-25.94
250.284	-30.04
250.501	39.59
250.717	21.16
250.934	6.83
251.151	76.46
251.368	86.7
251.585	37.55
251.801	0.68
252.018	19.11
252.235	43.69
252.451	37.55
252.668	29.35
252.885	55.98
253.102	0.68
253.318	-19.8
253.535	10.92
253.752	58.03
253.968	-3.41
254.185	6.83
254.401	70.31
254.618	72.36
254.835	12.97
255.051	43.69
255.268	35.5
255.484	49.83
255.701	41.64
255.917	0.68
256.134	0.68
256.351	25.26
256.567	10.92
256.784	-19.8
257	35.5
257.217	92.84
257.433	62.12
257.65	45.74
257.866	60.07
258.082	-36.18
258.299	15.02
258.515	76.46
258.732	-9.56
258.948	25.26
259.165	25.26
259.381	-38.23
259.597	35.5
259.814	43.69
260.03	6.83
260.246	45.74
260.463	72.36
260.679	-3.41
260.895	70.31
261.112	27.31
261.328	2.73
261.544	131.75
261.761	41.64
261.977	51.88
262.193	76.46
262.409	-13.65
262.626	0.68
262.842	41.64
263.058	33.45
263.274	66.22
263.49	0.68
263.707	2.73
263.923	-5.46
264.139	-23.89
264.355	-1.37
264.571	90.79
264.787	84.65
265.004	55.98
265.22	10.92
265.436	76.46
265.652	-27.99
265.868	-9.56
266.084	-3.41
266.3	51.88
266.516	12.97
266.732	6.83
266.948	117.42
267.164	0.68
267.38	25.26
267.596	29.35
267.812	70.31
268.028	17.07
268.244	-13.65
268.46	76.46
268.676	107.18
268.892	82.6
269.108	-23.89
269.324	21.16
269.54	55.98
269.756	76.46
269.972	23.21
270.188	-30.04
270.403	4.78
270.619	35.5
270.835	15.02
271.051	58.03
271.267	23.21
271.483	-32.08
271.698	41.64
271.914	98.99
272.13	4.78
272.346	51.88
272.562	68.27
272.777	31.4
272.993	58.03
273.209	-11.61
273.425	82.6
273.64	33.45
273.856	51.88
274.072	27.31
274.287	43.69
274.503	119.46
274.719	115.37
274.934	29.35
275.15	-21.85
275.366	19.11
275.581	43.69
275.797	37.55
276.012	25.26
276.228	-1.37
276.444	33.45
276.659	68.27
276.875	29.35
277.09	4.78
277.306	19.11
277.521	25.26
277.737	45.74
277.952	82.6
278.168	49.83
278.383	62.12
278.599	17.07
278.814	47.79
279.03	17.07
279.245	47.79
279.461	29.35
279.676	10.92
279.892	-5.46
280.107	127.66
280.322	25.26
280.538	76.46
280.753	45.74
280.969	-15.7
281.184	82.6
281.399	129.7
281.615	68.27
281.83	-34.13
282.045	-9.56
282.26	82.6
282.476	-5.46
282.691	74.41
282.906	41.64
283.122	17.07
283.337	29.35
283.552	51.88
283.767	10.92
283.983	74.41
284.198	74.41
284.413	10.92
284.628	17.07
284.843	78.51
285.058	80.55
285.274	-42.32
285.489	53.93
285.704	98.99
285.919	-19.8
286.134	53.93
286.349	8.87
286.564	62.12
286.779	92.84
286.995	66.22
287.21	-21.85
287.425	92.84
287.64	53.93
287.855	58.03
288.07	-40.28
288.285	49.83
288.5	19.11
288.715	55.98
288.93	4.78
289.145	29.35
289.36	135.85
289.575	41.64
289.79	43.69
290.004	-7.51
290.219	37.55
290.434	84.65
290.649	58.03
290.864	49.83
291.079	53.93
291.294	-23.89
291.509	-9.56
291.724	55.98
291.938	8.87
292.153	43.69
292.368	-11.61
292.583	27.31
292.798	-7.51
293.012	6.83
293.227	86.7
293.442	8.87
293.657	17.07
293.871	117.42
294.086	17.07
294.301	45.74
294.516	70.31
294.73	123.56
294.945	12.97
295.16	98.99
295.374	90.79
295.589	8.87
295.804	0.68
296.018	17.07
296.233	115.37
296.447	53.93
296.662	115.37
296.877	92.84
297.091	35.5
297.306	80.55
297.52	58.03
297.735	37.55
297.949	-7.51
298.164	70.31
298.378	74.41
298.593	29.35
298.807	2.73
299.022	74.41
299.236	33.45
299.451	35.5
299.665	58.03
299.88	74.41
300.094	66.22
300.309	25.26
300.523	107.18
300.737	-5.46
300.952	15.02
301.166	86.7
301.381	0.68
301.595	-11.61
301.809	21.16
302.024	23.21
302.238	43.69
302.452	84.65
302.667	2.73
302.881	25.26
303.095	21.16
303.309	27.31
303.524	29.35
303.738	-32.08
303.952	10.92
304.166	19.11
304.381	19.11
304.595	78.51
304.809	41.64
305.023	58.03
305.237	90.79
305.452	55.98
305.666	33.45
305.88	45.74
306.094	53.93
306.308	-13.65
306.522	25.26
306.736	123.56
306.95	33.45
307.164	53.93
307.379	10.92
307.593	25.26
307.807	70.31
308.021	66.22
308.235	33.45
308.449	-3.41
308.663	51.88
308.877	121.51
309.091	62.12
309.305	25.26
309.519	0.68
309.733	101.03
309.947	58.03
310.161	72.36
310.374	72.36
310.588	58.03
310.802	33.45
311.016	0.68
311.23	51.88
311.444	49.83
311.658	12.97
311.872	119.46
312.085	66.22
312.299	113.32
312.513	78.51
312.727	111.27
312.941	62.12
313.154	-3.41
313.368	31.4
313.582	27.31
313.796	-23.89
314.009	68.27
314.223	98.99
314.437	17.07
314.651	21.16
314.864	-17.75
315.078	74.41
315.292	-11.61
315.505	21.16
315.719	-19.8
315.933	37.55
316.146	80.55
316.36	-3.41
316.573	53.93
316.787	35.5
317.001	141.99
317.214	29.35
317.428	86.7
317.641	12.97
317.855	78.51
318.068	10.92
318.282	66.22
318.495	78.51
318.709	33.45
318.922	86.7
319.136	-7.51
319.349	58.03
319.563	4.78
319.776	150.18
319.99	27.31
320.203	-7.51
320.417	109.22
320.63	-38.23
320.843	74.41
321.057	86.7
321.27	21.16
321.483	12.97
321.697	53.93
321.91	19.11
322.124	23.21
322.337	-7.51
322.55	4.78
322.763	86.7
322.977	37.55
323.19	-7.51
323.403	58.03
323.617	-34.13
323.83	68.27
324.043	-36.18
324.256	90.79
324.469	49.83
324.683	90.79
324.896	66.22
325.109	19.11
325.322	-81.24
325.535	51.88
325.748	58.03
325.962	-5.46
326.175	49.83
326.388	66.22
326.601	17.07
326.814	164.52
327.027	98.99
327.24	37.55
327.453	-64.85
327.666	68.27
327.879	58.03
328.092	27.31
328.305	90.79
328.518	21.16
328.731	31.4
328.944	49.83
329.157	31.4
329.37	92.84
329.583	137.9
329.796	31.4
330.009	72.36
330.222	74.41
330.435	39.59
330.648	41.64
330.861	4.78
331.073	17.07
331.286	74.41
331.499	29.35
331.712	41.64
331.925	17.07
332.138	62.12
332.35	55.98
332.563	19.11
332.776	66.22
332.989	8.87
333.202	66.22
333.414	6.83
333.627	33.45
333.84	76.46
334.053	-25.94
334.265	8.87
334.478	-13.65
334.691	-21.85
334.903	53.93
335.116	-42.32
335.329	12.97
335.541	51.88
335.754	43.69
335.966	21.16
336.179	-11.61
336.392	29.35
336.604	-13.65
336.817	12.97
337.029	62.12
337.242	-3.41
337.454	41.64
337.667	49.83
337.88	58.03
338.092	105.13
338.305	127.66
338.517	25.26
338.729	78.51
338.942	131.75
339.154	60.07
339.367	98.99
339.579	82.6
339.792	27.31
340.004	33.45
340.217	107.18
340.429	-17.75
340.641	25.26
340.854	55.98
341.066	-19.8
341.278	51.88
341.491	82.6
341.703	37.55
341.915	66.22
342.128	58.03
342.34	51.88
342.552	25.26
342.764	60.07
342.977	33.45
343.189	141.99
343.401	74.41
343.613	37.55
343.826	43.69
344.038	-11.61
344.25	-15.7
344.462	17.07
344.674	33.45
344.886	6.83
345.099	58.03
345.311	49.83
345.523	55.98
345.735	6.83
345.947	111.27
346.159	125.61
346.371	-15.7
346.583	19.11
346.795	117.42
347.007	90.79
347.219	60.07
347.431	60.07
347.643	41.64
347.855	60.07
348.067	88.75
348.279	0.68
348.491	76.46
348.703	21.16
348.915	27.31
349.127	94.89
349.339	150.18
349.551	47.79
349.763	74.41
349.975	92.84
350.187	158.38
350.399	2.73
350.61	37.55
350.822	47.79
351.034	43.69
351.246	25.26
351.458	78.51
351.669	25.26
351.881	103.08
352.093	49.83
352.305	12.97
352.517	27.31
352.728	94.89
352.94	115.37
353.152	90.79
353.363	17.07
353.575	-23.89
353.787	107.18
353.999	109.22
354.21	31.4
354.422	8.87
354.633	94.89
354.845	90.79
355.057	53.93
355.268	33.45
355.48	98.99
355.692	-17.75
355.903	12.97
356.115	12.97
356.326	33.45
356.538	58.03
356.749	17.07
356.961	127.66
357.172	105.13
357.384	74.41
357.595	119.46
357.807	23.21
358.018	49.83
358.23	49.83
358.441	103.08
358.653	70.31
358.864	68.27
359.075	115.37
359.287	10.92
359.498	58.03
359.709	84.65
359.921	80.55
360.132	90.79
360.344	94.89
360.555	51.88
360.766	29.35
360.977	74.41
361.189	8.87
361.4	47.79
361.611	107.18
361.823	82.6
362.034	72.36
362.245	33.45
362.456	98.99
362.667	84.65
362.879	64.17
363.09	0.68
363.301	123.56
363.512	-36.18
363.723	-15.7
363.935	-34.13
364.146	117.42
364.357	29.35
364.568	78.51
364.779	0.68
364.99	90.79
365.201	-1.37
365.412	127.66
365.623	-5.46
365.834	35.5
366.045	101.03
366.256	68.27
366.467	66.22
366.678	74.41
366.889	-7.51
367.1	35.5
367.311	123.56
367.522	4.78
367.733	33.45
367.944	90.79
368.155	-9.56
368.366	49.83
368.577	60.07
368.788	74.41
368.999	90.79
369.209	88.75
369.42	107.18
369.631	144.04
369.842	41.64
370.053	43.69
370.264	33.45
370.474	115.37
370.685	39.59
370.896	49.83
371.107	74.41
371.317	98.99
371.528	49.83
371.739	60.07
371.95	111.27
372.16	55.98
372.371	25.26
372.582	70.31
372.792	125.61
373.003	74.41
373.214	98.99
373.424	78.51
373.635	76.46
373.846	19.11
374.056	66.22
374.267	66.22
374.477	21.16
374.688	103.08
374.898	41.64
375.109	86.7
375.319	10.92
375.53	168.62
375.74	17.07
375.951	115.37
376.161	-32.08
376.372	58.03
376.582	78.51
376.793	49.83
377.003	-7.51
377.214	98.99
377.424	58.03
377.635	25.26
377.845	45.74
378.055	76.46
378.266	-7.51
378.476	29.35
378.686	111.27
378.897	92.84
379.107	64.17
379.317	66.22
379.528	94.89
379.738	-13.65
379.948	51.88
380.158	117.42
380.369	74.41
380.579	111.27
380.789	2.73
380.999	68.27
381.21	33.45
381.42	8.87
381.63	125.61
381.84	45.74
382.05	31.4
382.261	117.42
382.471	125.61
382.681	45.74
382.891	148.14
383.101	101.03
383.311	17.07
383.521	0.68
383.731	131.75
383.941	49.83
384.151	139.94
384.361	51.88
384.571	72.36
384.781	107.18
384.991	96.94
385.201	135.85
385.411	92.84
385.621	92.84
385.831	90.79
386.041	94.89
386.251	70.31
386.461	139.94
386.671	51.88
386.881	45.74
387.091	86.7
387.301	62.12
387.511	41.64
387.72	-21.85
387.93	117.42
388.14	37.55
388.35	33.45
388.56	96.94
388.769	107.18
388.979	45.74
389.189	51.88
389.399	123.56
389.609	74.41
389.818	84.65
390.028	98.99
390.238	82.6
390.447	101.03
390.657	133.8
390.867	154.28
391.076	-21.85
391.286	74.41
391.496	78.51
391.705	109.22
391.915	74.41
392.125	45.74
392.334	49.83
392.544	76.46
392.753	35.5
392.963	86.7
393.172	88.75
393.382	60.07
393.591	127.66
393.801	37.55
394.01	164.52
394.22	117.42
394.429	68.27
394.639	111.27
394.848	152.23
395.058	43.69
395.267	101.03
395.477	62.12
395.686	82.6
395.895	152.23
396.105	139.94
396.314	82.6
396.524	35.5
396.733	176.81
396.942	119.46
397.152	76.46
397.361	170.66
397.57	139.94
397.78	121.51
397.989	60.07
398.198	115.37
398.407	76.46
398.617	70.31
398.826	164.52
399.035	66.22
399.244	84.65
399.453	103.08
399.663	101.03
399.872	115.37
400.081	119.46
400.29	213.67
400.499	129.7
400.708	127.66
400.917	164.52
401.127	125.61
401.336	139.94
401.545	223.91
401.754	166.57
401.963	172.71
402.172	115.37
402.381	141.99
402.59	189.1
402.799	205.48
403.008	203.43
403.217	189.1
403.426	139.94
403.635	109.22
403.844	154.28
404.053	221.86
404.262	148.14
404.471	209.58
404.68	311.97
404.888	228.01
405.097	254.63
405.306	221.86
405.515	174.76
405.724	221.86
405.933	242.34
406.142	228.01
406.35	223.91
406.559	256.68
406.768	314.02
406.977	275.11
407.185	240.3
407.394	305.83
407.603	277.16
407.812	307.88
408.02	322.21
408.229	354.98
408.438	258.73
408.646	297.64
408.855	275.11
409.064	373.41
409.272	357.03
409.481	371.37
409.69	361.13
409.898	371.37
410.107	467.62
410.315	465.57
410.524	365.22
410.733	387.75
410.941	449.19
411.15	471.72
411.358	508.58
411.567	578.21
411.775	533.15
411.984	549.54
412.192	647.84
412.401	608.93
412.609	713.38
412.818	707.23
413.026	776.86
413.234	707.23
413.443	721.57
413.651	725.66
413.86	731.81
414.068	832.16
414.276	742.05
414.485	815.77
414.693	877.21
414.901	971.42
415.11	946.84
415.318	975.52
415.526	975.52
415.734	1016.48
415.943	1131.16
416.151	1184.41
416.359	1133.21
416.567	1174.17
416.776	1327.77
416.984	1358.49
417.192	1352.34
417.4	1307.29
417.608	1409.69
417.817	1407.64
418.025	1614.48
418.233	1589.91
418.441	1491.6
418.649	1665.68
418.857	1811.09
419.065	1843.85
419.273	1821.33
419.481	1852.05
419.689	1860.24
419.897	2204.3
420.105	2171.53
420.313	2196.11
420.521	2310.79
420.729	2366.09
420.937	2310.79
421.145	2482.82
421.353	2517.64
421.561	2591.36
421.769	2630.27
421.977	2820.74
422.185	2902.65
422.393	2929.28
422.601	3172.99
422.809	3181.18
423.017	3271.29
423.224	3394.17
423.432	3531.38
423.64	3623.54
423.848	3834.48
424.056	3736.18
424.263	4035.18
424.471	4031.09
424.679	3998.32
424.887	4344.42
425.094	4545.13
425.302	4506.21
425.51	4467.3
425.718	4760.16
425.925	4751.97
426.133	5114.46
426.341	5274.2
426.548	5458.52
426.756	5603.93
426.964	5411.42
427.171	5835.35
427.379	5988.94
427.586	6138.44
427.794	6234.7
428.001	6500.94
428.209	6863.43
428.417	6718.02
428.624	7207.48
428.832	7135.81
429.039	7096.89
429.247	7363.13
429.454	7916.08
429.662	8419.88
429.869	7811.64
430.076	8391.21
430.284	8286.76
430.491	8432.17
430.699	9048.61
430.906	8954.4
431.114	9183.77
431.321	9490.97
431.528	9685.53
431.736	10316.3
431.943	10725.89
432.15	10435.08
432.358	10629.64
432.565	10992.13
432.772	11043.33
432.979	11590.14
433.187	11864.57
433.394	11790.84
433.601	12607.98
433.808	12720.62
434.016	12689.9
434.223	13105.63
434.43	13959.64
434.637	13550.04
434.844	14688.71
435.052	14741.96
435.259	14551.5
435.466	14930.37
435.673	14664.14
435.88	15587.77
436.087	16503.21
436.294	16343.47
436.501	16069.05
436.708	16521.65
436.915	17013.16
437.122	17840.54
437.329	17498.53
437.537	18188.69
437.743	18604.43
437.95	17992.09
438.157	19448.19
438.364	19904.89
438.571	19878.27
438.778	19990.91
438.985	21793.12
439.192	20959.59
439.399	21885.28
439.606	20797.81
439.813	22384.98
440.02	23769.41
440.227	23529.8
440.433	22858.06
440.64	23703.87
440.847	23474.5
441.054	24316.22
441.261	25805.09
441.467	25395.5
441.674	25751.84
441.881	26835.22
442.088	26587.41
442.294	26734.87
442.501	27281.67
442.708	27783.43
442.914	28838.13
443.121	30003.42
443.328	29161.71
443.534	31193.29
443.741	30101.73
443.948	30150.88
444.154	32254.14
444.361	31606.98
444.568	32065.73
444.774	31932.61
444.981	32460.99
445.187	33431.72
445.394	34848.92
445.6	34343.07
445.807	37652.59
446.013	35930.25
446.22	36296.83
446.426	37990.5
446.633	37935.21
446.839	39561.29
447.046	37933.16
447.252	40099.91
447.459	39913.55
447.665	39786.57
447.871	41377.84
448.078	43257.88
448.284	41484.34
448.491	42242.09
448.697	44165.13
448.903	44683.26
449.11	44957.69
449.316	44126.22
449.522	45228.02
449.728	46122.99
449.935	46133.23
450.141	46634.98
450.347	47007.71
450.553	45602.8
450.76	46086.12
450.966	47550.42
451.172	47458.26
451.378	48601.03
451.584	47341.53
451.791	49041.34
451.997	48453.58
452.203	49147.84
452.409	49414.07
452.615	48986.05
452.821	47163.36
453.027	46976.99
453.233	49051.58
453.44	47362.01
453.646	48568.26
453.852	48553.93
454.058	48857.03
454.264	47280.09
454.47	48310.22
454.676	47441.88
454.882	48762.82
455.088	44777.47
455.294	45469.68
455.5	46454.76
455.705	46311.4
455.911	44390.41
456.117	43802.64
456.323	43391
456.529	41246.77
456.735	42852.38
456.941	41728.05
457.147	41605.17
457.352	39938.12
457.558	39516.24
457.764	39692.36
457.97	38604.89
458.176	38174.82
458.381	38097
458.587	35963.01
458.793	36401.28
458.999	34408.61
459.204	37107.83
459.41	35938.44
459.616	33493.16
459.821	33349.81
460.027	33351.85
460.233	32432.32
460.438	30918.87
460.644	31514.83
460.85	30009.57
461.055	29333.74
461.261	29325.55
461.466	27302.15
461.672	26687.76
461.878	28342.52
462.083	26487.06
462.289	25995.55
462.494	25944.35
462.7	24633.65
462.905	23910.72
463.111	24613.17
463.316	25168.17
463.522	24340.79
463.727	24486.2
463.932	24418.61
464.138	24097.08
464.343	24179
464.549	23437.64
464.754	24127.8
464.959	23660.87
465.165	23931.2
465.37	22905.17
465.575	22362.45
465.781	23116.11
465.986	23445.83
466.191	22186.33
466.397	21799.26
466.602	20750.7
