Data from USB4F104151__110__14-18-14-795.txt Node

Date: Thu Mar 13 14:18:14 EDT 2025
User: louis
Spectrometer: USB4F10415
Trigger mode: 4
Integration Time (sec): 2.000000E-2
Scans to average: 1
Electric dark correction enabled: true
Nonlinearity correction enabled: false
Boxcar width: 0
XAxis mode: Wavelengths
Number of Pixels in Spectrum: 3648
>>>>>Begin Spectral Data<<<<<
178.204	-120.49
178.424	-120.49
178.644	-120.49
178.864	-122.54
179.084	-128.68
179.304	55.64
179.524	-20.14
179.744	-11.95
179.964	-44.71
180.184	55.64
180.404	-16.04
180.624	-32.43
180.844	10.58
181.064	-46.76
181.283	29.01
181.503	-18.09
181.723	39.25
181.943	-9.9
182.163	31.06
182.383	2.39
182.602	22.87
182.822	86.36
183.042	22.87
183.262	-22.19
183.482	-9.9
183.701	59.73
183.921	-46.76
184.141	22.87
184.361	20.82
184.58	10.58
184.8	18.77
185.02	43.35
185.239	96.6
185.459	22.87
185.679	-13.99
185.898	-22.19
186.118	86.36
186.338	4.44
186.557	-16.04
186.777	-52.91
186.997	45.4
187.216	-11.95
187.436	69.97
187.655	-16.04
187.875	92.5
188.095	86.36
188.314	125.27
188.534	16.73
188.753	24.92
188.973	61.78
189.192	69.97
189.412	-30.38
189.631	-11.95
189.851	-34.47
190.07	63.83
190.29	35.16
190.509	51.54
190.729	39.25
190.948	69.97
191.168	135.51
191.387	74.07
191.607	18.77
191.826	43.35
192.045	59.73
192.265	37.2
192.484	-9.9
192.704	2.39
192.923	35.16
193.142	143.7
193.362	53.59
193.581	43.35
193.8	45.4
194.02	-3.75
194.239	29.01
194.458	2.39
194.678	69.97
194.897	72.02
195.116	2.39
195.335	-22.19
195.555	92.5
195.774	-5.8
195.993	59.73
196.212	76.12
196.432	-54.95
196.651	18.77
196.87	55.64
197.089	12.63
197.308	22.87
197.528	43.35
197.747	-18.09
197.966	-38.57
198.185	121.17
198.404	43.35
198.623	-13.99
198.842	69.97
199.062	76.12
199.281	69.97
199.5	12.63
199.719	26.96
199.938	63.83
200.157	31.06
200.376	-85.67
200.595	37.2
200.814	26.96
201.033	8.53
201.252	100.69
201.471	74.07
201.69	24.92
201.909	22.87
202.128	69.97
202.347	102.74
202.566	4.44
202.785	35.16
203.004	45.4
203.223	39.25
203.442	22.87
203.661	35.16
203.879	-59.05
204.098	-16.04
204.317	-18.09
204.536	35.16
204.755	10.58
204.974	29.01
205.193	4.44
205.411	51.54
205.63	41.3
205.849	22.87
206.068	-13.99
206.287	-5.8
206.505	18.77
206.724	29.01
206.943	20.82
207.162	4.44
207.381	29.01
207.599	12.63
207.818	20.82
208.037	29.01
208.255	12.63
208.474	51.54
208.693	43.35
208.911	76.12
209.13	-5.8
209.349	22.87
209.567	-3.75
209.786	112.98
210.005	37.2
210.223	86.36
210.442	-30.38
210.661	61.78
210.879	-28.33
211.098	6.49
211.316	86.36
211.535	80.21
211.753	-28.33
211.972	61.78
212.191	72.02
212.409	43.35
212.628	53.59
212.846	12.63
213.065	49.49
213.283	80.21
213.502	-65.19
213.72	61.78
213.938	-3.75
214.157	47.44
214.375	12.63
214.594	4.44
214.812	45.4
215.031	-11.95
215.249	55.64
215.467	-5.8
215.686	43.35
215.904	65.88
216.122	18.77
216.341	92.5
216.559	41.3
216.778	-11.95
216.996	106.84
217.214	-11.95
217.432	-50.86
217.651	16.73
217.869	8.53
218.087	-3.75
218.306	20.82
218.524	18.77
218.742	80.21
218.96	26.96
219.179	-38.57
219.397	119.12
219.615	-16.04
219.833	-13.99
220.051	10.58
220.27	88.4
220.488	49.49
220.706	88.4
220.924	10.58
221.142	117.08
221.36	59.73
221.578	-5.8
221.796	18.77
222.015	51.54
222.233	-38.57
222.451	57.68
222.669	22.87
222.887	18.77
223.105	51.54
223.323	59.73
223.541	-44.71
223.759	53.59
223.977	55.64
224.195	-18.09
224.413	63.83
224.631	29.01
224.849	-11.95
225.067	92.5
225.285	49.49
225.503	20.82
225.721	-38.57
225.939	43.35
226.157	16.73
226.375	119.12
226.592	78.16
226.81	-9.9
227.028	8.53
227.246	-22.19
227.464	26.96
227.682	72.02
227.9	67.92
228.117	2.39
228.335	-11.95
228.553	35.16
228.771	59.73
228.989	18.77
229.206	18.77
229.424	-9.9
229.642	16.73
229.86	6.49
230.077	92.5
230.295	63.83
230.513	76.12
230.731	100.69
230.948	88.4
231.166	94.55
231.384	-13.99
231.601	14.68
231.819	22.87
232.037	6.49
232.254	16.73
232.472	10.58
232.689	31.06
232.907	26.96
233.125	-50.86
233.342	47.44
233.56	-30.38
233.777	69.97
233.995	-24.23
234.213	65.88
234.43	-1.71
234.648	6.49
234.865	-13.99
235.083	110.93
235.3	51.54
235.518	-7.85
235.735	43.35
235.953	61.78
236.17	53.59
236.388	31.06
236.605	18.77
236.822	39.25
237.04	41.3
237.257	-9.9
237.475	-11.95
237.692	0.34
237.909	67.92
238.127	-13.99
238.344	10.58
238.562	39.25
238.779	-65.19
238.996	26.96
239.214	12.63
239.431	37.2
239.648	29.01
239.865	26.96
240.083	47.44
240.3	-26.28
240.517	53.59
240.735	35.16
240.952	24.92
241.169	112.98
241.386	-22.19
241.603	92.5
241.821	-3.75
242.038	59.73
242.255	51.54
242.472	-13.99
242.689	108.88
242.907	26.96
243.124	35.16
243.341	-7.85
243.558	16.73
243.775	12.63
243.992	-71.34
244.209	92.5
244.426	26.96
244.643	74.07
244.86	-52.91
245.078	-30.38
245.295	24.92
245.512	59.73
245.729	-24.23
245.946	26.96
246.163	-1.71
246.38	6.49
246.597	35.16
246.814	76.12
247.031	4.44
247.248	59.73
247.464	-46.76
247.681	18.77
247.898	63.83
248.115	20.82
248.332	26.96
248.549	12.63
248.766	72.02
248.983	153.94
249.2	72.02
249.417	143.7
249.633	51.54
249.85	12.63
250.067	22.87
250.284	65.88
250.501	4.44
250.717	-28.33
250.934	16.73
251.151	39.25
251.368	110.93
251.585	18.77
251.801	-5.8
252.018	-13.99
252.235	-7.85
252.451	-13.99
252.668	51.54
252.885	78.16
253.102	26.96
253.318	63.83
253.535	100.69
253.752	14.68
253.968	26.96
254.185	-34.47
254.401	-75.43
254.618	2.39
254.835	20.82
255.051	61.78
255.268	94.55
255.484	59.73
255.701	10.58
255.917	20.82
256.134	26.96
256.351	59.73
256.567	63.83
256.784	37.2
257	-61.1
257.217	84.31
257.433	88.4
257.65	80.21
257.866	108.88
258.082	16.73
258.299	-3.75
258.515	31.06
258.732	69.97
258.948	20.82
259.165	12.63
259.381	-16.04
259.597	129.36
259.814	-54.95
260.03	22.87
260.246	35.16
260.463	65.88
260.679	22.87
260.895	31.06
261.112	35.16
261.328	-5.8
261.544	92.5
261.761	69.97
261.977	-9.9
262.193	55.64
262.409	4.44
262.626	55.64
262.842	45.4
263.058	43.35
263.274	51.54
263.49	-11.95
263.707	59.73
263.923	65.88
264.139	6.49
264.355	-5.8
264.571	6.49
264.787	26.96
265.004	59.73
265.22	69.97
265.436	72.02
265.652	6.49
265.868	10.58
266.084	-57
266.3	8.53
266.516	-42.67
266.732	-20.14
266.948	-71.34
267.164	29.01
267.38	102.74
267.596	8.53
267.812	35.16
268.028	55.64
268.244	22.87
268.46	29.01
268.676	-22.19
268.892	-30.38
269.108	45.4
269.324	2.39
269.54	24.92
269.756	76.12
269.972	33.11
270.188	43.35
270.403	-28.33
270.619	29.01
270.835	53.59
271.051	110.93
271.267	-50.86
271.483	-3.75
271.698	53.59
271.914	39.25
272.13	47.44
272.346	53.59
272.562	57.68
272.777	37.2
272.993	26.96
273.209	45.4
273.425	63.83
273.64	-5.8
273.856	92.5
274.072	31.06
274.287	-22.19
274.503	18.77
274.719	53.59
274.934	-5.8
275.15	-40.62
275.366	12.63
275.581	-1.71
275.797	37.2
276.012	24.92
276.228	29.01
276.444	35.16
276.659	94.55
276.875	10.58
277.09	-5.8
277.306	10.58
277.521	106.84
277.737	-32.43
277.952	59.73
278.168	-1.71
278.383	80.21
278.599	-9.9
278.814	-52.91
279.03	88.4
279.245	-9.9
279.461	-24.23
279.676	96.6
279.892	-5.8
280.107	-32.43
280.322	37.2
280.538	96.6
280.753	59.73
280.969	35.16
281.184	47.44
281.399	49.49
281.615	84.31
281.83	69.97
282.045	-52.91
282.26	-26.28
282.476	-57
282.691	72.02
282.906	18.77
283.122	43.35
283.337	35.16
283.552	88.4
283.767	12.63
283.983	72.02
284.198	49.49
284.413	119.12
284.628	4.44
284.843	35.16
285.058	29.01
285.274	80.21
285.489	4.44
285.704	84.31
285.919	67.92
286.134	-13.99
286.349	18.77
286.564	14.68
286.779	59.73
286.995	43.35
287.21	12.63
287.425	39.25
287.64	26.96
287.855	-5.8
288.07	-16.04
288.285	-20.14
288.5	-11.95
288.715	-22.19
288.93	12.63
289.145	0.34
289.36	-22.19
289.575	-1.71
289.79	47.44
290.004	2.39
290.219	106.84
290.434	-9.9
290.649	-67.24
290.864	59.73
291.079	10.58
291.294	10.58
291.509	65.88
291.724	22.87
291.938	80.21
292.153	72.02
292.368	2.39
292.583	-44.71
292.798	117.08
293.012	22.87
293.227	26.96
293.442	29.01
293.657	67.92
293.871	37.2
294.086	53.59
294.301	59.73
294.516	63.83
294.73	24.92
294.945	2.39
295.16	-5.8
295.374	76.12
295.589	51.54
295.804	-38.57
296.018	12.63
296.233	37.2
296.447	102.74
296.662	-100.01
296.877	106.84
297.091	63.83
297.306	6.49
297.52	-3.75
297.735	53.59
297.949	22.87
298.164	76.12
298.378	14.68
298.593	-54.95
298.807	61.78
299.022	-13.99
299.236	84.31
299.451	67.92
299.665	59.73
299.88	51.54
300.094	35.16
300.309	59.73
300.523	51.54
300.737	37.2
300.952	51.54
301.166	4.44
301.381	90.45
301.595	0.34
301.809	26.96
302.024	33.11
302.238	-18.09
302.452	88.4
302.667	12.63
302.881	67.92
303.095	92.5
303.309	6.49
303.524	-42.67
303.738	84.31
303.952	47.44
304.166	92.5
304.381	29.01
304.595	24.92
304.809	16.73
305.023	2.39
305.237	-22.19
305.452	39.25
305.666	76.12
305.88	98.64
306.094	41.3
306.308	45.4
306.522	59.73
306.736	59.73
306.95	104.79
307.164	18.77
307.379	41.3
307.593	45.4
307.807	94.55
308.021	84.31
308.235	18.77
308.449	-73.39
308.663	35.16
308.877	61.78
309.091	35.16
309.305	135.51
309.519	-20.14
309.733	63.83
309.947	-36.52
310.161	92.5
310.374	16.73
310.588	55.64
310.802	-28.33
311.016	69.97
311.23	55.64
311.444	59.73
311.658	20.82
311.872	92.5
312.085	45.4
312.299	76.12
312.513	39.25
312.727	18.77
312.941	-11.95
313.154	8.53
313.368	55.64
313.582	84.31
313.796	137.56
314.009	22.87
314.223	117.08
314.437	125.27
314.651	-9.9
314.864	18.77
315.078	2.39
315.292	80.21
315.505	14.68
315.719	45.4
315.933	-20.14
316.146	84.31
316.36	-38.57
316.573	61.78
316.787	6.49
317.001	22.87
317.214	35.16
317.428	18.77
317.641	2.39
317.855	69.97
318.068	108.88
318.282	-20.14
318.495	45.4
318.709	53.59
318.922	-13.99
319.136	63.83
319.349	104.79
319.563	-3.75
319.776	69.97
319.99	45.4
320.203	43.35
320.417	39.25
320.63	26.96
320.843	84.31
321.057	53.59
321.27	59.73
321.483	86.36
321.697	63.83
321.91	-30.38
322.124	72.02
322.337	35.16
322.55	100.69
322.763	4.44
322.977	119.12
323.19	61.78
323.403	92.5
323.617	43.35
323.83	72.02
324.043	-77.48
324.256	2.39
324.469	-1.71
324.683	26.96
324.896	129.36
325.109	69.97
325.322	-44.71
325.535	41.3
325.748	10.58
325.962	31.06
326.175	18.77
326.388	-1.71
326.601	108.88
326.814	35.16
327.027	45.4
327.24	151.89
327.453	26.96
327.666	63.83
327.879	74.07
328.092	-5.8
328.305	84.31
328.518	12.63
328.731	67.92
328.944	59.73
329.157	-20.14
329.37	35.16
329.583	190.8
329.796	20.82
330.009	35.16
330.222	-9.9
330.435	37.2
330.648	117.08
330.861	67.92
331.073	65.88
331.286	78.16
331.499	94.55
331.712	94.55
331.925	-69.29
332.138	39.25
332.35	51.54
332.563	-5.8
332.776	82.26
332.989	0.34
333.202	26.96
333.414	20.82
333.627	108.88
333.84	-13.99
334.053	43.35
334.265	-1.71
334.478	-34.47
334.691	63.83
334.903	86.36
335.116	108.88
335.329	2.39
335.541	65.88
335.754	78.16
335.966	76.12
336.179	0.34
336.392	84.31
336.604	37.2
336.817	55.64
337.029	6.49
337.242	84.31
337.454	72.02
337.667	63.83
337.88	24.92
338.092	86.36
338.305	14.68
338.517	35.16
338.729	53.59
338.942	61.78
339.154	37.2
339.367	35.16
339.579	67.92
339.792	-5.8
340.004	55.64
340.217	39.25
340.429	112.98
340.641	69.97
340.854	78.16
341.066	2.39
341.278	39.25
341.491	133.46
341.703	55.64
341.915	88.4
342.128	72.02
342.34	82.26
342.552	45.4
342.764	67.92
342.977	117.08
343.189	72.02
343.401	92.5
343.613	67.92
343.826	57.68
344.038	-38.57
344.25	18.77
344.462	14.68
344.674	84.31
344.886	29.01
345.099	76.12
345.311	14.68
345.523	43.35
345.735	29.01
345.947	92.5
346.159	26.96
346.371	61.78
346.583	51.54
346.795	18.77
347.007	121.17
347.219	45.4
347.431	33.11
347.643	67.92
347.855	-57
348.067	72.02
348.279	33.11
348.491	74.07
348.703	35.16
348.915	-5.8
349.127	59.73
349.339	26.96
349.551	-28.33
349.763	55.64
349.975	16.73
350.187	24.92
350.399	-1.71
350.61	61.78
350.822	29.01
351.034	-3.75
351.246	43.35
351.458	59.73
351.669	55.64
351.881	45.4
352.093	67.92
352.305	26.96
352.517	12.63
352.728	96.6
352.94	53.59
353.152	26.96
353.363	14.68
353.575	16.73
353.787	53.59
353.999	59.73
354.21	51.54
354.422	-9.9
354.633	29.01
354.845	74.07
355.057	12.63
355.268	33.11
355.48	102.74
355.692	78.16
355.903	16.73
356.115	18.77
356.326	35.16
356.538	20.82
356.749	31.06
356.961	108.88
357.172	22.87
357.384	22.87
357.595	84.31
357.807	26.96
358.018	26.96
358.23	31.06
358.441	92.5
358.653	-9.9
358.864	55.64
359.075	53.59
359.287	24.92
359.498	18.77
359.709	43.35
359.921	10.58
360.132	108.88
360.344	37.2
360.555	31.06
360.766	80.21
360.977	24.92
361.189	98.64
361.4	74.07
361.611	86.36
361.823	57.68
362.034	37.2
362.245	45.4
362.456	59.73
362.667	35.16
362.879	117.08
363.09	76.12
363.301	69.97
363.512	76.12
363.723	55.64
363.935	76.12
364.146	84.31
364.357	18.77
364.568	26.96
364.779	12.63
364.99	53.59
365.201	94.55
365.412	57.68
365.623	55.64
365.834	86.36
366.045	96.6
366.256	117.08
366.467	49.49
366.678	102.74
366.889	55.64
367.1	67.92
367.311	145.75
367.522	-5.8
367.733	-20.14
367.944	117.08
368.155	63.83
368.366	53.59
368.577	67.92
368.788	45.4
368.999	-34.47
369.209	51.54
369.42	41.3
369.631	82.26
369.842	47.44
370.053	29.01
370.264	65.88
370.474	-1.71
370.685	-20.14
370.896	14.68
371.107	67.92
371.317	39.25
371.528	31.06
371.739	92.5
371.95	90.45
372.16	110.93
372.371	2.39
372.582	51.54
372.792	104.79
373.003	74.07
373.214	82.26
373.424	76.12
373.635	2.39
373.846	110.93
374.056	45.4
374.267	18.77
374.477	76.12
374.688	37.2
374.898	-5.8
375.109	16.73
375.319	47.44
375.53	33.11
375.74	31.06
375.951	12.63
376.161	76.12
376.372	67.92
376.582	76.12
376.793	74.07
377.003	-11.95
377.214	78.16
377.424	96.6
377.635	35.16
377.845	26.96
378.055	121.17
378.266	51.54
378.476	84.31
378.686	45.4
378.897	84.31
379.107	110.93
379.317	-5.8
379.528	72.02
379.738	45.4
379.948	12.63
380.158	92.5
380.369	31.06
380.579	29.01
380.789	20.82
380.999	88.4
381.21	112.98
381.42	135.51
381.63	18.77
381.84	121.17
382.05	67.92
382.261	94.55
382.471	104.79
382.681	6.49
382.891	94.55
383.101	67.92
383.311	2.39
383.521	43.35
383.731	55.64
383.941	45.4
384.151	100.69
384.361	49.49
384.571	112.98
384.781	100.69
384.991	127.32
385.201	86.36
385.411	92.5
385.621	112.98
385.831	117.08
386.041	119.12
386.251	43.35
386.461	121.17
386.671	61.78
386.881	110.93
387.091	24.92
387.301	59.73
387.511	35.16
387.72	158.03
387.93	45.4
388.14	24.92
388.35	33.11
388.56	76.12
388.769	55.64
388.979	96.6
389.189	86.36
389.399	67.92
389.609	35.16
389.818	127.32
390.028	104.79
390.238	158.03
390.447	-5.8
390.657	78.16
390.867	67.92
391.076	29.01
391.286	74.07
391.496	51.54
391.705	170.32
391.915	147.8
392.125	86.36
392.334	76.12
392.544	61.78
392.753	135.51
392.963	67.92
393.172	39.25
393.382	51.54
393.591	180.56
393.801	143.7
394.01	151.89
394.22	92.5
394.429	127.32
394.639	76.12
394.848	86.36
395.058	67.92
395.267	26.96
395.477	92.5
395.686	33.11
395.895	135.51
396.105	164.18
396.314	110.93
396.524	72.02
396.733	125.27
396.942	121.17
397.152	104.79
397.361	162.13
397.57	145.75
397.78	76.12
397.989	115.03
398.198	67.92
398.407	160.08
398.617	125.27
398.826	98.64
399.035	149.84
399.244	151.89
399.453	117.08
399.663	160.08
399.872	117.08
400.081	94.55
400.29	147.8
400.499	162.13
400.708	147.8
400.917	174.42
401.127	149.84
401.336	119.12
401.545	237.91
401.754	76.12
401.963	190.8
402.172	123.22
402.381	207.19
402.59	110.93
402.799	178.51
403.008	170.32
403.217	84.31
403.426	215.38
403.635	174.42
403.844	180.56
404.053	147.8
404.262	170.32
404.471	178.51
404.68	174.42
404.888	182.61
405.097	201.04
405.306	151.89
405.515	194.9
405.724	203.09
405.933	297.3
406.142	211.28
406.35	215.38
406.559	289.1
406.768	285.01
406.977	272.72
407.185	274.77
407.394	313.68
407.603	313.68
407.812	297.3
408.02	325.97
408.229	373.07
408.438	299.34
408.646	315.73
408.855	338.26
409.064	289.1
409.272	266.58
409.481	407.89
409.69	368.98
409.898	344.4
410.107	485.71
410.315	432.46
410.524	452.94
410.733	428.37
410.941	512.33
411.15	452.94
411.358	575.82
411.567	577.87
411.775	510.29
411.984	561.48
412.192	610.64
412.401	594.25
412.609	616.78
412.818	700.75
413.026	694.6
413.234	670.03
413.443	667.98
413.651	790.86
413.86	803.15
414.068	842.06
414.276	803.15
414.485	864.58
414.693	1009.99
414.901	977.22
415.11	997.7
415.318	973.13
415.526	1083.72
415.734	1091.91
415.943	1122.63
416.151	1134.92
416.359	1173.83
416.567	1175.88
416.776	1274.18
416.984	1349.95
417.192	1395.01
417.4	1313.09
417.608	1352
417.817	1444.16
418.025	1517.89
418.233	1636.67
418.441	1587.52
418.649	1653.05
418.857	1874.23
419.065	1845.56
419.273	1851.71
419.481	2019.64
419.689	2038.07
419.897	2081.08
420.105	2052.41
420.313	2171.19
420.521	2261.3
420.729	2320.69
420.937	2464.05
421.145	2414.9
421.353	2597.17
421.561	2656.56
421.769	2775.34
421.977	2877.74
422.185	2851.11
422.393	3096.87
422.601	3127.59
422.809	3215.65
423.017	3225.89
423.224	3393.83
423.432	3387.68
423.64	3440.93
423.848	3926.3
424.056	3797.28
424.263	3997.98
424.471	4081.94
424.679	4145.43
424.887	4440.34
425.094	4458.77
425.302	4407.57
425.51	4647.18
425.718	4706.57
425.925	4808.97
426.133	4995.34
426.341	5155.08
426.548	5550.34
426.756	5519.62
426.964	5648.64
427.171	5804.28
427.379	5990.65
427.586	6109.43
427.794	6365.43
428.001	6662.38
428.209	6785.26
428.417	6705.39
428.624	7276.77
428.832	7354.6
429.039	7176.42
429.247	7250.15
429.454	7772.38
429.662	8333.53
429.869	8122.59
430.076	8493.27
430.284	8216.79
430.491	8618.19
430.699	9013.45
430.906	9238.73
431.114	9128.14
431.321	9459.91
431.528	9693.38
431.736	10244.28
431.943	10784.94
432.15	10401.97
432.358	10537.14
432.565	11286.7
432.772	11036.84
432.979	11690.15
433.187	11952.29
433.394	11856.03
433.601	12814.48
433.808	12767.38
434.016	12810.39
434.223	13101.2
434.43	13969.54
434.637	13924.48
434.844	14569.59
435.052	14946.42
435.259	14895.22
435.466	14854.26
435.673	14727.28
435.88	15655.01
436.087	16656.47
436.294	16447.58
436.501	16124
436.708	16412.76
436.915	17377.36
437.122	17967.17
437.329	17567.82
437.537	18241.6
437.743	18694.2
437.95	18364.48
438.157	19515.44
438.364	20133.92
438.571	20084.77
438.778	20389.92
438.985	21694.47
439.192	20989.97
439.399	21782.54
439.606	21260.3
439.813	22587.39
440.02	23848.94
440.227	23623.66
440.433	23246.83
440.64	23898.09
440.847	23736.3
441.054	24715.23
441.261	26365.89
441.467	25862.09
441.674	26159.05
441.881	27287.48
442.088	26949.56
442.294	26933.18
442.501	27396.02
442.708	28002.22
442.914	29120.41
443.121	30123.91
443.328	29788.05
443.534	31618.93
443.741	30291.85
443.948	30035.85
444.154	32513.89
444.361	32247.66
444.568	32720.74
444.774	32128.88
444.981	32769.89
445.187	33587.03
445.394	35245.88
445.6	34637.64
445.807	37941.01
446.013	36185.9
446.22	36362.03
446.426	38344.46
446.633	38682.38
446.839	39964.4
447.046	38375.18
447.252	40316.65
447.459	40498.92
447.665	40277.74
447.871	41666.27
448.078	43417.28
448.284	41637.59
448.491	42888.9
448.697	44291.76
448.903	45098.66
449.11	45020.84
449.316	44533.42
449.522	45371.04
449.728	46495.38
449.935	46818.95
450.141	46522
450.347	47615.61
450.553	46087.83
450.76	46978.7
450.966	48467.57
451.172	47779.45
451.378	48936.55
451.584	47808.12
451.791	49167.98
451.997	49262.18
452.203	49800.8
452.409	49970.78
452.615	49815.13
452.821	48184.95
453.027	47681.15
453.233	49806.94
453.44	47812.22
453.646	48117.37
453.852	48750.19
454.058	49620.58
454.264	47677.05
454.47	48965.23
454.676	47361.67
454.882	49018.47
455.088	45115.04
455.294	45817.5
455.5	46251.67
455.705	46747.28
455.911	45258.4
456.117	44506.8
456.323	44170.93
456.529	41674.46
456.735	43495.1
456.941	42231.5
457.147	41828.06
457.352	40738.54
457.558	40066.8
457.764	40244.98
457.97	39372.54
458.176	38772.49
458.381	38405.9
458.587	36925.22
458.793	36816.68
458.999	34875.2
459.204	37433.11
459.41	36501.29
459.616	34178.89
459.821	33920.85
460.027	33816.4
460.233	33392.47
460.438	31907.69
460.644	31799.15
460.85	30572.42
461.055	30078.86
461.261	29888.4
461.466	27824.04
461.672	27054.01
461.878	29097.88
462.083	27004.86
462.289	26386.37
462.494	26290.12
462.7	24922.07
462.905	24217.57
463.111	25069.53
463.316	25524.18
463.522	24635.36
463.727	24477.66
463.932	24817.63
464.138	24653.79
464.343	24649.69
464.549	23969.77
464.754	24510.43
464.959	24258.53
465.165	24209.38
465.37	23437.3
465.575	22726.65
465.781	23336.95
465.986	23484.4
466.191	22497.28
466.397	22274.05
466.602	21288.98
466.807	22155.27
467.012	22114.31
467.218	22147.08
