Data from USB4F104151__37__14-16-40-289.txt Node

Date: Thu Mar 13 14:16:40 EDT 2025
User: louis
Spectrometer: USB4F10415
Trigger mode: 4
Integration Time (sec): 2.000000E-2
Scans to average: 1
Electric dark correction enabled: true
Nonlinearity correction enabled: false
Boxcar width: 0
XAxis mode: Wavelengths
Number of Pixels in Spectrum: 3648
>>>>>Begin Spectral Data<<<<<
178.204	-95.06
178.424	-95.06
178.644	-95.06
178.864	-119.64
179.084	-72.53
179.304	-25.43
179.524	-27.48
179.744	-29.52
179.964	50.35
180.184	-17.24
180.404	21.67
180.624	15.53
180.844	-9.05
181.064	-13.14
181.283	-9.05
181.503	-4.95
181.723	48.3
181.943	31.91
182.163	87.21
182.383	13.48
182.602	36.01
182.822	27.82
183.042	13.48
183.262	-21.33
183.482	60.59
183.701	-52.05
183.921	36.01
184.141	21.67
184.361	64.68
184.58	-39.76
184.8	54.44
185.02	-21.33
185.239	52.39
185.459	29.87
185.679	11.43
185.898	-66.39
186.118	76.97
186.338	-23.38
186.557	13.48
186.777	19.63
186.997	109.74
187.216	85.16
187.436	46.25
187.655	17.58
187.875	111.78
188.095	85.16
188.314	74.92
188.534	19.63
188.753	89.26
188.973	11.43
189.192	101.55
189.412	54.44
189.631	17.58
189.851	42.15
190.07	111.78
190.29	-9.05
190.509	21.67
190.729	7.34
190.948	27.82
191.168	144.55
191.387	48.3
191.607	-39.76
191.826	44.2
192.045	48.3
192.265	93.35
192.484	36.01
192.704	64.68
192.923	23.72
193.142	76.97
193.362	40.11
193.581	95.4
193.8	60.59
194.02	74.92
194.239	85.16
194.458	21.67
194.678	-9.05
194.897	3.24
195.116	93.35
195.335	33.96
195.555	64.68
195.774	-37.72
195.993	27.82
196.212	25.77
196.432	19.63
196.651	7.34
196.87	33.96
197.089	152.74
197.308	46.25
197.528	25.77
197.747	-19.29
197.966	99.5
198.185	9.39
198.404	25.77
198.623	-21.33
198.842	40.11
199.062	66.73
199.281	79.02
199.5	19.63
199.719	36.01
199.938	9.39
200.157	48.3
200.376	-19.29
200.595	81.07
200.814	76.97
201.033	29.87
201.252	72.87
201.471	76.97
201.69	72.87
201.909	87.21
202.128	101.55
202.347	68.78
202.566	27.82
202.785	68.78
203.004	-86.87
203.223	68.78
203.442	21.67
203.661	64.68
203.879	19.63
204.098	54.44
204.317	21.67
204.536	68.78
204.755	27.82
204.974	21.67
205.193	101.55
205.411	126.12
205.63	7.34
205.849	93.35
206.068	-7
206.287	-23.38
206.505	64.68
206.724	-19.29
206.943	79.02
207.162	105.64
207.381	36.01
207.599	5.29
207.818	105.64
208.037	76.97
208.255	-39.76
208.474	21.67
208.693	72.87
208.911	62.63
209.13	7.34
209.349	97.45
209.567	-52.05
209.786	70.83
210.005	115.88
210.223	-4.95
210.442	-39.76
210.661	-15.19
210.879	36.01
211.098	21.67
211.316	13.48
211.535	38.06
211.753	52.39
211.972	60.59
212.191	27.82
212.409	-17.24
212.628	60.59
212.846	-7
213.065	62.63
213.283	44.2
213.502	58.54
213.72	150.7
213.938	-13.14
214.157	44.2
214.375	79.02
214.594	27.82
214.812	64.68
215.031	138.41
215.249	101.55
215.467	29.87
215.686	60.59
215.904	64.68
216.122	38.06
216.341	44.2
216.559	-0.85
216.778	85.16
216.996	44.2
217.214	60.59
217.432	-62.29
217.651	-0.85
217.869	62.63
218.087	122.02
218.306	46.25
218.524	21.67
218.742	36.01
218.96	109.74
219.179	36.01
219.397	15.53
219.615	46.25
219.833	52.39
220.051	99.5
220.27	140.46
220.488	38.06
220.706	81.07
220.924	68.78
221.142	11.43
221.36	48.3
221.578	79.02
221.796	97.45
222.015	23.72
222.233	42.15
222.451	70.83
222.669	-29.52
222.887	21.67
223.105	23.72
223.323	-4.95
223.541	-17.24
223.759	44.2
223.977	-0.85
224.195	27.82
224.413	72.87
224.631	79.02
224.849	109.74
225.067	50.35
225.285	25.77
225.503	64.68
225.721	-45.91
225.939	64.68
226.157	3.24
226.375	64.68
226.592	-9.05
226.81	48.3
227.028	46.25
227.246	85.16
227.464	19.63
227.682	76.97
227.9	60.59
228.117	89.26
228.335	183.46
228.553	33.96
228.771	68.78
228.989	29.87
229.206	27.82
229.424	-13.14
229.642	44.2
229.86	-11.09
230.077	95.4
230.295	27.82
230.513	44.2
230.731	70.83
230.948	113.83
231.166	21.67
231.384	48.3
231.601	-17.24
231.819	105.64
232.037	31.91
232.254	-17.24
232.472	40.11
232.689	52.39
232.907	40.11
233.125	3.24
233.342	64.68
233.56	48.3
233.777	15.53
233.995	21.67
234.213	38.06
234.43	46.25
234.648	81.07
234.865	52.39
235.083	89.26
235.3	21.67
235.518	5.29
235.735	70.83
235.953	169.13
236.17	11.43
236.388	50.35
236.605	46.25
236.822	122.02
237.04	13.48
237.257	48.3
237.475	40.11
237.692	-19.29
237.909	3.24
238.127	44.2
238.344	44.2
238.562	72.87
238.779	21.67
238.996	3.24
239.214	60.59
239.431	87.21
239.648	70.83
239.865	74.92
240.083	38.06
240.3	70.83
240.517	13.48
240.735	68.78
240.952	109.74
241.169	171.18
241.386	79.02
241.603	44.2
241.821	1.19
242.038	54.44
242.255	93.35
242.472	27.82
242.689	23.72
242.907	7.34
243.124	29.87
243.341	38.06
243.558	21.67
243.775	46.25
243.992	-52.05
244.209	70.83
244.426	162.98
244.643	31.91
244.86	44.2
245.078	-68.44
245.295	3.24
245.512	113.83
245.729	-15.19
245.946	60.59
246.163	72.87
246.38	46.25
246.597	68.78
246.814	15.53
247.031	11.43
247.248	134.31
247.464	3.24
247.681	25.77
247.898	19.63
248.115	93.35
248.332	-29.52
248.549	50.35
248.766	95.4
248.983	54.44
249.2	17.58
249.417	52.39
249.633	46.25
249.85	38.06
250.067	52.39
250.284	48.3
250.501	-7
250.717	9.39
250.934	11.43
251.151	72.87
251.368	60.59
251.585	11.43
251.801	44.2
252.018	56.49
252.235	23.72
252.451	-9.05
252.668	40.11
252.885	46.25
253.102	36.01
253.318	44.2
253.535	85.16
253.752	-13.14
253.968	13.48
254.185	11.43
254.401	111.78
254.618	87.21
254.835	13.48
255.051	134.31
255.268	56.49
255.484	54.44
255.701	21.67
255.917	87.21
256.134	-43.86
256.351	19.63
256.567	17.58
256.784	62.63
257	5.29
257.217	66.73
257.433	101.55
257.65	68.78
257.866	46.25
258.082	-4.95
258.299	68.78
258.515	-25.43
258.732	29.87
258.948	17.58
259.165	122.02
259.381	126.12
259.597	19.63
259.814	42.15
260.03	103.59
260.246	36.01
260.463	152.74
260.679	105.64
260.895	7.34
261.112	33.96
261.328	72.87
261.544	36.01
261.761	144.55
261.977	19.63
262.193	111.78
262.409	48.3
262.626	36.01
262.842	95.4
263.058	1.19
263.274	48.3
263.49	-37.72
263.707	54.44
263.923	48.3
264.139	50.35
264.355	99.5
264.571	68.78
264.787	44.2
265.004	-2.9
265.22	33.96
265.436	40.11
265.652	52.39
265.868	87.21
266.084	-2.9
266.3	50.35
266.516	5.29
266.732	36.01
266.948	33.96
267.164	31.91
267.38	11.43
267.596	-19.29
267.812	99.5
268.028	31.91
268.244	23.72
268.46	60.59
268.676	42.15
268.892	97.45
269.108	40.11
269.324	7.34
269.54	23.72
269.756	74.92
269.972	-21.33
270.188	-21.33
270.403	3.24
270.619	60.59
270.835	23.72
271.051	46.25
271.267	36.01
271.483	99.5
271.698	42.15
271.914	19.63
272.13	46.25
272.346	29.87
272.562	68.78
272.777	85.16
272.993	111.78
273.209	-17.24
273.425	85.16
273.64	44.2
273.856	27.82
274.072	52.39
274.287	-4.95
274.503	81.07
274.719	60.59
274.934	56.49
275.15	1.19
275.366	44.2
275.581	-9.05
275.797	-27.48
276.012	52.39
276.228	-33.62
276.444	76.97
276.659	72.87
276.875	-19.29
277.09	46.25
277.306	46.25
277.521	103.59
277.737	79.02
277.952	50.35
278.168	11.43
278.383	56.49
278.599	93.35
278.814	11.43
279.03	-37.72
279.245	48.3
279.461	83.11
279.676	62.63
279.892	13.48
280.107	7.34
280.322	3.24
280.538	-9.05
280.753	150.7
280.969	111.78
281.184	52.39
281.399	158.89
281.615	58.54
281.83	27.82
282.045	27.82
282.26	3.24
282.476	-7
282.691	101.55
282.906	158.89
283.122	1.19
283.337	13.48
283.552	31.91
283.767	29.87
283.983	150.7
284.198	38.06
284.413	42.15
284.628	103.59
284.843	31.91
285.058	72.87
285.274	52.39
285.489	-4.95
285.704	13.48
285.919	36.01
286.134	70.83
286.349	68.78
286.564	54.44
286.779	46.25
286.995	81.07
287.21	29.87
287.425	44.2
287.64	-2.9
287.855	56.49
288.07	64.68
288.285	62.63
288.5	48.3
288.715	38.06
288.93	27.82
289.145	-11.09
289.36	85.16
289.575	60.59
289.79	93.35
290.004	68.78
290.219	44.2
290.434	-21.33
290.649	-25.43
290.864	60.59
291.079	-11.09
291.294	27.82
291.509	11.43
291.724	-7
291.938	46.25
292.153	64.68
292.368	36.01
292.583	3.24
292.798	68.78
293.012	50.35
293.227	11.43
293.442	-4.95
293.657	21.67
293.871	134.31
294.086	142.5
294.301	68.78
294.516	111.78
294.73	60.59
294.945	66.73
295.16	85.16
295.374	60.59
295.589	50.35
295.804	11.43
296.018	15.53
296.233	62.63
296.447	58.54
296.662	-27.48
296.877	52.39
297.091	56.49
297.306	31.91
297.52	-4.95
297.735	68.78
297.949	38.06
298.164	93.35
298.378	27.82
298.593	-21.33
298.807	-62.29
299.022	101.55
299.236	54.44
299.451	9.39
299.665	72.87
299.88	60.59
300.094	29.87
300.309	11.43
300.523	79.02
300.737	44.2
300.952	31.91
301.166	95.4
301.381	44.2
301.595	40.11
301.809	54.44
302.024	56.49
302.238	27.82
302.452	56.49
302.667	99.5
302.881	99.5
303.095	48.3
303.309	126.12
303.524	36.01
303.738	40.11
303.952	-2.9
304.166	33.96
304.381	3.24
304.595	105.64
304.809	40.11
305.023	64.68
305.237	79.02
305.452	33.96
305.666	-4.95
305.88	-0.85
306.094	54.44
306.308	50.35
306.522	158.89
306.736	27.82
306.95	60.59
307.164	27.82
307.379	-31.57
307.593	70.83
307.807	97.45
308.021	38.06
308.235	62.63
308.449	-13.14
308.663	60.59
308.877	52.39
309.091	54.44
309.305	38.06
309.519	9.39
309.733	31.91
309.947	44.2
310.161	58.54
310.374	48.3
310.588	76.97
310.802	33.96
311.016	-17.24
311.23	3.24
311.444	109.74
311.658	64.68
311.872	-27.48
312.085	60.59
312.299	25.77
312.513	31.91
312.727	101.55
312.941	74.92
313.154	109.74
313.368	52.39
313.582	124.07
313.796	87.21
314.009	105.64
314.223	109.74
314.437	62.63
314.651	81.07
314.864	-27.48
315.078	56.49
315.292	5.29
315.505	40.11
315.719	87.21
315.933	27.82
316.146	111.78
316.36	9.39
316.573	60.59
316.787	40.11
317.001	62.63
317.214	44.2
317.428	44.2
317.641	7.34
317.855	52.39
318.068	89.26
318.282	1.19
318.495	85.16
318.709	46.25
318.922	85.16
319.136	128.17
319.349	36.01
319.563	70.83
319.776	50.35
319.99	15.53
320.203	54.44
320.417	105.64
320.63	56.49
320.843	138.41
321.057	62.63
321.27	56.49
321.483	42.15
321.697	68.78
321.91	44.2
322.124	36.01
322.337	68.78
322.55	99.5
322.763	76.97
322.977	48.3
323.19	-7
323.403	122.02
323.617	68.78
323.83	76.97
324.043	50.35
324.256	85.16
324.469	19.63
324.683	36.01
324.896	52.39
325.109	-0.85
325.322	36.01
325.535	103.59
325.748	109.74
325.962	52.39
326.175	119.98
326.388	52.39
326.601	-29.52
326.814	13.48
327.027	36.01
327.24	117.93
327.453	109.74
327.666	70.83
327.879	68.78
328.092	93.35
328.305	11.43
328.518	21.67
328.731	95.4
328.944	56.49
329.157	93.35
329.37	38.06
329.583	-9.05
329.796	93.35
330.009	36.01
330.222	36.01
330.435	119.98
330.648	44.2
330.861	85.16
331.073	27.82
331.286	72.87
331.499	62.63
331.712	31.91
331.925	31.91
332.138	93.35
332.35	91.31
332.563	11.43
332.776	89.26
332.989	7.34
333.202	76.97
333.414	134.31
333.627	-13.14
333.84	93.35
334.053	52.39
334.265	46.25
334.478	13.48
334.691	-4.95
334.903	76.97
335.116	-45.91
335.329	81.07
335.541	38.06
335.754	62.63
335.966	76.97
336.179	87.21
336.392	3.24
336.604	48.3
336.817	101.55
337.029	103.59
337.242	13.48
337.454	54.44
337.667	70.83
337.88	167.08
338.092	101.55
338.305	76.97
338.517	36.01
338.729	48.3
338.942	76.97
339.154	-11.09
339.367	52.39
339.579	70.83
339.792	70.83
340.004	87.21
340.217	58.54
340.429	-2.9
340.641	85.16
340.854	36.01
341.066	60.59
341.278	128.17
341.491	46.25
341.703	107.69
341.915	-54.1
342.128	111.78
342.34	-7
342.552	-19.29
342.764	-19.29
342.977	33.96
343.189	85.16
343.401	46.25
343.613	-31.57
343.826	60.59
344.038	56.49
344.25	119.98
344.462	31.91
344.674	93.35
344.886	138.41
345.099	76.97
345.311	99.5
345.523	79.02
345.735	11.43
345.947	60.59
346.159	36.01
346.371	21.67
346.583	-11.09
346.795	169.13
347.007	31.91
347.219	113.83
347.431	52.39
347.643	212.14
347.855	33.96
348.067	72.87
348.279	21.67
348.491	60.59
348.703	31.91
348.915	-13.14
349.127	-19.29
349.339	126.12
349.551	19.63
349.763	27.82
349.975	76.97
350.187	60.59
350.399	19.63
350.61	93.35
350.822	81.07
351.034	85.16
351.246	85.16
351.458	79.02
351.669	66.73
351.881	56.49
352.093	13.48
352.305	72.87
352.517	83.11
352.728	85.16
352.94	101.55
353.152	29.87
353.363	-4.95
353.575	62.63
353.787	128.17
353.999	130.22
354.21	83.11
354.422	56.49
354.633	-13.14
354.845	5.29
355.057	76.97
355.268	109.74
355.48	44.2
355.692	21.67
355.903	54.44
356.115	36.01
356.326	-15.19
356.538	70.83
356.749	95.4
356.961	93.35
357.172	72.87
357.384	44.2
357.595	111.78
357.807	52.39
358.018	83.11
358.23	122.02
358.441	105.64
358.653	152.74
358.864	46.25
359.075	93.35
359.287	7.34
359.498	70.83
359.709	68.78
359.921	70.83
360.132	38.06
360.344	113.83
360.555	-2.9
360.766	138.41
360.977	76.97
361.189	5.29
361.4	111.78
361.611	79.02
361.823	105.64
362.034	29.87
362.245	62.63
362.456	52.39
362.667	60.59
362.879	29.87
363.09	48.3
363.301	148.65
363.512	124.07
363.723	27.82
363.935	33.96
364.146	56.49
364.357	11.43
364.568	46.25
364.779	-11.09
364.99	76.97
365.201	11.43
365.412	68.78
365.623	46.25
365.834	97.45
366.045	15.53
366.256	40.11
366.467	46.25
366.678	79.02
366.889	48.3
367.1	44.2
367.311	101.55
367.522	89.26
367.733	38.06
367.944	52.39
368.155	33.96
368.366	81.07
368.577	83.11
368.788	50.35
368.999	99.5
369.209	97.45
369.42	146.6
369.631	119.98
369.842	17.58
370.053	-2.9
370.264	79.02
370.474	38.06
370.685	33.96
370.896	107.69
371.107	54.44
371.317	54.44
371.528	52.39
371.739	54.44
371.95	31.91
372.16	52.39
372.371	29.87
372.582	5.29
372.792	89.26
373.003	29.87
373.214	109.74
373.424	54.44
373.635	105.64
373.846	60.59
374.056	85.16
374.267	52.39
374.477	142.5
374.688	85.16
374.898	134.31
375.109	81.07
375.319	126.12
375.53	160.94
375.74	66.73
375.951	105.64
376.161	136.36
376.372	138.41
376.582	89.26
376.793	97.45
377.003	-21.33
377.214	72.87
377.424	58.54
377.635	7.34
377.845	101.55
378.055	103.59
378.266	54.44
378.476	138.41
378.686	81.07
378.897	162.98
379.107	74.92
379.317	48.3
379.528	38.06
379.738	36.01
379.948	19.63
380.158	142.5
380.369	117.93
380.579	44.2
380.789	33.96
380.999	126.12
381.21	74.92
381.42	62.63
381.63	44.2
381.84	89.26
382.05	17.58
382.261	183.46
382.471	154.79
382.681	29.87
382.891	115.88
383.101	79.02
383.311	101.55
383.521	7.34
383.731	58.54
383.941	117.93
384.151	101.55
384.361	81.07
384.571	126.12
384.781	132.26
384.991	93.35
385.201	99.5
385.411	132.26
385.621	126.12
385.831	36.01
386.041	142.5
386.251	64.68
386.461	128.17
386.671	44.2
386.881	97.45
387.091	156.84
387.301	87.21
387.511	62.63
387.72	142.5
387.93	95.4
388.14	56.49
388.35	60.59
388.56	142.5
388.769	64.68
388.979	144.55
389.189	60.59
389.399	44.2
389.609	72.87
389.818	109.74
390.028	111.78
390.238	101.55
390.447	38.06
390.657	70.83
390.867	93.35
391.076	38.06
391.286	111.78
391.496	56.49
391.705	15.53
391.915	109.74
392.125	85.16
392.334	138.41
392.544	101.55
392.753	36.01
392.963	36.01
393.172	89.26
393.382	126.12
393.591	109.74
393.801	76.97
394.01	152.74
394.22	42.15
394.429	154.79
394.639	85.16
394.848	134.31
395.058	126.12
395.267	130.22
395.477	128.17
395.686	201.9
395.895	89.26
396.105	259.24
396.314	95.4
396.524	126.12
396.733	93.35
396.942	85.16
397.152	122.02
397.361	150.7
397.57	103.59
397.78	134.31
397.989	85.16
398.198	183.46
398.407	119.98
398.617	81.07
398.826	134.31
399.035	193.7
399.244	173.22
399.453	93.35
399.663	126.12
399.872	191.66
400.081	113.83
400.29	242.85
400.499	150.7
400.708	173.22
400.917	136.36
401.127	148.65
401.336	154.79
401.545	175.27
401.754	193.7
401.963	173.22
402.172	109.74
402.381	93.35
402.59	183.46
402.799	138.41
403.008	183.46
403.217	222.38
403.426	119.98
403.635	76.97
403.844	183.46
404.053	265.38
404.262	124.07
404.471	271.53
404.68	177.32
404.888	205.99
405.097	175.27
405.306	232.62
405.515	203.94
405.724	199.85
405.933	232.62
406.142	220.33
406.35	238.76
406.559	218.28
406.768	117.93
406.977	289.96
407.185	277.67
407.394	242.85
407.603	269.48
407.812	283.81
408.02	281.77
408.229	298.15
408.438	371.88
408.646	316.58
408.855	343.21
409.064	363.69
409.272	314.53
409.481	341.16
409.69	398.5
409.898	339.11
410.107	451.75
410.315	410.79
410.524	445.6
410.733	429.22
410.941	494.76
411.15	455.84
411.358	478.37
411.567	545.95
411.775	502.95
411.984	621.73
412.192	494.76
412.401	519.33
412.609	627.87
412.818	683.17
413.026	564.39
413.234	644.26
413.443	691.36
413.651	691.36
413.86	734.37
414.068	752.8
414.276	797.85
414.485	840.86
414.693	861.34
414.901	898.2
415.11	887.97
415.318	847.01
415.526	881.82
415.734	980.12
415.943	935.07
416.151	986.27
416.359	1088.67
416.567	1109.15
416.776	1070.23
416.984	1299.61
417.192	1221.78
417.4	1275.03
417.608	1299.61
417.817	1342.61
418.025	1379.48
418.233	1469.59
418.441	1420.44
418.649	1617.04
418.857	1600.66
419.065	1608.85
419.273	1682.58
419.481	1754.26
419.689	1727.63
419.897	1887.37
420.105	1883.28
420.313	2012.3
420.521	2088.07
420.729	2077.83
420.937	2075.79
421.145	2335.88
421.353	2290.82
421.561	2378.89
421.769	2391.17
421.977	2645.12
422.185	2520.2
422.393	2804.86
422.601	2878.59
422.809	2919.55
423.017	2989.18
423.224	3050.62
423.432	3058.81
423.64	3017.85
423.848	3411.06
424.056	3337.34
424.263	3603.57
424.471	3640.44
424.679	3689.59
424.887	3947.63
425.094	3935.34
425.302	3929.2
425.51	4158.57
425.718	4295.79
425.925	4451.43
426.133	4600.93
426.341	4770.91
426.548	4924.51
426.756	4906.08
426.964	5065.82
427.171	5354.58
427.379	5321.82
427.586	5516.37
427.794	5846.1
428.001	5872.72
428.209	6163.53
428.417	5975.12
428.624	6472.78
428.832	6536.26
429.039	6425.67
429.247	6640.71
429.454	7068.73
429.662	7420.99
429.869	7126.08
430.076	7466.04
430.284	7330.87
430.491	7828.53
430.699	8121.39
430.906	8055.86
431.114	8471.59
431.321	8584.23
431.528	8662.05
431.736	9368.6
431.943	9737.24
432.15	9301.02
432.358	9600.02
432.565	9845.78
432.772	10144.78
432.979	10439.69
433.187	10638.34
433.394	10689.54
433.601	11226.11
433.808	11566.07
434.016	11340.8
434.223	11811.83
434.43	12436.46
434.637	12401.65
434.844	12991.46
435.052	13409.25
435.259	13327.33
435.466	13521.88
435.673	13063.14
435.88	14187.47
436.087	14898.12
436.294	14816.2
436.501	14390.22
436.708	14889.93
436.915	15363.01
437.122	15815.61
437.329	15907.77
437.537	16464.82
437.743	17079.21
437.95	16714.67
438.157	17540
438.364	18076.57
438.571	17988.5
438.778	18168.73
438.985	19684.22
439.192	18987.91
439.399	19692.41
439.606	19155.85
439.813	19977.08
440.02	21726.05
440.227	20849.52
440.433	20925.29
440.64	21418.85
440.847	21504.87
441.054	21994.33
441.261	22952.78
441.467	22877.01
441.674	23366.47
441.881	24144.7
442.088	24335.16
442.294	23831.36
442.501	24509.24
442.708	25236.27
442.914	26278.68
443.121	27665.16
443.328	26868.5
443.534	28418.81
443.741	27400.97
443.948	27206.41
444.154	29457.13
444.361	29096.69
444.568	29192.94
444.774	29215.47
444.981	29369.07
445.187	30608.09
445.394	31763.14
445.6	31007.44
445.807	34196.13
446.013	32719.54
446.22	33688.23
446.426	34732.7
446.633	35021.46
446.839	36362.88
447.046	34146.98
447.252	36223.62
447.459	36711.03
447.665	36403.84
447.871	38015.59
448.078	39664.21
448.284	37536.37
448.491	38654.56
448.697	40557.12
448.903	41073.21
449.11	41359.92
449.316	40139.33
449.522	41224.76
449.728	42295.85
449.935	42625.57
450.141	41912.88
450.347	43166.23
450.553	42263.08
450.76	42912.28
450.966	43860.49
451.172	43926.03
451.378	45005.31
451.584	43831.82
451.791	44331.53
451.997	44675.58
452.203	45423.09
452.409	45435.38
452.615	44950.01
452.821	43409.94
453.027	43348.5
453.233	45357.56
453.44	43328.02
453.646	43858.45
453.852	43923.98
454.058	45126.14
454.264	43639.31
454.47	44368.39
454.676	43371.03
454.882	44913.15
455.088	41079.35
455.294	41597.49
455.5	42459.68
455.705	42631.71
455.911	40708.67
456.117	40401.47
456.323	40006.22
456.529	37505.65
456.735	39617.1
456.941	38623.84
457.147	37739.11
457.352	36430.46
457.558	36117.12
457.764	35961.48
457.97	35857.03
458.176	35052.18
458.381	35050.13
458.587	33141.42
458.793	33174.19
458.999	31453.9
459.204	33850.02
459.41	32488.12
459.616	30710.49
459.821	30786.26
460.027	30540.5
460.233	29924.07
460.438	28510.97
460.644	28945.14
460.85	27550.47
461.055	27257.61
461.261	27441.93
461.466	24791.86
461.672	24415.03
461.878	25877.28
462.083	24568.63
462.289	24054.59
462.494	23472.96
462.7	22666.06
462.905	21900.12
463.111	22326.1
463.316	22899.53
463.522	22397.78
463.727	22336.34
463.932	22391.64
464.138	22131.54
464.343	22244.18
464.549	21728.1
464.754	22309.72
464.959	22164.31
465.165	21744.48
465.37	21136.23
465.575	20560.75
465.781	21361.51
465.986	21367.65
466.191	20777.84
466.397	20169.59
466.602	19524.48
