Data from USB4F104151__66__14-17-18-335.txt Node

Date: Thu Mar 13 14:17:18 EDT 2025
User: louis
Spectrometer: USB4F10415
Trigger mode: 4
Integration Time (sec): 2.000000E-2
Scans to average: 1
Electric dark correction enabled: true
Nonlinearity correction enabled: false
Boxcar width: 0
XAxis mode: Wavelengths
Number of Pixels in Spectrum: 3648
>>>>>Begin Spectral Data<<<<<
178.204	-40.11
178.424	-40.11
178.644	-40.11
178.864	-99.5
179.084	-119.98
179.304	-95.4
179.524	25.43
179.744	25.43
179.964	25.43
180.184	7
180.404	39.76
180.624	-113.83
180.844	15.19
181.064	-44.2
181.283	58.2
181.503	23.38
181.723	33.62
181.943	-38.06
182.163	66.39
182.383	-33.96
182.602	-9.39
182.822	72.53
183.042	23.38
183.262	-23.72
183.482	4.95
183.701	-36.01
183.921	52.05
184.141	19.29
184.361	13.14
184.58	64.34
184.8	39.76
185.02	-1.19
185.239	84.82
185.459	0.85
185.679	43.86
185.898	-21.67
186.118	86.87
186.338	-15.53
186.557	-25.77
186.777	-42.15
186.997	39.76
187.216	-33.96
187.436	88.92
187.655	7
187.875	-15.53
188.095	23.38
188.314	45.91
188.534	0.85
188.753	-17.58
188.973	50
189.192	13.14
189.412	99.16
189.631	43.86
189.851	70.48
190.07	47.96
190.29	35.67
190.509	2.9
190.729	17.24
190.948	50
191.168	150.36
191.387	-29.87
191.607	7
191.826	29.52
192.045	19.29
192.265	45.91
192.484	31.57
192.704	72.53
192.923	7
193.142	99.16
193.362	62.29
193.581	80.72
193.8	15.19
194.02	52.05
194.239	11.09
194.458	31.57
194.678	25.43
194.897	-1.19
195.116	0.85
195.335	52.05
195.555	88.92
195.774	7
195.993	25.43
196.212	88.92
196.432	-23.72
196.651	88.92
196.87	7
197.089	99.16
197.308	129.88
197.528	93.01
197.747	9.05
197.966	-42.15
198.185	64.34
198.404	35.67
198.623	88.92
198.842	97.11
199.062	58.2
199.281	66.39
199.5	41.81
199.719	23.38
199.938	11.09
200.157	31.57
200.376	93.01
200.595	29.52
200.814	109.4
201.033	64.34
201.252	107.35
201.471	95.06
201.69	9.05
201.909	23.38
202.128	64.34
202.347	11.09
202.566	52.05
202.785	-25.77
203.004	23.38
203.223	105.3
203.442	-1.19
203.661	15.19
203.879	-19.63
204.098	-3.24
204.317	-31.91
204.536	25.43
204.755	52.05
204.974	68.44
205.193	33.62
205.411	66.39
205.63	72.53
205.849	54.1
206.068	47.96
206.287	35.67
206.505	121.68
206.724	52.05
206.943	23.38
207.162	35.67
207.381	68.44
207.599	-9.39
207.818	15.19
208.037	56.15
208.255	35.67
208.474	-46.25
208.693	72.53
208.911	74.58
209.13	-13.48
209.349	39.76
209.567	23.38
209.786	72.53
210.005	107.35
210.223	31.57
210.442	17.24
210.661	-17.58
210.879	39.76
211.098	72.53
211.316	80.72
211.535	25.43
211.753	66.39
211.972	-21.67
212.191	39.76
212.409	-29.87
212.628	60.24
212.846	117.59
213.065	70.48
213.283	133.97
213.502	17.24
213.72	-27.82
213.938	62.29
214.157	9.05
214.375	-38.06
214.594	72.53
214.812	-23.72
215.031	27.48
215.249	-62.63
215.467	54.1
215.686	47.96
215.904	25.43
216.122	39.76
216.341	90.96
216.559	-27.82
216.778	82.77
216.996	50
217.214	-19.63
217.432	80.72
217.651	-9.39
217.869	58.2
218.087	56.15
218.306	-5.29
218.524	43.86
218.742	58.2
218.96	50
219.179	-44.2
219.397	70.48
219.615	70.48
219.833	66.39
220.051	60.24
220.27	43.86
220.488	25.43
220.706	74.58
220.924	37.72
221.142	50
221.36	35.67
221.578	27.48
221.796	13.14
222.015	-1.19
222.233	17.24
222.451	113.49
222.669	7
222.887	17.24
223.105	7
223.323	43.86
223.541	58.2
223.759	56.15
223.977	17.24
224.195	117.59
224.413	129.88
224.631	72.53
224.849	23.38
225.067	29.52
225.285	17.24
225.503	64.34
225.721	13.14
225.939	84.82
226.157	33.62
226.375	90.96
226.592	-33.96
226.81	129.88
227.028	2.9
227.246	45.91
227.464	-70.83
227.682	66.39
227.9	74.58
228.117	47.96
228.335	-31.91
228.553	19.29
228.771	9.05
228.989	7
229.206	4.95
229.424	41.81
229.642	-5.29
229.86	27.48
230.077	35.67
230.295	-7.34
230.513	-29.87
230.731	113.49
230.948	74.58
231.166	0.85
231.384	56.15
231.601	15.19
231.819	64.34
232.037	-5.29
232.254	11.09
232.472	31.57
232.689	-38.06
232.907	21.33
233.125	-44.2
233.342	93.01
233.56	64.34
233.777	43.86
233.995	-7.34
234.213	58.2
234.43	43.86
234.648	52.05
234.865	4.95
235.083	-11.43
235.3	15.19
235.518	19.29
235.735	54.1
235.953	133.97
236.17	39.76
236.388	52.05
236.605	-7.34
236.822	39.76
237.04	37.72
237.257	25.43
237.475	15.19
237.692	58.2
237.909	25.43
238.127	23.38
238.344	88.92
238.562	25.43
238.779	31.57
238.996	-17.58
239.214	35.67
239.431	52.05
239.648	19.29
239.865	9.05
240.083	64.34
240.3	58.2
240.517	70.48
240.735	-7.34
240.952	99.16
241.169	90.96
241.386	33.62
241.603	-17.58
241.821	50
242.038	121.68
242.255	45.91
242.472	-7.34
242.689	29.52
242.907	45.91
243.124	0.85
243.341	72.53
243.558	68.44
243.775	31.57
243.992	7
244.209	82.77
244.426	56.15
244.643	170.83
244.86	0.85
245.078	64.34
245.295	142.16
245.512	7
245.729	90.96
245.946	80.72
246.163	56.15
246.38	13.14
246.597	60.24
246.814	31.57
247.031	-56.49
247.248	58.2
247.464	35.67
247.681	11.09
247.898	17.24
248.115	70.48
248.332	-7.34
248.549	80.72
248.766	84.82
248.983	97.11
249.2	23.38
249.417	101.2
249.633	56.15
249.85	97.11
250.067	27.48
250.284	52.05
250.501	-1.19
250.717	-9.39
250.934	-33.96
251.151	29.52
251.368	41.81
251.585	31.57
251.801	31.57
252.018	-7.34
252.235	47.96
252.451	-11.43
252.668	64.34
252.885	9.05
253.102	19.29
253.318	60.24
253.535	68.44
253.752	-64.68
253.968	23.38
254.185	-23.72
254.401	56.15
254.618	0.85
254.835	-25.77
255.051	146.26
255.268	39.76
255.484	72.53
255.701	15.19
255.917	37.72
256.134	15.19
256.351	43.86
256.567	0.85
256.784	9.05
257	33.62
257.217	47.96
257.433	64.34
257.65	113.49
257.866	68.44
258.082	39.76
258.299	-19.63
258.515	33.62
258.732	9.05
258.948	29.52
259.165	15.19
259.381	13.14
259.597	74.58
259.814	7
260.03	0.85
260.246	17.24
260.463	76.63
260.679	15.19
260.895	68.44
261.112	19.29
261.328	-1.19
261.544	15.19
261.761	17.24
261.977	47.96
262.193	31.57
262.409	109.4
262.626	74.58
262.842	74.58
263.058	7
263.274	129.88
263.49	88.92
263.707	19.29
263.923	0.85
264.139	-7.34
264.355	41.81
264.571	31.57
264.787	39.76
265.004	47.96
265.22	-17.58
265.436	70.48
265.652	23.38
265.868	74.58
266.084	17.24
266.3	37.72
266.516	-33.96
266.732	72.53
266.948	-25.77
267.164	-9.39
267.38	47.96
267.596	19.29
267.812	50
268.028	33.62
268.244	41.81
268.46	35.67
268.676	54.1
268.892	41.81
269.108	2.9
269.324	7
269.54	21.33
269.756	-7.34
269.972	23.38
270.188	72.53
270.403	-13.48
270.619	27.48
270.835	56.15
271.051	58.2
271.267	-40.11
271.483	11.09
271.698	80.72
271.914	105.3
272.13	56.15
272.346	70.48
272.562	88.92
272.777	17.24
272.993	-70.83
273.209	-1.19
273.425	76.63
273.64	7
273.856	62.29
274.072	66.39
274.287	2.9
274.503	101.2
274.719	72.53
274.934	7
275.15	64.34
275.366	11.09
275.581	50
275.797	-56.49
276.012	23.38
276.228	52.05
276.444	31.57
276.659	97.11
276.875	-81.07
277.09	58.2
277.306	35.67
277.521	78.68
277.737	-3.24
277.952	76.63
278.168	33.62
278.383	62.29
278.599	105.3
278.814	72.53
279.03	60.24
279.245	121.68
279.461	101.2
279.676	17.24
279.892	15.19
280.107	-13.48
280.322	-46.25
280.538	11.09
280.753	31.57
280.969	64.34
281.184	72.53
281.399	19.29
281.615	50
281.83	-9.39
282.045	93.01
282.26	74.58
282.476	68.44
282.691	138.07
282.906	47.96
283.122	47.96
283.337	35.67
283.552	66.39
283.767	25.43
283.983	9.05
284.198	-40.11
284.413	68.44
284.628	-46.25
284.843	-40.11
285.058	74.58
285.274	82.77
285.489	27.48
285.704	29.52
285.919	29.52
286.134	138.07
286.349	15.19
286.564	66.39
286.779	29.52
286.995	56.15
287.21	-17.58
287.425	37.72
287.64	9.05
287.855	39.76
288.07	15.19
288.285	-42.15
288.5	31.57
288.715	74.58
288.93	50
289.145	-62.63
289.36	72.53
289.575	52.05
289.79	115.54
290.004	56.15
290.219	29.52
290.434	31.57
290.649	2.9
290.864	39.76
291.079	33.62
291.294	31.57
291.509	80.72
291.724	7
291.938	52.05
292.153	90.96
292.368	80.72
292.583	76.63
292.798	80.72
293.012	50
293.227	50
293.442	31.57
293.657	74.58
293.871	99.16
294.086	7
294.301	62.29
294.516	39.76
294.73	-29.87
294.945	41.81
295.16	60.24
295.374	86.87
295.589	80.72
295.804	-42.15
296.018	-11.43
296.233	39.76
296.447	72.53
296.662	19.29
296.877	21.33
297.091	-15.53
297.306	19.29
297.52	-29.87
297.735	131.92
297.949	45.91
298.164	80.72
298.378	23.38
298.593	39.76
298.807	47.96
299.022	19.29
299.236	50
299.451	86.87
299.665	7
299.88	15.19
300.094	90.96
300.309	25.43
300.523	7
300.737	35.67
300.952	47.96
301.166	56.15
301.381	-23.72
301.595	25.43
301.809	-17.58
302.024	25.43
302.238	-5.29
302.452	117.59
302.667	45.91
302.881	168.79
303.095	15.19
303.309	78.68
303.524	72.53
303.738	23.38
303.952	39.76
304.166	39.76
304.381	43.86
304.595	109.4
304.809	74.58
305.023	84.82
305.237	39.76
305.452	-1.19
305.666	70.48
305.88	107.35
306.094	31.57
306.308	39.76
306.522	60.24
306.736	4.95
306.95	50
307.164	-13.48
307.379	23.38
307.593	9.05
307.807	56.15
308.021	56.15
308.235	9.05
308.449	-42.15
308.663	19.29
308.877	142.16
309.091	15.19
309.305	23.38
309.519	-15.53
309.733	17.24
309.947	9.05
310.161	119.64
310.374	39.76
310.588	72.53
310.802	4.95
311.016	15.19
311.23	7
311.444	68.44
311.658	41.81
311.872	7
312.085	56.15
312.299	23.38
312.513	15.19
312.727	-5.29
312.941	54.1
313.154	23.38
313.368	64.34
313.582	19.29
313.796	23.38
314.009	56.15
314.223	58.2
314.437	11.09
314.651	56.15
314.864	58.2
315.078	-33.96
315.292	41.81
315.505	25.43
315.719	105.3
315.933	56.15
316.146	50
316.36	-9.39
316.573	117.59
316.787	15.19
317.001	45.91
317.214	-21.67
317.428	52.05
317.641	19.29
317.855	19.29
318.068	58.2
318.282	23.38
318.495	80.72
318.709	105.3
318.922	109.4
319.136	113.49
319.349	56.15
319.563	-17.58
319.776	101.2
319.99	97.11
320.203	86.87
320.417	15.19
320.63	58.2
320.843	41.81
321.057	19.29
321.27	50
321.483	117.59
321.697	90.96
321.91	17.24
322.124	136.02
322.337	56.15
322.55	27.48
322.763	33.62
322.977	50
323.19	35.67
323.403	80.72
323.617	70.48
323.83	50
324.043	105.3
324.256	74.58
324.469	-7.34
324.683	97.11
324.896	41.81
325.109	7
325.322	-1.19
325.535	43.86
325.748	39.76
325.962	47.96
326.175	97.11
326.388	35.67
326.601	88.92
326.814	17.24
327.027	119.64
327.24	56.15
327.453	-81.07
327.666	33.62
327.879	39.76
328.092	37.72
328.305	15.19
328.518	11.09
328.731	47.96
328.944	25.43
329.157	90.96
329.37	29.52
329.583	56.15
329.796	90.96
330.009	25.43
330.222	62.29
330.435	78.68
330.648	78.68
330.861	9.05
331.073	43.86
331.286	37.72
331.499	17.24
331.712	15.19
331.925	54.1
332.138	74.58
332.35	43.86
332.563	-50.35
332.776	56.15
332.989	-25.77
333.202	72.53
333.414	56.15
333.627	76.63
333.84	-1.19
334.053	78.68
334.265	19.29
334.478	74.58
334.691	56.15
334.903	35.67
335.116	33.62
335.329	31.57
335.541	74.58
335.754	58.2
335.966	-5.29
336.179	33.62
336.392	21.33
336.604	43.86
336.817	115.54
337.029	62.29
337.242	37.72
337.454	52.05
337.667	-40.11
337.88	60.24
338.092	68.44
338.305	68.44
338.517	56.15
338.729	68.44
338.942	68.44
339.154	15.19
339.367	9.05
339.579	105.3
339.792	41.81
340.004	31.57
340.217	74.58
340.429	39.76
340.641	99.16
340.854	47.96
341.066	101.2
341.278	84.82
341.491	105.3
341.703	52.05
341.915	17.24
342.128	15.19
342.34	15.19
342.552	101.2
342.764	74.58
342.977	33.62
343.189	2.9
343.401	66.39
343.613	54.1
343.826	64.34
344.038	-17.58
344.25	117.59
344.462	-31.91
344.674	66.39
344.886	50
345.099	103.25
345.311	11.09
345.523	93.01
345.735	-58.54
345.947	80.72
346.159	27.48
346.371	31.57
346.583	50
346.795	133.97
347.007	9.05
347.219	52.05
347.431	23.38
347.643	113.49
347.855	23.38
348.067	113.49
348.279	70.48
348.491	113.49
348.703	9.05
348.915	19.29
349.127	0.85
349.339	52.05
349.551	56.15
349.763	60.24
349.975	62.29
350.187	41.81
350.399	58.2
350.61	29.52
350.822	33.62
351.034	56.15
351.246	90.96
351.458	72.53
351.669	97.11
351.881	66.39
352.093	82.77
352.305	39.76
352.517	47.96
352.728	121.68
352.94	58.2
353.152	47.96
353.363	2.9
353.575	58.2
353.787	54.1
353.999	7
354.21	115.54
354.422	52.05
354.633	-7.34
354.845	52.05
355.057	86.87
355.268	-23.72
355.48	41.81
355.692	-9.39
355.903	60.24
356.115	117.59
356.326	-42.15
356.538	138.07
356.749	45.91
356.961	80.72
357.172	35.67
357.384	93.01
357.595	107.35
357.807	72.53
358.018	-1.19
358.23	82.77
358.441	121.68
358.653	25.43
358.864	60.24
359.075	0.85
359.287	97.11
359.498	-5.29
359.709	39.76
359.921	-25.77
360.132	7
360.344	2.9
360.555	72.53
360.766	99.16
360.977	-3.24
361.189	58.2
361.4	-13.48
361.611	129.88
361.823	113.49
362.034	9.05
362.245	31.57
362.456	33.62
362.667	39.76
362.879	-27.82
363.09	39.76
363.301	39.76
363.512	7
363.723	9.05
363.935	13.14
364.146	47.96
364.357	47.96
364.568	80.72
364.779	-29.87
364.99	72.53
365.201	60.24
365.412	-5.29
365.623	17.24
365.834	21.33
366.045	27.48
366.256	58.2
366.467	97.11
366.678	7
366.889	50
367.1	23.38
367.311	56.15
367.522	52.05
367.733	60.24
367.944	56.15
368.155	35.67
368.366	23.38
368.577	93.01
368.788	41.81
368.999	7
369.209	72.53
369.42	152.4
369.631	88.92
369.842	66.39
370.053	19.29
370.264	60.24
370.474	31.57
370.685	45.91
370.896	7
371.107	58.2
371.317	64.34
371.528	11.09
371.739	45.91
371.95	-21.67
372.16	41.81
372.371	7
372.582	33.62
372.792	90.96
373.003	105.3
373.214	72.53
373.424	129.88
373.635	52.05
373.846	27.48
374.056	58.2
374.267	86.87
374.477	7
374.688	62.29
374.898	76.63
375.109	123.73
375.319	4.95
375.53	103.25
375.74	64.34
375.951	78.68
376.161	29.52
376.372	129.88
376.582	105.3
376.793	66.39
377.003	-1.19
377.214	43.86
377.424	70.48
377.635	35.67
377.845	56.15
378.055	97.11
378.266	-13.48
378.476	66.39
378.686	-9.39
378.897	15.19
379.107	86.87
379.317	101.2
379.528	84.82
379.738	88.92
379.948	2.9
380.158	39.76
380.369	62.29
380.579	84.82
380.789	47.96
380.999	-15.53
381.21	140.12
381.42	125.78
381.63	-5.29
381.84	103.25
382.05	138.07
382.261	131.92
382.471	66.39
382.681	39.76
382.891	31.57
383.101	74.58
383.311	56.15
383.521	9.05
383.731	0.85
383.941	60.24
384.151	136.02
384.361	56.15
384.571	50
384.781	58.2
384.991	101.2
385.201	123.73
385.411	31.57
385.621	7
385.831	25.43
386.041	58.2
386.251	97.11
386.461	82.77
386.671	70.48
386.881	103.25
387.091	66.39
387.301	39.76
387.511	45.91
387.72	84.82
387.93	105.3
388.14	29.52
388.35	15.19
388.56	31.57
388.769	84.82
388.979	113.49
389.189	35.67
389.399	97.11
389.609	39.76
389.818	15.19
390.028	121.68
390.238	15.19
390.447	35.67
390.657	129.88
390.867	84.82
391.076	-64.68
391.286	31.57
391.496	117.59
391.705	88.92
391.915	107.35
392.125	84.82
392.334	68.44
392.544	113.49
392.753	72.53
392.963	-9.39
393.172	99.16
393.382	80.72
393.591	113.49
393.801	101.2
394.01	129.88
394.22	72.53
394.429	168.79
394.639	101.2
394.848	99.16
395.058	25.43
395.267	82.77
395.477	109.4
395.686	93.01
395.895	181.07
396.105	88.92
396.314	27.48
396.524	95.06
396.733	72.53
396.942	138.07
397.152	101.2
397.361	129.88
397.57	133.97
397.78	121.68
397.989	164.69
398.198	170.83
398.407	101.2
398.617	164.69
398.826	60.24
399.035	117.59
399.244	68.44
399.453	146.26
399.663	56.15
399.872	113.49
400.081	80.72
400.29	183.12
400.499	74.58
400.708	142.16
400.917	105.3
401.127	68.44
401.336	88.92
401.545	187.22
401.754	115.54
401.963	113.49
402.172	86.87
402.381	97.11
402.59	160.59
402.799	105.3
403.008	162.64
403.217	138.07
403.426	199.51
403.635	176.98
403.844	127.83
404.053	211.79
404.262	162.64
404.471	228.18
404.68	162.64
404.888	154.45
405.097	119.64
405.306	207.7
405.515	187.22
405.724	217.94
405.933	197.46
406.142	123.73
406.35	299.86
406.559	219.99
406.768	236.37
406.977	301.9
407.185	156.5
407.394	213.84
407.603	154.45
407.812	199.51
408.02	162.64
408.229	244.56
408.438	242.51
408.646	262.99
408.855	297.81
409.064	232.27
409.272	297.81
409.481	293.71
409.69	289.62
409.898	285.52
410.107	342.86
410.315	306
410.524	320.34
410.733	289.62
410.941	363.34
411.15	420.69
411.358	224.08
411.567	447.31
411.775	330.58
411.984	359.25
412.192	510.8
412.401	467.79
412.609	584.52
412.818	508.75
413.026	437.07
413.234	484.17
413.443	500.56
413.651	525.13
413.86	572.24
414.068	625.48
414.276	705.35
414.485	623.44
414.693	621.39
414.901	684.87
415.11	727.88
415.318	699.21
415.526	834.38
415.734	768.84
415.943	752.46
416.151	809.8
416.359	840.52
416.567	994.12
416.776	910.15
416.984	908.1
417.192	996.17
417.4	1020.74
417.608	1053.51
417.817	1076.04
418.025	1205.06
418.233	1174.34
418.441	1237.83
418.649	1182.53
418.857	1379.14
419.065	1350.46
419.273	1315.65
419.481	1377.09
419.689	1442.62
419.897	1477.44
420.105	1473.34
420.313	1616.7
420.521	1637.18
420.729	1706.81
420.937	1819.45
421.145	1817.4
421.353	1887.03
421.561	1987.38
421.769	2009.91
421.977	2108.21
422.185	2014.01
422.393	2169.65
422.601	2360.11
422.809	2280.24
423.017	2335.54
423.224	2480.94
423.432	2517.81
423.64	2532.14
423.848	2816.81
424.056	2755.37
424.263	2943.78
424.471	2890.54
424.679	2999.08
424.887	3042.09
425.094	3162.92
425.302	3185.44
425.51	3222.31
425.718	3384.1
425.925	3541.79
426.133	3463.97
426.341	3644.19
426.548	4102.93
426.756	3842.84
426.964	4090.65
427.171	4283.16
427.379	4494.1
427.586	4444.95
427.794	4545.3
428.001	4772.62
428.209	5053.19
428.417	4791.05
428.624	5307.14
428.832	5090.06
429.039	5137.16
429.247	5061.38
429.454	5659.39
429.662	6050.55
429.869	5677.82
430.076	6038.27
430.284	5942.01
430.491	6253.3
430.699	6478.58
430.906	6445.81
431.114	6583.02
431.321	6869.74
431.528	7109.35
431.736	7502.56
431.943	7611.11
432.15	7598.82
432.358	7647.97
432.565	8053.47
432.772	8131.29
432.979	8356.57
433.187	8610.51
433.394	8520.4
433.601	9216.71
433.808	8981.2
434.016	9042.64
434.223	9472.71
434.43	10066.62
434.637	9990.84
434.844	10623.67
435.052	10541.75
435.259	10529.46
435.466	10521.27
435.673	10662.58
435.88	11307.69
436.087	12049.05
436.294	11885.22
436.501	11649.7
436.708	11866.78
436.915	12290.71
437.122	12821.14
437.329	12683.92
437.537	13077.13
437.743	13417.1
437.95	13322.89
438.157	13812.35
438.364	14393.98
438.571	14256.76
438.778	14449.27
438.985	15774.31
439.192	15088.24
439.399	15721.06
439.606	15387.24
439.813	16425.56
440.02	17285.71
440.227	16929.36
440.433	16794.2
440.64	17384.01
440.847	17205.84
441.054	17545.8
441.261	18545.21
441.467	18584.12
441.674	18764.34
441.881	19585.58
442.088	19421.74
442.294	19380.78
442.501	19757.61
442.708	20091.43
442.914	21053.97
443.121	21651.98
443.328	21174.8
443.534	22876.66
443.741	22082.05
443.948	21633.55
444.154	23144.95
444.361	23228.91
444.568	23646.7
444.774	23632.36
444.981	23695.85
445.187	24412.64
445.394	25190.87
445.6	25117.14
445.807	27609.52
446.013	26526.14
446.22	27034.04
446.426	28039.59
446.633	28148.14
446.839	29223.32
447.046	28058.03
447.252	29450.64
447.459	29409.68
447.665	29475.22
447.871	30460.29
448.078	31842.67
448.284	30431.62
448.491	31142.27
448.697	32690.53
448.903	33001.82
449.11	33263.96
449.316	32573.8
449.522	32772.45
449.728	33980.75
449.935	34019.66
450.141	34152.78
450.347	34910.53
450.553	33962.32
450.76	34812.23
450.966	35486.01
451.172	34912.58
451.378	36092.21
451.584	34920.77
451.791	36374.83
451.997	36116.78
452.203	36798.76
452.409	36544.81
452.615	36536.62
452.821	34959.68
453.027	34648.39
453.233	36559.14
453.44	35158.33
453.646	35408.19
453.852	35889.46
454.058	36297
454.264	34715.97
454.47	35989.81
454.676	35037.5
454.882	36155.69
455.088	33374.55
455.294	33247.58
455.5	34163.02
455.705	34621.77
455.911	32784.74
456.117	32643.43
456.323	32401.77
456.529	30255.5
456.735	32057.71
456.941	30998.91
457.147	30759.3
457.352	29702.54
457.558	29366.68
457.764	29405.59
457.97	29024.67
458.176	28242.34
458.381	28268.97
458.587	26702.27
458.793	27011.51
458.999	25442.77
459.204	27382.2
459.41	26573.25
459.616	25139.67
459.821	24758.75
460.027	24779.23
460.233	24228.32
460.438	23278.07
460.644	23503.34
460.85	22133.25
461.055	22000.13
461.261	22110.72
461.466	20185.63
461.672	19655.21
461.878	21139.99
462.083	19554.86
462.289	19237.42
462.494	18883.13
462.7	18399.8
462.905	17984.07
463.111	18444.86
463.316	18373.18
463.522	17979.97
463.727	18031.17
463.932	18051.65
464.138	17709.64
464.343	17832.52
464.549	17138.26
464.754	17738.31
464.959	17791.56
465.165	17599.05
465.37	17080.91
465.575	16493.15
465.781	17234.51
465.986	17195.6
466.191	16771.67
466.397	16566.87
466.602	15321.71
466.807	16300.64
467.012	16343.64
467.218	16018.02
467.423	15741.54
467.628	15948.39
467.833	16626.26
468.038	15737.45
468.244	15569.51
468.449	16128.61
468.654	15753.83
468.859	15465.07
469.064	15405.67
469.269	14727.8
