Data from USB4F104151__310__14-24-23-744.txt Node

Date: Thu Mar 13 14:24:23 EDT 2025
User: louis
Spectrometer: USB4F10415
Trigger mode: 4
Integration Time (sec): 2.000000E-2
Scans to average: 1
Electric dark correction enabled: true
Nonlinearity correction enabled: false
Boxcar width: 0
XAxis mode: Wavelengths
Number of Pixels in Spectrum: 3648
>>>>>Begin Spectral Data<<<<<
178.204	-100.18
178.424	-100.18
178.644	-100.18
178.864	-143.19
179.084	-108.37
179.304	69.8
179.524	61.61
179.744	24.75
179.964	-20.31
180.184	-8.02
180.404	-3.93
180.624	6.31
180.844	-38.74
181.064	-30.55
181.283	-36.69
181.503	-18.26
181.723	-5.97
181.943	-65.36
182.163	47.27
182.383	-12.12
182.602	20.65
182.822	8.36
183.042	-16.21
183.262	63.66
183.482	-36.69
183.701	-24.4
183.921	2.22
184.141	12.46
184.361	61.61
184.58	-3.93
184.8	102.57
185.02	32.94
185.239	32.94
185.459	37.03
185.679	20.65
185.898	-71.51
186.118	-16.21
186.338	34.99
186.557	-12.12
186.777	-73.56
186.997	-59.22
187.216	-55.12
187.436	73.9
187.655	-48.98
187.875	-26.45
188.095	4.27
188.314	45.23
188.534	20.65
188.753	-26.45
188.973	-3.93
189.192	41.13
189.412	45.23
189.631	8.36
189.851	37.03
190.07	-36.69
190.29	-18.26
190.509	-87.89
190.729	-20.31
190.948	-12.12
191.168	80.04
191.387	-18.26
191.607	-34.64
191.826	6.31
192.045	-28.5
192.265	-26.45
192.484	28.84
192.704	14.51
192.923	-30.55
193.142	77.99
193.362	26.79
193.581	-38.74
193.8	-12.12
194.02	-20.31
194.239	20.65
194.458	45.23
194.678	-12.12
194.897	69.8
195.116	-67.41
195.335	-3.93
195.555	12.46
195.774	16.55
195.993	-3.93
196.212	14.51
196.432	-106.32
196.651	-85.84
196.87	20.65
197.089	32.94
197.308	14.51
197.528	-28.5
197.747	-12.12
197.966	2.22
198.185	6.31
198.404	8.36
198.623	12.46
198.842	63.66
199.062	-20.31
199.281	-1.88
199.5	20.65
199.719	-24.4
199.938	24.75
200.157	-36.69
200.376	47.27
200.595	106.67
200.814	32.94
201.033	67.75
201.252	-67.41
201.471	55.47
201.69	8.36
201.909	-46.93
202.128	32.94
202.347	-20.31
202.566	-36.69
202.785	-32.6
203.004	-55.12
203.223	16.55
203.442	-5.97
203.661	-20.31
203.879	53.42
204.098	65.71
204.317	-57.17
204.536	61.61
204.755	-10.07
204.974	8.36
205.193	-8.02
205.411	86.19
205.63	4.27
205.849	-83.8
206.068	77.99
206.287	65.71
206.505	39.08
206.724	69.8
206.943	-106.32
207.162	24.75
207.381	30.89
207.599	20.65
207.818	-26.45
208.037	37.03
208.255	-12.12
208.474	-28.5
208.693	30.89
208.911	45.23
209.13	20.65
209.349	6.31
209.567	49.32
209.786	-16.21
210.005	-24.4
210.223	20.65
210.442	-87.89
210.661	37.03
210.879	-18.26
211.098	-59.22
211.316	-18.26
211.535	53.42
211.753	0.17
211.972	37.03
212.191	-14.17
212.409	45.23
212.628	39.08
212.846	-69.46
213.065	4.27
213.283	47.27
213.502	-34.64
213.72	22.7
213.938	-40.79
214.157	-51.03
214.375	-18.26
214.594	-67.41
214.812	-36.69
215.031	45.23
215.249	-32.6
215.467	-34.64
215.686	24.75
215.904	45.23
216.122	-5.97
216.341	73.9
216.559	-57.17
216.778	65.71
216.996	-32.6
217.214	37.03
217.432	-87.89
217.651	-44.88
217.869	-85.84
218.087	45.23
218.306	51.37
218.524	69.8
218.742	12.46
218.96	-5.97
219.179	-20.31
219.397	-44.88
219.615	69.8
219.833	51.37
220.051	-3.93
220.27	-28.5
220.488	-22.36
220.706	100.52
220.924	-42.84
221.142	24.75
221.36	65.71
221.578	-20.31
221.796	-28.5
222.015	43.18
222.233	-20.31
222.451	73.9
222.669	-48.98
222.887	53.42
223.105	-8.02
223.323	24.75
223.541	14.51
223.759	-22.36
223.977	-34.64
224.195	22.7
224.413	20.65
224.631	-1.88
224.849	30.89
225.067	61.61
225.285	6.31
225.503	-36.69
225.721	-44.88
225.939	18.6
226.157	-1.88
226.375	90.28
226.592	6.31
226.81	-69.46
227.028	-32.6
227.246	45.23
227.464	96.43
227.682	143.53
227.9	-18.26
228.117	73.9
228.335	43.18
228.553	20.65
228.771	-5.97
228.989	20.65
229.206	8.36
229.424	94.38
229.642	-20.31
229.86	-20.31
230.077	-1.88
230.295	16.55
230.513	-22.36
230.731	55.47
230.948	24.75
231.166	57.51
231.384	-89.94
231.601	-65.36
231.819	77.99
232.037	14.51
232.254	-10.07
232.472	-34.64
232.689	-3.93
232.907	53.42
233.125	-44.88
233.342	12.46
233.56	12.46
233.777	-20.31
233.995	0.17
234.213	-20.31
234.43	-8.02
234.648	20.65
234.865	37.03
235.083	37.03
235.3	-12.12
235.518	47.27
235.735	55.47
235.953	30.89
236.17	41.13
236.388	55.47
236.605	16.55
236.822	80.04
237.04	-12.12
237.257	39.08
237.475	-40.79
237.692	16.55
237.909	-12.12
238.127	61.61
238.344	-22.36
238.562	4.27
238.779	-61.27
238.996	-69.46
239.214	0.17
239.431	71.85
239.648	-28.5
239.865	-18.26
240.083	39.08
240.3	39.08
240.517	12.46
240.735	-36.69
240.952	86.19
241.169	45.23
241.386	32.94
241.603	20.65
241.821	-44.88
242.038	20.65
242.255	55.47
242.472	20.65
242.689	-40.79
242.907	12.46
243.124	-77.65
243.341	-1.88
243.558	6.31
243.775	-16.21
243.992	20.65
244.209	28.84
244.426	49.32
244.643	20.65
244.86	-3.93
245.078	57.51
245.295	39.08
245.512	45.23
245.729	-73.56
245.946	-12.12
246.163	22.7
246.38	30.89
246.597	28.84
246.814	37.03
247.031	32.94
247.248	43.18
247.464	22.7
247.681	20.65
247.898	14.51
248.115	12.46
248.332	0.17
248.549	-40.79
248.766	65.71
248.983	-10.07
249.2	-3.93
249.417	-22.36
249.633	12.46
249.85	0.17
250.067	-36.69
250.284	-14.17
250.501	-26.45
250.717	61.61
250.934	-51.03
251.151	63.66
251.368	-1.88
251.585	24.75
251.801	16.55
252.018	-1.88
252.235	-20.31
252.451	14.51
252.668	-3.93
252.885	34.99
253.102	-28.5
253.318	16.55
253.535	-75.6
253.752	-32.6
253.968	-10.07
254.185	-65.36
254.401	41.13
254.618	53.42
254.835	-77.65
255.051	90.28
255.268	-118.61
255.484	61.61
255.701	8.36
255.917	-1.88
256.134	-1.88
256.351	-10.07
256.567	0.17
256.784	-59.22
257	-55.12
257.217	110.76
257.433	-38.74
257.65	37.03
257.866	4.27
258.082	-26.45
258.299	12.46
258.515	20.65
258.732	0.17
258.948	-59.22
259.165	8.36
259.381	-3.93
259.597	-44.88
259.814	-36.69
260.03	-20.31
260.246	32.94
260.463	-28.5
260.679	-18.26
260.895	-53.08
261.112	86.19
261.328	-26.45
261.544	-28.5
261.761	-32.6
261.977	16.55
262.193	-26.45
262.409	-26.45
262.626	4.27
262.842	57.51
263.058	-10.07
263.274	-55.12
263.49	-38.74
263.707	71.85
263.923	-3.93
264.139	-20.31
264.355	22.7
264.571	-12.12
264.787	28.84
265.004	-26.45
265.22	32.94
265.436	43.18
265.652	-20.31
265.868	45.23
266.084	-18.26
266.3	28.84
266.516	-59.22
266.732	-20.31
266.948	-5.97
267.164	-40.79
267.38	-1.88
267.596	0.17
267.812	96.43
268.028	20.65
268.244	-20.31
268.46	41.13
268.676	-61.27
268.892	41.13
269.108	-61.27
269.324	-44.88
269.54	-12.12
269.756	43.18
269.972	-3.93
270.188	14.51
270.403	-32.6
270.619	20.65
270.835	67.75
271.051	28.84
271.267	28.84
271.483	24.75
271.698	51.37
271.914	45.23
272.13	-28.5
272.346	-40.79
272.562	-20.31
272.777	-3.93
272.993	-26.45
273.209	-10.07
273.425	22.7
273.64	20.65
273.856	61.61
274.072	30.89
274.287	-44.88
274.503	20.65
274.719	39.08
274.934	8.36
275.15	-20.31
275.366	-28.5
275.581	69.8
275.797	39.08
276.012	-8.02
276.228	24.75
276.444	37.03
276.659	32.94
276.875	-26.45
277.09	2.22
277.306	-36.69
277.521	-77.65
277.737	20.65
277.952	32.94
278.168	2.22
278.383	-20.31
278.599	20.65
278.814	37.03
279.03	-32.6
279.245	4.27
279.461	37.03
279.676	-10.07
279.892	-26.45
280.107	-1.88
280.322	6.31
280.538	-24.4
280.753	32.94
280.969	45.23
281.184	41.13
281.399	30.89
281.615	45.23
281.83	22.7
282.045	4.27
282.26	-67.41
282.476	14.51
282.691	32.94
282.906	-44.88
283.122	0.17
283.337	-8.02
283.552	8.36
283.767	-59.22
283.983	-46.93
284.198	10.41
284.413	47.27
284.628	-28.5
284.843	-10.07
285.058	80.04
285.274	61.61
285.489	-59.22
285.704	14.51
285.919	-75.6
286.134	-26.45
286.349	14.51
286.564	12.46
286.779	-36.69
286.995	-42.84
287.21	-32.6
287.425	45.23
287.64	-20.31
287.855	26.79
288.07	-42.84
288.285	-3.93
288.5	39.08
288.715	63.66
288.93	6.31
289.145	-59.22
289.36	-22.36
289.575	26.79
289.79	14.51
290.004	2.22
290.219	37.03
290.434	-12.12
290.649	-18.26
290.864	53.42
291.079	-8.02
291.294	30.89
291.509	-12.12
291.724	12.46
291.938	-1.88
292.153	24.75
292.368	37.03
292.583	-22.36
292.798	47.27
293.012	16.55
293.227	-34.64
293.442	-36.69
293.657	-57.17
293.871	57.51
294.086	-1.88
294.301	59.56
294.516	34.99
294.73	-40.79
294.945	32.94
295.16	12.46
295.374	-20.31
295.589	6.31
295.804	-3.93
296.018	28.84
296.233	82.09
296.447	37.03
296.662	-77.65
296.877	37.03
297.091	-26.45
297.306	30.89
297.52	37.03
297.735	-28.5
297.949	37.03
298.164	45.23
298.378	14.51
298.593	-24.4
298.807	8.36
299.022	75.95
299.236	110.76
299.451	43.18
299.665	-69.46
299.88	8.36
300.094	16.55
300.309	32.94
300.523	-3.93
300.737	10.41
300.952	-24.4
301.166	69.8
301.381	-32.6
301.595	20.65
301.809	8.36
302.024	-22.36
302.238	8.36
302.452	49.32
302.667	45.23
302.881	69.8
303.095	2.22
303.309	63.66
303.524	47.27
303.738	102.57
303.952	20.65
304.166	41.13
304.381	-53.08
304.595	30.89
304.809	-12.12
305.023	30.89
305.237	-3.93
305.452	-79.7
305.666	94.38
305.88	-18.26
306.094	63.66
306.308	39.08
306.522	24.75
306.736	34.99
306.95	53.42
307.164	20.65
307.379	22.7
307.593	16.55
307.807	94.38
308.021	-20.31
308.235	6.31
308.449	-3.93
308.663	30.89
308.877	16.55
309.091	-20.31
309.305	82.09
309.519	-18.26
309.733	28.84
309.947	-40.79
310.161	-28.5
310.374	26.79
310.588	-20.31
310.802	-26.45
311.016	-28.5
311.23	30.89
311.444	-20.31
311.658	-3.93
311.872	-20.31
312.085	-3.93
312.299	28.84
312.513	55.47
312.727	22.7
312.941	-44.88
313.154	-1.88
313.368	75.95
313.582	-5.97
313.796	-26.45
314.009	-12.12
314.223	20.65
314.437	-32.6
314.651	-10.07
314.864	-14.17
315.078	-28.5
315.292	10.41
315.505	43.18
315.719	4.27
315.933	37.03
316.146	43.18
316.36	-69.46
316.573	-8.02
316.787	-8.02
317.001	-20.31
317.214	-51.03
317.428	4.27
317.641	20.65
317.855	-3.93
318.068	-12.12
318.282	-28.5
318.495	37.03
318.709	-26.45
318.922	16.55
319.136	34.99
319.349	32.94
319.563	77.99
319.776	28.84
319.99	12.46
320.203	30.89
320.417	-10.07
320.63	20.65
320.843	39.08
321.057	28.84
321.27	45.23
321.483	39.08
321.697	71.85
321.91	-12.12
322.124	14.51
322.337	-1.88
322.55	2.22
322.763	61.61
322.977	12.46
323.19	24.75
323.403	8.36
323.617	34.99
323.83	41.13
324.043	-51.03
324.256	4.27
324.469	4.27
324.683	55.47
324.896	41.13
325.109	43.18
325.322	-44.88
325.535	73.9
325.748	22.7
325.962	-28.5
326.175	-22.36
326.388	61.61
326.601	-10.07
326.814	-26.45
327.027	20.65
327.24	24.75
327.453	30.89
327.666	30.89
327.879	53.42
328.092	41.13
328.305	45.23
328.518	-3.93
328.731	45.23
328.944	2.22
329.157	-36.69
329.37	-18.26
329.583	37.03
329.796	100.52
330.009	-12.12
330.222	22.7
330.435	-16.21
330.648	-18.26
330.861	14.51
331.073	22.7
331.286	-12.12
331.499	24.75
331.712	16.55
331.925	18.6
332.138	77.99
332.35	14.51
332.563	45.23
332.776	-34.64
332.989	-67.41
333.202	69.8
333.414	30.89
333.627	-3.93
333.84	-24.4
334.053	34.99
334.265	-28.5
334.478	45.23
334.691	26.79
334.903	18.6
335.116	65.71
335.329	37.03
335.541	98.47
335.754	-28.5
335.966	12.46
336.179	-55.12
336.392	-8.02
336.604	-12.12
336.817	86.19
337.029	24.75
337.242	16.55
337.454	-1.88
337.667	-18.26
337.88	51.37
338.092	37.03
338.305	57.51
338.517	-20.31
338.729	32.94
338.942	94.38
339.154	-34.64
339.367	30.89
339.579	12.46
339.792	-28.5
340.004	16.55
340.217	104.62
340.429	-12.12
340.641	-89.94
340.854	-51.03
341.066	-20.31
341.278	47.27
341.491	90.28
341.703	30.89
341.915	32.94
342.128	-32.6
342.34	30.89
342.552	-20.31
342.764	16.55
342.977	63.66
343.189	45.23
343.401	82.09
343.613	-36.69
343.826	12.46
344.038	-40.79
344.25	37.03
344.462	-12.12
344.674	8.36
344.886	4.27
345.099	4.27
345.311	18.6
345.523	-12.12
345.735	65.71
345.947	-53.08
346.159	20.65
346.371	14.51
346.583	8.36
346.795	61.61
347.007	-26.45
347.219	-1.88
347.431	34.99
347.643	71.85
347.855	16.55
348.067	61.61
348.279	-36.69
348.491	57.51
348.703	4.27
348.915	45.23
349.127	37.03
349.339	-8.02
349.551	22.7
349.763	14.51
349.975	20.65
350.187	4.27
350.399	92.33
350.61	37.03
350.822	-28.5
351.034	-24.4
351.246	30.89
351.458	30.89
351.669	-36.69
351.881	69.8
352.093	-20.31
352.305	4.27
352.517	-34.64
352.728	-10.07
352.94	12.46
353.152	53.42
353.363	-10.07
353.575	-57.17
353.787	22.7
353.999	30.89
354.21	84.14
354.422	12.46
354.633	39.08
354.845	26.79
355.057	-18.26
355.268	-3.93
355.48	39.08
355.692	6.31
355.903	-57.17
356.115	-1.88
356.326	-18.26
356.538	63.66
356.749	-1.88
356.961	-30.55
357.172	8.36
357.384	32.94
357.595	37.03
357.807	-67.41
358.018	63.66
358.23	4.27
358.441	41.13
358.653	45.23
358.864	0.17
359.075	51.37
359.287	6.31
359.498	-8.02
359.709	-24.4
359.921	4.27
360.132	8.36
360.344	-28.5
360.555	-12.12
360.766	-3.93
360.977	12.46
361.189	37.03
361.4	-26.45
361.611	45.23
361.823	37.03
362.034	63.66
362.245	-8.02
362.456	37.03
362.667	20.65
362.879	-42.84
363.09	90.28
363.301	-85.84
363.512	20.65
363.723	0.17
363.935	0.17
364.146	94.38
364.357	12.46
364.568	18.6
364.779	-57.17
364.99	24.75
365.201	41.13
365.412	61.61
365.623	-12.12
365.834	-44.88
366.045	-28.5
366.256	-14.17
366.467	41.13
366.678	37.03
366.889	20.65
367.1	-46.93
367.311	39.08
367.522	55.47
367.733	-3.93
367.944	82.09
368.155	-12.12
368.366	-14.17
368.577	8.36
368.788	53.42
368.999	-69.46
369.209	-48.98
369.42	118.95
369.631	47.27
369.842	4.27
370.053	71.85
370.264	41.13
370.474	-57.17
370.685	4.27
370.896	24.75
371.107	-3.93
371.317	45.23
371.528	2.22
371.739	4.27
371.95	-3.93
372.16	18.6
372.371	-10.07
372.582	159.91
372.792	28.84
373.003	-10.07
373.214	28.84
373.424	-22.36
373.635	-69.46
373.846	45.23
374.056	14.51
374.267	41.13
374.477	28.84
374.688	-28.5
374.898	4.27
375.109	28.84
375.319	12.46
375.53	112.81
375.74	8.36
375.951	-10.07
376.161	86.19
376.372	51.37
376.582	45.23
376.793	14.51
377.003	28.84
377.214	6.31
377.424	121
377.635	16.55
377.845	-59.22
378.055	32.94
378.266	-3.93
378.476	28.84
378.686	-26.45
378.897	4.27
379.107	34.99
379.317	61.61
379.528	-1.88
379.738	2.22
379.948	4.27
380.158	92.33
380.369	20.65
380.579	26.79
380.789	-51.03
380.999	90.28
381.21	49.32
381.42	73.9
381.63	32.94
381.84	47.27
382.05	28.84
382.261	37.03
382.471	65.71
382.681	37.03
382.891	-16.21
383.101	26.79
383.311	-28.5
383.521	37.03
383.731	12.46
383.941	69.8
384.151	63.66
384.361	30.89
384.571	6.31
384.781	8.36
384.991	57.51
385.201	14.51
385.411	-12.12
385.621	4.27
385.831	41.13
386.041	-1.88
386.251	20.65
386.461	69.8
386.671	16.55
386.881	-1.88
387.091	-12.12
387.301	16.55
387.511	20.65
387.72	37.03
387.93	24.75
388.14	-22.36
388.35	18.6
388.56	30.89
388.769	133.29
388.979	71.85
389.189	12.46
389.399	82.09
389.609	4.27
389.818	12.46
390.028	-1.88
390.238	61.61
390.447	61.61
390.657	57.51
390.867	-38.74
391.076	-1.88
391.286	41.13
391.496	55.47
391.705	86.19
391.915	63.66
392.125	47.27
392.334	-67.41
392.544	41.13
392.753	69.8
392.963	28.84
393.172	0.17
393.382	-36.69
393.591	12.46
393.801	39.08
394.01	30.89
394.22	106.67
394.429	37.03
394.639	45.23
394.848	28.84
395.058	104.62
395.267	86.19
395.477	-3.93
395.686	16.55
395.895	10.41
396.105	77.99
396.314	71.85
396.524	-26.45
396.733	69.8
396.942	77.99
397.152	45.23
397.361	94.38
397.57	69.8
397.78	61.61
397.989	-12.12
398.198	51.37
398.407	2.22
398.617	73.9
398.826	80.04
399.035	88.23
399.244	88.23
399.453	57.51
399.663	61.61
399.872	41.13
400.081	71.85
400.29	123.05
400.499	45.23
400.708	118.95
400.917	77.99
401.127	22.7
401.336	57.51
401.545	75.95
401.754	121
401.963	71.85
402.172	65.71
402.381	32.94
402.59	90.28
402.799	69.8
403.008	49.32
403.217	92.33
403.426	71.85
403.635	96.43
403.844	73.9
404.053	106.67
404.262	153.77
404.471	112.81
404.68	127.14
404.888	63.66
405.097	69.8
405.306	139.43
405.515	69.8
405.724	65.71
405.933	108.71
406.142	145.58
406.35	145.58
406.559	139.43
406.768	108.71
406.977	192.68
407.185	82.09
407.394	123.05
407.603	39.08
407.812	139.43
408.02	215.21
408.229	143.53
408.438	159.91
408.646	110.76
408.855	198.82
409.064	200.87
409.272	209.06
409.481	286.89
409.69	147.62
409.898	186.54
410.107	215.21
410.315	211.11
410.524	227.5
410.733	319.65
410.941	209.06
411.15	323.75
411.358	272.55
411.567	262.31
411.775	252.07
411.984	321.7
412.192	301.22
412.401	372.9
412.609	428.2
412.818	327.85
413.026	409.76
413.234	266.41
413.443	413.86
413.651	422.05
413.86	415.91
414.068	473.25
414.276	467.11
414.485	483.49
414.693	495.78
414.901	450.72
415.11	585.89
415.318	520.35
415.526	532.64
415.734	598.18
415.943	528.55
416.151	557.22
416.359	569.51
416.567	645.28
416.776	719.01
416.984	630.95
417.192	692.38
417.4	727.2
417.608	770.21
417.817	741.54
418.025	800.93
418.233	856.22
418.441	848.03
418.649	884.89
418.857	921.76
419.065	979.1
419.273	968.86
419.481	919.71
419.689	1007.77
419.897	1044.63
420.105	1095.83
420.313	1132.7
420.521	1261.72
420.729	1253.53
420.937	1278.1
421.145	1284.25
421.353	1439.89
421.561	1462.42
421.769	1458.32
421.977	1454.23
422.185	1532.05
422.393	1620.11
422.601	1818.77
422.809	1636.5
423.017	1618.07
423.224	1738.9
423.432	1904.78
423.64	1806.48
423.848	1998.99
424.056	2017.42
424.263	2195.59
424.471	2160.78
424.679	2191.5
424.887	2275.46
425.094	2457.73
425.302	2297.99
425.51	2515.08
425.718	2472.07
425.925	2551.94
426.133	2617.47
426.341	2871.42
426.548	2930.81
426.756	2865.28
426.964	3037.31
427.171	3080.32
427.379	3287.16
427.586	3213.43
427.794	3238.01
428.001	3428.47
428.209	3635.32
428.417	3559.54
428.624	3981.42
428.832	3868.78
429.039	3750
429.247	3805.3
429.454	4206.7
429.662	4384.87
429.869	4290.67
430.076	4526.18
430.284	4309.1
430.491	4608.1
430.699	4722.79
430.906	4751.46
431.114	4946.02
431.321	5048.41
431.528	5034.08
431.736	5447.77
431.943	5730.39
432.15	5660.76
432.358	5771.35
432.565	5955.66
432.772	5759.06
432.979	6201.42
433.187	6273.1
433.394	6352.97
433.601	6682.69
433.808	6797.38
434.016	6930.5
434.223	6889.54
434.43	7419.96
434.637	7338.04
434.844	7768.12
435.052	7847.99
435.259	7802.93
435.466	7835.7
435.673	7788.6
435.88	8462.38
436.087	8615.98
436.294	8935.46
436.501	8564.78
436.708	8822.82
436.915	9035.81
437.122	9500.7
437.329	9465.88
437.537	9543.71
437.743	9887.76
437.95	9711.64
438.157	10297.36
438.364	10596.36
438.571	10653.7
438.778	10649.61
438.985	11517.95
439.192	11218.94
439.399	11554.81
439.606	11167.74
439.813	11886.58
440.02	12769.26
440.227	12447.72
440.433	12433.39
440.64	12812.26
440.847	12480.49
441.054	13043.68
441.261	13930.45
441.467	13600.73
441.674	13920.21
441.881	14282.7
442.088	14348.24
442.294	14471.12
442.501	14505.93
442.708	14884.81
442.914	15380.42
443.121	16365.49
443.328	15540.16
443.534	16535.47
443.741	16232.37
443.948	15962.04
444.154	17280.93
444.361	17123.24
444.568	17436.58
444.774	17123.24
444.981	17192.87
445.187	18057.11
445.394	18767.76
445.6	18468.75
445.807	20195.19
446.013	19345.28
446.22	19914.62
446.426	20363.12
446.633	20356.98
446.839	21387.11
447.046	20617.07
447.252	21499.75
447.459	21501.79
447.665	21544.8
447.871	22335.32
448.078	23398.21
448.284	22083.42
448.491	23035.72
448.697	24000.32
448.903	24135.48
449.11	24233.78
449.316	24010.56
449.522	24022.84
449.728	24864.56
449.935	25437.99
450.141	25294.63
450.347	25960.22
450.553	24985.39
450.76	25259.82
450.966	26156.83
451.172	25702.18
451.378	26341.14
451.584	25747.23
451.791	26547.99
451.997	26644.24
452.203	26984.21
452.409	26859.28
452.615	26980.11
452.821	25745.19
453.027	25726.75
453.233	27203.34
453.44	26138.4
453.646	26777.36
453.852	26509.08
454.058	26953.49
454.264	25851.68
454.47	26933.01
454.676	26113.82
454.882	27092.75
455.088	24385.33
455.294	24833.84
455.5	25366.31
455.705	25671.46
455.911	24696.63
456.117	24258.36
456.323	23822.14
456.529	22546.26
456.735	23811.9
456.941	23164.75
457.147	22572.88
457.352	22245.21
457.558	21821.28
457.764	21962.59
457.97	21251.94
458.176	21131.11
458.381	21135.21
458.587	19992.44
458.793	20143.99
458.999	18968.46
459.204	20043.64
459.41	19732.35
459.616	18446.23
459.821	18657.17
460.027	18433.94
460.233	18378.64
460.438	17217.44
460.644	17606.56
460.85	16654.25
461.055	16504.75
461.261	16191.41
461.466	15171.52
461.672	14571.47
461.878	15722.43
462.083	14663.63
462.289	14118.87
462.494	14227.41
462.7	13752.28
462.905	13221.86
463.111	13660.12
463.316	13680.6
463.522	13578.2
463.727	13625.31
463.932	13582.3
464.138	13299.68
464.343	13608.92
464.549	12840.93
464.754	13211.62
464.959	13260.77
465.165	12976.1
465.37	12648.43
465.575	12140.53
465.781	13008.87
465.986	12767.21
466.191	12242.93
466.397	12072.95
466.602	11360.25
