Data from USB4F104151__120__14-18-36-347.txt Node

Date: Thu Mar 13 14:18:36 EDT 2025
User: louis
Spectrometer: USB4F10415
Trigger mode: 4
Integration Time (sec): 2.000000E-2
Scans to average: 1
Electric dark correction enabled: true
Nonlinearity correction enabled: false
Boxcar width: 0
XAxis mode: Wavelengths
Number of Pixels in Spectrum: 3648
>>>>>Begin Spectral Data<<<<<
178.204	-129.88
178.424	-129.88
178.644	-129.88
178.864	-109.4
179.084	-68.44
179.304	-50
179.524	42.15
179.744	-39.76
179.964	7.34
180.184	-23.38
180.404	15.53
180.624	54.44
180.844	-2.9
181.064	-41.81
181.283	70.83
181.503	-37.72
181.723	5.29
181.943	-70.48
182.163	29.87
182.383	21.67
182.602	15.53
182.822	5.29
183.042	76.97
183.262	-9.05
183.482	-68.44
183.701	-15.19
183.921	-60.24
184.141	-15.19
184.361	-27.48
184.58	50.35
184.8	25.77
185.02	-15.19
185.239	-15.19
185.459	52.39
185.679	21.67
185.898	-35.67
186.118	38.06
186.338	-76.63
186.557	48.3
186.777	-35.67
186.997	25.77
187.216	15.53
187.436	25.77
187.655	-47.96
187.875	5.29
188.095	68.78
188.314	48.3
188.534	62.63
188.753	7.34
188.973	-27.48
189.192	1.19
189.412	-25.43
189.631	62.63
189.851	29.87
190.07	38.06
190.29	-47.96
190.509	-58.2
190.729	-33.62
190.948	19.63
191.168	38.06
191.387	31.91
191.607	-15.19
191.826	9.39
192.045	-35.67
192.265	60.59
192.484	-58.2
192.704	-25.43
192.923	-50
193.142	38.06
193.362	50.35
193.581	21.67
193.8	15.53
194.02	-50
194.239	21.67
194.458	-25.43
194.678	115.88
194.897	5.29
195.116	17.58
195.335	13.48
195.555	40.11
195.774	-9.05
195.993	40.11
196.212	-2.9
196.432	23.72
196.651	64.68
196.87	-41.81
197.089	72.87
197.308	-4.95
197.528	68.78
197.747	-35.67
197.966	-2.9
198.185	25.77
198.404	50.35
198.623	40.11
198.842	38.06
199.062	105.64
199.281	5.29
199.5	62.63
199.719	-33.62
199.938	-15.19
200.157	29.87
200.376	-0.85
200.595	40.11
200.814	-27.48
201.033	29.87
201.252	107.69
201.471	21.67
201.69	21.67
201.909	7.34
202.128	54.44
202.347	46.25
202.566	42.15
202.785	29.87
203.004	-62.29
203.223	60.59
203.442	-2.9
203.661	-11.09
203.879	81.07
204.098	54.44
204.317	13.48
204.536	31.91
204.755	-74.58
204.974	46.25
205.193	17.58
205.411	62.63
205.63	3.24
205.849	5.29
206.068	-15.19
206.287	-93.01
206.505	-11.09
206.724	-11.09
206.943	-15.19
207.162	29.87
207.381	31.91
207.599	-27.48
207.818	-31.57
208.037	1.19
208.255	11.43
208.474	-17.24
208.693	9.39
208.911	-4.95
209.13	1.19
209.349	54.44
209.567	25.77
209.786	130.22
210.005	42.15
210.223	-27.48
210.442	-33.62
210.661	68.78
210.879	50.35
211.098	21.67
211.316	33.96
211.535	-52.05
211.753	83.11
211.972	5.29
212.191	56.49
212.409	42.15
212.628	-2.9
212.846	13.48
213.065	-13.14
213.283	81.07
213.502	-88.92
213.72	-23.38
213.938	17.58
214.157	-11.09
214.375	-15.19
214.594	5.29
214.812	-25.43
215.031	38.06
215.249	-90.96
215.467	31.91
215.686	7.34
215.904	15.53
216.122	-11.09
216.341	42.15
216.559	-19.29
216.778	62.63
216.996	9.39
217.214	-0.85
217.432	7.34
217.651	-0.85
217.869	15.53
218.087	23.72
218.306	5.29
218.524	-47.96
218.742	-25.43
218.96	54.44
219.179	-25.43
219.397	81.07
219.615	13.48
219.833	60.59
220.051	-19.29
220.27	60.59
220.488	-15.19
220.706	25.77
220.924	74.92
221.142	-43.86
221.36	-43.86
221.578	5.29
221.796	23.72
222.015	-15.19
222.233	-13.14
222.451	79.02
222.669	-50
222.887	54.44
223.105	-19.29
223.323	-27.48
223.541	-17.24
223.759	40.11
223.977	-9.05
224.195	56.49
224.413	21.67
224.631	11.43
224.849	9.39
225.067	25.77
225.285	48.3
225.503	-117.59
225.721	-56.15
225.939	-17.24
226.157	38.06
226.375	103.59
226.592	9.39
226.81	66.73
227.028	-27.48
227.246	33.96
227.464	25.77
227.682	25.77
227.9	27.82
228.117	17.58
228.335	-23.38
228.553	-0.85
228.771	36.01
228.989	54.44
229.206	7.34
229.424	15.53
229.642	-0.85
229.86	-25.43
230.077	11.43
230.295	-19.29
230.513	5.29
230.731	-47.96
230.948	27.82
231.166	25.77
231.384	17.58
231.601	-17.24
231.819	-2.9
232.037	-9.05
232.254	-74.58
232.472	17.58
232.689	33.96
232.907	-76.63
233.125	40.11
233.342	13.48
233.56	-11.09
233.777	19.63
233.995	25.77
234.213	87.21
234.43	-25.43
234.648	-56.15
234.865	-27.48
235.083	-25.43
235.3	70.83
235.518	-41.81
235.735	31.91
235.953	31.91
236.17	9.39
236.388	-50
236.605	-35.67
236.822	31.91
237.04	81.07
237.257	23.72
237.475	-68.44
237.692	-23.38
237.909	62.63
238.127	-25.43
238.344	-62.29
238.562	1.19
238.779	-2.9
238.996	13.48
239.214	-0.85
239.431	-27.48
239.648	-60.24
239.865	5.29
240.083	113.83
240.3	-37.72
240.517	21.67
240.735	-74.58
240.952	-7
241.169	31.91
241.386	7.34
241.603	48.3
241.821	-35.67
242.038	29.87
242.255	-11.09
242.472	25.77
242.689	-13.14
242.907	-11.09
243.124	-19.29
243.341	27.82
243.558	-43.86
243.775	29.87
243.992	11.43
244.209	-35.67
244.426	93.35
244.643	19.63
244.86	-125.78
245.078	5.29
245.295	-2.9
245.512	36.01
245.729	-35.67
245.946	-2.9
246.163	29.87
246.38	-19.29
246.597	-43.86
246.814	21.67
247.031	-17.24
247.248	79.02
247.464	9.39
247.681	72.87
247.898	-21.33
248.115	9.39
248.332	56.49
248.549	13.48
248.766	29.87
248.983	-23.38
249.2	-43.86
249.417	21.67
249.633	-23.38
249.85	31.91
250.067	-17.24
250.284	50.35
250.501	-54.1
250.717	95.4
250.934	48.3
251.151	-33.62
251.368	-39.76
251.585	70.83
251.801	-0.85
252.018	-43.86
252.235	64.68
252.451	15.53
252.668	-13.14
252.885	-33.62
253.102	13.48
253.318	1.19
253.535	5.29
253.752	15.53
253.968	29.87
254.185	-39.76
254.401	25.77
254.618	-4.95
254.835	-99.16
255.051	70.83
255.268	9.39
255.484	21.67
255.701	-7
255.917	17.58
256.134	-39.76
256.351	25.77
256.567	-13.14
256.784	52.39
257	-45.91
257.217	-35.67
257.433	40.11
257.65	13.48
257.866	21.67
258.082	42.15
258.299	-27.48
258.515	31.91
258.732	-54.1
258.948	-93.01
259.165	40.11
259.381	29.87
259.597	-2.9
259.814	-31.57
260.03	21.67
260.246	-60.24
260.463	-4.95
260.679	29.87
260.895	-50
261.112	13.48
261.328	1.19
261.544	-33.62
261.761	-7
261.977	-62.29
262.193	13.48
262.409	36.01
262.626	-54.1
262.842	44.2
263.058	21.67
263.274	-0.85
263.49	-0.85
263.707	54.44
263.923	40.11
264.139	-74.58
264.355	-11.09
264.571	13.48
264.787	38.06
265.004	48.3
265.22	-35.67
265.436	5.29
265.652	15.53
265.868	33.96
266.084	3.24
266.3	-7
266.516	-23.38
266.732	21.67
266.948	-41.81
267.164	5.29
267.38	29.87
267.596	5.29
267.812	-4.95
268.028	70.83
268.244	-4.95
268.46	46.25
268.676	-117.59
268.892	31.91
269.108	-82.77
269.324	13.48
269.54	-17.24
269.756	-25.43
269.972	25.77
270.188	-25.43
270.403	-21.33
270.619	1.19
270.835	-13.14
271.051	-27.48
271.267	9.39
271.483	38.06
271.698	-25.43
271.914	-11.09
272.13	13.48
272.346	25.77
272.562	-15.19
272.777	13.48
272.993	1.19
273.209	-2.9
273.425	46.25
273.64	-31.57
273.856	25.77
274.072	-62.29
274.287	-23.38
274.503	68.78
274.719	68.78
274.934	-0.85
275.15	25.77
275.366	-43.86
275.581	-17.24
275.797	23.72
276.012	-19.29
276.228	15.53
276.444	-64.34
276.659	33.96
276.875	17.58
277.09	-64.34
277.306	-0.85
277.521	25.77
277.737	115.88
277.952	7.34
278.168	-9.05
278.383	15.53
278.599	15.53
278.814	62.63
279.03	50.35
279.245	38.06
279.461	15.53
279.676	70.83
279.892	7.34
280.107	29.87
280.322	-23.38
280.538	19.63
280.753	33.96
280.969	31.91
281.184	1.19
281.399	15.53
281.615	11.43
281.83	7.34
282.045	-50
282.26	-27.48
282.476	-35.67
282.691	17.58
282.906	-23.38
283.122	-41.81
283.337	-90.96
283.552	142.5
283.767	-21.33
283.983	-27.48
284.198	-35.67
284.413	40.11
284.628	13.48
284.843	56.49
285.058	62.63
285.274	-27.48
285.489	13.48
285.704	7.34
285.919	-66.39
286.134	5.29
286.349	3.24
286.564	-27.48
286.779	5.29
286.995	91.31
287.21	7.34
287.425	-0.85
287.64	-52.05
287.855	21.67
288.07	-2.9
288.285	-2.9
288.5	-7
288.715	-17.24
288.93	3.24
289.145	11.43
289.36	1.19
289.575	-33.62
289.79	-64.34
290.004	15.53
290.219	-62.29
290.434	-50
290.649	13.48
290.864	-66.39
291.079	-43.86
291.294	70.83
291.509	-15.19
291.724	23.72
291.938	13.48
292.153	-72.53
292.368	-7
292.583	29.87
292.798	21.67
293.012	50.35
293.227	-7
293.442	-27.48
293.657	7.34
293.871	58.54
294.086	19.63
294.301	87.21
294.516	64.68
294.73	-54.1
294.945	-60.24
295.16	60.59
295.374	85.16
295.589	17.58
295.804	21.67
296.018	-2.9
296.233	42.15
296.447	7.34
296.662	7.34
296.877	46.25
297.091	60.59
297.306	66.73
297.52	-7
297.735	52.39
297.949	-27.48
298.164	7.34
298.378	-35.67
298.593	-93.01
298.807	-19.29
299.022	-0.85
299.236	-11.09
299.451	21.67
299.665	33.96
299.88	-58.2
300.094	62.63
300.309	29.87
300.523	17.58
300.737	42.15
300.952	-7
301.166	-13.14
301.381	11.43
301.595	-47.96
301.809	72.87
302.024	17.58
302.238	15.53
302.452	38.06
302.667	-60.24
302.881	31.91
303.095	97.45
303.309	46.25
303.524	38.06
303.738	-0.85
303.952	13.48
304.166	5.29
304.381	-54.1
304.595	72.87
304.809	-70.48
305.023	-29.52
305.237	74.92
305.452	7.34
305.666	7.34
305.88	56.49
306.094	-7
306.308	-19.29
306.522	50.35
306.736	-15.19
306.95	74.92
307.164	62.63
307.379	21.67
307.593	74.92
307.807	40.11
308.021	44.2
308.235	54.44
308.449	-13.14
308.663	62.63
308.877	111.78
309.091	19.63
309.305	74.92
309.519	-52.05
309.733	-27.48
309.947	48.3
310.161	29.87
310.374	-7
310.588	21.67
310.802	-23.38
311.016	-33.62
311.23	-7
311.444	-41.81
311.658	-31.57
311.872	9.39
312.085	-41.81
312.299	89.26
312.513	38.06
312.727	17.58
312.941	48.3
313.154	23.72
313.368	58.54
313.582	-2.9
313.796	74.92
314.009	-31.57
314.223	81.07
314.437	-2.9
314.651	23.72
314.864	58.54
315.078	5.29
315.292	-4.95
315.505	7.34
315.719	-7
315.933	-4.95
316.146	3.24
316.36	-27.48
316.573	46.25
316.787	-19.29
317.001	38.06
317.214	21.67
317.428	21.67
317.641	-33.62
317.855	5.29
318.068	95.4
318.282	42.15
318.495	29.87
318.709	66.73
318.922	38.06
319.136	66.73
319.349	-29.52
319.563	21.67
319.776	23.72
319.99	-70.48
320.203	-50
320.417	64.68
320.63	38.06
320.843	3.24
321.057	83.11
321.27	-43.86
321.483	76.97
321.697	122.02
321.91	-11.09
322.124	29.87
322.337	44.2
322.55	-56.15
322.763	-31.57
322.977	-9.05
323.19	-33.62
323.403	21.67
323.617	21.67
323.83	54.44
324.043	7.34
324.256	62.63
324.469	56.49
324.683	115.88
324.896	9.39
325.109	52.39
325.322	-47.96
325.535	46.25
325.748	13.48
325.962	38.06
326.175	5.29
326.388	38.06
326.601	21.67
326.814	1.19
327.027	-19.29
327.24	-17.24
327.453	7.34
327.666	42.15
327.879	38.06
328.092	83.11
328.305	-47.96
328.518	21.67
328.731	19.63
328.944	54.44
329.157	46.25
329.37	5.29
329.583	42.15
329.796	36.01
330.009	13.48
330.222	31.91
330.435	5.29
330.648	9.39
330.861	3.24
331.073	-11.09
331.286	17.58
331.499	38.06
331.712	-47.96
331.925	40.11
332.138	-27.48
332.35	31.91
332.563	-58.2
332.776	29.87
332.989	17.58
333.202	17.58
333.414	-2.9
333.627	21.67
333.84	23.72
334.053	-13.14
334.265	-0.85
334.478	66.73
334.691	-23.38
334.903	-27.48
335.116	66.73
335.329	60.59
335.541	66.73
335.754	79.02
335.966	-11.09
336.179	42.15
336.392	1.19
336.604	7.34
336.817	23.72
337.029	38.06
337.242	7.34
337.454	13.48
337.667	54.44
337.88	70.83
338.092	42.15
338.305	21.67
338.517	60.59
338.729	70.83
338.942	-58.2
339.154	-66.39
339.367	-35.67
339.579	-13.14
339.792	40.11
340.004	38.06
340.217	-11.09
340.429	58.54
340.641	-37.72
340.854	-58.2
341.066	-76.63
341.278	103.59
341.491	117.93
341.703	15.53
341.915	-101.2
342.128	21.67
342.34	25.77
342.552	-0.85
342.764	-17.24
342.977	13.48
343.189	113.83
343.401	58.54
343.613	-11.09
343.826	-45.91
344.038	-41.81
344.25	-9.05
344.462	-11.09
344.674	21.67
344.886	-23.38
345.099	36.01
345.311	-7
345.523	62.63
345.735	-37.72
345.947	11.43
346.159	-58.2
346.371	85.16
346.583	-27.48
346.795	13.48
347.007	-37.72
347.219	97.45
347.431	-19.29
347.643	54.44
347.855	-19.29
348.067	48.3
348.279	1.19
348.491	33.96
348.703	15.53
348.915	9.39
349.127	-4.95
349.339	-7
349.551	-17.24
349.763	72.87
349.975	29.87
350.187	70.83
350.399	21.67
350.61	21.67
350.822	40.11
351.034	-31.57
351.246	-82.77
351.458	31.91
351.669	50.35
351.881	62.63
352.093	48.3
352.305	48.3
352.517	87.21
352.728	31.91
352.94	38.06
353.152	74.92
353.363	-72.53
353.575	29.87
353.787	9.39
353.999	21.67
354.21	-33.62
354.422	-29.52
354.633	44.2
354.845	-21.33
355.057	42.15
355.268	-9.05
355.48	-2.9
355.692	11.43
355.903	48.3
356.115	-23.38
356.326	-84.82
356.538	46.25
356.749	95.4
356.961	-2.9
357.172	9.39
357.384	33.96
357.595	-9.05
357.807	83.11
358.018	-60.24
358.23	58.54
358.441	95.4
358.653	70.83
358.864	56.49
359.075	40.11
359.287	13.48
359.498	119.98
359.709	-11.09
359.921	72.87
360.132	-2.9
360.344	21.67
360.555	83.11
360.766	27.82
360.977	15.53
361.189	46.25
361.4	31.91
361.611	38.06
361.823	11.43
362.034	5.29
362.245	99.5
362.456	13.48
362.667	-68.44
362.879	21.67
363.09	31.91
363.301	29.87
363.512	-7
363.723	31.91
363.935	66.73
364.146	117.93
364.357	48.3
364.568	-9.05
364.779	-35.67
364.99	29.87
365.201	40.11
365.412	107.69
365.623	21.67
365.834	54.44
366.045	7.34
366.256	7.34
366.467	46.25
366.678	70.83
366.889	5.29
367.1	13.48
367.311	15.53
367.522	9.39
367.733	-31.57
367.944	117.93
368.155	-70.48
368.366	81.07
368.577	19.63
368.788	52.39
368.999	-50
369.209	42.15
369.42	79.02
369.631	29.87
369.842	56.49
370.053	15.53
370.264	29.87
370.474	46.25
370.685	1.19
370.896	46.25
371.107	9.39
371.317	91.31
371.528	-0.85
371.739	-23.38
371.95	21.67
372.16	87.21
372.371	-31.57
372.582	21.67
372.792	-27.48
373.003	-19.29
373.214	-11.09
373.424	81.07
373.635	-0.85
373.846	31.91
374.056	105.64
374.267	-31.57
374.477	48.3
374.688	-17.24
374.898	46.25
375.109	42.15
375.319	23.72
375.53	128.17
375.74	42.15
375.951	7.34
376.161	-2.9
376.372	21.67
376.582	29.87
376.793	5.29
377.003	-29.52
377.214	31.91
377.424	95.4
377.635	9.39
377.845	42.15
378.055	58.54
378.266	74.92
378.476	-0.85
378.686	31.91
378.897	119.98
379.107	40.11
379.317	54.44
379.528	-31.57
379.738	25.77
379.948	66.73
380.158	91.31
380.369	33.96
380.579	-0.85
380.789	19.63
380.999	101.55
381.21	89.26
381.42	105.64
381.63	29.87
381.84	60.59
382.05	23.72
382.261	46.25
382.471	3.24
382.681	74.92
382.891	11.43
383.101	132.26
383.311	-17.24
383.521	5.29
383.731	54.44
383.941	40.11
384.151	-39.76
384.361	23.72
384.571	46.25
384.781	11.43
384.991	15.53
385.201	50.35
385.411	44.2
385.621	42.15
385.831	-0.85
386.041	74.92
386.251	7.34
386.461	62.63
386.671	29.87
386.881	70.83
387.091	46.25
387.301	44.2
387.511	89.26
387.72	95.4
387.93	25.77
388.14	13.48
388.35	42.15
388.56	54.44
388.769	29.87
388.979	15.53
389.189	48.3
389.399	38.06
389.609	15.53
389.818	38.06
390.028	-4.95
390.238	79.02
390.447	23.72
390.657	33.96
390.867	5.29
391.076	-7
391.286	79.02
391.496	21.67
391.705	85.16
391.915	70.83
392.125	79.02
392.334	-25.43
392.544	128.17
392.753	46.25
392.963	-43.86
393.172	23.72
393.382	-27.48
393.591	70.83
393.801	29.87
394.01	136.36
394.22	-19.29
394.429	89.26
394.639	-7
394.848	54.44
395.058	44.2
395.267	83.11
395.477	58.54
395.686	40.11
395.895	62.63
396.105	79.02
396.314	91.31
396.524	7.34
396.733	-2.9
396.942	81.07
397.152	1.19
397.361	136.36
397.57	74.92
397.78	56.49
397.989	38.06
398.198	91.31
398.407	79.02
398.617	48.3
398.826	117.93
399.035	-15.19
399.244	54.44
399.453	103.59
399.663	56.49
399.872	79.02
400.081	44.2
400.29	81.07
400.499	56.49
400.708	128.17
400.917	42.15
401.127	42.15
401.336	5.29
401.545	119.98
401.754	115.88
401.963	93.35
402.172	13.48
402.381	81.07
402.59	5.29
402.799	60.59
403.008	87.21
403.217	113.83
403.426	58.54
403.635	70.83
403.844	62.63
404.053	87.21
404.262	56.49
404.471	144.55
404.68	48.3
404.888	97.45
405.097	111.78
405.306	165.03
405.515	107.69
405.724	140.46
405.933	128.17
406.142	60.59
406.35	187.56
406.559	97.45
406.768	169.13
406.977	169.13
407.185	156.84
407.394	226.47
407.603	107.69
407.812	210.09
408.02	210.09
408.229	134.31
408.438	160.94
408.646	138.41
408.855	162.98
409.064	222.38
409.272	144.55
409.481	222.38
409.69	162.98
409.898	234.66
410.107	232.62
410.315	228.52
410.524	230.57
410.733	234.66
410.941	275.62
411.15	287.91
411.358	259.24
411.567	310.44
411.775	300.2
411.984	365.73
412.192	320.68
412.401	212.14
412.609	423.08
412.818	443.56
413.026	433.32
413.234	400.55
413.443	406.69
413.651	384.16
413.86	517.28
414.068	517.28
414.276	482.47
414.485	476.32
414.693	523.43
414.901	511.14
415.11	517.28
415.318	529.57
415.526	599.2
415.734	636.06
415.943	603.3
416.151	736.42
416.359	646.3
416.567	683.17
416.776	709.79
416.984	720.03
417.192	769.18
417.4	752.8
417.608	853.15
417.817	703.65
418.025	873.63
418.233	957.6
418.441	869.53
418.649	914.59
418.857	992.41
419.065	1090.71
419.273	996.51
419.481	1057.95
419.689	1143.96
419.897	1070.23
420.105	1275.03
420.313	1303.7
420.521	1342.61
420.729	1342.61
420.937	1315.99
421.145	1367.19
421.353	1504.4
421.561	1598.61
421.769	1604.75
421.977	1639.57
422.185	1571.99
422.393	1756.3
422.601	1930.38
422.809	1807.5
423.017	1883.28
423.224	1971.34
423.432	1989.77
423.64	1971.34
423.848	2210.95
424.056	2126.99
424.263	2221.19
424.471	2258.06
424.679	2409.61
424.887	2391.17
425.094	2479.24
425.302	2638.98
425.51	2587.78
425.718	2665.6
425.925	2782.34
426.133	2835.58
426.341	3013.76
426.548	3153.02
426.756	2956.41
426.964	3167.35
427.171	3312.76
427.379	3400.82
427.586	3576.95
427.794	3595.38
428.001	3773.55
428.209	3927.15
428.417	3826.8
428.624	4113.52
428.832	4215.91
429.039	4074.6
429.247	4097.13
429.454	4602.98
429.662	4789.35
429.869	4494.44
430.076	4832.35
430.284	4736.1
430.491	4863.07
430.699	5135.45
430.906	5135.45
431.114	5225.56
431.321	5276.76
431.528	5297.24
431.736	5772.37
431.943	6249.55
432.15	5930.06
432.358	5956.69
432.565	6317.13
432.772	6196.3
432.979	6587.46
433.187	6698.05
433.394	6739.01
433.601	7265.34
433.808	7214.14
434.016	7255.1
434.223	7636.02
434.43	8049.71
434.637	7896.11
434.844	8236.08
435.052	8485.93
435.259	8465.45
435.466	8406.06
435.673	8473.64
435.88	9036.83
436.087	9450.52
436.294	9411.61
436.501	9253.92
436.708	9348.12
436.915	9802.77
437.122	10177.55
437.329	10179.6
437.537	10490.89
437.743	10552.33
437.95	10454.03
438.157	11105.28
438.364	11279.36
438.571	11443.2
438.778	11344.89
438.985	12858.34
439.192	12010.48
439.399	12465.13
439.606	12043.25
439.813	12985.32
440.02	13648.86
440.227	13212.64
440.433	13353.95
440.64	13609.95
440.847	13362.14
441.054	14015.44
441.261	15006.66
441.467	14629.84
441.674	14861.26
441.881	15424.45
442.088	15229.89
442.294	15254.47
442.501	15504.32
442.708	15809.47
442.914	16616.37
443.121	17632.16
443.328	16692.14
443.534	18084.76
443.741	17433.5
443.948	17210.28
444.154	18711.44
444.361	18430.87
444.568	18295.7
444.774	18539.41
444.981	18785.16
445.187	19397.51
445.394	20015.99
445.6	19616.64
445.807	21779.29
446.013	20740.97
446.22	21134.18
446.426	21932.89
446.633	22176.6
446.839	22838.09
447.046	21922.65
447.252	22879.05
447.459	23280.46
447.665	23096.14
447.871	24236.86
448.078	25271.08
448.284	23995.2
448.491	24955.69
448.697	25844.51
448.903	25852.7
449.11	26006.3
449.316	25690.91
449.522	26135.32
449.728	26991.37
449.935	26768.15
450.141	27079.44
450.347	27925.25
450.553	26733.33
450.76	27276.04
450.966	28001.02
451.172	27859.71
451.378	28797.68
451.584	28044.03
451.791	28842.74
451.997	28588.79
452.203	28908.27
452.409	28795.64
452.615	29014.77
452.821	27994.88
453.027	27515.65
453.233	29340.39
453.44	27953.92
453.646	28400.38
453.852	28357.37
454.058	29010.67
454.264	27935.49
454.47	28650.23
454.676	27951.87
454.882	28963.57
455.088	26561.3
455.294	27161.36
455.5	27167.5
455.705	27273.99
455.911	26501.91
456.117	25844.51
456.323	25557.8
456.529	24003.39
456.735	25707.3
456.941	24789.81
457.147	24435.51
457.352	23649.09
457.558	23468.87
457.764	23612.23
457.97	23018.32
458.176	22240.09
458.381	22668.11
458.587	21123.94
458.793	21607.26
458.999	20149.11
459.204	21975.9
459.41	21130.09
459.616	19819.39
459.821	20013.95
460.027	19956.6
460.233	19411.84
460.438	18328.47
460.644	18883.47
460.85	17978.26
461.055	17464.22
461.261	17355.68
461.466	16264.11
461.672	15629.24
461.878	16782.25
462.083	15858.62
462.289	15547.33
462.494	15207.36
462.7	14584.78
462.905	14302.16
463.111	14791.62
463.316	14865.35
463.522	14513.1
463.727	14586.83
463.932	14326.74
464.138	14386.13
464.343	14386.13
464.549	13966.29
464.754	14201.81
464.959	14277.58
465.165	13976.53
465.37	13685.72
465.575	13214.69
465.781	13581.28
465.986	13976.53
466.191	13171.68
466.397	13044.71
466.602	12379.12
466.807	12729.32
467.012	12841.96
467.218	12678.12
467.423	12661.74
467.628	12635.11
