Data from USB4F104151__237__14-22-08-711.txt Node

Date: Thu Mar 13 14:22:08 EDT 2025
User: louis
Spectrometer: USB4F10415
Trigger mode: 4
Integration Time (sec): 2.000000E-2
Scans to average: 1
Electric dark correction enabled: true
Nonlinearity correction enabled: false
Boxcar width: 0
XAxis mode: Wavelengths
Number of Pixels in Spectrum: 3648
>>>>>Begin Spectral Data<<<<<
178.204	-129.7
178.424	-129.7
178.644	-129.7
178.864	-72.36
179.084	-68.27
179.304	-29.35
179.524	-4.78
179.744	-21.16
179.964	21.85
180.184	-2.73
180.404	75.09
180.624	-4.78
180.844	13.65
181.064	-55.98
181.283	19.8
181.503	-55.98
181.723	44.37
181.943	-39.59
182.163	128.34
182.383	124.24
182.602	1.37
182.822	118.1
183.042	32.08
183.262	66.9
183.482	64.85
183.701	46.42
183.921	87.38
184.141	-8.87
184.361	58.71
184.58	71
184.8	52.56
185.02	85.33
185.239	128.34
185.459	54.61
185.679	21.85
185.898	25.94
186.118	52.56
186.338	50.52
186.557	27.99
186.777	23.89
186.997	-39.59
187.216	19.8
187.436	124.24
187.655	146.77
187.875	97.62
188.095	42.32
188.314	46.42
188.534	71
188.753	40.28
188.973	99.67
189.192	75.09
189.412	7.51
189.631	54.61
189.851	-15.02
190.07	48.47
190.29	-21.16
190.509	38.23
190.729	58.71
190.948	42.32
191.168	134.48
191.387	93.52
191.607	-47.79
191.826	1.37
192.045	97.62
192.265	46.42
192.484	-23.21
192.704	3.41
192.923	44.37
193.142	73.04
193.362	36.18
193.581	34.13
193.8	-37.55
194.02	27.99
194.239	54.61
194.458	21.85
194.678	34.13
194.897	118.1
195.116	126.29
195.335	-60.07
195.555	118.1
195.774	52.56
195.993	73.04
196.212	64.85
196.432	34.13
196.651	38.23
196.87	23.89
197.089	118.1
197.308	3.41
197.528	95.57
197.747	3.41
197.966	50.52
198.185	75.09
198.404	25.94
198.623	19.8
198.842	144.72
199.062	52.56
199.281	66.9
199.5	71
199.719	25.94
199.938	48.47
200.157	159.06
200.376	99.67
200.595	83.28
200.814	36.18
201.033	27.99
201.252	13.65
201.471	54.61
201.69	60.76
201.909	-0.68
202.128	1.37
202.347	32.08
202.566	19.8
202.785	83.28
203.004	25.94
203.223	101.72
203.442	-19.11
203.661	-21.16
203.879	23.89
204.098	120.15
204.317	-45.74
204.536	34.13
204.755	77.14
204.974	9.56
205.193	25.94
205.411	132.44
205.63	11.61
205.849	132.44
206.068	50.52
206.287	32.08
206.505	42.32
206.724	52.56
206.943	-12.97
207.162	9.56
207.381	32.08
207.599	40.28
207.818	40.28
208.037	42.32
208.255	-17.07
208.474	40.28
208.693	34.13
208.911	40.28
209.13	52.56
209.349	56.66
209.567	91.48
209.786	120.15
210.005	42.32
210.223	120.15
210.442	-4.78
210.661	17.75
210.879	-37.55
211.098	-6.83
211.316	116.05
211.535	46.42
211.753	25.94
211.972	77.14
212.191	30.04
212.409	9.56
212.628	54.61
212.846	73.04
213.065	62.8
213.283	89.43
213.502	-6.83
213.72	3.41
213.938	75.09
214.157	71
214.375	17.75
214.594	42.32
214.812	159.06
215.031	-15.02
215.249	58.71
215.467	58.71
215.686	1.37
215.904	52.56
216.122	103.76
216.341	-2.73
216.559	62.8
216.778	85.33
216.996	46.42
217.214	38.23
217.432	46.42
217.651	-0.68
217.869	58.71
218.087	91.48
218.306	13.65
218.524	75.09
218.742	50.52
218.96	42.32
219.179	58.71
219.397	32.08
219.615	93.52
219.833	116.05
220.051	-49.83
220.27	64.85
220.488	85.33
220.706	50.52
220.924	36.18
221.142	58.71
221.36	52.56
221.578	21.85
221.796	23.89
222.015	-6.83
222.233	34.13
222.451	36.18
222.669	13.65
222.887	77.14
223.105	68.95
223.323	-31.4
223.541	50.52
223.759	103.76
223.977	13.65
224.195	34.13
224.413	58.71
224.631	83.28
224.849	118.1
225.067	25.94
225.285	25.94
225.503	71
225.721	-35.5
225.939	-21.16
226.157	48.47
226.375	46.42
226.592	9.56
226.81	83.28
227.028	34.13
227.246	15.7
227.464	124.24
227.682	42.32
227.9	124.24
228.117	95.57
228.335	38.23
228.553	17.75
228.771	83.28
228.989	118.1
229.206	97.62
229.424	34.13
229.642	75.09
229.86	89.43
230.077	13.65
230.295	71
230.513	-0.68
230.731	103.76
230.948	54.61
231.166	71
231.384	25.94
231.601	1.37
231.819	-10.92
232.037	30.04
232.254	-21.16
232.472	36.18
232.689	-8.87
232.907	52.56
233.125	77.14
233.342	19.8
233.56	50.52
233.777	17.75
233.995	3.41
234.213	42.32
234.43	66.9
234.648	103.76
234.865	136.53
235.083	79.19
235.3	50.52
235.518	66.9
235.735	91.48
235.953	99.67
236.17	17.75
236.388	-6.83
236.605	75.09
236.822	36.18
237.04	99.67
237.257	62.8
237.475	13.65
237.692	27.99
237.909	93.52
238.127	58.71
238.344	46.42
238.562	58.71
238.779	5.46
238.996	25.94
239.214	75.09
239.431	52.56
239.648	-27.31
239.865	44.37
240.083	105.81
240.3	103.76
240.517	-2.73
240.735	66.9
240.952	75.09
241.169	62.8
241.386	30.04
241.603	-6.83
241.821	25.94
242.038	25.94
242.255	77.14
242.472	58.71
242.689	75.09
242.907	32.08
243.124	75.09
243.341	30.04
243.558	-23.21
243.775	83.28
243.992	85.33
244.209	17.75
244.426	116.05
244.643	46.42
244.86	15.7
245.078	111.96
245.295	66.9
245.512	5.46
245.729	52.56
245.946	91.48
246.163	44.37
246.38	71
246.597	25.94
246.814	87.38
247.031	3.41
247.248	44.37
247.464	60.76
247.681	93.52
247.898	124.24
248.115	9.56
248.332	1.37
248.549	34.13
248.766	83.28
248.983	103.76
249.2	30.04
249.417	103.76
249.633	-12.97
249.85	66.9
250.067	79.19
250.284	68.95
250.501	9.56
250.717	25.94
250.934	40.28
251.151	1.37
251.368	-8.87
251.585	83.28
251.801	50.52
252.018	40.28
252.235	107.86
252.451	-10.92
252.668	48.47
252.885	128.34
253.102	9.56
253.318	42.32
253.535	50.52
253.752	-51.88
253.968	44.37
254.185	52.56
254.401	42.32
254.618	25.94
254.835	11.61
255.051	109.91
255.268	7.51
255.484	46.42
255.701	13.65
255.917	103.76
256.134	46.42
256.351	36.18
256.567	13.65
256.784	66.9
257	21.85
257.217	66.9
257.433	66.9
257.65	-53.93
257.866	120.15
258.082	91.48
258.299	1.37
258.515	95.57
258.732	7.51
258.948	-23.21
259.165	85.33
259.381	5.46
259.597	68.95
259.814	34.13
260.03	66.9
260.246	58.71
260.463	126.29
260.679	91.48
260.895	7.51
261.112	52.56
261.328	-19.11
261.544	13.65
261.761	128.34
261.977	152.92
262.193	25.94
262.409	75.09
262.626	9.56
262.842	58.71
263.058	60.76
263.274	71
263.49	42.32
263.707	34.13
263.923	17.75
264.139	99.67
264.355	99.67
264.571	120.15
264.787	13.65
265.004	85.33
265.22	27.99
265.436	27.99
265.652	21.85
265.868	5.46
266.084	54.61
266.3	148.82
266.516	66.9
266.732	44.37
266.948	25.94
267.164	75.09
267.38	30.04
267.596	75.09
267.812	50.52
268.028	54.61
268.244	83.28
268.46	68.95
268.676	25.94
268.892	52.56
269.108	50.52
269.324	-4.78
269.54	42.32
269.756	25.94
269.972	-15.02
270.188	44.37
270.403	91.48
270.619	19.8
270.835	87.38
271.051	64.85
271.267	62.8
271.483	91.48
271.698	157.01
271.914	60.76
272.13	-6.83
272.346	62.8
272.562	34.13
272.777	95.57
272.993	58.71
273.209	85.33
273.425	11.61
273.64	-2.73
273.856	93.52
274.072	-6.83
274.287	109.91
274.503	36.18
274.719	1.37
274.934	107.86
275.15	5.46
275.366	42.32
275.581	-47.79
275.797	5.46
276.012	34.13
276.228	3.41
276.444	75.09
276.659	75.09
276.875	11.61
277.09	71
277.306	42.32
277.521	66.9
277.737	42.32
277.952	25.94
278.168	23.89
278.383	58.71
278.599	75.09
278.814	-6.83
279.03	40.28
279.245	75.09
279.461	50.52
279.676	58.71
279.892	38.23
280.107	17.75
280.322	5.46
280.538	75.09
280.753	64.85
280.969	79.19
281.184	-45.74
281.399	87.38
281.615	122.2
281.83	114
282.045	30.04
282.26	19.8
282.476	64.85
282.691	132.44
282.906	79.19
283.122	-12.97
283.337	23.89
283.552	25.94
283.767	-4.78
283.983	42.32
284.198	42.32
284.413	5.46
284.628	-55.98
284.843	32.08
285.058	99.67
285.274	48.47
285.489	11.61
285.704	34.13
285.919	25.94
286.134	48.47
286.349	9.56
286.564	34.13
286.779	124.24
286.995	107.86
287.21	-31.4
287.425	95.57
287.64	32.08
287.855	128.34
288.07	48.47
288.285	68.95
288.5	46.42
288.715	30.04
288.93	17.75
289.145	38.23
289.36	132.44
289.575	27.99
289.79	17.75
290.004	38.23
290.219	128.34
290.434	95.57
290.649	66.9
290.864	71
291.079	93.52
291.294	54.61
291.509	62.8
291.724	44.37
291.938	-21.16
292.153	91.48
292.368	91.48
292.583	46.42
292.798	58.71
293.012	91.48
293.227	50.52
293.442	60.76
293.657	50.52
293.871	79.19
294.086	62.8
294.301	68.95
294.516	91.48
294.73	36.18
294.945	66.9
295.16	81.24
295.374	87.38
295.589	21.85
295.804	11.61
296.018	38.23
296.233	21.85
296.447	30.04
296.662	79.19
296.877	66.9
297.091	85.33
297.306	64.85
297.52	56.66
297.735	68.95
297.949	36.18
298.164	9.56
298.378	85.33
298.593	27.99
298.807	1.37
299.022	42.32
299.236	87.38
299.451	62.8
299.665	73.04
299.88	19.8
300.094	30.04
300.309	81.24
300.523	46.42
300.737	114
300.952	54.61
301.166	87.38
301.381	32.08
301.595	97.62
301.809	40.28
302.024	34.13
302.238	-8.87
302.452	52.56
302.667	21.85
302.881	171.35
303.095	75.09
303.309	79.19
303.524	58.71
303.738	101.72
303.952	157.01
304.166	107.86
304.381	-12.97
304.595	79.19
304.809	-10.92
305.023	-23.21
305.237	17.75
305.452	30.04
305.666	66.9
305.88	75.09
306.094	30.04
306.308	75.09
306.522	93.52
306.736	159.06
306.95	114
307.164	114
307.379	111.96
307.593	85.33
307.807	3.41
308.021	34.13
308.235	1.37
308.449	1.37
308.663	-31.4
308.877	85.33
309.091	32.08
309.305	52.56
309.519	66.9
309.733	34.13
309.947	9.56
310.161	71
310.374	136.53
310.588	101.72
310.802	13.65
311.016	34.13
311.23	9.56
311.444	27.99
311.658	34.13
311.872	75.09
312.085	-6.83
312.299	42.32
312.513	34.13
312.727	9.56
312.941	-23.21
313.154	97.62
313.368	3.41
313.582	124.24
313.796	25.94
314.009	58.71
314.223	91.48
314.437	148.82
314.651	128.34
314.864	42.32
315.078	36.18
315.292	-4.78
315.505	93.52
315.719	116.05
315.933	27.99
316.146	132.44
316.36	-2.73
316.573	36.18
316.787	71
317.001	52.56
317.214	27.99
317.428	75.09
317.641	25.94
317.855	68.95
318.068	25.94
318.282	25.94
318.495	68.95
318.709	-10.92
318.922	44.37
319.136	107.86
319.349	81.24
319.563	1.37
319.776	13.65
319.99	50.52
320.203	52.56
320.417	52.56
320.63	124.24
320.843	83.28
321.057	-47.79
321.27	34.13
321.483	66.9
321.697	66.9
321.91	21.85
322.124	85.33
322.337	50.52
322.55	89.43
322.763	54.61
322.977	107.86
323.19	17.75
323.403	64.85
323.617	75.09
323.83	91.48
324.043	64.85
324.256	36.18
324.469	58.71
324.683	107.86
324.896	13.65
325.109	25.94
325.322	46.42
325.535	42.32
325.748	93.52
325.962	-21.16
326.175	25.94
326.388	64.85
326.601	75.09
326.814	62.8
327.027	83.28
327.24	83.28
327.453	116.05
327.666	54.61
327.879	68.95
328.092	58.71
328.305	95.57
328.518	25.94
328.731	-4.78
328.944	103.76
329.157	48.47
329.37	64.85
329.583	132.44
329.796	91.48
330.009	93.52
330.222	124.24
330.435	36.18
330.648	64.85
330.861	-19.11
331.073	5.46
331.286	83.28
331.499	38.23
331.712	95.57
331.925	50.52
332.138	87.38
332.35	73.04
332.563	44.37
332.776	27.99
332.989	93.52
333.202	52.56
333.414	60.76
333.627	66.9
333.84	19.8
334.053	62.8
334.265	38.23
334.478	19.8
334.691	19.8
334.903	-10.92
335.116	58.71
335.329	52.56
335.541	75.09
335.754	134.48
335.966	60.76
336.179	13.65
336.392	52.56
336.604	68.95
336.817	87.38
337.029	75.09
337.242	34.13
337.454	50.52
337.667	73.04
337.88	93.52
338.092	66.9
338.305	17.75
338.517	66.9
338.729	68.95
338.942	116.05
339.154	-17.07
339.367	42.32
339.579	52.56
339.792	42.32
340.004	30.04
340.217	50.52
340.429	107.86
340.641	77.14
340.854	34.13
341.066	58.71
341.278	107.86
341.491	103.76
341.703	75.09
341.915	27.99
342.128	34.13
342.34	79.19
342.552	91.48
342.764	126.29
342.977	42.32
343.189	105.81
343.401	120.15
343.613	7.51
343.826	99.67
344.038	30.04
344.25	99.67
344.462	44.37
344.674	58.71
344.886	34.13
345.099	75.09
345.311	11.61
345.523	-47.79
345.735	27.99
345.947	93.52
346.159	42.32
346.371	107.86
346.583	60.76
346.795	77.14
347.007	-10.92
347.219	89.43
347.431	9.56
347.643	99.67
347.855	-15.02
348.067	124.24
348.279	19.8
348.491	132.44
348.703	27.99
348.915	87.38
349.127	-2.73
349.339	19.8
349.551	3.41
349.763	118.1
349.975	-8.87
350.187	116.05
350.399	75.09
350.61	-6.83
350.822	83.28
351.034	75.09
351.246	50.52
351.458	75.09
351.669	9.56
351.881	89.43
352.093	99.67
352.305	48.47
352.517	103.76
352.728	40.28
352.94	50.52
353.152	87.38
353.363	93.52
353.575	75.09
353.787	107.86
353.999	60.76
354.21	130.39
354.422	60.76
354.633	66.9
354.845	91.48
355.057	77.14
355.268	118.1
355.48	36.18
355.692	54.61
355.903	56.66
356.115	34.13
356.326	-29.35
356.538	79.19
356.749	62.8
356.961	66.9
357.172	19.8
357.384	111.96
357.595	132.44
357.807	66.9
358.018	52.56
358.23	1.37
358.441	99.67
358.653	3.41
358.864	52.56
359.075	107.86
359.287	42.32
359.498	99.67
359.709	183.63
359.921	1.37
360.132	27.99
360.344	44.37
360.555	50.52
360.766	58.71
360.977	118.1
361.189	118.1
361.4	30.04
361.611	99.67
361.823	124.24
362.034	40.28
362.245	5.46
362.456	64.85
362.667	-6.83
362.879	68.95
363.09	52.56
363.301	126.29
363.512	85.33
363.723	62.8
363.935	77.14
364.146	27.99
364.357	27.99
364.568	46.42
364.779	46.42
364.99	95.57
365.201	54.61
365.412	85.33
365.623	3.41
365.834	3.41
366.045	105.81
366.256	-2.73
366.467	107.86
366.678	66.9
366.889	30.04
367.1	50.52
367.311	79.19
367.522	75.09
367.733	50.52
367.944	58.71
368.155	71
368.366	103.76
368.577	46.42
368.788	120.15
368.999	27.99
369.209	83.28
369.42	99.67
369.631	107.86
369.842	116.05
370.053	75.09
370.264	21.85
370.474	19.8
370.685	50.52
370.896	124.24
371.107	118.1
371.317	116.05
371.528	111.96
371.739	97.62
371.95	111.96
372.16	97.62
372.371	71
372.582	107.86
372.792	81.24
373.003	126.29
373.214	30.04
373.424	58.71
373.635	66.9
373.846	50.52
374.056	48.47
374.267	27.99
374.477	17.75
374.688	54.61
374.898	66.9
375.109	50.52
375.319	44.37
375.53	111.96
375.74	81.24
375.951	38.23
376.161	42.32
376.372	140.63
376.582	42.32
376.793	83.28
377.003	95.57
377.214	62.8
377.424	50.52
377.635	134.48
377.845	66.9
378.055	124.24
378.266	-39.59
378.476	93.52
378.686	62.8
378.897	114
379.107	50.52
379.317	132.44
379.528	-2.73
379.738	77.14
379.948	25.94
380.158	95.57
380.369	75.09
380.579	83.28
380.789	32.08
380.999	83.28
381.21	38.23
381.42	124.24
381.63	79.19
381.84	120.15
382.05	46.42
382.261	165.2
382.471	52.56
382.681	-15.02
382.891	58.71
383.101	83.28
383.311	46.42
383.521	50.52
383.731	114
383.941	66.9
384.151	77.14
384.361	25.94
384.571	173.39
384.781	83.28
384.991	50.52
385.201	99.67
385.411	27.99
385.621	25.94
385.831	83.28
386.041	75.09
386.251	52.56
386.461	87.38
386.671	40.28
386.881	85.33
387.091	103.76
387.301	142.68
387.511	38.23
387.72	66.9
387.93	197.97
388.14	48.47
388.35	81.24
388.56	103.76
388.769	75.09
388.979	27.99
389.189	68.95
389.399	64.85
389.609	75.09
389.818	116.05
390.028	85.33
390.238	66.9
390.447	52.56
390.657	73.04
390.867	54.61
391.076	30.04
391.286	144.72
391.496	54.61
391.705	75.09
391.915	99.67
392.125	124.24
392.334	148.82
392.544	189.78
392.753	116.05
392.963	30.04
393.172	116.05
393.382	71
393.591	140.63
393.801	130.39
394.01	208.21
394.22	140.63
394.429	111.96
394.639	101.72
394.848	85.33
395.058	66.9
395.267	124.24
395.477	107.86
395.686	97.62
395.895	140.63
396.105	91.48
396.314	193.87
396.524	116.05
396.733	107.86
396.942	195.92
397.152	177.49
397.361	118.1
397.57	79.19
397.78	34.13
397.989	138.58
398.198	236.88
398.407	58.71
398.617	99.67
398.826	138.58
399.035	75.09
399.244	128.34
399.453	109.91
399.663	212.31
399.872	157.01
400.081	91.48
400.29	173.39
400.499	103.76
400.708	140.63
400.917	124.24
401.127	175.44
401.336	91.48
401.545	142.68
401.754	159.06
401.963	183.63
402.172	99.67
402.381	85.33
402.59	128.34
402.799	85.33
403.008	161.11
403.217	197.97
403.426	148.82
403.635	132.44
403.844	148.82
404.053	165.2
404.262	255.31
404.471	193.87
404.68	132.44
404.888	197.97
405.097	189.78
405.306	191.83
405.515	228.69
405.724	200.02
405.933	189.78
406.142	240.98
406.35	214.35
406.559	222.55
406.768	230.74
406.977	298.32
407.185	240.98
407.394	296.27
407.603	195.92
407.812	281.94
408.02	279.89
408.229	312.66
408.438	230.74
408.646	275.79
408.855	279.89
409.064	300.37
409.272	288.08
409.481	353.62
409.69	265.55
409.898	370
410.107	415.06
410.315	402.77
410.524	478.54
410.733	396.62
410.941	451.92
411.15	462.16
411.358	519.5
411.567	462.16
411.775	470.35
411.984	593.23
412.192	595.28
412.401	570.7
412.609	607.56
412.818	617.8
413.026	607.56
413.234	607.56
413.443	673.1
413.651	650.57
413.86	746.83
414.068	855.37
414.276	800.07
414.485	709.96
414.693	802.12
414.901	787.79
415.11	849.22
415.318	884.04
415.526	914.76
415.734	875.85
415.943	912.71
416.151	927.05
416.359	959.81
416.567	1084.74
416.776	1058.12
416.984	1150.28
417.192	1156.42
417.4	1224
417.608	1232.19
417.817	1244.48
418.025	1359.17
418.233	1463.62
418.441	1303.87
418.649	1473.85
418.857	1590.59
419.065	1492.29
419.273	1492.29
419.481	1639.74
419.689	1738.04
419.897	1824.06
420.105	1797.43
420.313	1959.22
420.521	1969.46
420.729	2026.81
420.937	1936.7
421.145	2106.68
421.353	2198.84
421.561	2403.63
421.769	2360.63
421.977	2432.3
422.185	2368.82
422.393	2520.37
422.601	2729.26
422.809	2706.73
423.017	2848.04
423.224	2944.3
423.432	2999.59
423.64	3089.7
423.848	3261.73
424.056	3251.49
424.263	3421.47
424.471	3308.83
424.679	3640.61
424.887	3570.97
425.094	3855.64
425.302	3777.82
425.51	4121.88
425.718	4101.4
425.925	4189.46
426.133	4298
426.341	4617.49
426.548	4582.67
426.756	4642.06
426.964	4752.65
427.171	5025.03
427.379	4957.45
427.586	5178.63
427.794	5496.07
428.001	5516.55
428.209	5797.12
428.417	5645.57
428.624	6274.29
428.832	6120.7
429.039	6114.55
429.247	6202.61
429.454	6655.22
429.662	7322.85
429.869	6812.91
430.076	7333.09
430.284	6956.27
430.491	7249.13
430.699	7644.38
430.906	7613.67
431.114	7726.3
431.321	7976.16
431.528	8199.38
431.736	8584.4
431.943	9161.93
432.15	9065.67
432.358	9014.48
432.565	9579.72
432.772	9524.42
432.979	9938.11
433.187	10052.8
433.394	10413.24
433.601	10851.5
433.808	10876.08
434.016	11015.34
434.223	11457.7
434.43	11879.58
434.637	11558.05
434.844	12377.24
435.052	12600.47
435.259	12862.61
435.466	12774.55
435.673	12713.11
435.88	13405.32
436.087	14210.17
436.294	13972.61
436.501	13769.86
436.708	14115.97
436.915	14394.49
437.122	15172.72
437.329	15055.98
437.537	15848.55
437.743	15705.19
437.95	15844.45
438.157	16563.29
438.364	17222.73
438.571	17189.97
438.778	17196.11
438.985	18648.12
439.192	17968.2
439.399	18469.95
439.606	18041.92
439.813	19258.42
440.02	20380.7
440.227	19756.07
440.433	19977.25
440.64	20343.84
440.847	20304.93
441.054	21023.76
441.261	21959.69
441.467	21890.06
441.674	22234.11
441.881	22946.81
442.088	23217.14
442.294	22885.37
442.501	23593.97
442.708	24130.53
442.914	24722.4
443.121	25686.99
443.328	25498.58
443.534	26971.07
443.741	26225.61
443.948	25646.03
444.154	27681.71
444.361	27483.06
444.568	27556.78
444.774	28083.11
444.981	27878.32
445.187	28691.36
445.394	29754.26
445.6	29567.89
445.807	32183.15
446.013	31206.27
446.22	31824.75
446.426	32926.56
446.633	33069.92
446.839	34364.23
447.046	32924.51
447.252	34624.32
447.459	34659.14
447.665	34614.09
447.871	35916.59
448.078	37370.65
448.284	35752.76
448.491	36760.36
448.697	38476.55
448.903	38644.49
449.11	39170.82
449.316	38097.68
449.522	38714.12
449.728	40389.36
449.935	40137.46
450.141	40051.44
450.347	40991.46
450.553	39949.04
450.76	40469.23
450.966	41951.96
451.172	40995.56
451.378	42377.93
451.584	41616.09
451.791	42545.87
451.997	42396.37
452.203	43236.03
452.409	42945.22
452.615	42742.47
452.821	41425.63
453.027	41177.82
453.233	43313.86
453.44	41618.14
453.646	41831.13
453.852	42515.15
454.058	42754.76
454.264	41509.6
454.47	42840.78
454.676	41480.92
454.882	42980.04
455.088	39166.72
455.294	40145.65
455.5	40301.29
455.705	40878.82
455.911	39183.1
456.117	38189.84
456.323	38099.73
456.529	35957.55
456.735	37989.14
456.941	36651.81
457.147	36391.72
457.352	35552.05
457.558	34929.47
457.764	34843.46
457.97	34292.55
458.176	33545.05
458.381	33512.28
458.587	32252.78
458.793	31593.33
458.999	30606.21
459.204	32498.53
459.41	31398.77
459.616	29658
459.821	29576.08
460.027	29543.31
460.233	29014.94
460.438	27372.47
460.644	28152.74
460.85	26569.66
461.055	26090.44
461.261	26182.6
461.466	23985.13
461.672	23565.29
461.878	24992.73
462.083	23505.9
462.289	23221.23
462.494	22684.67
462.7	21697.55
462.905	21281.81
463.111	21869.58
463.316	22014.98
463.522	21515.28
463.727	21611.53
463.932	21468.17
464.138	21343.25
464.343	21322.77
464.549	20540.44
464.754	21564.43
464.959	21089.3
465.165	21158.93
465.37	20356.13
465.575	19635.24
465.781	20483.1
465.986	20595.74
466.191	19833.89
466.397	19729.45
466.602	18474.04
466.807	19137.59
467.012	19092.53
467.218	18900.02
467.423	18924.6
467.628	19006.52
