Data from USB4F104151__33__14-16-33-911.txt Node

Date: Thu Mar 13 14:16:33 EDT 2025
User: louis
Spectrometer: USB4F10415
Trigger mode: 4
Integration Time (sec): 2.000000E-2
Scans to average: 1
Electric dark correction enabled: true
Nonlinearity correction enabled: false
Boxcar width: 0
XAxis mode: Wavelengths
Number of Pixels in Spectrum: 3648
>>>>>Begin Spectral Data<<<<<
178.204	-43.69
178.424	-43.69
178.644	-43.69
178.864	-133.8
179.084	-123.56
179.304	-51.88
179.524	23.89
179.744	5.46
179.964	32.08
180.184	-41.64
180.404	17.75
180.624	13.65
180.844	23.89
181.064	21.85
181.283	38.23
181.503	-27.31
181.723	-55.98
181.943	-51.88
182.163	161.11
182.383	54.61
182.602	46.42
182.822	-19.11
183.042	21.85
183.262	-2.73
183.482	-55.98
183.701	23.89
183.921	48.47
184.141	-2.73
184.361	38.23
184.58	38.23
184.8	48.47
185.02	27.99
185.239	120.15
185.459	71
185.679	111.96
185.898	-15.02
186.118	99.67
186.338	46.42
186.557	34.13
186.777	50.52
186.997	-4.78
187.216	27.99
187.436	107.86
187.655	21.85
187.875	60.76
188.095	30.04
188.314	1.37
188.534	30.04
188.753	-27.31
188.973	7.51
189.192	79.19
189.412	58.71
189.631	73.04
189.851	46.42
190.07	42.32
190.29	5.46
190.509	60.76
190.729	-2.73
190.948	-2.73
191.168	64.85
191.387	42.32
191.607	3.41
191.826	56.66
192.045	-45.74
192.265	34.13
192.484	83.28
192.704	5.46
192.923	-0.68
193.142	81.24
193.362	99.67
193.581	83.28
193.8	46.42
194.02	105.81
194.239	38.23
194.458	-2.73
194.678	15.7
194.897	64.85
195.116	99.67
195.335	118.1
195.555	62.8
195.774	25.94
195.993	118.1
196.212	13.65
196.432	46.42
196.651	105.81
196.87	46.42
197.089	34.13
197.308	81.24
197.528	71
197.747	19.8
197.966	30.04
198.185	163.15
198.404	42.32
198.623	36.18
198.842	89.43
199.062	66.9
199.281	71
199.5	56.66
199.719	40.28
199.938	120.15
200.157	27.99
200.376	54.61
200.595	1.37
200.814	32.08
201.033	34.13
201.252	15.7
201.471	128.34
201.69	68.95
201.909	5.46
202.128	25.94
202.347	148.82
202.566	13.65
202.785	-10.92
203.004	-15.02
203.223	87.38
203.442	-29.35
203.661	32.08
203.879	15.7
204.098	89.43
204.317	30.04
204.536	17.75
204.755	11.61
204.974	75.09
205.193	52.56
205.411	50.52
205.63	48.47
205.849	-41.64
206.068	50.52
206.287	9.56
206.505	136.53
206.724	50.52
206.943	32.08
207.162	58.71
207.381	60.76
207.599	-17.07
207.818	79.19
208.037	56.66
208.255	3.41
208.474	64.85
208.693	118.1
208.911	15.7
209.13	48.47
209.349	79.19
209.567	58.71
209.786	118.1
210.005	13.65
210.223	-15.02
210.442	58.71
210.661	44.37
210.879	79.19
211.098	32.08
211.316	116.05
211.535	13.65
211.753	11.61
211.972	3.41
212.191	-39.59
212.409	-6.83
212.628	46.42
212.846	54.61
213.065	-2.73
213.283	109.91
213.502	-10.92
213.72	21.85
213.938	-8.87
214.157	52.56
214.375	87.38
214.594	-27.31
214.812	34.13
215.031	71
215.249	5.46
215.467	-10.92
215.686	58.71
215.904	91.48
216.122	111.96
216.341	120.15
216.559	60.76
216.778	97.62
216.996	32.08
217.214	81.24
217.432	87.38
217.651	-8.87
217.869	38.23
218.087	62.8
218.306	-21.16
218.524	30.04
218.742	34.13
218.96	30.04
219.179	9.56
219.397	48.47
219.615	138.58
219.833	15.7
220.051	9.56
220.27	46.42
220.488	116.05
220.706	42.32
220.924	-2.73
221.142	48.47
221.36	32.08
221.578	56.66
221.796	38.23
222.015	75.09
222.233	5.46
222.451	79.19
222.669	34.13
222.887	21.85
223.105	13.65
223.323	1.37
223.541	-39.59
223.759	89.43
223.977	30.04
224.195	124.24
224.413	99.67
224.631	-4.78
224.849	60.76
225.067	132.44
225.285	3.41
225.503	50.52
225.721	56.66
225.939	54.61
226.157	42.32
226.375	136.53
226.592	17.75
226.81	30.04
227.028	99.67
227.246	122.2
227.464	54.61
227.682	50.52
227.9	71
228.117	56.66
228.335	-15.02
228.553	56.66
228.771	32.08
228.989	107.86
229.206	89.43
229.424	56.66
229.642	66.9
229.86	46.42
230.077	5.46
230.295	97.62
230.513	5.46
230.731	71
230.948	124.24
231.166	30.04
231.384	54.61
231.601	-2.73
231.819	36.18
232.037	15.7
232.254	-27.31
232.472	62.8
232.689	54.61
232.907	9.56
233.125	75.09
233.342	40.28
233.56	27.99
233.777	111.96
233.995	9.56
234.213	46.42
234.43	7.51
234.648	56.66
234.865	-19.11
235.083	48.47
235.3	27.99
235.518	71
235.735	189.78
235.953	60.76
236.17	64.85
236.388	40.28
236.605	38.23
236.822	48.47
237.04	54.61
237.257	-0.68
237.475	40.28
237.692	50.52
237.909	34.13
238.127	62.8
238.344	44.37
238.562	42.32
238.779	9.56
238.996	73.04
239.214	79.19
239.431	62.8
239.648	32.08
239.865	95.57
240.083	79.19
240.3	21.85
240.517	58.71
240.735	77.14
240.952	13.65
241.169	48.47
241.386	42.32
241.603	30.04
241.821	38.23
242.038	11.61
242.255	54.61
242.472	54.61
242.689	-10.92
242.907	40.28
243.124	40.28
243.341	42.32
243.558	40.28
243.775	62.8
243.992	-10.92
244.209	89.43
244.426	66.9
244.643	93.52
244.86	54.61
245.078	81.24
245.295	1.37
245.512	42.32
245.729	109.91
245.946	54.61
246.163	-55.98
246.38	27.99
246.597	32.08
246.814	7.51
247.031	15.7
247.248	9.56
247.464	71
247.681	13.65
247.898	48.47
248.115	71
248.332	19.8
248.549	23.89
248.766	60.76
248.983	128.34
249.2	5.46
249.417	91.48
249.633	85.33
249.85	64.85
250.067	5.46
250.284	40.28
250.501	62.8
250.717	42.32
250.934	11.61
251.151	34.13
251.368	91.48
251.585	71
251.801	-64.17
252.018	97.62
252.235	7.51
252.451	-2.73
252.668	-2.73
252.885	19.8
253.102	-76.46
253.318	44.37
253.535	-23.21
253.752	-2.73
253.968	-23.21
254.185	-27.31
254.401	-49.83
254.618	40.28
254.835	89.43
255.051	71
255.268	30.04
255.484	71
255.701	5.46
255.917	122.2
256.134	54.61
256.351	38.23
256.567	27.99
256.784	9.56
257	79.19
257.217	56.66
257.433	-10.92
257.65	62.8
257.866	83.28
258.082	30.04
258.299	-2.73
258.515	-6.83
258.732	19.8
258.948	-19.11
259.165	71
259.381	23.89
259.597	62.8
259.814	23.89
260.03	13.65
260.246	13.65
260.463	95.57
260.679	56.66
260.895	40.28
261.112	105.81
261.328	7.51
261.544	46.42
261.761	60.76
261.977	-31.4
262.193	17.75
262.409	68.95
262.626	32.08
262.842	38.23
263.058	34.13
263.274	32.08
263.49	-10.92
263.707	7.51
263.923	75.09
264.139	-17.07
264.355	109.91
264.571	105.81
264.787	32.08
265.004	79.19
265.22	71
265.436	44.37
265.652	38.23
265.868	23.89
266.084	40.28
266.3	56.66
266.516	34.13
266.732	-0.68
266.948	60.76
267.164	-0.68
267.38	42.32
267.596	52.56
267.812	95.57
268.028	30.04
268.244	79.19
268.46	48.47
268.676	1.37
268.892	46.42
269.108	30.04
269.324	32.08
269.54	34.13
269.756	87.38
269.972	-45.74
270.188	9.56
270.403	38.23
270.619	-31.4
270.835	-4.78
271.051	-8.87
271.267	-62.12
271.483	-19.11
271.698	-21.16
271.914	54.61
272.13	13.65
272.346	48.47
272.562	66.9
272.777	97.62
272.993	21.85
273.209	62.8
273.425	89.43
273.64	-10.92
273.856	66.9
274.072	-12.97
274.287	30.04
274.503	71
274.719	73.04
274.934	99.67
275.15	38.23
275.366	30.04
275.581	71
275.797	73.04
276.012	17.75
276.228	30.04
276.444	23.89
276.659	46.42
276.875	15.7
277.09	-6.83
277.306	-12.97
277.521	109.91
277.737	23.89
277.952	91.48
278.168	32.08
278.383	97.62
278.599	21.85
278.814	-4.78
279.03	-58.03
279.245	73.04
279.461	60.76
279.676	116.05
279.892	30.04
280.107	79.19
280.322	54.61
280.538	62.8
280.753	52.56
280.969	30.04
281.184	17.75
281.399	87.38
281.615	-23.21
281.83	15.7
282.045	-29.35
282.26	79.19
282.476	32.08
282.691	114
282.906	46.42
283.122	62.8
283.337	5.46
283.552	40.28
283.767	56.66
283.983	62.8
284.198	-15.02
284.413	54.61
284.628	21.85
284.843	13.65
285.058	87.38
285.274	-123.56
285.489	54.61
285.704	60.76
285.919	23.89
286.134	-51.88
286.349	122.2
286.564	23.89
286.779	56.66
286.995	34.13
287.21	-0.68
287.425	87.38
287.64	64.85
287.855	62.8
288.07	15.7
288.285	38.23
288.5	56.66
288.715	62.8
288.93	5.46
289.145	36.18
289.36	81.24
289.575	27.99
289.79	-2.73
290.004	46.42
290.219	25.94
290.434	91.48
290.649	-0.68
290.864	58.71
291.079	71
291.294	81.24
291.509	5.46
291.724	114
291.938	11.61
292.153	38.23
292.368	-74.41
292.583	25.94
292.798	-10.92
293.012	-0.68
293.227	1.37
293.442	42.32
293.657	62.8
293.871	169.3
294.086	30.04
294.301	23.89
294.516	9.56
294.73	75.09
294.945	-4.78
295.16	-15.02
295.374	132.44
295.589	120.15
295.804	23.89
296.018	-10.92
296.233	58.71
296.447	-12.97
296.662	46.42
296.877	105.81
297.091	52.56
297.306	71
297.52	3.41
297.735	81.24
297.949	81.24
298.164	13.65
298.378	-31.4
298.593	32.08
298.807	7.51
299.022	32.08
299.236	87.38
299.451	7.51
299.665	64.85
299.88	103.76
300.094	23.89
300.309	15.7
300.523	48.47
300.737	21.85
300.952	15.7
301.166	62.8
301.381	32.08
301.595	40.28
301.809	38.23
302.024	-15.02
302.238	58.71
302.452	157.01
302.667	66.9
302.881	3.41
303.095	40.28
303.309	64.85
303.524	30.04
303.738	46.42
303.952	-21.16
304.166	48.47
304.381	11.61
304.595	25.94
304.809	81.24
305.023	13.65
305.237	58.71
305.452	46.42
305.666	15.7
305.88	-6.83
306.094	21.85
306.308	87.38
306.522	95.57
306.736	99.67
306.95	46.42
307.164	95.57
307.379	34.13
307.593	75.09
307.807	54.61
308.021	7.51
308.235	105.81
308.449	38.23
308.663	23.89
308.877	89.43
309.091	87.38
309.305	116.05
309.519	46.42
309.733	91.48
309.947	11.61
310.161	97.62
310.374	13.65
310.588	136.53
310.802	21.85
311.016	83.28
311.23	1.37
311.444	19.8
311.658	48.47
311.872	64.85
312.085	23.89
312.299	103.76
312.513	85.33
312.727	-4.78
312.941	17.75
313.154	71
313.368	-15.02
313.582	97.62
313.796	52.56
314.009	77.14
314.223	-25.26
314.437	32.08
314.651	83.28
314.864	46.42
315.078	30.04
315.292	52.56
315.505	17.75
315.719	75.09
315.933	11.61
316.146	21.85
316.36	-33.45
316.573	64.85
316.787	-8.87
317.001	101.72
317.214	79.19
317.428	-29.35
317.641	-49.83
317.855	-35.5
318.068	-19.11
318.282	62.8
318.495	116.05
318.709	66.9
318.922	5.46
319.136	68.95
319.349	46.42
319.563	77.14
319.776	54.61
319.99	71
320.203	32.08
320.417	-19.11
320.63	58.71
320.843	46.42
321.057	-2.73
321.27	77.14
321.483	-10.92
321.697	62.8
321.91	9.56
322.124	71
322.337	75.09
322.55	81.24
322.763	50.52
322.977	11.61
323.19	13.65
323.403	81.24
323.617	60.76
323.83	21.85
324.043	32.08
324.256	71
324.469	85.33
324.683	93.52
324.896	75.09
325.109	58.71
325.322	48.47
325.535	79.19
325.748	89.43
325.962	23.89
326.175	52.56
326.388	105.81
326.601	40.28
326.814	64.85
327.027	15.7
327.24	105.81
327.453	-25.26
327.666	25.94
327.879	101.72
328.092	52.56
328.305	58.71
328.518	-4.78
328.731	38.23
328.944	52.56
329.157	-2.73
329.37	1.37
329.583	58.71
329.796	66.9
330.009	-55.98
330.222	64.85
330.435	93.52
330.648	99.67
330.861	73.04
331.073	32.08
331.286	38.23
331.499	79.19
331.712	-37.55
331.925	97.62
332.138	79.19
332.35	105.81
332.563	44.37
332.776	62.8
332.989	50.52
333.202	3.41
333.414	66.9
333.627	48.47
333.84	77.14
334.053	38.23
334.265	42.32
334.478	79.19
334.691	38.23
334.903	17.75
335.116	73.04
335.329	134.48
335.541	75.09
335.754	71
335.966	-2.73
336.179	103.76
336.392	34.13
336.604	-6.83
336.817	58.71
337.029	79.19
337.242	-23.21
337.454	91.48
337.667	21.85
337.88	60.76
338.092	27.99
338.305	140.63
338.517	-33.45
338.729	114
338.942	107.86
339.154	3.41
339.367	-31.4
339.579	5.46
339.792	48.47
340.004	54.61
340.217	-2.73
340.429	38.23
340.641	64.85
340.854	71
341.066	11.61
341.278	87.38
341.491	21.85
341.703	58.71
341.915	-45.74
342.128	71
342.34	118.1
342.552	48.47
342.764	38.23
342.977	15.7
343.189	-35.5
343.401	-10.92
343.613	-35.5
343.826	62.8
344.038	-33.45
344.25	154.96
344.462	46.42
344.674	17.75
344.886	73.04
345.099	93.52
345.311	109.91
345.523	44.37
345.735	-0.68
345.947	105.81
346.159	95.57
346.371	13.65
346.583	50.52
346.795	144.72
347.007	77.14
347.219	42.32
347.431	71
347.643	89.43
347.855	58.71
348.067	30.04
348.279	17.75
348.491	42.32
348.703	114
348.915	116.05
349.127	34.13
349.339	58.71
349.551	32.08
349.763	44.37
349.975	23.89
350.187	89.43
350.399	54.61
350.61	120.15
350.822	32.08
351.034	38.23
351.246	21.85
351.458	50.52
351.669	-19.11
351.881	62.8
352.093	109.91
352.305	97.62
352.517	36.18
352.728	101.72
352.94	87.38
353.152	95.57
353.363	-2.73
353.575	66.9
353.787	111.96
353.999	66.9
354.21	34.13
354.422	30.04
354.633	34.13
354.845	128.34
355.057	-4.78
355.268	-27.31
355.48	38.23
355.692	21.85
355.903	64.85
356.115	44.37
356.326	48.47
356.538	79.19
356.749	40.28
356.961	124.24
357.172	89.43
357.384	42.32
357.595	83.28
357.807	71
358.018	9.56
358.23	75.09
358.441	66.9
358.653	62.8
358.864	62.8
359.075	103.76
359.287	103.76
359.498	105.81
359.709	68.95
359.921	21.85
360.132	9.56
360.344	87.38
360.555	25.94
360.766	105.81
360.977	32.08
361.189	83.28
361.4	60.76
361.611	17.75
361.823	7.51
362.034	64.85
362.245	27.99
362.456	30.04
362.667	114
362.879	56.66
363.09	30.04
363.301	111.96
363.512	11.61
363.723	91.48
363.935	13.65
364.146	79.19
364.357	-2.73
364.568	48.47
364.779	-19.11
364.99	91.48
365.201	75.09
365.412	101.72
365.623	23.89
365.834	66.9
366.045	13.65
366.256	107.86
366.467	68.95
366.678	32.08
366.889	54.61
367.1	23.89
367.311	97.62
367.522	120.15
367.733	128.34
367.944	58.71
368.155	34.13
368.366	46.42
368.577	64.85
368.788	7.51
368.999	75.09
369.209	73.04
369.42	130.39
369.631	58.71
369.842	103.76
370.053	38.23
370.264	95.57
370.474	36.18
370.685	87.38
370.896	79.19
371.107	60.76
371.317	71
371.528	40.28
371.739	9.56
371.95	75.09
372.16	46.42
372.371	36.18
372.582	23.89
372.792	38.23
373.003	40.28
373.214	48.47
373.424	130.39
373.635	128.34
373.846	116.05
374.056	64.85
374.267	23.89
374.477	103.76
374.688	38.23
374.898	97.62
375.109	-10.92
375.319	46.42
375.53	103.76
375.74	44.37
375.951	-10.92
376.161	138.58
376.372	97.62
376.582	30.04
376.793	87.38
377.003	15.7
377.214	152.91
377.424	21.85
377.635	93.52
377.845	79.19
378.055	95.57
378.266	23.89
378.476	5.46
378.686	56.66
378.897	32.08
379.107	21.85
379.317	124.24
379.528	64.85
379.738	34.13
379.948	50.52
380.158	71
380.369	101.72
380.579	66.9
380.789	77.14
380.999	73.04
381.21	75.09
381.42	64.85
381.63	32.08
381.84	15.7
382.05	148.82
382.261	95.57
382.471	79.19
382.681	-2.73
382.891	111.96
383.101	21.85
383.311	11.61
383.521	48.47
383.731	126.29
383.941	97.62
384.151	93.52
384.361	-2.73
384.571	83.28
384.781	-31.4
384.991	91.48
385.201	101.72
385.411	44.37
385.621	120.15
385.831	105.81
386.041	81.24
386.251	48.47
386.461	54.61
386.671	66.9
386.881	130.39
387.091	71
387.301	13.65
387.511	87.38
387.72	34.13
387.93	38.23
388.14	66.9
388.35	34.13
388.56	97.62
388.769	95.57
388.979	122.2
389.189	64.85
389.399	103.76
389.609	73.04
389.818	64.85
390.028	116.05
390.238	56.66
390.447	91.48
390.657	50.52
390.867	73.04
391.076	-0.68
391.286	34.13
391.496	27.99
391.705	77.14
391.915	81.24
392.125	48.47
392.334	97.62
392.544	114
392.753	-10.92
392.963	87.38
393.172	56.66
393.382	75.09
393.591	87.38
393.801	-6.83
394.01	30.04
394.22	95.57
394.429	132.44
394.639	44.37
394.848	62.8
395.058	62.8
395.267	146.77
395.477	62.8
395.686	161.11
395.895	163.15
396.105	81.24
396.314	105.81
396.524	81.24
396.733	122.2
396.942	138.58
397.152	46.42
397.361	148.82
397.57	-0.68
397.78	111.96
397.989	89.43
398.198	142.68
398.407	42.32
398.617	87.38
398.826	79.19
399.035	62.8
399.244	54.61
399.453	32.08
399.663	52.56
399.872	179.54
400.081	140.63
400.29	220.5
400.499	87.38
400.708	138.58
400.917	116.05
401.127	171.35
401.336	124.24
401.545	165.2
401.754	150.87
401.963	93.52
402.172	148.82
402.381	71
402.59	132.44
402.799	122.2
403.008	185.68
403.217	105.81
403.426	197.97
403.635	128.34
403.844	157.01
404.053	124.24
404.262	144.72
404.471	210.26
404.68	150.87
404.888	157.01
405.097	103.76
405.306	179.54
405.515	161.11
405.724	152.91
405.933	189.78
406.142	185.68
406.35	163.15
406.559	218.45
406.768	189.78
406.977	238.93
407.185	126.29
407.394	259.41
407.603	197.97
407.812	249.17
408.02	263.51
408.229	161.11
408.438	187.73
408.646	185.68
408.855	251.22
409.064	212.31
409.272	310.61
409.481	314.7
409.69	283.98
409.898	283.98
410.107	286.03
410.315	308.56
410.524	343.38
410.733	365.9
410.941	359.76
411.15	329.04
411.358	415.05
411.567	415.05
411.775	398.67
411.984	386.38
412.192	392.53
412.401	441.68
412.609	470.35
412.818	515.41
413.026	529.74
413.234	519.5
413.443	546.12
413.651	537.93
413.86	611.66
414.068	621.9
414.276	740.68
414.485	626
414.693	712.01
414.901	734.54
415.11	619.85
415.318	640.33
415.526	775.5
415.734	759.11
415.943	800.07
416.151	826.7
416.359	861.51
416.567	851.27
416.776	855.37
416.984	982.34
417.192	884.04
417.4	951.62
417.608	931.14
417.817	1031.49
418.025	1144.13
418.233	1209.67
418.441	1084.74
418.649	1131.84
418.857	1224
419.065	1203.52
419.273	1221.95
419.481	1269.06
419.689	1451.33
419.897	1523.01
420.105	1408.32
420.313	1547.58
420.521	1559.87
420.729	1615.16
420.937	1604.92
421.145	1568.06
421.353	1832.25
421.561	1865.02
421.769	1946.94
421.977	1975.61
422.185	2022.71
422.393	2043.19
422.601	2067.77
422.809	2196.79
423.017	2159.92
423.224	2397.49
423.432	2397.49
423.64	2444.59
423.848	2561.33
424.056	2422.06
424.263	2727.21
424.471	2700.59
424.679	2823.47
424.887	2940.2
425.094	3058.98
425.302	3013.93
425.51	3167.52
425.718	3308.83
425.925	3400.99
426.133	3341.6
426.341	3597.6
426.548	3683.61
426.756	3671.33
426.964	3841.31
427.171	3994.9
427.379	4117.78
427.586	4283.67
427.794	4300.05
428.001	4535.57
428.209	4756.75
428.417	4668.69
428.624	4844.81
428.832	4832.52
429.039	4883.72
429.247	4977.93
429.454	5371.14
429.662	5801.21
429.869	5360.9
430.076	5922.04
430.284	5643.52
430.491	5784.83
430.699	6175.99
430.906	6186.23
431.114	6239.48
431.321	6561.01
431.528	6593.78
431.736	7083.24
431.943	7464.16
432.15	7224.55
432.358	7361.76
432.565	7697.63
432.772	7574.75
432.979	8058.07
433.187	7982.3
433.394	8221.91
433.601	8848.59
433.808	8684.75
434.016	8660.18
434.223	9043.15
434.43	9540.8
434.637	9389.25
434.844	10015.93
435.052	10196.15
435.259	10165.43
435.466	10247.35
435.673	10112.19
435.88	10896.56
436.087	11367.59
436.294	11410.6
436.501	10984.62
436.708	11162.8
436.915	11637.92
437.122	12180.64
437.329	12090.52
437.537	12539.03
437.743	12678.29
437.95	12661.91
438.157	13261.96
438.364	13747.33
438.571	13704.32
438.778	13517.96
438.985	15086.7
439.192	14457.98
439.399	14910.58
439.606	14464.12
439.813	15490.15
440.02	16383.07
440.227	16026.72
440.433	15813.73
440.64	16442.46
440.847	16100.45
441.054	16637.02
441.261	17871.94
441.467	17800.26
441.674	18033.73
441.881	18607.16
442.088	18459.71
442.294	18342.97
442.501	18877.49
442.708	18842.68
442.914	20067.36
443.121	20556.83
443.328	20204.58
443.534	21621.77
443.741	21197.84
443.948	20765.72
444.154	22322.18
444.361	22205.44
444.568	22574.08
444.774	22330.37
444.981	22418.43
445.187	23202.8
445.394	24019.94
445.6	23880.68
445.807	25914.31
446.013	25109.46
446.22	25138.13
446.426	26256.32
446.633	26799.04
446.839	27440.05
447.046	26340.29
447.252	27909.04
447.459	28076.97
447.665	27782.06
447.871	28830.62
448.078	30462.85
448.284	28754.85
448.491	29928.33
448.697	30837.63
448.903	31460.21
449.11	31527.8
449.316	30780.29
449.522	31615.86
449.728	32254.83
449.935	32457.57
450.141	32121.71
450.347	33342.3
450.553	32017.26
450.76	32652.13
450.966	33860.43
451.172	33080.16
451.378	34044.75
451.584	33635.16
451.791	34370.38
451.997	34177.87
452.203	34577.22
452.409	34632.52
452.615	34458.44
452.821	32861.02
453.027	32711.52
453.233	34390.86
453.44	33297.24
453.646	33960.78
453.852	34016.08
454.058	34388.81
454.264	33096.54
454.47	34018.13
454.676	33141.6
454.882	34313.03
455.088	31363.96
455.294	31433.59
455.5	32150.38
455.705	32387.94
455.911	31069.05
456.117	30372.74
456.323	30329.73
456.529	28461.99
456.735	30186.38
456.941	28797.85
457.147	28806.05
457.352	27915.18
457.558	27583.41
457.764	27726.77
457.97	27202.49
458.176	26555.33
458.381	26203.08
458.587	25514.96
458.793	25295.83
458.999	23958.5
459.204	25897.93
459.41	24982.49
459.616	23102.45
459.821	23256.05
460.027	23385.07
460.233	22561.79
460.438	21734.41
460.644	22039.56
460.85	21343.25
461.055	20503.58
461.261	20556.83
461.466	18904.12
461.672	18443.32
461.878	19645.48
462.083	18609.21
462.289	17939.52
462.494	17912.9
462.7	17216.59
462.905	16786.52
463.111	17439.82
463.316	17421.39
463.522	16925.78
463.727	16778.33
463.932	17089.62
464.138	16956.5
464.343	17167.44
464.549	16141.41
464.754	17038.42
464.959	16944.21
465.165	16305.24
465.37	15733.86
465.575	15621.22
465.781	16288.86
465.986	16299.1
466.191	15400.04
466.397	15463.53
466.602	14531.7
466.807	15254.64
467.012	15174.77
467.218	15240.3
467.423	14847.09
467.628	15000.69
467.833	15400.04
468.038	14912.63
468.244	14621.81
468.449	15211.63
