Data from USB4F104151__24__14-16-15-838.txt Node

Date: Thu Mar 13 14:16:15 EDT 2025
User: louis
Spectrometer: USB4F10415
Trigger mode: 4
Integration Time (sec): 2.000000E-2
Scans to average: 1
Electric dark correction enabled: true
Nonlinearity correction enabled: false
Boxcar width: 0
XAxis mode: Wavelengths
Number of Pixels in Spectrum: 3648
>>>>>Begin Spectral Data<<<<<
178.204	20.65
178.424	20.65
178.644	20.65
178.864	-63.32
179.084	-91.99
179.304	67.75
179.524	-16.21
179.744	-30.55
179.964	43.18
180.184	-20.31
180.404	-14.17
180.624	16.55
180.844	8.36
181.064	2.22
181.283	-24.4
181.503	-48.98
181.723	16.55
181.943	24.75
182.163	55.47
182.383	2.22
182.602	20.65
182.822	18.6
183.042	61.61
183.262	82.09
183.482	-22.36
183.701	6.31
183.921	-22.36
184.141	14.51
184.361	34.99
184.58	-12.12
184.8	6.31
185.02	-61.27
185.239	67.75
185.459	28.84
185.679	30.89
185.898	-32.6
186.118	49.32
186.338	-3.93
186.557	-10.07
186.777	18.6
186.997	-26.45
187.216	61.61
187.436	4.27
187.655	30.89
187.875	-14.17
188.095	2.22
188.314	39.08
188.534	69.8
188.753	49.32
188.973	-44.88
189.192	63.66
189.412	-57.17
189.631	-1.88
189.851	24.75
190.07	41.13
190.29	-22.36
190.509	-73.56
190.729	39.08
190.948	57.51
191.168	114.86
191.387	47.27
191.607	-55.12
191.826	8.36
192.045	49.32
192.265	-20.31
192.484	30.89
192.704	-3.93
192.923	14.51
193.142	32.94
193.362	16.55
193.581	82.09
193.8	8.36
194.02	55.47
194.239	32.94
194.458	-1.88
194.678	18.6
194.897	57.51
195.116	-59.22
195.335	49.32
195.555	100.52
195.774	-46.93
195.993	57.51
196.212	45.23
196.432	-14.17
196.651	-8.02
196.87	80.04
197.089	28.84
197.308	37.03
197.528	57.51
197.747	6.31
197.966	18.6
198.185	51.37
198.404	-26.45
198.623	6.31
198.842	24.75
199.062	16.55
199.281	96.43
199.5	41.13
199.719	49.32
199.938	28.84
200.157	106.67
200.376	59.56
200.595	88.23
200.814	-3.93
201.033	-40.79
201.252	75.95
201.471	-12.12
201.69	110.76
201.909	24.75
202.128	2.22
202.347	8.36
202.566	8.36
202.785	37.03
203.004	10.41
203.223	20.65
203.442	49.32
203.661	34.99
203.879	41.13
204.098	24.75
204.317	-28.5
204.536	65.71
204.755	43.18
204.974	20.65
205.193	16.55
205.411	84.14
205.63	-22.36
205.849	-1.88
206.068	65.71
206.287	61.61
206.505	22.7
206.724	-24.4
206.943	73.9
207.162	-24.4
207.381	-30.55
207.599	37.03
207.818	100.52
208.037	16.55
208.255	43.18
208.474	28.84
208.693	-63.32
208.911	16.55
209.13	22.7
209.349	8.36
209.567	0.17
209.786	8.36
210.005	82.09
210.223	73.9
210.442	-3.93
210.661	26.79
210.879	-1.88
211.098	8.36
211.316	-36.69
211.535	34.99
211.753	24.75
211.972	49.32
212.191	37.03
212.409	10.41
212.628	39.08
212.846	8.36
213.065	-1.88
213.283	10.41
213.502	-24.4
213.72	24.75
213.938	57.51
214.157	-28.5
214.375	43.18
214.594	2.22
214.812	14.51
215.031	10.41
215.249	18.6
215.467	34.99
215.686	26.79
215.904	14.51
216.122	67.75
216.341	114.86
216.559	59.56
216.778	49.32
216.996	-55.12
217.214	0.17
217.432	20.65
217.651	24.75
217.869	51.37
218.087	-32.6
218.306	-30.55
218.524	53.42
218.742	10.41
218.96	63.66
219.179	-32.6
219.397	49.32
219.615	92.33
219.833	10.41
220.051	94.38
220.27	10.41
220.488	24.75
220.706	45.23
220.924	32.94
221.142	22.7
221.36	-5.97
221.578	0.17
221.796	71.85
222.015	34.99
222.233	-8.02
222.451	59.56
222.669	-26.45
222.887	-20.31
223.105	-14.17
223.323	57.51
223.541	8.36
223.759	53.42
223.977	45.23
224.195	-30.55
224.413	47.27
224.631	0.17
224.849	49.32
225.067	125.1
225.285	82.09
225.503	-20.31
225.721	-5.97
225.939	106.67
226.157	4.27
226.375	108.71
226.592	-8.02
226.81	-16.21
227.028	26.79
227.246	2.22
227.464	10.41
227.682	2.22
227.9	61.61
228.117	102.57
228.335	-30.55
228.553	57.51
228.771	-1.88
228.989	14.51
229.206	49.32
229.424	8.36
229.642	30.89
229.86	-16.21
230.077	75.95
230.295	-14.17
230.513	59.56
230.731	57.51
230.948	77.99
231.166	49.32
231.384	16.55
231.601	-32.6
231.819	114.86
232.037	-8.02
232.254	-46.93
232.472	8.36
232.689	-22.36
232.907	22.7
233.125	24.75
233.342	49.32
233.56	37.03
233.777	12.46
233.995	59.56
234.213	0.17
234.43	57.51
234.648	20.65
234.865	32.94
235.083	49.32
235.3	26.79
235.518	18.6
235.735	41.13
235.953	-24.4
236.17	8.36
236.388	73.9
236.605	-57.17
236.822	43.18
237.04	8.36
237.257	10.41
237.475	30.89
237.692	16.55
237.909	18.6
238.127	32.94
238.344	77.99
238.562	-34.64
238.779	-28.5
238.996	-3.93
239.214	-79.7
239.431	92.33
239.648	-38.74
239.865	55.47
240.083	-8.02
240.3	53.42
240.517	-36.69
240.735	8.36
240.952	45.23
241.169	-24.4
241.386	67.75
241.603	41.13
241.821	-30.55
242.038	6.31
242.255	49.32
242.472	-1.88
242.689	-30.55
242.907	20.65
243.124	-5.97
243.341	-32.6
243.558	37.03
243.775	-24.4
243.992	-28.5
244.209	0.17
244.426	28.84
244.643	0.17
244.86	-48.98
245.078	71.85
245.295	77.99
245.512	112.81
245.729	14.51
245.946	28.84
246.163	61.61
246.38	-10.07
246.597	61.61
246.814	32.94
247.031	53.42
247.248	59.56
247.464	-14.17
247.681	-65.36
247.898	16.55
248.115	34.99
248.332	-1.88
248.549	4.27
248.766	18.6
248.983	86.19
249.2	-61.27
249.417	34.99
249.633	16.55
249.85	41.13
250.067	14.51
250.284	-22.36
250.501	116.9
250.717	47.27
250.934	26.79
251.151	22.7
251.368	-1.88
251.585	-18.26
251.801	0.17
252.018	-44.88
252.235	18.6
252.451	-32.6
252.668	-44.88
252.885	47.27
253.102	-34.64
253.318	24.75
253.535	-46.93
253.752	18.6
253.968	-12.12
254.185	16.55
254.401	65.71
254.618	86.19
254.835	-38.74
255.051	41.13
255.268	32.94
255.484	82.09
255.701	-30.55
255.917	37.03
256.134	-32.6
256.351	28.84
256.567	16.55
256.784	34.99
257	4.27
257.217	49.32
257.433	53.42
257.65	24.75
257.866	57.51
258.082	-28.5
258.299	-48.98
258.515	-59.22
258.732	-65.36
258.948	-34.64
259.165	-8.02
259.381	32.94
259.597	32.94
259.814	53.42
260.03	-30.55
260.246	-48.98
260.463	59.56
260.679	106.67
260.895	-28.5
261.112	65.71
261.328	73.9
261.544	-24.4
261.761	16.55
261.977	-5.97
262.193	-10.07
262.409	75.95
262.626	10.41
262.842	53.42
263.058	41.13
263.274	8.36
263.49	10.41
263.707	90.28
263.923	-24.4
264.139	57.51
264.355	-10.07
264.571	-1.88
264.787	65.71
265.004	61.61
265.22	-20.31
265.436	12.46
265.652	0.17
265.868	82.09
266.084	-89.94
266.3	-63.32
266.516	45.23
266.732	37.03
266.948	-44.88
267.164	-34.64
267.38	34.99
267.596	32.94
267.812	-42.84
268.028	18.6
268.244	18.6
268.46	-24.4
268.676	39.08
268.892	77.99
269.108	-69.46
269.324	16.55
269.54	-3.93
269.756	24.75
269.972	-1.88
270.188	-3.93
270.403	24.75
270.619	8.36
270.835	16.55
271.051	34.99
271.267	-36.69
271.483	-34.64
271.698	34.99
271.914	18.6
272.13	-38.74
272.346	73.9
272.562	61.61
272.777	41.13
272.993	75.95
273.209	-8.02
273.425	-63.32
273.64	80.04
273.856	47.27
274.072	24.75
274.287	41.13
274.503	0.17
274.719	-5.97
274.934	4.27
275.15	43.18
275.366	45.23
275.581	-3.93
275.797	-67.41
276.012	57.51
276.228	-32.6
276.444	4.27
276.659	2.22
276.875	-48.98
277.09	4.27
277.306	12.46
277.521	98.47
277.737	90.28
277.952	65.71
278.168	86.19
278.383	20.65
278.599	57.51
278.814	41.13
279.03	24.75
279.245	102.57
279.461	16.55
279.676	26.79
279.892	24.75
280.107	88.23
280.322	18.6
280.538	12.46
280.753	-3.93
280.969	-10.07
281.184	-14.17
281.399	77.99
281.615	28.84
281.83	45.23
282.045	8.36
282.26	32.94
282.476	57.51
282.691	67.75
282.906	80.04
283.122	53.42
283.337	-16.21
283.552	96.43
283.767	-10.07
283.983	-8.02
284.198	53.42
284.413	10.41
284.628	20.65
284.843	71.85
285.058	6.31
285.274	20.65
285.489	-8.02
285.704	47.27
285.919	4.27
286.134	41.13
286.349	18.6
286.564	30.89
286.779	24.75
286.995	26.79
287.21	-8.02
287.425	45.23
287.64	28.84
287.855	30.89
288.07	-12.12
288.285	90.28
288.5	26.79
288.715	69.8
288.93	-5.97
289.145	57.51
289.36	92.33
289.575	45.23
289.79	16.55
290.004	-22.36
290.219	86.19
290.434	55.47
290.649	67.75
290.864	73.9
291.079	69.8
291.294	16.55
291.509	61.61
291.724	-14.17
291.938	8.36
292.153	-40.79
292.368	-65.36
292.583	-32.6
292.798	-12.12
293.012	-12.12
293.227	53.42
293.442	32.94
293.657	34.99
293.871	90.28
294.086	6.31
294.301	51.37
294.516	-5.97
294.73	-46.93
294.945	18.6
295.16	-16.21
295.374	43.18
295.589	65.71
295.804	49.32
296.018	32.94
296.233	24.75
296.447	-12.12
296.662	14.51
296.877	12.46
297.091	51.37
297.306	6.31
297.52	-14.17
297.735	12.46
297.949	-18.26
298.164	-12.12
298.378	-55.12
298.593	2.22
298.807	28.84
299.022	-5.97
299.236	28.84
299.451	18.6
299.665	0.17
299.88	49.32
300.094	51.37
300.309	45.23
300.523	-48.98
300.737	32.94
300.952	51.37
301.166	32.94
301.381	94.38
301.595	12.46
301.809	34.99
302.024	-5.97
302.238	0.17
302.452	-5.97
302.667	90.28
302.881	59.56
303.095	77.99
303.309	57.51
303.524	22.7
303.738	63.66
303.952	43.18
304.166	41.13
304.381	-30.55
304.595	6.31
304.809	-8.02
305.023	65.71
305.237	-40.79
305.452	-32.6
305.666	-12.12
305.88	123.05
306.094	34.99
306.308	34.99
306.522	65.71
306.736	65.71
306.95	-8.02
307.164	-44.88
307.379	10.41
307.593	98.47
307.807	0.17
308.021	75.95
308.235	73.9
308.449	18.6
308.663	-14.17
308.877	49.32
309.091	16.55
309.305	-14.17
309.519	-40.79
309.733	75.95
309.947	-14.17
310.161	0.17
310.374	41.13
310.588	26.79
310.802	8.36
311.016	41.13
311.23	49.32
311.444	16.55
311.658	73.9
311.872	4.27
312.085	90.28
312.299	90.28
312.513	41.13
312.727	69.8
312.941	47.27
313.154	49.32
313.368	59.56
313.582	24.75
313.796	-28.5
314.009	34.99
314.223	82.09
314.437	90.28
314.651	-12.12
314.864	18.6
315.078	51.37
315.292	-5.97
315.505	-8.02
315.719	-8.02
315.933	10.41
316.146	8.36
316.36	18.6
316.573	16.55
316.787	49.32
317.001	51.37
317.214	10.41
317.428	2.22
317.641	12.46
317.855	71.85
318.068	34.99
318.282	16.55
318.495	57.51
318.709	65.71
318.922	-12.12
319.136	49.32
319.349	32.94
319.563	26.79
319.776	4.27
319.99	-48.98
320.203	34.99
320.417	34.99
320.63	39.08
320.843	57.51
321.057	45.23
321.27	73.9
321.483	30.89
321.697	118.95
321.91	90.28
322.124	57.51
322.337	-5.97
322.55	-53.08
322.763	-32.6
322.977	90.28
323.19	-48.98
323.403	10.41
323.617	65.71
323.83	69.8
324.043	-10.07
324.256	30.89
324.469	49.32
324.683	133.29
324.896	37.03
325.109	24.75
325.322	28.84
325.535	16.55
325.748	20.65
325.962	41.13
326.175	41.13
326.388	6.31
326.601	80.04
326.814	55.47
327.027	12.46
327.24	57.51
327.453	-79.7
327.666	127.14
327.879	34.99
328.092	84.14
328.305	94.38
328.518	59.56
328.731	-28.5
328.944	-24.4
329.157	57.51
329.37	26.79
329.583	108.71
329.796	121
330.009	34.99
330.222	12.46
330.435	-20.31
330.648	-40.79
330.861	-46.93
331.073	114.86
331.286	82.09
331.499	82.09
331.712	0.17
331.925	20.65
332.138	75.95
332.35	8.36
332.563	55.47
332.776	75.95
332.989	0.17
333.202	43.18
333.414	77.99
333.627	26.79
333.84	69.8
334.053	34.99
334.265	0.17
334.478	18.6
334.691	-46.93
334.903	59.56
335.116	-20.31
335.329	75.95
335.541	45.23
335.754	73.9
335.966	8.36
336.179	-24.4
336.392	-81.75
336.604	37.03
336.817	-18.26
337.029	-8.02
337.242	43.18
337.454	20.65
337.667	-10.07
337.88	63.66
338.092	12.46
338.305	49.32
338.517	41.13
338.729	71.85
338.942	90.28
339.154	32.94
339.367	-1.88
339.579	20.65
339.792	49.32
340.004	-5.97
340.217	32.94
340.429	0.17
340.641	16.55
340.854	45.23
341.066	26.79
341.278	-8.02
341.491	61.61
341.703	75.95
341.915	10.41
342.128	18.6
342.34	69.8
342.552	-24.4
342.764	39.08
342.977	67.75
343.189	-8.02
343.401	98.47
343.613	-5.97
343.826	47.27
344.038	57.51
344.25	65.71
344.462	53.42
344.674	32.94
344.886	12.46
345.099	51.37
345.311	67.75
345.523	24.75
345.735	94.38
345.947	0.17
346.159	75.95
346.371	-8.02
346.583	41.13
346.795	67.75
347.007	-46.93
347.219	26.79
347.431	-8.02
347.643	98.47
347.855	45.23
348.067	34.99
348.279	43.18
348.491	-59.22
348.703	133.29
348.915	10.41
349.127	57.51
349.339	100.52
349.551	0.17
349.763	0.17
349.975	37.03
350.187	34.99
350.399	49.32
350.61	30.89
350.822	4.27
351.034	28.84
351.246	90.28
351.458	57.51
351.669	92.33
351.881	39.08
352.093	67.75
352.305	32.94
352.517	82.09
352.728	100.52
352.94	98.47
353.152	174.25
353.363	-20.31
353.575	51.37
353.787	110.76
353.999	30.89
354.21	49.32
354.422	61.61
354.633	30.89
354.845	69.8
355.057	49.32
355.268	102.57
355.48	12.46
355.692	67.75
355.903	-12.12
356.115	8.36
356.326	67.75
356.538	77.99
356.749	53.42
356.961	0.17
357.172	32.94
357.384	32.94
357.595	28.84
357.807	24.75
358.018	-24.4
358.23	-1.88
358.441	49.32
358.653	65.71
358.864	116.9
359.075	57.51
359.287	16.55
359.498	57.51
359.709	67.75
359.921	8.36
360.132	90.28
360.344	34.99
360.555	37.03
360.766	51.37
360.977	18.6
361.189	39.08
361.4	34.99
361.611	86.19
361.823	73.9
362.034	84.14
362.245	94.38
362.456	82.09
362.667	32.94
362.879	12.46
363.09	0.17
363.301	69.8
363.512	0.17
363.723	45.23
363.935	0.17
364.146	73.9
364.357	-12.12
364.568	2.22
364.779	-5.97
364.99	57.51
365.201	14.51
365.412	39.08
365.623	24.75
365.834	61.61
366.045	28.84
366.256	82.09
366.467	73.9
366.678	18.6
366.889	67.75
367.1	24.75
367.311	100.52
367.522	43.18
367.733	49.32
367.944	90.28
368.155	0.17
368.366	100.52
368.577	77.99
368.788	49.32
368.999	-32.6
369.209	57.51
369.42	84.14
369.631	45.23
369.842	43.18
370.053	39.08
370.264	8.36
370.474	43.18
370.685	10.41
370.896	-1.88
371.107	6.31
371.317	49.32
371.528	32.94
371.739	43.18
371.95	59.56
372.16	-5.97
372.371	20.65
372.582	100.52
372.792	65.71
373.003	71.85
373.214	65.71
373.424	-24.4
373.635	32.94
373.846	67.75
374.056	8.36
374.267	20.65
374.477	61.61
374.688	8.36
374.898	59.56
375.109	59.56
375.319	34.99
375.53	125.1
375.74	51.37
375.951	71.85
376.161	49.32
376.372	71.85
376.582	-16.21
376.793	57.51
377.003	-16.21
377.214	63.66
377.424	69.8
377.635	67.75
377.845	49.32
378.055	34.99
378.266	57.51
378.476	49.32
378.686	12.46
378.897	-14.17
379.107	16.55
379.317	20.65
379.528	2.22
379.738	49.32
379.948	-32.6
380.158	92.33
380.369	67.75
380.579	45.23
380.789	4.27
380.999	8.36
381.21	75.95
381.42	90.28
381.63	16.55
381.84	123.05
382.05	82.09
382.261	41.13
382.471	47.27
382.681	90.28
382.891	63.66
383.101	53.42
383.311	71.85
383.521	57.51
383.731	75.95
383.941	63.66
384.151	114.86
384.361	92.33
384.571	16.55
384.781	32.94
384.991	65.71
385.201	77.99
385.411	92.33
385.621	16.55
385.831	12.46
386.041	73.9
386.251	30.89
386.461	114.86
386.671	28.84
386.881	51.37
387.091	47.27
387.301	59.56
387.511	57.51
387.72	32.94
387.93	92.33
388.14	0.17
388.35	84.14
388.56	71.85
388.769	90.28
388.979	55.47
389.189	41.13
389.399	65.71
389.609	90.28
389.818	-8.02
390.028	6.31
390.238	131.24
390.447	49.32
390.657	32.94
390.867	55.47
391.076	18.6
391.286	73.9
391.496	-18.26
391.705	28.84
391.915	102.57
392.125	135.34
392.334	59.56
392.544	161.96
392.753	45.23
392.963	30.89
393.172	82.09
393.382	30.89
393.591	102.57
393.801	37.03
394.01	125.1
394.22	59.56
394.429	63.66
394.639	37.03
394.848	131.24
395.058	92.33
395.267	57.51
395.477	75.95
395.686	90.28
395.895	75.95
396.105	108.71
396.314	41.13
396.524	77.99
396.733	159.91
396.942	118.95
397.152	123.05
397.361	73.9
397.57	-3.93
397.78	98.47
397.989	141.48
398.198	90.28
398.407	34.99
398.617	159.91
398.826	121
399.035	123.05
399.244	67.75
399.453	61.61
399.663	61.61
399.872	131.24
400.081	-3.93
400.29	166.06
400.499	67.75
400.708	98.47
400.917	24.75
401.127	153.77
401.336	34.99
401.545	149.67
401.754	127.14
401.963	82.09
402.172	96.43
402.381	47.27
402.59	90.28
402.799	84.14
403.008	98.47
403.217	86.19
403.426	166.06
403.635	94.38
403.844	108.71
404.053	100.52
404.262	90.28
404.471	125.1
404.68	196.78
404.888	147.62
405.097	127.14
405.306	151.72
405.515	82.09
405.724	186.54
405.933	196.78
406.142	180.39
406.35	247.97
406.559	164.01
406.768	190.63
406.977	180.39
407.185	256.17
407.394	172.2
407.603	161.96
407.812	204.97
408.02	239.78
408.229	270.5
408.438	209.06
408.646	186.54
408.855	135.34
409.064	262.31
409.272	237.74
409.481	303.27
409.69	196.78
409.898	264.36
410.107	282.79
410.315	311.46
410.524	333.99
410.733	340.13
410.941	303.27
411.15	346.28
411.358	393.38
411.567	473.25
411.775	399.52
411.984	436.39
412.192	377
412.401	422.05
412.609	460.96
412.818	475.3
413.026	452.77
413.234	454.82
413.443	442.53
413.651	520.35
413.86	553.12
414.068	592.03
414.276	567.46
414.485	557.22
414.693	712.86
414.901	690.34
415.11	612.51
415.318	698.53
415.526	721.06
415.734	739.49
415.943	743.58
416.151	757.92
416.359	741.54
416.567	755.87
416.776	731.3
416.984	837.79
417.192	919.71
417.4	925.85
417.608	864.41
417.817	901.28
418.025	1032.35
418.233	1073.31
418.441	1011.87
418.649	995.48
418.857	1202.33
419.065	1171.61
419.273	1140.89
419.481	1190.04
419.689	1335.45
419.897	1441.94
420.105	1347.73
420.313	1425.56
420.521	1372.31
420.729	1525.91
420.937	1661.07
421.145	1644.69
421.353	1687.7
421.561	1853.58
421.769	1777.81
421.977	1904.78
422.185	1826.96
422.393	1949.84
422.601	2062.48
422.809	2050.19
423.017	2105.48
423.224	2283.66
423.432	2259.08
423.64	2353.29
423.848	2502.79
424.056	2402.44
424.263	2631.81
424.471	2621.57
424.679	2586.76
424.887	2820.22
425.094	2957.44
425.302	2955.39
425.51	3037.31
425.718	3182.71
425.925	3104.89
426.133	3254.39
426.341	3459.19
426.548	3641.46
426.756	3592.31
426.964	3764.34
427.171	3856.5
427.379	3879.02
427.586	4071.53
427.794	4178.03
428.001	4350.06
428.209	4563.05
428.417	4317.29
428.624	4849.76
428.832	4796.51
429.039	4653.16
429.247	4735.07
429.454	5226.59
429.662	5521.49
429.869	5197.92
430.076	5437.53
430.284	5333.08
430.491	5705.81
430.699	5892.18
430.906	5849.17
431.114	6039.63
431.321	6230.09
431.528	6520.9
431.736	6981.7
431.943	6809.67
432.15	6725.7
432.358	6989.89
432.565	7286.84
432.772	7139.39
432.979	7444.54
433.187	7784.5
433.394	7823.41
433.601	8372.27
433.808	8480.81
434.016	8265.77
434.223	8620.07
434.43	9269.28
434.637	9060.38
434.844	9707.54
435.052	9723.93
435.259	9848.85
435.466	9566.23
435.673	9580.57
435.88	10293.26
436.087	10733.57
436.294	10625.03
436.501	10481.67
436.708	10801.16
436.915	11108.35
437.122	11677.69
437.329	11513.85
437.537	11835.38
437.743	12306.41
437.95	11913.2
438.157	12711.91
438.364	13141.99
438.571	12945.38
438.778	13109.22
438.985	14383.06
439.192	13977.56
439.399	14393.3
439.606	13924.31
439.813	14841.8
440.02	15744.95
440.227	14942.15
440.433	15157.19
440.64	15708.09
440.847	15583.16
441.054	16064.44
441.261	17049.51
441.467	16857
441.674	17358.75
441.881	17608.61
442.088	17688.48
442.294	17743.77
442.501	17862.55
442.708	18151.32
442.914	19128.2
443.121	19550.08
443.328	19363.72
443.534	20653.94
443.741	19867.52
443.948	19591.04
444.154	21202.79
444.361	21196.65
444.568	21073.77
444.774	21110.63
444.981	21340.01
445.187	22040.41
445.394	23033.68
445.6	22630.23
445.807	24952.62
446.013	23721.79
446.22	24309.56
446.426	25059.12
446.633	25698.08
446.839	26431.26
447.046	25149.23
447.252	26670.87
447.459	26558.23
447.665	26294.04
447.871	27569.93
448.078	28782.32
448.284	27830.02
448.491	28563.19
448.697	29001.46
448.903	29693.67
449.11	29785.83
449.316	29267.69
449.522	29974.24
449.728	30807.76
449.935	30564.06
450.141	31067.86
450.347	31846.08
450.553	30633.69
450.76	30881.49
450.966	32104.13
451.172	31764.17
451.378	32530.11
451.584	31825.61
451.791	32775.86
451.997	32851.64
452.203	33306.29
452.409	33478.32
452.615	33005.24
452.821	31684.3
453.027	31448.78
453.233	32841.4
453.44	31594.18
453.646	32464.57
453.852	32104.13
454.058	32757.43
454.264	31700.68
454.47	32851.64
454.676	31381.2
454.882	33005.24
455.088	29763.3
455.294	30625.5
455.5	31256.27
455.705	31373
455.911	29572.84
456.117	29263.6
456.323	28991.22
456.529	27645.7
456.735	28577.53
456.941	27913.98
457.147	27787.01
457.352	26664.72
457.558	26519.32
457.764	26349.34
457.97	25837.34
458.176	25296.68
458.381	25216.81
458.587	23942.97
458.793	23963.45
458.999	23375.69
459.204	24491.83
459.41	23674.69
459.616	22257.5
459.821	22183.77
460.027	22226.78
460.233	22026.07
460.438	21026.67
460.644	21071.72
460.85	19953.53
461.055	19509.12
461.261	19427.2
461.466	18063.26
461.672	17676.19
461.878	18802.57
462.083	17821.59
462.289	17592.22
462.494	16928.68
462.7	16555.95
462.905	15785.91
463.111	16240.56
463.316	16490.42
463.522	16138.16
463.727	15962.04
463.932	16494.51
464.138	15982.52
464.343	16226.23
464.549	15525.82
464.754	16207.8
464.959	16058.29
465.165	15779.77
465.37	15267.78
465.575	14946.25
465.781	15503.29
465.986	15431.62
466.191	14782.41
466.397	14712.78
466.602	13850.58
466.807	14512.08
467.012	14473.17
467.218	14376.91
467.423	14122.96
467.628	14266.32
467.833	14882.76
468.038	14268.37
