Data from USB4F104151__81__13-12-34-712.txt Node

Date: Fri Mar 14 13:12:34 EDT 2025
User: louis
Spectrometer: USB4F10415
Trigger mode: 4
Integration Time (sec): 2.000000E-2
Scans to average: 1
Electric dark correction enabled: true
Nonlinearity correction enabled: false
Boxcar width: 0
XAxis mode: Wavelengths
Number of Pixels in Spectrum: 3648
>>>>>Begin Spectral Data<<<<<
178.204	-109.22
178.424	-109.22
178.644	-109.22
178.864	-113.32
179.084	-92.84
179.304	62.8
179.524	-12.97
179.744	-33.45
179.964	-33.45
180.184	-6.83
180.404	17.75
180.624	-4.78
180.844	-78.51
181.064	17.75
181.283	-17.07
181.503	54.61
181.723	34.13
181.943	-53.93
182.163	-2.73
182.383	-15.02
182.602	-6.83
182.822	-29.35
183.042	-4.78
183.262	-2.73
183.482	-33.45
183.701	30.04
183.921	-0.68
184.141	-4.78
184.361	-43.69
184.58	-15.02
184.8	-6.83
185.02	-64.17
185.239	-6.83
185.459	-43.69
185.679	-29.35
185.898	-66.22
186.118	62.8
186.338	11.61
186.557	17.75
186.777	-37.55
186.997	3.41
187.216	-8.87
187.436	17.75
187.655	9.56
187.875	-4.78
188.095	-19.11
188.314	21.85
188.534	7.51
188.753	-39.59
188.973	1.37
189.192	11.61
189.412	-2.73
189.631	-21.16
189.851	-64.17
190.07	77.14
190.29	21.85
190.509	-45.74
190.729	-10.92
190.948	68.95
191.168	30.04
191.387	25.94
191.607	-19.11
191.826	27.99
192.045	-64.17
192.265	-72.36
192.484	-51.88
192.704	-4.78
192.923	-80.55
193.142	13.65
193.362	-39.59
193.581	-12.97
193.8	-2.73
194.02	11.61
194.239	34.13
194.458	30.04
194.678	34.13
194.897	-12.97
195.116	-31.4
195.335	11.61
195.555	-68.27
195.774	-74.41
195.993	-25.26
196.212	-10.92
196.432	-66.22
196.651	7.51
196.87	-43.69
197.089	-33.45
197.308	-6.83
197.528	-39.59
197.747	-47.79
197.966	-51.88
198.185	-15.02
198.404	-68.27
198.623	-47.79
198.842	-19.11
199.062	9.56
199.281	1.37
199.5	1.37
199.719	77.14
199.938	13.65
200.157	32.08
200.376	30.04
200.595	34.13
200.814	7.51
201.033	58.71
201.252	42.32
201.471	-12.97
201.69	15.7
201.909	-21.16
202.128	23.89
202.347	36.18
202.566	-15.02
202.785	17.75
203.004	-55.98
203.223	34.13
203.442	-39.59
203.661	40.28
203.879	-4.78
204.098	-6.83
204.317	-4.78
204.536	-2.73
204.755	-15.02
204.974	-8.87
205.193	-64.17
205.411	109.91
205.63	-49.83
205.849	-43.69
206.068	-2.73
206.287	17.75
206.505	-64.17
206.724	-12.97
206.943	-8.87
207.162	13.65
207.381	19.8
207.599	17.75
207.818	-72.36
208.037	-37.55
208.255	-43.69
208.474	13.65
208.693	15.7
208.911	17.75
209.13	-4.78
209.349	-8.87
209.567	56.66
209.786	-109.22
210.005	25.94
210.223	11.61
210.442	-4.78
210.661	-33.45
210.879	-19.11
211.098	-8.87
211.316	36.18
211.535	3.41
211.753	-39.59
211.972	27.99
212.191	-41.64
212.409	27.99
212.628	60.76
212.846	56.66
213.065	-2.73
213.283	9.56
213.502	-4.78
213.72	-39.59
213.938	-117.42
214.157	-15.02
214.375	-10.92
214.594	-10.92
214.812	1.37
215.031	17.75
215.249	-6.83
215.467	-39.59
215.686	-15.02
215.904	-62.12
216.122	9.56
216.341	42.32
216.559	21.85
216.778	71
216.996	19.8
217.214	-60.07
217.432	36.18
217.651	13.65
217.869	-33.45
218.087	50.52
218.306	3.41
218.524	-53.93
218.742	-6.83
218.96	27.99
219.179	-12.97
219.397	11.61
219.615	-43.69
219.833	7.51
220.051	-64.17
220.27	19.8
220.488	32.08
220.706	38.23
220.924	-51.88
221.142	-55.98
221.36	27.99
221.578	-37.55
221.796	-15.02
222.015	54.61
222.233	-33.45
222.451	58.71
222.669	-78.51
222.887	9.56
223.105	-6.83
223.323	-10.92
223.541	9.56
223.759	-4.78
223.977	1.37
224.195	-23.21
224.413	42.32
224.631	46.42
224.849	-21.16
225.067	58.71
225.285	-27.31
225.503	13.65
225.721	-19.11
225.939	23.89
226.157	21.85
226.375	77.14
226.592	27.99
226.81	-35.5
227.028	-21.16
227.246	-4.78
227.464	27.99
227.682	-17.07
227.9	-80.55
228.117	-31.4
228.335	3.41
228.553	-39.59
228.771	44.37
228.989	-47.79
229.206	-19.11
229.424	52.56
229.642	-45.74
229.86	-19.11
230.077	-29.35
230.295	48.47
230.513	32.08
230.731	30.04
230.948	17.75
231.166	3.41
231.384	13.65
231.601	-4.78
231.819	62.8
232.037	-33.45
232.254	-49.83
232.472	-10.92
232.689	-21.16
232.907	-27.31
233.125	-4.78
233.342	-45.74
233.56	-4.78
233.777	-15.02
233.995	-15.02
234.213	46.42
234.43	3.41
234.648	-6.83
234.865	-39.59
235.083	-21.16
235.3	-27.31
235.518	42.32
235.735	21.85
235.953	62.8
236.17	-78.51
236.388	-8.87
236.605	9.56
236.822	5.46
237.04	25.94
237.257	21.85
237.475	-10.92
237.692	21.85
237.909	-55.98
238.127	-25.26
238.344	52.56
238.562	-23.21
238.779	-27.31
238.996	19.8
239.214	11.61
239.431	75.09
239.648	-12.97
239.865	23.89
240.083	-51.88
240.3	-10.92
240.517	-37.55
240.735	42.32
240.952	1.37
241.169	-25.26
241.386	7.51
241.603	42.32
241.821	21.85
242.038	25.94
242.255	-12.97
242.472	-55.98
242.689	34.13
242.907	21.85
243.124	-0.68
243.341	-39.59
243.558	-47.79
243.775	-0.68
243.992	-88.75
244.209	19.8
244.426	48.47
244.643	-21.16
244.86	13.65
245.078	-12.97
245.295	25.94
245.512	-2.73
245.729	-51.88
245.946	-12.97
246.163	-0.68
246.38	-47.79
246.597	-37.55
246.814	1.37
247.031	71
247.248	9.56
247.464	-68.27
247.681	30.04
247.898	5.46
248.115	25.94
248.332	-64.17
248.549	-21.16
248.766	-12.97
248.983	36.18
249.2	-35.5
249.417	34.13
249.633	-31.4
249.85	-12.97
250.067	36.18
250.284	9.56
250.501	36.18
250.717	13.65
250.934	-0.68
251.151	5.46
251.368	-27.31
251.585	-19.11
251.801	42.32
252.018	-45.74
252.235	27.99
252.451	-19.11
252.668	30.04
252.885	-45.74
253.102	-12.97
253.318	34.13
253.535	21.85
253.752	19.8
253.968	-31.4
254.185	-51.88
254.401	-10.92
254.618	-19.11
254.835	15.7
255.051	13.65
255.268	-29.35
255.484	-23.21
255.701	36.18
255.917	-45.74
256.134	-64.17
256.351	42.32
256.567	-55.98
256.784	-37.55
257	-37.55
257.217	68.95
257.433	-15.02
257.65	-0.68
257.866	-6.83
258.082	-64.17
258.299	-10.92
258.515	-29.35
258.732	19.8
258.948	-29.35
259.165	-10.92
259.381	-23.21
259.597	-43.69
259.814	50.52
260.03	-76.46
260.246	25.94
260.463	-15.02
260.679	25.94
260.895	75.09
261.112	27.99
261.328	-12.97
261.544	-23.21
261.761	68.95
261.977	13.65
262.193	-33.45
262.409	-45.74
262.626	5.46
262.842	-8.87
263.058	1.37
263.274	7.51
263.49	1.37
263.707	-31.4
263.923	-15.02
264.139	-60.07
264.355	-88.75
264.571	-6.83
264.787	-17.07
265.004	46.42
265.22	25.94
265.436	-27.31
265.652	-39.59
265.868	36.18
266.084	-53.93
266.3	-31.4
266.516	-35.5
266.732	101.72
266.948	-60.07
267.164	-55.98
267.38	-45.74
267.596	1.37
267.812	79.19
268.028	-8.87
268.244	15.7
268.46	-2.73
268.676	-39.59
268.892	7.51
269.108	-2.73
269.324	-10.92
269.54	-12.97
269.756	-19.11
269.972	17.75
270.188	11.61
270.403	3.41
270.619	5.46
270.835	11.61
271.051	-37.55
271.267	-10.92
271.483	34.13
271.698	-33.45
271.914	-31.4
272.13	-41.64
272.346	27.99
272.562	-23.21
272.777	15.7
272.993	30.04
273.209	-51.88
273.425	40.28
273.64	-53.93
273.856	-43.69
274.072	-21.16
274.287	34.13
274.503	32.08
274.719	-27.31
274.934	48.47
275.15	-47.79
275.366	27.99
275.581	32.08
275.797	-21.16
276.012	-35.5
276.228	-33.45
276.444	-27.31
276.659	42.32
276.875	-47.79
277.09	60.76
277.306	-15.02
277.521	-53.93
277.737	34.13
277.952	-0.68
278.168	-4.78
278.383	-0.68
278.599	-84.65
278.814	-4.78
279.03	-27.31
279.245	-15.02
279.461	-35.5
279.676	7.51
279.892	32.08
280.107	-37.55
280.322	27.99
280.538	-2.73
280.753	-64.17
280.969	-12.97
281.184	-4.78
281.399	9.56
281.615	-2.73
281.83	-6.83
282.045	-17.07
282.26	-19.11
282.476	30.04
282.691	-15.02
282.906	-12.97
283.122	-21.16
283.337	-37.55
283.552	34.13
283.767	-39.59
283.983	-51.88
284.198	-84.65
284.413	-4.78
284.628	-72.36
284.843	-105.13
285.058	-41.64
285.274	21.85
285.489	-47.79
285.704	-4.78
285.919	42.32
286.134	-43.69
286.349	85.33
286.564	17.75
286.779	13.65
286.995	-2.73
287.21	-55.98
287.425	25.94
287.64	-45.74
287.855	-10.92
288.07	-39.59
288.285	34.13
288.5	25.94
288.715	-31.4
288.93	-47.79
289.145	3.41
289.36	-19.11
289.575	21.85
289.79	32.08
290.004	-47.79
290.219	17.75
290.434	-47.79
290.649	-119.46
290.864	9.56
291.079	-86.7
291.294	15.7
291.509	3.41
291.724	-70.31
291.938	-23.21
292.153	-35.5
292.368	-4.78
292.583	34.13
292.798	19.8
293.012	-21.16
293.227	5.46
293.442	5.46
293.657	-35.5
293.871	9.56
294.086	1.37
294.301	36.18
294.516	-37.55
294.73	9.56
294.945	32.08
295.16	-49.83
295.374	87.38
295.589	27.99
295.804	27.99
296.018	-31.4
296.233	11.61
296.447	-47.79
296.662	-41.64
296.877	52.56
297.091	-15.02
297.306	-2.73
297.52	9.56
297.735	-47.79
297.949	-19.11
298.164	11.61
298.378	-35.5
298.593	-35.5
298.807	-15.02
299.022	-6.83
299.236	-21.16
299.451	-58.03
299.665	-68.27
299.88	25.94
300.094	23.89
300.309	-60.07
300.523	-4.78
300.737	25.94
300.952	-4.78
301.166	30.04
301.381	-53.93
301.595	58.71
301.809	-17.07
302.024	1.37
302.238	-135.85
302.452	40.28
302.667	-15.02
302.881	58.71
303.095	15.7
303.309	-4.78
303.524	13.65
303.738	-10.92
303.952	-12.97
304.166	-37.55
304.381	-66.22
304.595	79.19
304.809	-76.46
305.023	7.51
305.237	-33.45
305.452	5.46
305.666	50.52
305.88	48.47
306.094	21.85
306.308	-49.83
306.522	-8.87
306.736	17.75
306.95	103.76
307.164	7.51
307.379	9.56
307.593	-17.07
307.807	30.04
308.021	-37.55
308.235	-31.4
308.449	21.85
308.663	-25.26
308.877	30.04
309.091	48.47
309.305	-17.07
309.519	-39.59
309.733	46.42
309.947	-23.21
310.161	-37.55
310.374	-45.74
310.588	27.99
310.802	3.41
311.016	-47.79
311.23	30.04
311.444	-21.16
311.658	-55.98
311.872	25.94
312.085	3.41
312.299	-39.59
312.513	-37.55
312.727	-6.83
312.941	13.65
313.154	-21.16
313.368	-2.73
313.582	-12.97
313.796	3.41
314.009	-29.35
314.223	-31.4
314.437	-49.83
314.651	44.37
314.864	-0.68
315.078	-6.83
315.292	-51.88
315.505	-53.93
315.719	-6.83
315.933	9.56
316.146	38.23
316.36	-23.21
316.573	13.65
316.787	-6.83
317.001	-15.02
317.214	-37.55
317.428	-17.07
317.641	-119.46
317.855	44.37
318.068	58.71
318.282	-21.16
318.495	25.94
318.709	66.9
318.922	-21.16
319.136	-68.27
319.349	60.76
319.563	-0.68
319.776	-19.11
319.99	3.41
320.203	25.94
320.417	-47.79
320.63	105.81
320.843	-4.78
321.057	-39.59
321.27	66.9
321.483	60.76
321.697	-2.73
321.91	1.37
322.124	-15.02
322.337	-10.92
322.55	44.37
322.763	-31.4
322.977	42.32
323.19	-12.97
323.403	77.14
323.617	-45.74
323.83	-43.69
324.043	60.76
324.256	-68.27
324.469	-84.65
324.683	9.56
324.896	-0.68
325.109	-29.35
325.322	-47.79
325.535	7.51
325.748	19.8
325.962	-19.11
326.175	-80.55
326.388	17.75
326.601	21.85
326.814	19.8
327.027	19.8
327.24	-12.97
327.453	-64.17
327.666	-43.69
327.879	66.9
328.092	-2.73
328.305	-6.83
328.518	21.85
328.731	-0.68
328.944	-55.98
329.157	-109.22
329.37	-64.17
329.583	-60.07
329.796	50.52
330.009	32.08
330.222	-4.78
330.435	19.8
330.648	-96.94
330.861	25.94
331.073	-23.21
331.286	-12.97
331.499	-80.55
331.712	-6.83
331.925	-12.97
332.138	-45.74
332.35	118.1
332.563	-31.4
332.776	-25.26
332.989	1.37
333.202	30.04
333.414	-0.68
333.627	9.56
333.84	-39.59
334.053	-62.12
334.265	-15.02
334.478	-29.35
334.691	-64.17
334.903	-31.4
335.116	-27.31
335.329	30.04
335.541	-96.94
335.754	30.04
335.966	-60.07
336.179	-12.97
336.392	-27.31
336.604	-10.92
336.817	42.32
337.029	-58.03
337.242	-55.98
337.454	-53.93
337.667	-49.83
337.88	21.85
338.092	-12.97
338.305	5.46
338.517	15.7
338.729	9.56
338.942	-51.88
339.154	-58.03
339.367	-33.45
339.579	9.56
339.792	-78.51
340.004	60.76
340.217	-55.98
340.429	32.08
340.641	-23.21
340.854	-6.83
341.066	-6.83
341.278	42.32
341.491	-68.27
341.703	-33.45
341.915	-6.83
342.128	-35.5
342.34	-23.21
342.552	-72.36
342.764	-21.16
342.977	-45.74
343.189	13.65
343.401	-21.16
343.613	-47.79
343.826	-19.11
344.038	-39.59
344.25	32.08
344.462	11.61
344.674	27.99
344.886	36.18
345.099	56.66
345.311	87.38
345.523	25.94
345.735	-39.59
345.947	-35.5
346.159	-23.21
346.371	1.37
346.583	-60.07
346.795	75.09
347.007	13.65
347.219	36.18
347.431	-31.4
347.643	50.52
347.855	-47.79
348.067	7.51
348.279	-12.97
348.491	40.28
348.703	-27.31
348.915	-64.17
349.127	-64.17
349.339	1.37
349.551	-6.83
349.763	25.94
349.975	40.28
350.187	-6.83
350.399	36.18
350.61	-21.16
350.822	-76.46
351.034	40.28
351.246	-10.92
351.458	-17.07
351.669	-23.21
351.881	-49.83
352.093	-39.59
352.305	13.65
352.517	3.41
352.728	30.04
352.94	-29.35
353.152	-12.97
353.363	56.66
353.575	3.41
353.787	-6.83
353.999	56.66
354.21	46.42
354.422	-78.51
354.633	-60.07
354.845	17.75
355.057	-8.87
355.268	-12.97
355.48	-6.83
355.692	3.41
355.903	-27.31
356.115	15.7
356.326	36.18
356.538	-0.68
356.749	34.13
356.961	40.28
357.172	3.41
357.384	25.94
357.595	50.52
357.807	-55.98
358.018	-23.21
358.23	99.67
358.441	27.99
358.653	91.48
358.864	68.95
359.075	-15.02
359.287	-94.89
359.498	3.41
359.709	-125.61
359.921	-33.45
360.132	-53.93
360.344	-17.07
360.555	-8.87
360.766	21.85
360.977	66.9
361.189	25.94
361.4	32.08
361.611	9.56
361.823	-4.78
362.034	42.32
362.245	-47.79
362.456	-0.68
362.667	-45.74
362.879	-31.4
363.09	58.71
363.301	-15.02
363.512	-2.73
363.723	-49.83
363.935	-43.69
364.146	25.94
364.357	17.75
364.568	52.56
364.779	-41.64
364.99	-12.97
365.201	77.14
365.412	-2.73
365.623	-66.22
365.834	40.28
366.045	-68.27
366.256	-6.83
366.467	11.61
366.678	77.14
366.889	-15.02
367.1	-23.21
367.311	-27.31
367.522	-15.02
367.733	1.37
367.944	-12.97
368.155	-43.69
368.366	-6.83
368.577	27.99
368.788	36.18
368.999	11.61
369.209	38.23
369.42	17.75
369.631	-39.59
369.842	-27.31
370.053	-49.83
370.264	-43.69
370.474	-10.92
370.685	19.8
370.896	-17.07
371.107	-27.31
371.317	-15.02
371.528	-10.92
371.739	-35.5
371.95	40.28
372.16	-47.79
372.371	-10.92
372.582	-43.69
372.792	-6.83
373.003	38.23
373.214	-45.74
373.424	-51.88
373.635	-29.35
373.846	-15.02
374.056	-39.59
374.267	5.46
374.477	58.71
374.688	5.46
374.898	-19.11
375.109	-43.69
375.319	-51.88
375.53	48.47
375.74	5.46
375.951	-27.31
376.161	5.46
376.372	46.42
376.582	-12.97
376.793	-15.02
377.003	-47.79
377.214	-2.73
377.424	-37.55
377.635	17.75
377.845	15.7
378.055	68.95
378.266	-70.31
378.476	1.37
378.686	1.37
378.897	-47.79
379.107	11.61
379.317	-35.5
379.528	-39.59
379.738	-15.02
379.948	-47.79
380.158	11.61
380.369	-62.12
380.579	25.94
380.789	-55.98
380.999	3.41
381.21	-33.45
381.42	36.18
381.63	32.08
381.84	-10.92
382.05	-62.12
382.261	-6.83
382.471	-78.51
382.681	-31.4
382.891	-60.07
383.101	-12.97
383.311	-39.59
383.521	-53.93
383.731	13.65
383.941	-23.21
384.151	-23.21
384.361	-27.31
384.571	1.37
384.781	-6.83
384.991	1.37
385.201	25.94
385.411	-31.4
385.621	3.41
385.831	-60.07
386.041	3.41
386.251	-55.98
386.461	-53.93
386.671	-45.74
386.881	-27.31
387.091	-41.64
387.301	46.42
387.511	-45.74
387.72	1.37
387.93	27.99
388.14	-19.11
388.35	-12.97
388.56	-4.78
388.769	-39.59
388.979	-70.31
389.189	1.37
389.399	9.56
389.609	-84.65
389.818	9.56
390.028	-6.83
390.238	-12.97
390.447	19.8
390.657	-27.31
390.867	-25.26
391.076	-6.83
391.286	-2.73
391.496	13.65
391.705	-29.35
391.915	9.56
392.125	60.76
392.334	-53.93
392.544	-33.45
392.753	11.61
392.963	-21.16
393.172	9.56
393.382	11.61
393.591	1.37
393.801	7.51
394.01	23.89
394.22	1.37
394.429	-8.87
394.639	-10.92
394.848	-35.5
395.058	25.94
395.267	-6.83
395.477	13.65
395.686	-19.11
395.895	-19.11
396.105	32.08
396.314	-12.97
396.524	-53.93
396.733	-6.83
396.942	-33.45
397.152	-25.26
397.361	-37.55
397.57	-25.26
397.78	5.46
397.989	11.61
398.198	48.47
398.407	-29.35
398.617	50.52
398.826	-33.45
399.035	-70.31
399.244	5.46
399.453	-8.87
399.663	62.8
399.872	3.41
400.081	-39.59
400.29	-35.5
400.499	-39.59
400.708	42.32
400.917	-70.31
401.127	-55.98
401.336	-4.78
401.545	-17.07
401.754	9.56
401.963	-25.26
402.172	-21.16
402.381	3.41
402.59	-15.02
402.799	27.99
403.008	-33.45
403.217	19.8
403.426	36.18
403.635	-31.4
403.844	42.32
404.053	34.13
404.262	64.85
404.471	48.47
404.68	36.18
404.888	-96.94
405.097	-70.31
405.306	-29.35
405.515	-27.31
405.724	-31.4
405.933	-2.73
406.142	21.85
406.35	-23.21
406.559	48.47
406.768	27.99
406.977	50.52
407.185	-8.87
407.394	34.13
407.603	-82.6
407.812	11.61
408.02	-84.65
408.229	19.8
408.438	-23.21
408.646	-62.12
408.855	-27.31
409.064	-37.55
409.272	-109.22
409.481	13.65
409.69	-55.98
409.898	-84.65
410.107	-19.11
410.315	-4.78
410.524	-15.02
410.733	-55.98
410.941	25.94
411.15	48.47
411.358	-0.68
411.567	46.42
411.775	17.75
411.984	48.47
412.192	5.46
412.401	1.37
412.609	-74.41
412.818	-33.45
413.026	-31.4
413.234	23.89
413.443	-19.11
413.651	-39.59
413.86	-25.26
414.068	75.09
414.276	3.41
414.485	27.99
414.693	9.56
414.901	58.71
415.11	30.04
415.318	-23.21
415.526	15.7
415.734	32.08
415.943	-35.5
416.151	25.94
416.359	-6.83
416.567	-60.07
416.776	-6.83
416.984	7.51
417.192	9.56
417.4	52.56
417.608	23.89
417.817	58.71
418.025	-49.83
418.233	79.19
418.441	-35.5
418.649	-8.87
418.857	1.37
419.065	25.94
419.273	-39.59
419.481	19.8
419.689	-8.87
419.897	-60.07
420.105	-0.68
420.313	27.99
420.521	-17.07
420.729	73.04
420.937	-53.93
421.145	9.56
421.353	77.14
421.561	42.32
421.769	36.18
421.977	25.94
422.185	40.28
422.393	52.56
422.601	-12.97
422.809	25.94
423.017	-43.69
423.224	9.56
423.432	30.04
423.64	3.41
423.848	25.94
424.056	42.32
424.263	-2.73
424.471	54.61
424.679	32.08
424.887	73.04
425.094	-2.73
425.302	-19.11
425.51	34.13
425.718	-58.03
425.925	30.04
426.133	91.48
426.341	50.52
426.548	50.52
426.756	64.85
426.964	38.23
427.171	3.41
427.379	-12.97
427.586	-23.21
427.794	7.51
428.001	66.9
428.209	23.89
428.417	3.41
428.624	52.56
428.832	1.37
429.039	13.65
429.247	-19.11
429.454	-4.78
429.662	-21.16
429.869	75.09
430.076	-25.26
430.284	58.71
430.491	46.42
430.699	11.61
430.906	99.67
431.114	42.32
431.321	58.71
431.528	-37.55
431.736	36.18
431.943	21.85
432.15	19.8
432.358	99.67
432.565	52.56
432.772	13.65
432.979	101.72
433.187	15.7
433.394	81.24
433.601	27.99
433.808	52.56
434.016	73.04
434.223	50.52
434.43	36.18
434.637	60.76
434.844	91.48
435.052	30.04
435.259	75.09
435.466	95.57
435.673	50.52
435.88	54.61
436.087	140.63
436.294	34.13
436.501	34.13
436.708	23.89
436.915	34.13
437.122	93.52
437.329	64.85
437.537	46.42
437.743	114
437.95	73.04
438.157	128.34
438.364	-0.68
438.571	58.71
438.778	87.38
438.985	140.63
439.192	52.56
439.399	152.92
439.606	23.89
439.813	83.28
440.02	128.34
440.227	124.24
440.433	60.76
440.64	27.99
440.847	85.33
441.054	66.9
441.261	200.02
441.467	107.86
441.674	36.18
441.881	124.24
442.088	152.92
442.294	111.96
442.501	134.48
442.708	99.67
442.914	64.85
443.121	169.3
443.328	107.86
443.534	167.25
443.741	177.49
443.948	95.57
444.154	122.2
444.361	116.05
444.568	83.28
444.774	177.49
444.981	62.8
445.187	187.73
445.394	91.48
445.6	62.8
445.807	183.63
446.013	183.63
446.22	204.11
446.426	214.35
446.633	193.87
446.839	173.39
447.046	95.57
447.252	148.82
447.459	243.03
447.665	157.01
447.871	197.97
448.078	183.63
448.284	179.54
448.491	148.82
448.697	185.68
448.903	273.75
449.11	142.68
449.316	189.78
449.522	206.16
449.728	279.89
449.935	222.55
450.141	236.88
450.347	140.63
450.553	179.54
450.76	161.11
450.966	214.35
451.172	165.2
451.378	222.55
451.584	142.68
451.791	263.51
451.997	232.79
452.203	245.07
452.409	222.55
452.615	247.12
452.821	144.72
453.027	247.12
453.233	245.07
453.44	220.5
453.646	101.72
453.852	269.65
454.058	181.59
454.264	144.72
454.47	236.88
454.676	157.01
454.882	200.02
455.088	165.2
455.294	193.87
455.5	218.45
455.705	204.11
455.911	181.59
456.117	165.2
456.323	249.17
456.529	189.78
456.735	220.5
456.941	111.96
457.147	152.92
457.352	173.39
457.558	165.2
457.764	279.89
457.97	163.15
458.176	140.63
458.381	111.96
458.587	140.63
458.793	218.45
458.999	163.15
459.204	228.69
459.41	62.8
459.616	165.2
459.821	107.86
460.027	167.25
460.233	130.39
460.438	116.05
460.644	124.24
460.85	105.81
461.055	134.48
461.261	140.63
461.466	50.52
461.672	85.33
461.878	103.76
462.083	169.3
462.289	126.29
462.494	71
462.7	105.81
462.905	91.48
463.111	134.48
463.316	167.25
463.522	93.52
463.727	48.47
463.932	109.91
464.138	75.09
464.343	111.96
464.549	167.25
464.754	79.19
464.959	173.39
465.165	56.66
465.37	79.19
465.575	11.61
465.781	132.44
465.986	165.2
466.191	99.67
466.397	89.43
466.602	93.52
466.807	128.34
467.012	68.95
467.218	75.09
467.423	197.97
467.628	165.2
467.833	38.23
468.038	71
468.244	136.53
468.449	132.44
468.654	140.63
468.859	38.23
469.064	38.23
469.269	40.28
469.474	126.29
469.679	142.68
469.885	116.05
470.09	64.85
470.295	222.55
470.5	-2.73
470.705	66.9
470.91	132.44
471.115	101.72
471.32	38.23
471.525	134.48
471.73	107.86
