Data from USB4F104151__42__13-11-08-742.txt Node

Date: Fri Mar 14 13:11:08 EDT 2025
User: louis
Spectrometer: USB4F10415
Trigger mode: 4
Integration Time (sec): 2.000000E-2
Scans to average: 1
Electric dark correction enabled: true
Nonlinearity correction enabled: false
Boxcar width: 0
XAxis mode: Wavelengths
Number of Pixels in Spectrum: 3648
>>>>>Begin Spectral Data<<<<<
178.204	-27.65
178.424	-27.65
178.644	-27.65
178.864	-48.13
179.084	-89.09
179.304	-23.55
179.524	-11.26
179.744	-25.6
179.964	-3.07
180.184	5.12
180.404	21.5
180.624	-52.22
180.844	9.22
181.064	21.5
181.283	13.31
181.503	21.5
181.723	23.55
181.943	27.65
182.163	93.18
182.383	-25.6
182.602	72.7
182.822	11.26
183.042	78.85
183.262	15.36
183.482	-37.89
183.701	64.51
183.921	3.07
184.141	-125.95
184.361	21.5
184.58	3.07
184.8	74.75
185.02	-7.17
185.239	33.79
185.459	-44.03
185.679	41.98
185.898	7.17
186.118	5.12
186.338	-25.6
186.557	31.74
186.777	-29.7
186.997	46.08
187.216	25.6
187.436	93.18
187.655	78.85
187.875	-31.74
188.095	78.85
188.314	58.37
188.534	13.31
188.753	-44.03
188.973	70.65
189.192	-39.94
189.412	41.98
189.631	-11.26
189.851	13.31
190.07	-19.46
190.29	-5.12
190.509	-23.55
190.729	9.22
190.948	58.37
191.168	121.85
191.387	46.08
191.607	-21.5
191.826	78.85
192.045	-9.22
192.265	13.31
192.484	17.41
192.704	41.98
192.923	-35.84
193.142	101.37
193.362	50.18
193.581	41.98
193.8	21.5
194.02	74.75
194.239	23.55
194.458	-3.07
194.678	41.98
194.897	-7.17
195.116	-17.41
195.335	68.61
195.555	7.17
195.774	70.65
195.993	15.36
196.212	-35.84
196.432	50.18
196.651	-31.74
196.87	60.42
197.089	74.75
197.308	15.36
197.528	29.7
197.747	-44.03
197.966	-17.41
198.185	105.47
198.404	-33.79
198.623	9.22
198.842	78.85
199.062	7.17
199.281	-33.79
199.5	41.98
199.719	95.23
199.938	21.5
200.157	-5.12
200.376	-5.12
200.595	72.7
200.814	23.55
201.033	58.37
201.252	68.61
201.471	39.94
201.69	101.37
201.909	50.18
202.128	78.85
202.347	80.89
202.566	39.94
202.785	23.55
203.004	-62.46
203.223	103.42
203.442	48.13
203.661	-7.17
203.879	48.13
204.098	29.7
204.317	72.7
204.536	5.12
204.755	37.89
204.974	46.08
205.193	46.08
205.411	105.47
205.63	17.41
205.849	39.94
206.068	5.12
206.287	23.55
206.505	23.55
206.724	23.55
206.943	-50.18
207.162	21.5
207.381	74.75
207.599	37.89
207.818	82.94
208.037	60.42
208.255	-5.12
208.474	37.89
208.693	64.51
208.911	46.08
209.13	39.94
209.349	54.27
209.567	25.6
209.786	66.56
210.005	7.17
210.223	-17.41
210.442	35.84
210.661	64.51
210.879	89.09
211.098	1.02
211.316	-3.07
211.535	91.13
211.753	46.08
211.972	152.57
212.191	13.31
212.409	13.31
212.628	7.17
212.846	-17.41
213.065	1.02
213.283	5.12
213.502	17.41
213.72	97.28
213.938	50.18
214.157	-15.36
214.375	41.98
214.594	-27.65
214.812	23.55
215.031	56.32
215.249	-5.12
215.467	23.55
215.686	11.26
215.904	54.27
216.122	7.17
216.341	70.65
216.559	5.12
216.778	11.26
216.996	29.7
217.214	21.5
217.432	-64.51
217.651	50.18
217.869	-39.94
218.087	44.03
218.306	-3.07
218.524	21.5
218.742	39.94
218.96	-25.6
219.179	-3.07
219.397	37.89
219.615	82.94
219.833	25.6
220.051	46.08
220.27	93.18
220.488	9.22
220.706	15.36
220.924	-29.7
221.142	84.99
221.36	-1.02
221.578	50.18
221.796	-33.79
222.015	64.51
222.233	37.89
222.451	74.75
222.669	-7.17
222.887	29.7
223.105	-41.98
223.323	-19.46
223.541	9.22
223.759	72.7
223.977	-11.26
224.195	105.47
224.413	21.5
224.631	-9.22
224.849	19.46
225.067	48.13
225.285	9.22
225.503	9.22
225.721	-50.18
225.939	62.46
226.157	91.13
226.375	33.79
226.592	15.36
226.81	17.41
227.028	13.31
227.246	70.65
227.464	72.7
227.682	70.65
227.9	117.76
228.117	48.13
228.335	41.98
228.553	-25.6
228.771	39.94
228.989	-21.5
229.206	39.94
229.424	33.79
229.642	5.12
229.86	5.12
230.077	25.6
230.295	39.94
230.513	5.12
230.731	27.65
230.948	58.37
231.166	27.65
231.384	54.27
231.601	21.5
231.819	13.31
232.037	107.52
232.254	11.26
232.472	-9.22
232.689	62.46
232.907	64.51
233.125	15.36
233.342	60.42
233.56	58.37
233.777	19.46
233.995	54.27
234.213	52.22
234.43	9.22
234.648	107.52
234.865	119.81
235.083	48.13
235.3	39.94
235.518	5.12
235.735	17.41
235.953	35.84
236.17	-7.17
236.388	25.6
236.605	35.84
236.822	33.79
237.04	17.41
237.257	64.51
237.475	39.94
237.692	-21.5
237.909	33.79
238.127	-9.22
238.344	-1.02
238.562	76.8
238.779	33.79
238.996	48.13
239.214	50.18
239.431	74.75
239.648	-52.22
239.865	-15.36
240.083	56.32
240.3	-1.02
240.517	27.65
240.735	52.22
240.952	13.31
241.169	111.61
241.386	41.98
241.603	-11.26
241.821	3.07
242.038	64.51
242.255	87.04
242.472	66.56
242.689	66.56
242.907	84.99
243.124	33.79
243.341	9.22
243.558	13.31
243.775	13.31
243.992	-15.36
244.209	87.04
244.426	101.37
244.643	66.56
244.86	11.26
245.078	23.55
245.295	39.94
245.512	44.03
245.729	-5.12
245.946	23.55
246.163	50.18
246.38	11.26
246.597	-7.17
246.814	41.98
247.031	13.31
247.248	64.51
247.464	19.46
247.681	-1.02
247.898	37.89
248.115	31.74
248.332	72.7
248.549	31.74
248.766	105.47
248.983	11.26
249.2	-7.17
249.417	95.23
249.633	-9.22
249.85	95.23
250.067	39.94
250.284	33.79
250.501	54.27
250.717	-19.46
250.934	7.17
251.151	25.6
251.368	13.31
251.585	-7.17
251.801	-56.32
252.018	84.99
252.235	-15.36
252.451	13.31
252.668	15.36
252.885	44.03
253.102	76.8
253.318	21.5
253.535	66.56
253.752	5.12
253.968	-13.31
254.185	68.61
254.401	21.5
254.618	119.81
254.835	72.7
255.051	97.28
255.268	3.07
255.484	-3.07
255.701	13.31
255.917	54.27
256.134	-91.13
256.351	54.27
256.567	29.7
256.784	115.71
257	9.22
257.217	119.81
257.433	103.42
257.65	37.89
257.866	70.65
258.082	-33.79
258.299	11.26
258.515	7.17
258.732	37.89
258.948	1.02
259.165	19.46
259.381	56.32
259.597	9.22
259.814	119.81
260.03	19.46
260.246	19.46
260.463	103.42
260.679	84.99
260.895	17.41
261.112	60.42
261.328	50.18
261.544	41.98
261.761	48.13
261.977	35.84
262.193	-31.74
262.409	11.26
262.626	-17.41
262.842	31.74
263.058	31.74
263.274	37.89
263.49	39.94
263.707	107.52
263.923	62.46
264.139	-5.12
264.355	62.46
264.571	39.94
264.787	5.12
265.004	46.08
265.22	78.85
265.436	54.27
265.652	-11.26
265.868	-25.6
266.084	-35.84
266.3	21.5
266.516	13.31
266.732	70.65
266.948	74.75
267.164	13.31
267.38	99.33
267.596	35.84
267.812	7.17
268.028	29.7
268.244	29.7
268.46	-5.12
268.676	103.42
268.892	29.7
269.108	19.46
269.324	7.17
269.54	54.27
269.756	111.61
269.972	-13.31
270.188	48.13
270.403	62.46
270.619	-3.07
270.835	50.18
271.051	21.5
271.267	31.74
271.483	-5.12
271.698	46.08
271.914	66.56
272.13	136.19
272.346	-7.17
272.562	-39.94
272.777	27.65
272.993	-7.17
273.209	72.7
273.425	-5.12
273.64	39.94
273.856	66.56
274.072	-9.22
274.287	27.65
274.503	13.31
274.719	3.07
274.934	56.32
275.15	9.22
275.366	37.89
275.581	58.37
275.797	-58.37
276.012	5.12
276.228	-3.07
276.444	52.22
276.659	130.05
276.875	23.55
277.09	91.13
277.306	5.12
277.521	46.08
277.737	91.13
277.952	82.94
278.168	64.51
278.383	25.6
278.599	-25.6
278.814	80.89
279.03	37.89
279.245	56.32
279.461	52.22
279.676	37.89
279.892	56.32
280.107	-25.6
280.322	44.03
280.538	46.08
280.753	1.02
280.969	17.41
281.184	-9.22
281.399	115.71
281.615	-15.36
281.83	41.98
282.045	29.7
282.26	29.7
282.476	-13.31
282.691	60.42
282.906	37.89
283.122	58.37
283.337	1.02
283.552	-15.36
283.767	74.75
283.983	52.22
284.198	3.07
284.413	27.65
284.628	-21.5
284.843	37.89
285.058	-7.17
285.274	13.31
285.489	50.18
285.704	72.7
285.919	68.61
286.134	113.66
286.349	64.51
286.564	39.94
286.779	52.22
286.995	31.74
287.21	54.27
287.425	140.29
287.64	-37.89
287.855	72.7
288.07	9.22
288.285	7.17
288.5	46.08
288.715	35.84
288.93	31.74
289.145	23.55
289.36	87.04
289.575	-7.17
289.79	-3.07
290.004	-11.26
290.219	64.51
290.434	5.12
290.649	25.6
290.864	70.65
291.079	1.02
291.294	46.08
291.509	1.02
291.724	31.74
291.938	41.98
292.153	76.8
292.368	60.42
292.583	-1.02
292.798	41.98
293.012	82.94
293.227	107.52
293.442	64.51
293.657	99.33
293.871	-39.94
294.086	44.03
294.301	72.7
294.516	76.8
294.73	31.74
294.945	17.41
295.16	-31.74
295.374	76.8
295.589	119.81
295.804	17.41
296.018	3.07
296.233	58.37
296.447	7.17
296.662	1.02
296.877	48.13
297.091	9.22
297.306	23.55
297.52	-25.6
297.735	54.27
297.949	78.85
298.164	-23.55
298.378	37.89
298.593	56.32
298.807	35.84
299.022	91.13
299.236	39.94
299.451	7.17
299.665	123.9
299.88	39.94
300.094	-7.17
300.309	-11.26
300.523	-9.22
300.737	29.7
300.952	99.33
301.166	87.04
301.381	-9.22
301.595	9.22
301.809	37.89
302.024	23.55
302.238	-27.65
302.452	-15.36
302.667	78.85
302.881	82.94
303.095	11.26
303.309	-11.26
303.524	56.32
303.738	37.89
303.952	-41.98
304.166	68.61
304.381	-11.26
304.595	111.61
304.809	15.36
305.023	1.02
305.237	-11.26
305.452	-17.41
305.666	-3.07
305.88	-23.55
306.094	68.61
306.308	-41.98
306.522	-58.37
306.736	150.53
306.95	37.89
307.164	91.13
307.379	50.18
307.593	70.65
307.807	62.46
308.021	62.46
308.235	-19.46
308.449	-29.7
308.663	29.7
308.877	89.09
309.091	17.41
309.305	82.94
309.519	23.55
309.733	35.84
309.947	21.5
310.161	5.12
310.374	76.8
310.588	46.08
310.802	37.89
311.016	-7.17
311.23	9.22
311.444	-25.6
311.658	-35.84
311.872	50.18
312.085	76.8
312.299	-5.12
312.513	31.74
312.727	76.8
312.941	72.7
313.154	9.22
313.368	-50.18
313.582	21.5
313.796	31.74
314.009	29.7
314.223	115.71
314.437	33.79
314.651	11.26
314.864	-11.26
315.078	91.13
315.292	-3.07
315.505	52.22
315.719	50.18
315.933	39.94
316.146	41.98
316.36	41.98
316.573	44.03
316.787	19.46
317.001	44.03
317.214	23.55
317.428	80.89
317.641	15.36
317.855	84.99
318.068	-13.31
318.282	-9.22
318.495	50.18
318.709	11.26
318.922	46.08
319.136	130.05
319.349	64.51
319.563	25.6
319.776	64.51
319.99	-1.02
320.203	56.32
320.417	89.09
320.63	15.36
320.843	13.31
321.057	-39.94
321.27	54.27
321.483	66.56
321.697	64.51
321.91	3.07
322.124	58.37
322.337	48.13
322.55	58.37
322.763	21.5
322.977	-7.17
323.19	-68.61
323.403	23.55
323.617	41.98
323.83	46.08
324.043	-31.74
324.256	31.74
324.469	-17.41
324.683	68.61
324.896	13.31
325.109	46.08
325.322	-39.94
325.535	72.7
325.748	87.04
325.962	13.31
326.175	60.42
326.388	54.27
326.601	68.61
326.814	64.51
327.027	-1.02
327.24	31.74
327.453	62.46
327.666	37.89
327.879	-15.36
328.092	46.08
328.305	70.65
328.518	1.02
328.731	74.75
328.944	-11.26
329.157	39.94
329.37	9.22
329.583	78.85
329.796	56.32
330.009	52.22
330.222	87.04
330.435	21.5
330.648	7.17
330.861	-15.36
331.073	54.27
331.286	62.46
331.499	44.03
331.712	58.37
331.925	97.28
332.138	48.13
332.35	82.94
332.563	-7.17
332.776	37.89
332.989	31.74
333.202	62.46
333.414	7.17
333.627	54.27
333.84	95.23
334.053	9.22
334.265	-15.36
334.478	103.42
334.691	31.74
334.903	70.65
335.116	15.36
335.329	-3.07
335.541	-19.46
335.754	93.18
335.966	37.89
336.179	-15.36
336.392	37.89
336.604	64.51
336.817	-27.65
337.029	78.85
337.242	-11.26
337.454	25.6
337.667	58.37
337.88	13.31
338.092	-17.41
338.305	80.89
338.517	-15.36
338.729	17.41
338.942	54.27
339.154	7.17
339.367	9.22
339.579	66.56
339.792	-39.94
340.004	13.31
340.217	-31.74
340.429	82.94
340.641	37.89
340.854	-13.31
341.066	82.94
341.278	29.7
341.491	50.18
341.703	72.7
341.915	-35.84
342.128	7.17
342.34	95.23
342.552	25.6
342.764	15.36
342.977	27.65
343.189	74.75
343.401	142.33
343.613	-41.98
343.826	11.26
344.038	37.89
344.25	-7.17
344.462	3.07
344.674	21.5
344.886	54.27
345.099	25.6
345.311	58.37
345.523	-1.02
345.735	-5.12
345.947	46.08
346.159	54.27
346.371	-50.18
346.583	52.22
346.795	89.09
347.007	31.74
347.219	162.81
347.431	5.12
347.643	54.27
347.855	3.07
348.067	64.51
348.279	58.37
348.491	31.74
348.703	109.57
348.915	66.56
349.127	27.65
349.339	19.46
349.551	7.17
349.763	-19.46
349.975	64.51
350.187	50.18
350.399	91.13
350.61	58.37
350.822	29.7
351.034	48.13
351.246	31.74
351.458	72.7
351.669	101.37
351.881	89.09
352.093	89.09
352.305	37.89
352.517	35.84
352.728	76.8
352.94	-3.07
353.152	41.98
353.363	-11.26
353.575	101.37
353.787	52.22
353.999	70.65
354.21	62.46
354.422	25.6
354.633	64.51
354.845	11.26
355.057	-1.02
355.268	-29.7
355.48	56.32
355.692	-7.17
355.903	-11.26
356.115	-3.07
356.326	70.65
356.538	128
356.749	-76.8
356.961	74.75
357.172	70.65
357.384	7.17
357.595	70.65
357.807	58.37
358.018	21.5
358.23	13.31
358.441	76.8
358.653	70.65
358.864	70.65
359.075	54.27
359.287	19.46
359.498	46.08
359.709	1.02
359.921	41.98
360.132	91.13
360.344	91.13
360.555	-25.6
360.766	58.37
360.977	50.18
361.189	50.18
361.4	62.46
361.611	70.65
361.823	46.08
362.034	56.32
362.245	-35.84
362.456	48.13
362.667	50.18
362.879	78.85
363.09	95.23
363.301	78.85
363.512	27.65
363.723	41.98
363.935	74.75
364.146	113.66
364.357	15.36
364.568	56.32
364.779	-48.13
364.99	29.7
365.201	-9.22
365.412	56.32
365.623	-35.84
365.834	54.27
366.045	87.04
366.256	80.89
366.467	41.98
366.678	74.75
366.889	41.98
367.1	-35.84
367.311	-23.55
367.522	-35.84
367.733	-11.26
367.944	82.94
368.155	15.36
368.366	56.32
368.577	-1.02
368.788	97.28
368.999	21.5
369.209	52.22
369.42	136.19
369.631	-19.46
369.842	5.12
370.053	29.7
370.264	31.74
370.474	7.17
370.685	48.13
370.896	82.94
371.107	119.81
371.317	72.7
371.528	17.41
371.739	64.51
371.95	107.52
372.16	13.31
372.371	15.36
372.582	35.84
372.792	62.46
373.003	62.46
373.214	-41.98
373.424	64.51
373.635	41.98
373.846	93.18
374.056	80.89
374.267	56.32
374.477	21.5
374.688	97.28
374.898	5.12
375.109	130.05
375.319	25.6
375.53	44.03
375.74	179.2
375.951	44.03
376.161	39.94
376.372	17.41
376.582	-5.12
376.793	70.65
377.003	72.7
377.214	50.18
377.424	37.89
377.635	19.46
377.845	44.03
378.055	87.04
378.266	105.47
378.476	95.23
378.686	-15.36
378.897	117.76
379.107	56.32
379.317	119.81
379.528	1.02
379.738	7.17
379.948	-13.31
380.158	136.19
380.369	125.95
380.579	54.27
380.789	11.26
380.999	58.37
381.21	111.61
381.42	117.76
381.63	46.08
381.84	72.7
382.05	68.61
382.261	62.46
382.471	48.13
382.681	21.5
382.891	84.99
383.101	54.27
383.311	33.79
383.521	54.27
383.731	87.04
383.941	37.89
384.151	121.85
384.361	97.28
384.571	89.09
384.781	80.89
384.991	-54.27
385.201	93.18
385.411	44.03
385.621	72.7
385.831	111.61
386.041	48.13
386.251	117.76
386.461	70.65
386.671	39.94
386.881	13.31
387.091	27.65
387.301	74.75
387.511	31.74
387.72	66.56
387.93	46.08
388.14	15.36
388.35	99.33
388.56	70.65
388.769	64.51
388.979	64.51
389.189	19.46
389.399	46.08
389.609	7.17
389.818	5.12
390.028	84.99
390.238	29.7
390.447	66.56
390.657	27.65
390.867	44.03
391.076	5.12
391.286	50.18
391.496	23.55
391.705	-17.41
391.915	66.56
392.125	-7.17
392.334	39.94
392.544	89.09
392.753	13.31
392.963	21.5
393.172	134.14
393.382	-7.17
393.591	58.37
393.801	11.26
394.01	56.32
394.22	-11.26
394.429	80.89
394.639	-44.03
394.848	125.95
395.058	17.41
395.267	5.12
395.477	68.61
395.686	31.74
395.895	87.04
396.105	7.17
396.314	-17.41
396.524	72.7
396.733	23.55
396.942	5.12
397.152	64.51
397.361	97.28
397.57	25.6
397.78	54.27
397.989	132.09
398.198	97.28
398.407	21.5
398.617	82.94
398.826	66.56
399.035	76.8
399.244	58.37
399.453	15.36
399.663	78.85
399.872	68.61
400.081	64.51
400.29	156.67
400.499	64.51
400.708	140.29
400.917	66.56
401.127	74.75
401.336	1.02
401.545	113.66
401.754	70.65
401.963	17.41
402.172	62.46
402.381	62.46
402.59	54.27
402.799	166.91
403.008	70.65
403.217	91.13
403.426	82.94
403.635	37.89
403.844	31.74
404.053	74.75
404.262	46.08
404.471	66.56
404.68	121.85
404.888	87.04
405.097	9.22
405.306	97.28
405.515	72.7
405.724	125.95
405.933	37.89
406.142	93.18
406.35	109.57
406.559	132.09
406.768	50.18
406.977	207.87
407.185	150.53
407.394	238.59
407.603	91.13
407.812	162.81
408.02	80.89
408.229	119.81
408.438	128
408.646	197.63
408.855	179.2
409.064	187.39
409.272	128
409.481	146.43
409.69	132.09
409.898	103.42
410.107	138.24
410.315	187.39
410.524	113.66
410.733	130.05
410.941	99.33
411.15	236.54
411.358	189.44
411.567	228.35
411.775	144.38
411.984	181.25
412.192	154.62
412.401	205.82
412.609	259.07
412.818	199.68
413.026	267.26
413.234	238.59
413.443	271.36
413.651	267.26
413.86	254.97
414.068	273.4
414.276	316.41
414.485	328.7
414.693	365.56
414.901	324.6
415.11	345.08
415.318	308.22
415.526	373.75
415.734	334.84
415.943	306.17
416.151	447.48
416.359	361.47
416.567	390.14
416.776	408.57
416.984	476.15
417.192	531.45
417.4	510.97
417.608	545.78
417.817	508.92
418.025	529.4
418.233	580.6
418.441	535.54
418.649	656.37
418.857	607.22
419.065	648.18
419.273	676.85
419.481	662.52
419.689	650.23
419.897	760.82
420.105	715.77
420.313	750.58
420.521	785.4
420.729	834.55
420.937	754.68
421.145	914.42
421.353	941.04
421.561	961.52
421.769	1049.58
421.977	959.47
422.185	1049.58
422.393	1022.96
422.601	1178.61
422.809	1205.23
423.017	1119.21
423.224	1215.47
423.432	1278.96
423.64	1235.95
423.848	1410.03
424.056	1332.2
424.263	1416.17
424.471	1381.35
424.679	1514.47
424.887	1500.14
425.094	1582.06
425.302	1594.34
425.51	1739.75
425.718	1827.81
425.925	1604.58
426.133	1838.05
426.341	1862.63
426.548	1909.73
426.756	2012.13
426.964	1928.16
427.171	2114.53
427.379	2116.58
427.586	2233.31
427.794	2221.02
428.001	2415.58
428.209	2593.75
428.417	2497.5
428.624	2718.68
428.832	2659.29
429.039	2657.24
429.247	2595.8
429.454	2882.52
429.662	2995.15
429.869	2722.77
430.076	2974.67
430.284	3009.49
430.491	3136.46
430.699	3281.87
430.906	3240.91
431.114	3312.59
431.321	3447.76
431.528	3439.56
431.736	3646.41
431.943	3806.15
432.15	3711.94
432.358	3744.71
432.565	4168.64
432.772	3877.83
432.979	4133.82
433.187	4338.62
433.394	4213.7
433.601	4629.43
433.808	4639.67
434.016	4592.57
434.223	4797.37
434.43	5082.03
434.637	4963.25
434.844	5217.2
435.052	5374.89
435.259	5290.93
435.466	5225.39
435.673	5430.19
435.88	5526.44
436.087	6022.05
436.294	6032.29
436.501	5970.85
436.708	6036.39
436.915	6095.78
437.122	6421.41
437.329	6546.33
437.537	6761.37
437.743	6777.75
437.95	6712.22
438.157	7119.76
438.364	7390.1
438.571	7302.03
438.778	7308.18
438.985	7967.62
439.192	7795.59
439.399	7996.29
439.606	7664.52
439.813	8256.39
440.02	8698.75
440.227	8616.83
440.433	8532.86
440.64	8668.03
440.847	8764.28
441.054	9044.85
441.261	9466.74
441.467	9413.49
441.674	9544.56
441.881	9960.3
442.088	9923.43
442.294	10017.64
442.501	10220.39
442.708	10285.92
442.914	10560.35
443.121	11217.75
443.328	10974.04
443.534	11535.18
443.741	11289.43
443.948	11301.72
444.154	12067.66
444.361	11821.9
444.568	11977.55
444.774	12186.44
444.981	11957.07
445.187	12622.66
445.394	13153.08
445.6	12796.73
445.807	14000.94
446.013	13357.88
446.22	13765.42
446.426	14373.67
446.633	14426.92
446.839	14709.54
447.046	14291.75
447.252	15072.03
447.459	15266.58
447.665	15051.55
447.871	15821.58
448.078	16618.24
448.284	16020.24
448.491	15989.52
448.697	16931.58
448.903	17191.67
449.11	17230.59
449.316	17038.08
449.522	17281.78
449.728	17558.26
449.935	17859.31
450.141	17953.52
450.347	18238.19
450.553	17840.88
450.76	17701.62
450.966	18422.5
451.172	18139.88
451.378	18807.52
451.584	18256.62
451.791	18944.73
451.997	19028.7
452.203	19315.42
452.409	19407.58
452.615	18979.55
452.821	18477.8
453.027	18178.79
453.233	19346.14
453.44	18563.81
453.646	18549.48
453.852	18633.44
454.058	18909.92
454.264	18436.84
454.47	19002.08
454.676	18420.45
454.882	18969.31
455.088	17490.68
455.294	17871.6
455.5	18066.16
455.705	18277.1
455.911	17298.17
456.117	17128.19
456.323	16978.68
456.529	16143.11
456.735	16638.72
456.941	16470.79
457.147	16020.24
457.352	15598.35
457.558	15272.73
457.764	15389.46
457.97	14963.48
458.176	14752.54
458.381	14807.84
458.587	14256.93
458.793	14113.58
458.999	13232.95
459.204	14222.12
459.41	13923.12
459.616	13060.92
459.821	13028.15
460.027	12800.83
460.233	12706.62
460.438	12237.64
460.644	12292.93
460.85	11694.93
461.055	11674.45
461.261	11500.37
461.466	10511.2
461.672	10021.74
461.878	10785.63
462.083	10343.27
462.289	10091.37
462.494	10072.93
462.7	9587.57
462.905	9153.4
463.111	9694.06
463.316	9767.79
463.522	9524.08
463.727	9511.79
463.932	9522.03
464.138	9337.71
464.343	9395.06
464.549	9042.81
464.754	9407.34
464.959	9173.88
465.165	9206.64
465.37	8897.4
465.575	8627.07
465.781	9059.19
465.986	8999.8
466.191	8833.91
466.397	8776.57
466.602	8086.4
466.807	8541.05
467.012	8448.9
467.218	8352.64
467.423	8332.16
467.628	8493.95
467.833	8715.13
468.038	8420.22
468.244	8309.63
468.449	8426.37
468.654	8196.99
468.859	8057.73
469.064	8024.97
469.269	7762.83
469.474	7854.98
