Data from USB4F104151__12__13-10-25-846.txt Node

Date: Fri Mar 14 13:10:25 EDT 2025
User: louis
Spectrometer: USB4F10415
Trigger mode: 4
Integration Time (sec): 2.000000E-2
Scans to average: 1
Electric dark correction enabled: true
Nonlinearity correction enabled: false
Boxcar width: 0
XAxis mode: Wavelengths
Number of Pixels in Spectrum: 3648
>>>>>Begin Spectral Data<<<<<
178.204	-59.39
178.424	-59.39
178.644	-59.39
178.864	-45.06
179.084	-40.96
179.304	30.72
179.524	2.05
179.744	34.82
179.964	43.01
180.184	28.67
180.404	14.34
180.624	-10.24
180.844	-38.91
181.064	-24.58
181.283	8.19
181.503	-40.96
181.723	-47.1
181.943	34.82
182.163	30.72
182.383	-38.91
182.602	10.24
182.822	59.39
183.042	106.49
183.262	12.29
183.482	32.77
183.701	18.43
183.921	-32.77
184.141	12.29
184.361	-30.72
184.58	53.25
184.8	45.06
185.02	2.05
185.239	59.39
185.459	51.2
185.679	65.54
185.898	22.53
186.118	75.77
186.338	24.58
186.557	73.73
186.777	8.19
186.997	24.58
187.216	-30.72
187.436	98.3
187.655	-2.05
187.875	90.11
188.095	10.24
188.314	51.2
188.534	63.49
188.753	18.43
188.973	-32.77
189.192	69.63
189.412	71.68
189.631	75.77
189.851	122.88
190.07	32.77
190.29	-18.43
190.509	16.38
190.729	2.05
190.948	106.49
191.168	108.54
191.387	79.87
191.607	32.77
191.826	77.82
192.045	4.1
192.265	51.2
192.484	63.49
192.704	36.86
192.923	69.63
193.142	57.34
193.362	100.35
193.581	149.5
193.8	-6.14
194.02	61.44
194.239	28.67
194.458	45.06
194.678	16.38
194.897	26.62
195.116	53.25
195.335	67.58
195.555	43.01
195.774	16.38
195.993	40.96
196.212	36.86
196.432	-36.86
196.651	100.35
196.87	75.77
197.089	106.49
197.308	106.49
197.528	98.3
197.747	40.96
197.966	6.14
198.185	61.44
198.404	90.11
198.623	90.11
198.842	94.21
199.062	-16.38
199.281	73.73
199.5	63.49
199.719	53.25
199.938	69.63
200.157	67.58
200.376	55.3
200.595	79.87
200.814	94.21
201.033	-22.53
201.252	61.44
201.471	34.82
201.69	59.39
201.909	47.1
202.128	30.72
202.347	14.34
202.566	18.43
202.785	26.62
203.004	-24.58
203.223	47.1
203.442	30.72
203.661	73.73
203.879	49.15
204.098	77.82
204.317	-4.1
204.536	102.4
204.755	22.53
204.974	61.44
205.193	79.87
205.411	88.06
205.63	2.05
205.849	30.72
206.068	34.82
206.287	63.49
206.505	55.3
206.724	69.63
206.943	30.72
207.162	-8.19
207.381	55.3
207.599	65.54
207.818	-20.48
208.037	45.06
208.255	30.72
208.474	73.73
208.693	43.01
208.911	20.48
209.13	108.54
209.349	14.34
209.567	71.68
209.786	28.67
210.005	81.92
210.223	34.82
210.442	24.58
210.661	8.19
210.879	10.24
211.098	10.24
211.316	69.63
211.535	126.97
211.753	-53.25
211.972	92.16
212.191	65.54
212.409	16.38
212.628	12.29
212.846	18.43
213.065	124.93
213.283	108.54
213.502	-16.38
213.72	32.77
213.938	75.77
214.157	20.48
214.375	63.49
214.594	10.24
214.812	59.39
215.031	86.01
215.249	8.19
215.467	-8.19
215.686	6.14
215.904	53.25
216.122	81.92
216.341	77.82
216.559	71.68
216.778	110.59
216.996	92.16
217.214	51.2
217.432	-6.14
217.651	8.19
217.869	153.6
218.087	22.53
218.306	45.06
218.524	-28.67
218.742	55.3
218.96	36.86
219.179	36.86
219.397	24.58
219.615	69.63
219.833	20.48
220.051	16.38
220.27	47.1
220.488	47.1
220.706	67.58
220.924	100.35
221.142	2.05
221.36	18.43
221.578	86.01
221.796	18.43
222.015	55.3
222.233	129.02
222.451	75.77
222.669	79.87
222.887	73.73
223.105	0
223.323	53.25
223.541	75.77
223.759	24.58
223.977	-26.62
224.195	16.38
224.413	-24.58
224.631	63.49
224.849	26.62
225.067	96.25
225.285	157.69
225.503	-12.29
225.721	20.48
225.939	40.96
226.157	16.38
226.375	83.97
226.592	0
226.81	45.06
227.028	137.21
227.246	86.01
227.464	90.11
227.682	10.24
227.9	12.29
228.117	92.16
228.335	34.82
228.553	77.82
228.771	8.19
228.989	65.54
229.206	61.44
229.424	-40.96
229.642	75.77
229.86	32.77
230.077	36.86
230.295	34.82
230.513	18.43
230.731	157.69
230.948	88.06
231.166	114.69
231.384	61.44
231.601	47.1
231.819	63.49
232.037	57.34
232.254	-10.24
232.472	55.3
232.689	-28.67
232.907	24.58
233.125	57.34
233.342	43.01
233.56	65.54
233.777	69.63
233.995	45.06
234.213	92.16
234.43	24.58
234.648	57.34
234.865	-16.38
235.083	32.77
235.3	8.19
235.518	12.29
235.735	-12.29
235.953	59.39
236.17	67.58
236.388	-14.34
236.605	32.77
236.822	67.58
237.04	43.01
237.257	8.19
237.475	0
237.692	30.72
237.909	73.73
238.127	43.01
238.344	83.97
238.562	22.53
238.779	16.38
238.996	30.72
239.214	-24.58
239.431	16.38
239.648	45.06
239.865	120.83
240.083	69.63
240.3	-2.05
240.517	-20.48
240.735	57.34
240.952	110.59
241.169	14.34
241.386	45.06
241.603	24.58
241.821	73.73
242.038	69.63
242.255	81.92
242.472	6.14
242.689	81.92
242.907	98.3
243.124	-24.58
243.341	65.54
243.558	-24.58
243.775	24.58
243.992	16.38
244.209	24.58
244.426	38.91
244.643	59.39
244.86	-6.14
245.078	63.49
245.295	73.73
245.512	51.2
245.729	0
245.946	65.54
246.163	131.07
246.38	40.96
246.597	12.29
246.814	0
247.031	8.19
247.248	61.44
247.464	81.92
247.681	34.82
247.898	57.34
248.115	100.35
248.332	20.48
248.549	18.43
248.766	67.58
248.983	10.24
249.2	-38.91
249.417	34.82
249.633	81.92
249.85	79.87
250.067	-40.96
250.284	38.91
250.501	65.54
250.717	45.06
250.934	2.05
251.151	96.25
251.368	22.53
251.585	4.1
251.801	73.73
252.018	34.82
252.235	69.63
252.451	67.58
252.668	16.38
252.885	73.73
253.102	0
253.318	38.91
253.535	22.53
253.752	-12.29
253.968	69.63
254.185	-6.14
254.401	53.25
254.618	151.55
254.835	106.49
255.051	133.12
255.268	73.73
255.484	71.68
255.701	26.62
255.917	-53.25
256.134	10.24
256.351	4.1
256.567	43.01
256.784	32.77
257	-14.34
257.217	10.24
257.433	79.87
257.65	51.2
257.866	69.63
258.082	8.19
258.299	38.91
258.515	81.92
258.732	34.82
258.948	53.25
259.165	4.1
259.381	12.29
259.597	18.43
259.814	43.01
260.03	30.72
260.246	40.96
260.463	12.29
260.679	59.39
260.895	36.86
261.112	-6.14
261.328	86.01
261.544	65.54
261.761	110.59
261.977	-6.14
262.193	32.77
262.409	106.49
262.626	67.58
262.842	106.49
263.058	24.58
263.274	65.54
263.49	38.91
263.707	114.69
263.923	24.58
264.139	77.82
264.355	18.43
264.571	61.44
264.787	90.11
265.004	94.21
265.22	61.44
265.436	45.06
265.652	-6.14
265.868	53.25
266.084	30.72
266.3	16.38
266.516	-14.34
266.732	57.34
266.948	57.34
267.164	57.34
267.38	45.06
267.596	22.53
267.812	51.2
268.028	47.1
268.244	45.06
268.46	-20.48
268.676	16.38
268.892	32.77
269.108	4.1
269.324	-18.43
269.54	-14.34
269.756	45.06
269.972	-6.14
270.188	6.14
270.403	73.73
270.619	57.34
270.835	73.73
271.051	26.62
271.267	65.54
271.483	18.43
271.698	32.77
271.914	106.49
272.13	88.06
272.346	51.2
272.562	4.1
272.777	20.48
272.993	40.96
273.209	57.34
273.425	0
273.64	18.43
273.856	28.67
274.072	24.58
274.287	57.34
274.503	59.39
274.719	59.39
274.934	10.24
275.15	8.19
275.366	-8.19
275.581	22.53
275.797	75.77
276.012	43.01
276.228	32.77
276.444	45.06
276.659	51.2
276.875	-6.14
277.09	57.34
277.306	45.06
277.521	20.48
277.737	47.1
277.952	94.21
278.168	53.25
278.383	69.63
278.599	12.29
278.814	40.96
279.03	34.82
279.245	116.73
279.461	49.15
279.676	92.16
279.892	-65.53
280.107	40.96
280.322	32.77
280.538	61.44
280.753	30.72
280.969	118.78
281.184	137.21
281.399	114.69
281.615	36.86
281.83	45.06
282.045	34.82
282.26	28.67
282.476	38.91
282.691	67.58
282.906	40.96
283.122	139.26
283.337	-38.91
283.552	65.54
283.767	59.39
283.983	73.73
284.198	2.05
284.413	-20.48
284.628	-22.53
284.843	34.82
285.058	18.43
285.274	26.62
285.489	75.77
285.704	96.25
285.919	16.38
286.134	10.24
286.349	45.06
286.564	67.58
286.779	83.97
286.995	75.77
287.21	4.1
287.425	20.48
287.64	-2.05
287.855	63.49
288.07	24.58
288.285	110.59
288.5	26.62
288.715	116.73
288.93	155.65
289.145	-4.1
289.36	69.63
289.575	57.34
289.79	30.72
290.004	75.77
290.219	26.62
290.434	43.01
290.649	43.01
290.864	94.21
291.079	14.34
291.294	12.29
291.509	67.58
291.724	118.78
291.938	10.24
292.153	135.17
292.368	-24.58
292.583	149.5
292.798	141.31
293.012	36.86
293.227	34.82
293.442	34.82
293.657	59.39
293.871	69.63
294.086	28.67
294.301	34.82
294.516	73.73
294.73	57.34
294.945	73.73
295.16	83.97
295.374	118.78
295.589	65.54
295.804	69.63
296.018	34.82
296.233	118.78
296.447	14.34
296.662	18.43
296.877	22.53
297.091	40.96
297.306	83.97
297.52	45.06
297.735	22.53
297.949	90.11
298.164	59.39
298.378	49.15
298.593	69.63
298.807	98.3
299.022	20.48
299.236	22.53
299.451	73.73
299.665	47.1
299.88	81.92
300.094	-2.05
300.309	49.15
300.523	16.38
300.737	-18.43
300.952	28.67
301.166	8.19
301.381	28.67
301.595	-6.14
301.809	36.86
302.024	57.34
302.238	65.54
302.452	57.34
302.667	108.54
302.881	131.07
303.095	100.35
303.309	94.21
303.524	-8.19
303.738	2.05
303.952	73.73
304.166	49.15
304.381	24.58
304.595	94.21
304.809	88.06
305.023	-16.38
305.237	69.63
305.452	43.01
305.666	98.3
305.88	51.2
306.094	71.68
306.308	20.48
306.522	-8.19
306.736	57.34
306.95	108.54
307.164	8.19
307.379	16.38
307.593	86.01
307.807	16.38
308.021	135.17
308.235	10.24
308.449	106.49
308.663	77.82
308.877	49.15
309.091	98.3
309.305	59.39
309.519	4.1
309.733	98.3
309.947	4.1
310.161	106.49
310.374	47.1
310.588	69.63
310.802	77.82
311.016	43.01
311.23	24.58
311.444	34.82
311.658	81.92
311.872	53.25
312.085	108.54
312.299	67.58
312.513	12.29
312.727	8.19
312.941	59.39
313.154	63.49
313.368	59.39
313.582	2.05
313.796	59.39
314.009	102.4
314.223	59.39
314.437	81.92
314.651	86.01
314.864	-24.58
315.078	-12.29
315.292	-16.38
315.505	53.25
315.719	51.2
315.933	0
316.146	65.54
316.36	-8.19
316.573	18.43
316.787	139.26
317.001	108.54
317.214	57.34
317.428	83.97
317.641	75.77
317.855	47.1
318.068	114.69
318.282	-14.34
318.495	57.34
318.709	12.29
318.922	51.2
319.136	92.16
319.349	98.3
319.563	-4.1
319.776	135.17
319.99	20.48
320.203	18.43
320.417	-10.24
320.63	6.14
320.843	65.54
321.057	63.49
321.27	40.96
321.483	40.96
321.697	59.39
321.91	32.77
322.124	24.58
322.337	88.06
322.55	71.68
322.763	63.49
322.977	124.93
323.19	45.06
323.403	59.39
323.617	22.53
323.83	79.87
324.043	67.58
324.256	57.34
324.469	53.25
324.683	-6.14
324.896	32.77
325.109	30.72
325.322	32.77
325.535	116.73
325.748	-45.06
325.962	49.15
326.175	8.19
326.388	34.82
326.601	57.34
326.814	43.01
327.027	36.86
327.24	26.62
327.453	-81.92
327.666	26.62
327.879	-2.05
328.092	92.16
328.305	71.68
328.518	51.2
328.731	59.39
328.944	26.62
329.157	34.82
329.37	20.48
329.583	38.91
329.796	88.06
330.009	65.54
330.222	81.92
330.435	53.25
330.648	90.11
330.861	18.43
331.073	28.67
331.286	34.82
331.499	57.34
331.712	45.06
331.925	14.34
332.138	81.92
332.35	108.54
332.563	67.58
332.776	32.77
332.989	2.05
333.202	81.92
333.414	94.21
333.627	67.58
333.84	24.58
334.053	65.54
334.265	30.72
334.478	12.29
334.691	77.82
334.903	40.96
335.116	47.1
335.329	61.44
335.541	88.06
335.754	120.83
335.966	16.38
336.179	116.73
336.392	8.19
336.604	133.12
336.817	57.34
337.029	49.15
337.242	98.3
337.454	20.48
337.667	38.91
337.88	79.87
338.092	8.19
338.305	73.73
338.517	-26.62
338.729	8.19
338.942	90.11
339.154	18.43
339.367	-10.24
339.579	71.68
339.792	59.39
340.004	73.73
340.217	6.14
340.429	26.62
340.641	30.72
340.854	114.69
341.066	45.06
341.278	32.77
341.491	114.69
341.703	81.92
341.915	106.49
342.128	53.25
342.34	114.69
342.552	73.73
342.764	69.63
342.977	83.97
343.189	28.67
343.401	94.21
343.613	24.58
343.826	106.49
344.038	47.1
344.25	20.48
344.462	86.01
344.674	16.38
344.886	16.38
345.099	88.06
345.311	22.53
345.523	110.59
345.735	67.58
345.947	-28.67
346.159	45.06
346.371	34.82
346.583	73.73
346.795	83.97
347.007	-6.14
347.219	49.15
347.431	-14.34
347.643	40.96
347.855	49.15
348.067	106.49
348.279	24.58
348.491	45.06
348.703	106.49
348.915	102.4
349.127	24.58
349.339	92.16
349.551	94.21
349.763	102.4
349.975	-2.05
350.187	0
350.399	118.78
350.61	94.21
350.822	77.82
351.034	34.82
351.246	26.62
351.458	61.44
351.669	116.73
351.881	20.48
352.093	98.3
352.305	88.06
352.517	100.35
352.728	69.63
352.94	65.54
353.152	112.64
353.363	69.63
353.575	53.25
353.787	-12.29
353.999	18.43
354.21	114.69
354.422	32.77
354.633	47.1
354.845	106.49
355.057	8.19
355.268	30.72
355.48	-32.77
355.692	53.25
355.903	45.06
356.115	-12.29
356.326	0
356.538	22.53
356.749	53.25
356.961	30.72
357.172	69.63
357.384	26.62
357.595	102.4
357.807	83.97
358.018	26.62
358.23	71.68
358.441	57.34
358.653	73.73
358.864	63.49
359.075	90.11
359.287	51.2
359.498	57.34
359.709	49.15
359.921	67.58
360.132	116.73
360.344	18.43
360.555	16.38
360.766	-32.77
360.977	28.67
361.189	118.78
361.4	63.49
361.611	96.25
361.823	47.1
362.034	118.78
362.245	45.06
362.456	73.73
362.667	-12.29
362.879	40.96
363.09	100.35
363.301	67.58
363.512	-12.29
363.723	18.43
363.935	6.14
364.146	90.11
364.357	67.58
364.568	98.3
364.779	45.06
364.99	98.3
365.201	16.38
365.412	59.39
365.623	0
365.834	139.26
366.045	67.58
366.256	79.87
366.467	73.73
366.678	-6.14
366.889	-32.77
367.1	53.25
367.311	49.15
367.522	61.44
367.733	129.02
367.944	61.44
368.155	-43.01
368.366	90.11
368.577	98.3
368.788	43.01
368.999	-16.38
369.209	75.77
369.42	143.36
369.631	135.17
369.842	47.1
370.053	18.43
370.264	67.58
370.474	38.91
370.685	79.87
370.896	49.15
371.107	118.78
371.317	73.73
371.528	53.25
371.739	96.25
371.95	65.54
372.16	26.62
372.371	8.19
372.582	98.3
372.792	55.3
373.003	22.53
373.214	-8.19
373.424	63.49
373.635	55.3
373.846	98.3
374.056	12.29
374.267	65.54
374.477	32.77
374.688	75.77
374.898	106.49
375.109	61.44
375.319	16.38
375.53	79.87
375.74	30.72
375.951	92.16
376.161	40.96
376.372	96.25
376.582	20.48
376.793	96.25
377.003	94.21
377.214	55.3
377.424	139.26
377.635	12.29
377.845	24.58
378.055	94.21
378.266	40.96
378.476	26.62
378.686	110.59
378.897	32.77
379.107	51.2
379.317	14.34
379.528	47.1
379.738	32.77
379.948	67.58
380.158	86.01
380.369	110.59
380.579	49.15
380.789	53.25
380.999	77.82
381.21	100.35
381.42	36.86
381.63	47.1
381.84	122.88
382.05	122.88
382.261	47.1
382.471	102.4
382.681	57.34
382.891	110.59
383.101	65.54
383.311	67.58
383.521	90.11
383.731	114.69
383.941	98.3
384.151	92.16
384.361	67.58
384.571	141.31
384.781	18.43
384.991	69.63
385.201	90.11
385.411	53.25
385.621	47.1
385.831	55.3
386.041	4.1
386.251	100.35
386.461	77.82
386.671	94.21
386.881	65.54
387.091	75.77
387.301	104.45
387.511	26.62
387.72	40.96
387.93	73.73
388.14	65.54
388.35	45.06
388.56	59.39
388.769	131.07
388.979	88.06
389.189	-4.1
389.399	157.69
389.609	139.26
389.818	147.45
390.028	137.21
390.238	53.25
390.447	20.48
390.657	8.19
390.867	116.73
391.076	10.24
391.286	6.14
391.496	4.1
391.705	116.73
391.915	34.82
392.125	83.97
392.334	-43.01
392.544	61.44
392.753	67.58
392.963	47.1
393.172	151.55
393.382	96.25
393.591	139.26
393.801	102.4
394.01	124.93
394.22	90.11
394.429	49.15
394.639	135.17
394.848	49.15
395.058	106.49
395.267	88.06
395.477	114.69
395.686	131.07
395.895	139.26
396.105	83.97
396.314	159.74
396.524	55.3
396.733	98.3
396.942	90.11
397.152	186.37
397.361	106.49
397.57	122.88
397.78	59.39
397.989	75.77
398.198	124.93
398.407	145.41
398.617	108.54
398.826	141.31
399.035	100.35
399.244	114.69
399.453	147.45
399.663	112.64
399.872	139.26
400.081	151.55
400.29	172.03
400.499	116.73
400.708	147.45
400.917	75.77
401.127	151.55
401.336	106.49
401.545	116.73
401.754	102.4
401.963	139.26
402.172	28.67
402.381	79.87
402.59	157.69
402.799	108.54
403.008	116.73
403.217	94.21
403.426	174.08
403.635	137.21
403.844	118.78
404.053	114.69
404.262	153.6
404.471	163.84
404.68	122.88
404.888	133.12
405.097	126.97
405.306	200.7
405.515	174.08
405.724	155.65
405.933	176.13
406.142	147.45
406.35	215.04
406.559	145.41
406.768	167.93
406.977	114.69
407.185	165.89
407.394	229.37
407.603	221.18
407.812	167.93
408.02	180.22
408.229	227.32
408.438	165.89
408.646	219.13
408.855	233.47
409.064	245.76
409.272	196.61
409.481	262.14
409.69	294.91
409.898	292.86
410.107	229.37
410.315	278.52
410.524	368.63
410.733	247.8
410.941	264.19
411.15	331.77
411.358	305.15
411.567	389.11
411.775	360.44
411.984	311.29
412.192	335.87
412.401	327.68
412.609	405.5
412.818	444.41
413.026	491.51
413.234	419.83
413.443	464.89
413.651	376.83
413.86	378.87
414.068	538.62
414.276	606.2
414.485	534.52
414.693	497.66
414.901	626.68
415.11	608.25
415.318	548.86
415.526	628.73
415.734	690.17
415.943	681.97
416.151	739.32
416.359	753.65
416.567	749.56
416.776	679.93
416.984	776.18
417.192	815.09
417.4	874.48
417.608	899.06
417.817	933.87
418.025	956.4
418.233	1034.22
418.441	1015.79
418.649	1048.56
418.857	1130.48
419.065	1124.33
419.273	1150.96
419.481	1066.99
419.689	1165.29
419.897	1302.51
420.105	1294.32
420.313	1318.89
420.521	1429.48
420.729	1415.15
420.937	1343.47
421.145	1546.22
421.353	1454.06
421.561	1703.91
421.769	1607.66
421.977	1738.73
422.185	1746.92
422.393	1769.44
422.601	1877.99
422.809	1912.8
423.017	1931.23
423.224	2123.74
423.432	2088.93
423.64	2107.36
423.848	2346.97
424.056	2252.77
424.263	2551.77
424.471	2344.92
424.679	2445.27
424.887	2613.21
425.094	2609.11
425.302	2803.67
425.51	2738.13
425.718	2920.4
425.925	2936.79
426.133	3086.29
426.341	3180.5
426.548	3395.53
426.756	3338.19
426.964	3516.36
427.171	3497.93
427.379	3565.51
427.586	3667.91
427.794	3835.85
428.001	3850.18
428.209	4210.62
428.417	3995.59
428.624	4319.17
428.832	4405.18
429.039	4351.93
429.247	4310.97
429.454	4722.62
429.662	5046.19
429.869	4636.6
430.076	5205.94
430.284	4960.18
430.491	5187.5
430.699	5423.02
430.906	5550
431.114	5433.26
431.321	5765.03
431.528	5889.96
431.736	6375.33
431.943	6561.69
432.15	6123.43
432.358	6549.4
432.565	6887.32
432.772	6703
432.979	7227.28
433.187	7114.64
433.394	7317.39
433.601	7618.44
433.808	7729.03
434.016	7661.45
434.223	8005.51
434.43	8564.61
434.637	8241.03
434.844	8920.95
435.052	8830.84
435.259	9092.98
435.466	9082.74
435.673	8941.43
435.88	9344.88
436.087	10028.9
436.294	9985.9
436.501	9742.19
436.708	9906.02
436.915	10428.26
437.122	10835.8
437.329	10915.67
437.537	11192.15
437.743	11194.2
437.95	11065.18
438.157	11943.75
438.364	12113.74
438.571	11976.52
438.778	12062.54
438.985	13305.65
439.192	12627.78
439.399	13287.22
439.606	12922.68
439.813	13664.05
440.02	14280.49
440.227	14247.72
440.433	14233.38
440.64	14505.76
440.847	14616.35
441.054	14923.55
441.261	15857.42
441.467	15492.88
441.674	16088.84
441.881	16525.06
442.088	16492.29
442.294	16348.93
442.501	16856.83
442.708	17157.88
442.914	17868.53
443.121	18798.31
443.328	18233.07
443.534	19451.61
443.741	18761.44
443.948	18355.94
444.154	19982.03
444.361	19578.58
444.568	20004.56
444.774	19885.78
444.981	20289.23
445.187	20694.72
445.394	21720.76
445.6	21122.75
445.807	23377.56
446.013	22478.5
446.22	22906.53
446.426	23871.12
446.633	23817.88
446.839	24690.31
447.046	23758.49
447.252	25085.57
447.459	25222.78
447.665	25380.48
447.871	26580.59
448.078	27113.06
448.284	25937.52
448.491	26590.83
448.697	27743.83
448.903	28094.04
449.11	28362.32
449.316	27874.9
449.522	28292.69
449.728	29032
449.935	29584.96
450.141	29204.03
450.347	30457.39
450.553	29333.06
450.76	29572.67
450.966	30799.4
451.172	30213.68
451.378	31161.89
451.584	30338.61
451.791	31526.43
451.997	30742.06
452.203	31563.29
452.409	31485.47
452.615	31419.94
452.821	30533.17
453.027	30215.73
453.233	31608.35
453.44	30510.64
453.646	30821.93
453.852	30543.41
454.058	31688.22
454.264	30420.53
454.47	31028.77
454.676	30520.88
454.882	31084.07
455.088	28853.83
455.294	29148.74
455.5	29498.94
455.705	29900.34
455.911	28708.43
456.117	28202.58
456.323	27881.05
456.529	26324.59
456.735	27508.32
456.941	26779.24
457.147	26138.23
457.352	25724.54
457.558	25261.69
457.764	25353.85
457.97	24907.4
458.176	24440.46
458.381	24462.99
458.587	23260.83
458.793	22998.69
458.999	22085.29
459.204	23672.47
459.41	22970.02
459.616	21485.24
459.821	21540.54
460.027	21243.58
460.233	20747.97
460.438	19967.7
460.644	20278.99
460.85	19250.91
461.055	19082.97
461.261	19058.4
461.466	17401.59
461.672	17024.76
461.878	18036.46
462.083	17172.22
462.289	16817.92
462.494	16385.8
462.7	15712.02
462.905	15116.06
463.111	16006.92
463.316	16051.98
463.522	15402.77
463.727	15572.75
463.932	15673.1
464.138	15322.9
464.343	15599.38
464.549	14974.75
464.754	15648.53
464.959	15259.42
465.165	15234.84
465.37	14599.97
465.575	14061.35
465.781	14692.13
465.986	15001.37
466.191	14458.66
466.397	14012.2
466.602	13352.76
466.807	13973.29
467.012	13901.61
467.218	13674.29
467.423	13731.63
467.628	13702.96
467.833	14073.64
