Data from USB4F104151__85__13-13-02-249.txt Node

Date: Fri Mar 14 13:13:02 EDT 2025
User: louis
Spectrometer: USB4F10415
Trigger mode: 4
Integration Time (sec): 2.000000E-2
Scans to average: 1
Electric dark correction enabled: true
Nonlinearity correction enabled: false
Boxcar width: 0
XAxis mode: Wavelengths
Number of Pixels in Spectrum: 3648
>>>>>Begin Spectral Data<<<<<
178.204	-83.28
178.424	-83.28
178.644	-83.28
178.864	-140.63
179.084	-71
179.304	-75.09
179.524	-48.47
179.744	-15.7
179.964	146.09
180.184	8.87
180.404	41.64
180.624	17.07
180.844	-42.32
181.064	-42.32
181.283	-11.61
181.503	-23.89
181.723	45.74
181.943	-5.46
182.163	45.74
182.383	-3.41
182.602	12.97
182.822	41.64
183.042	12.97
183.262	-9.56
183.482	-34.13
183.701	-15.7
183.921	-19.8
184.141	17.07
184.361	39.59
184.58	-38.23
184.8	115.37
185.02	-13.65
185.239	55.98
185.459	-7.51
185.679	58.03
185.898	-9.56
186.118	15.02
186.338	12.97
186.557	72.36
186.777	-7.51
186.997	-25.94
187.216	-17.75
187.436	55.98
187.655	66.22
187.875	62.12
188.095	51.88
188.314	49.83
188.534	8.87
188.753	-52.56
188.973	-32.08
189.192	10.92
189.412	-3.41
189.631	-11.61
189.851	15.02
190.07	55.98
190.29	45.74
190.509	-21.85
190.729	117.42
190.948	29.35
191.168	86.7
191.387	111.27
191.607	-7.51
191.826	49.83
192.045	-27.99
192.265	2.73
192.484	-44.37
192.704	-5.46
192.923	12.97
193.142	27.31
193.362	21.16
193.581	98.99
193.8	19.11
194.02	17.07
194.239	-3.41
194.458	10.92
194.678	4.78
194.897	-19.8
195.116	66.22
195.335	39.59
195.555	60.07
195.774	-13.65
195.993	51.88
196.212	-32.08
196.432	-58.71
196.651	21.16
196.87	2.73
197.089	70.31
197.308	39.59
197.528	35.5
197.747	35.5
197.966	37.55
198.185	90.79
198.404	6.83
198.623	66.22
198.842	-9.56
199.062	55.98
199.281	-17.75
199.5	0.68
199.719	58.03
199.938	47.79
200.157	-11.61
200.376	41.64
200.595	-34.13
200.814	-25.94
201.033	31.4
201.252	80.55
201.471	58.03
201.69	21.16
201.909	74.41
202.128	4.78
202.347	41.64
202.566	35.5
202.785	-3.41
203.004	27.31
203.223	113.32
203.442	53.93
203.661	-27.99
203.879	70.31
204.098	53.93
204.317	21.16
204.536	82.6
204.755	6.83
204.974	74.41
205.193	-1.37
205.411	86.7
205.63	21.16
205.849	-5.46
206.068	82.6
206.287	55.98
206.505	70.31
206.724	12.97
206.943	25.26
207.162	21.16
207.381	15.02
207.599	-25.94
207.818	29.35
208.037	15.02
208.255	-7.51
208.474	39.59
208.693	49.83
208.911	-81.24
209.13	-15.7
209.349	41.64
209.567	8.87
209.786	15.02
210.005	70.31
210.223	19.11
210.442	-58.71
210.661	41.64
210.879	92.84
211.098	37.55
211.316	-21.85
211.535	29.35
211.753	-52.56
211.972	113.32
212.191	0.68
212.409	12.97
212.628	-27.99
212.846	15.02
213.065	47.79
213.283	62.12
213.502	29.35
213.72	29.35
213.938	-9.56
214.157	-9.56
214.375	35.5
214.594	10.92
214.812	-25.94
215.031	-19.8
215.249	37.55
215.467	21.16
215.686	29.35
215.904	-3.41
216.122	58.03
216.341	84.65
216.559	6.83
216.778	19.11
216.996	45.74
217.214	-11.61
217.432	-15.7
217.651	27.31
217.869	-11.61
218.087	31.4
218.306	15.02
218.524	25.26
218.742	-50.52
218.96	29.35
219.179	12.97
219.397	47.79
219.615	78.51
219.833	6.83
220.051	-27.99
220.27	2.73
220.488	66.22
220.706	-19.8
220.924	-17.75
221.142	-25.94
221.36	-60.76
221.578	60.07
221.796	-32.08
222.015	31.4
222.233	58.03
222.451	12.97
222.669	-27.99
222.887	62.12
223.105	-25.94
223.323	23.21
223.541	-36.18
223.759	-5.46
223.977	21.16
224.195	25.26
224.413	-13.65
224.631	10.92
224.849	-7.51
225.067	86.7
225.285	37.55
225.503	-9.56
225.721	-19.8
225.939	62.12
226.157	35.5
226.375	86.7
226.592	0.68
226.81	74.41
227.028	90.79
227.246	66.22
227.464	-36.18
227.682	39.59
227.9	0.68
228.117	-52.56
228.335	47.79
228.553	-3.41
228.771	35.5
228.989	72.36
229.206	29.35
229.424	-56.66
229.642	6.83
229.86	21.16
230.077	4.78
230.295	-60.76
230.513	72.36
230.731	51.88
230.948	-58.71
231.166	86.7
231.384	15.02
231.601	6.83
231.819	111.27
232.037	31.4
232.254	-15.7
232.472	86.7
232.689	-111.96
232.907	78.51
233.125	6.83
233.342	8.87
233.56	-50.52
233.777	21.16
233.995	66.22
234.213	43.69
234.43	-5.46
234.648	-23.89
234.865	-32.08
235.083	45.74
235.3	45.74
235.518	33.45
235.735	15.02
235.953	70.31
236.17	90.79
236.388	115.37
236.605	111.27
236.822	8.87
237.04	82.6
237.257	55.98
237.475	-120.15
237.692	66.22
237.909	55.98
238.127	2.73
238.344	78.51
238.562	-9.56
238.779	29.35
238.996	53.93
239.214	15.02
239.431	6.83
239.648	4.78
239.865	21.16
240.083	66.22
240.3	80.55
240.517	35.5
240.735	-21.85
240.952	133.8
241.169	-7.51
241.386	-17.75
241.603	43.69
241.821	-15.7
242.038	53.93
242.255	115.37
242.472	-7.51
242.689	29.35
242.907	103.08
243.124	12.97
243.341	86.7
243.558	19.11
243.775	-15.7
243.992	15.02
244.209	23.21
244.426	29.35
244.643	64.17
244.86	21.16
245.078	111.27
245.295	-7.51
245.512	15.02
245.729	-23.89
245.946	12.97
246.163	31.4
246.38	37.55
246.597	-23.89
246.814	98.99
247.031	-48.47
247.248	8.87
247.464	12.97
247.681	45.74
247.898	47.79
248.115	31.4
248.332	-13.65
248.549	72.36
248.766	39.59
248.983	64.17
249.2	17.07
249.417	2.73
249.633	17.07
249.85	84.65
250.067	41.64
250.284	35.5
250.501	96.94
250.717	17.07
250.934	-40.28
251.151	66.22
251.368	-21.85
251.585	72.36
251.801	17.07
252.018	15.02
252.235	76.46
252.451	-32.08
252.668	-52.56
252.885	6.83
253.102	-3.41
253.318	-3.41
253.535	47.79
253.752	-5.46
253.968	27.31
254.185	-48.47
254.401	10.92
254.618	-38.23
254.835	8.87
255.051	111.27
255.268	31.4
255.484	39.59
255.701	17.07
255.917	35.5
256.134	66.22
256.351	21.16
256.567	-13.65
256.784	35.5
257	43.69
257.217	-56.66
257.433	33.45
257.65	43.69
257.866	53.93
258.082	19.11
258.299	-5.46
258.515	37.55
258.732	55.98
258.948	-52.56
259.165	-11.61
259.381	31.4
259.597	-42.32
259.814	10.92
260.03	-54.61
260.246	2.73
260.463	43.69
260.679	66.22
260.895	2.73
261.112	-5.46
261.328	53.93
261.544	62.12
261.761	82.6
261.977	47.79
262.193	15.02
262.409	8.87
262.626	33.45
262.842	17.07
263.058	10.92
263.274	141.99
263.49	-73.04
263.707	12.97
263.923	25.26
264.139	17.07
264.355	70.31
264.571	101.03
264.787	2.73
265.004	41.64
265.22	37.55
265.436	62.12
265.652	-32.08
265.868	47.79
266.084	-60.76
266.3	17.07
266.516	-5.46
266.732	88.75
266.948	43.69
267.164	-3.41
267.38	4.78
267.596	58.03
267.812	62.12
268.028	15.02
268.244	74.41
268.46	4.78
268.676	-5.46
268.892	-15.7
269.108	-7.51
269.324	-23.89
269.54	-19.8
269.756	-9.56
269.972	-19.8
270.188	-13.65
270.403	45.74
270.619	4.78
270.835	27.31
271.051	27.31
271.267	10.92
271.483	45.74
271.698	35.5
271.914	-21.85
272.13	-9.56
272.346	-11.61
272.562	62.12
272.777	62.12
272.993	53.93
273.209	-27.99
273.425	8.87
273.64	21.16
273.856	-1.37
274.072	51.88
274.287	-11.61
274.503	55.98
274.719	21.16
274.934	8.87
275.15	25.26
275.366	-27.99
275.581	-9.56
275.797	-3.41
276.012	-107.86
276.228	4.78
276.444	55.98
276.659	58.03
276.875	47.79
277.09	10.92
277.306	62.12
277.521	39.59
277.737	6.83
277.952	12.97
278.168	19.11
278.383	37.55
278.599	39.59
278.814	27.31
279.03	94.89
279.245	66.22
279.461	4.78
279.676	62.12
279.892	8.87
280.107	39.59
280.322	-19.8
280.538	39.59
280.753	6.83
280.969	25.26
281.184	19.11
281.399	-19.8
281.615	66.22
281.83	-7.51
282.045	-9.56
282.26	-38.23
282.476	41.64
282.691	15.02
282.906	78.51
283.122	39.59
283.337	0.68
283.552	21.16
283.767	6.83
283.983	33.45
284.198	25.26
284.413	94.89
284.628	0.68
284.843	-9.56
285.058	-3.41
285.274	29.35
285.489	-60.76
285.704	25.26
285.919	-19.8
286.134	62.12
286.349	41.64
286.564	8.87
286.779	8.87
286.995	-3.41
287.21	-11.61
287.425	-5.46
287.64	43.69
287.855	98.99
288.07	49.83
288.285	55.98
288.5	45.74
288.715	58.03
288.93	19.11
289.145	-17.75
289.36	-7.51
289.575	49.83
289.79	-7.51
290.004	-34.13
290.219	25.26
290.434	17.07
290.649	12.97
290.864	0.68
291.079	29.35
291.294	15.02
291.509	-13.65
291.724	-17.75
291.938	21.16
292.153	2.73
292.368	45.74
292.583	29.35
292.798	23.21
293.012	31.4
293.227	0.68
293.442	29.35
293.657	25.26
293.871	23.21
294.086	8.87
294.301	27.31
294.516	53.93
294.73	12.97
294.945	12.97
295.16	-15.7
295.374	82.6
295.589	45.74
295.804	-7.51
296.018	10.92
296.233	96.94
296.447	111.27
296.662	4.78
296.877	0.68
297.091	39.59
297.306	12.97
297.52	6.83
297.735	23.21
297.949	64.17
298.164	84.65
298.378	37.55
298.593	-11.61
298.807	49.83
299.022	10.92
299.236	64.17
299.451	-21.85
299.665	-9.56
299.88	31.4
300.094	-9.56
300.309	72.36
300.523	53.93
300.737	12.97
300.952	12.97
301.166	107.18
301.381	-9.56
301.595	25.26
301.809	33.45
302.024	66.22
302.238	23.21
302.452	74.41
302.667	6.83
302.881	-19.8
303.095	17.07
303.309	-13.65
303.524	-30.04
303.738	51.88
303.952	37.55
304.166	41.64
304.381	-1.37
304.595	55.98
304.809	-60.76
305.023	-32.08
305.237	15.02
305.452	-17.75
305.666	55.98
305.88	12.97
306.094	53.93
306.308	12.97
306.522	25.26
306.736	47.79
306.95	27.31
307.164	70.31
307.379	74.41
307.593	49.83
307.807	58.03
308.021	53.93
308.235	19.11
308.449	10.92
308.663	64.17
308.877	27.31
309.091	25.26
309.305	103.08
309.519	21.16
309.733	25.26
309.947	25.26
310.161	64.17
310.374	94.89
310.588	60.07
310.802	23.21
311.016	43.69
311.23	107.18
311.444	-13.65
311.658	39.59
311.872	90.79
312.085	62.12
312.299	141.99
312.513	88.75
312.727	-3.41
312.941	31.4
313.154	41.64
313.368	-83.28
313.582	37.55
313.796	60.07
314.009	0.68
314.223	37.55
314.437	64.17
314.651	47.79
314.864	39.59
315.078	35.5
315.292	-1.37
315.505	80.55
315.719	8.87
315.933	-32.08
316.146	53.93
316.36	29.35
316.573	-25.94
316.787	-34.13
317.001	58.03
317.214	27.31
317.428	19.11
317.641	41.64
317.855	31.4
318.068	6.83
318.282	62.12
318.495	60.07
318.709	17.07
318.922	12.97
319.136	55.98
319.349	-32.08
319.563	51.88
319.776	12.97
319.99	-19.8
320.203	-52.56
320.417	55.98
320.63	37.55
320.843	6.83
321.057	58.03
321.27	6.83
321.483	19.11
321.697	33.45
321.91	70.31
322.124	12.97
322.337	60.07
322.55	-30.04
322.763	-15.7
322.977	37.55
323.19	74.41
323.403	27.31
323.617	49.83
323.83	64.17
324.043	55.98
324.256	84.65
324.469	-13.65
324.683	41.64
324.896	62.12
325.109	6.83
325.322	55.98
325.535	4.78
325.748	-15.7
325.962	78.51
326.175	-1.37
326.388	-9.56
326.601	23.21
326.814	-9.56
327.027	41.64
327.24	82.6
327.453	19.11
327.666	17.07
327.879	6.83
328.092	0.68
328.305	70.31
328.518	-3.41
328.731	-17.75
328.944	-23.89
329.157	12.97
329.37	-32.08
329.583	84.65
329.796	70.31
330.009	15.02
330.222	-3.41
330.435	-3.41
330.648	35.5
330.861	6.83
331.073	53.93
331.286	15.02
331.499	-17.75
331.712	8.87
331.925	43.69
332.138	12.97
332.35	49.83
332.563	-27.99
332.776	45.74
332.989	29.35
333.202	37.55
333.414	31.4
333.627	90.79
333.84	-17.75
334.053	31.4
334.265	51.88
334.478	45.74
334.691	-1.37
334.903	-19.8
335.116	-11.61
335.329	21.16
335.541	2.73
335.754	58.03
335.966	23.21
336.179	25.26
336.392	35.5
336.604	33.45
336.817	47.79
337.029	-40.28
337.242	64.17
337.454	103.08
337.667	43.69
337.88	64.17
338.092	33.45
338.305	-7.51
338.517	-7.51
338.729	76.46
338.942	27.31
339.154	45.74
339.367	-11.61
339.579	62.12
339.792	23.21
340.004	66.22
340.217	-9.56
340.429	33.45
340.641	8.87
340.854	41.64
341.066	25.26
341.278	78.51
341.491	-1.37
341.703	8.87
341.915	10.92
342.128	82.6
342.34	72.36
342.552	60.07
342.764	4.78
342.977	66.22
343.189	21.16
343.401	60.07
343.613	4.78
343.826	72.36
344.038	47.79
344.25	8.87
344.462	-1.37
344.674	86.7
344.886	25.26
345.099	23.21
345.311	6.83
345.523	10.92
345.735	-27.99
345.947	21.16
346.159	53.93
346.371	121.51
346.583	23.21
346.795	84.65
347.007	10.92
347.219	53.93
347.431	47.79
347.643	105.13
347.855	-3.41
348.067	92.84
348.279	0.68
348.491	37.55
348.703	80.55
348.915	92.84
349.127	17.07
349.339	-9.56
349.551	-32.08
349.763	86.7
349.975	-9.56
350.187	10.92
350.399	92.84
350.61	23.21
350.822	-3.41
351.034	-19.8
351.246	29.35
351.458	25.26
351.669	98.99
351.881	25.26
352.093	23.21
352.305	15.02
352.517	62.12
352.728	33.45
352.94	10.92
353.152	23.21
353.363	23.21
353.575	4.78
353.787	74.41
353.999	15.02
354.21	76.46
354.422	78.51
354.633	4.78
354.845	47.79
355.057	-15.7
355.268	27.31
355.48	49.83
355.692	43.69
355.903	6.83
356.115	-19.8
356.326	8.87
356.538	72.36
356.749	29.35
356.961	70.31
357.172	53.93
357.384	41.64
357.595	33.45
357.807	-15.7
358.018	19.11
358.23	-15.7
358.441	94.89
358.653	45.74
358.864	64.17
359.075	58.03
359.287	84.65
359.498	-1.37
359.709	-7.51
359.921	37.55
360.132	6.83
360.344	76.46
360.555	25.26
360.766	60.07
360.977	-34.13
361.189	98.99
361.4	10.92
361.611	72.36
361.823	39.59
362.034	19.11
362.245	19.11
362.456	12.97
362.667	-36.18
362.879	35.5
363.09	-11.61
363.301	21.16
363.512	29.35
363.723	39.59
363.935	10.92
364.146	72.36
364.357	10.92
364.568	12.97
364.779	-27.99
364.99	62.12
365.201	-15.7
365.412	88.75
365.623	23.21
365.834	70.31
366.045	19.11
366.256	78.51
366.467	66.22
366.678	55.98
366.889	29.35
367.1	-25.94
367.311	-1.37
367.522	23.21
367.733	64.17
367.944	41.64
368.155	84.65
368.366	31.4
368.577	45.74
368.788	-19.8
368.999	58.03
369.209	80.55
369.42	58.03
369.631	45.74
369.842	82.6
370.053	6.83
370.264	70.31
370.474	37.55
370.685	2.73
370.896	45.74
371.107	45.74
371.317	51.88
371.528	10.92
371.739	37.55
371.95	25.26
372.16	15.02
372.371	33.45
372.582	15.02
372.792	119.46
373.003	23.21
373.214	53.93
373.424	23.21
373.635	41.64
373.846	2.73
374.056	-9.56
374.267	47.79
374.477	62.12
374.688	76.46
374.898	29.35
375.109	35.5
375.319	58.03
375.53	78.51
375.74	152.23
375.951	72.36
376.161	-27.99
376.372	58.03
376.582	-15.7
376.793	70.31
377.003	31.4
377.214	-25.94
377.424	51.88
377.635	17.07
377.845	17.07
378.055	80.55
378.266	12.97
378.476	47.79
378.686	0.68
378.897	72.36
379.107	51.88
379.317	96.94
379.528	15.02
379.738	92.84
379.948	27.31
380.158	113.32
380.369	58.03
380.579	6.83
380.789	-9.56
380.999	41.64
381.21	17.07
381.42	72.36
381.63	31.4
381.84	70.31
382.05	0.68
382.261	35.5
382.471	47.79
382.681	-15.7
382.891	70.31
383.101	37.55
383.311	60.07
383.521	-52.56
383.731	55.98
383.941	72.36
384.151	90.79
384.361	-17.75
384.571	-71
384.781	35.5
384.991	47.79
385.201	113.32
385.411	66.22
385.621	21.16
385.831	15.02
386.041	86.7
386.251	-62.8
386.461	-32.08
386.671	72.36
386.881	47.79
387.091	10.92
387.301	88.75
387.511	33.45
387.72	53.93
387.93	39.59
388.14	31.4
388.35	37.55
388.56	68.27
388.769	45.74
388.979	12.97
389.189	27.31
389.399	60.07
389.609	10.92
389.818	103.08
390.028	-5.46
390.238	72.36
390.447	-15.7
390.657	35.5
390.867	-9.56
391.076	-13.65
391.286	29.35
391.496	60.07
391.705	-32.08
391.915	41.64
392.125	33.45
392.334	78.51
392.544	125.61
392.753	62.12
392.963	-1.37
393.172	88.75
393.382	39.59
393.591	76.46
393.801	-32.08
394.01	123.56
394.22	43.69
394.429	64.17
394.639	10.92
394.848	29.35
395.058	107.18
395.267	113.32
395.477	88.75
395.686	76.46
395.895	41.64
396.105	88.75
396.314	72.36
396.524	123.56
396.733	45.74
396.942	94.89
397.152	31.4
397.361	101.03
397.57	-17.75
397.78	58.03
397.989	113.32
398.198	0.68
398.407	29.35
398.617	53.93
398.826	60.07
399.035	17.07
399.244	29.35
399.453	66.22
399.663	29.35
399.872	-3.41
400.081	33.45
400.29	39.59
400.499	-13.65
400.708	51.88
400.917	23.21
401.127	60.07
401.336	-32.08
401.545	64.17
401.754	70.31
401.963	68.27
402.172	55.98
402.381	4.78
402.59	39.59
402.799	2.73
403.008	70.31
403.217	68.27
403.426	51.88
403.635	49.83
403.844	62.12
404.053	88.75
404.262	66.22
404.471	164.52
404.68	21.16
404.888	62.12
405.097	119.46
405.306	19.11
405.515	113.32
405.724	107.18
405.933	119.46
406.142	127.66
406.35	119.46
406.559	96.94
406.768	60.07
406.977	115.37
407.185	109.22
407.394	62.12
407.603	49.83
407.812	105.13
408.02	131.75
408.229	90.79
408.438	174.76
408.646	80.55
408.855	189.1
409.064	199.34
409.272	86.7
409.481	213.67
409.69	144.04
409.898	146.09
410.107	135.85
410.315	133.8
410.524	187.05
410.733	160.42
410.941	158.38
411.15	195.24
411.358	236.2
411.567	244.39
411.775	98.99
411.984	225.96
412.192	260.77
412.401	205.48
412.609	254.63
412.818	297.64
413.026	371.37
413.234	287.4
413.443	297.64
413.651	180.9
413.86	240.3
414.068	301.73
414.276	248.49
414.485	275.11
414.693	354.98
414.901	332.45
415.11	322.21
415.318	406.18
415.526	375.46
415.734	430.76
415.943	426.66
416.151	416.42
416.359	373.41
416.567	436.9
416.776	506.53
416.984	512.67
417.192	545.44
417.4	477.86
417.608	527.01
417.817	617.12
418.025	602.79
418.233	651.94
418.441	529.06
418.649	559.78
418.857	610.98
419.065	711.33
419.273	670.37
419.481	647.84
419.689	805.53
419.897	768.67
420.105	684.7
420.313	776.86
420.521	772.77
420.729	846.49
420.937	864.93
421.145	916.12
421.353	934.56
421.561	993.95
421.769	1028.76
421.977	1053.34
422.185	1045.15
422.393	1172.12
422.601	1161.88
422.809	1172.12
423.017	1208.98
423.224	1157.79
423.432	1206.94
423.64	1225.37
423.848	1383.06
424.056	1376.92
424.263	1413.78
424.471	1450.64
424.679	1460.88
424.887	1491.6
425.094	1485.46
425.302	1600.15
425.51	1655.44
425.718	1786.51
425.925	1669.78
426.133	1843.85
426.341	1854.09
426.548	2038.41
426.756	1989.26
426.964	2011.79
427.171	2077.32
427.379	2134.67
427.586	2153.1
427.794	2323.08
428.001	2347.65
428.209	2617.99
428.417	2497.16
428.624	2560.64
428.832	2570.88
429.039	2554.5
429.247	2554.5
429.454	2861.69
429.662	3056.25
429.869	2757.25
430.076	3043.96
430.284	2974.33
430.491	2996.86
430.699	3283.58
430.906	3218.04
431.114	3236.47
431.321	3381.88
431.528	3553.91
431.736	3705.46
431.943	3887.73
432.15	3707.51
432.358	3773.04
432.565	3992.17
432.772	4061.8
432.979	4094.57
433.187	4270.7
433.394	4285.03
433.601	4581.99
433.808	4547.17
434.016	4592.23
434.223	4788.83
434.43	5036.64
434.637	4921.95
434.844	5270.11
435.052	5309.02
435.259	5347.93
435.466	5317.21
435.673	5343.83
435.88	5560.92
436.087	5962.32
436.294	6034
436.501	5849.68
436.708	6085.2
436.915	6130.25
437.122	6410.82
437.329	6453.83
437.537	6795.84
437.743	6738.5
437.95	6746.69
438.157	6978.11
438.364	7295.55
438.571	7346.75
438.778	7346.75
438.985	7918.13
439.192	7664.18
439.399	7969.33
439.606	7686.71
439.813	8067.63
440.02	8479.27
440.227	8399.4
440.433	8475.18
440.64	8923.68
440.847	8688.17
441.054	8890.91
441.261	9503.26
441.467	9306.65
441.674	9507.35
441.881	9794.07
442.088	9849.36
442.294	9814.55
442.501	9921.04
442.708	10363.4
442.914	10553.87
443.121	11024.9
443.328	10646.02
443.534	11442.68
443.741	11190.78
443.948	10990.08
444.154	11829.75
444.361	11870.71
444.568	11993.59
444.774	12032.5
444.981	11975.16
445.187	12325.36
445.394	12974.56
445.6	13095.39
445.807	13986.26
446.013	13580.76
446.22	13529.56
446.426	14207.44
446.633	14291.41
446.839	14686.67
447.046	14217.68
447.252	15000.01
447.459	14922.18
447.665	14940.61
447.871	15520.19
448.078	16273.84
448.284	15438.27
448.491	16349.62
448.697	16712.11
448.903	16939.43
449.11	16955.82
449.316	16581.04
449.522	16961.96
449.728	17418.66
449.935	17613.21
450.141	17768.86
450.347	17955.22
450.553	17574.3
450.76	18039.19
450.966	18229.65
451.172	18243.99
451.378	18667.92
451.584	18252.18
451.791	19005.83
451.997	18739.6
452.203	18983.3
452.409	19036.55
452.615	19208.58
452.821	18289.04
453.027	18041.24
453.233	19134.85
453.44	18434.45
453.646	18555.28
453.852	18766.22
454.058	18866.57
454.264	18274.71
454.47	18977.16
454.676	18555.28
454.882	19091.85
455.088	17529.25
455.294	17562.01
455.5	17779.1
455.705	18239.89
455.911	17414.56
456.117	17000.87
456.323	16802.22
456.529	16271.79
456.735	16822.7
456.941	16464.3
457.147	16040.37
457.352	15372.74
457.558	15217.09
457.764	15182.27
457.97	15016.39
458.176	14752.2
458.381	14741.96
458.587	14178.77
458.793	13971.93
458.999	13330.91
459.204	14326.22
459.41	13857.24
459.616	12933.61
459.821	12925.41
460.027	13009.38
460.233	12704.23
460.438	12116.47
460.644	12130.8
460.85	11616.76
461.055	11495.93
461.261	11657.72
461.466	10764.81
461.672	10070.54
461.878	11016.71
462.083	10246.67
462.289	10263.05
462.494	10054.16
462.7	9585.18
462.905	9185.82
463.111	9738.77
463.316	9574.94
463.522	9609.75
463.727	9312.8
463.932	9370.14
464.138	9310.75
464.343	9456.15
464.549	9015.84
464.754	9503.26
464.959	9302.56
465.165	9245.21
465.37	8688.17
465.575	8596.01
465.781	9103.9
465.986	8903.2
466.191	8651.3
466.397	8362.54
466.602	7987.76
466.807	8452.65
467.012	8518.18
467.218	8213.04
467.423	8403.5
467.628	8434.22
467.833	8524.33
468.038	8165.93
468.244	8100.4
468.449	8438.31
468.654	7899.7
468.859	8106.54
469.064	8094.26
469.269	7692.85
