Data from USB4F104151__13__13-10-25-872.txt Node

Date: Fri Mar 14 13:10:25 EDT 2025
User: louis
Spectrometer: USB4F10415
Trigger mode: 4
Integration Time (sec): 2.000000E-2
Scans to average: 1
Electric dark correction enabled: true
Nonlinearity correction enabled: false
Boxcar width: 0
XAxis mode: Wavelengths
Number of Pixels in Spectrum: 3648
>>>>>Begin Spectral Data<<<<<
178.204	-83.63
178.424	-83.63
178.644	-83.63
178.864	-73.39
179.084	-63.15
179.304	-24.23
179.524	-11.95
179.744	-52.91
179.964	-11.95
180.184	-5.8
180.404	-7.85
180.624	2.39
180.844	29.01
181.064	-44.71
181.283	24.92
181.503	31.06
181.723	72.02
181.943	-16.04
182.163	98.64
182.383	45.4
182.602	24.92
182.822	12.63
183.042	-36.52
183.262	45.4
183.482	43.35
183.701	-38.57
183.921	12.63
184.141	8.53
184.361	24.92
184.58	22.87
184.8	49.49
185.02	24.92
185.239	94.55
185.459	35.16
185.679	6.49
185.898	6.49
186.118	61.78
186.338	112.98
186.557	-22.19
186.777	-22.19
186.997	8.53
187.216	-1.71
187.436	69.97
187.655	65.88
187.875	47.44
188.095	49.49
188.314	6.49
188.534	10.58
188.753	-38.57
188.973	76.12
189.192	53.59
189.412	10.58
189.631	37.2
189.851	41.3
190.07	63.83
190.29	-106.15
190.509	37.2
190.729	-50.86
190.948	-1.71
191.168	115.03
191.387	43.35
191.607	35.16
191.826	22.87
192.045	35.16
192.265	-9.9
192.484	31.06
192.704	55.64
192.923	67.92
193.142	74.07
193.362	29.01
193.581	41.3
193.8	-57
194.02	18.77
194.239	-11.95
194.458	80.21
194.678	14.68
194.897	-1.71
195.116	-18.09
195.335	-63.15
195.555	51.54
195.774	39.25
195.993	6.49
196.212	-24.23
196.432	12.63
196.651	12.63
196.87	2.39
197.089	135.51
197.308	67.92
197.528	-22.19
197.747	-5.8
197.966	24.92
198.185	88.4
198.404	-5.8
198.623	92.5
198.842	63.83
199.062	39.25
199.281	100.69
199.5	37.2
199.719	63.83
199.938	-9.9
200.157	49.49
200.376	-40.62
200.595	72.02
200.814	26.96
201.033	59.73
201.252	51.54
201.471	49.49
201.69	47.44
201.909	72.02
202.128	43.35
202.347	29.01
202.566	39.25
202.785	65.88
203.004	-40.62
203.223	16.73
203.442	16.73
203.661	2.39
203.879	39.25
204.098	37.2
204.317	-18.09
204.536	35.16
204.755	26.96
204.974	82.26
205.193	-7.85
205.411	94.55
205.63	102.74
205.849	57.68
206.068	35.16
206.287	0.34
206.505	-9.9
206.724	51.54
206.943	-11.95
207.162	22.87
207.381	-16.04
207.599	88.4
207.818	14.68
208.037	18.77
208.255	-1.71
208.474	33.11
208.693	96.6
208.911	24.92
209.13	12.63
209.349	41.3
209.567	63.83
209.786	51.54
210.005	-11.95
210.223	78.16
210.442	-9.9
210.661	14.68
210.879	61.78
211.098	-34.47
211.316	53.59
211.535	96.6
211.753	35.16
211.972	98.64
212.191	63.83
212.409	-1.71
212.628	47.44
212.846	14.68
213.065	49.49
213.283	76.12
213.502	16.73
213.72	24.92
213.938	67.92
214.157	24.92
214.375	-7.85
214.594	39.25
214.812	47.44
215.031	22.87
215.249	43.35
215.467	41.3
215.686	8.53
215.904	74.07
216.122	31.06
216.341	110.93
216.559	35.16
216.778	80.21
216.996	72.02
217.214	35.16
217.432	29.01
217.651	14.68
217.869	-26.28
218.087	100.69
218.306	-18.09
218.524	-18.09
218.742	33.11
218.96	47.44
219.179	29.01
219.397	-30.38
219.615	104.79
219.833	115.03
220.051	37.2
220.27	-54.95
220.488	-3.75
220.706	26.96
220.924	16.73
221.142	-18.09
221.36	14.68
221.578	-40.62
221.796	-46.76
222.015	61.78
222.233	53.59
222.451	63.83
222.669	51.54
222.887	35.16
223.105	-38.57
223.323	24.92
223.541	-32.43
223.759	39.25
223.977	6.49
224.195	55.64
224.413	43.35
224.631	72.02
224.849	-16.04
225.067	22.87
225.285	55.64
225.503	51.54
225.721	59.73
225.939	115.03
226.157	43.35
226.375	92.5
226.592	12.63
226.81	59.73
227.028	104.79
227.246	65.88
227.464	49.49
227.682	65.88
227.9	39.25
228.117	69.97
228.335	2.39
228.553	-7.85
228.771	72.02
228.989	55.64
229.206	57.68
229.424	49.49
229.642	26.96
229.86	33.11
230.077	106.84
230.295	-18.09
230.513	29.01
230.731	78.16
230.948	43.35
231.166	55.64
231.384	53.59
231.601	16.73
231.819	92.5
232.037	63.83
232.254	-34.47
232.472	4.44
232.689	-34.47
232.907	55.64
233.125	-1.71
233.342	-26.28
233.56	-32.43
233.777	65.88
233.995	39.25
234.213	49.49
234.43	47.44
234.648	63.83
234.865	86.36
235.083	-13.99
235.3	-5.8
235.518	31.06
235.735	53.59
235.953	80.21
236.17	26.96
236.388	-30.38
236.605	33.11
236.822	86.36
237.04	-20.14
237.257	24.92
237.475	67.92
237.692	35.16
237.909	-36.52
238.127	47.44
238.344	59.73
238.562	33.11
238.779	-11.95
238.996	12.63
239.214	33.11
239.431	26.96
239.648	8.53
239.865	20.82
240.083	16.73
240.3	63.83
240.517	47.44
240.735	22.87
240.952	57.68
241.169	39.25
241.386	45.4
241.603	49.49
241.821	65.88
242.038	63.83
242.255	0.34
242.472	39.25
242.689	29.01
242.907	-7.85
243.124	26.96
243.341	29.01
243.558	39.25
243.775	2.39
243.992	-1.71
244.209	-9.9
244.426	100.69
244.643	55.64
244.86	-38.57
245.078	84.31
245.295	-16.04
245.512	98.64
245.729	-3.75
245.946	61.78
246.163	72.02
246.38	-1.71
246.597	31.06
246.814	90.45
247.031	61.78
247.248	18.77
247.464	117.08
247.681	8.53
247.898	37.2
248.115	108.88
248.332	8.53
248.549	88.4
248.766	98.64
248.983	49.49
249.2	-7.85
249.417	63.83
249.633	123.22
249.85	67.92
250.067	-24.23
250.284	24.92
250.501	6.49
250.717	92.5
250.934	-9.9
251.151	-18.09
251.368	49.49
251.585	69.97
251.801	47.44
252.018	35.16
252.235	10.58
252.451	104.79
252.668	26.96
252.885	22.87
253.102	10.58
253.318	43.35
253.535	43.35
253.752	33.11
253.968	18.77
254.185	6.49
254.401	51.54
254.618	51.54
254.835	49.49
255.051	47.44
255.268	26.96
255.484	74.07
255.701	55.64
255.917	55.64
256.134	-16.04
256.351	96.6
256.567	0.34
256.784	59.73
257	115.03
257.217	2.39
257.433	43.35
257.65	37.2
257.866	53.59
258.082	-11.95
258.299	20.82
258.515	10.58
258.732	51.54
258.948	39.25
259.165	49.49
259.381	-1.71
259.597	92.5
259.814	24.92
260.03	43.35
260.246	0.34
260.463	45.4
260.679	76.12
260.895	18.77
261.112	49.49
261.328	39.25
261.544	-36.52
261.761	74.07
261.977	12.63
262.193	45.4
262.409	35.16
262.626	16.73
262.842	-13.99
263.058	-16.04
263.274	14.68
263.49	45.4
263.707	31.06
263.923	10.58
264.139	39.25
264.355	35.16
264.571	43.35
264.787	22.87
265.004	82.26
265.22	8.53
265.436	63.83
265.652	-11.95
265.868	14.68
266.084	4.44
266.3	86.36
266.516	49.49
266.732	10.58
266.948	22.87
267.164	59.73
267.38	57.68
267.596	33.11
267.812	92.5
268.028	90.45
268.244	45.4
268.46	51.54
268.676	33.11
268.892	49.49
269.108	22.87
269.324	6.49
269.54	8.53
269.756	16.73
269.972	-24.23
270.188	-9.9
270.403	-34.47
270.619	14.68
270.835	65.88
271.051	80.21
271.267	-34.47
271.483	-1.71
271.698	59.73
271.914	55.64
272.13	115.03
272.346	8.53
272.562	26.96
272.777	86.36
272.993	16.73
273.209	4.44
273.425	-13.99
273.64	47.44
273.856	100.69
274.072	-7.85
274.287	-22.19
274.503	72.02
274.719	31.06
274.934	49.49
275.15	-16.04
275.366	14.68
275.581	39.25
275.797	76.12
276.012	6.49
276.228	-16.04
276.444	84.31
276.659	108.88
276.875	57.68
277.09	67.92
277.306	31.06
277.521	-26.28
277.737	20.82
277.952	90.45
278.168	14.68
278.383	18.77
278.599	31.06
278.814	74.07
279.03	26.96
279.245	94.55
279.461	16.73
279.676	74.07
279.892	41.3
280.107	31.06
280.322	24.92
280.538	24.92
280.753	51.54
280.969	76.12
281.184	33.11
281.399	96.6
281.615	-5.8
281.83	55.64
282.045	-26.28
282.26	24.92
282.476	-1.71
282.691	31.06
282.906	18.77
283.122	29.01
283.337	65.88
283.552	-9.9
283.767	18.77
283.983	47.44
284.198	-11.95
284.413	55.64
284.628	45.4
284.843	0.34
285.058	72.02
285.274	26.96
285.489	6.49
285.704	49.49
285.919	-18.09
286.134	10.58
286.349	61.78
286.564	-26.28
286.779	14.68
286.995	37.2
287.21	-1.71
287.425	35.16
287.64	47.44
287.855	80.21
288.07	14.68
288.285	82.26
288.5	10.58
288.715	22.87
288.93	84.31
289.145	-5.8
289.36	6.49
289.575	0.34
289.79	51.54
290.004	22.87
290.219	67.92
290.434	31.06
290.649	31.06
290.864	33.11
291.079	129.36
291.294	88.4
291.509	55.64
291.724	20.82
291.938	35.16
292.153	-40.62
292.368	33.11
292.583	61.78
292.798	67.92
293.012	72.02
293.227	29.01
293.442	45.4
293.657	139.6
293.871	39.25
294.086	-13.99
294.301	18.77
294.516	74.07
294.73	-13.99
294.945	-3.75
295.16	96.6
295.374	-18.09
295.589	55.64
295.804	8.53
296.018	26.96
296.233	84.31
296.447	41.3
296.662	8.53
296.877	-9.9
297.091	102.74
297.306	16.73
297.52	67.92
297.735	80.21
297.949	6.49
298.164	31.06
298.378	26.96
298.593	-26.28
298.807	24.92
299.022	41.3
299.236	8.53
299.451	41.3
299.665	6.49
299.88	45.4
300.094	90.45
300.309	31.06
300.523	86.36
300.737	8.53
300.952	6.49
301.166	6.49
301.381	-5.8
301.595	41.3
301.809	6.49
302.024	-7.85
302.238	-9.9
302.452	55.64
302.667	10.58
302.881	-7.85
303.095	59.73
303.309	69.97
303.524	-38.57
303.738	14.68
303.952	-20.14
304.166	76.12
304.381	6.49
304.595	47.44
304.809	55.64
305.023	18.77
305.237	8.53
305.452	37.2
305.666	108.88
305.88	6.49
306.094	-5.8
306.308	39.25
306.522	119.12
306.736	-3.75
306.95	37.2
307.164	6.49
307.379	35.16
307.593	26.96
307.807	47.44
308.021	-16.04
308.235	92.5
308.449	63.83
308.663	98.64
308.877	74.07
309.091	-3.75
309.305	78.16
309.519	-9.9
309.733	80.21
309.947	43.35
310.161	16.73
310.374	39.25
310.588	57.68
310.802	47.44
311.016	-18.09
311.23	35.16
311.444	-26.28
311.658	20.82
311.872	45.4
312.085	53.59
312.299	16.73
312.513	82.26
312.727	65.88
312.941	6.49
313.154	39.25
313.368	43.35
313.582	47.44
313.796	59.73
314.009	45.4
314.223	31.06
314.437	2.39
314.651	65.88
314.864	35.16
315.078	26.96
315.292	22.87
315.505	18.77
315.719	90.45
315.933	125.27
316.146	-13.99
316.36	31.06
316.573	16.73
316.787	-20.14
317.001	129.36
317.214	98.64
317.428	51.54
317.641	20.82
317.855	-18.09
318.068	92.5
318.282	86.36
318.495	72.02
318.709	82.26
318.922	-18.09
319.136	80.21
319.349	43.35
319.563	-46.76
319.776	41.3
319.99	29.01
320.203	-20.14
320.417	43.35
320.63	92.5
320.843	-18.09
321.057	26.96
321.27	-26.28
321.483	57.68
321.697	78.16
321.91	67.92
322.124	22.87
322.337	14.68
322.55	72.02
322.763	12.63
322.977	123.22
323.19	29.01
323.403	72.02
323.617	31.06
323.83	76.12
324.043	41.3
324.256	-48.81
324.469	29.01
324.683	119.12
324.896	6.49
325.109	-9.9
325.322	0.34
325.535	82.26
325.748	39.25
325.962	47.44
326.175	-1.71
326.388	35.16
326.601	63.83
326.814	-22.19
327.027	47.44
327.24	-26.28
327.453	33.11
327.666	110.93
327.879	63.83
328.092	35.16
328.305	108.88
328.518	112.98
328.731	10.58
328.944	2.39
329.157	110.93
329.37	47.44
329.583	160.08
329.796	125.27
330.009	14.68
330.222	80.21
330.435	72.02
330.648	-7.85
330.861	26.96
331.073	69.97
331.286	0.34
331.499	57.68
331.712	-3.75
331.925	26.96
332.138	72.02
332.35	100.69
332.563	98.64
332.776	121.17
332.989	55.64
333.202	-42.67
333.414	88.4
333.627	76.12
333.84	24.92
334.053	153.94
334.265	39.25
334.478	-9.9
334.691	41.3
334.903	35.16
335.116	59.73
335.329	4.44
335.541	94.55
335.754	78.16
335.966	-26.28
336.179	88.4
336.392	41.3
336.604	26.96
336.817	84.31
337.029	45.4
337.242	-26.28
337.454	112.98
337.667	49.49
337.88	145.75
338.092	33.11
338.305	88.4
338.517	22.87
338.729	-1.71
338.942	43.35
339.154	37.2
339.367	57.68
339.579	98.64
339.792	-5.8
340.004	106.84
340.217	-1.71
340.429	-5.8
340.641	55.64
340.854	-9.9
341.066	102.74
341.278	47.44
341.491	78.16
341.703	12.63
341.915	-1.71
342.128	115.03
342.34	22.87
342.552	59.73
342.764	88.4
342.977	49.49
343.189	61.78
343.401	16.73
343.613	41.3
343.826	-16.04
344.038	49.49
344.25	2.39
344.462	51.54
344.674	-18.09
344.886	88.4
345.099	6.49
345.311	82.26
345.523	39.25
345.735	41.3
345.947	90.45
346.159	47.44
346.371	41.3
346.583	20.82
346.795	104.79
347.007	10.58
347.219	55.64
347.431	41.3
347.643	96.6
347.855	-9.9
348.067	112.98
348.279	14.68
348.491	6.49
348.703	31.06
348.915	82.26
349.127	-16.04
349.339	22.87
349.551	6.49
349.763	84.31
349.975	76.12
350.187	104.79
350.399	59.73
350.61	26.96
350.822	22.87
351.034	115.03
351.246	8.53
351.458	129.36
351.669	47.44
351.881	78.16
352.093	26.96
352.305	-9.9
352.517	166.23
352.728	49.49
352.94	74.07
353.152	39.25
353.363	-26.28
353.575	39.25
353.787	119.12
353.999	22.87
354.21	43.35
354.422	57.68
354.633	108.88
354.845	0.34
355.057	-9.9
355.268	74.07
355.48	39.25
355.692	14.68
355.903	-1.71
356.115	69.97
356.326	12.63
356.538	80.21
356.749	51.54
356.961	137.56
357.172	-1.71
357.384	16.73
357.595	106.84
357.807	37.2
358.018	16.73
358.23	100.69
358.441	90.45
358.653	102.74
358.864	123.22
359.075	29.01
359.287	86.36
359.498	33.11
359.709	98.64
359.921	80.21
360.132	59.73
360.344	139.6
360.555	12.63
360.766	119.12
360.977	84.31
361.189	69.97
361.4	53.59
361.611	2.39
361.823	96.6
362.034	88.4
362.245	41.3
362.456	88.4
362.667	80.21
362.879	-16.04
363.09	29.01
363.301	35.16
363.512	55.64
363.723	76.12
363.935	4.44
364.146	37.2
364.357	80.21
364.568	43.35
364.779	0.34
364.99	104.79
365.201	26.96
365.412	57.68
365.623	-16.04
365.834	63.83
366.045	16.73
366.256	119.12
366.467	29.01
366.678	8.53
366.889	100.69
367.1	39.25
367.311	106.84
367.522	6.49
367.733	67.92
367.944	20.82
368.155	8.53
368.366	72.02
368.577	35.16
368.788	112.98
368.999	16.73
369.209	115.03
369.42	104.79
369.631	110.93
369.842	47.44
370.053	102.74
370.264	90.45
370.474	26.96
370.685	59.73
370.896	72.02
371.107	45.4
371.317	57.68
371.528	8.53
371.739	74.07
371.95	76.12
372.16	80.21
372.371	-3.75
372.582	69.97
372.792	65.88
373.003	29.01
373.214	72.02
373.424	90.45
373.635	39.25
373.846	61.78
374.056	31.06
374.267	18.77
374.477	37.2
374.688	45.4
374.898	86.36
375.109	74.07
375.319	14.68
375.53	29.01
375.74	72.02
375.951	45.4
376.161	39.25
376.372	57.68
376.582	-5.8
376.793	88.4
377.003	18.77
377.214	14.68
377.424	16.73
377.635	47.44
377.845	2.39
378.055	55.64
378.266	51.54
378.476	14.68
378.686	47.44
378.897	51.54
379.107	6.49
379.317	108.88
379.528	78.16
379.738	96.6
379.948	-9.9
380.158	74.07
380.369	29.01
380.579	20.82
380.789	37.2
380.999	86.36
381.21	88.4
381.42	98.64
381.63	80.21
381.84	59.73
382.05	84.31
382.261	110.93
382.471	139.6
382.681	20.82
382.891	61.78
383.101	96.6
383.311	12.63
383.521	55.64
383.731	51.54
383.941	51.54
384.151	39.25
384.361	63.83
384.571	-1.71
384.781	43.35
384.991	158.03
385.201	41.3
385.411	123.22
385.621	22.87
385.831	55.64
386.041	-1.71
386.251	121.17
386.461	100.69
386.671	61.78
386.881	72.02
387.091	63.83
387.301	84.31
387.511	119.12
387.72	55.64
387.93	127.32
388.14	16.73
388.35	104.79
388.56	100.69
388.769	82.26
388.979	104.79
389.189	35.16
389.399	41.3
389.609	41.3
389.818	125.27
390.028	14.68
390.238	90.45
390.447	88.4
390.657	55.64
390.867	84.31
391.076	-5.8
391.286	55.64
391.496	84.31
391.705	29.01
391.915	88.4
392.125	84.31
392.334	84.31
392.544	104.79
392.753	55.64
392.963	158.03
393.172	10.58
393.382	100.69
393.591	90.45
393.801	24.92
394.01	47.44
394.22	41.3
394.429	72.02
394.639	45.4
394.848	67.92
395.058	74.07
395.267	129.36
395.477	90.45
395.686	84.31
395.895	172.37
396.105	76.12
396.314	78.16
396.524	137.56
396.733	92.5
396.942	194.9
397.152	121.17
397.361	80.21
397.57	143.7
397.78	110.93
397.989	39.25
398.198	117.08
398.407	86.36
398.617	141.65
398.826	43.35
399.035	112.98
399.244	43.35
399.453	117.08
399.663	110.93
399.872	129.36
400.081	78.16
400.29	117.08
400.499	106.84
400.708	84.31
400.917	125.27
401.127	88.4
401.336	166.23
401.545	119.12
401.754	112.98
401.963	98.64
402.172	137.56
402.381	78.16
402.59	127.32
402.799	129.36
403.008	90.45
403.217	78.16
403.426	78.16
403.635	141.65
403.844	127.32
404.053	115.03
404.262	53.59
404.471	123.22
404.68	153.94
404.888	137.56
405.097	110.93
405.306	121.17
405.515	94.55
405.724	125.27
405.933	174.42
406.142	129.36
406.35	106.84
406.559	178.51
406.768	98.64
406.977	135.51
407.185	203.09
407.394	190.8
407.603	207.19
407.812	180.56
408.02	248.15
408.229	170.32
408.438	227.67
408.646	94.55
408.855	153.94
409.064	231.76
409.272	203.09
409.481	209.23
409.69	297.3
409.898	184.66
410.107	295.25
410.315	295.25
410.524	293.2
410.733	260.43
410.941	219.47
411.15	364.88
411.358	360.78
411.567	334.16
411.775	457.04
411.984	319.82
412.192	350.54
412.401	393.55
412.609	469.33
412.818	432.46
413.026	450.89
413.234	422.22
413.443	426.32
413.651	459.09
413.86	508.24
414.068	506.19
414.276	543.05
414.485	498
414.693	555.34
414.901	588.11
415.11	571.72
415.318	624.97
415.526	635.21
415.734	629.07
415.943	639.31
416.151	647.5
416.359	739.66
416.567	690.51
416.776	790.86
416.984	801.1
417.192	842.06
417.4	844.1
417.608	825.67
417.817	899.4
418.025	858.44
418.233	934.22
418.441	981.32
418.649	977.22
418.857	1055.05
419.065	1108.29
419.273	1081.67
419.481	1208.64
419.689	1130.82
419.897	1259.84
420.105	1317.19
420.313	1235.27
420.521	1333.57
420.729	1433.92
420.937	1366.34
421.145	1530.17
421.353	1417.54
421.561	1673.53
421.769	1595.71
421.977	1638.72
422.185	1653.05
422.393	1874.23
422.601	1945.91
422.809	1972.54
423.017	1952.06
423.224	1947.96
423.432	2044.21
423.64	2103.61
423.848	2304.31
424.056	2193.72
424.263	2394.42
424.471	2251.06
424.679	2539.82
424.887	2396.46
425.094	2677.04
425.302	2617.65
425.51	2836.78
425.718	2711.85
425.925	2873.64
426.133	3000.62
426.341	3268.9
426.548	3299.62
426.756	3365.15
426.964	3365.15
427.171	3473.7
427.379	3633.44
427.586	3610.91
427.794	3856.67
428.001	3905.82
428.209	4020.5
428.417	3981.59
428.624	4423.95
428.832	4526.35
429.039	4454.67
429.247	4352.27
429.454	4606.22
429.662	5126.41
429.869	4882.7
430.076	4931.85
430.284	4937.99
430.491	5243.14
430.699	5388.55
430.906	5335.3
431.114	5468.42
431.321	5812.48
431.528	5703.93
431.736	6170.87
431.943	6422.77
432.15	6256.89
432.358	6455.54
432.565	6754.54
432.772	6775.02
432.979	7098.6
433.187	6895.85
433.394	7391.46
433.601	7633.12
433.808	7801.05
434.016	7739.62
434.223	7827.68
434.43	8556.75
434.637	8167.64
434.844	8818.89
435.052	9042.12
435.259	8853.71
435.466	9011.4
435.673	9044.17
435.88	9515.2
436.087	9896.13
436.294	9863.36
436.501	9867.45
436.708	9910.46
436.915	10254.52
437.122	10762.42
437.329	10698.93
437.537	11100.33
437.743	11200.68
437.95	11126.96
438.157	11862.18
438.364	12388.5
438.571	12116.12
438.778	12220.57
438.985	13301.9
439.192	12734.61
439.399	13158.54
439.606	13027.47
439.813	13695.11
440.02	14717.04
440.227	14119.04
440.433	13961.34
440.64	14590.07
440.847	14450.81
441.054	14876.79
441.261	15788.13
441.467	15601.77
441.674	15640.68
441.881	16451.67
442.088	16547.93
442.294	16296.03
442.501	16699.48
442.708	17221.71
442.914	17877.06
443.121	18251.84
443.328	18081.86
443.534	19572.78
443.741	18722.87
443.948	18358.33
444.154	19800.1
444.361	19691.56
444.568	19791.91
444.774	19800.1
444.981	20371.49
445.187	20809.75
445.394	21805.06
445.6	21379.09
445.807	23361.52
446.013	22675.45
446.22	22630.4
446.426	23597.04
446.633	23871.47
446.839	24434.66
447.046	24061.93
447.252	24999.9
447.459	25253.84
447.665	25184.21
447.871	26034.12
448.078	27256.76
448.284	25884.62
448.491	26793.92
448.697	27639.73
448.903	28129.19
449.11	28293.03
449.316	27961.26
449.522	28284.84
449.728	29294.49
449.935	29374.36
450.141	29417.36
450.347	29980.56
450.553	29472.66
450.76	29542.29
450.966	30486.4
451.172	30457.73
451.378	30984.06
451.584	30404.49
451.791	31192.95
451.997	30844.8
452.203	31711.09
452.409	31872.88
452.615	31270.78
452.821	30308.23
453.027	29988.75
453.233	31692.66
453.44	30322.57
453.646	30742.4
453.852	30904.19
454.058	31311.74
454.264	30652.29
454.47	31197.05
454.676	30306.18
454.882	31362.93
455.088	28741.53
455.294	29302.68
455.5	29595.54
455.705	30009.23
455.911	28540.83
456.117	28231.59
456.323	27670.45
456.529	26255.3
456.735	27807.66
456.941	26959.8
457.147	26306.5
457.352	25550.8
457.558	25317.33
457.764	25728.97
457.97	25001.94
458.176	24563.68
458.381	24549.34
458.587	22947.83
458.793	23197.68
458.999	21981.19
459.204	23627.76
459.41	23042.04
459.616	21405.71
459.821	21135.38
460.027	21501.97
460.233	20807.7
460.438	20109.35
460.644	20013.09
460.85	19042.35
461.055	18831.41
461.261	18901.04
461.466	17715.27
461.672	16699.48
461.878	18151.49
462.083	16922.71
462.289	16701.53
462.494	16304.22
462.7	15986.79
462.905	15226.99
463.111	15925.35
463.316	15722.6
463.522	15659.11
463.727	15417.45
463.932	15419.5
464.138	15216.75
464.343	15480.94
464.549	15130.73
464.754	15370.35
464.959	15327.34
465.165	15194.22
465.37	14610.55
465.575	14020.74
465.781	14919.79
465.986	15087.73
466.191	14395.51
466.397	14155.9
466.602	13324.43
466.807	13805.7
467.012	13926.53
467.218	13875.33
467.423	13703.3
467.628	13766.79
467.833	14483.58
468.038	13811.84
468.244	13590.66
