Data from USB4F104151__80__13-12-29-493.txt Node

Date: Fri Mar 14 13:12:29 EDT 2025
User: louis
Spectrometer: USB4F10415
Trigger mode: 4
Integration Time (sec): 2.000000E-2
Scans to average: 1
Electric dark correction enabled: true
Nonlinearity correction enabled: false
Boxcar width: 0
XAxis mode: Wavelengths
Number of Pixels in Spectrum: 3648
>>>>>Begin Spectral Data<<<<<
178.204	-146.6
178.424	-146.6
178.644	-146.6
178.864	-97.45
179.084	-146.6
179.304	-9.39
179.524	13.14
179.744	29.52
179.964	47.96
180.184	19.29
180.404	-21.67
180.624	-31.91
180.844	15.19
181.064	-13.48
181.283	-76.97
181.503	41.81
181.723	-13.48
181.943	-52.39
182.163	95.06
182.383	62.29
182.602	-29.87
182.822	29.52
183.042	-15.53
183.262	15.19
183.482	-13.48
183.701	-31.91
183.921	45.91
184.141	-15.53
184.361	-27.82
184.58	-3.24
184.8	27.48
185.02	-31.91
185.239	-64.68
185.459	-42.15
185.679	-3.24
185.898	-38.06
186.118	56.15
186.338	-19.63
186.557	29.52
186.777	-40.11
186.997	-11.43
187.216	-17.58
187.436	19.29
187.655	-5.29
187.875	0.85
188.095	-29.87
188.314	21.33
188.534	-33.96
188.753	-91.31
188.973	-7.34
189.192	-1.19
189.412	62.29
189.631	-9.39
189.851	0.85
190.07	39.76
190.29	0.85
190.509	52.05
190.729	35.67
190.948	66.39
191.168	117.59
191.387	88.92
191.607	-38.06
191.826	-44.2
192.045	-9.39
192.265	29.52
192.484	-3.24
192.704	13.14
192.923	-5.29
193.142	37.72
193.362	23.38
193.581	19.29
193.8	-9.39
194.02	68.44
194.239	-1.19
194.458	76.63
194.678	-1.19
194.897	43.86
195.116	-11.43
195.335	-42.15
195.555	-5.29
195.774	47.96
195.993	21.33
196.212	19.29
196.432	-29.87
196.651	37.72
196.87	11.09
197.089	11.09
197.308	31.57
197.528	60.24
197.747	-25.77
197.966	-42.15
198.185	52.05
198.404	-48.3
198.623	31.57
198.842	52.05
199.062	-25.77
199.281	52.05
199.5	-21.67
199.719	-21.67
199.938	19.29
200.157	-3.24
200.376	33.62
200.595	-21.67
200.814	-25.77
201.033	-60.59
201.252	-1.19
201.471	-9.39
201.69	99.16
201.909	50
202.128	7
202.347	107.35
202.566	37.72
202.785	13.14
203.004	-60.59
203.223	78.68
203.442	31.57
203.661	-1.19
203.879	-64.68
204.098	23.38
204.317	-11.43
204.536	68.44
204.755	-58.54
204.974	78.68
205.193	-29.87
205.411	50
205.63	-1.19
205.849	-3.24
206.068	23.38
206.287	-29.87
206.505	45.91
206.724	52.05
206.943	-5.29
207.162	13.14
207.381	4.95
207.599	39.76
207.818	13.14
208.037	0.85
208.255	-23.72
208.474	37.72
208.693	-103.59
208.911	-5.29
209.13	15.19
209.349	13.14
209.567	47.96
209.786	-27.82
210.005	-1.19
210.223	-36.01
210.442	-50.35
210.661	-46.25
210.879	52.05
211.098	11.09
211.316	19.29
211.535	-3.24
211.753	-29.87
211.972	39.76
212.191	-5.29
212.409	13.14
212.628	19.29
212.846	-11.43
213.065	25.43
213.283	64.34
213.502	-31.91
213.72	52.05
213.938	47.96
214.157	-21.67
214.375	-13.48
214.594	37.72
214.812	-13.48
215.031	-66.73
215.249	4.95
215.467	21.33
215.686	31.57
215.904	47.96
216.122	-19.63
216.341	7
216.559	-27.82
216.778	-13.48
216.996	35.67
217.214	25.43
217.432	-103.59
217.651	-5.29
217.869	27.48
218.087	-54.44
218.306	-36.01
218.524	80.72
218.742	19.29
218.96	-38.06
219.179	41.81
219.397	13.14
219.615	27.48
219.833	-17.58
220.051	13.14
220.27	64.34
220.488	52.05
220.706	45.91
220.924	35.67
221.142	-68.78
221.36	33.62
221.578	-11.43
221.796	47.96
222.015	-11.43
222.233	13.14
222.451	119.64
222.669	11.09
222.887	99.16
223.105	13.14
223.323	-42.15
223.541	-60.59
223.759	43.86
223.977	-44.2
224.195	64.34
224.413	-1.19
224.631	-3.24
224.849	-15.53
225.067	41.81
225.285	-15.53
225.503	4.95
225.721	-38.06
225.939	-9.39
226.157	-3.24
226.375	23.38
226.592	29.52
226.81	97.11
227.028	90.96
227.246	11.09
227.464	-7.34
227.682	19.29
227.9	-17.58
228.117	60.24
228.335	37.72
228.553	27.48
228.771	-29.87
228.989	27.48
229.206	-11.43
229.424	23.38
229.642	25.43
229.86	47.96
230.077	-54.44
230.295	-62.63
230.513	-17.58
230.731	23.38
230.948	31.57
231.166	-19.63
231.384	-13.48
231.601	0.85
231.819	33.62
232.037	-7.34
232.254	-70.83
232.472	39.76
232.689	-5.29
232.907	27.48
233.125	60.24
233.342	35.67
233.56	-27.82
233.777	62.29
233.995	-87.21
234.213	54.1
234.43	11.09
234.648	13.14
234.865	17.24
235.083	84.82
235.3	-38.06
235.518	35.67
235.735	4.95
235.953	72.53
236.17	-23.72
236.388	2.9
236.605	-52.39
236.822	-33.96
237.04	-15.53
237.257	13.14
237.475	-23.72
237.692	-5.29
237.909	17.24
238.127	7
238.344	-56.49
238.562	-38.06
238.779	-21.67
238.996	60.24
239.214	-36.01
239.431	109.4
239.648	-29.87
239.865	41.81
240.083	4.95
240.3	21.33
240.517	-17.58
240.735	-3.24
240.952	29.52
241.169	23.38
241.386	33.62
241.603	105.3
241.821	-93.35
242.038	-9.39
242.255	52.05
242.472	-54.44
242.689	45.91
242.907	11.09
243.124	23.38
243.341	19.29
243.558	-52.39
243.775	11.09
243.992	-15.53
244.209	-46.25
244.426	119.64
244.643	-31.91
244.86	-44.2
245.078	43.86
245.295	35.67
245.512	-62.63
245.729	-33.96
245.946	29.52
246.163	-13.48
246.38	-5.29
246.597	-83.11
246.814	93.01
247.031	-27.82
247.248	-27.82
247.464	15.19
247.681	13.14
247.898	27.48
248.115	19.29
248.332	-58.54
248.549	-11.43
248.766	15.19
248.983	23.38
249.2	33.62
249.417	66.39
249.633	-25.77
249.85	2.9
250.067	41.81
250.284	-44.2
250.501	19.29
250.717	13.14
250.934	-81.07
251.151	35.67
251.368	21.33
251.585	-25.77
251.801	-21.67
252.018	-21.67
252.235	-3.24
252.451	29.52
252.668	31.57
252.885	15.19
253.102	-36.01
253.318	2.9
253.535	17.24
253.752	43.86
253.968	11.09
254.185	19.29
254.401	-21.67
254.618	37.72
254.835	27.48
255.051	27.48
255.268	-38.06
255.484	2.9
255.701	-29.87
255.917	64.34
256.134	-1.19
256.351	43.86
256.567	-54.44
256.784	-27.82
257	2.9
257.217	-19.63
257.433	-44.2
257.65	52.05
257.866	25.43
258.082	-29.87
258.299	-11.43
258.515	13.14
258.732	-9.39
258.948	2.9
259.165	-27.82
259.381	41.81
259.597	-9.39
259.814	-31.91
260.03	-15.53
260.246	52.05
260.463	-7.34
260.679	7
260.895	-13.48
261.112	-44.2
261.328	-56.49
261.544	37.72
261.761	19.29
261.977	19.29
262.193	9.05
262.409	31.57
262.626	17.24
262.842	-60.59
263.058	-70.83
263.274	-15.53
263.49	-21.67
263.707	33.62
263.923	-7.34
264.139	-44.2
264.355	2.9
264.571	133.97
264.787	-17.58
265.004	23.38
265.22	31.57
265.436	-66.73
265.652	-21.67
265.868	-21.67
266.084	13.14
266.3	0.85
266.516	-5.29
266.732	54.1
266.948	52.05
267.164	-42.15
267.38	-1.19
267.596	-62.63
267.812	9.05
268.028	11.09
268.244	27.48
268.46	-38.06
268.676	4.95
268.892	4.95
269.108	2.9
269.324	-29.87
269.54	-19.63
269.756	105.3
269.972	-46.25
270.188	68.44
270.403	-27.82
270.619	-36.01
270.835	21.33
271.051	-48.3
271.267	27.48
271.483	-58.54
271.698	-27.82
271.914	35.67
272.13	31.57
272.346	-11.43
272.562	-19.63
272.777	27.48
272.993	27.48
273.209	35.67
273.425	37.72
273.64	-58.54
273.856	0.85
274.072	31.57
274.287	-5.29
274.503	76.63
274.719	19.29
274.934	-13.48
275.15	-31.91
275.366	37.72
275.581	-11.43
275.797	-40.11
276.012	37.72
276.228	-56.49
276.444	52.05
276.659	-29.87
276.875	50
277.09	21.33
277.306	23.38
277.521	-5.29
277.737	15.19
277.952	-1.19
278.168	84.82
278.383	-54.44
278.599	23.38
278.814	99.16
279.03	17.24
279.245	52.05
279.461	60.24
279.676	27.48
279.892	9.05
280.107	35.67
280.322	45.91
280.538	-21.67
280.753	97.11
280.969	9.05
281.184	23.38
281.399	50
281.615	66.39
281.83	35.67
282.045	-85.16
282.26	-19.63
282.476	21.33
282.691	35.67
282.906	-50.35
283.122	31.57
283.337	-25.77
283.552	-62.63
283.767	-25.77
283.983	-3.24
284.198	-72.87
284.413	19.29
284.628	-21.67
284.843	-29.87
285.058	64.34
285.274	-27.82
285.489	15.19
285.704	-25.77
285.919	-7.34
286.134	72.53
286.349	-27.82
286.564	25.43
286.779	68.44
286.995	-33.96
287.21	-3.24
287.425	-19.63
287.64	86.87
287.855	31.57
288.07	-66.73
288.285	68.44
288.5	37.72
288.715	43.86
288.93	-27.82
289.145	29.52
289.36	31.57
289.575	-36.01
289.79	-5.29
290.004	35.67
290.219	31.57
290.434	-23.72
290.649	-15.53
290.864	11.09
291.079	31.57
291.294	-48.3
291.509	-27.82
291.724	54.1
291.938	13.14
292.153	27.48
292.368	-11.43
292.583	84.82
292.798	111.44
293.012	64.34
293.227	31.57
293.442	33.62
293.657	70.48
293.871	60.24
294.086	33.62
294.301	29.52
294.516	-13.48
294.73	47.96
294.945	2.9
295.16	-27.82
295.374	50
295.589	54.1
295.804	2.9
296.018	7
296.233	13.14
296.447	27.48
296.662	-27.82
296.877	17.24
297.091	-13.48
297.306	41.81
297.52	50
297.735	54.1
297.949	-62.63
298.164	11.09
298.378	21.33
298.593	37.72
298.807	-19.63
299.022	-33.96
299.236	45.91
299.451	-33.96
299.665	2.9
299.88	31.57
300.094	35.67
300.309	33.62
300.523	27.48
300.737	-15.53
300.952	7
301.166	58.2
301.381	43.86
301.595	-54.44
301.809	2.9
302.024	68.44
302.238	-23.72
302.452	-13.48
302.667	-19.63
302.881	13.14
303.095	23.38
303.309	43.86
303.524	-52.39
303.738	-5.29
303.952	-60.59
304.166	15.19
304.381	4.95
304.595	15.19
304.809	-60.59
305.023	-11.43
305.237	19.29
305.452	13.14
305.666	47.96
305.88	19.29
306.094	-13.48
306.308	68.44
306.522	-1.19
306.736	93.01
306.95	21.33
307.164	-40.11
307.379	-15.53
307.593	68.44
307.807	78.68
308.021	-46.25
308.235	17.24
308.449	-33.96
308.663	11.09
308.877	84.82
309.091	-17.58
309.305	23.38
309.519	-50.35
309.733	-5.29
309.947	7
310.161	-38.06
310.374	-15.53
310.588	23.38
310.802	-11.43
311.016	9.05
311.23	95.06
311.444	0.85
311.658	37.72
311.872	-5.29
312.085	41.81
312.299	56.15
312.513	80.72
312.727	-13.48
312.941	-74.92
313.154	21.33
313.368	11.09
313.582	-13.48
313.796	74.58
314.009	19.29
314.223	56.15
314.437	15.19
314.651	74.58
314.864	41.81
315.078	-29.87
315.292	-1.19
315.505	19.29
315.719	37.72
315.933	-15.53
316.146	74.58
316.36	68.44
316.573	-9.39
316.787	-101.55
317.001	43.86
317.214	7
317.428	2.9
317.641	11.09
317.855	-1.19
318.068	-9.39
318.282	-38.06
318.495	68.44
318.709	43.86
318.922	-31.91
319.136	45.91
319.349	33.62
319.563	-9.39
319.776	2.9
319.99	60.24
320.203	45.91
320.417	19.29
320.63	23.38
320.843	56.15
321.057	27.48
321.27	-13.48
321.483	4.95
321.697	13.14
321.91	109.4
322.124	4.95
322.337	60.24
322.55	-13.48
322.763	-23.72
322.977	19.29
323.19	-1.19
323.403	23.38
323.617	76.63
323.83	68.44
324.043	19.29
324.256	39.76
324.469	-11.43
324.683	45.91
324.896	-11.43
325.109	4.95
325.322	-31.91
325.535	99.16
325.748	-38.06
325.962	-36.01
326.175	-11.43
326.388	88.92
326.601	70.48
326.814	50
327.027	-7.34
327.24	17.24
327.453	-5.29
327.666	19.29
327.879	35.67
328.092	62.29
328.305	-1.19
328.518	-19.63
328.731	-38.06
328.944	19.29
329.157	-1.19
329.37	-46.25
329.583	-27.82
329.796	37.72
330.009	-62.63
330.222	19.29
330.435	-11.43
330.648	29.52
330.861	54.1
331.073	33.62
331.286	41.81
331.499	2.9
331.712	-48.3
331.925	15.19
332.138	45.91
332.35	68.44
332.563	-29.87
332.776	72.53
332.989	-13.48
333.202	84.82
333.414	31.57
333.627	68.44
333.84	7
334.053	47.96
334.265	-5.29
334.478	78.68
334.691	15.19
334.903	31.57
335.116	-60.59
335.329	52.05
335.541	19.29
335.754	84.82
335.966	29.52
336.179	52.05
336.392	25.43
336.604	-11.43
336.817	27.48
337.029	35.67
337.242	43.86
337.454	52.05
337.667	-48.3
337.88	7
338.092	11.09
338.305	4.95
338.517	-58.54
338.729	39.76
338.942	33.62
339.154	45.91
339.367	52.05
339.579	27.48
339.792	-58.54
340.004	35.67
340.217	43.86
340.429	19.29
340.641	-40.11
340.854	27.48
341.066	21.33
341.278	68.44
341.491	-38.06
341.703	-38.06
341.915	-76.97
342.128	60.24
342.34	-11.43
342.552	-9.39
342.764	23.38
342.977	41.81
343.189	47.96
343.401	2.9
343.613	9.05
343.826	-21.67
344.038	35.67
344.25	19.29
344.462	17.24
344.674	-1.19
344.886	9.05
345.099	78.68
345.311	-1.19
345.523	31.57
345.735	-46.25
345.947	-33.96
346.159	29.52
346.371	76.63
346.583	-17.58
346.795	109.4
347.007	-27.82
347.219	64.34
347.431	-13.48
347.643	95.06
347.855	2.9
348.067	47.96
348.279	-13.48
348.491	93.01
348.703	-7.34
348.915	-5.29
349.127	7
349.339	41.81
349.551	-52.39
349.763	15.19
349.975	-25.77
350.187	50
350.399	66.39
350.61	25.43
350.822	-13.48
351.034	-1.19
351.246	2.9
351.458	54.1
351.669	7
351.881	43.86
352.093	103.25
352.305	27.48
352.517	60.24
352.728	60.24
352.94	-5.29
353.152	9.05
353.363	21.33
353.575	-1.19
353.787	66.39
353.999	21.33
354.21	99.16
354.422	-48.3
354.633	-33.96
354.845	50
355.057	-40.11
355.268	39.76
355.48	39.76
355.692	4.95
355.903	2.9
356.115	58.2
356.326	-17.58
356.538	29.52
356.749	27.48
356.961	47.96
357.172	70.48
357.384	21.33
357.595	58.2
357.807	15.19
358.018	47.96
358.23	68.44
358.441	58.2
358.653	54.1
358.864	-33.96
359.075	54.1
359.287	-52.39
359.498	23.38
359.709	39.76
359.921	-11.43
360.132	66.39
360.344	35.67
360.555	-15.53
360.766	9.05
360.977	25.43
361.189	148.31
361.4	56.15
361.611	43.86
361.823	47.96
362.034	29.52
362.245	68.44
362.456	72.53
362.667	45.91
362.879	39.76
363.09	33.62
363.301	52.05
363.512	50
363.723	-52.39
363.935	23.38
364.146	47.96
364.357	-9.39
364.568	-17.58
364.779	-29.87
364.99	58.2
365.201	-3.24
365.412	66.39
365.623	17.24
365.834	33.62
366.045	-13.48
366.256	-25.77
366.467	-7.34
366.678	60.24
366.889	2.9
367.1	-54.44
367.311	25.43
367.522	25.43
367.733	-21.67
367.944	11.09
368.155	35.67
368.366	93.01
368.577	84.82
368.788	111.44
368.999	27.48
369.209	7
369.42	31.57
369.631	47.96
369.842	-42.15
370.053	0.85
370.264	-111.78
370.474	68.44
370.685	-29.87
370.896	-15.53
371.107	39.76
371.317	31.57
371.528	45.91
371.739	70.48
371.95	4.95
372.16	31.57
372.371	13.14
372.582	68.44
372.792	54.1
373.003	70.48
373.214	-1.19
373.424	43.86
373.635	13.14
373.846	111.44
374.056	0.85
374.267	56.15
374.477	84.82
374.688	-23.72
374.898	35.67
375.109	13.14
375.319	146.26
375.53	23.38
375.74	76.63
375.951	37.72
376.161	37.72
376.372	101.2
376.582	39.76
376.793	45.91
377.003	11.09
377.214	37.72
377.424	37.72
377.635	88.92
377.845	66.39
378.055	86.87
378.266	7
378.476	-25.77
378.686	103.25
378.897	47.96
379.107	39.76
379.317	68.44
379.528	2.9
379.738	11.09
379.948	-11.43
380.158	45.91
380.369	19.29
380.579	29.52
380.789	31.57
380.999	23.38
381.21	7
381.42	99.16
381.63	4.95
381.84	-15.53
382.05	62.29
382.261	97.11
382.471	103.25
382.681	76.63
382.891	54.1
383.101	-19.63
383.311	27.48
383.521	2.9
383.731	37.72
383.941	27.48
384.151	43.86
384.361	31.57
384.571	58.2
384.781	-5.29
384.991	109.4
385.201	78.68
385.411	43.86
385.621	56.15
385.831	76.63
386.041	-15.53
386.251	45.91
386.461	68.44
386.671	-1.19
386.881	78.68
387.091	-19.63
387.301	107.35
387.511	-25.77
387.72	27.48
387.93	41.81
388.14	-17.58
388.35	64.34
388.56	70.48
388.769	64.34
388.979	33.62
389.189	11.09
389.399	-13.48
389.609	-17.58
389.818	19.29
390.028	117.59
390.238	31.57
390.447	74.58
390.657	78.68
390.867	-3.24
391.076	25.43
391.286	31.57
391.496	35.67
391.705	31.57
391.915	23.38
392.125	86.87
392.334	-27.82
392.544	19.29
392.753	45.91
392.963	-9.39
393.172	15.19
393.382	-15.53
393.591	99.16
393.801	2.9
394.01	66.39
394.22	23.38
394.429	103.25
394.639	115.54
394.848	-13.48
395.058	80.72
395.267	60.24
395.477	86.87
395.686	97.11
395.895	78.68
396.105	162.64
396.314	60.24
396.524	11.09
396.733	0.85
396.942	50
397.152	68.44
397.361	142.16
397.57	66.39
397.78	60.24
397.989	45.91
398.198	21.33
398.407	80.72
398.617	88.92
398.826	45.91
399.035	62.29
399.244	11.09
399.453	95.06
399.663	21.33
399.872	117.59
400.081	52.05
400.29	125.78
400.499	-29.87
400.708	105.3
400.917	103.25
401.127	72.53
401.336	35.67
401.545	125.78
401.754	45.91
401.963	119.64
402.172	103.25
402.381	70.48
402.59	195.41
402.799	103.25
403.008	74.58
403.217	84.82
403.426	37.72
403.635	138.07
403.844	2.9
404.053	199.51
404.262	62.29
404.471	93.01
404.68	115.54
404.888	97.11
405.097	129.88
405.306	162.64
405.515	125.78
405.724	93.01
405.933	136.02
406.142	86.87
406.35	78.68
406.559	215.89
406.768	185.17
406.977	224.08
407.185	183.12
407.394	138.07
407.603	152.4
407.812	197.46
408.02	140.12
408.229	95.06
408.438	170.83
408.646	142.16
408.855	164.69
409.064	185.17
409.272	258.9
409.481	256.85
409.69	215.89
409.898	240.47
410.107	203.6
410.315	250.71
410.524	215.89
410.733	260.95
410.941	250.71
411.15	244.56
411.358	277.33
411.567	289.62
411.775	355.15
411.984	314.19
412.192	308.05
412.401	324.43
412.609	275.28
412.818	416.59
413.026	422.73
413.234	377.68
413.443	428.88
413.651	342.86
413.86	490.32
414.068	441.17
414.276	531.28
414.485	467.79
414.693	469.84
414.901	521.04
415.11	627.53
415.318	510.8
415.526	602.96
415.734	701.26
415.943	609.1
416.151	656.2
416.359	664.4
416.567	713.55
416.776	684.87
416.984	736.07
417.192	748.36
417.4	805.71
417.608	764.75
417.817	826.18
418.025	848.71
418.233	918.34
418.441	861
418.649	910.15
418.857	1028.93
419.065	1065.8
419.273	983.88
419.481	1121.09
419.689	1080.13
419.897	1166.15
420.105	1217.35
420.313	1264.45
420.521	1346.37
420.729	1321.79
420.937	1375.04
421.145	1397.57
421.353	1502.01
421.561	1579.84
421.769	1633.08
421.977	1645.37
422.185	1616.7
422.393	1821.5
422.601	1844.03
422.809	1923.9
423.017	1831.74
423.224	1979.19
423.432	2020.15
423.64	1985.34
423.848	2153.27
424.056	2124.6
424.263	2407.22
424.471	2376.5
424.679	2419.5
424.887	2493.23
425.094	2427.7
425.302	2462.51
425.51	2677.55
425.718	2681.64
425.925	2757.42
426.133	2747.18
426.341	3054.37
426.548	3087.14
426.756	3111.72
426.964	3160.87
427.171	3273.51
427.379	3388.19
427.586	3474.21
427.794	3545.89
428.001	3820.32
428.209	3967.77
428.417	3951.39
428.624	4115.22
428.832	4182.81
429.039	4143.89
429.247	4141.85
429.454	4596.5
429.662	4850.44
429.869	4598.54
430.076	4934.41
430.284	4688.65
430.491	4877.07
430.699	5241.61
430.906	5221.13
431.114	5395.2
431.321	5522.18
431.528	5643.01
431.736	5970.68
431.943	6195.96
432.15	6017.79
432.358	6025.98
432.565	6329.08
432.772	6460.15
432.979	6748.91
433.187	6988.52
433.394	6779.63
433.601	7426.79
433.808	7572.19
434.016	7389.92
434.223	7598.82
434.43	8116.95
434.637	8098.52
434.844	8604.37
435.052	8622.8
435.259	8487.64
435.466	8782.54
435.673	8641.23
435.88	9200.33
436.087	9609.92
436.294	9677.51
436.501	9304.78
436.708	9554.63
436.915	10080.96
437.122	10169.02
437.329	10535.6
437.537	10861.23
437.743	10902.19
437.95	10568.37
438.157	11492.01
438.364	11588.26
438.571	11596.45
438.778	11696.8
438.985	12749.46
439.192	12194.46
439.399	12608.15
439.606	12446.36
439.813	13310.6
440.02	13941.38
440.227	13810.31
440.433	13537.93
440.64	14070.4
440.847	14125.69
441.054	14434.94
441.261	15233.64
441.467	15067.76
441.674	15254.12
441.881	15878.76
442.088	15762.02
442.294	15739.49
442.501	16296.54
442.708	16632.41
442.914	17146.45
443.121	17693.26
443.328	17250.89
443.534	18569.79
443.741	18104.9
443.948	17836.61
444.154	19446.32
444.361	19302.96
444.568	19196.46
444.774	19257.9
444.981	19663.4
445.187	20156.96
445.394	21066.26
445.6	20650.52
445.807	22798.84
446.013	21613.07
446.22	22057.48
446.426	22757.88
446.633	23110.13
446.839	24148.45
447.046	23011.83
447.252	24246.76
447.459	24103.4
447.665	23935.46
447.871	25100.76
448.078	26081.74
448.284	25203.16
448.491	25645.52
448.697	27128.25
448.903	27255.22
449.11	27374
449.316	26937.79
449.522	27630
449.728	28191.14
449.935	28334.5
450.141	28295.59
450.347	29223.32
450.553	28465.57
450.76	28469.67
450.966	29653.39
451.172	29157.78
451.378	29893.01
451.584	29645.2
451.791	30050.7
451.997	29929.87
452.203	30755.2
452.409	30884.22
452.615	30443.91
452.821	29608.34
453.027	28961.18
453.233	30341.51
453.44	29448.6
453.646	29647.25
453.852	30114.19
454.058	30527.88
454.264	29409.68
454.47	30251.4
454.676	29311.38
454.882	30288.26
455.088	28027.31
455.294	28094.89
455.5	28613.02
455.705	29065.63
455.911	27701.68
456.117	27535.79
456.323	26872.25
456.529	25934.28
456.735	26698.17
456.941	26098.12
457.147	25694.67
457.352	24846.81
457.558	24406.5
457.764	24443.36
457.97	24273.38
458.176	23841.26
458.381	24001
458.587	22540.8
458.793	22358.53
458.999	21416.46
459.204	22860.28
459.41	22329.86
459.616	20996.63
459.821	20662.81
460.027	21033.49
460.233	20435.49
460.438	19554.86
460.644	19831.33
460.85	18786.87
461.055	18180.67
461.261	18301.5
461.466	17060.43
461.672	16253.53
461.878	17572.43
462.083	16374.36
462.289	16470.62
462.494	16050.78
462.7	15170.16
462.905	14715.51
463.111	15168.11
463.316	15497.83
463.522	14953.07
463.727	15178.35
463.932	14940.79
464.138	14936.69
464.343	14842.48
464.549	14723.7
464.754	15094.38
464.959	14873.2
465.165	14912.11
465.37	14330.49
465.575	13945.47
465.781	14281.34
465.986	14553.72
466.191	13855.36
466.397	13703.81
466.602	12974.74
466.807	13503.11
467.012	13535.88
467.218	13429.38
