Data from USB4F104151__45__13-11-14-821.txt Node

Date: Fri Mar 14 13:11:14 EDT 2025
User: louis
Spectrometer: USB4F10415
Trigger mode: 4
Integration Time (sec): 2.000000E-2
Scans to average: 1
Electric dark correction enabled: true
Nonlinearity correction enabled: false
Boxcar width: 0
XAxis mode: Wavelengths
Number of Pixels in Spectrum: 3648
>>>>>Begin Spectral Data<<<<<
178.204	-112.3
178.424	-112.3
178.644	-112.3
178.864	-57
179.084	-149.16
179.304	-13.99
179.524	-54.95
179.744	-85.67
179.964	117.08
180.184	-5.8
180.404	0.34
180.624	18.77
180.844	14.68
181.064	-11.95
181.283	4.44
181.503	18.77
181.723	-1.71
181.943	-30.38
182.163	0.34
182.383	-22.19
182.602	29.01
182.822	86.36
183.042	63.83
183.262	12.63
183.482	24.92
183.701	12.63
183.921	26.96
184.141	-28.33
184.361	16.73
184.58	-87.72
184.8	69.97
185.02	-52.91
185.239	72.02
185.459	92.5
185.679	74.07
185.898	10.58
186.118	74.07
186.338	-28.33
186.557	18.77
186.777	74.07
186.997	-28.33
187.216	51.54
187.436	94.55
187.655	59.73
187.875	53.59
188.095	35.16
188.314	39.25
188.534	86.36
188.753	35.16
188.973	12.63
189.192	-3.75
189.412	0.34
189.631	-16.04
189.851	102.74
190.07	24.92
190.29	0.34
190.509	72.02
190.729	29.01
190.948	74.07
191.168	139.6
191.387	12.63
191.607	8.53
191.826	49.49
192.045	-48.81
192.265	-22.19
192.484	4.44
192.704	10.58
192.923	-54.95
193.142	55.64
193.362	78.16
193.581	84.31
193.8	102.74
194.02	65.88
194.239	-5.8
194.458	10.58
194.678	8.53
194.897	37.2
195.116	96.6
195.335	74.07
195.555	63.83
195.774	12.63
195.993	4.44
196.212	20.82
196.432	10.58
196.651	39.25
196.87	69.97
197.089	110.93
197.308	18.77
197.528	59.73
197.747	-18.09
197.966	55.64
198.185	18.77
198.404	37.2
198.623	39.25
198.842	20.82
199.062	69.97
199.281	10.58
199.5	37.2
199.719	86.36
199.938	16.73
200.157	-16.04
200.376	67.92
200.595	-7.85
200.814	57.68
201.033	33.11
201.252	82.26
201.471	8.53
201.69	49.49
201.909	26.96
202.128	90.45
202.347	67.92
202.566	24.92
202.785	31.06
203.004	33.11
203.223	55.64
203.442	43.35
203.661	-16.04
203.879	16.73
204.098	10.58
204.317	47.44
204.536	51.54
204.755	92.5
204.974	76.12
205.193	98.64
205.411	115.03
205.63	8.53
205.849	16.73
206.068	72.02
206.287	-38.57
206.505	51.54
206.724	8.53
206.943	-20.14
207.162	24.92
207.381	65.88
207.599	39.25
207.818	59.73
208.037	74.07
208.255	12.63
208.474	24.92
208.693	12.63
208.911	-18.09
209.13	63.83
209.349	26.96
209.567	0.34
209.786	33.11
210.005	-13.99
210.223	18.77
210.442	-44.71
210.661	33.11
210.879	-44.71
211.098	49.49
211.316	-18.09
211.535	41.3
211.753	96.6
211.972	-28.33
212.191	22.87
212.409	37.2
212.628	-11.95
212.846	8.53
213.065	-11.95
213.283	65.88
213.502	92.5
213.72	-7.85
213.938	-7.85
214.157	37.2
214.375	-3.75
214.594	61.78
214.812	-24.23
215.031	74.07
215.249	-7.85
215.467	4.44
215.686	29.01
215.904	22.87
216.122	-1.71
216.341	69.97
216.559	-38.57
216.778	78.16
216.996	74.07
217.214	76.12
217.432	26.96
217.651	-28.33
217.869	35.16
218.087	76.12
218.306	61.78
218.524	35.16
218.742	24.92
218.96	10.58
219.179	-75.43
219.397	43.35
219.615	65.88
219.833	67.92
220.051	47.44
220.27	72.02
220.488	78.16
220.706	82.26
220.924	4.44
221.142	-44.71
221.36	45.4
221.578	24.92
221.796	59.73
222.015	69.97
222.233	72.02
222.451	129.36
222.669	22.87
222.887	26.96
223.105	-32.43
223.323	-40.62
223.541	8.53
223.759	92.5
223.977	-7.85
224.195	6.49
224.413	-7.85
224.631	16.73
224.849	-3.75
225.067	135.51
225.285	43.35
225.503	92.5
225.721	24.92
225.939	12.63
226.157	92.5
226.375	102.74
226.592	-16.04
226.81	31.06
227.028	26.96
227.246	119.12
227.464	45.4
227.682	29.01
227.9	8.53
228.117	90.45
228.335	49.49
228.553	24.92
228.771	96.6
228.989	57.68
229.206	94.55
229.424	-11.95
229.642	-16.04
229.86	53.59
230.077	-30.38
230.295	20.82
230.513	41.3
230.731	61.78
230.948	51.54
231.166	51.54
231.384	33.11
231.601	10.58
231.819	0.34
232.037	-40.62
232.254	-24.23
232.472	-16.04
232.689	33.11
232.907	35.16
233.125	43.35
233.342	-30.38
233.56	63.83
233.777	-3.75
233.995	24.92
234.213	90.45
234.43	22.87
234.648	33.11
234.865	39.25
235.083	4.44
235.3	8.53
235.518	63.83
235.735	31.06
235.953	-16.04
236.17	16.73
236.388	69.97
236.605	-9.9
236.822	4.44
237.04	14.68
237.257	43.35
237.475	16.73
237.692	86.36
237.909	53.59
238.127	8.53
238.344	20.82
238.562	4.44
238.779	0.34
238.996	74.07
239.214	8.53
239.431	31.06
239.648	-3.75
239.865	53.59
240.083	20.82
240.3	92.5
240.517	-32.43
240.735	-34.47
240.952	59.73
241.169	2.39
241.386	45.4
241.603	-5.8
241.821	-1.71
242.038	133.46
242.255	51.54
242.472	-22.19
242.689	65.88
242.907	37.2
243.124	112.98
243.341	37.2
243.558	-44.71
243.775	-3.75
243.992	41.3
244.209	35.16
244.426	123.22
244.643	24.92
244.86	-11.95
245.078	102.74
245.295	22.87
245.512	37.2
245.729	-50.86
245.946	67.92
246.163	33.11
246.38	37.2
246.597	-7.85
246.814	10.58
247.031	47.44
247.248	26.96
247.464	0.34
247.681	35.16
247.898	-13.99
248.115	26.96
248.332	0.34
248.549	104.79
248.766	92.5
248.983	51.54
249.2	2.39
249.417	45.4
249.633	-44.71
249.85	57.68
250.067	-32.43
250.284	67.92
250.501	90.45
250.717	41.3
250.934	-13.99
251.151	57.68
251.368	18.77
251.585	-13.99
251.801	31.06
252.018	45.4
252.235	100.69
252.451	82.26
252.668	-34.47
252.885	6.49
253.102	65.88
253.318	80.21
253.535	-20.14
253.752	-9.9
253.968	-1.71
254.185	-30.38
254.401	61.78
254.618	129.36
254.835	-32.43
255.051	147.8
255.268	-11.95
255.484	16.73
255.701	26.96
255.917	65.88
256.134	-28.33
256.351	49.49
256.567	-3.75
256.784	0.34
257	-20.14
257.217	35.16
257.433	24.92
257.65	72.02
257.866	121.17
258.082	-30.38
258.299	-3.75
258.515	35.16
258.732	-3.75
258.948	-20.14
259.165	16.73
259.381	51.54
259.597	65.88
259.814	74.07
260.03	29.01
260.246	2.39
260.463	47.44
260.679	-11.95
260.895	-5.8
261.112	24.92
261.328	-20.14
261.544	4.44
261.761	31.06
261.977	0.34
262.193	35.16
262.409	14.68
262.626	61.78
262.842	29.01
263.058	-24.23
263.274	-24.23
263.49	33.11
263.707	43.35
263.923	-22.19
264.139	-22.19
264.355	0.34
264.571	-3.75
264.787	29.01
265.004	8.53
265.22	49.49
265.436	57.68
265.652	45.4
265.868	24.92
266.084	-48.81
266.3	96.6
266.516	12.63
266.732	26.96
266.948	2.39
267.164	61.78
267.38	43.35
267.596	-5.8
267.812	102.74
268.028	0.34
268.244	12.63
268.46	51.54
268.676	-24.23
268.892	37.2
269.108	-32.43
269.324	8.53
269.54	-16.04
269.756	80.21
269.972	63.83
270.188	6.49
270.403	0.34
270.619	-40.62
270.835	16.73
271.051	10.58
271.267	-36.52
271.483	20.82
271.698	6.49
271.914	135.51
272.13	4.44
272.346	12.63
272.562	18.77
272.777	57.68
272.993	72.02
273.209	117.08
273.425	-13.99
273.64	33.11
273.856	18.77
274.072	31.06
274.287	53.59
274.503	43.35
274.719	45.4
274.934	-1.71
275.15	41.3
275.366	-9.9
275.581	22.87
275.797	51.54
276.012	57.68
276.228	41.3
276.444	47.44
276.659	37.2
276.875	-1.71
277.09	31.06
277.306	8.53
277.521	26.96
277.737	61.78
277.952	106.84
278.168	29.01
278.383	45.4
278.599	39.25
278.814	10.58
279.03	51.54
279.245	67.92
279.461	43.35
279.676	90.45
279.892	59.73
280.107	-3.75
280.322	78.16
280.538	31.06
280.753	78.16
280.969	86.36
281.184	104.79
281.399	59.73
281.615	41.3
281.83	69.97
282.045	-16.04
282.26	53.59
282.476	43.35
282.691	61.78
282.906	24.92
283.122	88.4
283.337	29.01
283.552	20.82
283.767	-11.95
283.983	10.58
284.198	84.31
284.413	86.36
284.628	53.59
284.843	24.92
285.058	78.16
285.274	74.07
285.489	-30.38
285.704	117.08
285.919	-61.1
286.134	24.92
286.349	41.3
286.564	24.92
286.779	74.07
286.995	16.73
287.21	-67.24
287.425	4.44
287.64	-16.04
287.855	55.64
288.07	41.3
288.285	61.78
288.5	55.64
288.715	41.3
288.93	-16.04
289.145	78.16
289.36	10.58
289.575	14.68
289.79	69.97
290.004	86.36
290.219	4.44
290.434	26.96
290.649	-36.52
290.864	45.4
291.079	43.35
291.294	6.49
291.509	47.44
291.724	69.97
291.938	117.08
292.153	131.41
292.368	26.96
292.583	59.73
292.798	-3.75
293.012	-28.33
293.227	2.39
293.442	37.2
293.657	31.06
293.871	37.2
294.086	57.68
294.301	69.97
294.516	-22.19
294.73	-28.33
294.945	49.49
295.16	88.4
295.374	6.49
295.589	47.44
295.804	45.4
296.018	59.73
296.233	106.84
296.447	10.58
296.662	51.54
296.877	51.54
297.091	102.74
297.306	-7.85
297.52	-1.71
297.735	57.68
297.949	59.73
298.164	59.73
298.378	14.68
298.593	20.82
298.807	76.12
299.022	8.53
299.236	43.35
299.451	74.07
299.665	74.07
299.88	49.49
300.094	20.82
300.309	0.34
300.523	57.68
300.737	49.49
300.952	67.92
301.166	59.73
301.381	26.96
301.595	-36.52
301.809	24.92
302.024	61.78
302.238	104.79
302.452	45.4
302.667	51.54
302.881	131.41
303.095	80.21
303.309	-5.8
303.524	-16.04
303.738	-11.95
303.952	8.53
304.166	45.4
304.381	20.82
304.595	82.26
304.809	55.64
305.023	41.3
305.237	16.73
305.452	49.49
305.666	82.26
305.88	57.68
306.094	78.16
306.308	35.16
306.522	45.4
306.736	45.4
306.95	76.12
307.164	2.39
307.379	18.77
307.593	31.06
307.807	119.12
308.021	16.73
308.235	78.16
308.449	0.34
308.663	39.25
308.877	110.93
309.091	74.07
309.305	98.64
309.519	-22.19
309.733	82.26
309.947	59.73
310.161	115.03
310.374	41.3
310.588	10.58
310.802	8.53
311.016	2.39
311.23	-5.8
311.444	-3.75
311.658	55.64
311.872	106.84
312.085	37.2
312.299	67.92
312.513	43.35
312.727	76.12
312.941	80.21
313.154	16.73
313.368	20.82
313.582	16.73
313.796	67.92
314.009	-52.91
314.223	24.92
314.437	55.64
314.651	63.83
314.864	18.77
315.078	-26.28
315.292	10.58
315.505	31.06
315.719	86.36
315.933	12.63
316.146	4.44
316.36	-13.99
316.573	90.45
316.787	67.92
317.001	16.73
317.214	67.92
317.428	51.54
317.641	2.39
317.855	41.3
318.068	49.49
318.282	31.06
318.495	22.87
318.709	67.92
318.922	39.25
319.136	33.11
319.349	6.49
319.563	-16.04
319.776	65.88
319.99	-40.62
320.203	12.63
320.417	33.11
320.63	-36.52
320.843	65.88
321.057	72.02
321.27	33.11
321.483	8.53
321.697	72.02
321.91	-9.9
322.124	14.68
322.337	43.35
322.55	-26.28
322.763	20.82
322.977	-11.95
323.19	26.96
323.403	51.54
323.617	22.87
323.83	69.97
324.043	53.59
324.256	82.26
324.469	24.92
324.683	47.44
324.896	59.73
325.109	59.73
325.322	-16.04
325.535	20.82
325.748	74.07
325.962	45.4
326.175	18.77
326.388	43.35
326.601	63.83
326.814	31.06
327.027	-24.23
327.24	53.59
327.453	-38.57
327.666	94.55
327.879	31.06
328.092	8.53
328.305	6.49
328.518	33.11
328.731	47.44
328.944	90.45
329.157	61.78
329.37	14.68
329.583	43.35
329.796	45.4
330.009	12.63
330.222	18.77
330.435	-1.71
330.648	-32.43
330.861	43.35
331.073	26.96
331.286	18.77
331.499	55.64
331.712	55.64
331.925	61.78
332.138	74.07
332.35	-13.99
332.563	33.11
332.776	90.45
332.989	37.2
333.202	-16.04
333.414	0.34
333.627	69.97
333.84	35.16
334.053	43.35
334.265	20.82
334.478	45.4
334.691	43.35
334.903	16.73
335.116	55.64
335.329	8.53
335.541	-34.47
335.754	82.26
335.966	-40.62
336.179	69.97
336.392	72.02
336.604	33.11
336.817	51.54
337.029	51.54
337.242	24.92
337.454	24.92
337.667	-5.8
337.88	57.68
338.092	102.74
338.305	84.31
338.517	20.82
338.729	29.01
338.942	-7.85
339.154	76.12
339.367	47.44
339.579	49.49
339.792	14.68
340.004	22.87
340.217	24.92
340.429	41.3
340.641	2.39
340.854	39.25
341.066	35.16
341.278	6.49
341.491	33.11
341.703	47.44
341.915	8.53
342.128	74.07
342.34	-13.99
342.552	16.73
342.764	65.88
342.977	-32.43
343.189	45.4
343.401	29.01
343.613	-28.33
343.826	14.68
344.038	39.25
344.25	-32.43
344.462	-36.52
344.674	10.58
344.886	26.96
345.099	-40.62
345.311	8.53
345.523	-1.71
345.735	16.73
345.947	67.92
346.159	-40.62
346.371	-34.47
346.583	10.58
346.795	84.31
347.007	22.87
347.219	51.54
347.431	-20.14
347.643	82.26
347.855	-42.67
348.067	61.78
348.279	47.44
348.491	35.16
348.703	82.26
348.915	39.25
349.127	-48.81
349.339	53.59
349.551	49.49
349.763	24.92
349.975	20.82
350.187	37.2
350.399	133.46
350.61	57.68
350.822	69.97
351.034	86.36
351.246	43.35
351.458	41.3
351.669	-11.95
351.881	43.35
352.093	69.97
352.305	33.11
352.517	125.27
352.728	106.84
352.94	65.88
353.152	84.31
353.363	-38.57
353.575	33.11
353.787	53.59
353.999	35.16
354.21	41.3
354.422	90.45
354.633	10.58
354.845	-52.91
355.057	69.97
355.268	82.26
355.48	76.12
355.692	-5.8
355.903	41.3
356.115	-5.8
356.326	-36.52
356.538	37.2
356.749	16.73
356.961	35.16
357.172	-22.19
357.384	10.58
357.595	170.32
357.807	96.6
358.018	65.88
358.23	49.49
358.441	57.68
358.653	-5.8
358.864	37.2
359.075	20.82
359.287	29.01
359.498	16.73
359.709	82.26
359.921	20.82
360.132	22.87
360.344	16.73
360.555	31.06
360.766	92.5
360.977	45.4
361.189	35.16
361.4	49.49
361.611	106.84
361.823	127.32
362.034	80.21
362.245	-34.47
362.456	45.4
362.667	57.68
362.879	22.87
363.09	20.82
363.301	4.44
363.512	-5.8
363.723	24.92
363.935	61.78
364.146	76.12
364.357	82.26
364.568	74.07
364.779	31.06
364.99	41.3
365.201	-16.04
365.412	33.11
365.623	26.96
365.834	78.16
366.045	24.92
366.256	106.84
366.467	16.73
366.678	20.82
366.889	43.35
367.1	-44.71
367.311	80.21
367.522	-77.48
367.733	45.4
367.944	92.5
368.155	53.59
368.366	166.23
368.577	80.21
368.788	35.16
368.999	49.49
369.209	29.01
369.42	78.16
369.631	76.12
369.842	-28.33
370.053	22.87
370.264	76.12
370.474	24.92
370.685	88.4
370.896	67.92
371.107	90.45
371.317	96.6
371.528	-22.19
371.739	96.6
371.95	82.26
372.16	-20.14
372.371	49.49
372.582	35.16
372.792	49.49
373.003	61.78
373.214	53.59
373.424	108.88
373.635	-13.99
373.846	63.83
374.056	63.83
374.267	41.3
374.477	88.4
374.688	26.96
374.898	45.4
375.109	33.11
375.319	41.3
375.53	92.5
375.74	47.44
375.951	26.96
376.161	26.96
376.372	86.36
376.582	-38.57
376.793	100.69
377.003	51.54
377.214	55.64
377.424	24.92
377.635	82.26
377.845	51.54
378.055	74.07
378.266	18.77
378.476	43.35
378.686	78.16
378.897	76.12
379.107	22.87
379.317	96.6
379.528	12.63
379.738	51.54
379.948	20.82
380.158	65.88
380.369	72.02
380.579	65.88
380.789	53.59
380.999	112.98
381.21	51.54
381.42	61.78
381.63	94.55
381.84	147.8
382.05	49.49
382.261	55.64
382.471	4.44
382.681	-11.95
382.891	55.64
383.101	-22.19
383.311	-16.04
383.521	69.97
383.731	57.68
383.941	94.55
384.151	65.88
384.361	39.25
384.571	117.08
384.781	74.07
384.991	112.98
385.201	65.88
385.411	37.2
385.621	24.92
385.831	-5.8
386.041	43.35
386.251	31.06
386.461	117.08
386.671	57.68
386.881	84.31
387.091	26.96
387.301	74.07
387.511	37.2
387.72	26.96
387.93	39.25
388.14	-32.43
388.35	39.25
388.56	74.07
388.769	43.35
388.979	37.2
389.189	69.97
389.399	4.44
389.609	41.3
389.818	78.16
390.028	49.49
390.238	92.5
390.447	0.34
390.657	43.35
390.867	51.54
391.076	67.92
391.286	86.36
391.496	72.02
391.705	53.59
391.915	57.68
392.125	72.02
392.334	22.87
392.544	53.59
392.753	18.77
392.963	35.16
393.172	90.45
393.382	14.68
393.591	155.99
393.801	33.11
394.01	69.97
394.22	117.08
394.429	18.77
394.639	51.54
394.848	76.12
395.058	47.44
395.267	0.34
395.477	160.08
395.686	61.78
395.895	110.93
396.105	78.16
396.314	33.11
396.524	12.63
396.733	84.31
396.942	18.77
397.152	137.56
397.361	153.94
397.57	78.16
397.78	72.02
397.989	135.51
398.198	123.22
398.407	155.99
398.617	98.64
398.826	135.51
399.035	90.45
399.244	51.54
399.453	65.88
399.663	74.07
399.872	108.88
400.081	121.17
400.29	143.7
400.499	110.93
400.708	90.45
400.917	-18.09
401.127	86.36
401.336	16.73
401.545	110.93
401.754	131.41
401.963	86.36
402.172	92.5
402.381	86.36
402.59	84.31
402.799	100.69
403.008	108.88
403.217	41.3
403.426	110.93
403.635	98.64
403.844	115.03
404.053	33.11
404.262	153.94
404.471	139.6
404.68	51.54
404.888	143.7
405.097	162.13
405.306	198.99
405.515	205.14
405.724	82.26
405.933	153.94
406.142	135.51
406.35	145.75
406.559	151.89
406.768	225.62
406.977	213.33
407.185	194.9
407.394	92.5
407.603	221.52
407.812	207.19
408.02	139.6
408.229	239.95
408.438	180.56
408.646	133.46
408.855	250.19
409.064	221.52
409.272	248.15
409.481	254.29
409.69	184.66
409.898	213.33
410.107	305.49
410.315	203.09
410.524	295.25
410.733	170.32
410.941	196.95
411.15	280.91
411.358	289.1
411.567	313.68
411.775	272.72
411.984	317.78
412.192	332.11
412.401	270.67
412.609	368.98
412.818	346.45
413.026	352.59
413.234	434.51
413.443	411.98
413.651	373.07
413.86	461.13
414.068	450.89
414.276	485.71
414.485	479.57
414.693	479.57
414.901	549.2
415.11	616.78
415.318	600.4
415.526	592.2
415.734	602.44
415.943	514.38
416.151	631.12
416.359	506.19
416.567	622.92
416.776	756.04
416.984	688.46
417.192	784.71
417.4	758.09
417.608	821.58
417.817	774.47
418.025	899.4
418.233	926.02
418.441	758.09
418.649	852.3
418.857	969.03
419.065	979.27
419.273	1003.85
419.481	977.22
419.689	1126.72
419.897	1139.01
420.105	1120.58
420.313	1296.71
420.521	1116.48
420.729	1288.51
420.937	1227.07
421.145	1395.01
421.353	1378.62
421.561	1390.91
421.769	1450.3
421.977	1603.9
422.185	1608
422.393	1651
422.601	1755.45
422.809	1653.05
423.017	1771.83
423.224	1837.37
423.432	1900.86
423.64	1810.75
423.848	2107.7
424.056	1984.82
424.263	2179.38
424.471	2212.15
424.679	2212.15
424.887	2441.52
425.094	2275.63
425.302	2371.89
425.51	2337.07
425.718	2550.06
425.925	2683.18
426.133	2621.74
426.341	2863.4
426.548	2867.5
426.756	2935.08
426.964	2904.36
427.171	3072.29
427.379	3303.71
427.586	3232.04
427.794	3326.24
428.001	3574.05
428.209	3733.79
428.417	3690.78
428.624	3948.83
428.832	3879.19
429.039	3801.37
429.247	3782.94
429.454	4229.4
429.662	4573.46
429.869	4395.28
430.076	4544.78
430.284	4555.02
430.491	4673.81
430.699	4903.18
430.906	4931.85
431.114	4974.86
431.321	5110.02
431.528	5105.93
431.736	5486.85
431.943	5755.13
432.15	5638.4
432.358	5728.51
432.565	6099.19
432.772	6062.33
432.979	6306.04
433.187	6359.28
433.394	6449.39
433.601	6799.6
433.808	6971.63
434.016	6848.75
434.223	7244.01
434.43	7694.56
434.637	7424.23
434.844	7915.74
435.052	8032.47
435.259	8116.44
435.466	8098.01
435.673	8073.43
435.88	8573.14
436.087	9040.08
436.294	9195.72
436.501	8978.64
436.708	8911.05
436.915	9220.3
437.122	9752.77
437.329	9932.99
437.537	9949.37
437.743	10150.07
437.95	10180.79
438.157	10721.46
438.364	10741.94
438.571	10834.1
438.778	10963.12
438.985	11989.15
439.192	11589.8
439.399	12009.63
439.606	11749.54
439.813	12486.81
440.02	13072.53
440.227	12990.61
440.433	12785.81
440.64	13301.9
440.847	13006.99
441.054	13719.68
441.261	14405.75
441.467	14168.19
441.674	14592.12
441.881	15114.35
442.088	15159.41
442.294	14960.75
442.501	15054.96
442.708	15532.14
442.914	16164.96
443.121	16965.71
443.328	16642.14
443.534	17862.72
443.741	17102.93
443.948	17010.77
444.154	17911.88
444.361	18004.03
444.568	18180.16
444.774	18034.75
444.981	18305.09
445.187	19015.73
445.394	19867.69
445.6	19542.06
445.807	21364.75
446.013	20363.29
446.22	20912.15
446.426	21600.27
446.633	21964.81
446.839	22489.09
447.046	21925.89
447.252	22798.33
447.459	22820.86
447.665	23005.17
447.871	23820.27
448.078	24942.55
448.284	23709.68
448.491	24412.13
448.697	25468.88
448.903	25966.54
449.11	25685.97
449.316	25591.76
449.522	26124.23
449.728	26886.08
449.935	27250.61
450.141	27064.25
450.347	27654.06
450.553	26845.12
450.76	26863.55
450.966	28176.3
451.172	27856.81
451.378	28282.79
451.584	28243.88
451.791	28944.28
451.997	28712.86
452.203	28932
452.409	28956.57
452.615	28899.23
452.821	27858.86
453.027	27586.48
453.233	29149.08
453.44	28151.72
453.646	28362.66
453.852	28712.86
454.058	28753.82
454.264	28006.31
454.47	28913.56
454.676	28049.32
454.882	29187.99
455.088	26605.5
455.294	26894.27
455.5	27303.86
455.705	27695.02
455.911	26437.57
456.117	25907.15
456.323	25853.9
456.529	24621.02
456.735	25540.56
456.941	24944.6
457.147	24549.34
457.352	23742.44
457.558	23535.6
457.764	23545.84
457.97	22974.45
458.176	22718.46
458.381	22628.35
458.587	21516.3
458.793	21577.74
458.999	20750.36
459.204	21751.82
459.41	21282.83
459.616	19802.15
459.821	19750.95
460.027	19910.69
460.233	19583.02
460.438	18415.68
460.644	18712.63
460.85	17821.77
461.055	17436.75
461.261	17485.9
461.466	16367.71
461.672	15978.59
461.878	16771.16
462.083	15771.75
462.289	15616.1
462.494	15347.82
462.7	14927.99
462.905	14039.17
463.111	14616.69
463.316	14743.67
463.522	14461.05
463.727	14530.68
463.932	14512.25
464.138	14252.16
464.343	14411.9
464.549	13846.66
464.754	14227.58
464.959	14223.48
465.165	14090.37
465.37	13557.89
465.575	13117.58
465.781	13559.94
465.986	13680.77
466.191	13338.76
466.397	12898.45
466.602	12392.6
466.807	12847.25
467.012	12884.11
467.218	12896.4
467.423	12656.79
467.628	12697.75
467.833	13398.15
468.038	12884.11
468.244	12509.33
