Data from USB4F104151__87__13-13-03-090.txt Node

Date: Fri Mar 14 13:13:03 EDT 2025
User: louis
Spectrometer: USB4F10415
Trigger mode: 4
Integration Time (sec): 2.000000E-2
Scans to average: 1
Electric dark correction enabled: true
Nonlinearity correction enabled: false
Boxcar width: 0
XAxis mode: Wavelengths
Number of Pixels in Spectrum: 3648
>>>>>Begin Spectral Data<<<<<
178.204	-93.01
178.424	-93.01
178.644	-93.01
178.864	-144.21
179.084	-138.07
179.304	-54.1
179.524	23.72
179.744	15.53
179.964	38.06
180.184	-13.14
180.404	50.35
180.624	-54.1
180.844	13.48
181.064	-19.29
181.283	31.91
181.503	-33.62
181.723	1.19
181.943	-9.05
182.163	62.63
182.383	27.82
182.602	-9.05
182.822	11.43
183.042	-2.9
183.262	1.19
183.482	-35.67
183.701	21.67
183.921	9.39
184.141	-17.24
184.361	101.55
184.58	-35.67
184.8	13.48
185.02	-27.48
185.239	46.25
185.459	50.35
185.679	36.01
185.898	40.11
186.118	19.63
186.338	11.43
186.557	38.06
186.777	-56.15
186.997	38.06
187.216	7.34
187.436	-9.05
187.655	23.72
187.875	122.02
188.095	-2.9
188.314	-17.24
188.534	122.02
188.753	-29.52
188.973	-76.63
189.192	66.73
189.412	-37.72
189.631	-9.05
189.851	-13.14
190.07	76.97
190.29	-17.24
190.509	21.67
190.729	1.19
190.948	62.63
191.168	76.97
191.387	83.11
191.607	38.06
191.826	27.82
192.045	54.44
192.265	-7
192.484	13.48
192.704	50.35
192.923	-11.09
193.142	107.69
193.362	76.97
193.581	85.16
193.8	113.83
194.02	17.58
194.239	48.3
194.458	50.35
194.678	89.26
194.897	-17.24
195.116	13.48
195.335	15.53
195.555	29.87
195.774	87.21
195.993	44.2
196.212	-43.86
196.432	103.59
196.651	54.44
196.87	40.11
197.089	89.26
197.308	54.44
197.528	66.73
197.747	40.11
197.966	31.91
198.185	5.29
198.404	-4.95
198.623	54.44
198.842	25.77
199.062	42.15
199.281	13.48
199.5	46.25
199.719	25.77
199.938	25.77
200.157	91.31
200.376	1.19
200.595	103.59
200.814	-25.43
201.033	42.15
201.252	5.29
201.471	11.43
201.69	93.35
201.909	-50
202.128	9.39
202.347	64.68
202.566	-0.85
202.785	-9.05
203.004	17.58
203.223	42.15
203.442	-39.76
203.661	29.87
203.879	46.25
204.098	33.96
204.317	19.63
204.536	62.63
204.755	54.44
204.974	101.55
205.193	40.11
205.411	87.21
205.63	46.25
205.849	79.02
206.068	27.82
206.287	-21.33
206.505	58.54
206.724	66.73
206.943	13.48
207.162	29.87
207.381	33.96
207.599	-33.62
207.818	13.48
208.037	33.96
208.255	68.78
208.474	40.11
208.693	40.11
208.911	19.63
209.13	79.02
209.349	-33.62
209.567	52.39
209.786	70.83
210.005	72.87
210.223	23.72
210.442	-47.96
210.661	38.06
210.879	36.01
211.098	44.2
211.316	115.88
211.535	83.11
211.753	17.58
211.972	70.83
212.191	11.43
212.409	29.87
212.628	50.35
212.846	-25.43
213.065	58.54
213.283	72.87
213.502	52.39
213.72	-31.57
213.938	68.78
214.157	-11.09
214.375	3.24
214.594	15.53
214.812	40.11
215.031	-66.39
215.249	-19.29
215.467	38.06
215.686	52.39
215.904	23.72
216.122	42.15
216.341	87.21
216.559	79.02
216.778	83.11
216.996	81.07
217.214	19.63
217.432	13.48
217.651	-41.81
217.869	40.11
218.087	87.21
218.306	-11.09
218.524	1.19
218.742	-9.05
218.96	-7
219.179	-35.67
219.397	-2.9
219.615	1.19
219.833	21.67
220.051	25.77
220.27	68.78
220.488	79.02
220.706	21.67
220.924	60.59
221.142	38.06
221.36	17.58
221.578	7.34
221.796	25.77
222.015	-17.24
222.233	29.87
222.451	68.78
222.669	-50
222.887	56.49
223.105	38.06
223.323	5.29
223.541	9.39
223.759	-11.09
223.977	-13.14
224.195	81.07
224.413	21.67
224.631	5.29
224.849	1.19
225.067	99.5
225.285	7.34
225.503	58.54
225.721	-21.33
225.939	19.63
226.157	62.63
226.375	42.15
226.592	-47.96
226.81	76.97
227.028	-21.33
227.246	134.31
227.464	66.73
227.682	-21.33
227.9	9.39
228.117	15.53
228.335	56.49
228.553	29.87
228.771	31.91
228.989	29.87
229.206	79.02
229.424	95.4
229.642	9.39
229.86	-9.05
230.077	97.45
230.295	7.34
230.513	50.35
230.731	-2.9
230.948	64.68
231.166	23.72
231.384	25.77
231.601	5.29
231.819	128.17
232.037	-7
232.254	-21.33
232.472	29.87
232.689	40.11
232.907	-11.09
233.125	11.43
233.342	113.83
233.56	-62.29
233.777	40.11
233.995	89.26
234.213	-19.29
234.43	-41.81
234.648	7.34
234.865	-11.09
235.083	-17.24
235.3	-2.9
235.518	-0.85
235.735	60.59
235.953	36.01
236.17	-17.24
236.388	-27.48
236.605	46.25
236.822	-27.48
237.04	29.87
237.257	5.29
237.475	25.77
237.692	111.78
237.909	70.83
238.127	74.92
238.344	17.58
238.562	25.77
238.779	-9.05
238.996	-74.58
239.214	56.49
239.431	50.35
239.648	56.49
239.865	15.53
240.083	27.82
240.3	25.77
240.517	-29.52
240.735	122.02
240.952	3.24
241.169	25.77
241.386	-27.48
241.603	15.53
241.821	46.25
242.038	76.97
242.255	-15.19
242.472	50.35
242.689	21.67
242.907	70.83
243.124	13.48
243.341	-25.43
243.558	17.58
243.775	-0.85
243.992	-25.43
244.209	46.25
244.426	70.83
244.643	-29.52
244.86	-4.95
245.078	38.06
245.295	95.4
245.512	-11.09
245.729	27.82
245.946	50.35
246.163	9.39
246.38	54.44
246.597	13.48
246.814	56.49
247.031	25.77
247.248	70.83
247.464	62.63
247.681	27.82
247.898	38.06
248.115	19.63
248.332	23.72
248.549	7.34
248.766	74.92
248.983	87.21
249.2	58.54
249.417	158.89
249.633	-15.19
249.85	-11.09
250.067	11.43
250.284	40.11
250.501	66.73
250.717	21.67
250.934	-11.09
251.151	1.19
251.368	29.87
251.585	15.53
251.801	29.87
252.018	29.87
252.235	29.87
252.451	7.34
252.668	66.73
252.885	56.49
253.102	17.58
253.318	-2.9
253.535	-37.72
253.752	52.39
253.968	58.54
254.185	23.72
254.401	42.15
254.618	38.06
254.835	-17.24
255.051	42.15
255.268	15.53
255.484	52.39
255.701	29.87
255.917	103.59
256.134	-50
256.351	50.35
256.567	-27.48
256.784	-4.95
257	-68.44
257.217	-0.85
257.433	64.68
257.65	-15.19
257.866	9.39
258.082	-56.15
258.299	17.58
258.515	17.58
258.732	11.43
258.948	13.48
259.165	7.34
259.381	44.2
259.597	17.58
259.814	81.07
260.03	-39.76
260.246	-2.9
260.463	64.68
260.679	44.2
260.895	29.87
261.112	-13.14
261.328	-21.33
261.544	29.87
261.761	105.64
261.977	-0.85
262.193	23.72
262.409	58.54
262.626	25.77
262.842	11.43
263.058	21.67
263.274	1.19
263.49	15.53
263.707	7.34
263.923	27.82
264.139	-60.24
264.355	-4.95
264.571	33.96
264.787	-45.91
265.004	-7
265.22	97.45
265.436	38.06
265.652	7.34
265.868	115.88
266.084	-15.19
266.3	-31.57
266.516	23.72
266.732	40.11
266.948	56.49
267.164	81.07
267.38	54.44
267.596	21.67
267.812	119.98
268.028	15.53
268.244	-68.44
268.46	56.49
268.676	25.77
268.892	-15.19
269.108	46.25
269.324	40.11
269.54	101.55
269.756	50.35
269.972	-15.19
270.188	9.39
270.403	-7
270.619	1.19
270.835	1.19
271.051	-21.33
271.267	-13.14
271.483	21.67
271.698	46.25
271.914	40.11
272.13	115.88
272.346	-15.19
272.562	97.45
272.777	87.21
272.993	7.34
273.209	3.24
273.425	-23.38
273.64	66.73
273.856	40.11
274.072	5.29
274.287	-54.1
274.503	5.29
274.719	9.39
274.934	62.63
275.15	56.49
275.366	15.53
275.581	50.35
275.797	54.44
276.012	27.82
276.228	38.06
276.444	5.29
276.659	60.59
276.875	-7
277.09	89.26
277.306	25.77
277.521	50.35
277.737	40.11
277.952	40.11
278.168	7.34
278.383	15.53
278.599	-23.38
278.814	46.25
279.03	-62.29
279.245	58.54
279.461	52.39
279.676	13.48
279.892	-15.19
280.107	1.19
280.322	-11.09
280.538	68.78
280.753	33.96
280.969	85.16
281.184	33.96
281.399	40.11
281.615	-11.09
281.83	-7
282.045	5.29
282.26	9.39
282.476	-41.81
282.691	31.91
282.906	40.11
283.122	-27.48
283.337	-52.05
283.552	54.44
283.767	38.06
283.983	40.11
284.198	9.39
284.413	21.67
284.628	-45.91
284.843	-15.19
285.058	58.54
285.274	19.63
285.489	-2.9
285.704	79.02
285.919	13.48
286.134	74.92
286.349	13.48
286.564	-11.09
286.779	105.64
286.995	13.48
287.21	33.96
287.425	46.25
287.64	7.34
287.855	50.35
288.07	58.54
288.285	29.87
288.5	85.16
288.715	-21.33
288.93	-19.29
289.145	-43.86
289.36	66.73
289.575	38.06
289.79	13.48
290.004	-15.19
290.219	56.49
290.434	36.01
290.649	79.02
290.864	13.48
291.079	44.2
291.294	52.39
291.509	50.35
291.724	87.21
291.938	46.25
292.153	7.34
292.368	11.43
292.583	33.96
292.798	9.39
293.012	38.06
293.227	-52.05
293.442	7.34
293.657	58.54
293.871	54.44
294.086	99.5
294.301	9.39
294.516	103.59
294.73	-31.57
294.945	-15.19
295.16	74.92
295.374	-13.14
295.589	64.68
295.804	5.29
296.018	36.01
296.233	72.87
296.447	33.96
296.662	-41.81
296.877	46.25
297.091	46.25
297.306	3.24
297.52	-31.57
297.735	-43.86
297.949	-15.19
298.164	85.16
298.378	17.58
298.593	38.06
298.807	64.68
299.022	40.11
299.236	7.34
299.451	-50
299.665	72.87
299.88	13.48
300.094	36.01
300.309	54.44
300.523	44.2
300.737	103.59
300.952	-2.9
301.166	46.25
301.381	23.72
301.595	93.35
301.809	13.48
302.024	33.96
302.238	29.87
302.452	70.83
302.667	162.98
302.881	40.11
303.095	23.72
303.309	-0.85
303.524	-2.9
303.738	-25.43
303.952	17.58
304.166	70.83
304.381	-27.48
304.595	-33.62
304.809	15.53
305.023	21.67
305.237	13.48
305.452	27.82
305.666	46.25
305.88	-19.29
306.094	1.19
306.308	25.77
306.522	25.77
306.736	40.11
306.95	-39.76
307.164	7.34
307.379	15.53
307.593	27.82
307.807	-33.62
308.021	-17.24
308.235	-11.09
308.449	9.39
308.663	19.63
308.877	130.22
309.091	-58.2
309.305	83.11
309.519	-2.9
309.733	-27.48
309.947	-4.95
310.161	54.44
310.374	29.87
310.588	3.24
310.802	-33.62
311.016	13.48
311.23	21.67
311.444	-4.95
311.658	21.67
311.872	52.39
312.085	66.73
312.299	81.07
312.513	52.39
312.727	17.58
312.941	36.01
313.154	-23.38
313.368	23.72
313.582	-41.81
313.796	23.72
314.009	42.15
314.223	29.87
314.437	89.26
314.651	36.01
314.864	46.25
315.078	52.39
315.292	-25.43
315.505	-15.19
315.719	58.54
315.933	79.02
316.146	-7
316.36	-52.05
316.573	1.19
316.787	5.29
317.001	-31.57
317.214	-2.9
317.428	36.01
317.641	48.3
317.855	33.96
318.068	-27.48
318.282	15.53
318.495	33.96
318.709	21.67
318.922	60.59
319.136	29.87
319.349	66.73
319.563	38.06
319.776	91.31
319.99	1.19
320.203	33.96
320.417	-52.05
320.63	44.2
320.843	89.26
321.057	58.54
321.27	-60.24
321.483	42.15
321.697	72.87
321.91	19.63
322.124	9.39
322.337	23.72
322.55	-23.38
322.763	-13.14
322.977	-2.9
323.19	17.58
323.403	5.29
323.617	52.39
323.83	50.35
324.043	46.25
324.256	52.39
324.469	62.63
324.683	-25.43
324.896	-23.38
325.109	68.78
325.322	-25.43
325.535	15.53
325.748	83.11
325.962	21.67
326.175	81.07
326.388	-11.09
326.601	25.77
326.814	1.19
327.027	64.68
327.24	31.91
327.453	-41.81
327.666	46.25
327.879	62.63
328.092	105.64
328.305	48.3
328.518	44.2
328.731	-109.4
328.944	83.11
329.157	-15.19
329.37	56.49
329.583	72.87
329.796	48.3
330.009	25.77
330.222	50.35
330.435	-9.05
330.648	23.72
330.861	21.67
331.073	33.96
331.286	17.58
331.499	3.24
331.712	-31.57
331.925	-19.29
332.138	13.48
332.35	5.29
332.563	60.59
332.776	76.97
332.989	72.87
333.202	50.35
333.414	-64.34
333.627	111.78
333.84	70.83
334.053	64.68
334.265	46.25
334.478	-97.11
334.691	40.11
334.903	15.53
335.116	-2.9
335.329	31.91
335.541	130.22
335.754	89.26
335.966	44.2
336.179	-2.9
336.392	27.82
336.604	-45.91
336.817	-7
337.029	5.29
337.242	33.96
337.454	-2.9
337.667	-2.9
337.88	29.87
338.092	3.24
338.305	68.78
338.517	29.87
338.729	64.68
338.942	17.58
339.154	19.63
339.367	-72.53
339.579	25.77
339.792	-29.52
340.004	-4.95
340.217	54.44
340.429	38.06
340.641	-11.09
340.854	62.63
341.066	-7
341.278	62.63
341.491	76.97
341.703	7.34
341.915	-19.29
342.128	83.11
342.34	11.43
342.552	48.3
342.764	-17.24
342.977	7.34
343.189	7.34
343.401	103.59
343.613	17.58
343.826	-50
344.038	21.67
344.25	-9.05
344.462	-76.63
344.674	60.59
344.886	62.63
345.099	-15.19
345.311	105.64
345.523	81.07
345.735	-76.63
345.947	9.39
346.159	46.25
346.371	36.01
346.583	64.68
346.795	21.67
347.007	15.53
347.219	33.96
347.431	7.34
347.643	-11.09
347.855	87.21
348.067	31.91
348.279	58.54
348.491	31.91
348.703	-0.85
348.915	36.01
349.127	-88.92
349.339	-27.48
349.551	29.87
349.763	-11.09
349.975	27.82
350.187	13.48
350.399	101.55
350.61	50.35
350.822	54.44
351.034	13.48
351.246	-41.81
351.458	17.58
351.669	89.26
351.881	29.87
352.093	29.87
352.305	44.2
352.517	5.29
352.728	70.83
352.94	-47.96
353.152	52.39
353.363	-9.05
353.575	-37.72
353.787	23.72
353.999	-23.38
354.21	38.06
354.422	21.67
354.633	52.39
354.845	21.67
355.057	1.19
355.268	-41.81
355.48	42.15
355.692	99.5
355.903	42.15
356.115	-33.62
356.326	-35.67
356.538	50.35
356.749	40.11
356.961	58.54
357.172	-4.95
357.384	40.11
357.595	87.21
357.807	-4.95
358.018	1.19
358.23	29.87
358.441	29.87
358.653	17.58
358.864	11.43
359.075	83.11
359.287	-19.29
359.498	115.88
359.709	15.53
359.921	25.77
360.132	95.4
360.344	5.29
360.555	54.44
360.766	87.21
360.977	-47.96
361.189	134.31
361.4	-15.19
361.611	56.49
361.823	79.02
362.034	64.68
362.245	25.77
362.456	97.45
362.667	31.91
362.879	-9.05
363.09	60.59
363.301	33.96
363.512	79.02
363.723	23.72
363.935	-4.95
364.146	70.83
364.357	-4.95
364.568	7.34
364.779	-25.43
364.99	56.49
365.201	50.35
365.412	101.55
365.623	58.54
365.834	29.87
366.045	48.3
366.256	7.34
366.467	99.5
366.678	46.25
366.889	29.87
367.1	9.39
367.311	66.73
367.522	17.58
367.733	54.44
367.944	48.3
368.155	62.63
368.366	54.44
368.577	66.73
368.788	72.87
368.999	-17.24
369.209	38.06
369.42	44.2
369.631	46.25
369.842	33.96
370.053	17.58
370.264	83.11
370.474	5.29
370.685	70.83
370.896	64.68
371.107	31.91
371.317	56.49
371.528	-19.29
371.739	9.39
371.95	-15.19
372.16	21.67
372.371	-0.85
372.582	23.72
372.792	48.3
373.003	33.96
373.214	9.39
373.424	83.11
373.635	60.59
373.846	-4.95
374.056	7.34
374.267	40.11
374.477	72.87
374.688	105.64
374.898	44.2
375.109	58.54
375.319	17.58
375.53	99.5
375.74	9.39
375.951	11.43
376.161	27.82
376.372	58.54
376.582	13.48
376.793	60.59
377.003	64.68
377.214	-0.85
377.424	83.11
377.635	-2.9
377.845	1.19
378.055	9.39
378.266	58.54
378.476	7.34
378.686	7.34
378.897	23.72
379.107	64.68
379.317	29.87
379.528	19.63
379.738	1.19
379.948	-27.48
380.158	66.73
380.369	83.11
380.579	58.54
380.789	46.25
380.999	97.45
381.21	70.83
381.42	87.21
381.63	15.53
381.84	38.06
382.05	21.67
382.261	79.02
382.471	103.59
382.681	54.44
382.891	107.69
383.101	33.96
383.311	29.87
383.521	68.78
383.731	62.63
383.941	1.19
384.151	-11.09
384.361	-27.48
384.571	-27.48
384.781	-2.9
384.991	70.83
385.201	91.31
385.411	-15.19
385.621	-27.48
385.831	31.91
386.041	58.54
386.251	-35.67
386.461	-15.19
386.671	58.54
386.881	68.78
387.091	25.77
387.301	19.63
387.511	64.68
387.72	-64.34
387.93	25.77
388.14	-13.14
388.35	44.2
388.56	91.31
388.769	48.3
388.979	29.87
389.189	21.67
389.399	-2.9
389.609	25.77
389.818	87.21
390.028	169.13
390.238	81.07
390.447	111.78
390.657	70.83
390.867	66.73
391.076	-39.76
391.286	58.54
391.496	38.06
391.705	13.48
391.915	50.35
392.125	31.91
392.334	38.06
392.544	21.67
392.753	62.63
392.963	-2.9
393.172	42.15
393.382	27.82
393.591	17.58
393.801	79.02
394.01	111.78
394.22	72.87
394.429	107.69
394.639	-2.9
394.848	115.88
395.058	21.67
395.267	19.63
395.477	79.02
395.686	103.59
395.895	62.63
396.105	62.63
396.314	54.44
396.524	87.21
396.733	46.25
396.942	79.02
397.152	38.06
397.361	40.11
397.57	21.67
397.78	68.78
397.989	83.11
398.198	54.44
398.407	62.63
398.617	52.39
398.826	23.72
399.035	54.44
399.244	142.5
399.453	122.02
399.663	119.98
399.872	111.78
400.081	70.83
400.29	81.07
400.499	46.25
400.708	103.59
400.917	23.72
401.127	56.49
401.336	62.63
401.545	62.63
401.754	29.87
401.963	46.25
402.172	66.73
402.381	115.88
402.59	70.83
402.799	54.44
403.008	64.68
403.217	70.83
403.426	101.55
403.635	99.5
403.844	56.49
404.053	56.49
404.262	146.6
404.471	72.87
404.68	79.02
404.888	38.06
405.097	64.68
405.306	72.87
405.515	128.17
405.724	72.87
405.933	171.18
406.142	154.79
406.35	138.41
406.559	72.87
406.768	64.68
406.977	167.08
407.185	85.16
407.394	205.99
407.603	117.93
407.812	167.08
408.02	105.64
408.229	132.26
408.438	117.93
408.646	103.59
408.855	140.46
409.064	222.38
409.272	134.31
409.481	160.94
409.69	154.79
409.898	97.45
410.107	160.94
410.315	171.18
410.524	154.79
410.733	146.6
410.941	265.38
411.15	175.27
411.358	226.47
411.567	203.94
411.775	228.52
411.984	226.47
412.192	242.85
412.401	271.53
412.609	318.63
412.818	302.25
413.026	230.57
413.234	251.05
413.443	257.19
413.651	257.19
413.86	298.15
414.068	332.97
414.276	335.01
414.485	275.62
414.693	386.21
414.901	406.69
415.11	312.49
415.318	386.21
415.526	445.6
415.734	459.94
415.943	408.74
416.151	431.27
416.359	337.06
416.567	437.41
416.776	400.55
416.984	498.85
417.192	461.99
417.4	521.38
417.608	449.7
417.817	500.9
418.025	550.05
418.233	703.65
418.441	578.72
418.649	593.06
418.857	627.87
419.065	668.83
419.273	703.65
419.481	689.31
419.689	795.81
419.897	767.13
420.105	789.66
420.313	713.89
420.521	973.98
420.729	775.33
420.937	838.81
421.145	955.55
421.353	1014.94
421.561	998.56
421.769	996.51
421.977	1051.8
422.185	1066.14
422.393	1111.19
422.601	1148.06
422.809	1225.88
423.017	1262.74
423.224	1268.89
423.432	1303.7
423.64	1275.03
423.848	1393.81
424.056	1467.54
424.263	1479.83
424.471	1520.79
424.679	1430.68
424.887	1569.94
425.094	1643.67
425.302	1522.84
425.51	1707.15
425.718	1805.46
425.925	1799.31
426.133	1887.37
426.341	1977.48
426.548	1961.1
426.756	2059.4
426.964	2026.64
427.171	2145.42
427.379	2102.41
427.586	2135.18
427.794	2301.06
428.001	2409.61
428.209	2540.68
428.417	2438.28
428.624	2616.45
428.832	2747.52
429.039	2653.31
429.247	2647.17
429.454	2821.25
429.662	3089.53
429.869	2907.26
430.076	3114.11
430.284	2983.04
430.491	3175.55
430.699	3275.9
430.906	3359.86
431.114	3390.58
431.321	3556.47
431.528	3572.85
431.736	3755.12
431.943	3937.39
432.15	3773.55
432.358	3771.51
432.565	4170.86
432.772	4187.24
432.979	4459.62
433.187	4256.87
433.394	4316.26
433.601	4519.01
433.808	4830.3
434.016	4582.5
434.223	4820.07
434.43	5194.84
434.637	4938.85
434.844	5330.01
435.052	5424.22
435.259	5514.33
435.466	5549.14
435.673	5461.08
435.88	5766.23
436.087	6132.81
436.294	6118.48
436.501	5903.44
436.708	6186.06
436.915	6413.38
437.122	6642.76
437.329	6497.35
437.537	6730.82
437.743	6960.19
437.95	6931.52
438.157	7246.91
438.364	7402.55
438.571	7398.46
438.778	7752.76
438.985	8215.6
439.192	7754.8
439.399	8197.17
439.606	7697.46
439.813	8356.91
440.02	8983.59
440.227	8653.86
440.433	8647.72
440.64	9188.38
440.847	8854.56
441.054	9219.1
441.261	9722.9
441.467	9595.93
441.674	9776.15
441.881	10032.15
442.088	9878.55
442.294	10011.67
442.501	10288.14
442.708	10368.01
442.914	10820.61
443.121	11101.19
443.328	10957.83
443.534	11836.41
443.741	11430.91
443.948	11465.72
444.154	12145.65
444.361	11840.5
444.568	12018.68
444.774	12282.86
444.981	12366.83
445.187	12751.85
445.394	13167.59
445.6	13059.04
445.807	14318.54
446.013	13777.88
446.22	13800.41
446.426	14420.94
446.633	14652.36
446.839	15074.24
447.046	14427.09
447.252	15256.51
447.459	15461.31
447.665	15573.95
447.871	16112.56
448.078	16608.17
448.284	15926.2
448.491	16106.42
448.697	16927.66
448.903	17365.92
449.11	17437.6
449.316	17046.44
449.522	17433.5
449.728	17925.02
449.935	17941.4
450.141	18037.66
450.347	18326.42
450.553	17849.24
450.76	17933.21
450.966	18678.67
451.172	18641.81
451.378	19151.75
451.584	18690.96
451.791	19161.99
451.997	19018.63
452.203	19180.42
452.409	19520.38
452.615	19469.19
452.821	18785.16
453.027	18398.1
453.233	19719.04
453.44	18650
453.646	18996.1
453.852	19071.88
454.058	19489.67
454.264	18721.68
454.47	19442.56
454.676	18678.67
454.882	19532.67
455.088	17724.32
455.294	18158.49
455.5	18103.19
455.705	18477.97
455.911	17855.39
456.117	17372.07
456.323	17216.42
456.529	16499.63
456.735	17257.38
456.941	16708.52
457.147	16221.11
457.352	15637.44
457.558	15823.8
457.764	15623.1
457.97	15567.81
458.176	15113.16
458.381	15084.48
458.587	14455.76
458.793	14511.05
458.999	13757.4
459.204	14580.68
459.41	14156.75
459.616	13124.58
459.821	13321.18
460.027	13356
460.233	12860.39
460.438	12334.06
460.644	12680.17
460.85	11877.37
461.055	11561.98
461.261	11564.03
461.466	10798.09
461.672	10402.83
461.878	11232.26
462.083	10581
462.289	10335.24
462.494	10263.57
462.7	9802.77
462.905	9581.59
463.111	9720.85
463.316	9784.34
463.522	9899.03
463.727	9692.18
463.932	9575.45
464.138	9421.85
464.343	9317.4
464.549	9198.62
464.754	9516.06
464.959	9413.66
465.165	9487.39
465.37	8916
465.575	8684.58
465.781	8938.53
465.986	9167.9
466.191	8737.83
466.397	8518.7
466.602	8408.11
466.807	8506.41
467.012	8641.57
467.218	8520.74
467.423	8434.73
467.628	8483.88
467.833	8954.91
468.038	8467.5
468.244	8088.62
468.449	8432.68
468.654	8211.5
468.859	8358.96
469.064	8283.18
