Data from USB4F104151__18__13-10-31-785.txt Node

Date: Fri Mar 14 13:10:31 EDT 2025
User: louis
Spectrometer: USB4F10415
Trigger mode: 4
Integration Time (sec): 2.000000E-2
Scans to average: 1
Electric dark correction enabled: true
Nonlinearity correction enabled: false
Boxcar width: 0
XAxis mode: Wavelengths
Number of Pixels in Spectrum: 3648
>>>>>Begin Spectral Data<<<<<
178.204	-124.58
178.424	-124.58
178.644	-124.58
178.864	-153.26
179.084	-120.49
179.304	16.73
179.524	-26.28
179.744	59.73
179.964	-16.04
180.184	41.3
180.404	-13.99
180.624	-16.04
180.844	18.77
181.064	-57
181.283	0.34
181.503	-46.76
181.723	39.25
181.943	-18.09
182.163	31.06
182.383	31.06
182.602	72.02
182.822	29.01
183.042	49.49
183.262	-24.23
183.482	2.39
183.701	59.73
183.921	22.87
184.141	-1.71
184.361	53.59
184.58	-3.75
184.8	-1.71
185.02	14.68
185.239	37.2
185.459	6.49
185.679	67.92
185.898	29.01
186.118	67.92
186.338	6.49
186.557	8.53
186.777	-32.43
186.997	20.82
187.216	94.55
187.436	18.77
187.655	10.58
187.875	31.06
188.095	22.87
188.314	59.73
188.534	26.96
188.753	88.4
188.973	33.11
189.192	117.08
189.412	6.49
189.631	39.25
189.851	10.58
190.07	39.25
190.29	35.16
190.509	2.39
190.729	4.44
190.948	37.2
191.168	119.12
191.387	67.92
191.607	41.3
191.826	84.31
192.045	-13.99
192.265	67.92
192.484	16.73
192.704	33.11
192.923	18.77
193.142	139.6
193.362	-22.19
193.581	51.54
193.8	-54.95
194.02	-1.71
194.239	63.83
194.458	39.25
194.678	49.49
194.897	35.16
195.116	-32.43
195.335	10.58
195.555	57.68
195.774	43.35
195.993	37.2
196.212	-26.28
196.432	12.63
196.651	33.11
196.87	96.6
197.089	86.36
197.308	33.11
197.528	59.73
197.747	33.11
197.966	47.44
198.185	24.92
198.404	-20.14
198.623	59.73
198.842	84.31
199.062	47.44
199.281	86.36
199.5	-63.15
199.719	-28.33
199.938	65.88
200.157	-20.14
200.376	102.74
200.595	37.2
200.814	31.06
201.033	-30.38
201.252	39.25
201.471	82.26
201.69	51.54
201.909	78.16
202.128	80.21
202.347	88.4
202.566	18.77
202.785	6.49
203.004	-13.99
203.223	104.79
203.442	76.12
203.661	69.97
203.879	22.87
204.098	31.06
204.317	31.06
204.536	76.12
204.755	69.97
204.974	51.54
205.193	-5.8
205.411	76.12
205.63	41.3
205.849	51.54
206.068	14.68
206.287	-32.43
206.505	72.02
206.724	16.73
206.943	12.63
207.162	2.39
207.381	-1.71
207.599	-16.04
207.818	33.11
208.037	14.68
208.255	16.73
208.474	2.39
208.693	-38.57
208.911	39.25
209.13	84.31
209.349	22.87
209.567	55.64
209.786	51.54
210.005	-28.33
210.223	29.01
210.442	-9.9
210.661	133.46
210.879	-32.43
211.098	80.21
211.316	37.2
211.535	-1.71
211.753	-22.19
211.972	-11.95
212.191	31.06
212.409	6.49
212.628	-46.76
212.846	-26.28
213.065	104.79
213.283	-28.33
213.502	33.11
213.72	31.06
213.938	24.92
214.157	59.73
214.375	88.4
214.594	2.39
214.812	31.06
215.031	14.68
215.249	0.34
215.467	-32.43
215.686	31.06
215.904	104.79
216.122	33.11
216.341	82.26
216.559	-32.43
216.778	20.82
216.996	61.78
217.214	-65.19
217.432	8.53
217.651	16.73
217.869	96.6
218.087	-5.8
218.306	-50.86
218.524	4.44
218.742	24.92
218.96	82.26
219.179	26.96
219.397	26.96
219.615	35.16
219.833	10.58
220.051	-22.19
220.27	55.64
220.488	-34.47
220.706	-26.28
220.924	24.92
221.142	22.87
221.36	72.02
221.578	41.3
221.796	55.64
222.015	8.53
222.233	16.73
222.451	82.26
222.669	-46.76
222.887	29.01
223.105	39.25
223.323	39.25
223.541	51.54
223.759	92.5
223.977	33.11
224.195	102.74
224.413	14.68
224.631	-9.9
224.849	-13.99
225.067	43.35
225.285	61.78
225.503	-34.47
225.721	-13.99
225.939	18.77
226.157	-16.04
226.375	102.74
226.592	35.16
226.81	20.82
227.028	51.54
227.246	92.5
227.464	59.73
227.682	-20.14
227.9	76.12
228.117	-7.85
228.335	22.87
228.553	-40.62
228.771	57.68
228.989	14.68
229.206	59.73
229.424	47.44
229.642	26.96
229.86	10.58
230.077	-3.75
230.295	-36.52
230.513	57.68
230.731	72.02
230.948	33.11
231.166	45.4
231.384	53.59
231.601	-26.28
231.819	72.02
232.037	-9.9
232.254	16.73
232.472	22.87
232.689	43.35
232.907	69.97
233.125	-22.19
233.342	4.44
233.56	-93.87
233.777	129.36
233.995	43.35
234.213	47.44
234.43	-75.43
234.648	-16.04
234.865	20.82
235.083	41.3
235.3	45.4
235.518	43.35
235.735	22.87
235.953	22.87
236.17	31.06
236.388	106.84
236.605	-5.8
236.822	-5.8
237.04	65.88
237.257	57.68
237.475	-9.9
237.692	6.49
237.909	18.77
238.127	43.35
238.344	51.54
238.562	-11.95
238.779	96.6
238.996	-32.43
239.214	-7.85
239.431	-57
239.648	45.4
239.865	-13.99
240.083	10.58
240.3	65.88
240.517	-20.14
240.735	72.02
240.952	98.64
241.169	-5.8
241.386	55.64
241.603	24.92
241.821	-5.8
242.038	33.11
242.255	18.77
242.472	45.4
242.689	80.21
242.907	82.26
243.124	24.92
243.341	-7.85
243.558	-9.9
243.775	6.49
243.992	37.2
244.209	-1.71
244.426	55.64
244.643	8.53
244.86	8.53
245.078	41.3
245.295	12.63
245.512	10.58
245.729	-71.34
245.946	-9.9
246.163	10.58
246.38	72.02
246.597	6.49
246.814	-7.85
247.031	53.59
247.248	24.92
247.464	-1.71
247.681	-13.99
247.898	35.16
248.115	61.78
248.332	22.87
248.549	41.3
248.766	39.25
248.983	92.5
249.2	6.49
249.417	22.87
249.633	37.2
249.85	76.12
250.067	-7.85
250.284	20.82
250.501	112.98
250.717	4.44
250.934	57.68
251.151	72.02
251.368	65.88
251.585	49.49
251.801	16.73
252.018	-7.85
252.235	14.68
252.451	26.96
252.668	-44.71
252.885	6.49
253.102	20.82
253.318	-40.62
253.535	22.87
253.752	-22.19
253.968	29.01
254.185	-71.34
254.401	88.4
254.618	47.44
254.835	-104.11
255.051	35.16
255.268	63.83
255.484	61.78
255.701	22.87
255.917	80.21
256.134	-18.09
256.351	31.06
256.567	14.68
256.784	39.25
257	26.96
257.217	74.07
257.433	41.3
257.65	29.01
257.866	65.88
258.082	-16.04
258.299	2.39
258.515	65.88
258.732	-20.14
258.948	22.87
259.165	74.07
259.381	14.68
259.597	-54.95
259.814	4.44
260.03	-3.75
260.246	96.6
260.463	72.02
260.679	108.88
260.895	45.4
261.112	0.34
261.328	4.44
261.544	8.53
261.761	63.83
261.977	49.49
262.193	-18.09
262.409	33.11
262.626	110.93
262.842	76.12
263.058	49.49
263.274	24.92
263.49	24.92
263.707	90.45
263.923	37.2
264.139	-67.24
264.355	80.21
264.571	-1.71
264.787	-22.19
265.004	45.4
265.22	-24.23
265.436	-9.9
265.652	-1.71
265.868	65.88
266.084	0.34
266.3	119.12
266.516	53.59
266.732	18.77
266.948	-1.71
267.164	67.92
267.38	31.06
267.596	-5.8
267.812	121.17
268.028	94.55
268.244	-11.95
268.46	72.02
268.676	26.96
268.892	35.16
269.108	137.56
269.324	55.64
269.54	-11.95
269.756	20.82
269.972	8.53
270.188	80.21
270.403	-26.28
270.619	35.16
270.835	41.3
271.051	63.83
271.267	37.2
271.483	-52.91
271.698	24.92
271.914	-40.62
272.13	47.44
272.346	-28.33
272.562	43.35
272.777	22.87
272.993	-36.52
273.209	-9.9
273.425	22.87
273.64	57.68
273.856	16.73
274.072	26.96
274.287	18.77
274.503	47.44
274.719	31.06
274.934	49.49
275.15	-59.05
275.366	41.3
275.581	-11.95
275.797	72.02
276.012	43.35
276.228	41.3
276.444	96.6
276.659	26.96
276.875	82.26
277.09	-3.75
277.306	33.11
277.521	47.44
277.737	2.39
277.952	31.06
278.168	22.87
278.383	29.01
278.599	-5.8
278.814	37.2
279.03	-48.81
279.245	29.01
279.461	51.54
279.676	76.12
279.892	41.3
280.107	-18.09
280.322	6.49
280.538	80.21
280.753	-7.85
280.969	-1.71
281.184	47.44
281.399	39.25
281.615	47.44
281.83	16.73
282.045	-22.19
282.26	14.68
282.476	45.4
282.691	39.25
282.906	-28.33
283.122	76.12
283.337	67.92
283.552	43.35
283.767	-38.57
283.983	43.35
284.198	-5.8
284.413	0.34
284.628	-34.47
284.843	-22.19
285.058	55.64
285.274	6.49
285.489	-7.85
285.704	-16.04
285.919	29.01
286.134	53.59
286.349	37.2
286.564	35.16
286.779	67.92
286.995	22.87
287.21	0.34
287.425	90.45
287.64	18.77
287.855	88.4
288.07	18.77
288.285	29.01
288.5	43.35
288.715	24.92
288.93	29.01
289.145	-16.04
289.36	119.12
289.575	0.34
289.79	102.74
290.004	35.16
290.219	63.83
290.434	-48.81
290.649	24.92
290.864	69.97
291.079	57.68
291.294	22.87
291.509	-22.19
291.724	41.3
291.938	-7.85
292.153	59.73
292.368	-1.71
292.583	29.01
292.798	29.01
293.012	112.98
293.227	16.73
293.442	72.02
293.657	8.53
293.871	145.75
294.086	-50.86
294.301	24.92
294.516	33.11
294.73	14.68
294.945	-42.67
295.16	57.68
295.374	37.2
295.589	26.96
295.804	65.88
296.018	31.06
296.233	-9.9
296.447	82.26
296.662	47.44
296.877	100.69
297.091	86.36
297.306	24.92
297.52	-11.95
297.735	96.6
297.949	84.31
298.164	-1.71
298.378	57.68
298.593	39.25
298.807	49.49
299.022	31.06
299.236	6.49
299.451	-9.9
299.665	43.35
299.88	14.68
300.094	-3.75
300.309	96.6
300.523	47.44
300.737	-24.23
300.952	51.54
301.166	72.02
301.381	90.45
301.595	47.44
301.809	10.58
302.024	90.45
302.238	16.73
302.452	-30.38
302.667	67.92
302.881	10.58
303.095	51.54
303.309	31.06
303.524	2.39
303.738	16.73
303.952	33.11
304.166	41.3
304.381	-54.95
304.595	18.77
304.809	80.21
305.023	20.82
305.237	24.92
305.452	-9.9
305.666	76.12
305.88	82.26
306.094	33.11
306.308	63.83
306.522	16.73
306.736	43.35
306.95	45.4
307.164	55.64
307.379	12.63
307.593	51.54
307.807	31.06
308.021	69.97
308.235	59.73
308.449	-40.62
308.663	47.44
308.877	47.44
309.091	37.2
309.305	127.32
309.519	24.92
309.733	112.98
309.947	-13.99
310.161	-1.71
310.374	-3.75
310.588	26.96
310.802	-24.23
311.016	-16.04
311.23	80.21
311.444	72.02
311.658	-42.67
311.872	20.82
312.085	84.31
312.299	14.68
312.513	55.64
312.727	53.59
312.941	14.68
313.154	63.83
313.368	47.44
313.582	86.36
313.796	26.96
314.009	39.25
314.223	90.45
314.437	88.4
314.651	63.83
314.864	-57
315.078	53.59
315.292	39.25
315.505	22.87
315.719	37.2
315.933	-22.19
316.146	-38.57
316.36	-9.9
316.573	72.02
316.787	65.88
317.001	51.54
317.214	-36.52
317.428	-9.9
317.641	53.59
317.855	31.06
318.068	55.64
318.282	12.63
318.495	49.49
318.709	0.34
318.922	18.77
319.136	72.02
319.349	55.64
319.563	31.06
319.776	57.68
319.99	-32.43
320.203	69.97
320.417	33.11
320.63	-7.85
320.843	90.45
321.057	-9.9
321.27	10.58
321.483	65.88
321.697	67.92
321.91	-11.95
322.124	-9.9
322.337	24.92
322.55	16.73
322.763	57.68
322.977	57.68
323.19	33.11
323.403	-16.04
323.617	8.53
323.83	69.97
324.043	76.12
324.256	35.16
324.469	29.01
324.683	65.88
324.896	29.01
325.109	63.83
325.322	-16.04
325.535	55.64
325.748	53.59
325.962	72.02
326.175	39.25
326.388	59.73
326.601	57.68
326.814	63.83
327.027	31.06
327.24	61.78
327.453	-54.95
327.666	86.36
327.879	110.93
328.092	72.02
328.305	16.73
328.518	-54.95
328.731	31.06
328.944	49.49
329.157	24.92
329.37	96.6
329.583	100.69
329.796	82.26
330.009	33.11
330.222	80.21
330.435	26.96
330.648	49.49
330.861	26.96
331.073	82.26
331.286	16.73
331.499	63.83
331.712	74.07
331.925	20.82
332.138	29.01
332.35	59.73
332.563	0.34
332.776	47.44
332.989	-24.23
333.202	12.63
333.414	41.3
333.627	6.49
333.84	-32.43
334.053	55.64
334.265	80.21
334.478	67.92
334.691	72.02
334.903	84.31
335.116	55.64
335.329	8.53
335.541	110.93
335.754	41.3
335.966	76.12
336.179	35.16
336.392	69.97
336.604	16.73
336.817	39.25
337.029	84.31
337.242	110.93
337.454	82.26
337.667	61.78
337.88	108.88
338.092	100.69
338.305	92.5
338.517	20.82
338.729	67.92
338.942	100.69
339.154	74.07
339.367	-1.71
339.579	63.83
339.792	16.73
340.004	31.06
340.217	-7.85
340.429	63.83
340.641	-40.62
340.854	45.4
341.066	-30.38
341.278	125.27
341.491	88.4
341.703	67.92
341.915	96.6
342.128	67.92
342.34	47.44
342.552	16.73
342.764	61.78
342.977	43.35
343.189	115.03
343.401	0.34
343.613	65.88
343.826	-11.95
344.038	55.64
344.25	10.58
344.462	-9.9
344.674	92.5
344.886	61.78
345.099	31.06
345.311	-50.86
345.523	69.97
345.735	-11.95
345.947	55.64
346.159	26.96
346.371	8.53
346.583	78.16
346.795	67.92
347.007	26.96
347.219	33.11
347.431	72.02
347.643	65.88
347.855	-18.09
348.067	31.06
348.279	39.25
348.491	43.35
348.703	151.89
348.915	26.96
349.127	69.97
349.339	12.63
349.551	47.44
349.763	100.69
349.975	49.49
350.187	80.21
350.399	74.07
350.61	63.83
350.822	0.34
351.034	0.34
351.246	2.39
351.458	55.64
351.669	-34.47
351.881	84.31
352.093	41.3
352.305	98.64
352.517	24.92
352.728	82.26
352.94	12.63
353.152	51.54
353.363	8.53
353.575	96.6
353.787	145.75
353.999	-34.47
354.21	72.02
354.422	-34.47
354.633	67.92
354.845	65.88
355.057	-7.85
355.268	104.79
355.48	16.73
355.692	29.01
355.903	69.97
356.115	72.02
356.326	-28.33
356.538	22.87
356.749	63.83
356.961	84.31
357.172	76.12
357.384	6.49
357.595	94.55
357.807	14.68
358.018	49.49
358.23	55.64
358.441	57.68
358.653	82.26
358.864	22.87
359.075	92.5
359.287	-5.8
359.498	129.36
359.709	72.02
359.921	6.49
360.132	31.06
360.344	45.4
360.555	-24.23
360.766	4.44
360.977	55.64
361.189	55.64
361.4	51.54
361.611	72.02
361.823	8.53
362.034	61.78
362.245	8.53
362.456	-24.23
362.667	80.21
362.879	22.87
363.09	18.77
363.301	88.4
363.512	61.78
363.723	24.92
363.935	80.21
364.146	69.97
364.357	16.73
364.568	31.06
364.779	90.45
364.99	35.16
365.201	22.87
365.412	37.2
365.623	-93.87
365.834	2.39
366.045	84.31
366.256	76.12
366.467	49.49
366.678	26.96
366.889	39.25
367.1	2.39
367.311	55.64
367.522	14.68
367.733	8.53
367.944	41.3
368.155	-18.09
368.366	41.3
368.577	65.88
368.788	92.5
368.999	31.06
369.209	18.77
369.42	96.6
369.631	80.21
369.842	59.73
370.053	29.01
370.264	47.44
370.474	-7.85
370.685	84.31
370.896	80.21
371.107	74.07
371.317	-5.8
371.528	49.49
371.739	63.83
371.95	-13.99
372.16	88.4
372.371	-42.67
372.582	72.02
372.792	67.92
373.003	24.92
373.214	35.16
373.424	78.16
373.635	-46.76
373.846	4.44
374.056	57.68
374.267	-50.86
374.477	-1.71
374.688	-3.75
374.898	53.59
375.109	4.44
375.319	72.02
375.53	88.4
375.74	57.68
375.951	49.49
376.161	96.6
376.372	-1.71
376.582	22.87
376.793	100.69
377.003	115.03
377.214	22.87
377.424	65.88
377.635	145.75
377.845	55.64
378.055	45.4
378.266	-1.71
378.476	59.73
378.686	6.49
378.897	69.97
379.107	135.51
379.317	72.02
379.528	14.68
379.738	47.44
379.948	45.4
380.158	31.06
380.369	94.55
380.579	24.92
380.789	65.88
380.999	31.06
381.21	26.96
381.42	96.6
381.63	43.35
381.84	55.64
382.05	72.02
382.261	49.49
382.471	14.68
382.681	51.54
382.891	18.77
383.101	14.68
383.311	61.78
383.521	59.73
383.731	61.78
383.941	76.12
384.151	53.59
384.361	53.59
384.571	80.21
384.781	41.3
384.991	39.25
385.201	123.22
385.411	84.31
385.621	8.53
385.831	94.55
386.041	74.07
386.251	-3.75
386.461	-11.95
386.671	84.31
386.881	47.44
387.091	80.21
387.301	16.73
387.511	149.84
387.72	37.2
387.93	39.25
388.14	53.59
388.35	139.6
388.56	14.68
388.769	139.6
388.979	63.83
389.189	65.88
389.399	55.64
389.609	-34.47
389.818	39.25
390.028	16.73
390.238	137.56
390.447	10.58
390.657	106.84
390.867	-9.9
391.076	80.21
391.286	69.97
391.496	12.63
391.705	51.54
391.915	102.74
392.125	43.35
392.334	26.96
392.544	55.64
392.753	22.87
392.963	78.16
393.172	14.68
393.382	100.69
393.591	104.79
393.801	14.68
394.01	86.36
394.22	74.07
394.429	65.88
394.639	80.21
394.848	29.01
395.058	65.88
395.267	143.7
395.477	94.55
395.686	45.4
395.895	55.64
396.105	80.21
396.314	41.3
396.524	88.4
396.733	74.07
396.942	108.88
397.152	129.36
397.361	84.31
397.57	88.4
397.78	166.23
397.989	80.21
398.198	115.03
398.407	67.92
398.617	72.02
398.826	147.8
399.035	115.03
399.244	67.92
399.453	63.83
399.663	110.93
399.872	125.27
400.081	98.64
400.29	162.13
400.499	86.36
400.708	155.99
400.917	117.08
401.127	117.08
401.336	137.56
401.545	67.92
401.754	153.94
401.963	115.03
402.172	39.25
402.381	90.45
402.59	78.16
402.799	164.18
403.008	145.75
403.217	108.88
403.426	133.46
403.635	78.16
403.844	115.03
404.053	131.41
404.262	98.64
404.471	153.94
404.68	137.56
404.888	164.18
405.097	57.68
405.306	158.03
405.515	147.8
405.724	143.7
405.933	168.27
406.142	76.12
406.35	104.79
406.559	100.69
406.768	98.64
406.977	192.85
407.185	217.43
407.394	174.42
407.603	162.13
407.812	174.42
408.02	121.17
408.229	223.57
408.438	166.23
408.646	213.33
408.855	227.67
409.064	233.81
409.272	215.38
409.481	221.52
409.69	203.09
409.898	287.06
410.107	268.63
410.315	334.16
410.524	317.78
410.733	242
410.941	239.95
411.15	313.68
411.358	336.21
411.567	334.16
411.775	334.16
411.984	350.54
412.192	397.65
412.401	444.75
412.609	362.83
412.818	346.45
413.026	457.04
413.234	409.94
413.443	475.47
413.651	426.32
413.86	457.04
414.068	409.94
414.276	551.24
414.485	487.76
414.693	571.72
414.901	674.12
415.11	508.24
415.318	567.63
415.526	661.84
415.734	627.02
415.943	655.69
416.151	713.03
416.359	645.45
416.567	770.38
416.776	696.65
416.984	852.3
417.192	801.1
417.4	780.62
417.608	819.53
417.817	852.3
418.025	893.26
418.233	1014.09
418.441	891.21
418.649	1040.71
418.857	1104.2
419.065	1098.05
419.273	1022.28
419.481	1106.24
419.689	1216.83
419.897	1212.74
420.105	1270.08
420.313	1286.47
420.521	1265.99
420.729	1472.83
420.937	1317.19
421.145	1435.97
421.353	1591.61
421.561	1671.48
421.769	1655.1
421.977	1640.76
422.185	1581.37
422.393	1863.99
422.601	1880.38
422.809	1909.05
423.017	1847.61
423.224	1943.86
423.432	2023.73
423.64	2163
423.848	2167.09
424.056	2214.2
424.263	2402.61
424.471	2300.21
424.679	2373.94
424.887	2474.29
425.094	2574.64
425.302	2677.04
425.51	2720.04
425.718	2720.04
425.925	2758.96
426.133	2922.79
426.341	3035.43
426.548	3203.36
426.756	3180.84
426.964	3283.24
427.171	3451.17
427.379	3627.29
427.586	3692.83
427.794	3758.36
428.001	3883.29
428.209	4223.25
428.417	4077.85
428.624	4235.54
428.832	4280.6
429.039	4290.84
429.247	4356.37
429.454	4616.46
429.662	4931.85
429.869	4657.42
430.076	5032.2
430.284	4839.69
430.491	5060.87
430.699	5376.26
430.906	5431.55
431.114	5449.99
431.321	5677.31
431.528	5765.37
431.736	6166.78
431.943	6299.89
432.15	6281.46
432.358	6144.25
432.565	6699.25
432.772	6695.15
432.979	6906.09
433.187	7069.93
433.394	7203.05
433.601	7575.78
433.808	7549.15
434.016	7401.7
434.223	7862.49
434.43	8192.22
434.637	8241.37
434.844	8804.56
435.052	8728.78
435.259	8614.1
435.466	8763.6
435.673	8683.73
435.88	9423.05
436.087	9785.54
436.294	9849.02
436.501	9806.02
436.708	9791.68
436.915	10324.15
437.122	10737.84
437.329	10614.96
437.537	10950.83
437.743	11061.42
437.95	11120.81
438.157	11647.14
438.364	12021.92
438.571	11925.66
438.778	12034.21
438.985	12900.5
439.192	12699.8
439.399	12912.78
439.606	12685.46
439.813	13557.89
440.02	14166.14
440.227	13867.14
440.433	13854.85
440.64	14424.19
440.847	14411.9
441.054	14696.57
441.261	15548.52
441.467	15464.55
441.674	15861.86
441.881	16277.6
442.088	16244.83
442.294	16089.18
442.501	16427.1
442.708	16736.34
442.914	17451.08
443.121	18331.71
443.328	17883.2
443.534	19122.23
443.741	18333.76
443.948	18321.47
444.154	19564.59
444.361	19531.82
444.568	19791.91
444.774	19585.07
444.981	19736.62
445.187	20504.6
445.394	21403.66
445.6	20914.2
445.807	23390.19
446.013	22433.79
446.22	22558.72
446.426	23252.98
446.633	23893.99
446.839	24696.8
447.046	23427.06
447.252	24844.25
447.459	24811.48
447.665	24803.29
447.871	26087.37
448.078	27072.44
448.284	25843.66
448.491	26165.19
448.697	27459.51
448.903	28086.18
449.11	27799.47
449.316	27801.52
449.522	28045.23
449.728	28770.21
449.935	29321.11
450.141	29151.13
450.347	29831.05
450.553	28899.23
450.76	29360.02
450.966	30404.49
451.172	29718.42
451.378	30936.96
451.584	30074.76
451.791	30984.06
451.997	30769.02
452.203	31315.83
452.409	31475.57
452.615	31422.33
452.821	30111.63
453.027	29624.21
453.233	31287.16
453.44	30439.3
453.646	30580.61
453.852	30650.24
454.058	31254.39
454.264	30134.15
454.47	31197.05
454.676	30304.13
454.882	31039.36
455.088	28200.87
455.294	28850.08
455.5	29560.72
455.705	29345.69
455.911	28845.98
456.117	27869.1
456.323	27699.12
456.529	26189.77
456.735	27602.86
456.941	26595.26
457.147	26263.49
457.352	25642.96
457.558	25300.95
457.764	25364.43
457.97	24752.09
458.176	24340.45
458.381	24373.22
458.587	22941.69
458.793	22851.58
458.999	21661.71
459.204	23617.52
459.41	23136.24
459.616	21542.92
459.821	21272.59
460.027	21116.95
460.233	20752.41
460.438	19961.89
460.644	19886.12
460.85	19212.34
461.055	18501.69
461.261	18812.98
461.466	17121.36
461.672	16838.74
461.878	18157.63
462.083	16889.94
462.289	16664.66
462.494	16224.35
462.7	15751.27
462.905	15245.42
463.111	15767.65
463.316	15865.96
463.522	15392.87
463.727	15439.98
463.932	15243.37
464.138	15384.68
464.343	15319.15
464.549	14710.9
464.754	15296.62
464.959	15134.83
465.165	15116.4
465.37	14678.13
465.575	14129.28
465.781	14620.79
465.986	14579.83
466.191	14231.68
466.397	13967.49
466.602	13131.92
466.807	13936.77
467.012	13637.77
467.218	13645.96
467.423	13717.64
467.628	13568.13
467.833	14143.61
468.038	13797.51
