Data from USB4F104151__57__13-11-44-038.txt Node

Date: Fri Mar 14 13:11:44 EDT 2025
User: louis
Spectrometer: USB4F10415
Trigger mode: 4
Integration Time (sec): 2.000000E-2
Scans to average: 1
Electric dark correction enabled: true
Nonlinearity correction enabled: false
Boxcar width: 0
XAxis mode: Wavelengths
Number of Pixels in Spectrum: 3648
>>>>>Begin Spectral Data<<<<<
178.204	-93.52
178.424	-93.52
178.644	-93.52
178.864	-77.14
179.084	-150.87
179.304	8.87
179.524	27.31
179.744	41.64
179.964	129.7
180.184	-34.13
180.404	45.74
180.624	-27.99
180.844	-114
181.064	-81.24
181.283	12.97
181.503	-23.89
181.723	15.02
181.943	10.92
182.163	41.64
182.383	58.03
182.602	4.78
182.822	15.02
183.042	49.83
183.262	29.35
183.482	31.4
183.701	45.74
183.921	4.78
184.141	17.07
184.361	-52.56
184.58	-1.37
184.8	72.36
185.02	37.55
185.239	37.55
185.459	70.31
185.679	94.89
185.898	-11.61
186.118	4.78
186.338	8.87
186.557	43.69
186.777	115.37
186.997	109.22
187.216	62.12
187.436	19.11
187.655	-3.41
187.875	111.27
188.095	70.31
188.314	8.87
188.534	29.35
188.753	15.02
188.973	8.87
189.192	58.03
189.412	55.98
189.631	96.94
189.851	17.07
190.07	41.64
190.29	33.45
190.509	-27.99
190.729	-5.46
190.948	80.55
191.168	111.27
191.387	113.32
191.607	12.97
191.826	129.7
192.045	76.46
192.265	21.16
192.484	82.6
192.704	60.07
192.923	-3.41
193.142	51.88
193.362	-3.41
193.581	49.83
193.8	17.07
194.02	-15.7
194.239	-40.28
194.458	-44.37
194.678	43.69
194.897	64.17
195.116	25.26
195.335	23.21
195.555	49.83
195.774	0.68
195.993	12.97
196.212	19.11
196.432	6.83
196.651	45.74
196.87	-25.94
197.089	98.99
197.308	41.64
197.528	-11.61
197.747	-58.71
197.966	60.07
198.185	45.74
198.404	10.92
198.623	84.65
198.842	-5.46
199.062	98.99
199.281	39.59
199.5	19.11
199.719	37.55
199.938	45.74
200.157	94.89
200.376	10.92
200.595	4.78
200.814	64.17
201.033	66.22
201.252	6.83
201.471	-27.99
201.69	15.02
201.909	-38.23
202.128	37.55
202.347	74.41
202.566	0.68
202.785	-56.66
203.004	4.78
203.223	23.21
203.442	-40.28
203.661	64.17
203.879	-9.56
204.098	6.83
204.317	33.45
204.536	27.31
204.755	125.61
204.974	94.89
205.193	82.6
205.411	107.18
205.63	29.35
205.849	15.02
206.068	-36.18
206.287	51.88
206.505	-15.7
206.724	94.89
206.943	-5.46
207.162	6.83
207.381	19.11
207.599	21.16
207.818	8.87
208.037	-50.52
208.255	-13.65
208.474	12.97
208.693	74.41
208.911	-11.61
209.13	4.78
209.349	29.35
209.567	17.07
209.786	31.4
210.005	55.98
210.223	6.83
210.442	86.7
210.661	-79.19
210.879	-3.41
211.098	4.78
211.316	51.88
211.535	88.75
211.753	78.51
211.972	64.17
212.191	37.55
212.409	68.27
212.628	-17.75
212.846	55.98
213.065	21.16
213.283	86.7
213.502	12.97
213.72	25.26
213.938	12.97
214.157	-36.18
214.375	23.21
214.594	-27.99
214.812	15.02
215.031	45.74
215.249	-9.56
215.467	-1.37
215.686	4.78
215.904	4.78
216.122	27.31
216.341	-3.41
216.559	23.21
216.778	29.35
216.996	29.35
217.214	-17.75
217.432	98.99
217.651	68.27
217.869	70.31
218.087	29.35
218.306	41.64
218.524	90.79
218.742	35.5
218.96	41.64
219.179	4.78
219.397	-40.28
219.615	80.55
219.833	29.35
220.051	17.07
220.27	-3.41
220.488	39.59
220.706	8.87
220.924	-56.66
221.142	64.17
221.36	45.74
221.578	-17.75
221.796	55.98
222.015	-1.37
222.233	-11.61
222.451	-42.32
222.669	-54.61
222.887	80.55
223.105	21.16
223.323	70.31
223.541	-19.8
223.759	55.98
223.977	84.65
224.195	74.41
224.413	45.74
224.631	72.36
224.849	58.03
225.067	103.08
225.285	21.16
225.503	86.7
225.721	37.55
225.939	4.78
226.157	94.89
226.375	21.16
226.592	-3.41
226.81	-3.41
227.028	49.83
227.246	62.12
227.464	-68.95
227.682	88.75
227.9	62.12
228.117	21.16
228.335	-1.37
228.553	-7.51
228.771	39.59
228.989	-30.04
229.206	43.69
229.424	86.7
229.642	6.83
229.86	23.21
230.077	45.74
230.295	25.26
230.513	88.75
230.731	35.5
230.948	62.12
231.166	64.17
231.384	58.03
231.601	-81.24
231.819	4.78
232.037	-3.41
232.254	-13.65
232.472	19.11
232.689	29.35
232.907	31.4
233.125	17.07
233.342	45.74
233.56	-56.66
233.777	33.45
233.995	66.22
234.213	37.55
234.43	6.83
234.648	92.84
234.865	70.31
235.083	41.64
235.3	-3.41
235.518	23.21
235.735	70.31
235.953	39.59
236.17	37.55
236.388	39.59
236.605	21.16
236.822	107.18
237.04	25.26
237.257	78.51
237.475	-36.18
237.692	-56.66
237.909	-21.85
238.127	47.79
238.344	6.83
238.562	17.07
238.779	17.07
238.996	62.12
239.214	35.5
239.431	6.83
239.648	58.03
239.865	80.55
240.083	37.55
240.3	17.07
240.517	29.35
240.735	-19.8
240.952	92.84
241.169	47.79
241.386	82.6
241.603	66.22
241.821	60.07
242.038	78.51
242.255	51.88
242.472	0.68
242.689	39.59
242.907	49.83
243.124	66.22
243.341	4.78
243.558	-44.37
243.775	72.36
243.992	-19.8
244.209	86.7
244.426	45.74
244.643	49.83
244.86	-9.56
245.078	51.88
245.295	58.03
245.512	12.97
245.729	-42.32
245.946	64.17
246.163	-17.75
246.38	-17.75
246.597	94.89
246.814	12.97
247.031	-73.04
247.248	76.46
247.464	4.78
247.681	115.37
247.898	76.46
248.115	88.75
248.332	-40.28
248.549	37.55
248.766	84.65
248.983	88.75
249.2	12.97
249.417	98.99
249.633	41.64
249.85	35.5
250.067	55.98
250.284	39.59
250.501	-7.51
250.717	64.17
250.934	86.7
251.151	58.03
251.368	-5.46
251.585	19.11
251.801	66.22
252.018	-1.37
252.235	39.59
252.451	31.4
252.668	21.16
252.885	74.41
253.102	76.46
253.318	66.22
253.535	-13.65
253.752	4.78
253.968	25.26
254.185	-44.37
254.401	12.97
254.618	47.79
254.835	62.12
255.051	115.37
255.268	62.12
255.484	21.16
255.701	90.79
255.917	84.65
256.134	-15.7
256.351	12.97
256.567	-34.13
256.784	37.55
257	80.55
257.217	88.75
257.433	78.51
257.65	39.59
257.866	-1.37
258.082	-34.13
258.299	-19.8
258.515	31.4
258.732	45.74
258.948	23.21
259.165	33.45
259.381	-5.46
259.597	23.21
259.814	39.59
260.03	-3.41
260.246	53.93
260.463	62.12
260.679	43.69
260.895	39.59
261.112	117.42
261.328	-44.37
261.544	72.36
261.761	17.07
261.977	15.02
262.193	-42.32
262.409	96.94
262.626	15.02
262.842	41.64
263.058	53.93
263.274	86.7
263.49	70.31
263.707	68.27
263.923	31.4
264.139	-54.61
264.355	6.83
264.571	27.31
264.787	-15.7
265.004	41.64
265.22	19.11
265.436	-15.7
265.652	4.78
265.868	-19.8
266.084	-13.65
266.3	55.98
266.516	-3.41
266.732	-21.85
266.948	25.26
267.164	98.99
267.38	49.83
267.596	60.07
267.812	45.74
268.028	10.92
268.244	37.55
268.46	-62.8
268.676	-21.85
268.892	53.93
269.108	-7.51
269.324	31.4
269.54	41.64
269.756	72.36
269.972	-23.89
270.188	4.78
270.403	-11.61
270.619	47.79
270.835	76.46
271.051	-7.51
271.267	45.74
271.483	47.79
271.698	53.93
271.914	80.55
272.13	35.5
272.346	45.74
272.562	-30.04
272.777	37.55
272.993	17.07
273.209	4.78
273.425	80.55
273.64	-19.8
273.856	39.59
274.072	-36.18
274.287	12.97
274.503	58.03
274.719	31.4
274.934	23.21
275.15	49.83
275.366	39.59
275.581	-36.18
275.797	53.93
276.012	0.68
276.228	8.87
276.444	-5.46
276.659	4.78
276.875	25.26
277.09	90.79
277.306	53.93
277.521	62.12
277.737	-42.32
277.952	-50.52
278.168	-17.75
278.383	23.21
278.599	41.64
278.814	121.51
279.03	29.35
279.245	66.22
279.461	-48.47
279.676	86.7
279.892	21.16
280.107	96.94
280.322	-7.51
280.538	15.02
280.753	47.79
280.969	76.46
281.184	-19.8
281.399	35.5
281.615	-38.23
281.83	37.55
282.045	80.55
282.26	45.74
282.476	-23.89
282.691	53.93
282.906	23.21
283.122	47.79
283.337	37.55
283.552	15.02
283.767	-21.85
283.983	98.99
284.198	-3.41
284.413	6.83
284.628	17.07
284.843	6.83
285.058	62.12
285.274	74.41
285.489	78.51
285.704	-1.37
285.919	12.97
286.134	-27.99
286.349	-77.14
286.564	12.97
286.779	105.13
286.995	10.92
287.21	-13.65
287.425	12.97
287.64	88.75
287.855	58.03
288.07	6.83
288.285	113.32
288.5	-17.75
288.715	-23.89
288.93	-85.33
289.145	96.94
289.36	144.04
289.575	55.98
289.79	86.7
290.004	21.16
290.219	62.12
290.434	29.35
290.649	53.93
290.864	64.17
291.079	43.69
291.294	21.16
291.509	0.68
291.724	66.22
291.938	-42.32
292.153	43.69
292.368	66.22
292.583	51.88
292.798	-19.8
293.012	-7.51
293.227	66.22
293.442	58.03
293.657	8.87
293.871	37.55
294.086	35.5
294.301	150.18
294.516	17.07
294.73	29.35
294.945	23.21
295.16	29.35
295.374	70.31
295.589	72.36
295.804	43.69
296.018	176.81
296.233	86.7
296.447	-9.56
296.662	0.68
296.877	70.31
297.091	21.16
297.306	-11.61
297.52	31.4
297.735	49.83
297.949	12.97
298.164	68.27
298.378	47.79
298.593	45.74
298.807	21.16
299.022	6.83
299.236	64.17
299.451	29.35
299.665	-11.61
299.88	41.64
300.094	53.93
300.309	15.02
300.523	72.36
300.737	43.69
300.952	35.5
301.166	6.83
301.381	-32.08
301.595	21.16
301.809	76.46
302.024	29.35
302.238	39.59
302.452	55.98
302.667	39.59
302.881	78.51
303.095	15.02
303.309	68.27
303.524	-34.13
303.738	21.16
303.952	-21.85
304.166	127.66
304.381	-60.76
304.595	21.16
304.809	49.83
305.023	-1.37
305.237	82.6
305.452	-36.18
305.666	64.17
305.88	53.93
306.094	68.27
306.308	-13.65
306.522	127.66
306.736	12.97
306.95	35.5
307.164	37.55
307.379	35.5
307.593	23.21
307.807	-19.8
308.021	2.73
308.235	101.03
308.449	-23.89
308.663	-19.8
308.877	84.65
309.091	-15.7
309.305	4.78
309.519	53.93
309.733	66.22
309.947	4.78
310.161	58.03
310.374	66.22
310.588	35.5
310.802	70.31
311.016	-19.8
311.23	39.59
311.444	-19.8
311.658	53.93
311.872	62.12
312.085	68.27
312.299	39.59
312.513	109.22
312.727	45.74
312.941	6.83
313.154	129.7
313.368	49.83
313.582	72.36
313.796	-1.37
314.009	-25.94
314.223	-36.18
314.437	45.74
314.651	17.07
314.864	4.78
315.078	0.68
315.292	25.26
315.505	4.78
315.719	47.79
315.933	29.35
316.146	15.02
316.36	2.73
316.573	107.18
316.787	72.36
317.001	35.5
317.214	35.5
317.428	66.22
317.641	-30.04
317.855	12.97
318.068	94.89
318.282	29.35
318.495	8.87
318.709	0.68
318.922	8.87
319.136	39.59
319.349	41.64
319.563	55.98
319.776	-7.51
319.99	33.45
320.203	96.94
320.417	21.16
320.63	129.7
320.843	66.22
321.057	92.84
321.27	37.55
321.483	-46.42
321.697	31.4
321.91	55.98
322.124	21.16
322.337	70.31
322.55	-34.13
322.763	29.35
322.977	-9.56
323.19	10.92
323.403	-21.85
323.617	23.21
323.83	-44.37
324.043	111.27
324.256	23.21
324.469	33.45
324.683	43.69
324.896	33.45
325.109	-62.8
325.322	47.79
325.535	37.55
325.748	70.31
325.962	-21.85
326.175	21.16
326.388	-27.99
326.601	53.93
326.814	17.07
327.027	2.73
327.24	68.27
327.453	-7.51
327.666	64.17
327.879	17.07
328.092	53.93
328.305	41.64
328.518	0.68
328.731	58.03
328.944	105.13
329.157	74.41
329.37	29.35
329.583	53.93
329.796	35.5
330.009	29.35
330.222	103.08
330.435	-1.37
330.648	23.21
330.861	45.74
331.073	17.07
331.286	82.6
331.499	70.31
331.712	15.02
331.925	33.45
332.138	17.07
332.35	60.07
332.563	21.16
332.776	90.79
332.989	55.98
333.202	66.22
333.414	-1.37
333.627	-9.56
333.84	25.26
334.053	68.27
334.265	6.83
334.478	37.55
334.691	-21.85
334.903	62.12
335.116	8.87
335.329	-52.56
335.541	129.7
335.754	72.36
335.966	-38.23
336.179	-48.47
336.392	70.31
336.604	-27.99
336.817	74.41
337.029	33.45
337.242	21.16
337.454	76.46
337.667	45.74
337.88	82.6
338.092	27.31
338.305	-17.75
338.517	39.59
338.729	64.17
338.942	90.79
339.154	-11.61
339.367	29.35
339.579	31.4
339.792	-17.75
340.004	25.26
340.217	-17.75
340.429	78.51
340.641	-3.41
340.854	-38.23
341.066	45.74
341.278	15.02
341.491	70.31
341.703	90.79
341.915	2.73
342.128	45.74
342.34	21.16
342.552	31.4
342.764	-17.75
342.977	39.59
343.189	78.51
343.401	-23.89
343.613	29.35
343.826	29.35
344.038	49.83
344.25	25.26
344.462	33.45
344.674	47.79
344.886	19.11
345.099	111.27
345.311	35.5
345.523	62.12
345.735	51.88
345.947	-1.37
346.159	29.35
346.371	88.75
346.583	8.87
346.795	70.31
347.007	45.74
347.219	39.59
347.431	6.83
347.643	21.16
347.855	68.27
348.067	64.17
348.279	-1.37
348.491	-3.41
348.703	17.07
348.915	12.97
349.127	96.94
349.339	74.41
349.551	49.83
349.763	37.55
349.975	78.51
350.187	39.59
350.399	172.71
350.61	-11.61
350.822	64.17
351.034	8.87
351.246	72.36
351.458	-25.94
351.669	121.51
351.881	60.07
352.093	25.26
352.305	80.55
352.517	86.7
352.728	39.59
352.94	-56.66
353.152	66.22
353.363	-17.75
353.575	66.22
353.787	60.07
353.999	68.27
354.21	74.41
354.422	-1.37
354.633	92.84
354.845	80.55
355.057	33.45
355.268	-1.37
355.48	80.55
355.692	29.35
355.903	33.45
356.115	45.74
356.326	-21.85
356.538	66.22
356.749	2.73
356.961	70.31
357.172	17.07
357.384	51.88
357.595	80.55
357.807	-17.75
358.018	-9.56
358.23	70.31
358.441	39.59
358.653	-3.41
358.864	2.73
359.075	76.46
359.287	-19.8
359.498	154.28
359.709	35.5
359.921	62.12
360.132	64.17
360.344	21.16
360.555	35.5
360.766	-25.94
360.977	53.93
361.189	76.46
361.4	53.93
361.611	60.07
361.823	10.92
362.034	62.12
362.245	70.31
362.456	-27.99
362.667	19.11
362.879	37.55
363.09	15.02
363.301	2.73
363.512	-25.94
363.723	-11.61
363.935	-19.8
364.146	70.31
364.357	92.84
364.568	12.97
364.779	62.12
364.99	66.22
365.201	74.41
365.412	12.97
365.623	29.35
365.834	94.89
366.045	27.31
366.256	109.22
366.467	6.83
366.678	-15.7
366.889	-1.37
367.1	8.87
367.311	41.64
367.522	-52.56
367.733	47.79
367.944	25.26
368.155	80.55
368.366	68.27
368.577	90.79
368.788	47.79
368.999	45.74
369.209	94.89
369.42	82.6
369.631	166.57
369.842	21.16
370.053	-9.56
370.264	49.83
370.474	53.93
370.685	15.02
370.896	17.07
371.107	53.93
371.317	90.79
371.528	12.97
371.739	62.12
371.95	25.26
372.16	49.83
372.371	72.36
372.582	39.59
372.792	119.46
373.003	70.31
373.214	51.88
373.424	-27.99
373.635	96.94
373.846	43.69
374.056	29.35
374.267	74.41
374.477	-11.61
374.688	-32.08
374.898	21.16
375.109	55.98
375.319	23.21
375.53	94.89
375.74	101.03
375.951	51.88
376.161	70.31
376.372	90.79
376.582	10.92
376.793	78.51
377.003	-5.46
377.214	-5.46
377.424	70.31
377.635	60.07
377.845	45.74
378.055	92.84
378.266	2.73
378.476	29.35
378.686	17.07
378.897	39.59
379.107	-15.7
379.317	64.17
379.528	23.21
379.738	101.03
379.948	19.11
380.158	152.23
380.369	6.83
380.579	-1.37
380.789	6.83
380.999	37.55
381.21	45.74
381.42	37.55
381.63	37.55
381.84	70.31
382.05	84.65
382.261	86.7
382.471	8.87
382.681	51.88
382.891	82.6
383.101	37.55
383.311	12.97
383.521	45.74
383.731	49.83
383.941	88.75
384.151	19.11
384.361	43.69
384.571	76.46
384.781	72.36
384.991	45.74
385.201	19.11
385.411	53.93
385.621	25.26
385.831	60.07
386.041	35.5
386.251	-56.66
386.461	82.6
386.671	60.07
386.881	70.31
387.091	62.12
387.301	12.97
387.511	70.31
387.72	47.79
387.93	33.45
388.14	37.55
388.35	121.51
388.56	45.74
388.769	43.69
388.979	37.55
389.189	10.92
389.399	21.16
389.609	33.45
389.818	-32.08
390.028	31.4
390.238	47.79
390.447	45.74
390.657	90.79
390.867	15.02
391.076	39.59
391.286	47.79
391.496	2.73
391.705	27.31
391.915	94.89
392.125	6.83
392.334	-21.85
392.544	94.89
392.753	53.93
392.963	72.36
393.172	43.69
393.382	62.12
393.591	111.27
393.801	37.55
394.01	113.32
394.22	31.4
394.429	-15.7
394.639	19.11
394.848	70.31
395.058	41.64
395.267	29.35
395.477	19.11
395.686	0.68
395.895	49.83
396.105	170.66
396.314	51.88
396.524	43.69
396.733	25.26
396.942	94.89
397.152	51.88
397.361	31.4
397.57	60.07
397.78	72.36
397.989	23.21
398.198	19.11
398.407	90.79
398.617	74.41
398.826	33.45
399.035	111.27
399.244	74.41
399.453	-3.41
399.663	62.12
399.872	88.75
400.081	39.59
400.29	70.31
400.499	74.41
400.708	-1.37
400.917	-15.7
401.127	41.64
401.336	72.36
401.545	111.27
401.754	86.7
401.963	117.42
402.172	66.22
402.381	55.98
402.59	12.97
402.799	96.94
403.008	49.83
403.217	94.89
403.426	45.74
403.635	21.16
403.844	90.79
404.053	66.22
404.262	101.03
404.471	33.45
404.68	107.18
404.888	113.32
405.097	45.74
405.306	78.51
405.515	82.6
405.724	103.08
405.933	117.42
406.142	113.32
406.35	156.33
406.559	62.12
406.768	133.8
406.977	76.46
407.185	117.42
407.394	117.42
407.603	-1.37
407.812	19.11
408.02	178.86
408.229	37.55
408.438	148.14
408.646	123.56
408.855	119.46
409.064	162.47
409.272	113.32
409.481	203.43
409.69	74.41
409.898	160.42
410.107	127.66
410.315	199.34
410.524	201.38
410.733	201.38
410.941	119.46
411.15	172.71
411.358	164.52
411.567	195.24
411.775	144.04
411.984	203.43
412.192	172.71
412.401	240.29
412.609	254.63
412.818	254.63
413.026	283.3
413.234	225.96
413.443	234.15
413.651	285.35
413.86	176.81
414.068	320.17
414.276	373.41
414.485	330.41
414.693	309.93
414.901	336.55
415.11	340.65
415.318	275.11
415.526	357.03
415.734	352.93
415.943	316.07
416.151	385.7
416.359	326.31
416.567	445.09
416.776	434.85
416.984	455.33
417.192	408.23
417.4	375.46
417.608	359.08
417.817	481.96
418.025	455.33
418.233	506.53
418.441	469.67
418.649	463.52
418.857	488.1
419.065	621.22
419.273	492.2
419.481	664.22
419.689	658.08
419.897	610.98
420.105	699.04
420.313	690.85
420.521	670.37
420.729	789.15
420.937	692.9
421.145	733.86
421.353	778.91
421.561	823.97
421.769	934.56
421.977	848.54
422.185	889.5
422.393	936.6
422.601	932.51
422.809	942.75
423.017	1012.38
423.224	1012.38
423.432	1120.92
423.64	1000.09
423.848	1120.92
424.056	1204.89
424.263	1170.07
424.471	1231.51
424.679	1264.28
424.887	1381.01
425.094	1403.54
425.302	1397.4
425.51	1407.64
425.718	1518.23
425.925	1383.06
426.133	1538.71
426.341	1669.78
426.548	1733.26
426.756	1733.26
426.964	1680.02
427.171	1780.37
427.379	1933.97
427.586	1856.14
427.794	1946.25
428.001	2065.04
428.209	2085.51
428.417	2019.98
428.624	2241.16
428.832	2321.03
429.039	2169.48
429.247	2165.39
429.454	2480.77
429.662	2558.6
429.869	2468.48
430.076	2681.47
430.284	2568.84
430.491	2644.61
430.699	2806.4
430.906	2855.55
431.114	2787.97
431.321	3031.68
431.528	3019.39
431.736	3150.46
431.943	3306.1
432.15	3158.65
432.358	3101.31
432.565	3357.3
432.772	3469.94
432.979	3621.49
433.187	3762.8
433.394	3715.7
433.601	3928.69
433.808	3869.3
434.016	3895.92
434.223	4178.54
434.43	4307.56
434.637	4235.88
434.844	4622.95
435.052	4653.67
435.259	4608.61
435.466	4700.77
435.673	4694.63
435.88	4891.23
436.087	5184.09
436.294	5157.47
436.501	5096.03
436.708	5251.67
436.915	5288.54
437.122	5515.86
437.329	5499.48
437.537	5771.86
437.743	5814.87
437.95	5853.78
438.157	6048.33
438.364	6294.09
438.571	6249.04
438.778	6154.83
438.985	6877.76
439.192	6654.53
439.399	6924.86
439.606	6832.71
439.813	7074.37
440.02	7623.22
440.227	7254.59
440.433	7420.47
440.64	7582.26
440.847	7483.96
441.054	7877.17
441.261	8264.24
441.467	8024.62
441.674	8323.63
441.881	8524.33
442.088	8561.19
442.294	8589.86
442.501	8686.12
442.708	8927.78
442.914	9290.27
443.121	9601.56
443.328	9456.15
443.534	10111.5
443.741	9607.7
443.948	9533.98
444.154	10383.88
444.361	10471.95
444.568	10453.52
444.774	10291.73
444.981	10490.38
445.187	10734.09
445.394	11145.73
445.6	11139.58
445.807	11997.68
446.013	11569.66
446.22	11788.79
446.426	12358.13
446.633	12208.62
446.839	12925.41
447.046	12147.19
447.252	12945.89
447.459	13195.75
447.665	13105.63
447.871	13775.32
448.078	14287.31
448.284	13427.17
448.491	13847
448.697	14330.32
448.903	14717.39
449.11	14840.26
449.316	14447.05
449.522	14875.08
449.728	15315.39
449.935	15516.09
450.141	15598.01
450.347	15509.95
450.553	15299.01
450.76	15557.05
450.966	15913.4
451.172	15638.97
451.378	16339.38
451.584	15645.12
451.791	16368.05
451.997	16271.79
452.203	16581.04
452.409	16646.57
452.615	16495.02
452.821	15821.24
453.027	15641.02
453.233	16441.78
453.44	15929.78
453.646	16073.14
453.852	16185.78
454.058	16714.16
454.264	16200.12
454.47	16275.89
454.676	16091.57
454.882	16345.52
455.088	15356.35
455.294	15331.78
455.5	15638.97
455.705	15856.06
455.911	15092.16
456.117	15032.77
456.323	14717.39
456.529	13947.35
456.735	14541.26
456.941	14131.67
457.147	13865.43
457.352	13504.99
457.558	13433.31
457.764	13353.44
457.97	13265.38
458.176	13027.81
458.381	12898.79
458.587	12331.5
458.793	12124.66
458.999	11633.15
459.204	12720.62
459.41	12075.51
459.616	11362.81
459.821	11334.14
460.027	11383.29
460.233	11067.91
460.438	10576.39
460.644	10801.67
460.85	10086.93
461.055	9871.89
461.261	10080.78
461.466	9296.41
461.672	9034.27
461.878	9650.71
462.083	9021.98
462.289	8794.66
462.494	8778.28
462.7	8442.41
462.905	7981.62
463.111	8385.07
463.316	8417.83
463.522	8100.4
463.727	8374.83
463.932	8223.28
464.138	8081.97
464.343	8059.44
464.549	7957.04
464.754	8108.59
464.959	8043.06
465.165	8133.17
465.37	7701.05
465.575	7410.23
465.781	7911.99
465.986	7776.82
466.191	7529.02
466.397	7397.95
466.602	7197.24
466.807	7359.03
467.012	7365.18
467.218	7273.02
467.423	7178.81
467.628	7100.99
467.833	7574.07
468.038	7293.5
468.244	7062.08
468.449	7311.93
468.654	6980.16
468.859	7041.6
469.064	6959.68
