Data from USB4F104151__8__13-10-21-067.txt Node

Date: Fri Mar 14 13:10:21 EDT 2025
User: louis
Spectrometer: USB4F10415
Trigger mode: 4
Integration Time (sec): 2.000000E-2
Scans to average: 1
Electric dark correction enabled: true
Nonlinearity correction enabled: false
Boxcar width: 0
XAxis mode: Wavelengths
Number of Pixels in Spectrum: 3648
>>>>>Begin Spectral Data<<<<<
178.204	-115.54
178.424	-115.54
178.644	-115.54
178.864	-142.16
179.084	-56.15
179.304	58.54
179.524	50.35
179.744	-21.33
179.964	-11.09
180.184	-68.44
180.404	7.34
180.624	15.53
180.844	17.58
181.064	3.24
181.283	40.11
181.503	-62.29
181.723	-29.52
181.943	1.19
182.163	13.48
182.383	9.39
182.602	-21.33
182.822	-23.38
183.042	38.06
183.262	-70.48
183.482	-41.81
183.701	-17.24
183.921	-2.9
184.141	-52.05
184.361	-47.96
184.58	44.2
184.8	70.83
185.02	5.29
185.239	21.67
185.459	27.82
185.679	50.35
185.898	-45.91
186.118	48.3
186.338	-35.67
186.557	1.19
186.777	13.48
186.997	-41.81
187.216	-80.72
187.436	70.83
187.655	31.91
187.875	-2.9
188.095	-19.29
188.314	72.87
188.534	130.22
188.753	-11.09
188.973	-17.24
189.192	81.07
189.412	-17.24
189.631	-29.52
189.851	62.63
190.07	-19.29
190.29	-37.72
190.509	5.29
190.729	3.24
190.948	-7
191.168	83.11
191.387	38.06
191.607	-23.38
191.826	50.35
192.045	1.19
192.265	46.25
192.484	38.06
192.704	76.97
192.923	27.82
193.142	79.02
193.362	9.39
193.581	99.5
193.8	44.2
194.02	95.4
194.239	17.58
194.458	72.87
194.678	62.63
194.897	-0.85
195.116	-68.44
195.335	44.2
195.555	-2.9
195.774	5.29
195.993	44.2
196.212	48.3
196.432	23.72
196.651	46.25
196.87	27.82
197.089	48.3
197.308	17.58
197.528	46.25
197.747	21.67
197.966	29.87
198.185	23.72
198.404	-27.48
198.623	83.11
198.842	89.26
199.062	97.45
199.281	70.83
199.5	54.44
199.719	58.54
199.938	-9.05
200.157	13.48
200.376	13.48
200.595	70.83
200.814	3.24
201.033	38.06
201.252	62.63
201.471	-43.86
201.69	83.11
201.909	105.64
202.128	58.54
202.347	7.34
202.566	5.29
202.785	33.96
203.004	-15.19
203.223	40.11
203.442	31.91
203.661	31.91
203.879	-2.9
204.098	38.06
204.317	60.59
204.536	40.11
204.755	-31.57
204.974	7.34
205.193	54.44
205.411	74.92
205.63	-13.14
205.849	52.39
206.068	54.44
206.287	-45.91
206.505	48.3
206.724	58.54
206.943	60.59
207.162	5.29
207.381	42.15
207.599	5.29
207.818	-50
208.037	-11.09
208.255	-11.09
208.474	29.87
208.693	54.44
208.911	-13.14
209.13	66.73
209.349	87.21
209.567	1.19
209.786	23.72
210.005	62.63
210.223	70.83
210.442	-25.43
210.661	-23.38
210.879	42.15
211.098	-25.43
211.316	-2.9
211.535	31.91
211.753	-15.19
211.972	29.87
212.191	25.77
212.409	-27.48
212.628	74.92
212.846	-31.57
213.065	40.11
213.283	70.83
213.502	-0.85
213.72	29.87
213.938	56.49
214.157	9.39
214.375	64.68
214.594	17.58
214.812	87.21
215.031	23.72
215.249	-17.24
215.467	31.91
215.686	91.31
215.904	31.91
216.122	-23.38
216.341	38.06
216.559	70.83
216.778	27.82
216.996	9.39
217.214	-76.63
217.432	36.01
217.651	19.63
217.869	89.26
218.087	21.67
218.306	-35.67
218.524	-4.95
218.742	52.39
218.96	-13.14
219.179	44.2
219.397	-17.24
219.615	138.41
219.833	91.31
220.051	54.44
220.27	27.82
220.488	91.31
220.706	42.15
220.924	-31.57
221.142	58.54
221.36	66.73
221.578	-0.85
221.796	-76.63
222.015	-11.09
222.233	17.58
222.451	81.07
222.669	21.67
222.887	19.63
223.105	9.39
223.323	-41.81
223.541	31.91
223.759	72.87
223.977	-13.14
224.195	38.06
224.413	58.54
224.631	38.06
224.849	-41.81
225.067	91.31
225.285	-37.72
225.503	-21.33
225.721	21.67
225.939	46.25
226.157	-31.57
226.375	58.54
226.592	60.59
226.81	-11.09
227.028	40.11
227.246	31.91
227.464	-11.09
227.682	48.3
227.9	89.26
228.117	29.87
228.335	23.72
228.553	-4.95
228.771	15.53
228.989	-2.9
229.206	29.87
229.424	52.39
229.642	27.82
229.86	7.34
230.077	56.49
230.295	-19.29
230.513	15.53
230.731	17.58
230.948	5.29
231.166	48.3
231.384	62.63
231.601	58.54
231.819	50.35
232.037	-11.09
232.254	23.72
232.472	38.06
232.689	17.58
232.907	58.54
233.125	17.58
233.342	-7
233.56	-4.95
233.777	15.53
233.995	76.97
234.213	138.41
234.43	-33.62
234.648	122.02
234.865	21.67
235.083	81.07
235.3	38.06
235.518	72.87
235.735	5.29
235.953	33.96
236.17	-29.52
236.388	9.39
236.605	1.19
236.822	9.39
237.04	87.21
237.257	-9.05
237.475	44.2
237.692	46.25
237.909	9.39
238.127	79.02
238.344	56.49
238.562	-7
238.779	-19.29
238.996	54.44
239.214	1.19
239.431	50.35
239.648	-33.62
239.865	46.25
240.083	-4.95
240.3	-0.85
240.517	5.29
240.735	-4.95
240.952	60.59
241.169	23.72
241.386	7.34
241.603	21.67
241.821	-2.9
242.038	79.02
242.255	-2.9
242.472	-35.67
242.689	64.68
242.907	7.34
243.124	17.58
243.341	83.11
243.558	-31.57
243.775	48.3
243.992	44.2
244.209	54.44
244.426	62.63
244.643	29.87
244.86	-4.95
245.078	42.15
245.295	17.58
245.512	-37.72
245.729	-43.86
245.946	54.44
246.163	-7
246.38	58.54
246.597	54.44
246.814	81.07
247.031	44.2
247.248	21.67
247.464	27.82
247.681	-19.29
247.898	21.67
248.115	29.87
248.332	56.49
248.549	85.16
248.766	13.48
248.983	95.4
249.2	68.78
249.417	-25.43
249.633	3.24
249.85	36.01
250.067	5.29
250.284	87.21
250.501	64.68
250.717	56.49
250.934	56.49
251.151	50.35
251.368	-0.85
251.585	17.58
251.801	48.3
252.018	15.53
252.235	107.69
252.451	-35.67
252.668	-33.62
252.885	50.35
253.102	25.77
253.318	-2.9
253.535	54.44
253.752	83.11
253.968	107.69
254.185	-58.2
254.401	27.82
254.618	81.07
254.835	70.83
255.051	9.39
255.268	44.2
255.484	9.39
255.701	25.77
255.917	23.72
256.134	-11.09
256.351	-2.9
256.567	-25.43
256.784	27.82
257	15.53
257.217	29.87
257.433	79.02
257.65	54.44
257.866	107.69
258.082	23.72
258.299	23.72
258.515	56.49
258.732	1.19
258.948	-15.19
259.165	76.97
259.381	-33.62
259.597	97.45
259.814	38.06
260.03	-35.67
260.246	15.53
260.463	79.02
260.679	13.48
260.895	87.21
261.112	15.53
261.328	25.77
261.544	-2.9
261.761	64.68
261.977	54.44
262.193	-37.72
262.409	13.48
262.626	7.34
262.842	-31.57
263.058	-35.67
263.274	5.29
263.49	83.11
263.707	48.3
263.923	-9.05
264.139	31.91
264.355	13.48
264.571	21.67
264.787	97.45
265.004	87.21
265.22	46.25
265.436	76.97
265.652	38.06
265.868	29.87
266.084	13.48
266.3	62.63
266.516	23.72
266.732	97.45
266.948	-39.76
267.164	15.53
267.38	1.19
267.596	17.58
267.812	48.3
268.028	81.07
268.244	-43.86
268.46	-9.05
268.676	40.11
268.892	-23.38
269.108	33.96
269.324	-4.95
269.54	-11.09
269.756	-0.85
269.972	9.39
270.188	64.68
270.403	13.48
270.619	-88.92
270.835	52.39
271.051	-7
271.267	83.11
271.483	50.35
271.698	36.01
271.914	21.67
272.13	40.11
272.346	40.11
272.562	-2.9
272.777	52.39
272.993	29.87
273.209	-0.85
273.425	99.5
273.64	33.96
273.856	9.39
274.072	50.35
274.287	11.43
274.503	27.82
274.719	42.15
274.934	7.34
275.15	-31.57
275.366	31.91
275.581	1.19
275.797	54.44
276.012	42.15
276.228	21.67
276.444	17.58
276.659	83.11
276.875	-70.48
277.09	25.77
277.306	33.96
277.521	-21.33
277.737	21.67
277.952	81.07
278.168	-13.14
278.383	-0.85
278.599	44.2
278.814	58.54
279.03	44.2
279.245	-15.19
279.461	58.54
279.676	-0.85
279.892	95.4
280.107	58.54
280.322	-21.33
280.538	-11.09
280.753	-21.33
280.969	83.11
281.184	17.58
281.399	83.11
281.615	-25.43
281.83	58.54
282.045	7.34
282.26	40.11
282.476	15.53
282.691	70.83
282.906	-19.29
283.122	9.39
283.337	13.48
283.552	85.16
283.767	83.11
283.983	31.91
284.198	5.29
284.413	132.26
284.628	-4.95
284.843	95.4
285.058	54.44
285.274	36.01
285.489	-19.29
285.704	31.91
285.919	83.11
286.134	25.77
286.349	31.91
286.564	15.53
286.779	60.59
286.995	1.19
287.21	9.39
287.425	42.15
287.64	52.39
287.855	15.53
288.07	36.01
288.285	38.06
288.5	50.35
288.715	60.59
288.93	54.44
289.145	62.63
289.36	111.78
289.575	13.48
289.79	66.73
290.004	29.87
290.219	70.83
290.434	-31.57
290.649	29.87
290.864	83.11
291.079	9.39
291.294	17.58
291.509	5.29
291.724	11.43
291.938	-29.52
292.153	42.15
292.368	122.02
292.583	11.43
292.798	50.35
293.012	29.87
293.227	62.63
293.442	-25.43
293.657	40.11
293.871	23.72
294.086	21.67
294.301	87.21
294.516	11.43
294.73	64.68
294.945	-62.29
295.16	-11.09
295.374	38.06
295.589	46.25
295.804	17.58
296.018	89.26
296.233	79.02
296.447	119.98
296.662	-33.62
296.877	-19.29
297.091	13.48
297.306	-9.05
297.52	21.67
297.735	33.96
297.949	13.48
298.164	27.82
298.378	5.29
298.593	70.83
298.807	44.2
299.022	15.53
299.236	64.68
299.451	33.96
299.665	-0.85
299.88	79.02
300.094	-4.95
300.309	64.68
300.523	25.77
300.737	3.24
300.952	52.39
301.166	13.48
301.381	29.87
301.595	56.49
301.809	-2.9
302.024	31.91
302.238	15.53
302.452	36.01
302.667	-2.9
302.881	99.5
303.095	119.98
303.309	122.02
303.524	-41.81
303.738	21.67
303.952	27.82
304.166	58.54
304.381	-29.52
304.595	29.87
304.809	50.35
305.023	17.58
305.237	-31.57
305.452	60.59
305.666	-15.19
305.88	56.49
306.094	87.21
306.308	62.63
306.522	13.48
306.736	1.19
306.95	23.72
307.164	58.54
307.379	68.78
307.593	56.49
307.807	17.58
308.021	54.44
308.235	85.16
308.449	42.15
308.663	1.19
308.877	7.34
309.091	52.39
309.305	31.91
309.519	-54.1
309.733	115.88
309.947	-11.09
310.161	40.11
310.374	58.54
310.588	33.96
310.802	-17.24
311.016	54.44
311.23	5.29
311.444	-31.57
311.658	21.67
311.872	76.97
312.085	42.15
312.299	66.73
312.513	40.11
312.727	17.58
312.941	-11.09
313.154	-2.9
313.368	72.87
313.582	-19.29
313.796	-9.05
314.009	5.29
314.223	85.16
314.437	113.83
314.651	58.54
314.864	101.55
315.078	-0.85
315.292	40.11
315.505	38.06
315.719	79.02
315.933	-47.96
316.146	-11.09
316.36	-33.62
316.573	124.07
316.787	-4.95
317.001	56.49
317.214	11.43
317.428	60.59
317.641	23.72
317.855	62.63
318.068	54.44
318.282	130.22
318.495	87.21
318.709	83.11
318.922	27.82
319.136	74.92
319.349	29.87
319.563	17.58
319.776	64.68
319.99	-31.57
320.203	111.78
320.417	13.48
320.63	60.59
320.843	74.92
321.057	23.72
321.27	85.16
321.483	68.78
321.697	48.3
321.91	21.67
322.124	-27.48
322.337	46.25
322.55	-15.19
322.763	56.49
322.977	40.11
323.19	-29.52
323.403	-2.9
323.617	1.19
323.83	85.16
324.043	54.44
324.256	87.21
324.469	-54.1
324.683	9.39
324.896	11.43
325.109	44.2
325.322	-11.09
325.535	33.96
325.748	85.16
325.962	62.63
326.175	-2.9
326.388	58.54
326.601	-35.67
326.814	36.01
327.027	83.11
327.24	62.63
327.453	48.3
327.666	27.82
327.879	83.11
328.092	72.87
328.305	81.07
328.518	-60.24
328.731	56.49
328.944	-11.09
329.157	11.43
329.37	33.96
329.583	81.07
329.796	70.83
330.009	56.49
330.222	72.87
330.435	13.48
330.648	97.45
330.861	64.68
331.073	54.44
331.286	27.82
331.499	-23.38
331.712	56.49
331.925	40.11
332.138	70.83
332.35	89.26
332.563	-0.85
332.776	97.45
332.989	54.44
333.202	107.69
333.414	27.82
333.627	48.3
333.84	-9.05
334.053	70.83
334.265	-2.9
334.478	79.02
334.691	-29.52
334.903	1.19
335.116	-60.24
335.329	91.31
335.541	29.87
335.754	38.06
335.966	72.87
336.179	23.72
336.392	-33.62
336.604	42.15
336.817	-25.43
337.029	-31.57
337.242	70.83
337.454	11.43
337.667	62.63
337.88	95.4
338.092	50.35
338.305	70.83
338.517	-0.85
338.729	113.83
338.942	68.78
339.154	48.3
339.367	25.77
339.579	87.21
339.792	7.34
340.004	128.17
340.217	-13.14
340.429	58.54
340.641	83.11
340.854	40.11
341.066	-23.38
341.278	64.68
341.491	36.01
341.703	-23.38
341.915	7.34
342.128	42.15
342.34	70.83
342.552	27.82
342.764	17.58
342.977	-11.09
343.189	31.91
343.401	42.15
343.613	-11.09
343.826	113.83
344.038	27.82
344.25	25.77
344.462	21.67
344.674	68.78
344.886	15.53
345.099	87.21
345.311	33.96
345.523	23.72
345.735	-4.95
345.947	42.15
346.159	-25.43
346.371	105.64
346.583	-0.85
346.795	44.2
347.007	21.67
347.219	15.53
347.431	15.53
347.643	42.15
347.855	5.29
348.067	60.59
348.279	7.34
348.491	38.06
348.703	29.87
348.915	52.39
349.127	-21.33
349.339	56.49
349.551	13.48
349.763	85.16
349.975	19.63
350.187	122.02
350.399	79.02
350.61	64.68
350.822	68.78
351.034	144.55
351.246	-4.95
351.458	83.11
351.669	46.25
351.881	19.63
352.093	19.63
352.305	79.02
352.517	115.88
352.728	62.63
352.94	36.01
353.152	70.83
353.363	-2.9
353.575	42.15
353.787	91.31
353.999	15.53
354.21	21.67
354.422	23.72
354.633	5.29
354.845	33.96
355.057	40.11
355.268	111.78
355.48	105.64
355.692	74.92
355.903	-0.85
356.115	40.11
356.326	-72.53
356.538	72.87
356.749	48.3
356.961	7.34
357.172	13.48
357.384	33.96
357.595	134.31
357.807	76.97
358.018	27.82
358.23	105.64
358.441	42.15
358.653	103.59
358.864	5.29
359.075	23.72
359.287	109.74
359.498	54.44
359.709	79.02
359.921	54.44
360.132	64.68
360.344	87.21
360.555	58.54
360.766	17.58
360.977	11.43
361.189	138.41
361.4	1.19
361.611	74.92
361.823	81.07
362.034	66.73
362.245	-17.24
362.456	72.87
362.667	15.53
362.879	62.63
363.09	74.92
363.301	79.02
363.512	64.68
363.723	62.63
363.935	38.06
364.146	66.73
364.357	68.78
364.568	33.96
364.779	-11.09
364.99	81.07
365.201	25.77
365.412	25.77
365.623	33.96
365.834	107.69
366.045	54.44
366.256	83.11
366.467	46.25
366.678	-17.24
366.889	31.91
367.1	42.15
367.311	54.44
367.522	74.92
367.733	97.45
367.944	50.35
368.155	52.39
368.366	111.78
368.577	38.06
368.788	21.67
368.999	48.3
369.209	66.73
369.42	162.98
369.631	111.78
369.842	64.68
370.053	-19.29
370.264	54.44
370.474	31.91
370.685	79.02
370.896	44.2
371.107	72.87
371.317	66.73
371.528	33.96
371.739	83.11
371.95	-41.81
372.16	122.02
372.371	25.77
372.582	74.92
372.792	117.93
373.003	-11.09
373.214	76.97
373.424	15.53
373.635	48.3
373.846	74.92
374.056	-23.38
374.267	48.3
374.477	-9.05
374.688	36.01
374.898	64.68
375.109	103.59
375.319	15.53
375.53	128.17
375.74	81.07
375.951	9.39
376.161	128.17
376.372	91.31
376.582	40.11
376.793	70.83
377.003	36.01
377.214	46.25
377.424	89.26
377.635	13.48
377.845	97.45
378.055	85.16
378.266	62.63
378.476	70.83
378.686	-27.48
378.897	79.02
379.107	38.06
379.317	138.41
379.528	46.25
379.738	40.11
379.948	97.45
380.158	76.97
380.369	19.63
380.579	85.16
380.789	40.11
380.999	-13.14
381.21	17.58
381.42	70.83
381.63	-50
381.84	25.77
382.05	7.34
382.261	91.31
382.471	95.4
382.681	68.78
382.891	74.92
383.101	64.68
383.311	44.2
383.521	29.87
383.731	79.02
383.941	134.31
384.151	50.35
384.361	54.44
384.571	87.21
384.781	70.83
384.991	128.17
385.201	99.5
385.411	-11.09
385.621	56.49
385.831	7.34
386.041	21.67
386.251	87.21
386.461	70.83
386.671	62.63
386.881	79.02
387.091	46.25
387.301	130.22
387.511	52.39
387.72	56.49
387.93	1.19
388.14	42.15
388.35	56.49
388.56	93.35
388.769	95.4
388.979	62.63
389.189	95.4
389.399	-23.38
389.609	58.54
389.818	122.02
390.028	62.63
390.238	87.21
390.447	85.16
390.657	13.48
390.867	54.44
391.076	29.87
391.286	70.83
391.496	9.39
391.705	25.77
391.915	128.17
392.125	76.97
392.334	15.53
392.544	3.24
392.753	21.67
392.963	48.3
393.172	42.15
393.382	-7
393.591	126.12
393.801	109.74
394.01	70.83
394.22	122.02
394.429	50.35
394.639	165.03
394.848	150.7
395.058	21.67
395.267	76.97
395.477	111.78
395.686	152.74
395.895	48.3
396.105	128.17
396.314	228.52
396.524	85.16
396.733	124.07
396.942	48.3
397.152	167.08
397.361	113.83
397.57	54.44
397.78	136.36
397.989	31.91
398.198	115.88
398.407	136.36
398.617	126.12
398.826	99.5
399.035	128.17
399.244	154.79
399.453	115.88
399.663	154.79
399.872	160.94
400.081	156.84
400.29	117.93
400.499	109.74
400.708	148.65
400.917	25.77
401.127	124.07
401.336	89.26
401.545	134.31
401.754	154.79
401.963	81.07
402.172	138.41
402.381	111.78
402.59	89.26
402.799	128.17
403.008	201.9
403.217	130.22
403.426	99.5
403.635	70.83
403.844	140.46
404.053	103.59
404.262	150.7
404.471	210.09
404.68	111.78
404.888	187.56
405.097	130.22
405.306	218.28
405.515	111.78
405.724	167.08
405.933	189.61
406.142	165.03
406.35	203.94
406.559	242.85
406.768	269.48
406.977	177.32
407.185	201.9
407.394	187.56
407.603	158.89
407.812	203.94
408.02	316.58
408.229	251.05
408.438	267.43
408.646	175.27
408.855	267.43
409.064	316.58
409.272	236.71
409.481	375.97
409.69	242.85
409.898	230.57
410.107	226.47
410.315	267.43
410.524	392.36
410.733	443.56
410.941	410.79
411.15	373.92
411.358	359.59
411.567	396.45
411.775	390.31
411.984	439.46
412.192	541.86
412.401	482.47
412.609	437.41
412.818	513.19
413.026	552.1
413.234	531.62
413.443	529.57
413.651	570.53
413.86	570.53
414.068	545.95
414.276	611.49
414.485	558.24
414.693	654.5
414.901	648.35
415.11	705.7
415.318	720.03
415.526	806.05
415.734	779.42
415.943	777.37
416.151	873.63
416.359	873.63
416.567	867.49
416.776	851.1
416.984	947.36
417.192	1047.71
417.4	1137.82
417.608	988.32
417.817	1096.86
418.025	1135.77
418.233	1205.4
418.441	1184.92
418.649	1221.78
418.857	1256.6
419.065	1303.7
419.273	1334.42
419.481	1397.91
419.689	1457.3
419.897	1537.17
420.105	1635.47
420.313	1528.98
420.521	1631.38
420.729	1754.26
420.937	1748.11
421.145	1846.41
421.353	1891.47
421.561	2016.4
421.769	2006.16
421.977	2196.62
422.185	2106.51
422.393	2241.67
422.601	2432.13
422.809	2309.26
423.017	2301.06
423.224	2350.21
423.432	2581.64
423.64	2573.44
423.848	2831.49
424.056	2727.04
424.263	2933.89
424.471	2858.11
424.679	2980.99
424.887	3275.9
425.094	3206.27
425.302	3306.62
425.51	3458.17
425.718	3546.23
425.925	3480.69
426.133	3570.8
426.341	3808.37
426.548	4138.09
426.756	3968.11
426.964	4185.19
427.171	4324.46
427.379	4482.15
427.586	4506.73
427.794	4815.97
428.001	4928.61
428.209	4912.22
428.417	4916.32
428.624	5506.13
428.832	5346.39
429.039	5340.25
429.247	5383.26
429.454	5782.61
429.662	5997.65
429.869	5801.04
430.076	6198.35
430.284	6179.92
430.491	6306.89
430.699	6730.82
430.906	6808.64
431.114	6921.28
431.321	7081.02
431.528	7359.55
431.736	7836.72
431.943	7967.79
432.15	7838.77
432.358	7982.13
432.565	8393.77
432.772	8264.75
432.979	8617
433.187	8838.18
433.394	8877.09
433.601	9491.48
433.808	9548.82
434.016	9499.67
434.223	9985.04
434.43	10486.79
434.637	10415.12
434.844	10785.8
435.052	11299.84
435.259	10935.3
435.466	11117.57
435.673	11179.01
435.88	11801.59
436.087	12428.27
436.294	12497.9
436.501	12311.53
436.708	12622.83
436.915	12956.64
437.122	13237.22
437.329	13351.9
437.537	13575.13
437.743	14062.55
437.95	13980.63
438.157	14566.35
438.364	15324.1
438.571	15117.25
438.778	15170.5
438.985	16542.64
439.192	16079.8
439.399	16286.64
439.606	16110.52
439.813	17056.68
440.02	18232.21
440.227	17599.39
440.433	17294.24
440.64	18158.49
440.847	18379.67
441.054	18467.73
441.261	19811.2
441.467	19598.21
441.674	19966.84
441.881	20597.62
442.088	20532.08
442.294	20403.06
442.501	20855.66
442.708	21472.1
442.914	22262.61
443.121	23116.62
443.328	22590.29
443.534	24060.73
443.741	23481.16
443.948	22860.62
444.154	24752.94
444.361	24404.79
444.568	24972.08
444.774	24703.79
444.981	25168.68
445.187	26260.25
445.394	26895.12
445.6	26845.97
445.807	29135.6
446.013	27982.59
446.22	28709.62
446.426	29532.9
446.633	30022.37
446.839	30837.46
447.046	29809.38
447.252	31245.01
447.459	31386.32
447.665	31269.58
447.871	32477.88
448.078	34294.43
448.284	32254.65
448.491	33110.71
448.697	34749.08
448.903	35082.9
449.11	35367.57
449.316	34874.01
449.522	35799.69
449.728	36647.55
449.935	36870.78
450.141	36928.12
450.347	37487.21
450.553	36168.32
450.76	36803.19
450.966	37892.71
451.172	37761.64
451.378	38726.24
451.584	38105.7
451.791	38931.03
451.997	38769.24
452.203	39494.22
452.409	39299.67
452.615	39600.72
452.821	38085.22
453.027	37724.78
453.233	39494.22
453.44	38259.3
453.646	38382.18
453.852	38605.41
454.058	39305.81
454.264	37773.93
454.47	39385.68
454.676	37689.96
454.882	39455.31
455.088	36037.25
455.294	36457.09
455.5	36981.37
455.705	37440.11
455.911	35949.19
456.117	35832.46
456.323	34886.29
456.529	33192.62
456.735	34669.21
456.941	33508.01
457.147	33591.98
457.352	32324.29
457.558	31992.51
457.764	32129.73
457.97	31654.6
458.176	30642.9
458.381	31066.83
458.587	29342.44
458.793	29221.61
458.999	27532.04
459.204	29700.84
459.41	28943.09
459.616	27024.14
459.821	27007.76
460.027	26891.02
460.233	26594.07
460.438	25058.09
460.644	25514.79
460.85	24324.92
461.055	23944
461.261	23817.02
461.466	22053.72
461.672	21468
461.878	22913.87
462.083	21480.29
462.289	20980.59
462.494	20718.45
462.7	19841.92
462.905	19321.73
463.111	20036.47
463.316	20009.85
463.522	19522.43
463.727	19641.21
463.932	19633.02
464.138	19305.35
464.343	19499.91
464.549	19073.93
464.754	19487.62
464.959	19379.07
465.165	19043.21
465.37	18115.48
465.575	18011.03
465.781	18631.57
465.986	18854.79
466.191	18152.34
466.397	17822.62
466.602	16716.72
466.807	17511.33
467.012	17507.23
467.218	17265.57
467.423	17263.52
