Data from USB4F104151__72__13-12-13-974.txt Node

Date: Fri Mar 14 13:12:13 EDT 2025
User: louis
Spectrometer: USB4F10415
Trigger mode: 4
Integration Time (sec): 2.000000E-2
Scans to average: 1
Electric dark correction enabled: true
Nonlinearity correction enabled: false
Boxcar width: 0
XAxis mode: Wavelengths
Number of Pixels in Spectrum: 3648
>>>>>Begin Spectral Data<<<<<
178.204	-134.65
178.424	-134.65
178.644	-134.65
178.864	-136.7
179.084	-48.64
179.304	59.9
179.524	-19.97
179.744	76.29
179.964	6.66
180.184	-34.3
180.404	12.8
180.624	-58.88
180.844	-24.06
181.064	0.51
181.283	-28.16
181.503	6.66
181.723	2.56
181.943	4.61
182.163	-46.59
182.383	-34.3
182.602	41.47
182.822	-9.73
183.042	41.47
183.262	35.33
183.482	-22.02
183.701	-26.11
183.921	16.9
184.141	2.56
184.361	92.67
184.58	76.29
184.8	16.9
185.02	-46.59
185.239	37.38
185.459	-65.02
185.679	-44.54
185.898	-30.21
186.118	-17.92
186.338	-24.06
186.557	25.09
186.777	-42.5
186.997	-1.54
187.216	25.09
187.436	39.42
187.655	-5.63
187.875	-7.68
188.095	8.7
188.314	-5.63
188.534	66.05
188.753	18.94
188.973	39.42
189.192	16.9
189.412	-13.82
189.631	84.48
189.851	33.28
190.07	68.09
190.29	-32.26
190.509	-13.82
190.729	8.7
190.948	49.66
191.168	98.81
191.387	16.9
191.607	68.09
191.826	-24.06
192.045	31.23
192.265	-1.54
192.484	16.9
192.704	4.61
192.923	4.61
193.142	0.51
193.362	8.7
193.581	18.94
193.8	-15.87
194.02	66.05
194.239	-42.5
194.458	-7.68
194.678	16.9
194.897	-50.69
195.116	27.14
195.335	-5.63
195.555	-1.54
195.774	-32.26
195.993	27.14
196.212	10.75
196.432	-71.17
196.651	-34.3
196.87	-9.73
197.089	59.9
197.308	-13.82
197.528	82.43
197.747	29.18
197.966	109.05
198.185	-1.54
198.404	-5.63
198.623	-54.78
198.842	61.95
199.062	29.18
199.281	14.85
199.5	27.14
199.719	47.62
199.938	-15.87
200.157	-1.54
200.376	-7.68
200.595	39.42
200.814	37.38
201.033	25.09
201.252	88.57
201.471	-9.73
201.69	-24.06
201.909	45.57
202.128	12.8
202.347	86.53
202.566	-1.54
202.785	-17.92
203.004	14.85
203.223	102.91
203.442	-26.11
203.661	6.66
203.879	-24.06
204.098	31.23
204.317	6.66
204.536	14.85
204.755	8.7
204.974	-5.63
205.193	31.23
205.411	55.81
205.63	25.09
205.849	-22.02
206.068	-42.5
206.287	-1.54
206.505	90.62
206.724	0.51
206.943	-34.3
207.162	47.62
207.381	10.75
207.599	-67.07
207.818	25.09
208.037	-15.87
208.255	-11.78
208.474	-40.45
208.693	96.77
208.911	23.04
209.13	35.33
209.349	8.7
209.567	-42.5
209.786	-1.54
210.005	-7.68
210.223	10.75
210.442	-44.54
210.661	-7.68
210.879	-19.97
211.098	-1.54
211.316	10.75
211.535	31.23
211.753	66.05
211.972	55.81
212.191	-1.54
212.409	-13.82
212.628	27.14
212.846	14.85
213.065	51.71
213.283	119.29
213.502	6.66
213.72	25.09
213.938	0.51
214.157	41.47
214.375	6.66
214.594	20.99
214.812	55.81
215.031	41.47
215.249	72.19
215.467	-42.5
215.686	23.04
215.904	-15.87
216.122	-17.92
216.341	55.81
216.559	6.66
216.778	115.2
216.996	-13.82
217.214	-26.11
217.432	18.94
217.651	-26.11
217.869	-9.73
218.087	14.85
218.306	55.81
218.524	104.96
218.742	-56.83
218.96	51.71
219.179	-24.06
219.397	31.23
219.615	72.19
219.833	82.43
220.051	6.66
220.27	66.05
220.488	41.47
220.706	57.86
220.924	45.57
221.142	-5.63
221.36	-54.78
221.578	57.86
221.796	-15.87
222.015	41.47
222.233	39.42
222.451	51.71
222.669	-32.26
222.887	-5.63
223.105	39.42
223.323	47.62
223.541	39.42
223.759	35.33
223.977	-36.35
224.195	61.95
224.413	-44.54
224.631	66.05
224.849	-11.78
225.067	41.47
225.285	-13.82
225.503	35.33
225.721	-17.92
225.939	-1.54
226.157	10.75
226.375	133.63
226.592	31.23
226.81	53.76
227.028	4.61
227.246	82.43
227.464	18.94
227.682	-13.82
227.9	41.47
228.117	27.14
228.335	-1.54
228.553	10.75
228.771	-9.73
228.989	14.85
229.206	31.23
229.424	0.51
229.642	-28.16
229.86	-1.54
230.077	25.09
230.295	76.29
230.513	-24.06
230.731	-22.02
230.948	35.33
231.166	-30.21
231.384	2.56
231.601	96.77
231.819	90.62
232.037	-50.69
232.254	-7.68
232.472	10.75
232.689	-3.58
232.907	64
233.125	72.19
233.342	47.62
233.56	6.66
233.777	16.9
233.995	-50.69
234.213	10.75
234.43	80.38
234.648	8.7
234.865	41.47
235.083	18.94
235.3	20.99
235.518	-48.64
235.735	82.43
235.953	51.71
236.17	14.85
236.388	2.56
236.605	8.7
236.822	76.29
237.04	96.77
237.257	31.23
237.475	-44.54
237.692	8.7
237.909	25.09
238.127	66.05
238.344	18.94
238.562	20.99
238.779	55.81
238.996	76.29
239.214	-36.35
239.431	41.47
239.648	-40.45
239.865	51.71
240.083	78.33
240.3	16.9
240.517	-36.35
240.735	49.66
240.952	57.86
241.169	61.95
241.386	-28.16
241.603	82.43
241.821	10.75
242.038	33.28
242.255	33.28
242.472	68.09
242.689	82.43
242.907	84.48
243.124	-9.73
243.341	35.33
243.558	27.14
243.775	43.52
243.992	-22.02
244.209	31.23
244.426	53.76
244.643	64
244.86	8.7
245.078	25.09
245.295	-13.82
245.512	-9.73
245.729	49.66
245.946	47.62
246.163	18.94
246.38	90.62
246.597	25.09
246.814	33.28
247.031	-28.16
247.248	51.71
247.464	-17.92
247.681	33.28
247.898	12.8
248.115	80.38
248.332	8.7
248.549	-46.59
248.766	68.09
248.983	-11.78
249.2	64
249.417	51.71
249.633	23.04
249.85	-26.11
250.067	-13.82
250.284	14.85
250.501	61.95
250.717	57.86
250.934	-34.3
251.151	31.23
251.368	49.66
251.585	23.04
251.801	64
252.018	-13.82
252.235	-9.73
252.451	-26.11
252.668	10.75
252.885	-15.87
253.102	35.33
253.318	-13.82
253.535	0.51
253.752	-30.21
253.968	-7.68
254.185	57.86
254.401	55.81
254.618	8.7
254.835	88.57
255.051	94.72
255.268	-83.45
255.484	49.66
255.701	-3.58
255.917	16.9
256.134	16.9
256.351	18.94
256.567	-11.78
256.784	8.7
257	-93.69
257.217	8.7
257.433	-28.16
257.65	-56.83
257.866	6.66
258.082	16.9
258.299	-44.54
258.515	6.66
258.732	31.23
258.948	27.14
259.165	-13.82
259.381	-44.54
259.597	29.18
259.814	86.53
260.03	-95.74
260.246	-19.97
260.463	45.57
260.679	80.38
260.895	14.85
261.112	-19.97
261.328	-26.11
261.544	12.8
261.761	84.48
261.977	-19.97
262.193	43.52
262.409	18.94
262.626	33.28
262.842	92.67
263.058	-1.54
263.274	39.42
263.49	-26.11
263.707	-42.5
263.923	43.52
264.139	6.66
264.355	80.38
264.571	84.48
264.787	-17.92
265.004	90.62
265.22	-11.78
265.436	-42.5
265.652	-62.98
265.868	86.53
266.084	-40.45
266.3	23.04
266.516	59.9
266.732	53.76
266.948	66.05
267.164	18.94
267.38	14.85
267.596	39.42
267.812	90.62
268.028	25.09
268.244	-9.73
268.46	16.9
268.676	41.47
268.892	43.52
269.108	-19.97
269.324	-34.3
269.54	8.7
269.756	10.75
269.972	-5.63
270.188	-24.06
270.403	-58.88
270.619	25.09
270.835	-28.16
271.051	18.94
271.267	-36.35
271.483	45.57
271.698	-30.21
271.914	-7.68
272.13	-56.83
272.346	-11.78
272.562	-7.68
272.777	70.14
272.993	6.66
273.209	55.81
273.425	6.66
273.64	-38.4
273.856	35.33
274.072	4.61
274.287	27.14
274.503	45.57
274.719	53.76
274.934	-15.87
275.15	-40.45
275.366	-24.06
275.581	-38.4
275.797	-9.73
276.012	43.52
276.228	23.04
276.444	2.56
276.659	98.81
276.875	-9.73
277.09	10.75
277.306	90.62
277.521	18.94
277.737	47.62
277.952	74.24
278.168	80.38
278.383	31.23
278.599	-5.63
278.814	-7.68
279.03	57.86
279.245	-15.87
279.461	-42.5
279.676	41.47
279.892	-24.06
280.107	47.62
280.322	20.99
280.538	76.29
280.753	37.38
280.969	31.23
281.184	51.71
281.399	119.29
281.615	-13.82
281.83	10.75
282.045	-44.54
282.26	16.9
282.476	55.81
282.691	10.75
282.906	18.94
283.122	27.14
283.337	-1.54
283.552	33.28
283.767	0.51
283.983	8.7
284.198	55.81
284.413	74.24
284.628	-7.68
284.843	16.9
285.058	88.57
285.274	55.81
285.489	-24.06
285.704	66.05
285.919	12.8
286.134	6.66
286.349	0.51
286.564	-1.54
286.779	96.77
286.995	70.14
287.21	-13.82
287.425	23.04
287.64	6.66
287.855	41.47
288.07	-15.87
288.285	-1.54
288.5	29.18
288.715	-3.58
288.93	20.99
289.145	33.28
289.36	51.71
289.575	72.19
289.79	12.8
290.004	-26.11
290.219	31.23
290.434	23.04
290.649	20.99
290.864	82.43
291.079	96.77
291.294	2.56
291.509	-38.4
291.724	-42.5
291.938	43.52
292.153	39.42
292.368	-9.73
292.583	96.77
292.798	-34.3
293.012	72.19
293.227	51.71
293.442	2.56
293.657	8.7
293.871	18.94
294.086	57.86
294.301	111.1
294.516	-36.35
294.73	-50.69
294.945	8.7
295.16	55.81
295.374	68.09
295.589	18.94
295.804	23.04
296.018	-22.02
296.233	0.51
296.447	33.28
296.662	-28.16
296.877	72.19
297.091	2.56
297.306	39.42
297.52	47.62
297.735	-7.68
297.949	8.7
298.164	39.42
298.378	29.18
298.593	-17.92
298.807	2.56
299.022	-11.78
299.236	47.62
299.451	-7.68
299.665	37.38
299.88	27.14
300.094	-11.78
300.309	100.86
300.523	88.57
300.737	39.42
300.952	2.56
301.166	2.56
301.381	10.75
301.595	51.71
301.809	-30.21
302.024	27.14
302.238	-26.11
302.452	127.49
302.667	-26.11
302.881	33.28
303.095	35.33
303.309	90.62
303.524	20.99
303.738	53.76
303.952	57.86
304.166	18.94
304.381	-89.6
304.595	-22.02
304.809	39.42
305.023	27.14
305.237	-22.02
305.452	-13.82
305.666	14.85
305.88	27.14
306.094	82.43
306.308	18.94
306.522	-9.73
306.736	100.86
306.95	18.94
307.164	47.62
307.379	-11.78
307.593	104.96
307.807	49.66
308.021	25.09
308.235	27.14
308.449	-13.82
308.663	25.09
308.877	55.81
309.091	18.94
309.305	-9.73
309.519	2.56
309.733	41.47
309.947	14.85
310.161	27.14
310.374	-7.68
310.588	45.57
310.802	-17.92
311.016	29.18
311.23	10.75
311.444	-83.45
311.658	-9.73
311.872	20.99
312.085	-13.82
312.299	20.99
312.513	39.42
312.727	23.04
312.941	-7.68
313.154	-50.69
313.368	-3.58
313.582	41.47
313.796	6.66
314.009	18.94
314.223	23.04
314.437	47.62
314.651	2.56
314.864	4.61
315.078	45.57
315.292	-7.68
315.505	18.94
315.719	33.28
315.933	43.52
316.146	-9.73
316.36	-32.26
316.573	12.8
316.787	59.9
317.001	-3.58
317.214	-32.26
317.428	6.66
317.641	2.56
317.855	51.71
318.068	-3.58
318.282	64
318.495	18.94
318.709	8.7
318.922	10.75
319.136	76.29
319.349	35.33
319.563	14.85
319.776	-34.3
319.99	14.85
320.203	92.67
320.417	-15.87
320.63	57.86
320.843	16.9
321.057	-48.64
321.27	27.14
321.483	-7.68
321.697	98.81
321.91	-9.73
322.124	-1.54
322.337	33.28
322.55	-34.3
322.763	53.76
322.977	-34.3
323.19	10.75
323.403	18.94
323.617	-32.26
323.83	-3.58
324.043	20.99
324.256	41.47
324.469	-26.11
324.683	18.94
324.896	18.94
325.109	6.66
325.322	18.94
325.535	-19.97
325.748	47.62
325.962	35.33
326.175	57.86
326.388	55.81
326.601	51.71
326.814	66.05
327.027	-1.54
327.24	55.81
327.453	-36.35
327.666	27.14
327.879	51.71
328.092	88.57
328.305	64
328.518	-19.97
328.731	31.23
328.944	72.19
329.157	90.62
329.37	53.76
329.583	111.1
329.796	0.51
330.009	41.47
330.222	23.04
330.435	59.9
330.648	59.9
330.861	16.9
331.073	39.42
331.286	8.7
331.499	90.62
331.712	16.9
331.925	-9.73
332.138	-24.06
332.35	66.05
332.563	37.38
332.776	66.05
332.989	8.7
333.202	-48.64
333.414	82.43
333.627	-1.54
333.84	-5.63
334.053	16.9
334.265	-15.87
334.478	16.9
334.691	31.23
334.903	39.42
335.116	18.94
335.329	12.8
335.541	-13.82
335.754	76.29
335.966	-22.02
336.179	-9.73
336.392	27.14
336.604	12.8
336.817	84.48
337.029	92.67
337.242	66.05
337.454	16.9
337.667	-13.82
337.88	59.9
338.092	10.75
338.305	72.19
338.517	-40.45
338.729	41.47
338.942	16.9
339.154	8.7
339.367	-13.82
339.579	37.38
339.792	12.8
340.004	16.9
340.217	61.95
340.429	45.57
340.641	113.15
340.854	-9.73
341.066	41.47
341.278	98.81
341.491	68.09
341.703	74.24
341.915	-30.21
342.128	31.23
342.34	35.33
342.552	-1.54
342.764	37.38
342.977	-1.54
343.189	6.66
343.401	57.86
343.613	-17.92
343.826	8.7
344.038	-22.02
344.25	51.71
344.462	-9.73
344.674	82.43
344.886	-34.3
345.099	49.66
345.311	-22.02
345.523	-34.3
345.735	6.66
345.947	25.09
346.159	43.52
346.371	66.05
346.583	14.85
346.795	74.24
347.007	66.05
347.219	29.18
347.431	-17.92
347.643	51.71
347.855	23.04
348.067	-3.58
348.279	6.66
348.491	10.75
348.703	6.66
348.915	6.66
349.127	57.86
349.339	-3.58
349.551	-40.45
349.763	100.86
349.975	29.18
350.187	37.38
350.399	55.81
350.61	20.99
350.822	39.42
351.034	66.05
351.246	14.85
351.458	25.09
351.669	72.19
351.881	-17.92
352.093	-9.73
352.305	107.01
352.517	12.8
352.728	74.24
352.94	20.99
353.152	68.09
353.363	-19.97
353.575	49.66
353.787	76.29
353.999	12.8
354.21	72.19
354.422	-17.92
354.633	64
354.845	8.7
355.057	51.71
355.268	20.99
355.48	-15.87
355.692	-1.54
355.903	27.14
356.115	-38.4
356.326	29.18
356.538	100.86
356.749	61.95
356.961	35.33
357.172	18.94
357.384	-1.54
357.595	80.38
357.807	-9.73
358.018	14.85
358.23	57.86
358.441	18.94
358.653	29.18
358.864	23.04
359.075	31.23
359.287	20.99
359.498	31.23
359.709	16.9
359.921	55.81
360.132	27.14
360.344	119.29
360.555	6.66
360.766	49.66
360.977	-24.06
361.189	57.86
361.4	29.18
361.611	-1.54
361.823	39.42
362.034	47.62
362.245	-26.11
362.456	-81.41
362.667	-7.68
362.879	23.04
363.09	18.94
363.301	70.14
363.512	-15.87
363.723	43.52
363.935	8.7
364.146	8.7
364.357	47.62
364.568	57.86
364.779	-46.59
364.99	6.66
365.201	47.62
365.412	39.42
365.623	47.62
365.834	49.66
366.045	47.62
366.256	16.9
366.467	53.76
366.678	43.52
366.889	-42.5
367.1	33.28
367.311	88.57
367.522	6.66
367.733	14.85
367.944	64
368.155	18.94
368.366	90.62
368.577	45.57
368.788	53.76
368.999	-11.78
369.209	27.14
369.42	59.9
369.631	113.15
369.842	39.42
370.053	33.28
370.264	39.42
370.474	-65.02
370.685	55.81
370.896	12.8
371.107	123.39
371.317	84.48
371.528	-7.68
371.739	66.05
371.95	33.28
372.16	80.38
372.371	8.7
372.582	23.04
372.792	49.66
373.003	74.24
373.214	-1.54
373.424	68.09
373.635	31.23
373.846	57.86
374.056	12.8
374.267	66.05
374.477	55.81
374.688	-5.63
374.898	10.75
375.109	82.43
375.319	113.15
375.53	6.66
375.74	39.42
375.951	-54.78
376.161	96.77
376.372	33.28
376.582	45.57
376.793	29.18
377.003	35.33
377.214	-19.97
377.424	78.33
377.635	29.18
377.845	16.9
378.055	94.72
378.266	-19.97
378.476	-19.97
378.686	35.33
378.897	10.75
379.107	49.66
379.317	115.2
379.528	16.9
379.738	35.33
379.948	64
380.158	18.94
380.369	0.51
380.579	66.05
380.789	37.38
380.999	86.53
381.21	76.29
381.42	57.86
381.63	68.09
381.84	25.09
382.05	31.23
382.261	-28.16
382.471	23.04
382.681	-9.73
382.891	96.77
383.101	82.43
383.311	78.33
383.521	47.62
383.731	-24.06
383.941	25.09
384.151	-13.82
384.361	47.62
384.571	74.24
384.781	29.18
384.991	49.66
385.201	88.57
385.411	-11.78
385.621	64
385.831	76.29
386.041	39.42
386.251	-42.5
386.461	76.29
386.671	16.9
386.881	68.09
387.091	-54.78
387.301	55.81
387.511	61.95
387.72	39.42
387.93	35.33
388.14	10.75
388.35	109.05
388.56	66.05
388.769	16.9
388.979	131.58
389.189	35.33
389.399	20.99
389.609	0.51
389.818	109.05
390.028	37.38
390.238	123.39
390.447	23.04
390.657	57.86
390.867	86.53
391.076	39.42
391.286	31.23
391.496	-15.87
391.705	31.23
391.915	117.25
392.125	-46.59
392.334	72.19
392.544	2.56
392.753	25.09
392.963	14.85
393.172	45.57
393.382	-17.92
393.591	66.05
393.801	47.62
394.01	98.81
394.22	57.86
394.429	59.9
394.639	68.09
394.848	57.86
395.058	45.57
395.267	76.29
395.477	20.99
395.686	64
395.895	117.25
396.105	92.67
396.314	59.9
396.524	145.92
396.733	68.09
396.942	-11.78
397.152	82.43
397.361	70.14
397.57	117.25
397.78	80.38
397.989	39.42
398.198	72.19
398.407	27.14
398.617	6.66
398.826	27.14
399.035	133.63
399.244	51.71
399.453	131.58
399.663	33.28
399.872	49.66
400.081	-62.98
400.29	64
400.499	88.57
400.708	39.42
400.917	8.7
401.127	51.71
401.336	25.09
401.545	90.62
401.754	90.62
401.963	-13.82
402.172	86.53
402.381	154.11
402.59	72.19
402.799	94.72
403.008	76.29
403.217	59.9
403.426	104.96
403.635	20.99
403.844	125.44
404.053	29.18
404.262	94.72
404.471	184.83
404.68	109.05
404.888	49.66
405.097	23.04
405.306	145.92
405.515	92.67
405.724	6.66
405.933	115.2
406.142	72.19
406.35	154.11
406.559	76.29
406.768	86.53
406.977	47.62
407.185	166.4
407.394	121.34
407.603	195.07
407.812	107.01
408.02	223.74
408.229	121.34
408.438	115.2
408.646	129.53
408.855	178.69
409.064	182.78
409.272	127.49
409.481	174.59
409.69	107.01
409.898	180.73
410.107	309.76
410.315	213.5
410.524	156.16
410.733	174.59
410.941	195.07
411.15	244.22
411.358	188.93
411.567	285.18
411.775	195.07
411.984	315.9
412.192	201.21
412.401	266.75
412.609	279.04
412.818	276.99
413.026	281.08
413.234	301.56
413.443	295.42
413.651	301.56
413.86	285.18
414.068	383.48
414.276	422.39
414.485	377.34
414.693	369.15
414.901	502.26
415.11	352.76
415.318	383.48
415.526	393.72
415.734	475.64
415.943	479.74
416.151	473.59
416.359	408.06
416.567	494.07
416.776	549.37
416.984	467.45
417.192	590.33
417.4	600.57
417.608	524.79
417.817	580.09
418.025	694.77
418.233	666.1
418.441	590.33
418.649	776.69
418.857	815.6
419.065	741.88
419.273	745.97
419.481	803.32
419.689	932.34
419.897	938.48
420.105	911.86
420.313	975.35
420.521	954.87
420.729	1016.3
420.937	1098.22
421.145	1024.5
421.353	1085.94
421.561	1143.28
421.769	1171.95
421.977	1305.07
422.185	1270.25
422.393	1343.98
422.601	1325.55
422.809	1358.32
423.017	1436.14
423.224	1386.99
423.432	1540.58
423.64	1448.43
423.848	1606.12
424.056	1606.12
424.263	1745.38
424.471	1640.93
424.679	1722.85
424.887	1821.16
425.094	1890.79
425.302	1808.87
425.51	2103.78
425.718	1933.79
425.925	2023.91
426.133	2157.02
426.341	2312.67
426.548	2382.3
426.756	2243.04
426.964	2353.63
427.171	2456.03
427.379	2589.14
427.586	2386.4
427.794	2898.39
428.001	2773.46
428.209	2927.06
428.417	2894.29
428.624	3080.66
428.832	3205.58
429.039	3131.86
429.247	3172.82
429.454	3332.56
429.662	3623.37
429.869	3383.76
430.076	3723.72
430.284	3586.51
430.491	3684.81
430.699	3881.41
430.906	3850.69
431.114	3801.54
431.321	4073.92
431.528	4219.33
431.736	4389.31
431.943	4659.64
432.15	4590.01
432.358	4569.53
432.565	4876.73
432.772	4833.72
432.979	4981.17
433.187	5042.61
433.394	5071.28
433.601	5534.12
433.808	5671.34
434.016	5450.16
434.223	5697.96
434.43	6042.02
434.637	5947.81
434.844	6381.98
435.052	6439.33
435.259	6433.18
435.466	6406.56
435.673	6295.97
435.88	6824.34
436.087	7068.05
436.294	7121.3
436.501	6939.03
436.708	7227.79
436.915	7502.22
437.122	7817.61
437.329	7635.34
437.537	7965.06
437.743	8165.76
437.95	8077.7
438.157	8345.98
438.364	8796.54
438.571	8956.28
438.778	8737.15
438.985	9599.34
439.192	9208.18
439.399	9632.11
439.606	9345.39
439.813	9800.04
440.02	10314.08
440.227	10412.39
440.433	10236.26
440.64	10723.68
440.847	10608.99
441.054	10635.61
441.261	11307.35
441.467	11288.92
441.674	11632.97
441.881	11960.65
442.088	12034.38
442.294	11911.5
442.501	12153.16
442.708	12319.04
442.914	12855.61
443.121	13599.02
443.328	12968.25
443.534	13951.28
443.741	13570.35
443.948	13494.58
444.154	14315.81
444.361	14393.64
444.568	14315.81
444.774	14559.52
444.981	14541.09
445.187	15059.23
445.394	15849.74
445.6	15466.77
445.807	17219.83
446.013	16148.75
446.22	16670.98
446.426	17160.44
446.633	17541.36
446.839	17846.51
447.046	17373.43
447.252	18254.06
447.459	18327.78
447.665	18262.25
447.871	19206.36
448.078	19982.54
448.284	18968.8
448.491	19636.44
448.697	20017.36
448.903	20560.07
449.11	20723.91
449.316	20457.67
449.522	20748.48
449.728	21401.79
449.935	21403.83
450.141	21579.96
450.347	21981.36
450.553	21321.91
450.76	21575.86
450.966	22544.55
451.172	22272.17
451.378	22730.92
451.584	22065.33
451.791	22747.3
451.997	22864.04
452.203	22898.85
452.409	23074.98
452.615	23046.3
452.821	22177.97
453.027	22032.56
453.233	23238.81
453.44	22411.43
453.646	22536.36
453.852	22702.25
454.058	22843.56
454.264	22206.64
454.47	23015.58
454.676	22153.39
454.882	22898.85
455.088	20977.86
455.294	21674.17
455.5	21723.32
455.705	21944.5
455.911	21047.49
456.117	20607.17
456.323	20222.16
456.529	19544.28
456.735	20265.16
456.941	19656.92
457.147	19484.89
457.352	18776.29
457.558	18573.54
457.764	18669.8
457.97	18458.85
458.176	17764.59
458.381	17930.48
458.587	17078.52
458.793	17201.4
458.999	15989
459.204	17395.96
459.41	16806.14
459.616	15868.17
459.821	15909.13
460.027	15515.92
460.233	15339.8
460.438	14756.13
460.644	14838.05
460.85	14235.94
461.055	14055.72
461.261	14115.11
461.466	12747.07
461.672	12464.45
461.878	13447.47
462.083	12454.21
462.289	12128.58
462.494	12224.84
462.7	11514.19
462.905	11311.44
463.111	11536.72
463.316	11739.47
463.522	11534.67
463.727	11362.64
463.932	11254.1
464.138	11295.06
464.343	11311.44
464.549	11276.63
464.754	11501.9
464.959	11262.29
465.165	11239.76
465.37	10918.23
465.575	10365.28
465.781	10953.05
465.986	11147.61
466.191	10738.01
466.397	10236.26
466.602	9904.49
466.807	10398.05
467.012	10330.47
467.218	10273.12
467.423	9978.22
467.628	10094.95
467.833	10846.55
468.038	10017.13
468.244	9693.55
468.449	10193.25
468.654	9908.58
