Data from USB4F104151__27__13-10-47-664.txt Node

Date: Fri Mar 14 13:10:47 EDT 2025
User: louis
Spectrometer: USB4F10415
Trigger mode: 4
Integration Time (sec): 2.000000E-2
Scans to average: 1
Electric dark correction enabled: true
Nonlinearity correction enabled: false
Boxcar width: 0
XAxis mode: Wavelengths
Number of Pixels in Spectrum: 3648
>>>>>Begin Spectral Data<<<<<
178.204	-71.85
178.424	-71.85
178.644	-71.85
178.864	-114.86
179.084	-47.27
179.304	-12.46
179.524	-45.23
179.744	16.21
179.964	-6.31
180.184	16.21
180.404	-32.94
180.624	20.31
180.844	-16.55
181.064	-16.55
181.283	42.84
181.503	-10.41
181.723	44.88
181.943	-96.43
182.163	69.46
182.383	-82.09
182.602	44.88
182.822	-47.27
183.042	18.26
183.262	-6.31
183.482	59.22
183.701	34.64
183.921	-39.08
184.141	-22.7
184.361	32.6
184.58	28.5
184.8	12.12
185.02	30.55
185.239	-2.22
185.459	30.55
185.679	108.37
185.898	-45.23
186.118	34.64
186.338	-4.27
186.557	24.4
186.777	20.31
186.997	-6.31
187.216	67.41
187.436	51.03
187.655	-18.6
187.875	112.47
188.095	34.64
188.314	-14.51
188.534	83.8
188.753	69.46
188.973	-39.08
189.192	100.18
189.412	-92.33
189.631	28.5
189.851	-51.37
190.07	10.07
190.29	63.32
190.509	32.6
190.729	-14.51
190.948	51.03
191.168	163.67
191.387	128.85
191.607	-34.99
191.826	-20.65
192.045	-8.36
192.265	28.5
192.484	-73.9
192.704	79.7
192.923	-10.41
193.142	-4.27
193.362	-12.46
193.581	112.47
193.8	1.88
194.02	36.69
194.239	28.5
194.458	18.26
194.678	26.45
194.897	-14.51
195.116	46.93
195.335	3.93
195.555	38.74
195.774	94.04
195.993	42.84
196.212	-43.18
196.432	26.45
196.651	-10.41
196.87	32.6
197.089	48.98
197.308	-4.27
197.528	1.88
197.747	-14.51
197.966	14.17
198.185	85.84
198.404	-26.79
198.623	28.5
198.842	32.6
199.062	85.84
199.281	94.04
199.5	3.93
199.719	24.4
199.938	1.88
200.157	89.94
200.376	42.84
200.595	34.64
200.814	91.99
201.033	-12.46
201.252	61.27
201.471	22.36
201.69	1.88
201.909	65.36
202.128	20.31
202.347	96.08
202.566	61.27
202.785	-18.6
203.004	16.21
203.223	53.08
203.442	53.08
203.661	16.21
203.879	34.64
204.098	69.46
204.317	12.12
204.536	77.65
204.755	26.45
204.974	65.36
205.193	8.02
205.411	85.84
205.63	-4.27
205.849	-37.03
206.068	16.21
206.287	20.31
206.505	12.12
206.724	-12.46
206.943	22.36
207.162	-67.75
207.381	57.17
207.599	-8.36
207.818	75.6
208.037	48.98
208.255	42.84
208.474	10.07
208.693	59.22
208.911	-16.55
209.13	51.03
209.349	132.95
209.567	61.27
209.786	81.75
210.005	-53.42
210.223	65.36
210.442	-53.42
210.661	149.33
210.879	14.17
211.098	59.22
211.316	77.65
211.535	-51.37
211.753	46.93
211.972	42.84
212.191	-30.89
212.409	77.65
212.628	32.6
212.846	-73.9
213.065	42.84
213.283	63.32
213.502	24.4
213.72	5.97
213.938	-16.55
214.157	26.45
214.375	75.6
214.594	-37.03
214.812	42.84
215.031	-37.03
215.249	-4.27
215.467	42.84
215.686	22.36
215.904	24.4
216.122	-34.99
216.341	-18.6
216.559	42.84
216.778	5.97
216.996	40.79
217.214	-22.7
217.432	32.6
217.651	-0.17
217.869	5.97
218.087	10.07
218.306	34.64
218.524	51.03
218.742	-55.47
218.96	53.08
219.179	14.17
219.397	85.84
219.615	26.45
219.833	71.51
220.051	38.74
220.27	42.84
220.488	51.03
220.706	40.79
220.924	16.21
221.142	16.21
221.36	18.26
221.578	16.21
221.796	53.08
222.015	12.12
222.233	26.45
222.451	53.08
222.669	22.36
222.887	73.56
223.105	8.02
223.323	-0.17
223.541	79.7
223.759	48.98
223.977	46.93
224.195	85.84
224.413	26.45
224.631	48.98
224.849	87.89
225.067	135
225.285	12.12
225.503	34.64
225.721	14.17
225.939	40.79
226.157	48.98
226.375	-8.36
226.592	87.89
226.81	32.6
227.028	59.22
227.246	18.26
227.464	44.88
227.682	34.64
227.9	96.08
228.117	77.65
228.335	36.69
228.553	-0.17
228.771	-30.89
228.989	18.26
229.206	18.26
229.424	16.21
229.642	42.84
229.86	3.93
230.077	46.93
230.295	22.36
230.513	53.08
230.731	104.28
230.948	100.18
231.166	34.64
231.384	5.97
231.601	46.93
231.819	44.88
232.037	-14.51
232.254	61.27
232.472	10.07
232.689	-59.56
232.907	12.12
233.125	28.5
233.342	24.4
233.56	-53.42
233.777	59.22
233.995	30.55
234.213	94.04
234.43	-8.36
234.648	26.45
234.865	81.75
235.083	-49.32
235.3	8.02
235.518	34.64
235.735	73.56
235.953	12.12
236.17	28.5
236.388	48.98
236.605	20.31
236.822	104.28
237.04	87.89
237.257	-53.42
237.475	-0.17
237.692	10.07
237.909	-30.89
238.127	106.32
238.344	30.55
238.562	81.75
238.779	87.89
238.996	69.46
239.214	112.47
239.431	36.69
239.648	18.26
239.865	14.17
240.083	71.51
240.3	-14.51
240.517	-45.23
240.735	67.41
240.952	102.23
241.169	-39.08
241.386	89.94
241.603	20.31
241.821	1.88
242.038	3.93
242.255	18.26
242.472	-75.95
242.689	42.84
242.907	89.94
243.124	26.45
243.341	55.12
243.558	-45.23
243.775	-12.46
243.992	24.4
244.209	20.31
244.426	98.13
244.643	63.32
244.86	-12.46
245.078	53.08
245.295	24.4
245.512	-32.94
245.729	-28.84
245.946	34.64
246.163	14.17
246.38	30.55
246.597	5.97
246.814	5.97
247.031	-28.84
247.248	69.46
247.464	32.6
247.681	120.66
247.898	40.79
248.115	59.22
248.332	-12.46
248.549	51.03
248.766	100.18
248.983	73.56
249.2	36.69
249.417	38.74
249.633	-28.84
249.85	59.22
250.067	26.45
250.284	3.93
250.501	135
250.717	36.69
250.934	-6.31
251.151	59.22
251.368	63.32
251.585	59.22
251.801	59.22
252.018	20.31
252.235	26.45
252.451	-30.89
252.668	38.74
252.885	22.36
253.102	42.84
253.318	-51.37
253.535	83.8
253.752	1.88
253.968	57.17
254.185	28.5
254.401	59.22
254.618	-4.27
254.835	-37.03
255.051	30.55
255.268	-4.27
255.484	83.8
255.701	38.74
255.917	-2.22
256.134	-2.22
256.351	53.08
256.567	20.31
256.784	30.55
257	22.36
257.217	51.03
257.433	51.03
257.65	36.69
257.866	79.7
258.082	26.45
258.299	-41.13
258.515	-14.51
258.732	-47.27
258.948	1.88
259.165	10.07
259.381	-20.65
259.597	-32.94
259.814	61.27
260.03	8.02
260.246	40.79
260.463	59.22
260.679	91.99
260.895	-6.31
261.112	51.03
261.328	38.74
261.544	38.74
261.761	-12.46
261.977	48.98
262.193	38.74
262.409	-30.89
262.626	34.64
262.842	89.94
263.058	3.93
263.274	42.84
263.49	-10.41
263.707	-6.31
263.923	71.51
264.139	-24.75
264.355	83.8
264.571	34.64
264.787	59.22
265.004	34.64
265.22	132.95
265.436	87.89
265.652	-12.46
265.868	18.26
266.084	-12.46
266.3	8.02
266.516	-47.27
266.732	10.07
266.948	77.65
267.164	67.41
267.38	96.08
267.596	12.12
267.812	14.17
268.028	46.93
268.244	34.64
268.46	100.18
268.676	24.4
268.892	16.21
269.108	38.74
269.324	18.26
269.54	-75.95
269.756	20.31
269.972	-2.22
270.188	94.04
270.403	1.88
270.619	10.07
270.835	83.8
271.051	81.75
271.267	1.88
271.483	34.64
271.698	112.47
271.914	1.88
272.13	28.5
272.346	51.03
272.562	67.41
272.777	87.89
272.993	-20.65
273.209	-14.51
273.425	116.56
273.64	40.79
273.856	-8.36
274.072	46.93
274.287	57.17
274.503	18.26
274.719	-28.84
274.934	16.21
275.15	-73.9
275.366	-47.27
275.581	36.69
275.797	48.98
276.012	85.84
276.228	12.12
276.444	40.79
276.659	38.74
276.875	8.02
277.09	-4.27
277.306	30.55
277.521	67.41
277.737	61.27
277.952	20.31
278.168	34.64
278.383	96.08
278.599	-43.18
278.814	59.22
279.03	-14.51
279.245	63.32
279.461	5.97
279.676	34.64
279.892	-12.46
280.107	-49.32
280.322	-28.84
280.538	87.89
280.753	40.79
280.969	42.84
281.184	10.07
281.399	12.12
281.615	38.74
281.83	-39.08
282.045	-4.27
282.26	67.41
282.476	32.6
282.691	61.27
282.906	32.6
283.122	71.51
283.337	14.17
283.552	-32.94
283.767	24.4
283.983	112.47
284.198	14.17
284.413	22.36
284.628	-43.18
284.843	59.22
285.058	22.36
285.274	94.04
285.489	-34.99
285.704	-14.51
285.919	-0.17
286.134	67.41
286.349	-61.61
286.564	-59.56
286.779	108.37
286.995	-16.55
287.21	53.08
287.425	71.51
287.64	-24.75
287.855	102.23
288.07	-12.46
288.285	79.7
288.5	51.03
288.715	75.6
288.93	83.8
289.145	-0.17
289.36	-10.41
289.575	100.18
289.79	67.41
290.004	38.74
290.219	12.12
290.434	40.79
290.649	-10.41
290.864	-12.46
291.079	1.88
291.294	42.84
291.509	42.84
291.724	-14.51
291.938	55.12
292.153	24.4
292.368	16.21
292.583	96.08
292.798	96.08
293.012	34.64
293.227	-26.79
293.442	51.03
293.657	1.88
293.871	55.12
294.086	46.93
294.301	77.65
294.516	79.7
294.73	14.17
294.945	-2.22
295.16	69.46
295.374	69.46
295.589	53.08
295.804	-12.46
296.018	61.27
296.233	-10.41
296.447	14.17
296.662	32.6
296.877	75.6
297.091	-10.41
297.306	112.47
297.52	-12.46
297.735	12.12
297.949	65.36
298.164	5.97
298.378	16.21
298.593	12.12
298.807	-118.95
299.022	34.64
299.236	5.97
299.451	1.88
299.665	10.07
299.88	12.12
300.094	3.93
300.309	42.84
300.523	-6.31
300.737	18.26
300.952	44.88
301.166	63.32
301.381	1.88
301.595	67.41
301.809	18.26
302.024	24.4
302.238	-10.41
302.452	26.45
302.667	69.46
302.881	73.56
303.095	141.14
303.309	69.46
303.524	36.69
303.738	48.98
303.952	-30.89
304.166	89.94
304.381	1.88
304.595	53.08
304.809	69.46
305.023	30.55
305.237	22.36
305.452	1.88
305.666	89.94
305.88	120.66
306.094	83.8
306.308	91.99
306.522	26.45
306.736	46.93
306.95	-0.17
307.164	104.28
307.379	69.46
307.593	-2.22
307.807	42.84
308.021	-6.31
308.235	14.17
308.449	-2.22
308.663	1.88
308.877	132.95
309.091	-18.6
309.305	-26.79
309.519	-10.41
309.733	91.99
309.947	12.12
310.161	-2.22
310.374	28.5
310.588	89.94
310.802	40.79
311.016	20.31
311.23	94.04
311.444	30.55
311.658	-14.51
311.872	85.84
312.085	57.17
312.299	67.41
312.513	48.98
312.727	-14.51
312.941	-6.31
313.154	53.08
313.368	28.5
313.582	24.4
313.796	55.12
314.009	12.12
314.223	59.22
314.437	26.45
314.651	-10.41
314.864	22.36
315.078	-47.27
315.292	-47.27
315.505	57.17
315.719	44.88
315.933	38.74
316.146	36.69
316.36	16.21
316.573	59.22
316.787	-14.51
317.001	94.04
317.214	-28.84
317.428	55.12
317.641	32.6
317.855	5.97
318.068	-14.51
318.282	34.64
318.495	38.74
318.709	-10.41
318.922	55.12
319.136	26.45
319.349	87.89
319.563	5.97
319.776	57.17
319.99	-47.27
320.203	18.26
320.417	34.64
320.63	59.22
320.843	85.84
321.057	-22.7
321.27	141.14
321.483	87.89
321.697	83.8
321.91	46.93
322.124	73.56
322.337	34.64
322.55	51.03
322.763	63.32
322.977	-10.41
323.19	-30.89
323.403	-37.03
323.617	81.75
323.83	91.99
324.043	69.46
324.256	5.97
324.469	55.12
324.683	8.02
324.896	51.03
325.109	26.45
325.322	55.12
325.535	14.17
325.748	44.88
325.962	-45.23
326.175	40.79
326.388	-8.36
326.601	12.12
326.814	57.17
327.027	3.93
327.24	77.65
327.453	-2.22
327.666	51.03
327.879	-18.6
328.092	67.41
328.305	42.84
328.518	75.6
328.731	98.13
328.944	-41.13
329.157	46.93
329.37	67.41
329.583	61.27
329.796	73.56
330.009	10.07
330.222	14.17
330.435	12.12
330.648	-4.27
330.861	81.75
331.073	16.21
331.286	26.45
331.499	1.88
331.712	-30.89
331.925	-12.46
332.138	79.7
332.35	94.04
332.563	85.84
332.776	102.23
332.989	24.4
333.202	83.8
333.414	-2.22
333.627	-51.37
333.84	-10.41
334.053	83.8
334.265	53.08
334.478	65.36
334.691	20.31
334.903	28.5
335.116	51.03
335.329	3.93
335.541	-20.65
335.754	-2.22
335.966	5.97
336.179	38.74
336.392	34.64
336.604	10.07
336.817	75.6
337.029	69.46
337.242	3.93
337.454	3.93
337.667	75.6
337.88	108.37
338.092	24.4
338.305	36.69
338.517	55.12
338.729	48.98
338.942	28.5
339.154	96.08
339.367	10.07
339.579	153.43
339.792	34.64
340.004	-0.17
340.217	46.93
340.429	-73.9
340.641	34.64
340.854	69.46
341.066	-6.31
341.278	77.65
341.491	94.04
341.703	79.7
341.915	44.88
342.128	132.95
342.34	69.46
342.552	34.64
342.764	16.21
342.977	83.8
343.189	91.99
343.401	14.17
343.613	26.45
343.826	28.5
344.038	36.69
344.25	85.84
344.462	30.55
344.674	-12.46
344.886	-14.51
345.099	65.36
345.311	14.17
345.523	-4.27
345.735	36.69
345.947	42.84
346.159	83.8
346.371	8.02
346.583	44.88
346.795	61.27
347.007	28.5
347.219	34.64
347.431	44.88
347.643	34.64
347.855	22.36
348.067	26.45
348.279	57.17
348.491	96.08
348.703	69.46
348.915	-12.46
349.127	-26.79
349.339	14.17
349.551	-18.6
349.763	34.64
349.975	118.61
350.187	-14.51
350.399	55.12
350.61	12.12
350.822	36.69
351.034	110.42
351.246	44.88
351.458	53.08
351.669	79.7
351.881	-6.31
352.093	57.17
352.305	36.69
352.517	116.56
352.728	-8.36
352.94	-2.22
353.152	87.89
353.363	26.45
353.575	71.51
353.787	30.55
353.999	94.04
354.21	26.45
354.422	18.26
354.633	71.51
354.845	67.41
355.057	-8.36
355.268	53.08
355.48	46.93
355.692	34.64
355.903	26.45
356.115	12.12
356.326	44.88
356.538	122.71
356.749	14.17
356.961	83.8
357.172	10.07
357.384	46.93
357.595	128.85
357.807	108.37
358.018	1.88
358.23	51.03
358.441	61.27
358.653	22.36
358.864	59.22
359.075	8.02
359.287	63.32
359.498	5.97
359.709	16.21
359.921	53.08
360.132	48.98
360.344	65.36
360.555	69.46
360.766	30.55
360.977	34.64
361.189	118.61
361.4	118.61
361.611	5.97
361.823	24.4
362.034	44.88
362.245	36.69
362.456	10.07
362.667	42.84
362.879	55.12
363.09	53.08
363.301	94.04
363.512	26.45
363.723	67.41
363.935	53.08
364.146	108.37
364.357	26.45
364.568	34.64
364.779	22.36
364.99	83.8
365.201	57.17
365.412	28.5
365.623	48.98
365.834	79.7
366.045	137.04
366.256	42.84
366.467	12.12
366.678	40.79
366.889	-14.51
367.1	-26.79
367.311	67.41
367.522	34.64
367.733	63.32
367.944	-6.31
368.155	51.03
368.366	-2.22
368.577	73.56
368.788	112.47
368.999	24.4
369.209	73.56
369.42	85.84
369.631	75.6
369.842	53.08
370.053	44.88
370.264	102.23
370.474	42.84
370.685	94.04
370.896	55.12
371.107	73.56
371.317	18.26
371.528	75.6
371.739	22.36
371.95	51.03
372.16	108.37
372.371	-6.31
372.582	112.47
372.792	12.12
373.003	36.69
373.214	16.21
373.424	132.95
373.635	12.12
373.846	36.69
374.056	16.21
374.267	53.08
374.477	38.74
374.688	42.84
374.898	55.12
375.109	57.17
375.319	104.28
375.53	89.94
375.74	30.55
375.951	91.99
376.161	79.7
376.372	36.69
376.582	73.56
376.793	132.95
377.003	55.12
377.214	5.97
377.424	122.71
377.635	22.36
377.845	75.6
378.055	63.32
378.266	-14.51
378.476	20.31
378.686	130.9
378.897	79.7
379.107	85.84
379.317	65.36
379.528	79.7
379.738	91.99
379.948	-2.22
380.158	91.99
380.369	44.88
380.579	59.22
380.789	38.74
380.999	132.95
381.21	14.17
381.42	57.17
381.63	51.03
381.84	67.41
382.05	34.64
382.261	69.46
382.471	59.22
382.681	-6.31
382.891	57.17
383.101	-2.22
383.311	34.64
383.521	18.26
383.731	79.7
383.941	130.9
384.151	46.93
384.361	46.93
384.571	36.69
384.781	51.03
384.991	44.88
385.201	59.22
385.411	36.69
385.621	85.84
385.831	67.41
386.041	69.46
386.251	102.23
386.461	124.76
386.671	91.99
386.881	-51.37
387.091	155.47
387.301	116.56
387.511	-47.27
387.72	59.22
387.93	71.51
388.14	-10.41
388.35	132.95
388.56	149.33
388.769	48.98
388.979	108.37
389.189	116.56
389.399	85.84
389.609	135
389.818	69.46
390.028	36.69
390.238	67.41
390.447	87.89
390.657	34.64
390.867	36.69
391.076	59.22
391.286	67.41
391.496	44.88
391.705	-4.27
391.915	83.8
392.125	59.22
392.334	-18.6
392.544	100.18
392.753	102.23
392.963	87.89
393.172	65.36
393.382	24.4
393.591	75.6
393.801	-6.31
394.01	104.28
394.22	169.81
394.429	110.42
394.639	55.12
394.848	44.88
395.058	149.33
395.267	81.75
395.477	85.84
395.686	42.84
395.895	151.38
396.105	169.81
396.314	77.65
396.524	118.61
396.733	59.22
396.942	55.12
397.152	89.94
397.361	63.32
397.57	120.66
397.78	110.42
397.989	65.36
398.198	145.24
398.407	106.32
398.617	110.42
398.826	51.03
399.035	116.56
399.244	91.99
399.453	71.51
399.663	44.88
399.872	110.42
400.081	116.56
400.29	96.08
400.499	36.69
400.708	143.19
400.917	192.34
401.127	24.4
401.336	149.33
401.545	135
401.754	141.14
401.963	75.6
402.172	145.24
402.381	173.91
402.59	132.95
402.799	85.84
403.008	153.43
403.217	137.04
403.426	167.76
403.635	128.85
403.844	149.33
404.053	137.04
404.262	63.32
404.471	149.33
404.68	223.06
404.888	141.14
405.097	169.81
405.306	200.53
405.515	149.33
405.724	229.2
405.933	223.06
406.142	169.81
406.35	167.76
406.559	214.87
406.768	214.87
406.977	272.21
407.185	188.24
407.394	216.91
407.603	221.01
407.812	292.69
408.02	223.06
408.229	157.52
408.438	200.53
408.646	227.15
408.855	237.39
409.064	304.98
409.272	304.98
409.481	370.51
409.69	264.02
409.898	296.78
410.107	358.22
410.315	366.42
410.524	429.9
410.733	292.69
410.941	276.31
411.15	319.31
411.358	333.65
411.567	382.8
411.775	421.71
411.984	372.56
412.192	380.75
412.401	427.85
412.609	495.44
412.818	554.83
413.026	522.06
413.234	438.09
413.443	517.97
413.651	601.93
413.86	589.64
414.068	558.92
414.276	616.27
414.485	733
414.693	616.27
414.901	606.03
415.11	739.15
415.318	669.52
415.526	702.28
415.734	786.25
415.943	735.05
416.151	847.69
416.359	835.4
416.567	1003.33
416.776	796.49
416.984	960.33
417.192	1034.05
417.4	1077.06
417.608	999.24
417.817	1025.86
418.025	1087.3
418.233	1163.08
418.441	1197.89
418.649	1259.33
418.857	1275.71
419.065	1353.54
419.273	1298.24
419.481	1378.11
419.689	1500.99
419.897	1537.85
420.105	1455.94
420.313	1560.38
420.521	1587.01
420.729	1582.91
420.937	1666.88
421.145	1697.6
421.353	1855.29
421.561	1920.82
421.769	2021.17
421.977	2234.16
422.185	2004.79
422.393	2191.16
422.601	2246.45
422.809	2303.79
423.017	2279.22
423.224	2418.48
423.432	2539.31
423.64	2563.89
423.848	2828.07
424.056	2703.15
424.263	2940.71
424.471	2953
424.679	2848.55
424.887	3110.69
425.094	3221.28
425.302	3227.43
425.51	3360.55
425.718	3528.48
425.925	3540.77
426.133	3651.36
426.341	3790.62
426.548	3970.84
426.756	4106.01
426.964	4192.02
427.171	4345.62
427.379	4409.11
427.586	4542.22
427.794	4591.38
428.001	4884.23
428.209	5013.26
428.417	4966.15
428.624	5232.39
428.832	5207.81
429.039	5342.98
429.247	5351.17
429.454	5689.09
429.662	6211.32
429.869	5760.77
430.076	6205.17
430.284	6100.73
430.491	6270.71
430.699	6678.26
430.906	6625.01
431.114	6852.33
431.321	7007.98
431.528	7319.27
431.736	7601.89
431.943	8027.87
432.15	7681.76
432.358	7948
432.565	8259.29
432.772	8140.51
432.979	8666.83
433.187	8767.18
433.394	8791.76
433.601	9432.77
433.808	9483.97
434.016	9578.18
434.223	9780.93
434.43	10415.8
434.637	10323.64
434.844	10718.9
435.052	11030.19
435.259	10966.7
435.466	10940.08
435.673	11034.28
435.88	11613.86
436.087	12215.96
436.294	12453.53
436.501	12015.26
436.708	12396.18
436.915	12701.33
437.122	13432.46
437.329	13338.25
437.537	13680.26
437.743	13805.19
437.95	13733.51
438.157	14601.85
438.364	14902.9
438.571	14722.68
438.778	15052.4
438.985	16512.6
439.192	15560.3
439.399	16254.56
439.606	15787.62
439.813	16645.72
440.02	17849.92
440.227	17675.85
440.433	17266.25
440.64	17768.01
440.847	17849.92
441.054	18441.79
441.261	19420.72
441.467	19269.17
441.674	19428.91
441.881	20420.13
442.088	20383.26
442.294	20069.92
442.501	20637.21
442.708	21016.08
442.914	21726.73
443.121	22525.44
443.328	21829.13
443.534	23621.1
443.741	23401.97
443.948	22949.37
444.154	24751.58
444.361	24335.84
444.568	24749.53
444.774	24548.83
444.981	24608.22
445.187	25327.06
445.394	26703.29
445.6	26463.68
445.807	28749.21
446.013	27370.93
446.22	28249.51
446.426	29394.32
446.633	29521.3
446.839	30715.26
447.046	29445.52
447.252	31067.52
447.459	30928.25
447.665	31022.46
447.871	32200.04
448.078	33518.93
448.284	32050.54
448.491	32824.67
448.697	34307.4
448.903	35142.97
449.11	34913.6
449.316	34317.64
449.522	35087.68
449.728	36226.35
449.935	36349.23
450.141	36126
450.347	37152.03
450.553	36031.79
450.76	36603.17
450.966	37649.69
451.172	37448.99
451.378	38335.76
451.584	37369.12
451.791	38749.45
451.997	38583.56
452.203	39367.93
452.409	39073.03
452.615	39185.66
452.821	37549.34
453.027	37238.05
453.233	39574.78
453.44	37922.07
453.646	38180.11
453.852	38235.41
454.058	39191.81
454.264	37692.69
454.47	38896.9
454.676	37924.11
454.882	39105.79
455.088	35904.82
455.294	36265.26
455.5	37080.35
455.705	37274.91
455.911	35933.49
456.117	35044.67
456.323	34815.3
456.529	33041.76
456.735	34344.27
456.941	33572.18
457.147	33133.92
457.352	31757.68
457.558	31712.63
457.764	32011.63
457.97	31405.43
458.176	30881.15
458.381	30668.16
458.587	28824.99
458.793	28935.58
458.999	27651.5
459.204	29957.52
459.41	28845.47
459.616	26797.5
459.821	26963.39
460.027	26979.77
460.233	26131.91
460.438	24841.69
460.644	25073.11
460.85	23803.37
461.055	24022.5
461.261	23354.86
461.466	22060.55
461.672	21435.92
461.878	22693.37
462.083	21153.3
462.289	21061.14
462.494	20581.92
462.7	19580.46
462.905	19197.49
463.111	19795.5
463.316	20006.44
463.522	19469.87
463.727	19664.43
463.932	19793.45
464.138	19144.24
464.343	19086.9
464.549	18767.41
464.754	19584.55
464.959	19119.67
465.165	19072.56
465.37	18269.76
465.575	17925.7
465.781	18628.15
465.986	18830.9
466.191	17985.09
466.397	17426
466.602	16836.18
466.807	17559.11
467.012	17649.22
467.218	17256.01
