Data from USB4F104151__37__13-11-00-703.txt Node

Date: Fri Mar 14 13:11:00 EDT 2025
User: louis
Spectrometer: USB4F10415
Trigger mode: 4
Integration Time (sec): 2.000000E-2
Scans to average: 1
Electric dark correction enabled: true
Nonlinearity correction enabled: false
Boxcar width: 0
XAxis mode: Wavelengths
Number of Pixels in Spectrum: 3648
>>>>>Begin Spectral Data<<<<<
178.204	-108.54
178.424	-108.54
178.644	-108.54
178.864	-108.54
179.084	-169.98
179.304	43.01
179.524	30.72
179.744	-77.82
179.964	26.62
180.184	-10.24
180.404	22.53
180.624	6.14
180.844	18.43
181.064	24.58
181.283	-2.05
181.503	-10.24
181.723	-71.68
181.943	24.58
182.163	57.34
182.383	-2.05
182.602	47.1
182.822	71.68
183.042	8.19
183.262	43.01
183.482	51.2
183.701	-49.15
183.921	12.29
184.141	36.86
184.361	2.05
184.58	43.01
184.8	47.1
185.02	2.05
185.239	12.29
185.459	8.19
185.679	59.39
185.898	-43.01
186.118	79.87
186.338	40.96
186.557	63.49
186.777	-20.48
186.997	-26.62
187.216	-10.24
187.436	28.67
187.655	65.54
187.875	86.01
188.095	8.19
188.314	47.1
188.534	120.83
188.753	-6.14
188.973	88.06
189.192	77.82
189.412	-10.24
189.631	16.38
189.851	63.49
190.07	49.15
190.29	10.24
190.509	-10.24
190.729	55.3
190.948	6.14
191.168	104.45
191.387	120.83
191.607	34.82
191.826	73.73
192.045	2.05
192.265	-2.05
192.484	34.82
192.704	14.34
192.923	-6.14
193.142	88.06
193.362	-16.38
193.581	-2.05
193.8	92.16
194.02	71.68
194.239	-24.58
194.458	55.3
194.678	-34.82
194.897	47.1
195.116	57.34
195.335	30.72
195.555	61.44
195.774	24.58
195.993	133.12
196.212	20.48
196.432	-18.43
196.651	14.34
196.87	18.43
197.089	106.49
197.308	88.06
197.528	71.68
197.747	65.54
197.966	-2.05
198.185	67.58
198.404	34.82
198.623	71.68
198.842	-30.72
199.062	-30.72
199.281	34.82
199.5	10.24
199.719	26.62
199.938	30.72
200.157	71.68
200.376	-12.29
200.595	129.02
200.814	12.29
201.033	55.3
201.252	79.87
201.471	32.77
201.69	38.91
201.909	71.68
202.128	79.87
202.347	22.53
202.566	14.34
202.785	-8.19
203.004	55.3
203.223	141.31
203.442	14.34
203.661	-10.24
203.879	10.24
204.098	20.48
204.317	22.53
204.536	69.63
204.755	14.34
204.974	47.1
205.193	65.54
205.411	63.49
205.63	16.38
205.849	38.91
206.068	-45.06
206.287	-2.05
206.505	22.53
206.724	16.38
206.943	12.29
207.162	-8.19
207.381	26.62
207.599	14.34
207.818	75.77
208.037	47.1
208.255	32.77
208.474	8.19
208.693	45.06
208.911	22.53
209.13	22.53
209.349	30.72
209.567	75.77
209.786	6.14
210.005	61.44
210.223	16.38
210.442	92.16
210.661	-4.1
210.879	47.1
211.098	14.34
211.316	34.82
211.535	63.49
211.753	-40.96
211.972	63.49
212.191	-22.53
212.409	69.63
212.628	18.43
212.846	-38.91
213.065	114.69
213.283	100.35
213.502	49.15
213.72	88.06
213.938	43.01
214.157	4.1
214.375	-32.77
214.594	-8.19
214.812	16.38
215.031	-20.48
215.249	40.96
215.467	94.21
215.686	6.14
215.904	98.3
216.122	88.06
216.341	30.72
216.559	10.24
216.778	69.63
216.996	47.1
217.214	61.44
217.432	98.3
217.651	24.58
217.869	14.34
218.087	2.05
218.306	34.82
218.524	71.68
218.742	-2.05
218.96	34.82
219.179	22.53
219.397	-4.1
219.615	-40.96
219.833	6.14
220.051	-26.62
220.27	81.92
220.488	79.87
220.706	30.72
220.924	-18.43
221.142	55.3
221.36	-32.77
221.578	92.16
221.796	55.3
222.015	38.91
222.233	124.93
222.451	-20.48
222.669	10.24
222.887	75.77
223.105	-24.58
223.323	-30.72
223.541	59.39
223.759	43.01
223.977	63.49
224.195	26.62
224.413	77.82
224.631	32.77
224.849	20.48
225.067	49.15
225.285	-36.86
225.503	40.96
225.721	30.72
225.939	20.48
226.157	114.69
226.375	112.64
226.592	96.25
226.81	22.53
227.028	96.25
227.246	102.4
227.464	22.53
227.682	0
227.9	22.53
228.117	53.25
228.335	116.73
228.553	22.53
228.771	28.67
228.989	51.2
229.206	12.29
229.424	79.87
229.642	67.58
229.86	0
230.077	43.01
230.295	28.67
230.513	96.25
230.731	57.34
230.948	-34.82
231.166	-8.19
231.384	57.34
231.601	32.77
231.819	71.68
232.037	92.16
232.254	18.43
232.472	-26.62
232.689	-2.05
232.907	98.3
233.125	38.91
233.342	36.86
233.56	14.34
233.777	75.77
233.995	36.86
234.213	59.39
234.43	57.34
234.648	-10.24
234.865	34.82
235.083	53.25
235.3	22.53
235.518	38.91
235.735	34.82
235.953	116.73
236.17	86.01
236.388	38.91
236.605	10.24
236.822	79.87
237.04	8.19
237.257	65.54
237.475	8.19
237.692	57.34
237.909	8.19
238.127	71.68
238.344	49.15
238.562	45.06
238.779	-10.24
238.996	38.91
239.214	-2.05
239.431	14.34
239.648	20.48
239.865	-4.1
240.083	59.39
240.3	55.3
240.517	45.06
240.735	79.87
240.952	0
241.169	40.96
241.386	-34.82
241.603	88.06
241.821	-8.19
242.038	59.39
242.255	51.2
242.472	92.16
242.689	96.25
242.907	26.62
243.124	10.24
243.341	6.14
243.558	-16.38
243.775	16.38
243.992	-36.86
244.209	53.25
244.426	34.82
244.643	129.02
244.86	-22.53
245.078	53.25
245.295	-10.24
245.512	47.1
245.729	28.67
245.946	59.39
246.163	71.68
246.38	69.63
246.597	-20.48
246.814	96.25
247.031	-24.58
247.248	18.43
247.464	40.96
247.681	67.58
247.898	38.91
248.115	28.67
248.332	112.64
248.549	67.58
248.766	104.45
248.983	120.83
249.2	47.1
249.417	24.58
249.633	86.01
249.85	57.34
250.067	30.72
250.284	49.15
250.501	-8.19
250.717	63.49
250.934	16.38
251.151	71.68
251.368	24.58
251.585	6.14
251.801	8.19
252.018	16.38
252.235	69.63
252.451	6.14
252.668	-6.14
252.885	38.91
253.102	40.96
253.318	18.43
253.535	40.96
253.752	-16.38
253.968	43.01
254.185	55.3
254.401	30.72
254.618	86.01
254.835	38.91
255.051	-14.34
255.268	34.82
255.484	28.67
255.701	-34.82
255.917	-12.29
256.134	-2.05
256.351	79.87
256.567	-43.01
256.784	24.58
257	-18.43
257.217	30.72
257.433	90.11
257.65	79.87
257.866	65.54
258.082	-18.43
258.299	40.96
258.515	63.49
258.732	-4.1
258.948	-57.34
259.165	-18.43
259.381	-26.62
259.597	-16.38
259.814	67.58
260.03	-28.67
260.246	4.1
260.463	63.49
260.679	-40.96
260.895	63.49
261.112	32.77
261.328	18.43
261.544	153.6
261.761	49.15
261.977	61.44
262.193	38.91
262.409	94.21
262.626	53.25
262.842	2.05
263.058	-83.97
263.274	47.1
263.49	0
263.707	106.49
263.923	38.91
264.139	-28.67
264.355	69.63
264.571	-14.34
264.787	51.2
265.004	-10.24
265.22	14.34
265.436	-16.38
265.652	65.54
265.868	71.68
266.084	-4.1
266.3	-16.38
266.516	81.92
266.732	38.91
266.948	40.96
267.164	30.72
267.38	71.68
267.596	61.44
267.812	104.45
268.028	57.34
268.244	22.53
268.46	6.14
268.676	-12.29
268.892	24.58
269.108	34.82
269.324	55.3
269.54	92.16
269.756	57.34
269.972	-2.05
270.188	16.38
270.403	-40.96
270.619	57.34
270.835	34.82
271.051	2.05
271.267	6.14
271.483	16.38
271.698	20.48
271.914	-32.77
272.13	47.1
272.346	38.91
272.562	43.01
272.777	75.77
272.993	24.58
273.209	16.38
273.425	22.53
273.64	22.53
273.856	108.54
274.072	57.34
274.287	2.05
274.503	10.24
274.719	106.49
274.934	49.15
275.15	36.86
275.366	51.2
275.581	-4.1
275.797	-26.62
276.012	106.49
276.228	43.01
276.444	49.15
276.659	4.1
276.875	55.3
277.09	40.96
277.306	14.34
277.521	94.21
277.737	38.91
277.952	28.67
278.168	-14.34
278.383	22.53
278.599	26.62
278.814	81.92
279.03	12.29
279.245	40.96
279.461	32.77
279.676	30.72
279.892	14.34
280.107	20.48
280.322	47.1
280.538	14.34
280.753	28.67
280.969	81.92
281.184	-6.14
281.399	45.06
281.615	88.06
281.83	-30.72
282.045	8.19
282.26	-18.43
282.476	16.38
282.691	51.2
282.906	59.39
283.122	40.96
283.337	65.54
283.552	-36.86
283.767	51.2
283.983	92.16
284.198	45.06
284.413	43.01
284.628	-43.01
284.843	34.82
285.058	-20.48
285.274	45.06
285.489	-10.24
285.704	38.91
285.919	-51.2
286.134	8.19
286.349	55.3
286.564	30.72
286.779	77.82
286.995	59.39
287.21	-34.82
287.425	6.14
287.64	14.34
287.855	20.48
288.07	2.05
288.285	-8.19
288.5	92.16
288.715	6.14
288.93	-24.58
289.145	8.19
289.36	73.73
289.575	88.06
289.79	75.77
290.004	69.63
290.219	94.21
290.434	18.43
290.649	-28.67
290.864	-26.62
291.079	59.39
291.294	73.73
291.509	71.68
291.724	108.54
291.938	22.53
292.153	26.62
292.368	0
292.583	22.53
292.798	28.67
293.012	24.58
293.227	61.44
293.442	47.1
293.657	88.06
293.871	53.25
294.086	32.77
294.301	57.34
294.516	59.39
294.73	47.1
294.945	-55.3
295.16	77.82
295.374	67.58
295.589	55.3
295.804	45.06
296.018	24.58
296.233	88.06
296.447	71.68
296.662	16.38
296.877	65.54
297.091	30.72
297.306	75.77
297.52	51.2
297.735	75.77
297.949	16.38
298.164	36.86
298.378	40.96
298.593	14.34
298.807	34.82
299.022	47.1
299.236	49.15
299.451	30.72
299.665	-10.24
299.88	110.59
300.094	96.25
300.309	-32.77
300.523	61.44
300.737	24.58
300.952	57.34
301.166	59.39
301.381	-12.29
301.595	20.48
301.809	-6.14
302.024	10.24
302.238	38.91
302.452	96.25
302.667	-12.29
302.881	36.86
303.095	-4.1
303.309	40.96
303.524	-49.15
303.738	86.01
303.952	20.48
304.166	73.73
304.381	-30.72
304.595	86.01
304.809	30.72
305.023	-22.53
305.237	57.34
305.452	61.44
305.666	4.1
305.88	55.3
306.094	79.87
306.308	94.21
306.522	40.96
306.736	104.45
306.95	106.49
307.164	8.19
307.379	51.2
307.593	112.64
307.807	55.3
308.021	28.67
308.235	77.82
308.449	8.19
308.663	-38.91
308.877	43.01
309.091	53.25
309.305	-2.05
309.519	51.2
309.733	79.87
309.947	-8.19
310.161	63.49
310.374	43.01
310.588	40.96
310.802	6.14
311.016	14.34
311.23	96.25
311.444	24.58
311.658	40.96
311.872	-57.34
312.085	86.01
312.299	49.15
312.513	51.2
312.727	69.63
312.941	88.06
313.154	32.77
313.368	36.86
313.582	63.49
313.796	71.68
314.009	88.06
314.223	12.29
314.437	40.96
314.651	71.68
314.864	-8.19
315.078	-100.35
315.292	22.53
315.505	71.68
315.719	34.82
315.933	83.97
316.146	-12.29
316.36	4.1
316.573	8.19
316.787	30.72
317.001	32.77
317.214	22.53
317.428	90.11
317.641	-38.91
317.855	38.91
318.068	55.3
318.282	28.67
318.495	108.54
318.709	61.44
318.922	10.24
319.136	94.21
319.349	36.86
319.563	55.3
319.776	43.01
319.99	4.1
320.203	92.16
320.417	-10.24
320.63	90.11
320.843	92.16
321.057	24.58
321.27	22.53
321.483	135.17
321.697	6.14
321.91	-14.34
322.124	57.34
322.337	32.77
322.55	18.43
322.763	59.39
322.977	55.3
323.19	0
323.403	8.19
323.617	-36.86
323.83	88.06
324.043	32.77
324.256	-14.34
324.469	20.48
324.683	38.91
324.896	-26.62
325.109	8.19
325.322	28.67
325.535	30.72
325.748	73.73
325.962	24.58
326.175	30.72
326.388	-16.38
326.601	47.1
326.814	73.73
327.027	-4.1
327.24	53.25
327.453	-28.67
327.666	94.21
327.879	73.73
328.092	63.49
328.305	-26.62
328.518	2.05
328.731	4.1
328.944	59.39
329.157	116.73
329.37	18.43
329.583	34.82
329.796	57.34
330.009	51.2
330.222	-12.29
330.435	14.34
330.648	114.69
330.861	-8.19
331.073	43.01
331.286	36.86
331.499	14.34
331.712	79.87
331.925	73.73
332.138	-30.72
332.35	81.92
332.563	59.39
332.776	98.3
332.989	26.62
333.202	38.91
333.414	81.92
333.627	40.96
333.84	51.2
334.053	32.77
334.265	-8.19
334.478	155.65
334.691	57.34
334.903	100.35
335.116	22.53
335.329	40.96
335.541	104.45
335.754	133.12
335.966	43.01
336.179	102.4
336.392	16.38
336.604	24.58
336.817	-26.62
337.029	81.92
337.242	-67.58
337.454	22.53
337.667	-26.62
337.88	98.3
338.092	24.58
338.305	83.97
338.517	53.25
338.729	38.91
338.942	112.64
339.154	22.53
339.367	0
339.579	57.34
339.792	30.72
340.004	47.1
340.217	-22.53
340.429	88.06
340.641	-34.82
340.854	59.39
341.066	75.77
341.278	65.54
341.491	24.58
341.703	26.62
341.915	47.1
342.128	63.49
342.34	32.77
342.552	-4.1
342.764	8.19
342.977	-12.29
343.189	22.53
343.401	63.49
343.613	6.14
343.826	55.3
344.038	38.91
344.25	32.77
344.462	8.19
344.674	57.34
344.886	36.86
345.099	43.01
345.311	30.72
345.523	10.24
345.735	-59.39
345.947	59.39
346.159	51.2
346.371	10.24
346.583	4.1
346.795	102.4
347.007	30.72
347.219	73.73
347.431	-22.53
347.643	59.39
347.855	67.58
348.067	86.01
348.279	51.2
348.491	88.06
348.703	10.24
348.915	32.77
349.127	112.64
349.339	88.06
349.551	45.06
349.763	55.3
349.975	69.63
350.187	51.2
350.399	-8.19
350.61	-22.53
350.822	51.2
351.034	112.64
351.246	-12.29
351.458	65.54
351.669	22.53
351.881	14.34
352.093	63.49
352.305	24.58
352.517	94.21
352.728	47.1
352.94	83.97
353.152	139.26
353.363	-16.38
353.575	79.87
353.787	63.49
353.999	6.14
354.21	30.72
354.422	55.3
354.633	36.86
354.845	-2.05
355.057	77.82
355.268	55.3
355.48	100.35
355.692	71.68
355.903	90.11
356.115	12.29
356.326	30.72
356.538	6.14
356.749	22.53
356.961	73.73
357.172	32.77
357.384	-26.62
357.595	55.3
357.807	104.45
358.018	30.72
358.23	32.77
358.441	49.15
358.653	83.97
358.864	18.43
359.075	45.06
359.287	-6.14
359.498	20.48
359.709	81.92
359.921	6.14
360.132	96.25
360.344	45.06
360.555	32.77
360.766	73.73
360.977	98.3
361.189	65.54
361.4	51.2
361.611	47.1
361.823	98.3
362.034	8.19
362.245	16.38
362.456	98.3
362.667	55.3
362.879	-2.05
363.09	22.53
363.301	65.54
363.512	63.49
363.723	47.1
363.935	30.72
364.146	96.25
364.357	28.67
364.568	28.67
364.779	-36.86
364.99	61.44
365.201	-59.39
365.412	53.25
365.623	32.77
365.834	38.91
366.045	-14.34
366.256	100.35
366.467	53.25
366.678	6.14
366.889	38.91
367.1	47.1
367.311	22.53
367.522	79.87
367.733	6.14
367.944	77.82
368.155	38.91
368.366	26.62
368.577	102.4
368.788	59.39
368.999	43.01
369.209	45.06
369.42	106.49
369.631	55.3
369.842	67.58
370.053	71.68
370.264	83.97
370.474	-22.53
370.685	55.3
370.896	26.62
371.107	8.19
371.317	10.24
371.528	61.44
371.739	81.92
371.95	38.91
372.16	20.48
372.371	53.25
372.582	22.53
372.792	69.63
373.003	71.68
373.214	98.3
373.424	69.63
373.635	0
373.846	16.38
374.056	67.58
374.267	40.96
374.477	45.06
374.688	-24.58
374.898	16.38
375.109	90.11
375.319	28.67
375.53	0
375.74	98.3
375.951	6.14
376.161	-53.25
376.372	83.97
376.582	32.77
376.793	65.54
377.003	63.49
377.214	-34.82
377.424	-14.34
377.635	49.15
377.845	-28.67
378.055	71.68
378.266	47.1
378.476	92.16
378.686	4.1
378.897	79.87
379.107	77.82
379.317	110.59
379.528	-40.96
379.738	79.87
379.948	88.06
380.158	59.39
380.369	71.68
380.579	61.44
380.789	75.77
380.999	96.25
381.21	32.77
381.42	53.25
381.63	16.38
381.84	90.11
382.05	38.91
382.261	47.1
382.471	129.02
382.681	106.49
382.891	22.53
383.101	71.68
383.311	-10.24
383.521	24.58
383.731	98.3
383.941	114.69
384.151	51.2
384.361	6.14
384.571	53.25
384.781	75.77
384.991	106.49
385.201	10.24
385.411	14.34
385.621	94.21
385.831	63.49
386.041	67.58
386.251	53.25
386.461	120.83
386.671	6.14
386.881	43.01
387.091	32.77
387.301	55.3
387.511	77.82
387.72	34.82
387.93	24.58
388.14	98.3
388.35	53.25
388.56	178.17
388.769	2.05
388.979	129.02
389.189	43.01
389.399	73.73
389.609	83.97
389.818	116.73
390.028	67.58
390.238	112.64
390.447	47.1
390.657	110.59
390.867	8.19
391.076	28.67
391.286	32.77
391.496	153.6
391.705	-24.58
391.915	92.16
392.125	112.64
392.334	36.86
392.544	40.96
392.753	-20.48
392.963	-14.34
393.172	18.43
393.382	-10.24
393.591	45.06
393.801	59.39
394.01	81.92
394.22	77.82
394.429	153.6
394.639	79.87
394.848	53.25
395.058	47.1
395.267	8.19
395.477	79.87
395.686	32.77
395.895	98.3
396.105	141.31
396.314	131.07
396.524	147.45
396.733	81.92
396.942	106.49
397.152	129.02
397.361	108.54
397.57	63.49
397.78	16.38
397.989	51.2
398.198	110.59
398.407	57.34
398.617	73.73
398.826	100.35
399.035	75.77
399.244	141.31
399.453	145.41
399.663	92.16
399.872	55.3
400.081	47.1
400.29	124.93
400.499	124.93
400.708	106.49
400.917	92.16
401.127	47.1
401.336	47.1
401.545	116.73
401.754	106.49
401.963	71.68
402.172	63.49
402.381	65.54
402.59	108.54
402.799	129.02
403.008	98.3
403.217	108.54
403.426	137.21
403.635	145.41
403.844	73.73
404.053	79.87
404.262	147.45
404.471	221.18
404.68	153.6
404.888	131.07
405.097	139.26
405.306	18.43
405.515	133.12
405.724	169.98
405.933	161.79
406.142	161.79
406.35	129.02
406.559	227.32
406.768	147.45
406.977	83.97
407.185	129.02
407.394	159.74
407.603	133.12
407.812	172.03
408.02	169.98
408.229	208.89
408.438	219.13
408.646	149.5
408.855	245.76
409.064	256
409.272	178.17
409.481	272.38
409.69	98.3
409.898	153.6
410.107	215.04
410.315	301.05
410.524	180.22
410.733	262.14
410.941	286.72
411.15	284.67
411.358	333.82
411.567	335.87
411.775	253.95
411.984	366.59
412.192	325.63
412.401	282.62
412.609	331.77
412.818	397.31
413.026	489.46
413.234	317.44
413.443	399.35
413.651	399.35
413.86	448.51
414.068	399.35
414.276	468.98
414.485	464.89
414.693	395.26
414.901	501.75
415.11	444.41
415.318	489.46
415.526	501.75
415.734	567.29
415.943	548.86
416.151	677.88
416.359	595.96
416.567	661.49
416.776	690.17
416.984	671.73
417.192	743.41
417.4	624.63
417.608	694.26
417.817	767.99
418.025	811
418.233	866.29
418.441	729.08
418.649	813.04
418.857	948.21
419.065	923.63
419.273	940.02
419.481	1021.94
419.689	1032.18
419.897	956.4
420.105	1114.1
420.313	1103.86
420.521	1228.78
420.729	1218.54
420.937	1202.16
421.145	1245.17
421.353	1308.65
421.561	1431.53
421.769	1333.23
421.977	1341.42
422.185	1507.31
422.393	1583.08
422.601	1695.72
422.809	1574.89
423.017	1611.75
423.224	1679.33
423.432	1955.81
423.64	1796.07
423.848	1923.04
424.056	1933.28
424.263	1980.39
424.471	1998.82
424.679	2093.02
424.887	2164.7
425.094	2267.1
425.302	2275.29
425.51	2318.3
425.718	2535.39
425.925	2471.9
426.133	2547.67
426.341	2734.04
426.548	2887.64
426.756	2797.53
426.964	2910.16
427.171	3028.95
427.379	3110.86
427.586	3000.27
427.794	3293.13
428.001	3286.99
428.209	3598.28
428.417	3571.66
428.624	3657.67
428.832	3790.79
429.039	3712.97
429.247	3719.11
429.454	4138.94
429.662	4220.86
429.869	4048.83
430.076	4343.74
430.284	4110.27
430.491	4378.56
430.699	4757.43
430.906	4802.49
431.114	4782.01
431.321	4956.08
431.528	5091.25
431.736	5324.72
431.943	5414.83
432.15	5486.51
432.358	5441.45
432.565	5738.41
432.772	5732.26
432.979	6029.22
433.187	6186.91
433.394	6145.95
433.601	6516.64
433.808	6721.43
434.016	6582.17
434.223	6838.17
434.43	7198.61
434.637	7051.16
434.844	7534.48
435.052	7829.38
435.259	7663.5
435.466	7747.47
435.673	7536.52
435.88	8077.19
436.087	8617.85
436.294	8687.48
436.501	8462.21
436.708	8718.2
436.915	8892.28
437.122	9348.98
437.329	9191.28
437.537	9545.58
437.743	9625.45
437.95	9631.6
438.157	9989.99
438.364	10536.8
438.571	10483.55
438.778	10657.63
438.985	11265.88
439.192	10917.72
439.399	11343.7
439.606	11302.74
439.813	11894.6
440.02	12396.35
440.227	12289.86
440.433	12121.93
440.64	12463.94
440.847	12482.37
441.054	12734.27
441.261	13752.11
441.467	13432.63
441.674	13539.12
441.881	14296.87
442.088	14128.94
442.294	13967.15
442.501	14466.85
442.708	14626.59
442.914	15462.16
443.121	16195.34
443.328	15415.06
443.534	16731.9
443.741	16539.4
443.948	15939.34
444.154	17022.72
444.361	17026.81
444.568	17362.68
444.774	17211.13
444.981	17401.59
445.187	17841.9
445.394	18659.04
445.6	18513.64
445.807	20113.1
446.013	19474.13
446.22	19865.3
446.426	20715.2
446.633	20481.74
446.839	21616.31
447.046	20479.69
447.252	21626.55
447.459	21692.08
447.665	21747.38
447.871	22511.27
448.078	23658.14
448.284	22648.49
448.491	23168.67
448.697	24022.67
448.903	24671.88
449.11	24458.89
449.316	24168.08
449.522	24475.27
449.728	25147.01
449.935	25646.71
450.141	25613.95
450.347	26060.4
450.553	25337.47
450.76	25759.35
450.966	26490.48
451.172	25947.76
451.378	27018.85
451.584	26148.47
451.791	27303.52
451.997	27022.95
452.203	27633.24
452.409	27610.71
452.615	27332.19
452.821	26320.49
453.027	26097.27
453.233	27594.33
453.44	26797.67
453.646	26742.38
453.852	26934.89
454.058	27786.84
454.264	26414.7
454.47	27342.43
454.676	26715.75
454.882	27528.8
455.088	24897.16
455.294	25210.5
455.5	25806.45
455.705	26312.3
455.911	25179.78
456.117	24657.54
456.323	24499.85
456.529	23019.17
456.735	24071.82
456.941	23565.98
457.147	23355.04
457.352	22326.96
457.558	22294.19
457.764	22304.43
457.97	21835.44
458.176	21444.28
458.381	21366.46
458.587	20397.77
458.793	20192.97
458.999	19220.19
459.204	20815.55
459.41	20244.17
459.616	19085.02
459.821	18900.7
460.027	18861.79
460.233	18407.14
460.438	17409.78
460.644	17506.04
460.85	16690.95
461.055	16752.38
461.261	16686.85
461.466	15636.24
461.672	14964.51
461.878	15894.29
462.083	14825.25
462.289	14667.55
462.494	14323.49
462.7	13756.21
462.905	13434.67
463.111	13834.03
463.316	13909.8
463.522	13664.05
463.727	13743.92
463.932	13623.09
464.138	13557.55
464.343	13682.48
464.549	13457.2
464.754	13676.34
464.959	13393.72
465.165	13389.62
465.37	12875.58
465.575	12392.26
465.781	12939.07
465.986	13080.38
466.191	12472.13
466.397	12361.54
466.602	11818.83
466.807	12199.75
467.012	12189.51
467.218	12148.55
467.423	12060.49
467.628	11953.99
467.833	12523.33
468.038	12054.34
468.244	11669.33
468.449	12302.15
