Data from USB4F104151__53__13-11-28-580.txt Node

Date: Fri Mar 14 13:11:28 EDT 2025
User: louis
Spectrometer: USB4F10415
Trigger mode: 4
Integration Time (sec): 2.000000E-2
Scans to average: 1
Electric dark correction enabled: true
Nonlinearity correction enabled: false
Boxcar width: 0
XAxis mode: Wavelengths
Number of Pixels in Spectrum: 3648
>>>>>Begin Spectral Data<<<<<
178.204	-129.88
178.424	-129.88
178.644	-129.88
178.864	-76.63
179.084	-58.2
179.304	13.48
179.524	-9.05
179.744	-19.29
179.964	-7
180.184	17.58
180.404	21.67
180.624	11.43
180.844	-2.9
181.064	19.63
181.283	36.01
181.503	-72.53
181.723	-9.05
181.943	33.96
182.163	40.11
182.383	-4.95
182.602	97.45
182.822	23.72
183.042	42.15
183.262	58.54
183.482	52.39
183.701	54.44
183.921	-41.81
184.141	11.43
184.361	74.92
184.58	19.63
184.8	46.25
185.02	23.72
185.239	-2.9
185.459	21.67
185.679	87.21
185.898	-11.09
186.118	101.55
186.338	27.82
186.557	105.64
186.777	23.72
186.997	1.19
187.216	56.49
187.436	93.35
187.655	19.63
187.875	9.39
188.095	-11.09
188.314	19.63
188.534	72.87
188.753	9.39
188.973	5.29
189.192	56.49
189.412	93.35
189.631	13.48
189.851	11.43
190.07	87.21
190.29	-9.05
190.509	-56.15
190.729	31.91
190.948	40.11
191.168	91.31
191.387	132.26
191.607	58.54
191.826	21.67
192.045	27.82
192.265	9.39
192.484	17.58
192.704	-23.38
192.923	-9.05
193.142	50.35
193.362	48.3
193.581	9.39
193.8	79.02
194.02	70.83
194.239	36.01
194.458	54.44
194.678	64.68
194.897	7.34
195.116	13.48
195.335	-21.33
195.555	29.87
195.774	-11.09
195.993	52.39
196.212	-41.81
196.432	11.43
196.651	44.2
196.87	-0.85
197.089	23.72
197.308	50.35
197.528	103.59
197.747	-21.33
197.966	111.78
198.185	50.35
198.404	15.53
198.623	91.31
198.842	52.39
199.062	1.19
199.281	38.06
199.5	38.06
199.719	29.87
199.938	64.68
200.157	91.31
200.376	38.06
200.595	36.01
200.814	36.01
201.033	-0.85
201.252	9.39
201.471	13.48
201.69	27.82
201.909	81.07
202.128	-7
202.347	7.34
202.566	44.2
202.785	7.34
203.004	13.48
203.223	130.22
203.442	79.02
203.661	25.77
203.879	25.77
204.098	85.16
204.317	50.35
204.536	-4.95
204.755	-17.24
204.974	23.72
205.193	29.87
205.411	21.67
205.63	54.44
205.849	13.48
206.068	21.67
206.287	50.35
206.505	60.59
206.724	21.67
206.943	-11.09
207.162	40.11
207.381	-54.1
207.599	44.2
207.818	62.63
208.037	-27.48
208.255	1.19
208.474	62.63
208.693	101.55
208.911	13.48
209.13	3.24
209.349	83.11
209.567	-25.43
209.786	50.35
210.005	1.19
210.223	17.58
210.442	-19.29
210.661	79.02
210.879	11.43
211.098	48.3
211.316	-2.9
211.535	72.87
211.753	9.39
211.972	1.19
212.191	13.48
212.409	38.06
212.628	13.48
212.846	13.48
213.065	97.45
213.283	66.73
213.502	7.34
213.72	13.48
213.938	-2.9
214.157	38.06
214.375	64.68
214.594	7.34
214.812	62.63
215.031	33.96
215.249	74.92
215.467	21.67
215.686	-25.43
215.904	48.3
216.122	1.19
216.341	-9.05
216.559	5.29
216.778	42.15
216.996	31.91
217.214	13.48
217.432	-2.9
217.651	-52.05
217.869	9.39
218.087	76.97
218.306	91.31
218.524	25.77
218.742	3.24
218.96	74.92
219.179	-0.85
219.397	31.91
219.615	42.15
219.833	15.53
220.051	44.2
220.27	76.97
220.488	62.63
220.706	7.34
220.924	87.21
221.142	70.83
221.36	1.19
221.578	58.54
221.796	107.69
222.015	44.2
222.233	-2.9
222.451	91.31
222.669	33.96
222.887	38.06
223.105	-21.33
223.323	99.5
223.541	-11.09
223.759	25.77
223.977	-4.95
224.195	56.49
224.413	13.48
224.631	91.31
224.849	101.55
225.067	105.64
225.285	13.48
225.503	-45.91
225.721	-21.33
225.939	17.58
226.157	-11.09
226.375	36.01
226.592	-11.09
226.81	60.59
227.028	54.44
227.246	-0.85
227.464	56.49
227.682	38.06
227.9	44.2
228.117	70.83
228.335	64.68
228.553	-13.14
228.771	-31.57
228.989	9.39
229.206	54.44
229.424	50.35
229.642	-4.95
229.86	33.96
230.077	54.44
230.295	31.91
230.513	66.73
230.731	17.58
230.948	38.06
231.166	-2.9
231.384	46.25
231.601	11.43
231.819	17.58
232.037	85.16
232.254	89.26
232.472	5.29
232.689	-66.39
232.907	50.35
233.125	-15.19
233.342	46.25
233.56	31.91
233.777	29.87
233.995	27.82
234.213	48.3
234.43	70.83
234.648	66.73
234.865	23.72
235.083	87.21
235.3	91.31
235.518	79.02
235.735	11.43
235.953	95.4
236.17	70.83
236.388	23.72
236.605	46.25
236.822	-33.62
237.04	117.93
237.257	46.25
237.475	-7
237.692	19.63
237.909	5.29
238.127	33.96
238.344	17.58
238.562	25.77
238.779	1.19
238.996	74.92
239.214	56.49
239.431	21.67
239.648	1.19
239.865	62.63
240.083	46.25
240.3	-41.81
240.517	-21.33
240.735	3.24
240.952	40.11
241.169	17.58
241.386	15.53
241.603	-2.9
241.821	29.87
242.038	23.72
242.255	29.87
242.472	46.25
242.689	40.11
242.907	29.87
243.124	21.67
243.341	91.31
243.558	21.67
243.775	15.53
243.992	5.29
244.209	52.39
244.426	148.65
244.643	91.31
244.86	33.96
245.078	-0.85
245.295	50.35
245.512	-27.48
245.729	38.06
245.946	-33.62
246.163	44.2
246.38	17.58
246.597	23.72
246.814	-15.19
247.031	25.77
247.248	74.92
247.464	99.5
247.681	13.48
247.898	56.49
248.115	33.96
248.332	-74.58
248.549	-11.09
248.766	128.17
248.983	91.31
249.2	95.4
249.417	13.48
249.633	25.77
249.85	9.39
250.067	17.58
250.284	29.87
250.501	29.87
250.717	-11.09
250.934	-58.2
251.151	-15.19
251.368	79.02
251.585	79.02
251.801	54.44
252.018	21.67
252.235	5.29
252.451	70.83
252.668	1.19
252.885	50.35
253.102	15.53
253.318	5.29
253.535	21.67
253.752	-37.72
253.968	64.68
254.185	9.39
254.401	31.91
254.618	9.39
254.835	-2.9
255.051	-2.9
255.268	31.91
255.484	36.01
255.701	21.67
255.917	9.39
256.134	42.15
256.351	38.06
256.567	21.67
256.784	89.26
257	-27.48
257.217	33.96
257.433	99.5
257.65	-43.86
257.866	-56.15
258.082	15.53
258.299	89.26
258.515	13.48
258.732	3.24
258.948	-0.85
259.165	3.24
259.381	-9.05
259.597	50.35
259.814	31.91
260.03	52.39
260.246	-64.34
260.463	-27.48
260.679	5.29
260.895	70.83
261.112	50.35
261.328	1.19
261.544	48.3
261.761	33.96
261.977	52.39
262.193	-23.38
262.409	48.3
262.626	-9.05
262.842	54.44
263.058	33.96
263.274	48.3
263.49	119.98
263.707	1.19
263.923	79.02
264.139	-23.38
264.355	70.83
264.571	91.31
264.787	-17.24
265.004	52.39
265.22	-17.24
265.436	81.07
265.652	-31.57
265.868	42.15
266.084	33.96
266.3	-7
266.516	-47.96
266.732	91.31
266.948	56.49
267.164	64.68
267.38	9.39
267.596	64.68
267.812	56.49
268.028	-31.57
268.244	-21.33
268.46	62.63
268.676	13.48
268.892	1.19
269.108	27.82
269.324	17.58
269.54	7.34
269.756	81.07
269.972	93.35
270.188	-31.57
270.403	70.83
270.619	64.68
270.835	103.59
271.051	1.19
271.267	70.83
271.483	27.82
271.698	-13.14
271.914	56.49
272.13	58.54
272.346	70.83
272.562	103.59
272.777	70.83
272.993	11.43
273.209	81.07
273.425	-0.85
273.64	3.24
273.856	93.35
274.072	-33.62
274.287	5.29
274.503	54.44
274.719	-7
274.934	54.44
275.15	25.77
275.366	29.87
275.581	-66.39
275.797	111.78
276.012	33.96
276.228	40.11
276.444	25.77
276.659	17.58
276.875	-17.24
277.09	70.83
277.306	29.87
277.521	-21.33
277.737	-13.14
277.952	-9.05
278.168	48.3
278.383	-19.29
278.599	1.19
278.814	-4.95
279.03	56.49
279.245	36.01
279.461	66.73
279.676	42.15
279.892	1.19
280.107	-7
280.322	21.67
280.538	50.35
280.753	-11.09
280.969	31.91
281.184	25.77
281.399	23.72
281.615	7.34
281.83	95.4
282.045	-19.29
282.26	17.58
282.476	-11.09
282.691	13.48
282.906	-11.09
283.122	13.48
283.337	31.91
283.552	36.01
283.767	62.63
283.983	70.83
284.198	38.06
284.413	48.3
284.628	15.53
284.843	-13.14
285.058	-7
285.274	91.31
285.489	33.96
285.704	21.67
285.919	25.77
286.134	64.68
286.349	19.63
286.564	33.96
286.779	70.83
286.995	62.63
287.21	-41.81
287.425	-21.33
287.64	29.87
287.855	21.67
288.07	40.11
288.285	23.72
288.5	5.29
288.715	38.06
288.93	-0.85
289.145	11.43
289.36	15.53
289.575	-21.33
289.79	23.72
290.004	-43.86
290.219	11.43
290.434	-4.95
290.649	29.87
290.864	-27.48
291.079	-56.15
291.294	-23.38
291.509	60.59
291.724	46.25
291.938	60.59
292.153	23.72
292.368	19.63
292.583	1.19
292.798	48.3
293.012	89.26
293.227	-21.33
293.442	72.87
293.657	107.69
293.871	101.55
294.086	46.25
294.301	48.3
294.516	48.3
294.73	54.44
294.945	-52.05
295.16	38.06
295.374	-33.62
295.589	-13.14
295.804	-2.9
296.018	36.01
296.233	70.83
296.447	-29.52
296.662	42.15
296.877	74.92
297.091	19.63
297.306	48.3
297.52	46.25
297.735	38.06
297.949	91.31
298.164	-19.29
298.378	-11.09
298.593	60.59
298.807	13.48
299.022	-0.85
299.236	25.77
299.451	46.25
299.665	33.96
299.88	70.83
300.094	87.21
300.309	42.15
300.523	19.63
300.737	72.87
300.952	52.39
301.166	54.44
301.381	46.25
301.595	9.39
301.809	-11.09
302.024	7.34
302.238	42.15
302.452	36.01
302.667	-35.67
302.881	87.21
303.095	111.78
303.309	66.73
303.524	-2.9
303.738	42.15
303.952	-11.09
304.166	91.31
304.381	-11.09
304.595	54.44
304.809	-39.76
305.023	7.34
305.237	48.3
305.452	-7
305.666	70.83
305.88	113.83
306.094	52.39
306.308	79.02
306.522	25.77
306.736	132.26
306.95	64.68
307.164	9.39
307.379	-21.33
307.593	60.59
307.807	48.3
308.021	60.59
308.235	52.39
308.449	-41.81
308.663	36.01
308.877	169.13
309.091	-41.81
309.305	33.96
309.519	3.24
309.733	21.67
309.947	23.72
310.161	140.46
310.374	99.5
310.588	101.55
310.802	-27.48
311.016	21.67
311.23	-39.76
311.444	7.34
311.658	58.54
311.872	72.87
312.085	38.06
312.299	62.63
312.513	54.44
312.727	52.39
312.941	-0.85
313.154	-2.9
313.368	-0.85
313.582	38.06
313.796	66.73
314.009	87.21
314.223	70.83
314.437	103.59
314.651	70.83
314.864	23.72
315.078	-2.9
315.292	-11.09
315.505	15.53
315.719	23.72
315.933	5.29
316.146	66.73
316.36	52.39
316.573	-2.9
316.787	38.06
317.001	79.02
317.214	46.25
317.428	79.02
317.641	54.44
317.855	17.58
318.068	-52.05
318.282	79.02
318.495	31.91
318.709	-35.67
318.922	21.67
319.136	48.3
319.349	105.64
319.563	81.07
319.776	-27.48
319.99	50.35
320.203	-7
320.417	11.43
320.63	-13.14
320.843	66.73
321.057	38.06
321.27	1.19
321.483	50.35
321.697	11.43
321.91	76.97
322.124	48.3
322.337	42.15
322.55	29.87
322.763	54.44
322.977	29.87
323.19	25.77
323.403	70.83
323.617	-23.38
323.83	58.54
324.043	1.19
324.256	70.83
324.469	89.26
324.683	64.68
324.896	60.59
325.109	-7
325.322	-76.63
325.535	85.16
325.748	25.77
325.962	95.4
326.175	9.39
326.388	50.35
326.601	44.2
326.814	70.83
327.027	93.35
327.24	79.02
327.453	-23.38
327.666	54.44
327.879	25.77
328.092	-0.85
328.305	23.72
328.518	25.77
328.731	-21.33
328.944	79.02
329.157	62.63
329.37	-39.76
329.583	101.55
329.796	17.58
330.009	9.39
330.222	95.4
330.435	52.39
330.648	46.25
330.861	58.54
331.073	124.07
331.286	40.11
331.499	-47.96
331.712	-4.95
331.925	17.58
332.138	72.87
332.35	25.77
332.563	-64.34
332.776	38.06
332.989	25.77
333.202	48.3
333.414	38.06
333.627	13.48
333.84	23.72
334.053	83.11
334.265	-33.62
334.478	56.49
334.691	-17.24
334.903	-0.85
335.116	-50
335.329	-4.95
335.541	70.83
335.754	13.48
335.966	58.54
336.179	-70.48
336.392	17.58
336.604	99.5
336.817	9.39
337.029	48.3
337.242	1.19
337.454	33.96
337.667	-0.85
337.88	38.06
338.092	-4.95
338.305	107.69
338.517	50.35
338.729	74.92
338.942	52.39
339.154	-56.15
339.367	44.2
339.579	-19.29
339.792	5.29
340.004	105.64
340.217	15.53
340.429	79.02
340.641	68.78
340.854	23.72
341.066	-7
341.278	21.67
341.491	46.25
341.703	66.73
341.915	81.07
342.128	-23.38
342.34	-27.48
342.552	7.34
342.764	48.3
342.977	54.44
343.189	70.83
343.401	7.34
343.613	-68.44
343.826	-9.05
344.038	15.53
344.25	87.21
344.462	46.25
344.674	23.72
344.886	9.39
345.099	93.35
345.311	21.67
345.523	85.16
345.735	13.48
345.947	-35.67
346.159	-11.09
346.371	25.77
346.583	33.96
346.795	56.49
347.007	54.44
347.219	79.02
347.431	9.39
347.643	46.25
347.855	79.02
348.067	76.97
348.279	-17.24
348.491	42.15
348.703	60.59
348.915	36.01
349.127	21.67
349.339	85.16
349.551	-52.05
349.763	42.15
349.975	29.87
350.187	31.91
350.399	46.25
350.61	111.78
350.822	21.67
351.034	15.53
351.246	27.82
351.458	-2.9
351.669	66.73
351.881	17.58
352.093	91.31
352.305	42.15
352.517	66.73
352.728	15.53
352.94	-11.09
353.152	13.48
353.363	33.96
353.575	36.01
353.787	11.43
353.999	70.83
354.21	38.06
354.422	25.77
354.633	-19.29
354.845	52.39
355.057	40.11
355.268	38.06
355.48	54.44
355.692	38.06
355.903	60.59
356.115	15.53
356.326	-4.95
356.538	68.78
356.749	25.77
356.961	21.67
357.172	74.92
357.384	25.77
357.595	87.21
357.807	-7
358.018	64.68
358.23	-11.09
358.441	23.72
358.653	31.91
358.864	-17.24
359.075	15.53
359.287	66.73
359.498	58.54
359.709	50.35
359.921	-0.85
360.132	76.97
360.344	46.25
360.555	-11.09
360.766	66.73
360.977	-52.05
361.189	64.68
361.4	-39.76
361.611	7.34
361.823	93.35
362.034	68.78
362.245	-39.76
362.456	68.78
362.667	3.24
362.879	27.82
363.09	64.68
363.301	19.63
363.512	23.72
363.723	-2.9
363.935	5.29
364.146	7.34
364.357	13.48
364.568	83.11
364.779	7.34
364.99	101.55
365.201	52.39
365.412	62.63
365.623	-88.92
365.834	52.39
366.045	56.49
366.256	154.79
366.467	38.06
366.678	-2.9
366.889	23.72
367.1	19.63
367.311	23.72
367.522	9.39
367.733	72.87
367.944	-41.81
368.155	42.15
368.366	70.83
368.577	-9.05
368.788	38.06
368.999	56.49
369.209	72.87
369.42	177.32
369.631	115.88
369.842	-15.19
370.053	56.49
370.264	48.3
370.474	42.15
370.685	-23.38
370.896	54.44
371.107	72.87
371.317	29.87
371.528	56.49
371.739	42.15
371.95	64.68
372.16	36.01
372.371	29.87
372.582	79.02
372.792	25.77
373.003	54.44
373.214	62.63
373.424	62.63
373.635	66.73
373.846	89.26
374.056	-2.9
374.267	-58.2
374.477	46.25
374.688	17.58
374.898	-31.57
375.109	-33.62
375.319	64.68
375.53	25.77
375.74	33.96
375.951	9.39
376.161	38.06
376.372	79.02
376.582	-0.85
376.793	1.19
377.003	-7
377.214	3.24
377.424	38.06
377.635	1.19
377.845	23.72
378.055	70.83
378.266	-37.72
378.476	38.06
378.686	-52.05
378.897	-9.05
379.107	33.96
379.317	21.67
379.528	7.34
379.738	40.11
379.948	-27.48
380.158	103.59
380.369	38.06
380.579	64.68
380.789	-41.81
380.999	38.06
381.21	-7
381.42	62.63
381.63	42.15
381.84	60.59
382.05	25.77
382.261	83.11
382.471	-0.85
382.681	93.35
382.891	128.17
383.101	101.55
383.311	-4.95
383.521	54.44
383.731	46.25
383.941	87.21
384.151	13.48
384.361	79.02
384.571	-7
384.781	91.31
384.991	87.21
385.201	171.18
385.411	62.63
385.621	21.67
385.831	64.68
386.041	-7
386.251	64.68
386.461	91.31
386.671	-17.24
386.881	13.48
387.091	56.49
387.301	25.77
387.511	-25.43
387.72	93.35
387.93	46.25
388.14	9.39
388.35	-7
388.56	56.49
388.769	29.87
388.979	79.02
389.189	42.15
389.399	31.91
389.609	58.54
389.818	-11.09
390.028	-2.9
390.238	144.55
390.447	58.54
390.657	62.63
390.867	-37.72
391.076	76.97
391.286	13.48
391.496	27.82
391.705	42.15
391.915	9.39
392.125	70.83
392.334	7.34
392.544	54.44
392.753	50.35
392.963	-11.09
393.172	66.73
393.382	21.67
393.591	66.73
393.801	48.3
394.01	132.26
394.22	76.97
394.429	19.63
394.639	31.91
394.848	54.44
395.058	42.15
395.267	128.17
395.477	91.31
395.686	103.59
395.895	50.35
396.105	122.02
396.314	52.39
396.524	140.46
396.733	13.48
396.942	113.83
397.152	46.25
397.361	103.59
397.57	23.72
397.78	105.64
397.989	29.87
398.198	136.36
398.407	83.11
398.617	95.4
398.826	56.49
399.035	54.44
399.244	85.16
399.453	74.92
399.663	58.54
399.872	64.68
400.081	19.63
400.29	103.59
400.499	25.77
400.708	144.55
400.917	42.15
401.127	25.77
401.336	7.34
401.545	76.97
401.754	87.21
401.963	64.68
402.172	31.91
402.381	74.92
402.59	29.87
402.799	136.36
403.008	64.68
403.217	109.74
403.426	48.3
403.635	-19.29
403.844	93.35
404.053	68.78
404.262	33.96
404.471	181.42
404.68	150.7
404.888	38.06
405.097	85.16
405.306	64.68
405.515	107.69
405.724	97.45
405.933	105.64
406.142	99.5
406.35	79.02
406.559	58.54
406.768	109.74
406.977	79.02
407.185	81.07
407.394	126.12
407.603	64.68
407.812	29.87
408.02	93.35
408.229	148.65
408.438	160.94
408.646	169.13
408.855	185.51
409.064	85.16
409.272	187.56
409.481	218.28
409.69	181.42
409.898	177.32
410.107	189.61
410.315	259.24
410.524	130.22
410.733	226.47
410.941	156.84
411.15	136.36
411.358	242.85
411.567	238.76
411.775	199.85
411.984	281.77
412.192	224.42
412.401	316.58
412.609	220.33
412.818	289.96
413.026	287.91
413.234	300.2
413.443	279.72
413.651	234.66
413.86	324.77
414.068	255.14
414.276	388.26
414.485	283.81
414.693	349.35
414.901	349.35
415.11	394.4
415.318	349.35
415.526	449.7
415.734	412.84
415.943	459.94
416.151	502.95
416.359	398.5
416.567	431.27
416.776	494.76
416.984	507.04
417.192	486.56
417.4	494.76
417.608	591.01
417.817	562.34
418.025	582.82
418.233	631.97
418.441	646.3
418.649	566.43
418.857	695.46
419.065	656.54
419.273	623.78
419.481	763.04
419.689	648.35
419.897	687.26
420.105	769.18
420.313	683.17
420.521	801.95
420.729	824.48
420.937	890.01
421.145	896.16
421.353	842.91
421.561	965.79
421.769	1006.75
421.977	1035.42
422.185	1068.19
422.393	1062.04
422.601	1189.02
422.809	1146.01
423.017	1172.63
423.224	1293.46
423.432	1311.89
423.64	1324.18
423.848	1328.28
424.056	1277.08
424.263	1350.81
424.471	1381.53
424.679	1528.98
424.887	1541.27
425.094	1592.47
425.302	1524.88
425.51	1670.29
425.718	1703.06
425.925	1713.3
426.133	1827.98
426.341	1950.86
426.548	2014.35
426.756	1983.63
426.964	1873.04
427.171	2102.41
427.379	2110.6
427.586	2184.33
427.794	2350.21
428.001	2415.75
428.209	2397.32
428.417	2528.39
428.624	2651.27
428.832	2655.36
429.039	2585.73
429.247	2704.51
429.454	2811.01
429.662	3142.78
429.869	2956.41
430.076	3019.9
430.284	2991.23
430.491	3046.52
430.699	3261.56
430.906	3300.47
431.114	3263.61
431.321	3470.45
431.528	3478.65
431.736	3566.71
431.943	3857.52
432.15	3775.6
432.358	3865.71
432.565	3935.34
432.772	4013.17
432.979	4236.39
433.187	4334.7
433.394	4263.02
433.601	4621.41
433.808	4586.6
434.016	4666.47
434.223	4895.84
434.43	5000.29
434.637	4975.71
434.844	5352.54
435.052	5237.85
435.259	5123.16
435.466	5293.15
435.673	5411.93
435.88	5745.75
436.087	5811.28
436.294	6065.23
436.501	5968.98
436.708	5880.91
436.915	6149.2
437.122	6503.5
437.329	6464.58
437.537	6759.49
437.743	6806.59
437.95	6743.11
438.157	7236.67
438.364	7105.6
438.571	7191.61
438.778	7273.53
438.985	7871.54
439.192	7701.56
439.399	7973.94
439.606	7605.3
439.813	8037.42
440.02	8750.12
440.227	8518.7
440.433	8457.26
440.64	8731.69
440.847	8588.33
441.054	8909.86
441.261	9323.55
441.467	9319.45
441.674	9475.1
441.881	9716.76
442.088	9808.92
442.294	9677.85
442.501	10054.67
442.708	10132.5
442.914	10513.42
443.121	11037.7
443.328	10673.16
443.534	11721.72
443.741	11373.57
443.948	10890.24
444.154	11768.82
444.361	11684.86
444.568	12012.53
444.774	11758.58
444.981	12033.01
445.187	12375.02
445.394	13013.99
445.6	12723.18
445.807	14033.88
446.013	13298.66
446.22	13734.87
446.426	14273.49
446.633	14232.53
446.839	14689.23
447.046	14146.51
447.252	14969.8
447.459	14867.4
447.665	14955.46
447.871	15551.42
448.078	16241.59
448.284	15561.66
448.491	16026.55
448.697	16743.34
448.903	16882.6
449.11	16905.13
449.316	16516.01
449.522	16888.74
449.728	17533.86
449.935	17738.65
450.141	17476.51
450.347	18213.78
450.553	17492.9
450.76	17521.57
450.966	18381.71
451.172	18142.1
451.378	18594.7
451.584	18238.36
451.791	18633.61
451.997	18674.57
452.203	18916.23
452.409	19037.06
452.615	18758.54
452.821	18275.22
453.027	18273.17
453.233	18965.39
453.44	18426.77
453.646	18494.35
453.852	18568.08
454.058	18926.47
454.264	18432.91
454.47	18867.08
454.676	18183.06
454.882	19098.5
455.088	17378.21
455.294	17601.44
455.5	17714.08
455.705	17832.86
455.911	17150.88
456.117	17052.58
456.323	16800.68
456.529	15985.59
456.735	16649.13
456.941	15913.91
457.147	15694.78
457.352	15387.58
457.558	15213.51
457.764	15262.66
457.97	14984.13
458.176	14539.72
458.381	14597.07
458.587	13859.8
458.793	13822.94
458.999	13052.9
459.204	14207.95
459.41	13784.02
459.616	12850.15
459.821	12819.43
460.027	12995.56
460.233	12592.11
460.438	12114.93
460.644	12030.96
460.85	11408.38
461.055	11260.93
461.261	11529.21
461.466	10378.25
461.672	10255.37
461.878	10904.58
462.083	10034.19
462.289	10052.63
462.494	9823.25
462.7	9514.01
462.905	9071.65
463.111	9436.19
463.316	9479.19
463.522	9237.53
463.727	9425.95
463.932	9378.84
464.138	9165.85
464.343	9290.78
464.549	9124.9
464.754	9305.12
464.959	9315.36
465.165	9094.18
465.37	8692.77
465.575	8731.69
465.781	8950.82
465.986	8916
466.191	8662.05
466.397	8459.31
466.602	7910.45
466.807	8391.72
467.012	8291.37
467.218	8354.86
467.423	8115.25
467.628	8180.78
467.833	8539.18
468.038	8152.11
468.244	8004.66
468.449	8363.05
468.654	8076.34
468.859	8010.8
469.064	8137.77
469.269	7806
469.474	7820.34
469.679	7818.29
