Data from USB4F104151__29__13-10-48-404.txt Node

Date: Fri Mar 14 13:10:48 EDT 2025
User: louis
Spectrometer: USB4F10415
Trigger mode: 4
Integration Time (sec): 2.000000E-2
Scans to average: 1
Electric dark correction enabled: true
Nonlinearity correction enabled: false
Boxcar width: 0
XAxis mode: Wavelengths
Number of Pixels in Spectrum: 3648
>>>>>Begin Spectral Data<<<<<
178.204	-33.62
178.424	-33.62
178.644	-33.62
178.864	-138.07
179.084	-54.1
179.304	1.19
179.524	-47.96
179.744	-47.96
179.964	122.02
180.184	-62.29
180.404	-27.48
180.624	-17.24
180.844	31.91
181.064	1.19
181.283	23.72
181.503	-11.09
181.723	33.96
181.943	21.67
182.163	17.58
182.383	-23.38
182.602	62.63
182.822	-11.09
183.042	46.25
183.262	25.77
183.482	56.49
183.701	-23.38
183.921	23.72
184.141	-47.96
184.361	48.3
184.58	87.21
184.8	29.87
185.02	54.44
185.239	31.91
185.459	21.67
185.679	95.4
185.898	103.59
186.118	29.87
186.338	31.91
186.557	95.4
186.777	29.87
186.997	50.35
187.216	-0.85
187.436	-23.38
187.655	-11.09
187.875	19.63
188.095	81.07
188.314	87.21
188.534	87.21
188.753	64.68
188.973	-7
189.192	87.21
189.412	93.35
189.631	58.54
189.851	-2.9
190.07	144.55
190.29	5.29
190.509	23.72
190.729	50.35
190.948	46.25
191.168	130.22
191.387	66.73
191.607	13.48
191.826	72.87
192.045	-2.9
192.265	56.49
192.484	11.43
192.704	70.83
192.923	-11.09
193.142	95.4
193.362	62.63
193.581	101.55
193.8	15.53
194.02	50.35
194.239	58.54
194.458	70.83
194.678	5.29
194.897	44.2
195.116	62.63
195.335	48.3
195.555	50.35
195.774	21.67
195.993	56.49
196.212	79.02
196.432	60.59
196.651	48.3
196.87	-4.95
197.089	134.31
197.308	31.91
197.528	54.44
197.747	36.01
197.966	72.87
198.185	113.83
198.404	-23.38
198.623	-2.9
198.842	7.34
199.062	50.35
199.281	60.59
199.5	42.15
199.719	101.55
199.938	83.11
200.157	15.53
200.376	-11.09
200.595	40.11
200.814	-21.33
201.033	-7
201.252	76.97
201.471	38.06
201.69	-23.38
201.909	79.02
202.128	54.44
202.347	122.02
202.566	-13.14
202.785	-21.33
203.004	38.06
203.223	27.82
203.442	38.06
203.661	23.72
203.879	-17.24
204.098	33.96
204.317	15.53
204.536	64.68
204.755	66.73
204.974	83.11
205.193	72.87
205.411	15.53
205.63	62.63
205.849	52.39
206.068	25.77
206.287	-0.85
206.505	93.35
206.724	95.4
206.943	21.67
207.162	42.15
207.381	-0.85
207.599	42.15
207.818	56.49
208.037	15.53
208.255	-23.38
208.474	38.06
208.693	95.4
208.911	83.11
209.13	62.63
209.349	46.25
209.567	27.82
209.786	33.96
210.005	-50
210.223	87.21
210.442	-2.9
210.661	38.06
210.879	66.73
211.098	66.73
211.316	38.06
211.535	13.48
211.753	111.78
211.972	97.45
212.191	-23.38
212.409	103.59
212.628	5.29
212.846	70.83
213.065	-29.52
213.283	15.53
213.502	21.67
213.72	21.67
213.938	3.24
214.157	36.01
214.375	15.53
214.594	17.58
214.812	68.78
215.031	64.68
215.249	70.83
215.467	9.39
215.686	83.11
215.904	85.16
216.122	13.48
216.341	162.98
216.559	68.78
216.778	21.67
216.996	27.82
217.214	19.63
217.432	-19.29
217.651	83.11
217.869	33.96
218.087	3.24
218.306	11.43
218.524	87.21
218.742	42.15
218.96	33.96
219.179	46.25
219.397	56.49
219.615	89.26
219.833	76.97
220.051	-23.38
220.27	36.01
220.488	38.06
220.706	60.59
220.924	5.29
221.142	54.44
221.36	87.21
221.578	134.31
221.796	-33.62
222.015	126.12
222.233	93.35
222.451	89.26
222.669	9.39
222.887	31.91
223.105	3.24
223.323	56.49
223.541	-47.96
223.759	115.88
223.977	31.91
224.195	-11.09
224.413	-11.09
224.631	66.73
224.849	23.72
225.067	87.21
225.285	38.06
225.503	111.78
225.721	-39.76
225.939	19.63
226.157	38.06
226.375	117.93
226.592	56.49
226.81	66.73
227.028	101.55
227.246	128.17
227.464	33.96
227.682	31.91
227.9	85.16
228.117	19.63
228.335	5.29
228.553	93.35
228.771	31.91
228.989	62.63
229.206	48.3
229.424	5.29
229.642	-17.24
229.86	40.11
230.077	99.5
230.295	58.54
230.513	91.31
230.731	156.84
230.948	48.3
231.166	130.22
231.384	42.15
231.601	42.15
231.819	31.91
232.037	81.07
232.254	79.02
232.472	15.53
232.689	54.44
232.907	36.01
233.125	33.96
233.342	33.96
233.56	117.93
233.777	64.68
233.995	-9.05
234.213	154.79
234.43	70.83
234.648	64.68
234.865	85.16
235.083	79.02
235.3	62.63
235.518	113.83
235.735	130.22
235.953	70.83
236.17	31.91
236.388	38.06
236.605	3.24
236.822	81.07
237.04	54.44
237.257	70.83
237.475	9.39
237.692	23.72
237.909	9.39
238.127	38.06
238.344	44.2
238.562	103.59
238.779	85.16
238.996	48.3
239.214	48.3
239.431	113.83
239.648	7.34
239.865	50.35
240.083	66.73
240.3	54.44
240.517	29.87
240.735	66.73
240.952	56.49
241.169	89.26
241.386	79.02
241.603	60.59
241.821	-9.05
242.038	46.25
242.255	111.78
242.472	-0.85
242.689	29.87
242.907	62.63
243.124	74.92
243.341	91.31
243.558	44.2
243.775	13.48
243.992	27.82
244.209	64.68
244.426	76.97
244.643	54.44
244.86	15.53
245.078	27.82
245.295	-11.09
245.512	23.72
245.729	-15.19
245.946	46.25
246.163	85.16
246.38	54.44
246.597	21.67
246.814	-17.24
247.031	27.82
247.248	13.48
247.464	-0.85
247.681	40.11
247.898	58.54
248.115	113.83
248.332	29.87
248.549	66.73
248.766	54.44
248.983	83.11
249.2	68.78
249.417	7.34
249.633	11.43
249.85	76.97
250.067	62.63
250.284	68.78
250.501	11.43
250.717	-2.9
250.934	27.82
251.151	-68.44
251.368	76.97
251.585	83.11
251.801	9.39
252.018	99.5
252.235	93.35
252.451	48.3
252.668	48.3
252.885	40.11
253.102	103.59
253.318	50.35
253.535	124.07
253.752	62.63
253.968	115.88
254.185	103.59
254.401	50.35
254.618	113.83
254.835	-19.29
255.051	66.73
255.268	68.78
255.484	72.87
255.701	15.53
255.917	-0.85
256.134	23.72
256.351	56.49
256.567	56.49
256.784	13.48
257	70.83
257.217	148.65
257.433	81.07
257.65	70.83
257.866	52.39
258.082	87.21
258.299	19.63
258.515	70.83
258.732	11.43
258.948	-7
259.165	66.73
259.381	31.91
259.597	58.54
259.814	27.82
260.03	56.49
260.246	-11.09
260.463	62.63
260.679	87.21
260.895	27.82
261.112	52.39
261.328	42.15
261.544	-19.29
261.761	54.44
261.977	70.83
262.193	7.34
262.409	48.3
262.626	5.29
262.842	83.11
263.058	66.73
263.274	83.11
263.49	66.73
263.707	-21.33
263.923	89.26
264.139	-33.62
264.355	-7
264.571	115.88
264.787	-11.09
265.004	11.43
265.22	101.55
265.436	89.26
265.652	-33.62
265.868	13.48
266.084	-25.43
266.3	99.5
266.516	27.82
266.732	68.78
266.948	3.24
267.164	44.2
267.38	56.49
267.596	126.12
267.812	124.07
268.028	81.07
268.244	52.39
268.46	101.55
268.676	29.87
268.892	36.01
269.108	5.29
269.324	25.77
269.54	36.01
269.756	50.35
269.972	33.96
270.188	72.87
270.403	56.49
270.619	74.92
270.835	136.36
271.051	19.63
271.267	-11.09
271.483	54.44
271.698	-35.67
271.914	144.55
272.13	56.49
272.346	31.91
272.562	13.48
272.777	52.39
272.993	62.63
273.209	70.83
273.425	15.53
273.64	7.34
273.856	95.4
274.072	29.87
274.287	-25.43
274.503	111.78
274.719	83.11
274.934	-11.09
275.15	38.06
275.366	89.26
275.581	21.67
275.797	62.63
276.012	66.73
276.228	17.58
276.444	62.63
276.659	62.63
276.875	74.92
277.09	31.91
277.306	21.67
277.521	95.4
277.737	-39.76
277.952	-0.85
278.168	-27.48
278.383	46.25
278.599	46.25
278.814	17.58
279.03	29.87
279.245	93.35
279.461	27.82
279.676	64.68
279.892	60.59
280.107	62.63
280.322	29.87
280.538	58.54
280.753	19.63
280.969	68.78
281.184	31.91
281.399	91.31
281.615	23.72
281.83	31.91
282.045	33.96
282.26	-0.85
282.476	87.21
282.691	1.19
282.906	76.97
283.122	48.3
283.337	1.19
283.552	29.87
283.767	44.2
283.983	89.26
284.198	29.87
284.413	1.19
284.628	-19.29
284.843	62.63
285.058	27.82
285.274	68.78
285.489	48.3
285.704	46.25
285.919	21.67
286.134	50.35
286.349	111.78
286.564	60.59
286.779	89.26
286.995	72.87
287.21	70.83
287.425	93.35
287.64	40.11
287.855	91.31
288.07	29.87
288.285	38.06
288.5	79.02
288.715	91.31
288.93	31.91
289.145	-19.29
289.36	13.48
289.575	72.87
289.79	40.11
290.004	7.34
290.219	74.92
290.434	-17.24
290.649	89.26
290.864	36.01
291.079	44.2
291.294	-4.95
291.509	79.02
291.724	93.35
291.938	70.83
292.153	44.2
292.368	-4.95
292.583	66.73
292.798	50.35
293.012	95.4
293.227	74.92
293.442	31.91
293.657	97.45
293.871	79.02
294.086	70.83
294.301	128.17
294.516	91.31
294.73	74.92
294.945	-7
295.16	64.68
295.374	13.48
295.589	83.11
295.804	93.35
296.018	54.44
296.233	50.35
296.447	64.68
296.662	72.87
296.877	42.15
297.091	40.11
297.306	79.02
297.52	23.72
297.735	68.78
297.949	62.63
298.164	169.13
298.378	17.58
298.593	23.72
298.807	15.53
299.022	107.69
299.236	115.88
299.451	54.44
299.665	-4.95
299.88	56.49
300.094	1.19
300.309	95.4
300.523	1.19
300.737	89.26
300.952	46.25
301.166	83.11
301.381	-35.67
301.595	40.11
301.809	25.77
302.024	-52.05
302.238	1.19
302.452	27.82
302.667	42.15
302.881	89.26
303.095	76.97
303.309	-19.29
303.524	60.59
303.738	42.15
303.952	50.35
304.166	17.58
304.381	17.58
304.595	85.16
304.809	17.58
305.023	-41.81
305.237	52.39
305.452	29.87
305.666	17.58
305.88	83.11
306.094	54.44
306.308	38.06
306.522	87.21
306.736	105.64
306.95	58.54
307.164	122.02
307.379	62.63
307.593	52.39
307.807	68.78
308.021	42.15
308.235	19.63
308.449	85.16
308.663	31.91
308.877	138.41
309.091	17.58
309.305	72.87
309.519	38.06
309.733	36.01
309.947	33.96
310.161	56.49
310.374	64.68
310.588	54.44
310.802	7.34
311.016	46.25
311.23	-17.24
311.444	66.73
311.658	62.63
311.872	27.82
312.085	148.65
312.299	79.02
312.513	93.35
312.727	40.11
312.941	-13.14
313.154	91.31
313.368	-17.24
313.582	95.4
313.796	-13.14
314.009	36.01
314.223	46.25
314.437	27.82
314.651	79.02
314.864	60.59
315.078	103.59
315.292	-17.24
315.505	21.67
315.719	136.36
315.933	68.78
316.146	31.91
316.36	-0.85
316.573	36.01
316.787	17.58
317.001	95.4
317.214	48.3
317.428	58.54
317.641	1.19
317.855	7.34
318.068	72.87
318.282	89.26
318.495	38.06
318.709	13.48
318.922	-15.19
319.136	27.82
319.349	19.63
319.563	79.02
319.776	99.5
319.99	46.25
320.203	3.24
320.417	31.91
320.63	87.21
320.843	87.21
321.057	38.06
321.27	60.59
321.483	70.83
321.697	62.63
321.91	62.63
322.124	48.3
322.337	95.4
322.55	83.11
322.763	23.72
322.977	103.59
323.19	5.29
323.403	74.92
323.617	40.11
323.83	158.89
324.043	-2.9
324.256	52.39
324.469	-4.95
324.683	64.68
324.896	-9.05
325.109	64.68
325.322	-35.67
325.535	44.2
325.748	72.87
325.962	29.87
326.175	72.87
326.388	95.4
326.601	9.39
326.814	33.96
327.027	25.77
327.24	66.73
327.453	3.24
327.666	42.15
327.879	93.35
328.092	95.4
328.305	60.59
328.518	40.11
328.731	17.58
328.944	66.73
329.157	50.35
329.37	107.69
329.583	107.69
329.796	87.21
330.009	52.39
330.222	117.93
330.435	83.11
330.648	89.26
330.861	103.59
331.073	74.92
331.286	50.35
331.499	70.83
331.712	44.2
331.925	40.11
332.138	89.26
332.35	-11.09
332.563	81.07
332.776	107.69
332.989	62.63
333.202	58.54
333.414	31.91
333.627	152.74
333.84	46.25
334.053	72.87
334.265	62.63
334.478	58.54
334.691	52.39
334.903	128.17
335.116	83.11
335.329	97.45
335.541	85.16
335.754	33.96
335.966	5.29
336.179	64.68
336.392	56.49
336.604	11.43
336.817	3.24
337.029	38.06
337.242	58.54
337.454	87.21
337.667	68.78
337.88	48.3
338.092	103.59
338.305	74.92
338.517	54.44
338.729	89.26
338.942	40.11
339.154	38.06
339.367	46.25
339.579	31.91
339.792	25.77
340.004	17.58
340.217	76.97
340.429	103.59
340.641	-4.95
340.854	40.11
341.066	91.31
341.278	79.02
341.491	99.5
341.703	62.63
341.915	11.43
342.128	70.83
342.34	44.2
342.552	62.63
342.764	21.67
342.977	134.31
343.189	83.11
343.401	81.07
343.613	-7
343.826	72.87
344.038	60.59
344.25	62.63
344.462	31.91
344.674	36.01
344.886	46.25
345.099	76.97
345.311	54.44
345.523	38.06
345.735	44.2
345.947	-0.85
346.159	21.67
346.371	93.35
346.583	42.15
346.795	58.54
347.007	97.45
347.219	122.02
347.431	11.43
347.643	33.96
347.855	-37.72
348.067	117.93
348.279	38.06
348.491	38.06
348.703	74.92
348.915	15.53
349.127	36.01
349.339	119.98
349.551	48.3
349.763	122.02
349.975	70.83
350.187	23.72
350.399	70.83
350.61	58.54
350.822	7.34
351.034	72.87
351.246	76.97
351.458	54.44
351.669	85.16
351.881	81.07
352.093	70.83
352.305	99.5
352.517	1.19
352.728	105.64
352.94	79.02
353.152	-7
353.363	7.34
353.575	72.87
353.787	87.21
353.999	76.97
354.21	58.54
354.422	93.35
354.633	-9.05
354.845	48.3
355.057	136.36
355.268	-2.9
355.48	76.97
355.692	103.59
355.903	13.48
356.115	38.06
356.326	64.68
356.538	126.12
356.749	60.59
356.961	33.96
357.172	13.48
357.384	103.59
357.595	60.59
357.807	62.63
358.018	56.49
358.23	107.69
358.441	56.49
358.653	-11.09
358.864	74.92
359.075	136.36
359.287	50.35
359.498	48.3
359.709	54.44
359.921	76.97
360.132	66.73
360.344	15.53
360.555	29.87
360.766	54.44
360.977	17.58
361.189	31.91
361.4	52.39
361.611	54.44
361.823	-15.19
362.034	-33.62
362.245	29.87
362.456	89.26
362.667	87.21
362.879	140.46
363.09	101.55
363.301	21.67
363.512	66.73
363.723	144.55
363.935	95.4
364.146	64.68
364.357	50.35
364.568	40.11
364.779	29.87
364.99	29.87
365.201	56.49
365.412	66.73
365.623	-33.62
365.834	-2.9
366.045	95.4
366.256	89.26
366.467	83.11
366.678	54.44
366.889	54.44
367.1	42.15
367.311	99.5
367.522	152.74
367.733	58.54
367.944	64.68
368.155	21.67
368.366	42.15
368.577	50.35
368.788	85.16
368.999	103.59
369.209	46.25
369.42	154.79
369.631	25.77
369.842	5.29
370.053	13.48
370.264	72.87
370.474	33.96
370.685	27.82
370.896	50.35
371.107	81.07
371.317	66.73
371.528	33.96
371.739	99.5
371.95	115.88
372.16	62.63
372.371	54.44
372.582	58.54
372.792	27.82
373.003	83.11
373.214	48.3
373.424	128.17
373.635	52.39
373.846	89.26
374.056	107.69
374.267	76.97
374.477	81.07
374.688	54.44
374.898	70.83
375.109	99.5
375.319	31.91
375.53	138.41
375.74	54.44
375.951	33.96
376.161	70.83
376.372	99.5
376.582	3.24
376.793	13.48
377.003	68.78
377.214	5.29
377.424	142.5
377.635	109.74
377.845	85.16
378.055	146.6
378.266	70.83
378.476	44.2
378.686	124.07
378.897	25.77
379.107	126.12
379.317	81.07
379.528	48.3
379.738	128.17
379.948	54.44
380.158	68.78
380.369	97.45
380.579	79.02
380.789	89.26
380.999	15.53
381.21	62.63
381.42	42.15
381.63	48.3
381.84	44.2
382.05	107.69
382.261	31.91
382.471	85.16
382.681	70.83
382.891	109.74
383.101	79.02
383.311	7.34
383.521	21.67
383.731	150.7
383.941	142.5
384.151	1.19
384.361	62.63
384.571	83.11
384.781	48.3
384.991	83.11
385.201	122.02
385.411	54.44
385.621	52.39
385.831	72.87
386.041	81.07
386.251	48.3
386.461	109.74
386.671	83.11
386.881	29.87
387.091	128.17
387.301	54.44
387.511	54.44
387.72	79.02
387.93	70.83
388.14	7.34
388.35	56.49
388.56	13.48
388.769	169.13
388.979	101.55
389.189	19.63
389.399	56.49
389.609	60.59
389.818	105.64
390.028	36.01
390.238	113.83
390.447	19.63
390.657	48.3
390.867	36.01
391.076	87.21
391.286	105.64
391.496	87.21
391.705	89.26
391.915	130.22
392.125	171.18
392.334	48.3
392.544	33.96
392.753	154.79
392.963	72.87
393.172	138.41
393.382	42.15
393.591	107.69
393.801	44.2
394.01	87.21
394.22	72.87
394.429	95.4
394.639	50.35
394.848	76.97
395.058	119.98
395.267	27.82
395.477	95.4
395.686	95.4
395.895	126.12
396.105	134.31
396.314	144.55
396.524	70.83
396.733	87.21
396.942	162.98
397.152	111.78
397.361	111.78
397.57	113.83
397.78	122.02
397.989	48.3
398.198	81.07
398.407	68.78
398.617	29.87
398.826	144.55
399.035	103.59
399.244	179.37
399.453	148.65
399.663	99.5
399.872	205.99
400.081	119.98
400.29	111.78
400.499	95.4
400.708	113.83
400.917	132.26
401.127	105.64
401.336	103.59
401.545	216.23
401.754	99.5
401.963	150.7
402.172	152.74
402.381	64.68
402.59	205.99
402.799	191.66
403.008	179.37
403.217	111.78
403.426	177.32
403.635	179.37
403.844	95.4
404.053	179.37
404.262	89.26
404.471	267.43
404.68	169.13
404.888	212.14
405.097	126.12
405.306	154.79
405.515	201.9
405.724	136.36
405.933	162.98
406.142	203.94
406.35	208.04
406.559	126.12
406.768	165.03
406.977	285.86
407.185	236.71
407.394	230.57
407.603	208.04
407.812	234.66
408.02	236.71
408.229	257.19
408.438	283.81
408.646	210.09
408.855	257.19
409.064	265.38
409.272	271.53
409.481	292.01
409.69	222.38
409.898	259.24
410.107	355.49
410.315	269.48
410.524	382.12
410.733	367.78
410.941	324.77
411.15	337.06
411.358	453.8
411.567	378.02
411.775	406.69
411.984	509.09
412.192	453.8
412.401	455.84
412.609	494.76
412.818	496.8
413.026	556.19
413.234	556.19
413.443	646.3
413.651	570.53
413.86	566.43
414.068	681.12
414.276	652.45
414.485	611.49
414.693	689.31
414.901	695.46
415.11	722.08
415.318	709.79
415.526	744.61
415.734	818.33
415.943	855.2
416.151	885.92
416.359	840.86
416.567	887.97
416.776	824.48
416.984	945.31
417.192	1047.71
417.4	1047.71
417.608	1049.75
417.817	1117.34
418.025	1154.2
418.233	1201.3
418.441	1039.51
418.649	1193.11
418.857	1377.43
419.065	1336.47
419.273	1322.13
419.481	1369.24
419.689	1469.59
419.897	1604.75
420.105	1578.13
420.313	1623.19
420.521	1594.51
420.729	1643.67
420.937	1916.05
421.145	1782.93
421.353	1889.42
421.561	1977.48
421.769	2043.02
421.977	2098.31
422.185	2108.55
422.393	2194.57
422.601	2331.78
422.809	2311.3
423.017	2311.3
423.224	2591.88
423.432	2542.72
423.64	2595.97
423.848	2763.9
424.056	2800.77
424.263	2786.43
424.471	2897.02
424.679	2923.65
424.887	3185.79
425.094	3241.08
425.302	3193.98
425.51	3349.62
425.718	3560.56
425.925	3628.15
426.133	3685.49
426.341	3937.39
426.548	3951.73
426.756	3978.35
426.964	4201.58
427.171	4232.3
427.379	4371.56
427.586	4521.06
427.794	4602.98
428.001	4865.12
428.209	5071.97
428.417	4858.98
428.624	5307.48
428.832	5424.22
429.039	5063.77
429.247	5512.28
429.454	5764.18
429.662	6118.48
429.869	5643.35
430.076	6235.21
430.284	6030.41
430.491	6274.12
430.699	6616.13
430.906	6573.13
431.114	6814.79
431.321	7017.54
431.528	7076.93
431.736	7330.87
431.943	7849.01
432.15	7513.14
432.358	7871.54
432.565	8229.93
432.772	8164.4
432.979	8510.5
433.187	8786.98
433.394	8889.38
433.601	9610.26
433.808	9458.71
434.016	9378.84
434.223	9755.67
434.43	10427.4
434.637	10204.17
434.844	10945.54
435.052	10886.15
435.259	10918.92
435.466	10988.55
435.673	10798.09
435.88	11582.46
436.087	12227.57
436.294	12194.8
436.501	11992.05
436.708	12252.14
436.915	12569.58
437.122	13239.26
437.329	13310.94
437.537	13571.04
437.743	13902.81
437.95	13648.86
438.157	14517.2
438.364	15041.48
438.571	15041.48
438.778	14789.58
438.985	16311.22
439.192	15770.55
439.399	16526.25
439.606	15905.72
439.813	16851.88
440.02	17918.87
440.227	17560.48
440.433	17249.19
440.64	18021.27
440.847	17925.02
441.054	18504.59
441.261	19415.94
441.467	19055.5
441.674	19596.16
441.881	20315
442.088	20095.86
442.294	19972.99
442.501	20403.06
442.708	21144.42
442.914	22012.76
443.121	22950.73
443.328	22268.76
443.534	23763.78
443.741	23081.8
443.948	22862.67
444.154	24593.2
444.361	24441.65
444.568	24693.55
444.774	24476.47
444.981	24867.63
445.187	25649.96
445.394	26585.88
445.6	26368.79
445.807	28693.24
446.013	27728.64
446.22	28066.56
446.426	29037.3
446.633	29508.33
446.839	30989.01
447.046	29364.97
447.252	30794.45
447.459	30812.88
447.665	30753.49
447.871	32404.16
448.078	33534.63
448.284	32027.33
448.491	33008.31
448.697	34269.86
448.903	35142.29
449.11	35209.87
449.316	34468.51
449.522	35164.82
449.728	36162.18
449.935	36524.67
450.141	36252.29
450.347	37010.04
450.553	35867.27
450.76	36407.94
450.966	37763.69
451.172	37483.12
451.378	38396.51
451.584	37741.16
451.791	38617.69
451.997	38496.86
452.203	38789.72
452.409	39033.43
452.615	39121.49
452.821	37548.65
453.027	37243.51
453.233	39176.79
453.44	38019.69
453.646	37808.75
453.852	38298.21
454.058	38806.11
454.264	37628.52
454.47	38859.35
454.676	37515.89
454.882	39164.5
455.088	35797.64
455.294	36305.54
455.5	36586.11
455.705	37139.06
455.911	35996.29
456.117	35089.04
456.323	34777.75
456.529	33049.27
456.735	34831
456.941	33391.28
457.147	32971.44
457.352	31881.92
457.558	31773.38
457.764	31560.39
457.97	31122.13
458.176	30522.07
458.381	30579.42
458.587	28963.57
458.793	29029.1
458.999	27708.16
459.204	29752.04
459.41	28773.11
459.616	26940.18
459.821	26671.89
460.027	26628.88
460.233	26125.08
460.438	24931.12
460.644	25086.76
460.85	23976.76
461.055	23790.4
461.261	23847.74
461.466	22076.25
461.672	21375.84
461.878	22879.05
462.083	21162.86
462.289	20802.41
462.494	20650.86
462.7	19587.97
462.905	19024.78
463.111	19895.16
463.316	20075.38
463.522	19436.42
463.727	19932.03
463.932	19391.36
464.138	19110.79
464.343	19309.44
464.549	18647.95
464.754	19174.28
464.959	18912.14
465.165	19004.3
465.37	18258.84
465.575	17533.86
465.781	18369.43
465.986	18779.02
466.191	17716.12
466.397	17570.72
466.602	16901.03
466.807	17490.85
467.012	17574.81
467.218	17419.17
467.423	17042.34
