Data from USB4F104151__102__13-22-07-371.txt Node

Date: Fri Mar 14 13:22:07 EDT 2025
User: louis
Spectrometer: USB4F10415
Trigger mode: 4
Integration Time (sec): 3.000000E-2
Scans to average: 1
Electric dark correction enabled: true
Nonlinearity correction enabled: false
Boxcar width: 0
XAxis mode: Wavelengths
Number of Pixels in Spectrum: 3648
>>>>>Begin Spectral Data<<<<<
178.204	-172.03
178.424	-172.03
178.644	-172.03
178.864	-131.07
179.084	-102.4
179.304	47.1
179.524	12.29
179.744	2.05
179.964	77.82
180.184	12.29
180.404	-61.44
180.624	-28.67
180.844	-10.24
181.064	-51.2
181.283	61.44
181.503	-40.96
181.723	-20.48
181.943	-104.45
182.163	92.16
182.383	34.82
182.602	65.54
182.822	110.59
183.042	32.77
183.262	-71.68
183.482	-51.2
183.701	2.05
183.921	38.91
184.141	32.77
184.361	36.86
184.58	57.34
184.8	57.34
185.02	65.54
185.239	45.06
185.459	65.54
185.679	36.86
185.898	-34.82
186.118	30.72
186.338	24.58
186.557	-36.86
186.777	10.24
186.997	6.14
187.216	16.38
187.436	86.01
187.655	98.3
187.875	88.06
188.095	28.67
188.314	-18.43
188.534	26.62
188.753	-14.34
188.973	57.34
189.192	139.26
189.412	69.63
189.631	79.87
189.851	-18.43
190.07	90.11
190.29	38.91
190.509	57.34
190.729	4.1
190.948	16.38
191.168	114.69
191.387	12.29
191.607	-32.77
191.826	12.29
192.045	4.1
192.265	53.25
192.484	73.73
192.704	-10.24
192.923	-28.67
193.142	86.01
193.362	18.43
193.581	57.34
193.8	43.01
194.02	20.48
194.239	55.3
194.458	36.86
194.678	-24.58
194.897	55.3
195.116	53.25
195.335	-16.38
195.555	32.77
195.774	47.1
195.993	-26.62
196.212	24.58
196.432	-47.1
196.651	-4.1
196.87	-8.19
197.089	104.45
197.308	69.63
197.528	16.38
197.747	-59.39
197.966	116.73
198.185	81.92
198.404	-12.29
198.623	47.1
198.842	2.05
199.062	-6.14
199.281	20.48
199.5	28.67
199.719	92.16
199.938	49.15
200.157	32.77
200.376	45.06
200.595	28.67
200.814	57.34
201.033	55.3
201.252	8.19
201.471	45.06
201.69	96.25
201.909	69.63
202.128	45.06
202.347	-10.24
202.566	145.41
202.785	-59.39
203.004	-6.14
203.223	102.4
203.442	-36.86
203.661	-16.38
203.879	73.73
204.098	69.63
204.317	0
204.536	-8.19
204.755	20.48
204.974	133.12
205.193	86.01
205.411	83.97
205.63	47.1
205.849	49.15
206.068	-8.19
206.287	4.1
206.505	10.24
206.724	6.14
206.943	79.87
207.162	45.06
207.381	32.77
207.599	-75.77
207.818	77.82
208.037	-10.24
208.255	-53.25
208.474	53.25
208.693	81.92
208.911	36.86
209.13	-4.1
209.349	36.86
209.567	57.34
209.786	100.35
210.005	65.54
210.223	202.75
210.442	-47.1
210.661	26.62
210.879	2.05
211.098	36.86
211.316	18.43
211.535	98.3
211.753	20.48
211.972	24.58
212.191	55.3
212.409	88.06
212.628	86.01
212.846	40.96
213.065	34.82
213.283	69.63
213.502	4.1
213.72	77.82
213.938	92.16
214.157	67.58
214.375	47.1
214.594	28.67
214.812	20.48
215.031	16.38
215.249	-12.29
215.467	69.63
215.686	12.29
215.904	49.15
216.122	47.1
216.341	45.06
216.559	55.3
216.778	129.02
216.996	16.38
217.214	18.43
217.432	-36.86
217.651	-53.25
217.869	8.19
218.087	55.3
218.306	-28.67
218.524	38.91
218.742	38.91
218.96	32.77
219.179	22.53
219.397	-32.77
219.615	71.68
219.833	69.63
220.051	-14.34
220.27	145.41
220.488	77.82
220.706	30.72
220.924	-24.58
221.142	-4.1
221.36	45.06
221.578	-4.1
221.796	-12.29
222.015	61.44
222.233	94.21
222.451	75.77
222.669	-51.2
222.887	53.25
223.105	-43.01
223.323	-4.1
223.541	38.91
223.759	22.53
223.977	-12.29
224.195	53.25
224.413	86.01
224.631	69.63
224.849	-36.86
225.067	55.3
225.285	24.58
225.503	57.34
225.721	-22.53
225.939	4.1
226.157	28.67
226.375	110.59
226.592	-24.58
226.81	-10.24
227.028	45.06
227.246	73.73
227.464	-40.96
227.682	2.05
227.9	47.1
228.117	40.96
228.335	12.29
228.553	77.82
228.771	8.19
228.989	40.96
229.206	4.1
229.424	36.86
229.642	20.48
229.86	28.67
230.077	-20.48
230.295	43.01
230.513	57.34
230.731	110.59
230.948	102.4
231.166	92.16
231.384	40.96
231.601	10.24
231.819	28.67
232.037	4.1
232.254	-16.38
232.472	28.67
232.689	-34.82
232.907	0
233.125	47.1
233.342	75.77
233.56	18.43
233.777	38.91
233.995	69.63
234.213	38.91
234.43	20.48
234.648	-26.62
234.865	4.1
235.083	12.29
235.3	4.1
235.518	16.38
235.735	73.73
235.953	98.3
236.17	38.91
236.388	-12.29
236.605	20.48
236.822	86.01
237.04	26.62
237.257	12.29
237.475	-86.01
237.692	12.29
237.909	32.77
238.127	16.38
238.344	63.49
238.562	22.53
238.779	28.67
238.996	36.86
239.214	-2.05
239.431	-26.62
239.648	36.86
239.865	4.1
240.083	30.72
240.3	69.63
240.517	-12.29
240.735	30.72
240.952	145.41
241.169	30.72
241.386	38.91
241.603	8.19
241.821	12.29
242.038	-57.34
242.255	63.49
242.472	40.96
242.689	63.49
242.907	45.06
243.124	106.49
243.341	-30.72
243.558	69.63
243.775	-32.77
243.992	-30.72
244.209	51.2
244.426	36.86
244.643	79.87
244.86	-32.77
245.078	24.58
245.295	8.19
245.512	75.77
245.729	57.34
245.946	61.44
246.163	77.82
246.38	-30.72
246.597	40.96
246.814	88.06
247.031	-8.19
247.248	98.3
247.464	-20.48
247.681	63.49
247.898	30.72
248.115	53.25
248.332	14.34
248.549	14.34
248.766	149.5
248.983	26.62
249.2	77.82
249.417	63.49
249.633	-40.96
249.85	65.54
250.067	-22.53
250.284	14.34
250.501	26.62
250.717	81.92
250.934	10.24
251.151	43.01
251.368	-2.05
251.585	112.64
251.801	-22.53
252.018	69.63
252.235	86.01
252.451	8.19
252.668	12.29
252.885	-16.38
253.102	16.38
253.318	-57.34
253.535	18.43
253.752	-12.29
253.968	20.48
254.185	-10.24
254.401	-2.05
254.618	30.72
254.835	73.73
255.051	102.4
255.268	65.54
255.484	-57.34
255.701	61.44
255.917	12.29
256.134	22.53
256.351	-18.43
256.567	34.82
256.784	112.64
257	4.1
257.217	-4.1
257.433	110.59
257.65	12.29
257.866	96.25
258.082	24.58
258.299	40.96
258.515	129.02
258.732	12.29
258.948	-16.38
259.165	-12.29
259.381	38.91
259.597	40.96
259.814	-57.34
260.03	-6.14
260.246	-36.86
260.463	38.91
260.679	55.3
260.895	149.5
261.112	83.97
261.328	32.77
261.544	28.67
261.761	71.68
261.977	18.43
262.193	-22.53
262.409	20.48
262.626	71.68
262.842	94.21
263.058	-8.19
263.274	43.01
263.49	28.67
263.707	63.49
263.923	30.72
264.139	6.14
264.355	40.96
264.571	77.82
264.787	47.1
265.004	94.21
265.22	-14.34
265.436	22.53
265.652	8.19
265.868	34.82
266.084	-10.24
266.3	94.21
266.516	-100.35
266.732	4.1
266.948	0
267.164	-26.62
267.38	57.34
267.596	4.1
267.812	86.01
268.028	47.1
268.244	-10.24
268.46	-10.24
268.676	36.86
268.892	4.1
269.108	69.63
269.324	8.19
269.54	36.86
269.756	81.92
269.972	-4.1
270.188	90.11
270.403	24.58
270.619	-65.53
270.835	49.15
271.051	67.58
271.267	-92.16
271.483	63.49
271.698	73.73
271.914	22.53
272.13	45.06
272.346	-18.43
272.562	14.34
272.777	67.58
272.993	20.48
273.209	45.06
273.425	-45.06
273.64	-43.01
273.856	36.86
274.072	77.82
274.287	16.38
274.503	63.49
274.719	28.67
274.934	-16.38
275.15	-12.29
275.366	59.39
275.581	-24.58
275.797	69.63
276.012	79.87
276.228	-2.05
276.444	79.87
276.659	79.87
276.875	12.29
277.09	20.48
277.306	77.82
277.521	53.25
277.737	36.86
277.952	88.06
278.168	79.87
278.383	24.58
278.599	71.68
278.814	-12.29
279.03	47.1
279.245	40.96
279.461	14.34
279.676	47.1
279.892	-6.14
280.107	53.25
280.322	53.25
280.538	55.3
280.753	38.91
280.969	45.06
281.184	51.2
281.399	88.06
281.615	38.91
281.83	34.82
282.045	-6.14
282.26	2.05
282.476	88.06
282.691	40.96
282.906	28.67
283.122	47.1
283.337	4.1
283.552	40.96
283.767	-20.48
283.983	36.86
284.198	-10.24
284.413	-16.38
284.628	22.53
284.843	71.68
285.058	102.4
285.274	4.1
285.489	20.48
285.704	77.82
285.919	-49.15
286.134	30.72
286.349	28.67
286.564	10.24
286.779	104.45
286.995	22.53
287.21	63.49
287.425	20.48
287.64	6.14
287.855	114.69
288.07	2.05
288.285	61.44
288.5	110.59
288.715	79.87
288.93	40.96
289.145	18.43
289.36	65.54
289.575	45.06
289.79	77.82
290.004	18.43
290.219	53.25
290.434	40.96
290.649	-32.77
290.864	28.67
291.079	104.45
291.294	-24.58
291.509	36.86
291.724	-36.86
291.938	79.87
292.153	110.59
292.368	2.05
292.583	102.4
292.798	-6.14
293.012	53.25
293.227	-6.14
293.442	28.67
293.657	16.38
293.871	20.48
294.086	51.2
294.301	55.3
294.516	14.34
294.73	71.68
294.945	-10.24
295.16	53.25
295.374	40.96
295.589	38.91
295.804	-43.01
296.018	12.29
296.233	102.4
296.447	24.58
296.662	-12.29
296.877	47.1
297.091	36.86
297.306	73.73
297.52	-2.05
297.735	16.38
297.949	75.77
298.164	59.39
298.378	55.3
298.593	53.25
298.807	-28.67
299.022	-2.05
299.236	16.38
299.451	47.1
299.665	4.1
299.88	0
300.094	53.25
300.309	53.25
300.523	120.83
300.737	47.1
300.952	20.48
301.166	69.63
301.381	51.2
301.595	63.49
301.809	30.72
302.024	24.58
302.238	30.72
302.452	-4.1
302.667	20.48
302.881	106.49
303.095	61.44
303.309	63.49
303.524	-4.1
303.738	94.21
303.952	67.58
304.166	-4.1
304.381	14.34
304.595	28.67
304.809	59.39
305.023	-28.67
305.237	28.67
305.452	51.2
305.666	59.39
305.88	73.73
306.094	63.49
306.308	-55.3
306.522	10.24
306.736	24.58
306.95	36.86
307.164	45.06
307.379	71.68
307.593	73.73
307.807	16.38
308.021	-10.24
308.235	83.97
308.449	-18.43
308.663	45.06
308.877	124.93
309.091	28.67
309.305	34.82
309.519	-53.25
309.733	67.58
309.947	-49.15
310.161	38.91
310.374	63.49
310.588	69.63
310.802	-67.58
311.016	4.1
311.23	67.58
311.444	-6.14
311.658	-38.91
311.872	165.89
312.085	94.21
312.299	75.77
312.513	53.25
312.727	45.06
312.941	49.15
313.154	47.1
313.368	57.34
313.582	75.77
313.796	57.34
314.009	69.63
314.223	79.87
314.437	-51.2
314.651	81.92
314.864	-34.82
315.078	-10.24
315.292	-4.1
315.505	51.2
315.719	12.29
315.933	-4.1
316.146	-18.43
316.36	28.67
316.573	38.91
316.787	22.53
317.001	16.38
317.214	-30.72
317.428	6.14
317.641	-57.34
317.855	77.82
318.068	26.62
318.282	38.91
318.495	110.59
318.709	-6.14
318.922	4.1
319.136	102.4
319.349	34.82
319.563	-2.05
319.776	8.19
319.99	-8.19
320.203	18.43
320.417	-24.58
320.63	61.44
320.843	22.53
321.057	20.48
321.27	-2.05
321.483	-10.24
321.697	38.91
321.91	-18.43
322.124	-30.72
322.337	49.15
322.55	-16.38
322.763	79.87
322.977	55.3
323.19	-32.77
323.403	63.49
323.617	55.3
323.83	36.86
324.043	2.05
324.256	53.25
324.469	65.54
324.683	32.77
324.896	-36.86
325.109	16.38
325.322	-10.24
325.535	49.15
325.748	55.3
325.962	18.43
326.175	14.34
326.388	88.06
326.601	94.21
326.814	-12.29
327.027	55.3
327.24	83.97
327.453	-40.96
327.666	86.01
327.879	71.68
328.092	-22.53
328.305	6.14
328.518	-20.48
328.731	-40.96
328.944	61.44
329.157	-14.34
329.37	40.96
329.583	59.39
329.796	47.1
330.009	-10.24
330.222	102.4
330.435	43.01
330.648	36.86
330.861	43.01
331.073	30.72
331.286	-4.1
331.499	22.53
331.712	0
331.925	16.38
332.138	96.25
332.35	34.82
332.563	4.1
332.776	14.34
332.989	14.34
333.202	114.69
333.414	16.38
333.627	28.67
333.84	65.54
334.053	22.53
334.265	18.43
334.478	24.58
334.691	6.14
334.903	108.54
335.116	22.53
335.329	110.59
335.541	57.34
335.754	102.4
335.966	-49.15
336.179	94.21
336.392	-12.29
336.604	40.96
336.817	75.77
337.029	98.3
337.242	14.34
337.454	83.97
337.667	36.86
337.88	96.25
338.092	69.63
338.305	114.69
338.517	45.06
338.729	57.34
338.942	90.11
339.154	61.44
339.367	10.24
339.579	12.29
339.792	-4.1
340.004	63.49
340.217	6.14
340.429	53.25
340.641	36.86
340.854	36.86
341.066	88.06
341.278	18.43
341.491	38.91
341.703	34.82
341.915	-45.06
342.128	16.38
342.34	14.34
342.552	-20.48
342.764	-20.48
342.977	45.06
343.189	135.17
343.401	81.92
343.613	8.19
343.826	43.01
344.038	61.44
344.25	36.86
344.462	-14.34
344.674	2.05
344.886	63.49
345.099	6.14
345.311	-18.43
345.523	73.73
345.735	32.77
345.947	63.49
346.159	57.34
346.371	98.3
346.583	-12.29
346.795	22.53
347.007	26.62
347.219	-16.38
347.431	104.45
347.643	90.11
347.855	0
348.067	-2.05
348.279	43.01
348.491	36.86
348.703	77.82
348.915	12.29
349.127	-34.82
349.339	2.05
349.551	-53.25
349.763	57.34
349.975	30.72
350.187	67.58
350.399	8.19
350.61	18.43
350.822	2.05
351.034	51.2
351.246	-24.58
351.458	86.01
351.669	45.06
351.881	73.73
352.093	102.4
352.305	40.96
352.517	-8.19
352.728	47.1
352.94	-6.14
353.152	-69.63
353.363	-28.67
353.575	49.15
353.787	108.54
353.999	51.2
354.21	86.01
354.422	79.87
354.633	61.44
354.845	6.14
355.057	65.54
355.268	-14.34
355.48	102.4
355.692	12.29
355.903	49.15
356.115	14.34
356.326	-75.77
356.538	63.49
356.749	40.96
356.961	36.86
357.172	32.77
357.384	83.97
357.595	47.1
357.807	-77.82
358.018	-6.14
358.23	92.16
358.441	61.44
358.653	112.64
358.864	4.1
359.075	36.86
359.287	49.15
359.498	12.29
359.709	49.15
359.921	28.67
360.132	4.1
360.344	10.24
360.555	-2.05
360.766	49.15
360.977	32.77
361.189	94.21
361.4	51.2
361.611	45.06
361.823	-10.24
362.034	186.37
362.245	-28.67
362.456	61.44
362.667	40.96
362.879	77.82
363.09	20.48
363.301	59.39
363.512	2.05
363.723	20.48
363.935	77.82
364.146	38.91
364.357	8.19
364.568	-69.63
364.779	0
364.99	-63.49
365.201	-28.67
365.412	79.87
365.623	30.72
365.834	75.77
366.045	6.14
366.256	110.59
366.467	57.34
366.678	20.48
366.889	22.53
367.1	24.58
367.311	59.39
367.522	-47.1
367.733	2.05
367.944	71.68
368.155	0
368.366	94.21
368.577	90.11
368.788	86.01
368.999	14.34
369.209	8.19
369.42	51.2
369.631	141.31
369.842	30.72
370.053	20.48
370.264	-32.77
370.474	57.34
370.685	26.62
370.896	79.87
371.107	110.59
371.317	57.34
371.528	49.15
371.739	73.73
371.95	49.15
372.16	-28.67
372.371	26.62
372.582	43.01
372.792	30.72
373.003	20.48
373.214	49.15
373.424	47.1
373.635	14.34
373.846	36.86
374.056	-10.24
374.267	61.44
374.477	10.24
374.688	32.77
374.898	40.96
375.109	47.1
375.319	53.25
375.53	12.29
375.74	63.49
375.951	61.44
376.161	10.24
376.372	53.25
376.582	0
376.793	69.63
377.003	69.63
377.214	108.54
377.424	47.1
377.635	12.29
377.845	-65.53
378.055	18.43
378.266	-20.48
378.476	28.67
378.686	34.82
378.897	49.15
379.107	65.54
379.317	18.43
379.528	-10.24
379.738	88.06
379.948	4.1
380.158	12.29
380.369	32.77
380.579	106.49
380.789	8.19
380.999	57.34
381.21	2.05
381.42	135.17
381.63	0
381.84	149.5
382.05	47.1
382.261	106.49
382.471	51.2
382.681	83.97
382.891	94.21
383.101	61.44
383.311	-51.2
383.521	-22.53
383.731	10.24
383.941	45.06
384.151	22.53
384.361	36.86
384.571	4.1
384.781	86.01
384.991	49.15
385.201	43.01
385.411	30.72
385.621	65.54
385.831	43.01
386.041	20.48
386.251	47.1
386.461	114.69
386.671	-14.34
386.881	28.67
387.091	-12.29
387.301	65.54
387.511	-4.1
387.72	-18.43
387.93	-4.1
388.14	22.53
388.35	12.29
388.56	83.97
388.769	73.73
388.979	36.86
389.189	-36.86
389.399	32.77
389.609	36.86
389.818	94.21
390.028	55.3
390.238	10.24
390.447	28.67
390.657	61.44
390.867	-45.06
391.076	-2.05
391.286	34.82
391.496	47.1
391.705	-10.24
391.915	100.35
392.125	102.4
392.334	96.25
392.544	110.59
392.753	14.34
392.963	34.82
393.172	18.43
393.382	28.67
393.591	71.68
393.801	49.15
394.01	126.97
394.22	98.3
394.429	126.97
394.639	57.34
394.848	51.2
395.058	77.82
395.267	22.53
395.477	10.24
395.686	40.96
395.895	90.11
396.105	104.45
396.314	69.63
396.524	65.54
396.733	57.34
396.942	92.16
397.152	53.25
397.361	47.1
397.57	-34.82
397.78	51.2
397.989	43.01
398.198	100.35
398.407	22.53
398.617	75.77
398.826	28.67
399.035	34.82
399.244	53.25
399.453	65.54
399.663	90.11
399.872	118.78
400.081	30.72
400.29	98.3
400.499	57.34
400.708	83.97
400.917	49.15
401.127	77.82
401.336	73.73
401.545	79.87
401.754	141.31
401.963	86.01
402.172	32.77
402.381	120.83
402.59	6.14
402.799	73.73
403.008	135.17
403.217	108.54
403.426	53.25
403.635	18.43
403.844	12.29
404.053	65.54
404.262	30.72
404.471	90.11
404.68	90.11
404.888	94.21
405.097	36.86
405.306	38.91
405.515	114.69
405.724	135.17
405.933	94.21
406.142	139.26
406.35	135.17
406.559	151.55
406.768	36.86
406.977	73.73
407.185	98.3
407.394	122.88
407.603	81.92
407.812	112.64
408.02	212.99
408.229	110.59
408.438	122.88
408.646	139.26
408.855	116.73
409.064	190.46
409.272	139.26
409.481	153.6
409.69	112.64
409.898	108.54
410.107	151.55
410.315	196.61
410.524	102.4
410.733	137.21
410.941	86.01
411.15	200.7
411.358	163.84
411.567	153.6
411.775	180.22
411.984	188.41
412.192	245.76
412.401	208.89
412.609	278.52
412.818	305.15
413.026	210.94
413.234	200.7
413.443	194.56
413.651	233.47
413.86	200.7
414.068	245.76
414.276	325.63
414.485	278.52
414.693	262.14
414.901	317.44
415.11	317.44
415.318	342.01
415.526	317.44
415.734	378.87
415.943	382.97
416.151	374.78
416.359	407.55
416.567	333.82
416.776	438.27
416.984	466.94
417.192	503.8
417.4	452.6
417.608	423.93
417.817	475.13
418.025	555
418.233	501.75
418.441	555
418.649	522.23
418.857	548.86
419.065	616.44
419.273	522.23
419.481	737.27
419.689	616.44
419.897	692.21
420.105	667.64
420.313	712.69
420.521	755.7
420.729	749.56
420.937	776.18
421.145	749.56
421.353	884.72
421.561	851.96
421.769	841.72
421.977	983.02
422.185	858.1
422.393	903.15
422.601	1085.42
422.809	999.41
423.017	1052.66
423.224	1093.62
423.432	1191.92
423.64	1066.99
423.848	1177.58
424.056	1208.3
424.263	1261.55
424.471	1236.97
424.679	1325.04
424.887	1384.43
425.094	1351.66
425.302	1511.4
425.51	1548.26
425.718	1527.78
425.925	1613.8
426.133	1667.05
426.341	1744.87
426.548	1920.99
426.756	1728.49
426.964	1791.97
427.171	1814.5
427.379	1949.67
427.586	2037.73
427.794	2117.6
428.001	2217.95
428.209	2205.66
428.417	2166.75
428.624	2410.46
428.832	2306.01
429.039	2279.39
429.247	2328.54
429.454	2586.58
429.662	2709.46
429.869	2535.39
430.076	2801.62
430.284	2697.17
430.491	2793.43
430.699	2822.1
430.906	2895.83
431.114	2977.75
431.321	3139.54
431.528	3172.3
431.736	3289.04
431.943	3555.27
432.15	3375.05
432.358	3438.54
432.565	3717.06
432.772	3459.02
432.979	3755.97
433.187	3741.64
433.394	3880.9
433.601	4163.52
433.808	4243.39
434.016	4204.48
434.223	4300.73
434.43	4726.71
434.637	4591.55
434.844	4919.22
435.052	4894.65
435.259	4765.62
435.466	4886.45
435.673	5005.24
435.88	5152.69
436.087	5468.08
436.294	5572.52
436.501	5298.1
436.708	5373.87
436.915	5566.38
437.122	5951.4
437.329	5679.02
437.537	5994.4
437.743	6156.19
437.95	6266.78
438.157	6193.06
438.364	6397.85
438.571	6639.51
438.778	6635.42
438.985	7147.41
439.192	7032.72
439.399	7020.44
439.606	6967.19
439.813	7438.22
440.02	7892.87
440.227	7778.19
440.433	7522.19
440.64	7831.43
440.847	7944.07
441.054	8032.13
441.261	8222.59
441.467	8370.05
441.674	8695.68
441.881	8867.7
442.088	8927.1
442.294	8970.1
442.501	9142.13
442.708	9187.19
442.914	9613.17
443.121	10102.63
443.328	9729.9
443.534	10549.09
443.741	10098.53
443.948	9965.42
444.154	10643.29
444.361	10571.61
444.568	10676.06
444.774	10733.4
444.981	10827.61
445.187	11421.52
445.394	11704.14
445.6	11595.6
445.807	12801.85
446.013	12054.34
446.22	12218.18
446.426	12791.61
446.633	12678.97
446.839	13295.41
447.046	12666.69
447.252	13557.55
447.459	13655.86
447.665	13328.18
447.871	14296.87
448.078	14855.97
448.284	13866.8
448.491	14688.03
448.697	14862.11
448.903	15451.92
449.11	15453.97
449.316	15114.01
449.522	15273.75
449.728	15972.11
449.935	15679.25
450.141	15623.95
450.347	16185.1
450.553	15666.96
450.76	15933.2
450.966	16439.05
451.172	16248.58
451.378	16727.81
451.584	16336.65
451.791	16871.17
451.997	16707.33
452.203	17114.87
452.409	17143.55
452.615	16946.94
452.821	16316.17
453.027	16168.71
453.233	17106.68
453.44	16203.53
453.646	16666.37
453.852	16768.77
454.058	16922.37
454.264	16326.41
454.47	16672.51
454.676	16193.29
454.882	16895.74
455.088	15501.08
455.294	15611.67
455.5	15865.61
455.705	15945.48
455.911	15378.2
456.117	15089.43
456.323	14991.13
456.529	14229.29
456.735	14606.11
456.941	14444.32
457.147	14221.09
457.352	13805.36
457.558	13532.98
457.764	13670.19
457.97	13451.06
458.176	12914.49
458.381	13227.83
458.587	12537.66
458.793	12324.68
458.999	11820.88
459.204	12799.8
459.41	12253
459.616	11538.26
459.821	11519.82
460.027	11358.03
460.233	10977.11
460.438	10628.96
460.644	10858.33
460.85	10241.89
461.055	10030.95
461.261	10133.35
461.466	9301.87
461.672	8927.1
461.878	9551.73
462.083	9035.64
462.289	8902.52
462.494	9033.59
462.7	8566.65
462.905	8167.3
463.111	8402.82
463.316	8601.47
463.522	8431.49
463.727	8312.71
463.932	8212.35
464.138	8187.78
464.343	8261.51
464.549	8112
464.754	8408.96
464.959	8296.32
465.165	8220.55
465.37	7921.54
465.575	7460.75
465.781	7780.23
465.986	7958.41
466.191	7665.55
466.397	7733.13
466.602	7253.91
466.807	7466.89
467.012	7430.03
467.218	7427.98
467.423	7346.06
467.628	7329.68
467.833	7741.32
468.038	7384.98
468.244	7255.95
468.449	7417.74
468.654	7139.22
468.859	7286.67
469.064	7096.21
469.269	6862.74
469.474	6911.89
469.679	7049.11
