Data from USB4F104151__66__12-01-56-028.txt Node

Date: Fri Mar 14 12:01:56 EDT 2025
User: louis
Spectrometer: USB4F10415
Trigger mode: 4
Integration Time (sec): 2.000000E-2
Scans to average: 1
Electric dark correction enabled: true
Nonlinearity correction enabled: false
Boxcar width: 0
XAxis mode: Wavelengths
Number of Pixels in Spectrum: 3648
>>>>>Begin Spectral Data<<<<<
178.204	-71.68
178.424	-71.68
178.644	-71.68
178.864	-73.73
179.084	-133.12
179.304	-8.19
179.524	6.14
179.744	28.67
179.964	38.91
180.184	22.53
180.404	-20.48
180.624	-2.05
180.844	-40.96
181.064	-10.24
181.283	-24.58
181.503	-59.39
181.723	69.63
181.943	-65.54
182.163	114.69
182.383	-40.96
182.602	-16.38
182.822	112.64
183.042	-36.86
183.262	26.62
183.482	-28.67
183.701	38.91
183.921	22.53
184.141	6.14
184.361	-43.01
184.58	22.53
184.8	-30.72
185.02	-16.38
185.239	24.58
185.459	-26.62
185.679	63.49
185.898	-55.3
186.118	14.34
186.338	32.77
186.557	71.68
186.777	-43.01
186.997	-49.15
187.216	-40.96
187.436	53.25
187.655	24.58
187.875	-26.62
188.095	53.25
188.314	-14.34
188.534	34.82
188.753	94.21
188.973	49.15
189.192	106.49
189.412	36.86
189.631	2.05
189.851	112.64
190.07	26.62
190.29	-18.43
190.509	-12.29
190.729	75.77
190.948	30.72
191.168	129.02
191.387	-24.58
191.607	-2.05
191.826	14.34
192.045	45.06
192.265	-12.29
192.484	4.1
192.704	-4.1
192.923	-12.29
193.142	77.82
193.362	12.29
193.581	28.67
193.8	47.1
194.02	55.3
194.239	73.73
194.458	43.01
194.678	12.29
194.897	139.26
195.116	106.49
195.335	12.29
195.555	12.29
195.774	-6.14
195.993	59.39
196.212	18.43
196.432	16.38
196.651	40.96
196.87	-43.01
197.089	92.16
197.308	45.06
197.528	12.29
197.747	55.3
197.966	67.58
198.185	12.29
198.404	-51.2
198.623	57.34
198.842	4.1
199.062	-47.1
199.281	57.34
199.5	-16.38
199.719	-18.43
199.938	75.77
200.157	77.82
200.376	53.25
200.595	69.63
200.814	36.86
201.033	-20.48
201.252	-16.38
201.471	43.01
201.69	65.53
201.909	36.86
202.128	67.58
202.347	67.58
202.566	-18.43
202.785	-4.1
203.004	-12.29
203.223	129.02
203.442	8.19
203.661	-6.14
203.879	49.15
204.098	61.44
204.317	18.43
204.536	34.82
204.755	20.48
204.974	55.3
205.193	-26.62
205.411	47.1
205.63	8.19
205.849	67.58
206.068	57.34
206.287	28.67
206.505	8.19
206.724	49.15
206.943	65.53
207.162	45.06
207.381	-6.14
207.599	36.86
207.818	30.72
208.037	30.72
208.255	-2.05
208.474	-22.53
208.693	110.59
208.911	38.91
209.13	45.06
209.349	22.53
209.567	34.82
209.786	34.82
210.005	10.24
210.223	-2.05
210.442	-26.62
210.661	86.01
210.879	-24.58
211.098	24.58
211.316	67.58
211.535	75.77
211.753	26.62
211.972	34.82
212.191	-32.77
212.409	10.24
212.628	73.73
212.846	-49.15
213.065	59.39
213.283	38.91
213.502	110.59
213.72	55.3
213.938	-22.53
214.157	36.86
214.375	-22.53
214.594	14.34
214.812	65.53
215.031	-12.29
215.249	-24.58
215.467	75.77
215.686	30.72
215.904	26.62
216.122	40.96
216.341	22.53
216.559	69.63
216.778	32.77
216.996	69.63
217.214	4.1
217.432	-12.29
217.651	59.39
217.869	20.48
218.087	16.38
218.306	57.34
218.524	43.01
218.742	-4.1
218.96	61.44
219.179	61.44
219.397	12.29
219.615	90.11
219.833	45.06
220.051	22.53
220.27	73.73
220.488	32.77
220.706	98.3
220.924	40.96
221.142	-86.01
221.36	6.14
221.578	6.14
221.796	-4.1
222.015	75.77
222.233	-49.15
222.451	34.82
222.669	-30.72
222.887	86.01
223.105	-53.25
223.323	4.1
223.541	0
223.759	38.91
223.977	92.16
224.195	40.96
224.413	65.53
224.631	55.3
224.849	77.82
225.067	40.96
225.285	69.63
225.503	-6.14
225.721	-12.29
225.939	-8.19
226.157	69.63
226.375	38.91
226.592	-6.14
226.81	55.3
227.028	57.34
227.246	69.63
227.464	-20.48
227.682	96.25
227.9	0
228.117	133.12
228.335	24.58
228.553	-49.15
228.771	71.68
228.989	22.53
229.206	51.2
229.424	-61.44
229.642	12.29
229.86	86.01
230.077	26.62
230.295	34.82
230.513	47.1
230.731	67.58
230.948	32.77
231.166	14.34
231.384	36.86
231.601	73.73
231.819	106.49
232.037	92.16
232.254	-14.34
232.472	67.58
232.689	67.58
232.907	22.53
233.125	-34.82
233.342	-20.48
233.56	92.16
233.777	43.01
233.995	30.72
234.213	124.93
234.43	32.77
234.648	12.29
234.865	-32.77
235.083	36.86
235.3	-47.1
235.518	14.34
235.735	34.82
235.953	32.77
236.17	57.34
236.388	69.63
236.605	49.15
236.822	30.72
237.04	-36.86
237.257	118.78
237.475	53.25
237.692	169.98
237.909	69.63
238.127	63.49
238.344	8.19
238.562	-20.48
238.779	2.05
238.996	8.19
239.214	26.62
239.431	20.48
239.648	2.05
239.865	6.14
240.083	98.3
240.3	-16.38
240.517	-8.19
240.735	45.06
240.952	79.87
241.169	102.4
241.386	71.68
241.603	55.3
241.821	36.86
242.038	81.92
242.255	45.06
242.472	12.29
242.689	114.69
242.907	0
243.124	57.34
243.341	-6.14
243.558	-26.62
243.775	26.62
243.992	10.24
244.209	-4.1
244.426	51.2
244.643	73.73
244.86	81.92
245.078	57.34
245.295	20.48
245.512	-6.14
245.729	40.96
245.946	40.96
246.163	12.29
246.38	-8.19
246.597	40.96
246.814	73.73
247.031	57.34
247.248	79.87
247.464	59.39
247.681	75.77
247.898	18.43
248.115	92.16
248.332	-8.19
248.549	-14.34
248.766	153.6
248.983	81.92
249.2	0
249.417	-38.91
249.633	55.3
249.85	65.53
250.067	20.48
250.284	30.72
250.501	40.96
250.717	75.77
250.934	-12.29
251.151	49.15
251.368	24.58
251.585	51.2
251.801	2.05
252.018	8.19
252.235	22.53
252.451	24.58
252.668	65.53
252.885	4.1
253.102	-4.1
253.318	18.43
253.535	-12.29
253.752	-6.14
253.968	40.96
254.185	-67.58
254.401	0
254.618	36.86
254.835	79.87
255.051	57.34
255.268	26.62
255.484	94.21
255.701	57.34
255.917	65.53
256.134	4.1
256.351	71.68
256.567	-16.38
256.784	40.96
257	-34.82
257.217	69.63
257.433	77.82
257.65	53.25
257.866	40.96
258.082	22.53
258.299	116.73
258.515	69.63
258.732	45.06
258.948	-22.53
259.165	49.15
259.381	-79.87
259.597	118.78
259.814	-18.43
260.03	69.63
260.246	26.62
260.463	22.53
260.679	14.34
260.895	61.44
261.112	-10.24
261.328	32.77
261.544	4.1
261.761	83.97
261.977	43.01
262.193	34.82
262.409	32.77
262.626	26.62
262.842	18.43
263.058	10.24
263.274	112.64
263.49	-26.62
263.707	61.44
263.923	-12.29
264.139	69.63
264.355	-2.05
264.571	51.2
264.787	40.96
265.004	61.44
265.22	-14.34
265.436	-4.1
265.652	-22.53
265.868	34.82
266.084	-30.72
266.3	34.82
266.516	-24.58
266.732	34.82
266.948	57.34
267.164	49.15
267.38	-4.1
267.596	30.72
267.812	2.05
268.028	47.1
268.244	32.77
268.46	49.15
268.676	43.01
268.892	106.49
269.108	-2.05
269.324	45.06
269.54	57.34
269.756	57.34
269.972	16.38
270.188	69.63
270.403	-24.58
270.619	61.44
270.835	94.21
271.051	-20.48
271.267	0
271.483	10.24
271.698	24.58
271.914	-8.19
272.13	-32.77
272.346	49.15
272.562	-49.15
272.777	102.4
272.993	106.49
273.209	-32.77
273.425	51.2
273.64	-67.58
273.856	53.25
274.072	10.24
274.287	28.67
274.503	86.01
274.719	75.77
274.934	49.15
275.15	-6.14
275.366	0
275.581	24.58
275.797	16.38
276.012	-51.2
276.228	0
276.444	59.39
276.659	90.11
276.875	28.67
277.09	-8.19
277.306	73.73
277.521	65.53
277.737	24.58
277.952	18.43
278.168	43.01
278.383	40.96
278.599	30.72
278.814	-2.05
279.03	65.53
279.245	55.3
279.461	-8.19
279.676	24.58
279.892	-61.44
280.107	73.73
280.322	30.72
280.538	22.53
280.753	6.14
280.969	75.77
281.184	32.77
281.399	53.25
281.615	69.63
281.83	-36.86
282.045	12.29
282.26	16.38
282.476	-4.1
282.691	24.58
282.906	-18.43
283.122	36.86
283.337	8.19
283.552	4.1
283.767	-53.25
283.983	57.34
284.198	45.06
284.413	22.53
284.628	4.1
284.843	51.2
285.058	24.58
285.274	59.39
285.489	38.91
285.704	92.16
285.919	-18.43
286.134	129.02
286.349	59.39
286.564	65.53
286.779	73.73
286.995	-28.67
287.21	30.72
287.425	8.19
287.64	22.53
287.855	22.53
288.07	18.43
288.285	12.29
288.5	34.82
288.715	67.58
288.93	40.96
289.145	-12.29
289.36	2.05
289.575	59.39
289.79	-26.62
290.004	-10.24
290.219	43.01
290.434	65.53
290.649	-55.3
290.864	-8.19
291.079	36.86
291.294	16.38
291.509	8.19
291.724	116.73
291.938	-20.48
292.153	-26.62
292.368	18.43
292.583	-4.1
292.798	49.15
293.012	98.3
293.227	43.01
293.442	28.67
293.657	-16.38
293.871	43.01
294.086	4.1
294.301	2.05
294.516	59.39
294.73	-26.62
294.945	-10.24
295.16	43.01
295.374	-4.1
295.589	67.58
295.804	96.25
296.018	57.34
296.233	49.15
296.447	22.53
296.662	77.82
296.877	112.64
297.091	43.01
297.306	38.91
297.52	45.06
297.735	67.58
297.949	51.2
298.164	86.01
298.378	30.72
298.593	83.97
298.807	98.3
299.022	77.82
299.236	-6.14
299.451	22.53
299.665	-14.34
299.88	67.58
300.094	6.14
300.309	-20.48
300.523	65.53
300.737	14.34
300.952	104.45
301.166	83.97
301.381	-12.29
301.595	-12.29
301.809	18.43
302.024	-14.34
302.238	26.62
302.452	45.06
302.667	43.01
302.881	133.12
303.095	-2.05
303.309	61.44
303.524	-20.48
303.738	22.53
303.952	67.58
304.166	104.45
304.381	43.01
304.595	-8.19
304.809	26.62
305.023	49.15
305.237	14.34
305.452	57.34
305.666	49.15
305.88	90.11
306.094	28.67
306.308	79.87
306.522	96.25
306.736	28.67
306.95	63.49
307.164	57.34
307.379	30.72
307.593	94.21
307.807	40.96
308.021	83.97
308.235	43.01
308.449	-2.05
308.663	69.63
308.877	43.01
309.091	67.58
309.305	49.15
309.519	-49.15
309.733	26.62
309.947	2.05
310.161	6.14
310.374	100.35
310.588	34.82
310.802	-6.14
311.016	79.87
311.23	88.06
311.444	40.96
311.658	49.15
311.872	61.44
312.085	77.82
312.299	71.68
312.513	22.53
312.727	98.3
312.941	0
313.154	61.44
313.368	129.02
313.582	116.73
313.796	47.1
314.009	28.67
314.223	69.63
314.437	73.73
314.651	63.49
314.864	40.96
315.078	-2.05
315.292	83.97
315.505	28.67
315.719	32.77
315.933	38.91
316.146	40.96
316.36	43.01
316.573	45.06
316.787	30.72
317.001	36.86
317.214	-6.14
317.428	43.01
317.641	0
317.855	81.92
318.068	6.14
318.282	36.86
318.495	102.4
318.709	49.15
318.922	90.11
319.136	36.86
319.349	90.11
319.563	-28.67
319.776	51.2
319.99	43.01
320.203	-20.48
320.417	28.67
320.63	63.49
320.843	137.21
321.057	49.15
321.27	79.87
321.483	75.77
321.697	112.64
321.91	36.86
322.124	14.34
322.337	51.2
322.55	-12.29
322.763	86.01
322.977	36.86
323.19	-2.05
323.403	36.86
323.617	67.58
323.83	43.01
324.043	-2.05
324.256	2.05
324.469	57.34
324.683	63.49
324.896	57.34
325.109	51.2
325.322	61.44
325.535	20.48
325.748	22.53
325.962	61.44
326.175	65.53
326.388	24.58
326.601	102.4
326.814	16.38
327.027	8.19
327.24	94.21
327.453	30.72
327.666	61.44
327.879	108.54
328.092	59.39
328.305	55.3
328.518	133.12
328.731	20.48
328.944	2.05
329.157	2.05
329.37	32.77
329.583	65.53
329.796	24.58
330.009	-51.2
330.222	14.34
330.435	79.87
330.648	51.2
330.861	6.14
331.073	49.15
331.286	34.82
331.499	77.82
331.712	53.25
331.925	38.91
332.138	67.58
332.35	126.97
332.563	24.58
332.776	-6.14
332.989	63.49
333.202	12.29
333.414	43.01
333.627	6.14
333.84	-28.67
334.053	110.59
334.265	-26.62
334.478	16.38
334.691	69.63
334.903	6.14
335.116	65.53
335.329	18.43
335.541	-36.86
335.754	24.58
335.966	-10.24
336.179	83.97
336.392	28.67
336.604	-30.72
336.817	4.1
337.029	18.43
337.242	32.77
337.454	116.73
337.667	34.82
337.88	67.58
338.092	83.97
338.305	126.97
338.517	145.41
338.729	79.87
338.942	98.3
339.154	63.49
339.367	-6.14
339.579	34.82
339.792	-26.62
340.004	20.48
340.217	20.48
340.429	102.4
340.641	12.29
340.854	79.87
341.066	-12.29
341.278	32.77
341.491	108.54
341.703	32.77
341.915	20.48
342.128	30.72
342.34	53.25
342.552	-6.14
342.764	-22.53
342.977	49.15
343.189	6.14
343.401	61.44
343.613	14.34
343.826	61.44
344.038	26.62
344.25	16.38
344.462	94.21
344.674	102.4
344.886	34.82
345.099	10.24
345.311	53.25
345.523	90.11
345.735	49.15
345.947	20.48
346.159	47.1
346.371	83.97
346.583	51.2
346.795	51.2
347.007	100.35
347.219	67.58
347.431	53.25
347.643	-12.29
347.855	6.14
348.067	57.34
348.279	-8.19
348.491	-14.34
348.703	-8.19
348.915	45.06
349.127	65.53
349.339	40.96
349.551	-20.48
349.763	124.93
349.975	34.82
350.187	47.1
350.399	88.06
350.61	43.01
350.822	30.72
351.034	24.58
351.246	73.73
351.458	6.14
351.669	73.73
351.881	59.39
352.093	71.68
352.305	36.86
352.517	22.53
352.728	51.2
352.94	28.67
353.152	43.01
353.363	-2.05
353.575	59.39
353.787	145.41
353.999	28.67
354.21	45.06
354.422	75.77
354.633	-20.48
354.845	110.59
355.057	79.87
355.268	108.54
355.48	-61.44
355.692	26.62
355.903	-16.38
356.115	-16.38
356.326	-57.34
356.538	45.06
356.749	75.77
356.961	106.49
357.172	-49.15
357.384	51.2
357.595	38.91
357.807	43.01
358.018	32.77
358.23	90.11
358.441	57.34
358.653	43.01
358.864	30.72
359.075	96.25
359.287	36.86
359.498	47.1
359.709	49.15
359.921	100.35
360.132	114.69
360.344	61.44
360.555	-16.38
360.766	18.43
360.977	53.25
361.189	90.11
361.4	65.53
361.611	104.45
361.823	34.82
362.034	-26.62
362.245	12.29
362.456	63.49
362.667	53.25
362.879	145.41
363.09	98.3
363.301	65.53
363.512	81.92
363.723	-4.1
363.935	38.91
364.146	10.24
364.357	71.68
364.568	18.43
364.779	24.58
364.99	65.53
365.201	28.67
365.412	116.73
365.623	73.73
365.834	43.01
366.045	-12.29
366.256	22.53
366.467	61.44
366.678	98.3
366.889	43.01
367.1	59.39
367.311	55.3
367.522	108.54
367.733	88.06
367.944	116.73
368.155	36.86
368.366	88.06
368.577	16.38
368.788	65.53
368.999	65.53
369.209	92.16
369.42	22.53
369.631	81.92
369.842	14.34
370.053	26.62
370.264	45.06
370.474	47.1
370.685	75.77
370.896	131.07
371.107	116.73
371.317	57.34
371.528	12.29
371.739	139.26
371.95	40.96
372.16	61.44
372.371	20.48
372.582	67.58
372.792	90.11
373.003	47.1
373.214	49.15
373.424	53.25
373.635	24.58
373.846	63.49
374.056	61.44
374.267	24.58
374.477	-12.29
374.688	65.53
374.898	51.2
375.109	92.16
375.319	96.25
375.53	45.06
375.74	32.77
375.951	65.53
376.161	53.25
376.372	102.4
376.582	12.29
376.793	49.15
377.003	71.68
377.214	38.91
377.424	67.58
377.635	124.93
377.845	57.34
378.055	88.06
378.266	86.01
378.476	77.82
378.686	16.38
378.897	120.83
379.107	26.62
379.317	69.63
379.528	40.96
379.738	69.63
379.948	59.39
380.158	40.96
380.369	51.2
380.579	120.83
380.789	96.25
380.999	69.63
381.21	79.87
381.42	61.44
381.63	22.53
381.84	100.35
382.05	59.39
382.261	30.72
382.471	59.39
382.681	26.62
382.891	65.53
383.101	94.21
383.311	-8.19
383.521	43.01
383.731	106.49
383.941	59.39
384.151	43.01
384.361	96.25
384.571	69.63
384.781	36.86
384.991	30.72
385.201	90.11
385.411	61.44
385.621	75.77
385.831	6.14
386.041	77.82
386.251	0
386.461	51.2
386.671	79.87
386.881	55.3
387.091	47.1
387.301	71.68
387.511	110.59
387.72	59.39
387.93	96.25
388.14	28.67
388.35	71.68
388.56	86.01
388.769	114.69
388.979	69.63
389.189	36.86
389.399	34.82
389.609	147.45
389.818	12.29
390.028	40.96
390.238	51.2
390.447	92.16
390.657	77.82
390.867	110.59
391.076	43.01
391.286	92.16
391.496	73.73
391.705	65.53
391.915	102.4
392.125	141.31
392.334	122.88
392.544	100.35
392.753	108.54
392.963	79.87
393.172	34.82
393.382	20.48
393.591	131.07
393.801	-34.82
394.01	167.93
394.22	20.48
394.429	110.59
394.639	-28.67
394.848	88.06
395.058	112.64
395.267	81.92
395.477	40.96
395.686	86.01
395.895	88.06
396.105	157.69
396.314	167.93
396.524	73.73
396.733	106.49
396.942	67.58
397.152	157.69
397.361	161.79
397.57	106.49
397.78	73.73
397.989	69.63
398.198	141.31
398.407	49.15
398.617	163.84
398.826	69.63
399.035	102.4
399.244	141.31
399.453	67.58
399.663	98.3
399.872	104.45
400.081	155.65
400.29	122.88
400.499	73.73
400.708	157.69
400.917	120.83
401.127	77.82
401.336	137.21
401.545	159.74
401.754	135.17
401.963	190.46
402.172	-4.1
402.381	131.07
402.59	151.55
402.799	215.04
403.008	129.02
403.217	212.99
403.426	159.74
403.635	92.16
403.844	161.79
404.053	153.6
404.262	135.17
404.471	212.99
404.68	151.55
404.888	126.97
405.097	149.5
405.306	174.08
405.515	186.37
405.724	206.84
405.933	182.27
406.142	223.23
406.35	133.12
406.559	212.99
406.768	176.13
406.977	188.41
407.185	241.66
407.394	282.62
407.603	200.7
407.812	272.38
408.02	196.61
408.229	210.94
408.438	202.75
408.646	354.3
408.855	296.96
409.064	323.58
409.272	292.86
409.481	290.81
409.69	344.06
409.898	296.96
410.107	350.2
410.315	401.4
410.524	315.39
410.733	313.34
410.941	364.54
411.15	405.5
411.358	432.12
411.567	428.03
411.775	387.07
411.984	485.37
412.192	501.75
412.401	524.28
412.609	526.33
412.818	544.76
413.026	585.72
413.234	497.66
413.443	538.62
413.651	604.15
413.86	595.96
414.068	718.84
414.276	694.26
414.485	759.8
414.693	751.6
414.901	718.84
415.11	741.36
415.318	774.13
415.526	737.27
415.734	774.13
415.943	798.71
416.151	878.58
416.359	856.05
416.567	888.82
416.776	1040.37
416.984	1075.18
417.192	1026.03
417.4	1107.95
417.608	1019.89
417.817	1077.23
418.025	1183.73
418.233	1294.32
418.441	1198.06
418.649	1265.64
418.857	1378.28
419.065	1370.09
419.273	1374.19
419.481	1460.2
419.689	1597.42
419.897	1679.33
420.105	1683.43
420.313	1826.79
420.521	1675.24
420.729	1851.36
420.937	1871.84
421.145	1970.15
421.353	2050.02
421.561	2123.74
421.769	2150.37
421.977	2230.24
422.185	2129.89
422.393	2379.74
422.601	2545.63
422.809	2533.34
423.017	2582.49
423.224	2594.78
423.432	2772.95
423.64	2727.89
423.848	3002.32
424.056	2836.44
424.263	3196.88
424.471	3178.45
424.679	3334.09
424.887	3436.49
425.094	3479.5
425.302	3516.36
425.51	3655.62
425.718	3700.68
425.925	3854.28
426.133	3758.02
426.341	4208.58
426.548	4304.83
426.756	4358.08
426.964	4556.73
427.171	4530.11
427.379	4706.23
427.586	4894.65
427.794	4876.21
428.001	5306.29
428.209	5420.97
428.417	5513.13
428.624	5810.09
428.832	5685.16
429.039	5617.58
429.247	5799.85
429.454	6207.39
429.662	6487.96
429.869	6080.42
430.076	6584.22
430.284	6533.02
430.491	6860.7
430.699	7245.71
430.906	7169.94
431.114	7186.32
431.321	7540.62
431.528	7614.35
431.736	8310.66
431.943	8519.55
432.15	8302.47
432.358	8359.81
432.565	8800.12
432.772	8802.17
432.979	9328.5
433.187	9492.34
433.394	9365.36
433.601	9918.31
433.808	10127.21
434.016	10116.97
434.223	10637.15
434.43	11212.63
434.637	10796.89
434.844	11528.02
435.052	11827.02
435.259	11718.48
435.466	12054.34
435.673	11771.72
435.88	12685.12
436.087	12982.07
436.294	13334.32
436.501	13018.94
436.708	13258.55
436.915	13797.17
437.122	14198.57
437.329	14294.82
437.537	14761.76
437.743	14878.49
437.95	14710.56
438.157	15462.16
438.364	15867.66
438.571	16115.47
438.778	16279.3
438.985	17647.35
439.192	16715.52
439.399	17530.61
439.606	16992
439.813	17985.26
440.02	19345.11
440.227	18751.2
440.433	18562.79
440.64	19306.2
440.847	18929.38
441.054	19633.88
441.261	21022.4
441.467	20870.85
441.674	20950.72
441.881	21673.65
442.088	21724.85
442.294	21692.08
442.501	22326.96
442.708	22533.8
442.914	23469.72
443.121	24479.37
443.328	23629.46
443.534	25429.63
443.741	24716.93
443.948	24358.54
444.154	26109.55
444.361	26265.2
444.568	26166.9
444.774	26359.41
444.981	26648.17
445.187	27049.57
445.394	28356.18
445.6	28028.5
445.807	30903.85
446.013	29230.66
446.22	30174.77
446.426	30828.07
446.633	31295.01
446.839	32478.74
447.046	30989.86
447.252	32941.58
447.459	32957.96
447.665	32466.45
447.871	34039.29
448.078	35513.83
448.284	33699.33
448.491	34706.93
448.697	35882.46
448.903	36750.8
449.11	36851.15
449.316	36578.77
449.522	36980.17
449.728	37551.56
449.935	38327.74
450.141	38274.49
450.347	38747.57
450.553	37875.13
450.76	38399.41
450.966	39572.9
451.172	39173.55
451.378	39990.69
451.584	38843.82
451.791	40080.8
451.997	40056.22
452.203	40320.41
452.409	40727.95
452.615	40164.76
452.821	38516.15
453.027	38260.15
453.233	40162.72
453.44	38530.48
453.646	39226.79
453.852	39325.1
454.058	40175
454.264	38362.55
454.47	39519.65
454.676	38403.51
454.882	39648.67
455.088	36474.32
455.294	37031.37
455.5	37512.64
455.705	37737.92
455.911	36087.26
456.117	35526.11
456.323	35014.12
456.529	33340.93
456.735	34452.98
456.941	33928.7
457.147	33185.29
457.352	32142.87
457.558	32050.71
457.764	31557.15
457.97	30842.41
458.176	30244.4
458.381	30602.8
458.587	28782.15
458.793	29132.36
458.999	27547.23
459.204	29410.88
459.41	28378.7
459.616	26670.7
459.821	26736.23
460.027	26437.23
460.233	25769.59
460.438	24704.65
460.644	25327.23
460.85	23522.97
461.055	23539.35
461.261	22947.49
461.466	21642.93
461.672	21006.02
461.878	22302.38
462.083	20963.01
462.289	20739.78
462.494	20336.33
462.7	19701.46
462.905	19013.34
463.111	19627.73
463.316	19900.11
463.522	19527.38
463.727	19494.61
463.932	19205.85
464.138	19189.47
464.343	19142.36
464.549	18579.17
464.754	19259.1
464.959	18874.08
465.165	18869.98
465.37	17977.07
465.575	17889.01
465.781	18474.73
465.986	18544.36
466.191	17837.81
466.397	17456.89
466.602	16295.69
466.807	17215.23
467.012	17252.09
467.218	17221.37
467.423	16946.94
