Data from USB4F104151__84__12-02-16-625.txt Node

Date: Fri Mar 14 12:02:16 EDT 2025
User: louis
Spectrometer: USB4F10415
Trigger mode: 4
Integration Time (sec): 2.000000E-2
Scans to average: 1
Electric dark correction enabled: true
Nonlinearity correction enabled: false
Boxcar width: 0
XAxis mode: Wavelengths
Number of Pixels in Spectrum: 3648
>>>>>Begin Spectral Data<<<<<
178.204	-129.88
178.424	-129.88
178.644	-129.88
178.864	-35.67
179.084	-105.3
179.304	11.43
179.524	42.15
179.744	7.34
179.964	36.01
180.184	-43.86
180.404	-86.87
180.624	9.39
180.844	-31.57
181.064	62.63
181.283	-45.91
181.503	-17.24
181.723	56.49
181.943	-21.33
182.163	9.39
182.383	36.01
182.602	72.87
182.822	31.91
183.042	31.91
183.262	19.63
183.482	50.35
183.701	-13.14
183.921	36.01
184.141	-7
184.361	-58.2
184.58	-78.68
184.8	46.25
185.02	15.53
185.239	33.96
185.459	60.59
185.679	9.39
185.898	23.72
186.118	48.3
186.338	81.07
186.557	66.73
186.777	15.53
186.997	48.3
187.216	13.48
187.436	99.5
187.655	21.67
187.875	23.72
188.095	70.83
188.314	56.49
188.534	68.78
188.753	79.02
188.973	5.29
189.192	79.02
189.412	83.11
189.631	21.67
189.851	-23.38
190.07	83.11
190.29	48.3
190.509	66.73
190.729	21.67
190.948	83.11
191.168	46.25
191.387	62.63
191.607	74.92
191.826	56.49
192.045	58.54
192.265	40.11
192.484	-4.95
192.704	91.31
192.923	21.67
193.142	48.3
193.362	36.01
193.581	72.87
193.8	29.87
194.02	9.39
194.239	93.35
194.458	23.72
194.678	58.54
194.897	48.3
195.116	15.53
195.335	93.35
195.555	64.68
195.774	11.43
195.993	50.35
196.212	50.35
196.432	-41.81
196.651	1.19
196.87	95.4
197.089	70.83
197.308	76.97
197.528	76.97
197.747	-105.3
197.966	95.4
198.185	169.13
198.404	27.82
198.623	42.15
198.842	95.4
199.062	66.73
199.281	79.02
199.5	44.2
199.719	56.49
199.938	38.06
200.157	27.82
200.376	89.26
200.595	83.11
200.814	97.45
201.033	79.02
201.252	109.74
201.471	62.63
201.69	29.87
201.909	11.43
202.128	25.77
202.347	58.54
202.566	31.91
202.785	21.67
203.004	11.43
203.223	54.44
203.442	58.54
203.661	66.73
203.879	74.92
204.098	56.49
204.317	48.3
204.536	66.73
204.755	21.67
204.974	40.11
205.193	13.48
205.411	76.97
205.63	85.16
205.849	81.07
206.068	7.34
206.287	38.06
206.505	44.2
206.724	42.15
206.943	11.43
207.162	36.01
207.381	7.34
207.599	93.35
207.818	11.43
208.037	17.58
208.255	23.72
208.474	42.15
208.693	25.77
208.911	-9.05
209.13	38.06
209.349	27.82
209.567	85.16
209.786	48.3
210.005	5.29
210.223	17.58
210.442	56.49
210.661	107.69
210.879	9.39
211.098	-0.85
211.316	58.54
211.535	95.4
211.753	91.31
211.972	128.17
212.191	91.31
212.409	74.92
212.628	-13.14
212.846	23.72
213.065	50.35
213.283	152.74
213.502	72.87
213.72	-2.9
213.938	21.67
214.157	46.25
214.375	33.96
214.594	46.25
214.812	76.97
215.031	44.2
215.249	33.96
215.467	62.63
215.686	1.19
215.904	56.49
216.122	72.87
216.341	3.24
216.559	42.15
216.778	74.92
216.996	72.87
217.214	36.01
217.432	62.63
217.651	38.06
217.869	93.35
218.087	87.21
218.306	50.35
218.524	66.73
218.742	89.26
218.96	21.67
219.179	21.67
219.397	68.78
219.615	79.02
219.833	58.54
220.051	158.89
220.27	109.74
220.488	27.82
220.706	83.11
220.924	31.91
221.142	72.87
221.36	33.96
221.578	42.15
221.796	89.26
222.015	31.91
222.233	40.11
222.451	60.59
222.669	11.43
222.887	42.15
223.105	50.35
223.323	17.58
223.541	74.92
223.759	66.73
223.977	-31.57
224.195	85.16
224.413	31.91
224.631	89.26
224.849	128.17
225.067	103.59
225.285	-9.05
225.503	-35.67
225.721	46.25
225.939	50.35
226.157	70.83
226.375	97.45
226.592	-31.57
226.81	36.01
227.028	42.15
227.246	44.2
227.464	97.45
227.682	46.25
227.9	62.63
228.117	111.78
228.335	1.19
228.553	-41.81
228.771	56.49
228.989	76.97
229.206	136.36
229.424	-41.81
229.642	48.3
229.86	40.11
230.077	50.35
230.295	40.11
230.513	52.39
230.731	105.64
230.948	23.72
231.166	15.53
231.384	38.06
231.601	13.48
231.819	109.74
232.037	15.53
232.254	33.96
232.472	85.16
232.689	91.31
232.907	81.07
233.125	54.44
233.342	-0.85
233.56	25.77
233.777	117.93
233.995	76.97
234.213	146.6
234.43	21.67
234.648	5.29
234.865	-7
235.083	62.63
235.3	40.11
235.518	76.97
235.735	79.02
235.953	93.35
236.17	46.25
236.388	111.78
236.605	66.73
236.822	56.49
237.04	64.68
237.257	56.49
237.475	-4.95
237.692	38.06
237.909	79.02
238.127	-43.86
238.344	81.07
238.562	87.21
238.779	27.82
238.996	81.07
239.214	-25.43
239.431	42.15
239.648	56.49
239.865	85.16
240.083	154.79
240.3	81.07
240.517	33.96
240.735	74.92
240.952	21.67
241.169	62.63
241.386	99.5
241.603	76.97
241.821	48.3
242.038	74.92
242.255	103.59
242.472	44.2
242.689	68.78
242.907	89.26
243.124	60.59
243.341	27.82
243.558	-13.14
243.775	42.15
243.992	66.73
244.209	68.78
244.426	91.31
244.643	99.5
244.86	15.53
245.078	44.2
245.295	60.59
245.512	76.97
245.729	17.58
245.946	42.15
246.163	48.3
246.38	-11.09
246.597	60.59
246.814	140.46
247.031	25.77
247.248	85.16
247.464	103.59
247.681	23.72
247.898	105.64
248.115	130.22
248.332	38.06
248.549	46.25
248.766	99.5
248.983	48.3
249.2	54.44
249.417	56.49
249.633	-15.19
249.85	89.26
250.067	-7
250.284	-23.38
250.501	111.78
250.717	74.92
250.934	27.82
251.151	50.35
251.368	36.01
251.585	11.43
251.801	9.39
252.018	25.77
252.235	31.91
252.451	19.63
252.668	13.48
252.885	79.02
253.102	66.73
253.318	132.26
253.535	44.2
253.752	72.87
253.968	50.35
254.185	-4.95
254.401	70.83
254.618	56.49
254.835	119.98
255.051	58.54
255.268	9.39
255.484	62.63
255.701	70.83
255.917	48.3
256.134	-11.09
256.351	-9.05
256.567	66.73
256.784	25.77
257	76.97
257.217	36.01
257.433	58.54
257.65	42.15
257.866	89.26
258.082	-37.72
258.299	38.06
258.515	54.44
258.732	99.5
258.948	38.06
259.165	83.11
259.381	-0.85
259.597	29.87
259.814	101.55
260.03	25.77
260.246	130.22
260.463	160.94
260.679	79.02
260.895	70.83
261.112	91.31
261.328	7.34
261.544	38.06
261.761	101.55
261.977	56.49
262.193	87.21
262.409	105.64
262.626	21.67
262.842	15.53
263.058	109.74
263.274	23.72
263.49	23.72
263.707	25.77
263.923	9.39
264.139	27.82
264.355	115.88
264.571	44.2
264.787	99.5
265.004	85.16
265.22	11.43
265.436	36.01
265.652	117.93
265.868	25.77
266.084	76.97
266.3	21.67
266.516	54.44
266.732	91.31
266.948	38.06
267.164	101.55
267.38	58.54
267.596	44.2
267.812	122.02
268.028	42.15
268.244	68.78
268.46	70.83
268.676	1.19
268.892	122.02
269.108	-11.09
269.324	44.2
269.54	-0.85
269.756	13.48
269.972	46.25
270.188	11.43
270.403	29.87
270.619	19.63
270.835	97.45
271.051	9.39
271.267	29.87
271.483	64.68
271.698	62.63
271.914	56.49
272.13	25.77
272.346	72.87
272.562	-4.95
272.777	81.07
272.993	54.44
273.209	13.48
273.425	48.3
273.64	19.63
273.856	111.78
274.072	54.44
274.287	105.64
274.503	81.07
274.719	70.83
274.934	56.49
275.15	13.48
275.366	23.72
275.581	3.24
275.797	13.48
276.012	56.49
276.228	64.68
276.444	48.3
276.659	158.89
276.875	58.54
277.09	89.26
277.306	62.63
277.521	89.26
277.737	44.2
277.952	128.17
278.168	74.92
278.383	58.54
278.599	-25.43
278.814	58.54
279.03	115.88
279.245	56.49
279.461	62.63
279.676	107.69
279.892	1.19
280.107	101.55
280.322	66.73
280.538	36.01
280.753	87.21
280.969	95.4
281.184	21.67
281.399	27.82
281.615	72.87
281.83	95.4
282.045	-11.09
282.26	76.97
282.476	27.82
282.691	103.59
282.906	11.43
283.122	109.74
283.337	25.77
283.552	87.21
283.767	48.3
283.983	52.39
284.198	31.91
284.413	128.17
284.628	27.82
284.843	52.39
285.058	54.44
285.274	103.59
285.489	48.3
285.704	68.78
285.919	42.15
286.134	173.22
286.349	13.48
286.564	9.39
286.779	99.5
286.995	13.48
287.21	68.78
287.425	72.87
287.64	38.06
287.855	52.39
288.07	44.2
288.285	64.68
288.5	107.69
288.715	60.59
288.93	31.91
289.145	-56.15
289.36	91.31
289.575	46.25
289.79	85.16
290.004	36.01
290.219	81.07
290.434	74.92
290.649	-74.58
290.864	148.65
291.079	13.48
291.294	138.41
291.509	74.92
291.724	38.06
291.938	36.01
292.153	99.5
292.368	44.2
292.583	60.59
292.798	50.35
293.012	27.82
293.227	64.68
293.442	48.3
293.657	79.02
293.871	68.78
294.086	-7
294.301	48.3
294.516	40.11
294.73	56.49
294.945	42.15
295.16	105.64
295.374	93.35
295.589	60.59
295.804	64.68
296.018	74.92
296.233	70.83
296.447	66.73
296.662	-19.29
296.877	89.26
297.091	105.64
297.306	83.11
297.52	72.87
297.735	44.2
297.949	52.39
298.164	40.11
298.378	46.25
298.593	109.74
298.807	27.82
299.022	44.2
299.236	89.26
299.451	140.46
299.665	66.73
299.88	66.73
300.094	85.16
300.309	89.26
300.523	31.91
300.737	31.91
300.952	68.78
301.166	72.87
301.381	36.01
301.595	48.3
301.809	46.25
302.024	74.92
302.238	1.19
302.452	60.59
302.667	27.82
302.881	136.36
303.095	85.16
303.309	136.36
303.524	62.63
303.738	58.54
303.952	64.68
304.166	62.63
304.381	31.91
304.595	119.98
304.809	-27.48
305.023	130.22
305.237	140.46
305.452	103.59
305.666	62.63
305.88	79.02
306.094	-13.14
306.308	79.02
306.522	130.22
306.736	62.63
306.95	29.87
307.164	93.35
307.379	40.11
307.593	68.78
307.807	62.63
308.021	103.59
308.235	74.92
308.449	-7
308.663	-13.14
308.877	119.98
309.091	31.91
309.305	44.2
309.519	36.01
309.733	64.68
309.947	46.25
310.161	33.96
310.374	117.93
310.588	126.12
310.802	74.92
311.016	48.3
311.23	58.54
311.444	95.4
311.658	83.11
311.872	60.59
312.085	60.59
312.299	54.44
312.513	105.64
312.727	126.12
312.941	68.78
313.154	117.93
313.368	72.87
313.582	111.78
313.796	76.97
314.009	103.59
314.223	171.18
314.437	109.74
314.651	46.25
314.864	76.97
315.078	27.82
315.292	27.82
315.505	83.11
315.719	105.64
315.933	11.43
316.146	72.87
316.36	5.29
316.573	89.26
316.787	64.68
317.001	81.07
317.214	60.59
317.428	17.58
317.641	66.73
317.855	11.43
318.068	85.16
318.282	-7
318.495	87.21
318.709	62.63
318.922	44.2
319.136	58.54
319.349	-7
319.563	83.11
319.776	-4.95
319.99	36.01
320.203	113.83
320.417	56.49
320.63	74.92
320.843	89.26
321.057	105.64
321.27	76.97
321.483	81.07
321.697	152.74
321.91	146.6
322.124	13.48
322.337	81.07
322.55	111.78
322.763	17.58
322.977	85.16
323.19	38.06
323.403	111.78
323.617	74.92
323.83	48.3
324.043	29.87
324.256	42.15
324.469	72.87
324.683	117.93
324.896	33.96
325.109	60.59
325.322	66.73
325.535	158.89
325.748	-0.85
325.962	46.25
326.175	91.31
326.388	74.92
326.601	91.31
326.814	60.59
327.027	27.82
327.24	89.26
327.453	154.79
327.666	42.15
327.879	54.44
328.092	146.6
328.305	89.26
328.518	15.53
328.731	134.31
328.944	81.07
329.157	70.83
329.37	36.01
329.583	107.69
329.796	179.37
330.009	105.64
330.222	111.78
330.435	31.91
330.648	91.31
330.861	58.54
331.073	58.54
331.286	70.83
331.499	48.3
331.712	74.92
331.925	44.2
332.138	17.58
332.35	74.92
332.563	54.44
332.776	97.45
332.989	-2.9
333.202	-13.14
333.414	72.87
333.627	97.45
333.84	158.89
334.053	25.77
334.265	-45.91
334.478	50.35
334.691	76.97
334.903	50.35
335.116	52.39
335.329	101.55
335.541	40.11
335.754	74.92
335.966	1.19
336.179	70.83
336.392	15.53
336.604	33.96
336.817	66.73
337.029	-13.14
337.242	64.68
337.454	136.36
337.667	103.59
337.88	60.59
338.092	11.43
338.305	76.97
338.517	50.35
338.729	140.46
338.942	122.02
339.154	46.25
339.367	27.82
339.579	-39.76
339.792	-13.14
340.004	3.24
340.217	79.02
340.429	42.15
340.641	21.67
340.854	21.67
341.066	95.4
341.278	113.83
341.491	79.02
341.703	124.07
341.915	83.11
342.128	119.98
342.34	95.4
342.552	70.83
342.764	91.31
342.977	83.11
343.189	87.21
343.401	124.07
343.613	42.15
343.826	124.07
344.038	122.02
344.25	15.53
344.462	97.45
344.674	56.49
344.886	40.11
345.099	89.26
345.311	111.78
345.523	83.11
345.735	105.64
345.947	58.54
346.159	85.16
346.371	36.01
346.583	97.45
346.795	85.16
347.007	72.87
347.219	119.98
347.431	60.59
347.643	38.06
347.855	-11.09
348.067	171.18
348.279	68.78
348.491	60.59
348.703	107.69
348.915	56.49
349.127	97.45
349.339	64.68
349.551	54.44
349.763	36.01
349.975	60.59
350.187	113.83
350.399	56.49
350.61	1.19
350.822	113.83
351.034	101.55
351.246	136.36
351.458	44.2
351.669	29.87
351.881	23.72
352.093	97.45
352.305	95.4
352.517	46.25
352.728	-27.48
352.94	115.88
353.152	97.45
353.363	21.67
353.575	76.97
353.787	85.16
353.999	144.55
354.21	-29.52
354.422	42.15
354.633	58.54
354.845	64.68
355.057	27.82
355.268	54.44
355.48	64.68
355.692	42.15
355.903	85.16
356.115	-0.85
356.326	13.48
356.538	93.35
356.749	42.15
356.961	81.07
357.172	31.91
357.384	50.35
357.595	36.01
357.807	74.92
358.018	72.87
358.23	138.41
358.441	136.36
358.653	48.3
358.864	122.02
359.075	44.2
359.287	99.5
359.498	76.97
359.709	91.31
359.921	62.63
360.132	36.01
360.344	83.11
360.555	70.83
360.766	177.32
360.977	89.26
361.189	60.59
361.4	29.87
361.611	81.07
361.823	25.77
362.034	93.35
362.245	138.41
362.456	52.39
362.667	5.29
362.879	68.78
363.09	-2.9
363.301	132.26
363.512	115.88
363.723	130.22
363.935	89.26
364.146	89.26
364.357	93.35
364.568	165.03
364.779	1.19
364.99	158.89
365.201	44.2
365.412	68.78
365.623	56.49
365.834	132.26
366.045	128.17
366.256	95.4
366.467	142.5
366.678	177.32
366.889	50.35
367.1	44.2
367.311	124.07
367.522	91.31
367.733	124.07
367.944	85.16
368.155	83.11
368.366	103.59
368.577	115.88
368.788	122.02
368.999	99.5
369.209	66.73
369.42	44.2
369.631	124.07
369.842	1.19
370.053	38.06
370.264	38.06
370.474	97.45
370.685	105.64
370.896	101.55
371.107	152.74
371.317	107.69
371.528	87.21
371.739	99.5
371.95	169.13
372.16	119.98
372.371	42.15
372.582	91.31
372.792	54.44
373.003	134.31
373.214	50.35
373.424	19.63
373.635	95.4
373.846	130.22
374.056	38.06
374.267	113.83
374.477	99.5
374.688	19.63
374.898	38.06
375.109	44.2
375.319	58.54
375.53	160.94
375.74	50.35
375.951	62.63
376.161	62.63
376.372	148.65
376.582	87.21
376.793	111.78
377.003	68.78
377.214	93.35
377.424	76.97
377.635	74.92
377.845	89.26
378.055	148.65
378.266	70.83
378.476	74.92
378.686	130.22
378.897	126.12
379.107	148.65
379.317	72.87
379.528	134.31
379.738	76.97
379.948	-9.05
380.158	31.91
380.369	109.74
380.579	97.45
380.789	48.3
380.999	36.01
381.21	52.39
381.42	105.64
381.63	42.15
381.84	162.98
382.05	126.12
382.261	101.55
382.471	119.98
382.681	13.48
382.891	95.4
383.101	105.64
383.311	85.16
383.521	-50
383.731	56.49
383.941	154.79
384.151	154.79
384.361	158.89
384.571	144.55
384.781	105.64
384.991	99.5
385.201	83.11
385.411	138.41
385.621	79.02
385.831	52.39
386.041	122.02
386.251	72.87
386.461	72.87
386.671	42.15
386.881	101.55
387.091	183.46
387.301	113.83
387.511	50.35
387.72	68.78
387.93	89.26
388.14	31.91
388.35	115.88
388.56	97.45
388.769	50.35
388.979	62.63
389.189	52.39
389.399	85.16
389.609	38.06
389.818	74.92
390.028	130.22
390.238	173.22
390.447	97.45
390.657	109.74
390.867	130.22
391.076	74.92
391.286	142.5
391.496	177.32
391.705	101.55
391.915	214.18
392.125	42.15
392.334	162.98
392.544	185.51
392.753	87.21
392.963	95.4
393.172	91.31
393.382	56.49
393.591	162.98
393.801	122.02
394.01	130.22
394.22	109.74
394.429	87.21
394.639	99.5
394.848	91.31
395.058	109.74
395.267	68.78
395.477	138.41
395.686	140.46
395.895	99.5
396.105	117.93
396.314	111.78
396.524	105.64
396.733	124.07
396.942	142.5
397.152	158.89
397.361	205.99
397.57	134.31
397.78	93.35
397.989	105.64
398.198	208.04
398.407	83.11
398.617	169.13
398.826	93.35
399.035	124.07
399.244	115.88
399.453	175.27
399.663	150.7
399.872	208.04
400.081	201.9
400.29	191.66
400.499	128.17
400.708	191.66
400.917	117.93
401.127	171.18
401.336	212.14
401.545	195.75
401.754	165.03
401.963	142.5
402.172	107.69
402.381	195.75
402.59	220.33
402.799	162.98
403.008	148.65
403.217	218.28
403.426	220.33
403.635	109.74
403.844	138.41
404.053	195.75
404.262	197.8
404.471	210.09
404.68	160.94
404.888	337.06
405.097	173.22
405.306	257.19
405.515	220.33
405.724	226.47
405.933	257.19
406.142	191.66
406.35	154.79
406.559	253.09
406.768	283.81
406.977	201.9
407.185	322.73
407.394	292.01
407.603	322.73
407.812	384.16
408.02	308.39
408.229	273.57
408.438	386.21
408.646	328.87
408.855	316.58
409.064	296.1
409.272	390.31
409.481	443.56
409.69	308.39
409.898	322.73
410.107	410.79
410.315	451.75
410.524	545.95
410.733	474.28
410.941	466.08
411.15	548
411.358	601.25
411.567	572.58
411.775	591.01
411.984	552.1
412.192	611.49
412.401	568.48
412.609	648.35
412.818	713.89
413.026	709.79
413.234	787.61
413.443	736.42
413.651	769.18
413.86	842.91
414.068	867.49
414.276	910.49
414.485	879.77
414.693	957.6
414.901	951.45
415.11	947.36
415.318	998.56
415.526	1082.52
415.734	1103
415.943	1098.91
416.151	1201.3
416.359	1260.7
416.567	1297.56
416.776	1326.23
416.984	1377.43
417.192	1399.96
417.4	1367.19
417.608	1328.28
417.817	1543.32
418.025	1551.51
418.233	1692.82
418.441	1561.75
418.649	1758.35
418.857	1784.98
419.065	1911.95
419.273	1854.61
419.481	1914
419.689	2077.83
419.897	2221.19
420.105	2204.81
420.313	2309.26
420.521	2335.88
420.729	2479.24
420.937	2507.91
421.145	2598.02
421.353	2712.71
421.561	2743.42
421.769	2862.21
421.977	2991.23
422.185	3054.72
422.393	3060.86
422.601	3394.68
422.809	3261.56
423.017	3388.53
423.224	3507.32
423.432	3626.1
423.64	3665.01
423.848	3855.47
424.056	3941.49
424.263	4105.32
424.471	4234.35
424.679	4177
424.887	4326.5
425.094	4744.29
425.302	4684.9
425.51	4877.41
425.718	4947.04
425.925	5076.06
426.133	5055.58
426.341	5428.31
426.548	5735.51
426.756	5794.9
426.964	5958.74
427.171	6048.85
427.379	6233.16
427.586	6419.53
427.794	6521.93
428.001	7027.78
428.209	7248.96
428.417	7042.11
428.624	7621.69
428.832	7492.66
429.039	7330.87
429.247	7466.04
429.454	8381.48
429.662	8731.69
429.869	8234.03
430.076	8899.62
430.284	8633.38
430.491	8895.52
430.699	9589.78
430.906	9436.19
431.114	9522.2
431.321	10048.53
431.528	10460.17
431.736	10736.65
431.943	11265.02
432.15	11041.79
432.358	11162.62
432.565	11871.22
432.772	11602.94
432.979	12305.39
433.187	12454.89
433.394	12438.51
433.601	13272.03
433.808	13419.49
434.016	13411.29
434.223	13978.58
434.43	14756.81
434.637	14427.09
434.844	15252.42
435.052	15641.53
435.259	15582.14
435.466	15774.65
435.673	15416.26
435.88	16542.64
436.087	17693.6
436.294	17505.18
436.501	17038.25
436.708	17357.73
436.915	17961.88
437.122	18934.67
437.329	18561.94
437.537	19315.59
437.743	19549.06
437.95	19473.28
438.157	20654.96
438.364	21269.35
438.571	21093.22
438.778	21242.73
438.985	23192.39
439.192	22481.75
439.399	23239.5
439.606	22541.14
439.813	23806.78
440.02	25236.27
440.227	24720.18
440.433	24515.38
440.64	25316.14
440.847	25158.44
441.054	25750.31
441.261	27712.26
441.467	26958.61
441.674	27372.3
441.881	28400.38
442.088	28572.41
442.294	28072.7
442.501	29264.62
442.708	29940.45
442.914	30581.46
443.121	32301.76
443.328	31234.77
443.534	33802.92
443.741	32705.21
443.948	31783.62
444.154	34167.46
444.361	34075.3
444.568	34511.52
444.774	34421.41
444.981	34675.35
445.187	35381.9
445.394	37167.73
445.6	36184.71
445.807	40473.15
446.013	38793.82
446.22	39055.96
446.426	40772.16
446.633	41048.63
446.839	42228.26
447.046	40561.22
447.252	42900
447.459	43227.67
447.665	42992.15
447.871	44057.1
448.078	46741.99
448.284	44218.89
448.491	45300.22
448.697	47018.46
448.903	47677.91
449.11	47778.26
449.316	47049.18
449.522	47974.86
449.728	49439.16
449.935	49144.25
450.141	49525.17
450.347	50674.09
450.553	49240.51
450.76	49502.65
450.966	51063.2
451.172	50790.82
451.378	51880.34
451.584	50727.33
451.791	51669.4
451.997	51947.92
452.203	52629.9
452.409	52533.64
452.615	52318.6
452.821	50596.26
453.027	49928.62
453.233	52597.13
453.44	50217.39
453.646	51206.56
453.852	51229.08
454.058	51800.47
454.264	50502.06
454.47	51558.81
454.676	50196.91
454.882	52025.74
455.088	47366.62
455.294	47886.8
455.5	48925.12
455.705	49435.06
455.911	47249.88
456.117	46371.3
456.323	45441.53
456.529	43297.3
456.735	45267.45
456.941	44012.04
457.147	43407.89
457.352	41894.44
457.558	41607.73
457.764	41488.95
457.97	40682.05
458.176	39922.25
458.381	39830.09
458.587	37755.5
458.793	38277.73
458.999	36385.41
459.204	38468.19
459.41	37542.51
459.616	35082.9
459.821	34853.53
460.027	35003.03
460.233	34241.18
460.438	32479.93
460.644	32991.92
460.85	31122.13
461.055	30796.5
461.261	30823.12
461.466	28685.04
461.672	27308.81
461.878	29754.08
462.083	27732.74
462.289	26995.47
462.494	26960.66
462.7	25856.8
462.905	24742.71
463.111	25895.71
463.316	25987.87
463.522	25490.21
463.727	25625.38
463.932	25531.17
464.138	25318.18
464.343	25140.01
464.549	24490.8
464.754	25383.72
464.959	24826.67
465.165	24785.71
465.37	24011.58
465.575	23663.43
465.781	24355.64
465.986	24331.06
466.191	23530.31
466.397	22979.4
466.602	21797.73
