Data from USB4F104151__49__12-01-32-991.txt Node

Date: Fri Mar 14 12:01:32 EDT 2025
User: louis
Spectrometer: USB4F10415
Trigger mode: 4
Integration Time (sec): 2.000000E-2
Scans to average: 1
Electric dark correction enabled: true
Nonlinearity correction enabled: false
Boxcar width: 0
XAxis mode: Wavelengths
Number of Pixels in Spectrum: 3648
>>>>>Begin Spectral Data<<<<<
178.204	-65.71
178.424	-65.71
178.644	-65.71
178.864	-96.43
179.084	-131.24
179.304	-4.27
179.524	-37.03
179.744	30.55
179.964	-34.99
180.184	-53.42
180.404	26.45
180.624	1.88
180.844	20.31
181.064	16.21
181.283	59.22
181.503	-57.51
181.723	32.6
181.943	1.88
182.163	-20.65
182.383	40.79
182.602	48.98
182.822	-12.46
183.042	67.41
183.262	42.84
183.482	26.45
183.701	1.88
183.921	-26.79
184.141	-12.46
184.361	-14.51
184.58	-8.36
184.8	14.17
185.02	28.5
185.239	-16.55
185.459	-28.84
185.679	-43.18
185.898	-10.41
186.118	48.98
186.338	-0.17
186.557	-14.51
186.777	5.97
186.997	67.41
187.216	-6.31
187.436	28.5
187.655	36.69
187.875	34.64
188.095	46.93
188.314	69.46
188.534	-8.36
188.753	-88.23
188.973	77.65
189.192	26.45
189.412	69.46
189.631	42.84
189.851	1.88
190.07	1.88
190.29	-32.94
190.509	28.5
190.729	22.36
190.948	-16.55
191.168	65.36
191.387	63.32
191.607	-37.03
191.826	-30.89
192.045	55.12
192.265	16.21
192.484	-0.17
192.704	12.12
192.923	-24.75
193.142	1.88
193.362	53.08
193.581	53.08
193.8	22.36
194.02	1.88
194.239	-4.27
194.458	38.74
194.678	32.6
194.897	65.36
195.116	16.21
195.335	5.97
195.555	-14.51
195.774	8.02
195.993	1.88
196.212	-57.51
196.432	57.17
196.651	30.55
196.87	30.55
197.089	89.94
197.308	-8.36
197.528	44.88
197.747	-18.6
197.966	36.69
198.185	26.45
198.404	-4.27
198.623	30.55
198.842	1.88
199.062	48.98
199.281	20.31
199.5	12.12
199.719	3.93
199.938	63.32
200.157	20.31
200.376	10.07
200.595	48.98
200.814	-2.22
201.033	-8.36
201.252	12.12
201.471	75.6
201.69	10.07
201.909	26.45
202.128	22.36
202.347	69.46
202.566	-16.55
202.785	14.17
203.004	48.98
203.223	108.37
203.442	42.84
203.661	26.45
203.879	8.02
204.098	53.08
204.317	-22.7
204.536	94.04
204.755	-20.65
204.974	-8.36
205.193	-26.79
205.411	83.8
205.63	18.26
205.849	-16.55
206.068	61.27
206.287	-0.17
206.505	-39.08
206.724	34.64
206.943	-18.6
207.162	-32.94
207.381	32.6
207.599	-14.51
207.818	-14.51
208.037	-53.42
208.255	63.32
208.474	28.5
208.693	42.84
208.911	59.22
209.13	85.84
209.349	46.93
209.567	44.88
209.786	-2.22
210.005	16.21
210.223	-20.65
210.442	-26.79
210.661	38.74
210.879	42.84
211.098	-22.7
211.316	96.08
211.535	28.5
211.753	-2.22
211.972	59.22
212.191	14.17
212.409	44.88
212.628	51.03
212.846	-2.22
213.065	67.41
213.283	44.88
213.502	14.17
213.72	20.31
213.938	-2.22
214.157	42.84
214.375	34.64
214.594	16.21
214.812	51.03
215.031	-26.79
215.249	-41.13
215.467	1.88
215.686	28.5
215.904	83.8
216.122	-26.79
216.341	81.75
216.559	75.6
216.778	-20.65
216.996	20.31
217.214	-12.46
217.432	30.55
217.651	-0.17
217.869	5.97
218.087	-22.7
218.306	67.41
218.524	87.89
218.742	1.88
218.96	-34.99
219.179	46.93
219.397	102.23
219.615	24.4
219.833	16.21
220.051	38.74
220.27	-61.61
220.488	8.02
220.706	-37.03
220.924	-8.36
221.142	-4.27
221.36	71.51
221.578	44.88
221.796	3.93
222.015	44.88
222.233	48.98
222.451	30.55
222.669	51.03
222.887	3.93
223.105	-18.6
223.323	-34.99
223.541	42.84
223.759	98.13
223.977	-43.18
224.195	106.32
224.413	42.84
224.631	30.55
224.849	61.27
225.067	79.7
225.285	-32.94
225.503	44.88
225.721	-110.76
225.939	30.55
226.157	40.79
226.375	110.42
226.592	-6.31
226.81	-22.7
227.028	57.17
227.246	61.27
227.464	79.7
227.682	63.32
227.9	40.79
228.117	42.84
228.335	26.45
228.553	-22.7
228.771	-2.22
228.989	89.94
229.206	-28.84
229.424	5.97
229.642	1.88
229.86	24.4
230.077	-53.42
230.295	34.64
230.513	24.4
230.731	65.36
230.948	46.93
231.166	26.45
231.384	-6.31
231.601	10.07
231.819	69.46
232.037	-4.27
232.254	-30.89
232.472	10.07
232.689	-20.65
232.907	34.64
233.125	24.4
233.342	-20.65
233.56	8.02
233.777	-34.99
233.995	-30.89
234.213	98.13
234.43	51.03
234.648	55.12
234.865	-4.27
235.083	96.08
235.3	-4.27
235.518	48.98
235.735	48.98
235.953	14.17
236.17	28.5
236.388	28.5
236.605	10.07
236.822	73.56
237.04	75.6
237.257	63.32
237.475	32.6
237.692	16.21
237.909	-12.46
238.127	16.21
238.344	-41.13
238.562	-71.85
238.779	-0.17
238.996	16.21
239.214	28.5
239.431	128.85
239.648	36.69
239.865	102.23
240.083	-22.7
240.3	-20.65
240.517	-49.32
240.735	-4.27
240.952	10.07
241.169	75.6
241.386	-22.7
241.603	30.55
241.821	89.94
242.038	42.84
242.255	114.52
242.472	-18.6
242.689	5.97
242.907	-8.36
243.124	-39.08
243.341	42.84
243.558	40.79
243.775	-12.46
243.992	-10.41
244.209	18.26
244.426	34.64
244.643	-14.51
244.86	-2.22
245.078	1.88
245.295	75.6
245.512	16.21
245.729	8.02
245.946	14.17
246.163	-8.36
246.38	-2.22
246.597	22.36
246.814	85.84
247.031	46.93
247.248	12.12
247.464	-20.65
247.681	18.26
247.898	5.97
248.115	94.04
248.332	-37.03
248.549	10.07
248.766	75.6
248.983	28.5
249.2	53.08
249.417	57.17
249.633	34.64
249.85	116.56
250.067	48.98
250.284	-24.75
250.501	-0.17
250.717	30.55
250.934	18.26
251.151	22.36
251.368	-16.55
251.585	36.69
251.801	67.41
252.018	-4.27
252.235	40.79
252.451	-4.27
252.668	-51.37
252.885	-32.94
253.102	-20.65
253.318	40.79
253.535	30.55
253.752	38.74
253.968	-30.89
254.185	-6.31
254.401	18.26
254.618	-49.32
254.835	-14.51
255.051	-2.22
255.268	3.93
255.484	22.36
255.701	61.27
255.917	130.9
256.134	26.45
256.351	28.5
256.567	3.93
256.784	16.21
257	-34.99
257.217	12.12
257.433	59.22
257.65	42.84
257.866	57.17
258.082	16.21
258.299	-12.46
258.515	36.69
258.732	-4.27
258.948	5.97
259.165	61.27
259.381	3.93
259.597	8.02
259.814	-14.51
260.03	28.5
260.246	-30.89
260.463	110.42
260.679	44.88
260.895	85.84
261.112	89.94
261.328	85.84
261.544	5.97
261.761	-28.84
261.977	10.07
262.193	16.21
262.409	24.4
262.626	104.28
262.842	73.56
263.058	14.17
263.274	59.22
263.49	73.56
263.707	16.21
263.923	96.08
264.139	30.55
264.355	10.07
264.571	-8.36
264.787	26.45
265.004	55.12
265.22	42.84
265.436	-0.17
265.652	-8.36
265.868	26.45
266.084	8.02
266.3	-41.13
266.516	20.31
266.732	57.17
266.948	89.94
267.164	-6.31
267.38	51.03
267.596	67.41
267.812	69.46
268.028	26.45
268.244	40.79
268.46	59.22
268.676	-59.56
268.892	85.84
269.108	51.03
269.324	71.51
269.54	-20.65
269.756	40.79
269.972	36.69
270.188	36.69
270.403	-32.94
270.619	40.79
270.835	8.02
271.051	40.79
271.267	53.08
271.483	-39.08
271.698	-8.36
271.914	-8.36
272.13	36.69
272.346	63.32
272.562	14.17
272.777	96.08
272.993	-43.18
273.209	67.41
273.425	59.22
273.64	32.6
273.856	42.84
274.072	30.55
274.287	53.08
274.503	46.93
274.719	65.36
274.934	65.36
275.15	-86.19
275.366	53.08
275.581	-12.46
275.797	-24.75
276.012	3.93
276.228	63.32
276.444	12.12
276.659	94.04
276.875	-24.75
277.09	67.41
277.306	-34.99
277.521	94.04
277.737	-53.42
277.952	22.36
278.168	-20.65
278.383	-22.7
278.599	44.88
278.814	36.69
279.03	38.74
279.245	94.04
279.461	20.31
279.676	36.69
279.892	-69.8
280.107	71.51
280.322	14.17
280.538	32.6
280.753	28.5
280.969	116.56
281.184	-30.89
281.399	65.36
281.615	24.4
281.83	44.88
282.045	-55.47
282.26	-2.22
282.476	8.02
282.691	108.37
282.906	55.12
283.122	40.79
283.337	48.98
283.552	44.88
283.767	28.5
283.983	-51.37
284.198	-30.89
284.413	36.69
284.628	16.21
284.843	-18.6
285.058	28.5
285.274	30.55
285.489	1.88
285.704	40.79
285.919	22.36
286.134	36.69
286.349	-24.75
286.564	-28.84
286.779	8.02
286.995	24.4
287.21	40.79
287.425	75.6
287.64	42.84
287.855	83.8
288.07	30.55
288.285	87.89
288.5	87.89
288.715	12.12
288.93	63.32
289.145	28.5
289.36	67.41
289.575	28.5
289.79	44.88
290.004	1.88
290.219	81.75
290.434	5.97
290.649	-12.46
290.864	22.36
291.079	-32.94
291.294	-59.56
291.509	8.02
291.724	36.69
291.938	32.6
292.153	42.84
292.368	34.64
292.583	14.17
292.798	5.97
293.012	69.46
293.227	46.93
293.442	-22.7
293.657	38.74
293.871	18.26
294.086	22.36
294.301	85.84
294.516	22.36
294.73	67.41
294.945	-20.65
295.16	51.03
295.374	38.74
295.589	-26.79
295.804	-4.27
296.018	8.02
296.233	77.65
296.447	32.6
296.662	-22.7
296.877	48.98
297.091	12.12
297.306	-0.17
297.52	77.65
297.735	59.22
297.949	22.36
298.164	67.41
298.378	-41.13
298.593	20.31
298.807	106.32
299.022	53.08
299.236	65.36
299.451	42.84
299.665	-2.22
299.88	28.5
300.094	22.36
300.309	-4.27
300.523	-12.46
300.737	32.6
300.952	22.36
301.166	38.74
301.381	36.69
301.595	10.07
301.809	36.69
302.024	36.69
302.238	-4.27
302.452	24.4
302.667	40.79
302.881	63.32
303.095	65.36
303.309	-12.46
303.524	40.79
303.738	73.56
303.952	87.89
304.166	26.45
304.381	18.26
304.595	79.7
304.809	16.21
305.023	-6.31
305.237	-41.13
305.452	1.88
305.666	96.08
305.88	81.75
306.094	36.69
306.308	100.18
306.522	28.5
306.736	-37.03
306.95	89.94
307.164	3.93
307.379	-24.75
307.593	155.47
307.807	83.8
308.021	57.17
308.235	-32.94
308.449	55.12
308.663	42.84
308.877	77.65
309.091	22.36
309.305	32.6
309.519	-53.42
309.733	73.56
309.947	-10.41
310.161	44.88
310.374	48.98
310.588	77.65
310.802	-4.27
311.016	-32.94
311.23	44.88
311.444	26.45
311.658	-8.36
311.872	8.02
312.085	28.5
312.299	77.65
312.513	-16.55
312.727	-30.89
312.941	-24.75
313.154	110.42
313.368	22.36
313.582	30.55
313.796	26.45
314.009	30.55
314.223	61.27
314.437	18.26
314.651	24.4
314.864	48.98
315.078	14.17
315.292	69.46
315.505	44.88
315.719	30.55
315.933	71.51
316.146	61.27
316.36	3.93
316.573	18.26
316.787	51.03
317.001	5.97
317.214	-12.46
317.428	24.4
317.641	46.93
317.855	24.4
318.068	26.45
318.282	61.27
318.495	53.08
318.709	67.41
318.922	20.31
319.136	65.36
319.349	48.98
319.563	34.64
319.776	10.07
319.99	83.8
320.203	-16.55
320.417	38.74
320.63	12.12
320.843	14.17
321.057	16.21
321.27	-34.99
321.483	34.64
321.697	89.94
321.91	61.27
322.124	104.28
322.337	5.97
322.55	20.31
322.763	53.08
322.977	59.22
323.19	-32.94
323.403	24.4
323.617	-12.46
323.83	12.12
324.043	34.64
324.256	-4.27
324.469	30.55
324.683	28.5
324.896	24.4
325.109	91.99
325.322	-0.17
325.535	48.98
325.748	8.02
325.962	-2.22
326.175	5.97
326.388	22.36
326.601	18.26
326.814	53.08
327.027	59.22
327.24	48.98
327.453	61.27
327.666	18.26
327.879	22.36
328.092	59.22
328.305	42.84
328.518	-51.37
328.731	20.31
328.944	85.84
329.157	106.32
329.37	67.41
329.583	53.08
329.796	-22.7
330.009	-8.36
330.222	55.12
330.435	30.55
330.648	94.04
330.861	51.03
331.073	24.4
331.286	51.03
331.499	102.23
331.712	-8.36
331.925	26.45
332.138	69.46
332.35	83.8
332.563	8.02
332.776	87.89
332.989	16.21
333.202	38.74
333.414	-4.27
333.627	65.36
333.84	-12.46
334.053	46.93
334.265	14.17
334.478	8.02
334.691	28.5
334.903	71.51
335.116	-16.55
335.329	59.22
335.541	94.04
335.754	139.09
335.966	46.93
336.179	-28.84
336.392	51.03
336.604	32.6
336.817	48.98
337.029	3.93
337.242	67.41
337.454	77.65
337.667	28.5
337.88	28.5
338.092	34.64
338.305	14.17
338.517	-6.31
338.729	-10.41
338.942	73.56
339.154	34.64
339.367	20.31
339.579	55.12
339.792	10.07
340.004	73.56
340.217	1.88
340.429	53.08
340.641	-4.27
340.854	32.6
341.066	12.12
341.278	100.18
341.491	34.64
341.703	-2.22
341.915	53.08
342.128	24.4
342.34	69.46
342.552	67.41
342.764	81.75
342.977	126.8
343.189	26.45
343.401	132.95
343.613	42.84
343.826	77.65
344.038	65.36
344.25	26.45
344.462	16.21
344.674	55.12
344.886	5.97
345.099	22.36
345.311	75.6
345.523	81.75
345.735	16.21
345.947	12.12
346.159	44.88
346.371	63.32
346.583	118.61
346.795	38.74
347.007	12.12
347.219	30.55
347.431	24.4
347.643	57.17
347.855	57.17
348.067	18.26
348.279	32.6
348.491	61.27
348.703	40.79
348.915	67.41
349.127	51.03
349.339	59.22
349.551	-26.79
349.763	36.69
349.975	-4.27
350.187	40.79
350.399	122.71
350.61	26.45
350.822	-14.51
351.034	32.6
351.246	46.93
351.458	18.26
351.669	26.45
351.881	106.32
352.093	42.84
352.305	18.26
352.517	-6.31
352.728	77.65
352.94	5.97
353.152	26.45
353.363	22.36
353.575	94.04
353.787	73.56
353.999	38.74
354.21	102.23
354.422	-26.79
354.633	44.88
354.845	53.08
355.057	57.17
355.268	91.99
355.48	-4.27
355.692	-4.27
355.903	-6.31
356.115	55.12
356.326	8.02
356.538	34.64
356.749	98.13
356.961	108.37
357.172	69.46
357.384	8.02
357.595	65.36
357.807	44.88
358.018	16.21
358.23	126.8
358.441	112.47
358.653	59.22
358.864	89.94
359.075	44.88
359.287	55.12
359.498	32.6
359.709	67.41
359.921	14.17
360.132	26.45
360.344	30.55
360.555	51.03
360.766	38.74
360.977	-22.7
361.189	40.79
361.4	42.84
361.611	83.8
361.823	18.26
362.034	81.75
362.245	12.12
362.456	57.17
362.667	69.46
362.879	26.45
363.09	16.21
363.301	67.41
363.512	51.03
363.723	65.36
363.935	24.4
364.146	120.66
364.357	63.32
364.568	63.32
364.779	73.56
364.99	77.65
365.201	-6.31
365.412	24.4
365.623	28.5
365.834	53.08
366.045	55.12
366.256	71.51
366.467	24.4
366.678	73.56
366.889	55.12
367.1	81.75
367.311	61.27
367.522	26.45
367.733	102.23
367.944	108.37
368.155	-14.51
368.366	81.75
368.577	61.27
368.788	91.99
368.999	18.26
369.209	14.17
369.42	57.17
369.631	184.15
369.842	61.27
370.053	-14.51
370.264	69.46
370.474	59.22
370.685	38.74
370.896	116.56
371.107	-4.27
371.317	71.51
371.528	85.84
371.739	24.4
371.95	32.6
372.16	59.22
372.371	20.31
372.582	30.55
372.792	42.84
373.003	30.55
373.214	83.8
373.424	141.14
373.635	51.03
373.846	28.5
374.056	16.21
374.267	77.65
374.477	79.7
374.688	61.27
374.898	104.28
375.109	57.17
375.319	63.32
375.53	122.71
375.74	12.12
375.951	71.51
376.161	48.98
376.372	34.64
376.582	79.7
376.793	116.56
377.003	61.27
377.214	59.22
377.424	18.26
377.635	48.98
377.845	69.46
378.055	116.56
378.266	67.41
378.476	122.71
378.686	73.56
378.897	38.74
379.107	55.12
379.317	167.76
379.528	-2.22
379.738	59.22
379.948	42.84
380.158	116.56
380.369	44.88
380.579	139.09
380.789	75.6
380.999	1.88
381.21	67.41
381.42	159.57
381.63	106.32
381.84	89.94
382.05	32.6
382.261	59.22
382.471	130.9
382.681	51.03
382.891	34.64
383.101	44.88
383.311	26.45
383.521	110.42
383.731	114.52
383.941	83.8
384.151	94.04
384.361	-0.17
384.571	114.52
384.781	46.93
384.991	106.32
385.201	175.95
385.411	81.75
385.621	61.27
385.831	128.85
386.041	61.27
386.251	18.26
386.461	69.46
386.671	137.04
386.881	75.6
387.091	20.31
387.301	98.13
387.511	81.75
387.72	106.32
387.93	22.36
388.14	59.22
388.35	53.08
388.56	36.69
388.769	-14.51
388.979	77.65
389.189	30.55
389.399	73.56
389.609	135
389.818	28.5
390.028	83.8
390.238	79.7
390.447	36.69
390.657	112.47
390.867	85.84
391.076	83.8
391.286	30.55
391.496	38.74
391.705	20.31
391.915	-0.17
392.125	98.13
392.334	57.17
392.544	71.51
392.753	112.47
392.963	40.79
393.172	124.76
393.382	5.97
393.591	165.71
393.801	139.09
394.01	75.6
394.22	44.88
394.429	141.14
394.639	143.19
394.848	94.04
395.058	-18.6
395.267	81.75
395.477	55.12
395.686	36.69
395.895	118.61
396.105	128.85
396.314	114.52
396.524	98.13
396.733	98.13
396.942	122.71
397.152	61.27
397.361	132.95
397.57	112.47
397.78	63.32
397.989	132.95
398.198	145.24
398.407	57.17
398.617	100.18
398.826	63.32
399.035	53.08
399.244	73.56
399.453	94.04
399.663	151.38
399.872	175.95
400.081	112.47
400.29	171.86
400.499	108.37
400.708	135
400.917	128.85
401.127	48.98
401.336	89.94
401.545	141.14
401.754	175.95
401.963	100.18
402.172	137.04
402.381	143.19
402.59	57.17
402.799	167.76
403.008	124.76
403.217	85.84
403.426	225.11
403.635	85.84
403.844	149.33
404.053	272.21
404.262	137.04
404.471	214.87
404.68	157.52
404.888	190.29
405.097	106.32
405.306	200.53
405.515	171.86
405.724	200.53
405.933	206.67
406.142	208.72
406.35	251.73
406.559	239.44
406.768	247.63
406.977	247.63
407.185	245.59
407.394	239.44
407.603	294.74
407.812	235.35
408.02	175.95
408.229	239.44
408.438	319.31
408.646	280.4
408.855	298.83
409.064	380.75
409.272	325.46
409.481	333.65
409.69	337.74
409.898	343.89
410.107	386.9
410.315	448.33
410.524	431.95
410.733	362.32
410.941	442.19
411.15	556.88
411.358	493.39
411.567	477.01
411.775	530.25
411.984	595.79
412.192	546.64
412.401	530.25
412.609	628.56
412.818	675.66
413.026	706.38
413.234	616.27
413.443	603.98
413.651	681.8
413.86	782.15
414.068	812.87
414.276	915.27
414.485	759.63
414.693	833.35
414.901	927.56
415.11	915.27
415.318	878.41
415.526	1003.33
415.734	968.52
415.943	976.71
416.151	1072.96
416.359	1132.36
416.567	1107.78
416.776	1167.17
416.984	1167.17
417.192	1134.4
417.4	1259.33
417.608	1328.96
417.817	1431.36
418.025	1488.7
418.233	1406.78
418.441	1517.37
418.649	1570.62
418.857	1689.4
419.065	1752.89
419.273	1742.65
419.481	1736.51
419.689	1957.69
419.897	2027.32
420.105	2006.84
420.313	2166.58
420.521	2088.76
420.729	2279.22
420.937	2320.18
421.145	2404.14
421.353	2500.4
421.561	2582.32
421.769	2639.66
421.977	2760.49
422.185	2754.35
422.393	2944.81
422.601	3069.73
422.809	3061.54
423.017	3002.15
423.224	3186.47
423.432	3483.42
423.64	3262.24
423.848	3649.31
424.056	3743.52
424.263	3860.25
424.471	3862.3
424.679	4022.04
424.887	4093.72
425.094	4232.98
425.302	4314.9
425.51	4583.18
425.718	4597.52
425.925	4620.05
426.133	5015.3
426.341	5142.28
426.548	5279.49
426.756	5469.95
426.964	5406.47
427.171	5799.68
427.379	5932.79
427.586	6020.86
427.794	6053.62
428.001	6483.7
428.209	6645.49
428.417	6713.07
428.624	7024.36
428.832	7212.78
429.039	7069.42
429.247	7005.93
429.454	7714.53
429.662	8087.26
429.869	7692
430.076	8459.99
430.284	8122.07
430.491	8253.14
430.699	8832.72
430.906	8947.4
431.114	9006.8
431.321	9604.8
431.528	9602.75
431.736	10278.58
431.943	10485.43
432.15	10221.24
432.358	10335.93
432.565	10759.86
432.772	10888.88
432.979	11437.73
433.187	11749.03
433.394	11802.27
433.601	12527.25
433.808	12584.6
434.016	12463.77
434.223	12883.6
434.43	13936.26
434.637	13487.75
434.844	14331.51
435.052	14655.09
435.259	14628.47
435.466	14681.72
435.673	14575.22
435.88	15461.99
436.087	16236.13
436.294	16594.52
436.501	15945.31
436.708	16567.9
436.915	16985.68
437.122	17567.31
437.329	17716.81
437.537	18126.4
437.743	18544.19
437.95	18040.39
438.157	19295.79
438.364	20031.01
438.571	20057.64
438.778	20139.55
438.985	21601.8
439.192	20905.49
439.399	21829.13
439.606	21116.44
439.813	22203.91
440.02	23707.12
440.227	23336.43
440.433	23322.1
440.64	23688.68
440.847	23891.43
441.054	24423.9
441.261	26029.51
441.467	25435.6
441.674	26027.46
441.881	26844.6
442.088	26981.82
442.294	26992.06
442.501	27510.19
442.708	28157.35
442.914	29269.4
443.121	30543.24
443.328	29515.15
443.534	31503.73
443.741	30819.71
443.948	30322.05
444.154	32718.18
444.361	32488.81
444.568	32724.32
444.774	32406.89
444.981	33355.1
445.187	33836.37
445.394	35466.55
445.6	35044.67
445.807	38280.46
446.013	36750.63
446.22	37627.16
446.426	38827.27
446.633	39003.39
446.839	40412.4
447.046	38655.24
447.252	41061.6
447.459	40987.88
447.665	40817.89
447.871	42329.3
448.078	44387.5
448.284	42300.62
448.491	43478.21
448.697	44565.68
448.903	45647
449.11	45735.07
449.316	44917.93
449.522	45722.78
449.728	46892.17
449.935	47232.13
450.141	47492.22
450.347	48067.7
450.553	46873.74
450.76	47481.98
450.966	48829.55
451.172	48266.36
451.378	49493.09
451.584	48041.08
451.791	49314.92
451.997	49636.45
452.203	49841.24
452.409	50582.61
452.615	49984.6
452.821	47811.71
453.027	47465.6
453.233	50015.32
453.44	48065.66
453.646	48977
453.852	48579.7
454.058	49427.56
454.264	47961.21
454.47	48718.96
454.676	47572.1
454.882	49386.6
455.088	44821.67
455.294	45466.78
455.5	46406.8
455.705	46709.9
455.911	44739.75
456.117	43990.2
456.323	43486.4
456.529	41141.47
456.735	42857.67
456.941	42071.25
457.147	40881.38
457.352	39556.35
457.558	39154.94
457.764	39290.11
457.97	38806.79
458.176	37651.73
458.381	37766.42
458.587	35941.68
458.793	35841.33
458.999	34284.87
459.204	36324.65
459.41	35339.58
459.616	32945.5
459.821	32884.06
460.027	32869.73
460.233	31749.49
460.438	30563.71
460.644	31200.63
460.85	29701.52
461.055	29347.22
461.261	29070.75
461.466	26723.77
461.672	26160.58
461.878	28013.99
462.083	25984.46
462.289	25595.34
462.494	25212.37
462.7	24284.64
462.905	23436.78
463.111	24489.44
463.316	24800.73
463.522	23897.58
463.727	23916.01
463.932	24178.15
464.138	23721.45
464.343	23713.26
464.549	23125.49
464.754	23678.44
464.959	23789.03
465.165	23426.54
465.37	22533.63
465.575	22214.15
465.781	22998.52
465.986	22775.29
466.191	22167.04
466.397	21476.88
466.602	20706.84
466.807	21634.57
467.012	21607.95
467.218	21480.97
467.423	21104.15
