Data from USB4F104151__43__12-00-55-031.txt Node

Date: Fri Mar 14 12:00:55 EDT 2025
User: louis
Spectrometer: USB4F10415
Trigger mode: 4
Integration Time (sec): 2.000000E-2
Scans to average: 1
Electric dark correction enabled: true
Nonlinearity correction enabled: false
Boxcar width: 0
XAxis mode: Wavelengths
Number of Pixels in Spectrum: 3648
>>>>>Begin Spectral Data<<<<<
178.204	-56.66
178.424	-56.66
178.644	-56.66
178.864	-105.81
179.084	-62.8
179.304	-7.51
179.524	8.87
179.744	-19.8
179.964	37.55
180.184	39.59
180.404	-7.51
180.624	-46.42
180.844	-5.46
181.064	-25.94
181.283	55.98
181.503	-62.8
181.723	33.45
181.943	-7.51
182.163	80.55
182.383	62.12
182.602	117.42
182.822	12.97
183.042	62.12
183.262	-9.56
183.482	47.79
183.701	25.26
183.921	41.64
184.141	31.4
184.361	-54.61
184.58	29.35
184.8	39.59
185.02	10.92
185.239	6.83
185.459	53.93
185.679	8.87
185.898	41.64
186.118	43.69
186.338	4.78
186.557	-7.51
186.777	-19.8
186.997	33.45
187.216	96.94
187.436	115.37
187.655	29.35
187.875	27.31
188.095	19.11
188.314	60.07
188.534	10.92
188.753	49.83
188.973	12.97
189.192	19.11
189.412	23.21
189.631	37.55
189.851	35.5
190.07	60.07
190.29	43.69
190.509	62.12
190.729	76.46
190.948	115.37
191.168	53.93
191.387	10.92
191.607	-17.75
191.826	6.83
192.045	47.79
192.265	25.26
192.484	6.83
192.704	53.93
192.923	82.6
193.142	25.26
193.362	-13.65
193.581	53.93
193.8	-44.37
194.02	107.18
194.239	41.64
194.458	33.45
194.678	39.59
194.897	51.88
195.116	8.87
195.335	125.61
195.555	-17.75
195.774	4.78
195.993	109.22
196.212	25.26
196.432	29.35
196.651	19.11
196.87	2.73
197.089	43.69
197.308	15.02
197.528	62.12
197.747	-73.04
197.966	84.65
198.185	109.22
198.404	-19.8
198.623	2.73
198.842	82.6
199.062	45.74
199.281	23.21
199.5	-21.85
199.719	2.73
199.938	88.75
200.157	21.16
200.376	109.22
200.595	51.88
200.814	17.07
201.033	92.84
201.252	4.78
201.471	37.55
201.69	62.12
201.909	4.78
202.128	0.68
202.347	17.07
202.566	-36.18
202.785	-54.61
203.004	-3.41
203.223	6.83
203.442	-54.61
203.661	12.97
203.879	-52.56
204.098	62.12
204.317	29.35
204.536	-1.37
204.755	55.98
204.974	-34.13
205.193	6.83
205.411	27.31
205.63	45.74
205.849	45.74
206.068	41.64
206.287	76.46
206.505	58.03
206.724	39.59
206.943	21.16
207.162	19.11
207.381	15.02
207.599	70.31
207.818	-3.41
208.037	66.22
208.255	39.59
208.474	41.64
208.693	60.07
208.911	55.98
209.13	37.55
209.349	84.65
209.567	4.78
209.786	68.27
210.005	47.79
210.223	88.75
210.442	33.45
210.661	72.36
210.879	29.35
211.098	-5.46
211.316	55.98
211.535	84.65
211.753	37.55
211.972	37.55
212.191	41.64
212.409	51.88
212.628	60.07
212.846	35.5
213.065	55.98
213.283	90.79
213.502	19.11
213.72	47.79
213.938	62.12
214.157	62.12
214.375	45.74
214.594	15.02
214.812	66.22
215.031	27.31
215.249	-44.37
215.467	-27.99
215.686	-9.56
215.904	49.83
216.122	12.97
216.341	109.22
216.559	70.31
216.778	60.07
216.996	84.65
217.214	47.79
217.432	53.93
217.651	19.11
217.869	31.4
218.087	0.68
218.306	55.98
218.524	105.13
218.742	-13.65
218.96	74.41
219.179	12.97
219.397	39.59
219.615	45.74
219.833	55.98
220.051	33.45
220.27	107.18
220.488	90.79
220.706	55.98
220.924	2.73
221.142	-1.37
221.36	27.31
221.578	55.98
221.796	80.55
222.015	58.03
222.233	37.55
222.451	45.74
222.669	-1.37
222.887	105.13
223.105	-44.37
223.323	-32.08
223.541	49.83
223.759	158.38
223.977	33.45
224.195	29.35
224.413	21.16
224.631	6.83
224.849	88.75
225.067	62.12
225.285	-27.99
225.503	31.4
225.721	37.55
225.939	78.51
226.157	60.07
226.375	72.36
226.592	-32.08
226.81	47.79
227.028	33.45
227.246	58.03
227.464	2.73
227.682	37.55
227.9	111.27
228.117	0.68
228.335	74.41
228.553	-1.37
228.771	-21.85
228.989	-25.94
229.206	66.22
229.424	12.97
229.642	49.83
229.86	-56.66
230.077	60.07
230.295	8.87
230.513	35.5
230.731	62.12
230.948	64.17
231.166	62.12
231.384	-50.52
231.601	-9.56
231.819	41.64
232.037	-38.23
232.254	-52.56
232.472	51.88
232.689	-17.75
232.907	-1.37
233.125	-36.18
233.342	29.35
233.56	33.45
233.777	-27.99
233.995	62.12
234.213	111.27
234.43	133.8
234.648	35.5
234.865	70.31
235.083	35.5
235.3	31.4
235.518	17.07
235.735	133.8
235.953	31.4
236.17	-17.75
236.388	76.46
236.605	43.69
236.822	58.03
237.04	-3.41
237.257	41.64
237.475	-17.75
237.692	-15.7
237.909	35.5
238.127	64.17
238.344	-1.37
238.562	6.83
238.779	25.26
238.996	78.51
239.214	49.83
239.431	-17.75
239.648	31.4
239.865	51.88
240.083	58.03
240.3	64.17
240.517	4.78
240.735	72.36
240.952	10.92
241.169	33.45
241.386	53.93
241.603	41.64
241.821	29.35
242.038	58.03
242.255	55.98
242.472	23.21
242.689	103.08
242.907	33.45
243.124	2.73
243.341	62.12
243.558	15.02
243.775	29.35
243.992	-21.85
244.209	25.26
244.426	55.98
244.643	37.55
244.86	23.21
245.078	4.78
245.295	33.45
245.512	2.73
245.729	47.79
245.946	66.22
246.163	55.98
246.38	23.21
246.597	-7.51
246.814	-36.18
247.031	66.22
247.248	33.45
247.464	76.46
247.681	80.55
247.898	70.31
248.115	90.79
248.332	37.55
248.549	49.83
248.766	152.23
248.983	55.98
249.2	-15.7
249.417	103.08
249.633	96.94
249.85	64.17
250.067	47.79
250.284	66.22
250.501	78.51
250.717	31.4
250.934	-52.56
251.151	88.75
251.368	60.07
251.585	2.73
251.801	64.17
252.018	0.68
252.235	-11.61
252.451	49.83
252.668	-23.89
252.885	96.94
253.102	96.94
253.318	88.75
253.535	64.17
253.752	113.32
253.968	29.35
254.185	37.55
254.401	39.59
254.618	96.94
254.835	-21.85
255.051	92.84
255.268	101.03
255.484	101.03
255.701	60.07
255.917	92.84
256.134	43.69
256.351	111.27
256.567	-19.8
256.784	-19.8
257	-21.85
257.217	19.11
257.433	21.16
257.65	58.03
257.866	-21.85
258.082	68.27
258.299	80.55
258.515	23.21
258.732	37.55
258.948	-54.61
259.165	92.84
259.381	49.83
259.597	-21.85
259.814	-5.46
260.03	115.37
260.246	-3.41
260.463	55.98
260.679	68.27
260.895	19.11
261.112	109.22
261.328	4.78
261.544	55.98
261.761	133.8
261.977	76.46
262.193	49.83
262.409	12.97
262.626	82.6
262.842	70.31
263.058	49.83
263.274	-7.51
263.49	66.22
263.707	53.93
263.923	2.73
264.139	25.26
264.355	35.5
264.571	115.37
264.787	21.16
265.004	64.17
265.22	45.74
265.436	105.13
265.652	-21.85
265.868	6.83
266.084	19.11
266.3	41.64
266.516	23.21
266.732	82.6
266.948	58.03
267.164	-17.75
267.38	8.87
267.596	31.4
267.812	107.18
268.028	51.88
268.244	76.46
268.46	10.92
268.676	17.07
268.892	80.55
269.108	-44.37
269.324	82.6
269.54	33.45
269.756	76.46
269.972	25.26
270.188	55.98
270.403	33.45
270.619	113.32
270.835	25.26
271.051	72.36
271.267	25.26
271.483	0.68
271.698	19.11
271.914	-1.37
272.13	113.32
272.346	51.88
272.562	49.83
272.777	72.36
272.993	78.51
273.209	58.03
273.425	43.69
273.64	23.21
273.856	10.92
274.072	23.21
274.287	51.88
274.503	21.16
274.719	49.83
274.934	39.59
275.15	17.07
275.366	-3.41
275.581	62.12
275.797	19.11
276.012	103.08
276.228	41.64
276.444	4.78
276.659	21.16
276.875	-1.37
277.09	60.07
277.306	47.79
277.521	45.74
277.737	86.7
277.952	8.87
278.168	35.5
278.383	19.11
278.599	-75.09
278.814	49.83
279.03	84.65
279.245	47.79
279.461	45.74
279.676	21.16
279.892	76.46
280.107	-7.51
280.322	-30.04
280.538	19.11
280.753	-7.51
280.969	121.51
281.184	72.36
281.399	96.94
281.615	25.26
281.83	47.79
282.045	25.26
282.26	64.17
282.476	21.16
282.691	47.79
282.906	41.64
283.122	10.92
283.337	27.31
283.552	49.83
283.767	43.69
283.983	15.02
284.198	-3.41
284.413	76.46
284.628	-13.65
284.843	15.02
285.058	92.84
285.274	6.83
285.489	82.6
285.704	19.11
285.919	-81.24
286.134	27.31
286.349	35.5
286.564	21.16
286.779	101.03
286.995	21.16
287.21	23.21
287.425	82.6
287.64	23.21
287.855	98.99
288.07	-15.7
288.285	66.22
288.5	72.36
288.715	66.22
288.93	27.31
289.145	31.4
289.36	33.45
289.575	45.74
289.79	98.99
290.004	-1.37
290.219	-1.37
290.434	-32.08
290.649	78.51
290.864	-30.04
291.079	10.92
291.294	60.07
291.509	49.83
291.724	31.4
291.938	51.88
292.153	66.22
292.368	55.98
292.583	53.93
292.798	33.45
293.012	53.93
293.227	39.59
293.442	43.69
293.657	55.98
293.871	86.7
294.086	-56.66
294.301	31.4
294.516	51.88
294.73	43.69
294.945	15.02
295.16	60.07
295.374	-5.46
295.589	41.64
295.804	37.55
296.018	19.11
296.233	8.87
296.447	39.59
296.662	39.59
296.877	64.17
297.091	129.7
297.306	-19.8
297.52	-7.51
297.735	39.59
297.949	41.64
298.164	68.27
298.378	6.83
298.593	31.4
298.807	80.55
299.022	35.5
299.236	19.11
299.451	74.41
299.665	-40.28
299.88	35.5
300.094	-13.65
300.309	-27.99
300.523	-3.41
300.737	33.45
300.952	-1.37
301.166	72.36
301.381	10.92
301.595	76.46
301.809	70.31
302.024	96.94
302.238	41.64
302.452	70.31
302.667	53.93
302.881	60.07
303.095	43.69
303.309	33.45
303.524	60.07
303.738	53.93
303.952	27.31
304.166	27.31
304.381	84.65
304.595	33.45
304.809	39.59
305.023	10.92
305.237	-46.42
305.452	35.5
305.666	27.31
305.88	49.83
306.094	51.88
306.308	80.55
306.522	17.07
306.736	23.21
306.95	17.07
307.164	29.35
307.379	-7.51
307.593	8.87
307.807	31.4
308.021	111.27
308.235	31.4
308.449	72.36
308.663	72.36
308.877	119.46
309.091	74.41
309.305	72.36
309.519	-5.46
309.733	80.55
309.947	111.27
310.161	10.92
310.374	31.4
310.588	-7.51
310.802	49.83
311.016	-11.61
311.23	10.92
311.444	4.78
311.658	39.59
311.872	103.08
312.085	127.66
312.299	-23.89
312.513	39.59
312.727	0.68
312.941	49.83
313.154	103.08
313.368	31.4
313.582	15.02
313.796	74.41
314.009	133.8
314.223	115.37
314.437	113.32
314.651	12.97
314.864	82.6
315.078	78.51
315.292	55.98
315.505	-5.46
315.719	47.79
315.933	88.75
316.146	105.13
316.36	4.78
316.573	92.84
316.787	68.27
317.001	-13.65
317.214	47.79
317.428	58.03
317.641	33.45
317.855	84.65
318.068	53.93
318.282	90.79
318.495	125.61
318.709	41.64
318.922	76.46
319.136	98.99
319.349	98.99
319.563	127.66
319.776	23.21
319.99	80.55
320.203	41.64
320.417	174.76
320.63	62.12
320.843	53.93
321.057	60.07
321.27	74.41
321.483	80.55
321.697	60.07
321.91	-9.56
322.124	-3.41
322.337	86.7
322.55	49.83
322.763	66.22
322.977	-13.65
323.19	8.87
323.403	60.07
323.617	82.6
323.83	41.64
324.043	-48.47
324.256	109.22
324.469	-71
324.683	92.84
324.896	-19.8
325.109	-17.75
325.322	-9.56
325.535	49.83
325.748	82.6
325.962	33.45
326.175	72.36
326.388	21.16
326.601	23.21
326.814	8.87
327.027	72.36
327.24	88.75
327.453	35.5
327.666	53.93
327.879	29.35
328.092	35.5
328.305	84.65
328.518	17.07
328.731	2.73
328.944	60.07
329.157	60.07
329.37	-23.89
329.583	96.94
329.796	43.69
330.009	25.26
330.222	64.17
330.435	62.12
330.648	60.07
330.861	29.35
331.073	72.36
331.286	152.23
331.499	49.83
331.712	53.93
331.925	6.83
332.138	107.18
332.35	39.59
332.563	105.13
332.776	64.17
332.989	53.93
333.202	6.83
333.414	62.12
333.627	68.27
333.84	45.74
334.053	72.36
334.265	101.03
334.478	82.6
334.691	-3.41
334.903	43.69
335.116	37.55
335.329	15.02
335.541	70.31
335.754	109.22
335.966	37.55
336.179	72.36
336.392	-9.56
336.604	119.46
336.817	96.94
337.029	72.36
337.242	82.6
337.454	66.22
337.667	76.46
337.88	33.45
338.092	51.88
338.305	92.84
338.517	10.92
338.729	-7.51
338.942	82.6
339.154	33.45
339.367	47.79
339.579	60.07
339.792	0.68
340.004	113.32
340.217	25.26
340.429	111.27
340.641	21.16
340.854	-9.56
341.066	53.93
341.278	6.83
341.491	-13.65
341.703	62.12
341.915	8.87
342.128	88.75
342.34	-7.51
342.552	84.65
342.764	166.57
342.977	74.41
343.189	2.73
343.401	49.83
343.613	10.92
343.826	82.6
344.038	29.35
344.25	90.79
344.462	43.69
344.674	43.69
344.886	-1.37
345.099	41.64
345.311	25.26
345.523	74.41
345.735	-19.8
345.947	8.87
346.159	39.59
346.371	58.03
346.583	35.5
346.795	98.99
347.007	21.16
347.219	101.03
347.431	45.74
347.643	72.36
347.855	70.31
348.067	86.7
348.279	64.17
348.491	84.65
348.703	158.38
348.915	82.6
349.127	-17.75
349.339	8.87
349.551	82.6
349.763	19.11
349.975	64.17
350.187	-9.56
350.399	152.23
350.61	25.26
350.822	78.51
351.034	64.17
351.246	80.55
351.458	33.45
351.669	39.59
351.881	53.93
352.093	19.11
352.305	103.08
352.517	84.65
352.728	135.85
352.94	78.51
353.152	33.45
353.363	74.41
353.575	-1.37
353.787	90.79
353.999	90.79
354.21	49.83
354.422	2.73
354.633	43.69
354.845	96.94
355.057	76.46
355.268	49.83
355.48	45.74
355.692	37.55
355.903	72.36
356.115	8.87
356.326	-9.56
356.538	117.42
356.749	27.31
356.961	72.36
357.172	25.26
357.384	41.64
357.595	103.08
357.807	68.27
358.018	-21.85
358.23	117.42
358.441	41.64
358.653	129.7
358.864	123.56
359.075	86.7
359.287	45.74
359.498	98.99
359.709	66.22
359.921	113.32
360.132	33.45
360.344	23.21
360.555	55.98
360.766	51.88
360.977	94.89
361.189	98.99
361.4	80.55
361.611	66.22
361.823	96.94
362.034	66.22
362.245	0.68
362.456	23.21
362.667	23.21
362.879	82.6
363.09	82.6
363.301	51.88
363.512	80.55
363.723	76.46
363.935	62.12
364.146	86.7
364.357	55.98
364.568	76.46
364.779	33.45
364.99	84.65
365.201	43.69
365.412	90.79
365.623	70.31
365.834	90.79
366.045	-27.99
366.256	101.03
366.467	55.98
366.678	78.51
366.889	84.65
367.1	19.11
367.311	47.79
367.522	23.21
367.733	19.11
367.944	86.7
368.155	41.64
368.366	160.42
368.577	158.38
368.788	41.64
368.999	-58.71
369.209	53.93
369.42	70.31
369.631	60.07
369.842	133.8
370.053	17.07
370.264	21.16
370.474	80.55
370.685	94.89
370.896	55.98
371.107	60.07
371.317	45.74
371.528	53.93
371.739	103.08
371.95	133.8
372.16	96.94
372.371	43.69
372.582	90.79
372.792	-21.85
373.003	121.51
373.214	96.94
373.424	55.98
373.635	35.5
373.846	131.75
374.056	94.89
374.267	21.16
374.477	58.03
374.688	49.83
374.898	170.66
375.109	127.66
375.319	74.41
375.53	6.83
375.74	68.27
375.951	58.03
376.161	19.11
376.372	53.93
376.582	92.84
376.793	64.17
377.003	12.97
377.214	105.13
377.424	31.4
377.635	49.83
377.845	82.6
378.055	88.75
378.266	86.7
378.476	86.7
378.686	53.93
378.897	107.18
379.107	111.27
379.317	17.07
379.528	84.65
379.738	19.11
379.948	-21.85
380.158	76.46
380.369	94.89
380.579	-3.41
380.789	107.18
380.999	70.31
381.21	15.02
381.42	88.75
381.63	21.16
381.84	60.07
382.05	117.42
382.261	90.79
382.471	82.6
382.681	-1.37
382.891	103.08
383.101	66.22
383.311	-27.99
383.521	15.02
383.731	49.83
383.941	43.69
384.151	45.74
384.361	29.35
384.571	74.41
384.781	37.55
384.991	74.41
385.201	94.89
385.411	127.66
385.621	68.27
385.831	94.89
386.041	49.83
386.251	98.99
386.461	113.32
386.671	45.74
386.881	90.79
387.091	21.16
387.301	82.6
387.511	80.55
387.72	41.64
387.93	47.79
388.14	98.99
388.35	-9.56
388.56	117.42
388.769	101.03
388.979	68.27
389.189	2.73
389.399	31.4
389.609	92.84
389.818	103.08
390.028	105.13
390.238	101.03
390.447	80.55
390.657	72.36
390.867	62.12
391.076	84.65
391.286	35.5
391.496	41.64
391.705	101.03
391.915	92.84
392.125	68.27
392.334	45.74
392.544	92.84
392.753	101.03
392.963	45.74
393.172	35.5
393.382	6.83
393.591	94.89
393.801	55.98
394.01	141.99
394.22	55.98
394.429	78.51
394.639	53.93
394.848	82.6
395.058	68.27
395.267	107.18
395.477	64.17
395.686	96.94
395.895	74.41
396.105	193.19
396.314	90.79
396.524	49.83
396.733	66.22
396.942	170.66
397.152	58.03
397.361	178.86
397.57	139.94
397.78	146.09
397.989	41.64
398.198	160.42
398.407	74.41
398.617	86.7
398.826	131.75
399.035	150.18
399.244	66.22
399.453	119.46
399.663	115.37
399.872	86.7
400.081	117.42
400.29	115.37
400.499	55.98
400.708	90.79
400.917	137.9
401.127	148.14
401.336	158.38
401.545	96.94
401.754	164.52
401.963	154.28
402.172	160.42
402.381	139.94
402.59	131.75
402.799	166.57
403.008	123.56
403.217	72.36
403.426	66.22
403.635	117.42
403.844	107.18
404.053	72.36
404.262	111.27
404.471	150.18
404.68	123.56
404.888	103.08
405.097	154.28
405.306	166.57
405.515	174.76
405.724	146.09
405.933	66.22
406.142	144.04
406.35	234.15
406.559	205.48
406.768	123.56
406.977	176.81
407.185	211.62
407.394	264.87
407.603	197.29
407.812	236.2
408.02	191.14
408.229	209.58
408.438	250.53
408.646	277.16
408.855	180.9
409.064	273.06
409.272	295.59
409.481	281.25
409.69	262.82
409.898	223.91
410.107	348.84
410.315	258.73
410.524	311.97
410.733	342.69
410.941	271.01
411.15	338.6
411.358	340.65
411.567	361.13
411.775	357.03
411.984	436.9
412.192	357.03
412.401	395.94
412.609	393.89
412.818	500.39
413.026	459.43
413.234	459.43
413.443	488.1
413.651	506.53
413.86	553.63
414.068	553.63
414.276	688.8
414.485	635.55
414.693	633.5
414.901	705.18
415.11	701.09
415.318	682.66
415.526	701.09
415.734	746.14
415.943	729.76
416.151	832.16
416.359	766.62
416.567	815.77
416.776	815.77
416.984	901.79
417.192	957.08
417.4	864.93
417.608	973.47
417.817	889.5
418.025	1030.81
418.233	1129.11
418.441	1020.57
418.649	1272.47
418.857	1168.02
419.065	1266.33
419.273	1311.38
419.481	1331.86
419.689	1389.21
419.897	1426.07
420.105	1446.55
420.313	1438.36
420.521	1505.94
420.729	1583.76
420.937	1600.15
421.145	1579.67
421.353	1766.03
421.561	1878.67
421.769	1852.05
421.977	1972.88
422.185	1888.91
422.393	2001.55
422.601	2237.06
422.809	2228.87
423.017	2103.95
423.224	2271.88
423.432	2343.56
423.64	2368.13
423.848	2593.41
424.056	2556.55
424.263	2636.42
424.471	2736.77
424.679	2710.15
424.887	2802.3
425.094	2916.99
425.302	3125.88
425.51	3101.31
425.718	3242.62
425.925	3324.54
426.133	3316.34
426.341	3408.5
426.548	3725.94
426.756	3664.5
426.964	3885.68
427.171	4033.13
427.379	4078.19
427.586	4215.4
427.794	4391.53
428.001	4397.67
428.209	4563.56
428.417	4622.95
428.624	4977.25
428.832	4954.72
429.039	4948.58
429.247	4889.18
429.454	5450.33
429.662	5702.23
429.869	5368.41
430.076	5818.96
430.284	5585.49
430.491	5653.08
430.699	6134.35
430.906	6167.12
431.114	6310.47
431.321	6494.79
431.528	6664.77
431.736	6988.35
431.943	7383.61
432.15	7289.4
432.358	7197.24
432.565	7672.37
432.772	7412.28
432.979	8036.91
433.187	7936.56
433.394	8088.11
433.601	8649.25
433.808	8819.24
434.016	8696.36
434.223	9087.52
434.43	9648.66
434.637	9210.4
434.844	9882.13
435.052	10277.39
435.259	10306.06
435.466	10291.73
435.673	10148.37
435.88	10924.55
436.087	11336.19
436.294	11289.09
436.501	11106.82
436.708	11244.03
436.915	11770.36
437.122	12263.92
437.329	11876.85
437.537	12663.27
437.743	12683.75
437.95	12718.57
438.157	13261.28
438.364	13779.42
438.571	13750.74
438.778	13842.9
438.985	15217.09
439.192	14701
439.399	14897.61
439.606	14797.26
439.813	15610.3
440.02	16308.66
440.227	16200.12
440.433	15925.69
440.64	16671.15
440.847	16478.64
441.054	16980.39
441.261	18055.58
441.467	17883.55
441.674	18203.03
441.881	18741.64
442.088	18717.07
442.294	18635.15
442.501	19073.42
442.708	19294.6
442.914	20324.72
443.121	20941.16
443.328	20808.05
443.534	21942.62
443.741	21326.18
443.948	21002.6
444.154	22679.89
444.361	22399.32
444.568	22593.87
444.774	22901.07
444.981	23085.39
445.187	23306.57
445.394	24838.45
445.6	24320.31
445.807	26761.49
446.013	25657.64
446.22	25766.18
446.426	26687.76
446.633	27066.64
446.839	28059.9
447.046	26970.38
447.252	28319.99
447.459	28619
447.665	28287.23
447.871	29808.87
448.078	30910.67
448.284	29657.32
448.491	30224.61
448.697	31537.35
448.903	31721.67
449.11	31998.15
449.316	31205.58
449.522	31793.35
449.728	32872.63
449.935	33126.58
450.141	33153.2
450.347	34269.34
450.553	32940.21
450.76	33282.22
450.966	34166.95
451.172	33519.79
451.378	35072.15
451.584	34345.12
451.791	34705.56
451.997	35000.47
452.203	35231.89
452.409	35160.21
452.615	34818.2
452.821	33632.43
453.027	33179.82
453.233	34979.99
453.44	33650.86
453.646	34070.69
453.852	34226.34
454.058	34771.1
454.264	33333.42
454.47	34490.52
454.676	33560.75
454.882	34285.73
455.088	31447.24
455.294	31858.88
455.5	32383.16
455.705	32671.93
455.911	31236.3
456.117	30699.73
456.323	30478.55
456.529	29106.41
456.735	30161.12
456.941	29364.46
457.147	28604.66
457.352	27863.3
457.558	27656.45
457.764	27730.18
457.97	27066.64
458.176	26249.5
458.381	26216.73
458.587	25155.88
458.793	24901.93
458.999	23746.88
459.204	25258.28
459.41	24676.66
459.616	23161.16
459.821	22778.19
460.027	23056.71
460.233	22597.97
460.438	21399.91
460.644	21737.82
460.85	20173.17
461.055	20414.84
461.261	20287.86
461.466	18639.25
461.672	18452.88
461.878	19405.19
462.083	18315.67
462.289	17844.63
462.494	17881.5
462.7	16961.96
462.905	16423.34
463.111	17197.48
463.316	17217.96
463.522	16693.68
463.727	16708.01
463.932	16753.07
464.138	16771.5
464.343	16634.28
464.549	16099.76
464.754	16695.72
464.959	16589.23
465.165	16396.72
465.37	15626.68
465.575	15237.57
465.781	15712.7
465.986	15907.26
466.191	15419.84
466.397	15227.33
466.602	14094.8
466.807	15051.2
467.012	14854.6
467.218	14979.53
467.423	14600.65
467.628	14725.58
