Data from USB4F104151__30__12-00-38-993.txt Node

Date: Fri Mar 14 12:00:38 EDT 2025
User: louis
Spectrometer: USB4F10415
Trigger mode: 4
Integration Time (sec): 2.000000E-2
Scans to average: 1
Electric dark correction enabled: true
Nonlinearity correction enabled: false
Boxcar width: 0
XAxis mode: Wavelengths
Number of Pixels in Spectrum: 3648
>>>>>Begin Spectral Data<<<<<
178.204	-51.2
178.424	-51.2
178.644	-51.2
178.864	-79.87
179.084	-75.77
179.304	-53.25
179.524	10.24
179.744	22.53
179.964	2.05
180.184	2.05
180.404	38.91
180.624	-36.86
180.844	14.34
181.064	-18.43
181.283	32.77
181.503	-20.48
181.723	6.14
181.943	-16.38
182.163	-4.1
182.383	-10.24
182.602	67.58
182.822	55.3
183.042	61.44
183.262	30.72
183.482	77.82
183.701	55.3
183.921	10.24
184.141	-10.24
184.361	-38.91
184.58	-10.24
184.8	55.3
185.02	18.43
185.239	75.77
185.459	61.44
185.679	71.68
185.898	8.19
186.118	67.58
186.338	8.19
186.557	26.62
186.777	18.43
186.997	-22.53
187.216	4.1
187.436	102.4
187.655	14.34
187.875	108.54
188.095	57.34
188.314	32.77
188.534	98.3
188.753	-34.82
188.973	63.49
189.192	65.54
189.412	-26.62
189.631	34.82
189.851	10.24
190.07	22.53
190.29	43.01
190.509	69.63
190.729	-40.96
190.948	26.62
191.168	104.45
191.387	0
191.607	98.3
191.826	81.92
192.045	-6.14
192.265	43.01
192.484	34.82
192.704	65.54
192.923	-53.25
193.142	118.78
193.362	40.96
193.581	38.91
193.8	75.77
194.02	98.3
194.239	96.25
194.458	90.11
194.678	59.39
194.897	34.82
195.116	26.62
195.335	-8.19
195.555	18.43
195.774	0
195.993	24.58
196.212	40.96
196.432	47.1
196.651	38.91
196.87	4.1
197.089	79.87
197.308	-8.19
197.528	53.25
197.747	-18.43
197.966	55.3
198.185	59.39
198.404	-49.15
198.623	-8.19
198.842	-12.29
199.062	47.1
199.281	96.25
199.5	-12.29
199.719	40.96
199.938	-22.53
200.157	43.01
200.376	24.58
200.595	73.73
200.814	34.82
201.033	116.73
201.252	32.77
201.471	73.73
201.69	45.06
201.909	49.15
202.128	43.01
202.347	45.06
202.566	28.67
202.785	104.45
203.004	-90.11
203.223	139.26
203.442	18.43
203.661	47.1
203.879	94.21
204.098	61.44
204.317	45.06
204.536	8.19
204.755	63.49
204.974	-22.53
205.193	34.82
205.411	83.97
205.63	40.96
205.849	16.38
206.068	22.53
206.287	63.49
206.505	61.44
206.724	16.38
206.943	-8.19
207.162	26.62
207.381	10.24
207.599	86.01
207.818	40.96
208.037	63.49
208.255	-6.14
208.474	36.86
208.693	71.68
208.911	55.3
209.13	63.49
209.349	40.96
209.567	10.24
209.786	40.96
210.005	-6.14
210.223	-6.14
210.442	18.43
210.661	49.15
210.879	34.82
211.098	88.06
211.316	-6.14
211.535	0
211.753	88.06
211.972	10.24
212.191	38.91
212.409	63.49
212.628	65.54
212.846	34.82
213.065	71.68
213.283	36.86
213.502	-12.29
213.72	69.63
213.938	-6.14
214.157	47.1
214.375	-4.1
214.594	49.15
214.812	38.91
215.031	77.82
215.249	32.77
215.467	81.92
215.686	59.39
215.904	45.06
216.122	38.91
216.341	28.67
216.559	75.77
216.778	49.15
216.996	51.2
217.214	53.25
217.432	51.2
217.651	94.21
217.869	98.3
218.087	12.29
218.306	57.34
218.524	22.53
218.742	49.15
218.96	40.96
219.179	10.24
219.397	40.96
219.615	71.68
219.833	-26.62
220.051	8.19
220.27	32.77
220.488	10.24
220.706	51.2
220.924	73.73
221.142	90.11
221.36	77.82
221.578	100.35
221.796	10.24
222.015	14.34
222.233	6.14
222.451	47.1
222.669	69.63
222.887	55.3
223.105	75.77
223.323	32.77
223.541	28.67
223.759	26.62
223.977	-14.34
224.195	59.39
224.413	-24.58
224.631	-12.29
224.849	75.77
225.067	90.11
225.285	8.19
225.503	6.14
225.721	22.53
225.939	-40.96
226.157	53.25
226.375	79.87
226.592	-2.05
226.81	20.48
227.028	65.54
227.246	157.69
227.464	10.24
227.682	69.63
227.9	55.3
228.117	47.1
228.335	14.34
228.553	100.35
228.771	67.58
228.989	16.38
229.206	36.86
229.424	34.82
229.642	-30.72
229.86	45.06
230.077	22.53
230.295	-2.05
230.513	81.92
230.731	45.06
230.948	22.53
231.166	59.39
231.384	34.82
231.601	104.45
231.819	45.06
232.037	55.3
232.254	49.15
232.472	8.19
232.689	14.34
232.907	-20.48
233.125	40.96
233.342	73.73
233.56	18.43
233.777	49.15
233.995	47.1
234.213	16.38
234.43	4.1
234.648	16.38
234.865	-30.72
235.083	-18.43
235.3	86.01
235.518	90.11
235.735	49.15
235.953	45.06
236.17	38.91
236.388	-18.43
236.605	16.38
236.822	59.39
237.04	30.72
237.257	112.64
237.475	40.96
237.692	79.87
237.909	-20.48
238.127	69.63
238.344	61.44
238.562	38.91
238.779	4.1
238.996	38.91
239.214	-10.24
239.431	36.86
239.648	34.82
239.865	-24.58
240.083	22.53
240.3	28.67
240.517	45.06
240.735	28.67
240.952	118.78
241.169	69.63
241.386	73.73
241.603	57.34
241.821	-2.05
242.038	0
242.255	120.83
242.472	32.77
242.689	57.34
242.907	24.58
243.124	-2.05
243.341	32.77
243.558	40.96
243.775	49.15
243.992	-6.14
244.209	-12.29
244.426	22.53
244.643	0
244.86	22.53
245.078	69.63
245.295	102.4
245.512	106.49
245.729	10.24
245.946	63.49
246.163	67.58
246.38	2.05
246.597	32.77
246.814	59.39
247.031	75.77
247.248	16.38
247.464	51.2
247.681	86.01
247.898	75.77
248.115	-24.58
248.332	114.69
248.549	59.39
248.766	73.73
248.983	34.82
249.2	59.39
249.417	149.5
249.633	20.48
249.85	43.01
250.067	0
250.284	34.82
250.501	30.72
250.717	2.05
250.934	79.87
251.151	10.24
251.368	6.14
251.585	98.3
251.801	36.86
252.018	-20.48
252.235	0
252.451	2.05
252.668	-24.58
252.885	59.39
253.102	18.43
253.318	57.34
253.535	63.49
253.752	49.15
253.968	81.92
254.185	20.48
254.401	-59.39
254.618	71.68
254.835	49.15
255.051	67.58
255.268	77.82
255.484	131.07
255.701	-8.19
255.917	77.82
256.134	36.86
256.351	32.77
256.567	28.67
256.784	43.01
257	16.38
257.217	36.86
257.433	24.58
257.65	28.67
257.866	122.88
258.082	-45.06
258.299	32.77
258.515	45.06
258.732	-6.14
258.948	6.14
259.165	88.06
259.381	36.86
259.597	4.1
259.814	106.49
260.03	100.35
260.246	-12.29
260.463	26.62
260.679	59.39
260.895	69.63
261.112	38.91
261.328	63.49
261.544	-49.15
261.761	69.63
261.977	14.34
262.193	108.54
262.409	81.92
262.626	88.06
262.842	131.07
263.058	4.1
263.274	59.39
263.49	86.01
263.707	65.54
263.923	45.06
264.139	18.43
264.355	81.92
264.571	45.06
264.787	92.16
265.004	34.82
265.22	51.2
265.436	47.1
265.652	79.87
265.868	40.96
266.084	34.82
266.3	-8.19
266.516	49.15
266.732	83.97
266.948	26.62
267.164	51.2
267.38	34.82
267.596	63.49
267.812	20.48
268.028	32.77
268.244	-22.53
268.46	88.06
268.676	2.05
268.892	40.96
269.108	28.67
269.324	22.53
269.54	75.77
269.756	90.11
269.972	43.01
270.188	49.15
270.403	71.68
270.619	43.01
270.835	2.05
271.051	67.58
271.267	49.15
271.483	45.06
271.698	47.1
271.914	59.39
272.13	26.62
272.346	114.69
272.562	20.48
272.777	-10.24
272.993	24.58
273.209	61.44
273.425	108.54
273.64	-51.2
273.856	53.25
274.072	-32.77
274.287	0
274.503	18.43
274.719	-12.29
274.934	2.05
275.15	51.2
275.366	110.59
275.581	-6.14
275.797	36.86
276.012	-4.1
276.228	-18.43
276.444	131.07
276.659	55.3
276.875	38.91
277.09	28.67
277.306	47.1
277.521	63.49
277.737	10.24
277.952	20.48
278.168	22.53
278.383	86.01
278.599	-2.05
278.814	45.06
279.03	-53.25
279.245	53.25
279.461	43.01
279.676	108.54
279.892	49.15
280.107	20.48
280.322	-12.29
280.538	139.26
280.753	45.06
280.969	34.82
281.184	-20.48
281.399	88.06
281.615	71.68
281.83	65.54
282.045	57.34
282.26	67.58
282.476	14.34
282.691	10.24
282.906	55.3
283.122	43.01
283.337	6.14
283.552	63.49
283.767	-16.38
283.983	98.3
284.198	100.35
284.413	0
284.628	51.2
284.843	14.34
285.058	63.49
285.274	98.3
285.489	71.68
285.704	12.29
285.919	69.63
286.134	38.91
286.349	-26.62
286.564	38.91
286.779	36.86
286.995	-6.14
287.21	-4.1
287.425	73.73
287.64	-6.14
287.855	14.34
288.07	-10.24
288.285	51.2
288.5	36.86
288.715	98.3
288.93	51.2
289.145	38.91
289.36	49.15
289.575	63.49
289.79	73.73
290.004	59.39
290.219	40.96
290.434	75.77
290.649	0
290.864	8.19
291.079	10.24
291.294	26.62
291.509	-43.01
291.724	81.92
291.938	40.96
292.153	57.34
292.368	-14.34
292.583	47.1
292.798	49.15
293.012	32.77
293.227	-8.19
293.442	-20.48
293.657	114.69
293.871	45.06
294.086	45.06
294.301	120.83
294.516	30.72
294.73	90.11
294.945	2.05
295.16	77.82
295.374	69.63
295.589	28.67
295.804	-10.24
296.018	16.38
296.233	20.48
296.447	67.58
296.662	4.1
296.877	47.1
297.091	69.63
297.306	69.63
297.52	28.67
297.735	83.97
297.949	43.01
298.164	65.54
298.378	18.43
298.593	30.72
298.807	43.01
299.022	32.77
299.236	6.14
299.451	98.3
299.665	96.25
299.88	83.97
300.094	71.68
300.309	118.78
300.523	-6.14
300.737	0
300.952	26.62
301.166	20.48
301.381	36.86
301.595	-10.24
301.809	-12.29
302.024	98.3
302.238	77.82
302.452	67.58
302.667	20.48
302.881	67.58
303.095	75.77
303.309	51.2
303.524	20.48
303.738	28.67
303.952	86.01
304.166	75.77
304.381	61.44
304.595	49.15
304.809	40.96
305.023	86.01
305.237	18.43
305.452	81.92
305.666	75.77
305.88	51.2
306.094	32.77
306.308	47.1
306.522	79.87
306.736	90.11
306.95	53.25
307.164	71.68
307.379	77.82
307.593	53.25
307.807	55.3
308.021	14.34
308.235	73.73
308.449	51.2
308.663	30.72
308.877	81.92
309.091	36.86
309.305	59.39
309.519	-22.53
309.733	63.49
309.947	12.29
310.161	47.1
310.374	10.24
310.588	28.67
310.802	57.34
311.016	-4.1
311.23	12.29
311.444	65.54
311.658	47.1
311.872	65.54
312.085	102.4
312.299	100.35
312.513	98.3
312.727	67.58
312.941	65.54
313.154	77.82
313.368	51.2
313.582	18.43
313.796	59.39
314.009	40.96
314.223	-4.1
314.437	88.06
314.651	57.34
314.864	71.68
315.078	32.77
315.292	100.35
315.505	14.34
315.719	90.11
315.933	4.1
316.146	67.58
316.36	-6.14
316.573	77.82
316.787	112.64
317.001	4.1
317.214	51.2
317.428	-4.1
317.641	38.91
317.855	69.63
318.068	92.16
318.282	51.2
318.495	79.87
318.709	178.17
318.922	32.77
319.136	36.86
319.349	73.73
319.563	4.1
319.776	102.4
319.99	94.21
320.203	112.64
320.417	67.58
320.63	4.1
320.843	106.49
321.057	102.4
321.27	-4.1
321.483	18.43
321.697	69.63
321.91	20.48
322.124	102.4
322.337	86.01
322.55	-30.72
322.763	51.2
322.977	55.3
323.19	24.58
323.403	73.73
323.617	126.97
323.83	108.54
324.043	108.54
324.256	47.1
324.469	8.19
324.683	16.38
324.896	12.29
325.109	67.58
325.322	81.92
325.535	51.2
325.748	32.77
325.962	4.1
326.175	61.44
326.388	34.82
326.601	108.54
326.814	71.68
327.027	18.43
327.24	110.59
327.453	51.2
327.666	34.82
327.879	45.06
328.092	26.62
328.305	53.25
328.518	104.45
328.731	55.3
328.944	63.49
329.157	34.82
329.37	53.25
329.583	65.54
329.796	34.82
330.009	-69.63
330.222	83.97
330.435	24.58
330.648	120.83
330.861	94.21
331.073	59.39
331.286	16.38
331.499	57.34
331.712	38.91
331.925	14.34
332.138	106.49
332.35	12.29
332.563	40.96
332.776	126.97
332.989	-34.82
333.202	120.83
333.414	26.62
333.627	45.06
333.84	69.63
334.053	53.25
334.265	65.54
334.478	4.1
334.691	55.3
334.903	116.73
335.116	22.53
335.329	61.44
335.541	38.91
335.754	106.49
335.966	94.21
336.179	92.16
336.392	47.1
336.604	71.68
336.817	79.87
337.029	32.77
337.242	110.59
337.454	108.54
337.667	57.34
337.88	114.69
338.092	36.86
338.305	73.73
338.517	14.34
338.729	126.97
338.942	75.77
339.154	61.44
339.367	83.97
339.579	71.68
339.792	30.72
340.004	34.82
340.217	-28.67
340.429	-10.24
340.641	-4.1
340.854	67.58
341.066	65.54
341.278	47.1
341.491	6.14
341.703	40.96
341.915	75.77
342.128	43.01
342.34	104.45
342.552	106.49
342.764	43.01
342.977	73.73
343.189	30.72
343.401	98.3
343.613	26.62
343.826	24.58
344.038	14.34
344.25	75.77
344.462	77.82
344.674	94.21
344.886	71.68
345.099	75.77
345.311	-18.43
345.523	51.2
345.735	43.01
345.947	83.97
346.159	61.44
346.371	28.67
346.583	47.1
346.795	90.11
347.007	26.62
347.219	69.63
347.431	22.53
347.643	47.1
347.855	47.1
348.067	20.48
348.279	16.38
348.491	79.87
348.703	24.58
348.915	63.49
349.127	67.58
349.339	32.77
349.551	57.34
349.763	90.11
349.975	63.49
350.187	112.64
350.399	63.49
350.61	32.77
350.822	63.49
351.034	100.35
351.246	4.1
351.458	34.82
351.669	104.45
351.881	69.63
352.093	24.58
352.305	88.06
352.517	26.62
352.728	108.54
352.94	124.93
353.152	-51.2
353.363	79.87
353.575	8.19
353.787	110.59
353.999	92.16
354.21	61.44
354.422	63.49
354.633	20.48
354.845	143.36
355.057	67.58
355.268	55.3
355.48	49.15
355.692	24.58
355.903	47.1
356.115	98.3
356.326	-18.43
356.538	45.06
356.749	40.96
356.961	94.21
357.172	77.82
357.384	98.3
357.595	86.01
357.807	30.72
358.018	112.64
358.23	45.06
358.441	-2.05
358.653	-20.48
358.864	26.62
359.075	40.96
359.287	77.82
359.498	120.83
359.709	-26.62
359.921	75.77
360.132	100.35
360.344	34.82
360.555	18.43
360.766	69.63
360.977	43.01
361.189	12.29
361.4	47.1
361.611	47.1
361.823	69.63
362.034	53.25
362.245	10.24
362.456	45.06
362.667	55.3
362.879	12.29
363.09	83.97
363.301	126.97
363.512	53.25
363.723	63.49
363.935	14.34
364.146	151.55
364.357	-57.34
364.568	90.11
364.779	47.1
364.99	81.92
365.201	49.15
365.412	133.12
365.623	36.86
365.834	131.07
366.045	32.77
366.256	65.54
366.467	69.63
366.678	49.15
366.889	-2.05
367.1	32.77
367.311	120.83
367.522	53.25
367.733	57.34
367.944	51.2
368.155	88.06
368.366	86.01
368.577	75.77
368.788	75.77
368.999	49.15
369.209	73.73
369.42	100.35
369.631	32.77
369.842	26.62
370.053	49.15
370.264	114.69
370.474	53.25
370.685	14.34
370.896	124.93
371.107	45.06
371.317	116.73
371.528	69.63
371.739	69.63
371.95	65.54
372.16	59.39
372.371	53.25
372.582	69.63
372.792	30.72
373.003	83.97
373.214	43.01
373.424	100.35
373.635	57.34
373.846	77.82
374.056	67.58
374.267	16.38
374.477	106.49
374.688	71.68
374.898	94.21
375.109	49.15
375.319	100.35
375.53	49.15
375.74	10.24
375.951	116.73
376.161	67.58
376.372	53.25
376.582	141.31
376.793	104.45
377.003	45.06
377.214	67.58
377.424	86.01
377.635	51.2
377.845	-12.29
378.055	139.26
378.266	32.77
378.476	77.82
378.686	77.82
378.897	90.11
379.107	137.21
379.317	77.82
379.528	69.63
379.738	126.97
379.948	-38.91
380.158	110.59
380.369	55.3
380.579	59.39
380.789	-6.14
380.999	86.01
381.21	65.54
381.42	75.77
381.63	53.25
381.84	124.93
382.05	22.53
382.261	10.24
382.471	83.97
382.681	6.14
382.891	92.16
383.101	47.1
383.311	26.62
383.521	129.02
383.731	114.69
383.941	45.06
384.151	65.54
384.361	45.06
384.571	94.21
384.781	90.11
384.991	137.21
385.201	145.41
385.411	98.3
385.621	79.87
385.831	106.49
386.041	47.1
386.251	71.68
386.461	71.68
386.671	53.25
386.881	24.58
387.091	57.34
387.301	88.06
387.511	143.36
387.72	96.25
387.93	61.44
388.14	55.3
388.35	92.16
388.56	116.73
388.769	96.25
388.979	83.97
389.189	96.25
389.399	114.69
389.609	92.16
389.818	75.77
390.028	61.44
390.238	147.45
390.447	100.35
390.657	30.72
390.867	63.49
391.076	81.92
391.286	40.96
391.496	49.15
391.705	10.24
391.915	75.77
392.125	96.25
392.334	77.82
392.544	126.97
392.753	143.36
392.963	94.21
393.172	86.01
393.382	75.77
393.591	204.8
393.801	36.86
394.01	153.6
394.22	104.45
394.429	126.97
394.639	77.82
394.848	73.73
395.058	94.21
395.267	206.84
395.477	65.54
395.686	118.78
395.895	167.93
396.105	79.87
396.314	153.6
396.524	137.21
396.733	63.49
396.942	137.21
397.152	176.13
397.361	133.12
397.57	98.3
397.78	110.59
397.989	118.78
398.198	124.93
398.407	178.17
398.617	137.21
398.826	108.54
399.035	36.86
399.244	137.21
399.453	124.93
399.663	151.55
399.872	122.88
400.081	159.74
400.29	159.74
400.499	169.98
400.708	116.73
400.917	10.24
401.127	151.55
401.336	143.36
401.545	182.27
401.754	245.76
401.963	165.89
402.172	165.89
402.381	122.88
402.59	143.36
402.799	139.26
403.008	114.69
403.217	208.89
403.426	143.36
403.635	151.55
403.844	163.84
404.053	165.89
404.262	141.31
404.471	288.76
404.68	186.37
404.888	182.27
405.097	235.52
405.306	153.6
405.515	260.09
405.724	198.65
405.933	215.04
406.142	192.51
406.35	163.84
406.559	217.08
406.768	225.28
406.977	288.76
407.185	235.52
407.394	278.52
407.603	270.33
407.812	233.47
408.02	219.13
408.229	256
408.438	286.72
408.646	276.48
408.855	329.72
409.064	313.34
409.272	329.72
409.481	376.83
409.69	362.49
409.898	370.68
410.107	356.35
410.315	393.21
410.524	448.51
410.733	411.64
410.941	491.51
411.15	468.98
411.358	569.34
411.567	479.22
411.775	483.32
411.984	466.94
412.192	593.91
412.401	534.52
412.609	653.3
412.818	604.15
413.026	638.97
413.234	630.77
413.443	688.12
413.651	653.3
413.86	679.93
414.068	700.41
414.276	788.47
414.485	722.93
414.693	884.72
414.901	905.2
415.11	970.74
415.318	954.35
415.526	933.87
415.734	1005.55
415.943	1118.19
416.151	1144.81
416.359	1103.86
416.567	1163.25
416.776	1150.96
416.984	1185.77
417.192	1249.26
417.4	1292.27
417.608	1302.51
417.817	1329.13
418.025	1452.01
418.233	1456.11
418.441	1437.67
418.649	1583.08
418.857	1761.25
419.065	1568.74
419.273	1773.54
419.481	1669.09
419.689	1789.92
419.897	1941.47
420.105	1998.82
420.313	2033.63
420.521	2162.65
420.729	2150.37
420.937	2242.53
421.145	2310.11
421.353	2492.38
421.561	2539.48
421.769	2574.3
421.977	2625.5
422.185	2613.21
422.393	2787.29
422.601	3030.99
422.809	2961.36
423.017	2983.89
423.224	3176.4
423.432	3229.65
423.64	3338.19
423.848	3559.37
424.056	3508.17
424.263	3680.2
424.471	3760.07
424.679	3882.95
424.887	3999.68
425.094	4300.73
425.302	4177.86
425.51	4382.65
425.718	4556.73
425.925	4544.44
426.133	4669.37
426.341	4874.17
426.548	5138.35
426.756	5189.55
426.964	5263.28
427.171	5552.04
427.379	5816.23
427.586	5791.66
427.794	5902.25
428.001	6100.9
428.209	6590.36
428.417	6442.91
428.624	6774.68
428.832	6846.36
429.039	6881.18
429.247	6741.91
429.454	7507.85
429.662	8025.99
429.869	7503.76
430.076	7853.96
430.284	7939.97
430.491	8163.2
430.699	8644.48
430.906	8693.63
431.114	8802.17
431.321	9029.49
431.528	9168.76
431.736	9924.46
431.943	10198.88
432.15	9969.51
432.358	10119.01
432.565	10596.19
432.772	10764.12
432.979	11333.46
433.187	11341.65
433.394	11628.37
433.601	12019.53
433.808	12298.05
434.016	12146.5
434.223	12605.25
434.43	13516.59
434.637	13156.15
434.844	13940.52
435.052	14278.44
435.259	14356.26
435.466	14350.12
435.673	14235.43
435.88	15136.54
436.087	15963.92
436.294	15810.32
436.501	15417.11
436.708	15992.59
436.915	16371.46
437.122	17118.97
437.329	16992
437.537	17805.04
437.743	17856.24
437.95	17704.69
438.157	18863.84
438.364	19566.29
438.571	19201.75
438.778	19640.02
438.985	21429.94
439.192	20596.42
439.399	21108.41
439.606	20672.2
439.813	21622.45
440.02	23121.57
440.227	22728.36
440.433	22769.32
440.64	23299.74
440.847	23219.87
441.054	23543.45
441.261	25380.48
441.467	24972.93
441.674	25669.24
441.881	26621.55
442.088	26095.22
442.294	26048.11
442.501	26955.36
442.708	27434.59
442.914	28235.35
443.121	29767.23
443.328	28560.97
443.534	30844.46
443.741	29916.73
443.948	29546.05
444.154	31999.51
444.361	31426.08
444.568	31417.89
444.774	31772.19
444.981	32079.38
445.187	33101.32
445.394	34680.3
445.6	34127.35
445.807	37514.69
446.013	35347.94
446.22	36384.21
446.426	37211.59
446.633	37647.81
446.839	39142.83
447.046	38137.27
447.252	39515.56
447.459	39599.52
447.665	39796.13
447.871	41192.84
448.078	43576.68
448.284	40955.28
448.491	42296.7
448.697	43726.18
448.903	44461.4
449.11	44518.74
449.316	43797.86
449.522	44518.74
449.728	45788.49
449.935	45942.08
450.141	45899.08
450.347	47037.75
450.553	45518.15
450.76	46390.59
450.966	47557.93
451.172	46898.48
451.378	48221.47
451.584	47326.51
451.791	48047.39
451.997	47766.82
452.203	49360.14
452.409	48893.21
452.615	48299.29
452.821	46857.52
453.027	46216.51
453.233	48534.81
453.44	46931.25
453.646	47410.48
453.852	47379.76
454.058	48108.83
454.264	46867.76
454.47	47752.49
454.676	46280
454.882	47856.93
455.088	43920.74
455.294	44551.51
455.5	45325.64
455.705	45684.04
455.911	43347.31
456.117	42980.72
456.323	42354.04
456.529	40086.94
456.735	41713.03
456.941	40725.91
457.147	40344.98
457.352	39017.9
457.558	38385.08
457.764	38432.18
457.97	37641.67
458.176	36513.23
458.381	36679.12
458.587	34928.11
458.793	35198.44
458.999	33279.49
459.204	35395.04
459.41	34229.75
459.616	32140.82
459.821	32245.27
460.027	31962.65
460.233	30871.08
460.438	29765.18
460.644	30322.23
460.85	28728.91
461.055	28259.92
461.261	28227.15
461.466	26089.07
461.672	25276.03
461.878	26957.41
462.083	25259.65
462.289	24675.98
462.494	24315.53
462.7	23525.02
462.905	22748.84
463.111	23803.54
463.316	23920.27
463.522	23377.56
463.727	23352.99
463.932	23328.41
464.138	22828.71
464.343	23185.05
464.549	22546.09
464.754	23121.57
464.959	22873.76
465.165	22814.37
465.37	22269.61
465.575	21313.21
465.781	22210.22
465.986	22097.58
466.191	21438.14
466.397	20936.38
466.602	20051.66
466.807	21030.59
467.012	20885.19
467.218	20549.32
467.423	20340.43
467.628	20391.62
