Data from USB4F104151__44__12-00-55-489.txt Node

Date: Fri Mar 14 12:00:55 EDT 2025
User: louis
Spectrometer: USB4F10415
Trigger mode: 4
Integration Time (sec): 2.000000E-2
Scans to average: 1
Electric dark correction enabled: true
Nonlinearity correction enabled: false
Boxcar width: 0
XAxis mode: Wavelengths
Number of Pixels in Spectrum: 3648
>>>>>Begin Spectral Data<<<<<
178.204	-39.08
178.424	-39.08
178.644	-39.08
178.864	-211.11
179.084	-86.19
179.304	-14.51
179.524	46.93
179.744	22.36
179.964	32.6
180.184	-37.03
180.404	-24.75
180.624	32.6
180.844	-59.56
181.064	-12.46
181.283	36.69
181.503	-0.17
181.723	-22.7
181.943	-41.13
182.163	59.22
182.383	53.08
182.602	10.07
182.822	34.64
183.042	104.28
183.262	30.55
183.482	73.56
183.701	-32.94
183.921	48.98
184.141	3.93
184.361	1.88
184.58	1.88
184.8	-30.89
185.02	22.36
185.239	24.4
185.459	71.51
185.679	36.69
185.898	-12.46
186.118	46.93
186.338	-12.46
186.557	8.02
186.777	5.97
186.997	75.6
187.216	-63.66
187.436	79.7
187.655	48.98
187.875	44.88
188.095	46.93
188.314	32.6
188.534	53.08
188.753	14.17
188.973	30.55
189.192	5.97
189.412	73.56
189.631	-0.17
189.851	44.88
190.07	26.45
190.29	-10.41
190.509	71.51
190.729	34.64
190.948	24.4
191.168	106.32
191.387	46.93
191.607	-10.41
191.826	94.04
192.045	55.12
192.265	48.98
192.484	75.6
192.704	14.17
192.923	51.03
193.142	89.94
193.362	85.84
193.581	34.64
193.8	89.94
194.02	51.03
194.239	16.21
194.458	-41.13
194.678	32.6
194.897	91.99
195.116	55.12
195.335	20.31
195.555	-18.6
195.774	26.45
195.993	42.84
196.212	42.84
196.432	16.21
196.651	22.36
196.87	18.26
197.089	28.5
197.308	1.88
197.528	48.98
197.747	-2.22
197.966	18.26
198.185	30.55
198.404	100.18
198.623	30.55
198.842	24.4
199.062	14.17
199.281	34.64
199.5	-26.79
199.719	57.17
199.938	55.12
200.157	57.17
200.376	55.12
200.595	73.56
200.814	61.27
201.033	40.79
201.252	48.98
201.471	-14.51
201.69	79.7
201.909	26.45
202.128	-14.51
202.347	10.07
202.566	48.98
202.785	-65.71
203.004	65.36
203.223	44.88
203.442	34.64
203.661	65.36
203.879	69.46
204.098	16.21
204.317	8.02
204.536	36.69
204.755	-24.75
204.974	44.88
205.193	32.6
205.411	32.6
205.63	38.74
205.849	81.75
206.068	75.6
206.287	69.46
206.505	46.93
206.724	-32.94
206.943	34.64
207.162	67.41
207.381	57.17
207.599	51.03
207.818	16.21
208.037	75.6
208.255	53.08
208.474	-6.31
208.693	83.8
208.911	26.45
209.13	36.69
209.349	8.02
209.567	16.21
209.786	26.45
210.005	12.12
210.223	69.46
210.442	69.46
210.661	42.84
210.879	65.36
211.098	-8.36
211.316	59.22
211.535	67.41
211.753	-4.27
211.972	-8.36
212.191	55.12
212.409	-8.36
212.628	3.93
212.846	-43.18
213.065	71.51
213.283	-20.65
213.502	14.17
213.72	67.41
213.938	-26.79
214.157	34.64
214.375	51.03
214.594	40.79
214.812	79.7
215.031	30.55
215.249	10.07
215.467	59.22
215.686	10.07
215.904	61.27
216.122	-28.84
216.341	87.89
216.559	36.69
216.778	51.03
216.996	141.14
217.214	-16.55
217.432	-22.7
217.651	14.17
217.869	22.36
218.087	69.46
218.306	3.93
218.524	-4.27
218.742	81.75
218.96	34.64
219.179	118.61
219.397	-0.17
219.615	85.84
219.833	24.4
220.051	44.88
220.27	91.99
220.488	18.26
220.706	59.22
220.924	-32.94
221.142	14.17
221.36	-12.46
221.578	30.55
221.796	14.17
222.015	55.12
222.233	-69.8
222.451	81.75
222.669	-22.7
222.887	42.84
223.105	-22.7
223.323	61.27
223.541	-39.08
223.759	53.08
223.977	-2.22
224.195	46.93
224.413	36.69
224.631	67.41
224.849	73.56
225.067	-10.41
225.285	32.6
225.503	14.17
225.721	-6.31
225.939	91.99
226.157	-14.51
226.375	73.56
226.592	22.36
226.81	34.64
227.028	36.69
227.246	122.71
227.464	73.56
227.682	87.89
227.9	69.46
228.117	16.21
228.335	73.56
228.553	30.55
228.771	83.8
228.989	57.17
229.206	12.12
229.424	61.27
229.642	16.21
229.86	65.36
230.077	30.55
230.295	30.55
230.513	-14.51
230.731	1.88
230.948	77.65
231.166	79.7
231.384	30.55
231.601	61.27
231.819	59.22
232.037	12.12
232.254	57.17
232.472	20.31
232.689	48.98
232.907	16.21
233.125	55.12
233.342	-4.27
233.56	42.84
233.777	40.79
233.995	51.03
234.213	38.74
234.43	24.4
234.648	-22.7
234.865	71.51
235.083	24.4
235.3	-34.99
235.518	98.13
235.735	79.7
235.953	32.6
236.17	-0.17
236.388	51.03
236.605	26.45
236.822	96.08
237.04	73.56
237.257	-24.75
237.475	-14.51
237.692	24.4
237.909	34.64
238.127	-14.51
238.344	20.31
238.562	114.52
238.779	69.46
238.996	8.02
239.214	5.97
239.431	24.4
239.648	14.17
239.865	61.27
240.083	38.74
240.3	32.6
240.517	-82.09
240.735	40.79
240.952	36.69
241.169	26.45
241.386	-69.8
241.603	10.07
241.821	114.52
242.038	61.27
242.255	38.74
242.472	79.7
242.689	48.98
242.907	34.64
243.124	73.56
243.341	89.94
243.558	40.79
243.775	12.12
243.992	-16.55
244.209	-34.99
244.426	10.07
244.643	-0.17
244.86	-24.75
245.078	24.4
245.295	51.03
245.512	73.56
245.729	20.31
245.946	73.56
246.163	30.55
246.38	16.21
246.597	-12.46
246.814	59.22
247.031	120.66
247.248	44.88
247.464	40.79
247.681	75.6
247.898	135
248.115	20.31
248.332	-20.65
248.549	34.64
248.766	106.32
248.983	83.8
249.2	55.12
249.417	26.45
249.633	8.02
249.85	65.36
250.067	-6.31
250.284	-2.22
250.501	51.03
250.717	26.45
250.934	14.17
251.151	-0.17
251.368	24.4
251.585	87.89
251.801	30.55
252.018	48.98
252.235	14.17
252.451	42.84
252.668	26.45
252.885	59.22
253.102	69.46
253.318	-6.31
253.535	36.69
253.752	36.69
253.968	-0.17
254.185	79.7
254.401	12.12
254.618	65.36
254.835	14.17
255.051	71.51
255.268	51.03
255.484	38.74
255.701	3.93
255.917	96.08
256.134	3.93
256.351	40.79
256.567	8.02
256.784	61.27
257	24.4
257.217	71.51
257.433	14.17
257.65	18.26
257.866	32.6
258.082	-6.31
258.299	30.55
258.515	28.5
258.732	40.79
258.948	98.13
259.165	12.12
259.381	51.03
259.597	81.75
259.814	67.41
260.03	57.17
260.246	42.84
260.463	-0.17
260.679	42.84
260.895	55.12
261.112	26.45
261.328	-53.42
261.544	5.97
261.761	32.6
261.977	-47.27
262.193	10.07
262.409	38.74
262.626	57.17
262.842	30.55
263.058	-20.65
263.274	22.36
263.49	-37.03
263.707	26.45
263.923	94.04
264.139	59.22
264.355	14.17
264.571	53.08
264.787	26.45
265.004	137.04
265.22	57.17
265.436	-67.75
265.652	55.12
265.868	20.31
266.084	-2.22
266.3	73.56
266.516	44.88
266.732	102.23
266.948	65.36
267.164	79.7
267.38	44.88
267.596	5.97
267.812	73.56
268.028	65.36
268.244	42.84
268.46	61.27
268.676	38.74
268.892	24.4
269.108	38.74
269.324	20.31
269.54	-4.27
269.756	65.36
269.972	79.7
270.188	53.08
270.403	1.88
270.619	110.42
270.835	-43.18
271.051	3.93
271.267	40.79
271.483	36.69
271.698	36.69
271.914	22.36
272.13	16.21
272.346	75.6
272.562	48.98
272.777	75.6
272.993	5.97
273.209	8.02
273.425	-51.37
273.64	14.17
273.856	85.84
274.072	-77.99
274.287	38.74
274.503	-4.27
274.719	71.51
274.934	79.7
275.15	75.6
275.366	30.55
275.581	-30.89
275.797	20.31
276.012	42.84
276.228	48.98
276.444	55.12
276.659	100.18
276.875	-28.84
277.09	26.45
277.306	59.22
277.521	69.46
277.737	63.32
277.952	69.46
278.168	44.88
278.383	12.12
278.599	8.02
278.814	126.8
279.03	53.08
279.245	94.04
279.461	-8.36
279.676	36.69
279.892	61.27
280.107	-16.55
280.322	36.69
280.538	38.74
280.753	110.42
280.969	14.17
281.184	40.79
281.399	26.45
281.615	77.65
281.83	26.45
282.045	65.36
282.26	30.55
282.476	44.88
282.691	28.5
282.906	-6.31
283.122	-2.22
283.337	14.17
283.552	-0.17
283.767	5.97
283.983	-18.6
284.198	14.17
284.413	26.45
284.628	-65.71
284.843	3.93
285.058	18.26
285.274	79.7
285.489	61.27
285.704	12.12
285.919	-37.03
286.134	-2.22
286.349	-2.22
286.564	24.4
286.779	135
286.995	51.03
287.21	38.74
287.425	81.75
287.64	-0.17
287.855	12.12
288.07	44.88
288.285	1.88
288.5	32.6
288.715	75.6
288.93	8.02
289.145	65.36
289.36	75.6
289.575	30.55
289.79	-24.75
290.004	108.37
290.219	34.64
290.434	51.03
290.649	5.97
290.864	1.88
291.079	24.4
291.294	65.36
291.509	20.31
291.724	89.94
291.938	32.6
292.153	48.98
292.368	-10.41
292.583	44.88
292.798	24.4
293.012	5.97
293.227	42.84
293.442	3.93
293.657	14.17
293.871	85.84
294.086	71.51
294.301	26.45
294.516	36.69
294.73	3.93
294.945	42.84
295.16	57.17
295.374	24.4
295.589	22.36
295.804	8.02
296.018	61.27
296.233	40.79
296.447	36.69
296.662	-24.75
296.877	69.46
297.091	77.65
297.306	3.93
297.52	-6.31
297.735	42.84
297.949	24.4
298.164	24.4
298.378	14.17
298.593	-45.23
298.807	22.36
299.022	48.98
299.236	22.36
299.451	114.52
299.665	20.31
299.88	48.98
300.094	63.32
300.309	91.99
300.523	100.18
300.737	40.79
300.952	-6.31
301.166	85.84
301.381	24.4
301.595	120.66
301.809	83.8
302.024	24.4
302.238	40.79
302.452	135
302.667	3.93
302.881	-6.31
303.095	44.88
303.309	48.98
303.524	38.74
303.738	79.7
303.952	32.6
304.166	98.13
304.381	3.93
304.595	59.22
304.809	44.88
305.023	120.66
305.237	42.84
305.452	20.31
305.666	118.61
305.88	91.99
306.094	-34.99
306.308	114.52
306.522	36.69
306.736	28.5
306.95	63.32
307.164	36.69
307.379	112.47
307.593	38.74
307.807	18.26
308.021	32.6
308.235	-22.7
308.449	53.08
308.663	55.12
308.877	42.84
309.091	51.03
309.305	30.55
309.519	87.89
309.733	75.6
309.947	-37.03
310.161	-4.27
310.374	14.17
310.588	40.79
310.802	-8.36
311.016	12.12
311.23	87.89
311.444	171.86
311.658	-6.31
311.872	77.65
312.085	55.12
312.299	59.22
312.513	24.4
312.727	-6.31
312.941	18.26
313.154	132.95
313.368	77.65
313.582	79.7
313.796	128.85
314.009	14.17
314.223	18.26
314.437	46.93
314.651	28.5
314.864	55.12
315.078	30.55
315.292	51.03
315.505	55.12
315.719	77.65
315.933	34.64
316.146	48.98
316.36	28.5
316.573	73.56
316.787	40.79
317.001	16.21
317.214	96.08
317.428	30.55
317.641	120.66
317.855	77.65
318.068	61.27
318.282	-14.51
318.495	-18.6
318.709	-32.94
318.922	65.36
319.136	14.17
319.349	104.28
319.563	40.79
319.776	36.69
319.99	51.03
320.203	75.6
320.417	81.75
320.63	48.98
320.843	51.03
321.057	40.79
321.27	10.07
321.483	26.45
321.697	14.17
321.91	-2.22
322.124	67.41
322.337	34.64
322.55	24.4
322.763	53.08
322.977	12.12
323.19	77.65
323.403	12.12
323.617	30.55
323.83	-12.46
324.043	65.36
324.256	-34.99
324.469	-12.46
324.683	104.28
324.896	-45.23
325.109	57.17
325.322	-30.89
325.535	18.26
325.748	44.88
325.962	40.79
326.175	59.22
326.388	-10.41
326.601	38.74
326.814	40.79
327.027	34.64
327.24	89.94
327.453	24.4
327.666	46.93
327.879	61.27
328.092	53.08
328.305	-2.22
328.518	26.45
328.731	34.64
328.944	36.69
329.157	18.26
329.37	-14.51
329.583	108.37
329.796	89.94
330.009	63.32
330.222	28.5
330.435	73.56
330.648	-10.41
330.861	5.97
331.073	61.27
331.286	59.22
331.499	5.97
331.712	-8.36
331.925	69.46
332.138	69.46
332.35	85.84
332.563	24.4
332.776	-2.22
332.989	24.4
333.202	85.84
333.414	5.97
333.627	28.5
333.84	53.08
334.053	24.4
334.265	51.03
334.478	135
334.691	18.26
334.903	48.98
335.116	28.5
335.329	-26.79
335.541	85.84
335.754	63.32
335.966	3.93
336.179	77.65
336.392	63.32
336.604	46.93
336.817	1.88
337.029	51.03
337.242	36.69
337.454	59.22
337.667	18.26
337.88	28.5
338.092	5.97
338.305	122.71
338.517	30.55
338.729	-24.75
338.942	46.93
339.154	55.12
339.367	-28.84
339.579	67.41
339.792	36.69
340.004	34.64
340.217	1.88
340.429	108.37
340.641	10.07
340.854	-28.84
341.066	14.17
341.278	94.04
341.491	83.8
341.703	135
341.915	22.36
342.128	12.12
342.34	71.51
342.552	53.08
342.764	26.45
342.977	87.89
343.189	-63.66
343.401	71.51
343.613	-37.03
343.826	20.31
344.038	-16.55
344.25	36.69
344.462	22.36
344.674	65.36
344.886	-8.36
345.099	5.97
345.311	130.9
345.523	-0.17
345.735	16.21
345.947	16.21
346.159	10.07
346.371	67.41
346.583	-18.6
346.795	94.04
347.007	3.93
347.219	81.75
347.431	65.36
347.643	104.28
347.855	5.97
348.067	85.84
348.279	40.79
348.491	38.74
348.703	38.74
348.915	46.93
349.127	20.31
349.339	22.36
349.551	-6.31
349.763	28.5
349.975	32.6
350.187	163.67
350.399	34.64
350.61	67.41
350.822	61.27
351.034	75.6
351.246	67.41
351.458	22.36
351.669	20.31
351.881	30.55
352.093	122.71
352.305	59.22
352.517	94.04
352.728	34.64
352.94	42.84
353.152	24.4
353.363	36.69
353.575	83.8
353.787	16.21
353.999	30.55
354.21	51.03
354.422	73.56
354.633	-12.46
354.845	77.65
355.057	32.6
355.268	1.88
355.48	81.75
355.692	104.28
355.903	38.74
356.115	28.5
356.326	63.32
356.538	53.08
356.749	69.46
356.961	-10.41
357.172	-18.6
357.384	18.26
357.595	94.04
357.807	104.28
358.018	26.45
358.23	81.75
358.441	40.79
358.653	12.12
358.864	67.41
359.075	26.45
359.287	57.17
359.498	44.88
359.709	-34.99
359.921	57.17
360.132	-2.22
360.344	3.93
360.555	42.84
360.766	34.64
360.977	46.93
361.189	55.12
361.4	42.84
361.611	83.8
361.823	20.31
362.034	57.17
362.245	-32.94
362.456	83.8
362.667	10.07
362.879	81.75
363.09	79.7
363.301	102.23
363.512	3.93
363.723	1.88
363.935	3.93
364.146	57.17
364.357	48.98
364.568	57.17
364.779	8.02
364.99	122.71
365.201	89.94
365.412	57.17
365.623	-14.51
365.834	83.8
366.045	34.64
366.256	69.46
366.467	163.67
366.678	38.74
366.889	44.88
367.1	38.74
367.311	5.97
367.522	116.56
367.733	69.46
367.944	38.74
368.155	-6.31
368.366	100.18
368.577	48.98
368.788	38.74
368.999	22.36
369.209	-12.46
369.42	130.9
369.631	141.14
369.842	20.31
370.053	1.88
370.264	149.33
370.474	42.84
370.685	65.36
370.896	73.56
371.107	-6.31
371.317	3.93
371.528	30.55
371.739	67.41
371.95	55.12
372.16	69.46
372.371	53.08
372.582	65.36
372.792	71.51
373.003	26.45
373.214	-2.22
373.424	51.03
373.635	48.98
373.846	85.84
374.056	128.85
374.267	67.41
374.477	96.08
374.688	73.56
374.898	61.27
375.109	14.17
375.319	77.65
375.53	28.5
375.74	34.64
375.951	-12.46
376.161	81.75
376.372	61.27
376.582	-2.22
376.793	44.88
377.003	-2.22
377.214	57.17
377.424	44.88
377.635	69.46
377.845	20.31
378.055	126.8
378.266	77.65
378.476	48.98
378.686	139.09
378.897	116.56
379.107	83.8
379.317	42.84
379.528	12.12
379.738	40.79
379.948	30.55
380.158	38.74
380.369	34.64
380.579	108.37
380.789	24.4
380.999	85.84
381.21	98.13
381.42	85.84
381.63	51.03
381.84	34.64
382.05	10.07
382.261	85.84
382.471	157.52
382.681	87.89
382.891	89.94
383.101	102.23
383.311	53.08
383.521	59.22
383.731	30.55
383.941	100.18
384.151	59.22
384.361	48.98
384.571	14.17
384.781	12.12
384.991	126.8
385.201	59.22
385.411	36.69
385.621	124.76
385.831	98.13
386.041	91.99
386.251	77.65
386.461	73.56
386.671	24.4
386.881	59.22
387.091	67.41
387.301	98.13
387.511	20.31
387.72	20.31
387.93	20.31
388.14	77.65
388.35	63.32
388.56	44.88
388.769	46.93
388.979	132.95
389.189	48.98
389.399	69.46
389.609	79.7
389.818	104.28
390.028	110.42
390.238	81.75
390.447	12.12
390.657	153.43
390.867	77.65
391.076	139.09
391.286	-6.31
391.496	112.47
391.705	22.36
391.915	141.14
392.125	98.13
392.334	71.51
392.544	87.89
392.753	112.47
392.963	-18.6
393.172	96.08
393.382	89.94
393.591	114.52
393.801	10.07
394.01	145.24
394.22	132.95
394.429	75.6
394.639	104.28
394.848	83.8
395.058	75.6
395.267	102.23
395.477	63.32
395.686	91.99
395.895	96.08
396.105	83.8
396.314	108.37
396.524	110.42
396.733	135
396.942	46.93
397.152	139.09
397.361	12.12
397.57	87.89
397.78	85.84
397.989	132.95
398.198	163.67
398.407	102.23
398.617	106.32
398.826	110.42
399.035	81.75
399.244	122.71
399.453	71.51
399.663	46.93
399.872	139.09
400.081	130.9
400.29	114.52
400.499	112.47
400.708	114.52
400.917	85.84
401.127	165.71
401.336	91.99
401.545	116.56
401.754	112.47
401.963	149.33
402.172	118.61
402.381	44.88
402.59	102.23
402.799	163.67
403.008	106.32
403.217	130.9
403.426	216.91
403.635	221.01
403.844	112.47
404.053	116.56
404.262	165.71
404.471	233.3
404.68	116.56
404.888	69.46
405.097	85.84
405.306	182.1
405.515	132.95
405.724	98.13
405.933	173.91
406.142	212.82
406.35	147.28
406.559	184.15
406.768	241.49
406.977	216.91
407.185	241.49
407.394	212.82
407.603	155.47
407.812	178
408.02	225.11
408.229	239.44
408.438	214.87
408.646	188.24
408.855	237.39
409.064	249.68
409.272	227.15
409.481	290.64
409.69	251.73
409.898	276.31
410.107	233.3
410.315	364.37
410.524	294.74
410.733	253.78
410.941	288.59
411.15	319.31
411.358	356.18
411.567	362.32
411.775	362.32
411.984	309.07
412.192	425.81
412.401	403.28
412.609	462.67
412.818	444.24
413.026	460.62
413.234	542.54
413.443	491.34
413.651	493.39
413.86	520.01
414.068	544.59
414.276	579.4
414.485	573.26
414.693	585.55
414.901	698.19
415.11	673.61
415.318	743.24
415.526	681.8
415.734	767.82
415.943	702.28
416.151	786.25
416.359	692.04
416.567	773.96
416.776	835.4
416.984	925.51
417.192	964.42
417.4	984.9
417.608	855.88
417.817	982.85
418.025	1070.92
418.233	1087.3
418.441	1064.77
418.649	1142.6
418.857	1281.86
419.065	1220.42
419.273	1275.71
419.481	1214.27
419.689	1333.06
419.897	1431.36
420.105	1433.41
420.313	1441.6
420.521	1513.28
420.729	1513.28
420.937	1587.01
421.145	1615.68
421.353	1742.65
421.561	1785.66
421.769	1843
421.977	2146.1
422.185	1947.45
422.393	2074.42
422.601	2172.72
422.809	2187.06
423.017	2131.76
423.224	2307.89
423.432	2441.01
423.64	2357.04
423.848	2594.61
424.056	2590.51
424.263	2750.25
424.471	2737.96
424.679	2754.35
424.887	2834.22
425.094	3028.78
425.302	3116.84
425.51	3102.5
425.718	3194.66
425.925	3274.53
426.133	3344.16
426.341	3532.58
426.548	3757.85
426.756	3677.98
426.964	3688.22
427.171	4028.18
427.379	4030.23
427.586	4085.53
427.794	4398.87
428.001	4552.46
428.209	4640.53
428.417	4509.46
428.624	5023.5
428.832	4816.65
429.039	4796.17
429.247	4939.53
429.454	5293.83
429.662	5648.13
429.869	5240.58
430.076	5658.37
430.284	5527.3
430.491	5803.77
430.699	6065.91
430.906	6184.69
431.114	6283
431.321	6610.67
431.528	6678.26
431.736	7053.03
431.943	7442.15
432.15	7055.08
432.358	7229.16
432.565	7583.46
432.772	7628.51
432.979	7896.8
433.187	8058.59
433.394	8181.46
433.601	8664.79
433.808	8638.16
434.016	8730.32
434.223	9076.43
434.43	9600.71
434.637	9418.44
434.844	9961.15
435.052	10157.75
435.259	10180.28
435.466	10137.27
435.673	10118.84
435.88	10847.92
436.087	11411.11
436.294	11273.9
436.501	11034.28
436.708	11351.72
436.915	11577
437.122	12295.83
437.329	12172.96
437.537	12439.19
437.743	12914.32
437.95	12914.32
438.157	13471.37
438.364	13889.15
438.571	13643.4
438.778	13893.25
438.985	15105.65
439.192	14421.63
439.399	15050.35
439.606	14421.63
439.813	15394.41
440.02	16481.88
440.227	16264.8
440.433	16074.34
440.64	16447.07
440.847	16514.65
441.054	16690.77
441.261	18085.44
441.467	17464.91
441.674	18189.89
441.881	18806.33
442.088	19164.72
442.294	18765.37
442.501	19056.18
442.708	19580.46
442.914	20196.9
443.121	21007.89
443.328	20848.15
443.534	22058.5
443.741	21589.52
443.948	20874.77
444.154	22707.71
444.361	22590.97
444.568	22621.69
444.774	22439.42
444.981	22826.49
445.187	23780.84
445.394	24665.56
445.6	24325.6
445.807	26383.81
446.013	25425.36
446.22	26201.54
446.426	26955.19
446.633	27092.41
446.839	28331.43
447.046	26891.71
447.252	28472.74
447.459	28464.55
447.665	28274.09
447.871	29552.02
448.078	31010.17
448.284	29603.22
448.491	30295.43
448.697	31212.92
448.903	32011.63
449.11	32281.96
449.316	31413.62
449.522	31921.52
449.728	32843.1
449.935	33115.48
450.141	33252.7
450.347	34059.6
450.553	32832.86
450.76	33045.85
450.966	34272.59
451.172	33848.66
451.378	34618.69
451.584	33881.42
451.791	34667.84
451.997	34862.4
452.203	35286.33
452.409	35527.99
452.615	34958.66
452.821	33678.68
453.027	32941.41
453.233	35179.84
453.44	33693.01
453.646	34172.24
453.852	34114.89
454.058	34884.93
454.264	33443.16
454.47	34667.84
454.676	33678.68
454.882	34227.53
455.088	31556.98
455.294	31757.68
455.5	32243.05
455.705	32779.62
455.911	31546.74
456.117	30815.62
456.323	30287.24
456.529	28650.91
456.735	30006.67
456.941	29042.07
457.147	28769.69
457.352	28376.48
457.558	27389.36
457.764	27573.68
457.97	27049.4
458.176	26715.58
458.381	26455.49
458.587	25015.77
458.793	25093.59
458.999	23703.02
459.204	25585.1
459.41	24774.11
459.616	23379.44
459.821	22918.65
460.027	23199.22
460.233	22568.44
460.438	21329.42
460.644	21638.67
460.85	20551.2
461.055	20127.27
461.261	20069.92
461.466	18654.78
461.672	18374.2
461.878	19658.28
462.083	18363.97
462.289	17929.8
462.494	17739.33
462.7	16922.2
462.905	16375.39
463.111	16762.45
463.316	17253.97
463.522	16490.07
463.727	16737.88
463.932	16672.34
464.138	16625.24
464.343	16604.76
464.549	16088.67
464.754	16703.06
464.959	16629.34
465.165	16383.58
465.37	15761
465.575	15433.32
465.781	16060
465.986	15715.94
466.191	15246.96
466.397	15050.35
466.602	14341.75
466.807	14976.62
467.012	14702.2
467.218	14896.75
467.423	14657.14
467.628	14667.38
467.833	15390.31
468.038	14579.32
468.244	14382.71
468.449	15160.94
