Data from USB4F104151__87__12-02-31-090.txt Node

Date: Fri Mar 14 12:02:31 EDT 2025
User: louis
Spectrometer: USB4F10415
Trigger mode: 4
Integration Time (sec): 2.000000E-2
Scans to average: 1
Electric dark correction enabled: true
Nonlinearity correction enabled: false
Boxcar width: 0
XAxis mode: Wavelengths
Number of Pixels in Spectrum: 3648
>>>>>Begin Spectral Data<<<<<
178.204	-70.83
178.424	-70.83
178.644	-70.83
178.864	-31.91
179.084	-101.55
179.304	-42.15
179.524	-74.92
179.744	-38.06
179.964	90.96
180.184	23.38
180.404	-13.48
180.624	13.14
180.844	19.29
181.064	-29.87
181.283	43.86
181.503	-36.01
181.723	43.86
181.943	-132.26
182.163	37.72
182.383	78.68
182.602	70.48
182.822	-19.63
183.042	33.62
183.262	27.48
183.482	-7.34
183.701	-7.34
183.921	-3.24
184.141	-3.24
184.361	37.72
184.58	-64.68
184.8	66.39
185.02	43.86
185.239	-13.48
185.459	15.19
185.679	-11.43
185.898	7
186.118	13.14
186.338	95.06
186.557	11.09
186.777	-5.29
186.997	84.82
187.216	31.57
187.436	80.72
187.655	41.81
187.875	60.24
188.095	45.91
188.314	74.58
188.534	33.62
188.753	2.9
188.973	47.96
189.192	115.54
189.412	-9.39
189.631	39.76
189.851	56.15
190.07	115.54
190.29	-9.39
190.509	25.43
190.729	9.05
190.948	82.77
191.168	68.44
191.387	21.33
191.607	15.19
191.826	97.11
192.045	-21.67
192.265	54.1
192.484	-31.91
192.704	45.91
192.923	11.09
193.142	11.09
193.362	-27.82
193.581	0.85
193.8	13.14
194.02	60.24
194.239	2.9
194.458	23.38
194.678	80.72
194.897	99.16
195.116	76.63
195.335	35.67
195.555	9.05
195.774	-13.48
195.993	-15.53
196.212	-23.72
196.432	-42.15
196.651	11.09
196.87	29.52
197.089	125.78
197.308	-9.39
197.528	21.33
197.747	-11.43
197.966	58.2
198.185	-91.31
198.404	-13.48
198.623	-33.96
198.842	52.05
199.062	25.43
199.281	95.06
199.5	4.95
199.719	-27.82
199.938	39.76
200.157	117.59
200.376	35.67
200.595	-7.34
200.814	23.38
201.033	54.1
201.252	29.52
201.471	72.53
201.69	35.67
201.909	-5.29
202.128	-27.82
202.347	86.87
202.566	-23.72
202.785	47.96
203.004	43.86
203.223	-5.29
203.442	4.95
203.661	37.72
203.879	52.05
204.098	9.05
204.317	11.09
204.536	41.81
204.755	64.34
204.974	-3.24
205.193	17.24
205.411	115.54
205.63	27.48
205.849	64.34
206.068	31.57
206.287	29.52
206.505	-5.29
206.724	47.96
206.943	15.19
207.162	103.25
207.381	41.81
207.599	25.43
207.818	11.09
208.037	29.52
208.255	47.96
208.474	50
208.693	68.44
208.911	41.81
209.13	99.16
209.349	17.24
209.567	-23.72
209.786	37.72
210.005	25.43
210.223	82.77
210.442	35.67
210.661	41.81
210.879	54.1
211.098	27.48
211.316	27.48
211.535	29.52
211.753	-3.24
211.972	21.33
212.191	58.2
212.409	-54.44
212.628	-21.67
212.846	-5.29
213.065	-58.54
213.283	-9.39
213.502	76.63
213.72	-9.39
213.938	-42.15
214.157	11.09
214.375	-19.63
214.594	-42.15
214.812	66.39
215.031	74.58
215.249	62.29
215.467	47.96
215.686	17.24
215.904	31.57
216.122	19.29
216.341	7
216.559	66.39
216.778	-17.58
216.996	43.86
217.214	33.62
217.432	-29.87
217.651	68.44
217.869	-52.39
218.087	62.29
218.306	13.14
218.524	17.24
218.742	7
218.96	50
219.179	47.96
219.397	9.05
219.615	50
219.833	93.01
220.051	76.63
220.27	64.34
220.488	23.38
220.706	72.53
220.924	13.14
221.142	39.76
221.36	-21.67
221.578	-29.87
221.796	80.72
222.015	66.39
222.233	60.24
222.451	78.68
222.669	15.19
222.887	97.11
223.105	-9.39
223.323	35.67
223.541	95.06
223.759	-25.77
223.977	58.2
224.195	37.72
224.413	-42.15
224.631	15.19
224.849	72.53
225.067	27.48
225.285	17.24
225.503	-19.63
225.721	-3.24
225.939	-29.87
226.157	52.05
226.375	88.92
226.592	-13.48
226.81	70.48
227.028	54.1
227.246	29.52
227.464	29.52
227.682	-3.24
227.9	47.96
228.117	62.29
228.335	41.81
228.553	45.91
228.771	56.15
228.989	107.35
229.206	25.43
229.424	7
229.642	-5.29
229.86	45.91
230.077	-19.63
230.295	109.4
230.513	78.68
230.731	4.95
230.948	62.29
231.166	56.15
231.384	31.57
231.601	7
231.819	70.48
232.037	-9.39
232.254	15.19
232.472	-48.3
232.689	37.72
232.907	66.39
233.125	0.85
233.342	2.9
233.56	54.1
233.777	-15.53
233.995	-48.3
234.213	66.39
234.43	121.68
234.648	43.86
234.865	13.14
235.083	70.48
235.3	17.24
235.518	0.85
235.735	15.19
235.953	56.15
236.17	0.85
236.388	-17.58
236.605	-15.53
236.822	78.68
237.04	-3.24
237.257	133.97
237.475	-13.48
237.692	52.05
237.909	-15.53
238.127	56.15
238.344	52.05
238.562	103.25
238.779	-7.34
238.996	15.19
239.214	-38.06
239.431	15.19
239.648	-5.29
239.865	31.57
240.083	50
240.3	86.87
240.517	78.68
240.735	50
240.952	2.9
241.169	-62.63
241.386	-7.34
241.603	88.92
241.821	4.95
242.038	-68.78
242.255	41.81
242.472	-3.24
242.689	19.29
242.907	37.72
243.124	-3.24
243.341	-17.58
243.558	17.24
243.775	13.14
243.992	-5.29
244.209	95.06
244.426	90.96
244.643	33.62
244.86	13.14
245.078	19.29
245.295	13.14
245.512	27.48
245.729	2.9
245.946	68.44
246.163	-23.72
246.38	68.44
246.597	23.38
246.814	-15.53
247.031	-3.24
247.248	39.76
247.464	60.24
247.681	35.67
247.898	-7.34
248.115	13.14
248.332	29.52
248.549	33.62
248.766	64.34
248.983	66.39
249.2	21.33
249.417	50
249.633	84.82
249.85	76.63
250.067	-27.82
250.284	66.39
250.501	-29.87
250.717	31.57
250.934	88.92
251.151	11.09
251.368	-25.77
251.585	111.44
251.801	33.62
252.018	35.67
252.235	0.85
252.451	0.85
252.668	25.43
252.885	-7.34
253.102	29.52
253.318	25.43
253.535	17.24
253.752	33.62
253.968	4.95
254.185	-5.29
254.401	21.33
254.618	-54.44
254.835	25.43
255.051	29.52
255.268	95.06
255.484	-3.24
255.701	107.35
255.917	11.09
256.134	17.24
256.351	74.58
256.567	76.63
256.784	2.9
257	-13.48
257.217	-11.43
257.433	127.83
257.65	29.52
257.866	31.57
258.082	-21.67
258.299	9.05
258.515	68.44
258.732	-23.72
258.948	7
259.165	-17.58
259.381	25.43
259.597	74.58
259.814	-5.29
260.03	35.67
260.246	72.53
260.463	19.29
260.679	121.68
260.895	125.78
261.112	93.01
261.328	-3.24
261.544	-9.39
261.761	103.25
261.977	39.76
262.193	76.63
262.409	86.87
262.626	7
262.842	19.29
263.058	45.91
263.274	82.77
263.49	70.48
263.707	47.96
263.923	105.3
264.139	-54.44
264.355	31.57
264.571	0.85
264.787	13.14
265.004	45.91
265.22	84.82
265.436	70.48
265.652	29.52
265.868	25.43
266.084	80.72
266.3	33.62
266.516	-3.24
266.732	37.72
266.948	86.87
267.164	45.91
267.38	64.34
267.596	13.14
267.812	43.86
268.028	11.09
268.244	74.58
268.46	37.72
268.676	27.48
268.892	-3.24
269.108	-44.2
269.324	62.29
269.54	7
269.756	58.2
269.972	-31.91
270.188	29.52
270.403	-46.25
270.619	88.92
270.835	-3.24
271.051	-9.39
271.267	-19.63
271.483	86.87
271.698	21.33
271.914	37.72
272.13	7
272.346	62.29
272.562	50
272.777	166.74
272.993	54.1
273.209	15.19
273.425	27.48
273.64	-29.87
273.856	-15.53
274.072	17.24
274.287	35.67
274.503	62.29
274.719	31.57
274.934	78.68
275.15	25.43
275.366	33.62
275.581	-13.48
275.797	64.34
276.012	68.44
276.228	54.1
276.444	41.81
276.659	2.9
276.875	7
277.09	21.33
277.306	-29.87
277.521	54.1
277.737	-3.24
277.952	17.24
278.168	9.05
278.383	-15.53
278.599	0.85
278.814	27.48
279.03	23.38
279.245	21.33
279.461	76.63
279.676	90.96
279.892	45.91
280.107	62.29
280.322	4.95
280.538	27.48
280.753	-11.43
280.969	37.72
281.184	90.96
281.399	60.24
281.615	111.44
281.83	52.05
282.045	35.67
282.26	2.9
282.476	0.85
282.691	-9.39
282.906	70.48
283.122	13.14
283.337	62.29
283.552	54.1
283.767	-36.01
283.983	115.54
284.198	-21.67
284.413	60.24
284.628	-38.06
284.843	7
285.058	45.91
285.274	31.57
285.489	66.39
285.704	50
285.919	-29.87
286.134	27.48
286.349	35.67
286.564	43.86
286.779	33.62
286.995	64.34
287.21	9.05
287.425	37.72
287.64	45.91
287.855	13.14
288.07	33.62
288.285	0.85
288.5	15.19
288.715	52.05
288.93	107.35
289.145	60.24
289.36	47.96
289.575	39.76
289.79	27.48
290.004	72.53
290.219	15.19
290.434	52.05
290.649	37.72
290.864	41.81
291.079	17.24
291.294	15.19
291.509	7
291.724	-42.15
291.938	4.95
292.153	64.34
292.368	52.05
292.583	25.43
292.798	72.53
293.012	25.43
293.227	62.29
293.442	-42.15
293.657	-29.87
293.871	7
294.086	62.29
294.301	119.64
294.516	21.33
294.73	136.02
294.945	29.52
295.16	35.67
295.374	-21.67
295.589	35.67
295.804	33.62
296.018	2.9
296.233	43.86
296.447	-3.24
296.662	47.96
296.877	47.96
297.091	37.72
297.306	-29.87
297.52	88.92
297.735	-11.43
297.949	19.29
298.164	60.24
298.378	68.44
298.593	-19.63
298.807	9.05
299.022	52.05
299.236	84.82
299.451	86.87
299.665	-1.19
299.88	70.48
300.094	21.33
300.309	23.38
300.523	2.9
300.737	50
300.952	11.09
301.166	39.76
301.381	43.86
301.595	52.05
301.809	-5.29
302.024	76.63
302.238	0.85
302.452	97.11
302.667	35.67
302.881	-9.39
303.095	35.67
303.309	27.48
303.524	13.14
303.738	88.92
303.952	-17.58
304.166	7
304.381	29.52
304.595	43.86
304.809	70.48
305.023	43.86
305.237	7
305.452	64.34
305.666	29.52
305.88	41.81
306.094	78.68
306.308	41.81
306.522	58.2
306.736	84.82
306.95	-15.53
307.164	93.01
307.379	-19.63
307.593	84.82
307.807	33.62
308.021	33.62
308.235	76.63
308.449	-44.2
308.663	70.48
308.877	101.2
309.091	47.96
309.305	52.05
309.519	-13.48
309.733	129.88
309.947	-40.11
310.161	95.06
310.374	101.2
310.588	60.24
310.802	17.24
311.016	15.19
311.23	7
311.444	39.76
311.658	0.85
311.872	-7.34
312.085	43.86
312.299	35.67
312.513	56.15
312.727	62.29
312.941	-27.82
313.154	60.24
313.368	-5.29
313.582	60.24
313.796	27.48
314.009	-19.63
314.223	25.43
314.437	52.05
314.651	78.68
314.864	2.9
315.078	11.09
315.292	-13.48
315.505	-21.67
315.719	41.81
315.933	27.48
316.146	13.14
316.36	2.9
316.573	-52.39
316.787	31.57
317.001	-44.2
317.214	27.48
317.428	41.81
317.641	86.87
317.855	33.62
318.068	35.67
318.282	101.2
318.495	47.96
318.709	23.38
318.922	43.86
319.136	21.33
319.349	58.2
319.563	60.24
319.776	82.77
319.99	27.48
320.203	47.96
320.417	19.29
320.63	29.52
320.843	99.16
321.057	56.15
321.27	60.24
321.483	39.76
321.697	29.52
321.91	58.2
322.124	25.43
322.337	33.62
322.55	39.76
322.763	74.58
322.977	68.44
323.19	29.52
323.403	52.05
323.617	33.62
323.83	47.96
324.043	-13.48
324.256	29.52
324.469	9.05
324.683	68.44
324.896	29.52
325.109	72.53
325.322	-7.34
325.535	117.59
325.748	-13.48
325.962	-11.43
326.175	93.01
326.388	56.15
326.601	-25.77
326.814	64.34
327.027	25.43
327.24	125.78
327.453	19.29
327.666	41.81
327.879	113.49
328.092	119.64
328.305	76.63
328.518	11.09
328.731	54.1
328.944	43.86
329.157	60.24
329.37	45.91
329.583	64.34
329.796	29.52
330.009	52.05
330.222	119.64
330.435	58.2
330.648	37.72
330.861	50
331.073	35.67
331.286	58.2
331.499	19.29
331.712	74.58
331.925	4.95
332.138	27.48
332.35	58.2
332.563	-15.53
332.776	82.77
332.989	82.77
333.202	66.39
333.414	15.19
333.627	7
333.84	131.92
334.053	29.52
334.265	-50.35
334.478	7
334.691	23.38
334.903	27.48
335.116	70.48
335.329	76.63
335.541	39.76
335.754	113.49
335.966	29.52
336.179	54.1
336.392	-38.06
336.604	31.57
336.817	41.81
337.029	45.91
337.242	15.19
337.454	105.3
337.667	50
337.88	82.77
338.092	50
338.305	84.82
338.517	27.48
338.729	19.29
338.942	37.72
339.154	41.81
339.367	-27.82
339.579	74.58
339.792	9.05
340.004	68.44
340.217	29.52
340.429	54.1
340.641	45.91
340.854	68.44
341.066	80.72
341.278	52.05
341.491	41.81
341.703	117.59
341.915	-5.29
342.128	97.11
342.34	50
342.552	50
342.764	21.33
342.977	-25.77
343.189	50
343.401	60.24
343.613	43.86
343.826	39.76
344.038	88.92
344.25	58.2
344.462	62.29
344.674	-33.96
344.886	33.62
345.099	35.67
345.311	41.81
345.523	70.48
345.735	45.91
345.947	70.48
346.159	31.57
346.371	0.85
346.583	19.29
346.795	103.25
347.007	-23.72
347.219	41.81
347.431	99.16
347.643	35.67
347.855	-5.29
348.067	17.24
348.279	-38.06
348.491	-21.67
348.703	-11.43
348.915	58.2
349.127	17.24
349.339	47.96
349.551	56.15
349.763	133.97
349.975	7
350.187	86.87
350.399	107.35
350.61	43.86
350.822	23.38
351.034	86.87
351.246	23.38
351.458	9.05
351.669	107.35
351.881	58.2
352.093	7
352.305	66.39
352.517	64.34
352.728	109.4
352.94	39.76
353.152	25.43
353.363	-15.53
353.575	-5.29
353.787	107.35
353.999	23.38
354.21	17.24
354.422	13.14
354.633	23.38
354.845	76.63
355.057	66.39
355.268	21.33
355.48	113.49
355.692	47.96
355.903	50
356.115	-23.72
356.326	33.62
356.538	66.39
356.749	80.72
356.961	47.96
357.172	39.76
357.384	11.09
357.595	82.77
357.807	60.24
358.018	23.38
358.23	93.01
358.441	117.59
358.653	37.72
358.864	52.05
359.075	13.14
359.287	45.91
359.498	76.63
359.709	35.67
359.921	11.09
360.132	76.63
360.344	29.52
360.555	101.2
360.766	56.15
360.977	-1.19
361.189	35.67
361.4	109.4
361.611	-15.53
361.823	68.44
362.034	58.2
362.245	43.86
362.456	35.67
362.667	62.29
362.879	31.57
363.09	45.91
363.301	23.38
363.512	13.14
363.723	9.05
363.935	33.62
364.146	39.76
364.357	84.82
364.568	88.92
364.779	-7.34
364.99	41.81
365.201	62.29
365.412	136.02
365.623	-17.58
365.834	37.72
366.045	35.67
366.256	117.59
366.467	97.11
366.678	33.62
366.889	54.1
367.1	29.52
367.311	47.96
367.522	45.91
367.733	7
367.944	13.14
368.155	-42.15
368.366	99.16
368.577	119.64
368.788	76.63
368.999	45.91
369.209	97.11
369.42	13.14
369.631	105.3
369.842	-1.19
370.053	111.44
370.264	50
370.474	-1.19
370.685	23.38
370.896	99.16
371.107	70.48
371.317	31.57
371.528	17.24
371.739	111.44
371.95	52.05
372.16	39.76
372.371	119.64
372.582	64.34
372.792	33.62
373.003	70.48
373.214	39.76
373.424	64.34
373.635	45.91
373.846	99.16
374.056	101.2
374.267	90.96
374.477	33.62
374.688	45.91
374.898	-44.2
375.109	119.64
375.319	76.63
375.53	52.05
375.74	2.9
375.951	43.86
376.161	72.53
376.372	84.82
376.582	29.52
376.793	60.24
377.003	84.82
377.214	25.43
377.424	31.57
377.635	68.44
377.845	58.2
378.055	117.59
378.266	11.09
378.476	78.68
378.686	-19.63
378.897	72.53
379.107	23.38
379.317	39.76
379.528	-1.19
379.738	68.44
379.948	21.33
380.158	33.62
380.369	99.16
380.579	150.36
380.789	72.53
380.999	125.78
381.21	41.81
381.42	54.1
381.63	90.96
381.84	-3.24
382.05	80.72
382.261	50
382.471	86.87
382.681	29.52
382.891	27.48
383.101	66.39
383.311	58.2
383.521	54.1
383.731	72.53
383.941	68.44
384.151	4.95
384.361	90.96
384.571	82.77
384.781	68.44
384.991	56.15
385.201	148.31
385.411	119.64
385.621	39.76
385.831	72.53
386.041	82.77
386.251	54.1
386.461	2.9
386.671	103.25
386.881	72.53
387.091	37.72
387.301	45.91
387.511	45.91
387.72	35.67
387.93	82.77
388.14	54.1
388.35	47.96
388.56	68.44
388.769	27.48
388.979	11.09
389.189	58.2
389.399	56.15
389.609	58.2
389.818	125.78
390.028	115.54
390.238	52.05
390.447	17.24
390.657	144.21
390.867	86.87
391.076	-42.15
391.286	72.53
391.496	80.72
391.705	56.15
391.915	101.2
392.125	123.73
392.334	121.68
392.544	84.82
392.753	123.73
392.963	148.31
393.172	119.64
393.382	66.39
393.591	111.44
393.801	60.24
394.01	125.78
394.22	86.87
394.429	93.01
394.639	15.19
394.848	109.4
395.058	146.26
395.267	146.26
395.477	86.87
395.686	176.98
395.895	74.58
396.105	95.06
396.314	111.44
396.524	60.24
396.733	37.72
396.942	109.4
397.152	142.16
397.361	74.58
397.57	54.1
397.78	107.35
397.989	142.16
398.198	82.77
398.407	74.58
398.617	140.12
398.826	117.59
399.035	176.98
399.244	136.02
399.453	131.92
399.663	181.07
399.872	156.5
400.081	131.92
400.29	164.69
400.499	78.68
400.708	131.92
400.917	113.49
401.127	84.82
401.336	127.83
401.545	179.03
401.754	234.32
401.963	111.44
402.172	90.96
402.381	123.73
402.59	105.3
402.799	131.92
403.008	209.75
403.217	174.93
403.426	142.16
403.635	150.36
403.844	174.93
404.053	187.22
404.262	140.12
404.471	248.66
404.68	150.36
404.888	209.75
405.097	127.83
405.306	136.02
405.515	236.37
405.724	185.17
405.933	211.79
406.142	191.31
406.35	230.23
406.559	244.56
406.768	283.47
406.977	256.85
407.185	172.88
407.394	238.42
407.603	240.47
407.812	267.09
408.02	265.04
408.229	297.81
408.438	228.18
408.646	303.95
408.855	291.66
409.064	326.48
409.272	389.97
409.481	340.82
409.69	404.3
409.898	435.02
410.107	361.3
410.315	373.58
410.524	334.67
410.733	486.22
410.941	459.6
411.15	455.5
411.358	516.94
411.567	492.37
411.775	486.22
411.984	518.99
412.192	592.72
412.401	539.47
412.609	631.63
412.818	602.96
413.026	668.49
413.234	684.87
413.443	723.79
413.651	648.01
413.86	715.59
414.068	809.8
414.276	826.18
414.485	717.64
414.693	754.51
414.901	944.97
415.11	1004.36
415.318	951.11
415.526	1008.45
415.734	1010.5
415.943	1069.89
416.151	1121.09
416.359	1137.48
416.567	1135.43
416.776	1223.49
416.984	1348.42
417.192	1344.32
417.4	1301.31
417.608	1262.4
417.817	1352.51
418.025	1420.1
418.233	1477.44
418.441	1555.26
418.649	1545.02
418.857	1641.28
419.065	1643.32
419.273	1704.76
419.481	1899.32
419.689	1854.27
419.897	1854.27
420.105	2069.3
420.313	2071.35
420.521	2143.03
420.729	2116.41
420.937	2245.43
421.145	2315.06
421.353	2558.77
421.561	2575.15
421.769	2513.71
421.977	2773.8
422.185	2749.23
422.393	2915.11
422.601	3064.61
422.809	2976.55
423.017	3089.19
423.224	3195.68
423.432	3382.05
423.64	3412.77
423.848	3572.51
424.056	3500.83
424.263	3887.9
424.471	3848.99
424.679	3881.75
424.887	4182.81
425.094	4352.79
425.302	4215.57
425.51	4418.32
425.718	4612.88
425.925	4643.6
426.133	4872.97
426.341	4991.75
426.548	5274.37
426.756	5432.07
426.964	5301
427.171	5692.16
427.379	5960.44
427.586	5812.99
427.794	6068.98
428.001	6435.57
428.209	6603.5
428.417	6652.66
428.624	6834.93
428.832	6939.37
429.039	6970.09
429.247	7013.1
429.454	7697.12
429.662	8149.72
429.869	7543.52
430.076	8209.11
430.284	7903.96
430.491	8162.01
430.699	8643.28
430.906	8684.24
431.114	8970.96
431.321	9218.76
431.528	9464.52
431.736	9843.39
431.943	10158.78
432.15	10265.27
432.358	10224.31
432.565	10724.02
432.772	10672.82
432.979	11305.64
433.187	11614.88
433.394	11535.01
433.601	12329.63
433.808	12376.73
434.016	12257.95
434.223	12927.63
434.43	13683.33
434.637	13171.34
434.844	14002.82
435.052	14379.64
435.259	14348.92
435.466	14609.01
435.673	14097.02
435.88	15280.75
436.087	16190.05
436.294	15911.52
436.501	15862.37
436.708	16147.04
436.915	16800.34
437.122	17326.67
437.329	17060.43
437.537	17891.91
437.743	17820.23
437.95	17932.87
438.157	18872.89
438.364	19485.23
438.571	19405.36
438.778	19575.34
438.985	21402.13
439.192	20572.7
439.399	21072.4
439.606	20724.25
439.813	21711.37
440.02	22901.24
440.227	22821.37
440.433	22741.5
440.64	23464.43
440.847	23196.15
441.054	23816.68
441.261	25344.47
441.467	25018.84
441.674	25663.95
441.881	26503.62
442.088	26173.89
442.294	26399.17
442.501	26853.82
442.708	27464.11
442.914	28275.11
443.121	29565.33
443.328	28686.75
443.534	31111.55
443.741	30038.41
443.948	29471.12
444.154	31879.53
444.361	31512.95
444.568	31703.41
444.774	31947.12
444.981	32366.95
445.187	32897.38
445.394	34191.69
445.6	33847.63
445.807	37079.33
446.013	35703.09
446.22	36466.98
446.426	37288.22
446.633	37679.38
446.839	39117.06
447.046	37808.4
447.252	39543.03
447.459	39678.2
447.665	39287.04
447.871	41214.18
448.078	42936.52
448.284	40906.98
448.491	41812.18
448.697	43555
448.903	44069.04
449.11	44388.53
449.316	43911.35
449.522	44611.76
449.728	45240.48
449.935	45762.72
450.141	45623.45
450.347	46993.54
450.553	45177
450.76	45799.58
450.966	47198.34
451.172	46819.47
451.378	48130.17
451.584	46811.28
451.791	47933.56
451.997	47908.99
452.203	48689.26
452.409	49000.55
452.615	48023.67
452.821	46844.04
453.027	46219.41
453.233	48965.74
453.44	46913.67
453.646	47454.34
453.852	47040.65
454.058	48302.2
454.264	45918.36
454.47	47591.55
454.676	46395.54
454.882	47753.34
455.088	43782.33
455.294	44208.31
455.5	44718.25
455.705	45432.99
455.911	43493.57
456.117	42774.73
456.323	42166.48
456.529	39848.18
456.735	41494.75
456.941	40263.92
457.147	39872.76
457.352	38844.68
457.558	38666.5
457.764	38277.39
457.97	37728.53
458.176	36792.61
458.381	36755.75
458.587	34818.37
458.793	35156.28
458.999	33055.07
459.204	35531.06
459.41	34007.37
459.616	32174.44
459.821	32172.39
460.027	32070
460.233	31510.9
460.438	29512.08
460.644	30288.26
460.85	28979.61
461.055	28047.79
461.261	28322.21
461.466	26163.65
461.672	25387.47
461.878	27324.85
462.083	25137.62
462.289	24865.24
462.494	24629.73
462.7	23480.82
462.905	22864.38
463.111	23519.73
463.316	23978.47
463.522	23130.61
463.727	23478.77
463.932	23321.07
464.138	23077.37
464.343	23095.8
464.549	22354.43
464.754	23101.94
464.959	22843.9
465.165	22866.42
465.37	21811.72
465.575	21080.6
465.781	22174.21
465.986	22419.97
466.191	21385.74
466.397	20732.44
466.602	19911.21
466.807	20681.24
467.012	20736.54
467.218	20707.87
467.423	20630.04
467.628	20333.09
467.833	21246.48
468.038	20363.81
468.244	19956.26
