Data from USB4F104151__15__12-00-25-514.txt Node

Date: Fri Mar 14 12:00:25 EDT 2025
User: louis
Spectrometer: USB4F10415
Trigger mode: 4
Integration Time (sec): 2.000000E-2
Scans to average: 1
Electric dark correction enabled: true
Nonlinearity correction enabled: false
Boxcar width: 0
XAxis mode: Wavelengths
Number of Pixels in Spectrum: 3648
>>>>>Begin Spectral Data<<<<<
178.204	-122.88
178.424	-122.88
178.644	-122.88
178.864	-159.74
179.084	-26.62
179.304	63.49
179.524	-12.29
179.744	-53.25
179.964	88.06
180.184	-2.05
180.404	36.86
180.624	16.38
180.844	38.91
181.064	-4.1
181.283	-22.53
181.503	-86.01
181.723	-63.49
181.943	-6.14
182.163	49.15
182.383	53.25
182.602	-36.86
182.822	40.96
183.042	51.2
183.262	-10.24
183.482	6.14
183.701	-96.25
183.921	-22.53
184.141	-14.34
184.361	57.34
184.58	8.19
184.8	49.15
185.02	-12.29
185.239	65.54
185.459	-16.38
185.679	51.2
185.898	-30.72
186.118	145.41
186.338	69.63
186.557	47.1
186.777	26.62
186.997	86.01
187.216	4.1
187.436	22.53
187.655	16.38
187.875	12.29
188.095	-65.53
188.314	38.91
188.534	14.34
188.753	61.44
188.973	22.53
189.192	61.44
189.412	22.53
189.631	-10.24
189.851	20.48
190.07	69.63
190.29	57.34
190.509	-20.48
190.729	-30.72
190.948	86.01
191.168	90.11
191.387	26.62
191.607	22.53
191.826	79.87
192.045	12.29
192.265	40.96
192.484	20.48
192.704	55.3
192.923	-2.05
193.142	98.3
193.362	59.39
193.581	49.15
193.8	4.1
194.02	43.01
194.239	18.43
194.458	108.54
194.678	34.82
194.897	4.1
195.116	-4.1
195.335	32.77
195.555	45.06
195.774	8.19
195.993	20.48
196.212	22.53
196.432	49.15
196.651	-4.1
196.87	38.91
197.089	92.16
197.308	28.67
197.528	96.25
197.747	-6.14
197.966	34.82
198.185	22.53
198.404	67.58
198.623	22.53
198.842	6.14
199.062	59.39
199.281	24.58
199.5	24.58
199.719	6.14
199.938	53.25
200.157	139.26
200.376	0
200.595	28.67
200.814	63.49
201.033	61.44
201.252	22.53
201.471	79.87
201.69	65.54
201.909	61.44
202.128	-98.3
202.347	20.48
202.566	38.91
202.785	81.92
203.004	63.49
203.223	51.2
203.442	45.06
203.661	53.25
203.879	10.24
204.098	4.1
204.317	65.54
204.536	81.92
204.755	-16.38
204.974	12.29
205.193	88.06
205.411	53.25
205.63	51.2
205.849	55.3
206.068	73.73
206.287	26.62
206.505	8.19
206.724	24.58
206.943	-38.91
207.162	-36.86
207.381	32.77
207.599	81.92
207.818	-38.91
208.037	45.06
208.255	98.3
208.474	90.11
208.693	14.34
208.911	12.29
209.13	16.38
209.349	49.15
209.567	34.82
209.786	75.77
210.005	18.43
210.223	-26.62
210.442	2.05
210.661	55.3
210.879	71.68
211.098	55.3
211.316	-24.58
211.535	106.49
211.753	-20.48
211.972	16.38
212.191	24.58
212.409	12.29
212.628	-16.38
212.846	-12.29
213.065	-4.1
213.283	98.3
213.502	-10.24
213.72	38.91
213.938	12.29
214.157	45.06
214.375	43.01
214.594	63.49
214.812	14.34
215.031	71.68
215.249	10.24
215.467	-4.1
215.686	34.82
215.904	55.3
216.122	-6.14
216.341	69.63
216.559	-12.29
216.778	92.16
216.996	47.1
217.214	-8.19
217.432	77.82
217.651	22.53
217.869	26.62
218.087	24.58
218.306	6.14
218.524	77.82
218.742	-10.24
218.96	65.54
219.179	26.62
219.397	16.38
219.615	24.58
219.833	-6.14
220.051	98.3
220.27	18.43
220.488	59.39
220.706	81.92
220.924	24.58
221.142	26.62
221.36	47.1
221.578	8.19
221.796	36.86
222.015	16.38
222.233	6.14
222.451	16.38
222.669	-8.19
222.887	30.72
223.105	45.06
223.323	32.77
223.541	-2.05
223.759	6.14
223.977	38.91
224.195	110.59
224.413	114.69
224.631	36.86
224.849	10.24
225.067	98.3
225.285	-8.19
225.503	36.86
225.721	10.24
225.939	38.91
226.157	28.67
226.375	73.73
226.592	-26.62
226.81	36.86
227.028	20.48
227.246	88.06
227.464	47.1
227.682	-4.1
227.9	32.77
228.117	51.2
228.335	32.77
228.553	65.54
228.771	26.62
228.989	36.86
229.206	-53.25
229.424	96.25
229.642	22.53
229.86	30.72
230.077	16.38
230.295	45.06
230.513	-2.05
230.731	53.25
230.948	30.72
231.166	65.54
231.384	34.82
231.601	12.29
231.819	86.01
232.037	-12.29
232.254	4.1
232.472	47.1
232.689	-26.62
232.907	32.77
233.125	24.58
233.342	-10.24
233.56	-51.2
233.777	-8.19
233.995	49.15
234.213	96.25
234.43	20.48
234.648	12.29
234.865	20.48
235.083	55.3
235.3	32.77
235.518	6.14
235.735	49.15
235.953	69.63
236.17	18.43
236.388	57.34
236.605	96.25
236.822	57.34
237.04	96.25
237.257	22.53
237.475	24.58
237.692	-24.58
237.909	-8.19
238.127	69.63
238.344	88.06
238.562	63.49
238.779	30.72
238.996	32.77
239.214	55.3
239.431	77.82
239.648	-83.97
239.865	30.72
240.083	18.43
240.3	53.25
240.517	22.53
240.735	129.02
240.952	-14.34
241.169	32.77
241.386	40.96
241.603	88.06
241.821	18.43
242.038	18.43
242.255	38.91
242.472	26.62
242.689	75.77
242.907	26.62
243.124	-18.43
243.341	51.2
243.558	6.14
243.775	-49.15
243.992	-45.06
244.209	-16.38
244.426	28.67
244.643	59.39
244.86	-14.34
245.078	57.34
245.295	83.97
245.512	8.19
245.729	-6.14
245.946	14.34
246.163	20.48
246.38	-4.1
246.597	22.53
246.814	-8.19
247.031	38.91
247.248	-8.19
247.464	22.53
247.681	28.67
247.898	-10.24
248.115	0
248.332	-14.34
248.549	77.82
248.766	18.43
248.983	47.1
249.2	-4.1
249.417	63.49
249.633	26.62
249.85	4.1
250.067	26.62
250.284	-36.86
250.501	-10.24
250.717	71.68
250.934	63.49
251.151	-4.1
251.368	14.34
251.585	51.2
251.801	26.62
252.018	40.96
252.235	47.1
252.451	26.62
252.668	-6.14
252.885	47.1
253.102	57.34
253.318	-26.62
253.535	16.38
253.752	40.96
253.968	43.01
254.185	12.29
254.401	36.86
254.618	32.77
254.835	6.14
255.051	51.2
255.268	43.01
255.484	32.77
255.701	10.24
255.917	-8.19
256.134	-28.67
256.351	26.62
256.567	77.82
256.784	40.96
257	12.29
257.217	14.34
257.433	28.67
257.65	-18.43
257.866	-30.72
258.082	18.43
258.299	-2.05
258.515	83.97
258.732	43.01
258.948	24.58
259.165	-14.34
259.381	-36.86
259.597	28.67
259.814	-2.05
260.03	-59.39
260.246	16.38
260.463	112.64
260.679	30.72
260.895	4.1
261.112	65.54
261.328	-53.25
261.544	45.06
261.761	73.73
261.977	-6.14
262.193	53.25
262.409	59.39
262.626	65.54
262.842	61.44
263.058	53.25
263.274	86.01
263.49	-4.1
263.707	38.91
263.923	6.14
264.139	-40.96
264.355	57.34
264.571	0
264.787	-14.34
265.004	47.1
265.22	-12.29
265.436	34.82
265.652	67.58
265.868	36.86
266.084	6.14
266.3	4.1
266.516	24.58
266.732	69.63
266.948	-51.2
267.164	8.19
267.38	86.01
267.596	51.2
267.812	45.06
268.028	-14.34
268.244	45.06
268.46	53.25
268.676	0
268.892	-6.14
269.108	0
269.324	45.06
269.54	-24.58
269.756	38.91
269.972	-28.67
270.188	49.15
270.403	24.58
270.619	43.01
270.835	28.67
271.051	18.43
271.267	32.77
271.483	53.25
271.698	83.97
271.914	47.1
272.13	-10.24
272.346	24.58
272.562	-22.53
272.777	45.06
272.993	45.06
273.209	73.73
273.425	77.82
273.64	73.73
273.856	28.67
274.072	53.25
274.287	20.48
274.503	53.25
274.719	75.77
274.934	32.77
275.15	-32.77
275.366	59.39
275.581	14.34
275.797	20.48
276.012	-24.58
276.228	100.35
276.444	34.82
276.659	55.3
276.875	-14.34
277.09	30.72
277.306	24.58
277.521	47.1
277.737	8.19
277.952	77.82
278.168	30.72
278.383	86.01
278.599	-16.38
278.814	120.83
279.03	73.73
279.245	49.15
279.461	133.12
279.676	57.34
279.892	-10.24
280.107	0
280.322	10.24
280.538	40.96
280.753	14.34
280.969	96.25
281.184	45.06
281.399	16.38
281.615	-26.62
281.83	67.58
282.045	-28.67
282.26	63.49
282.476	18.43
282.691	67.58
282.906	-30.72
283.122	86.01
283.337	63.49
283.552	-2.05
283.767	94.21
283.983	59.39
284.198	40.96
284.413	45.06
284.628	34.82
284.843	2.05
285.058	71.68
285.274	34.82
285.489	55.3
285.704	45.06
285.919	53.25
286.134	-10.24
286.349	-4.1
286.564	18.43
286.779	96.25
286.995	67.58
287.21	-22.53
287.425	53.25
287.64	34.82
287.855	100.35
288.07	4.1
288.285	-18.43
288.5	22.53
288.715	43.01
288.93	49.15
289.145	4.1
289.36	-57.34
289.575	83.97
289.79	0
290.004	59.39
290.219	151.55
290.434	59.39
290.649	-67.58
290.864	83.97
291.079	28.67
291.294	2.05
291.509	4.1
291.724	53.25
291.938	45.06
292.153	110.59
292.368	53.25
292.583	40.96
292.798	10.24
293.012	63.49
293.227	-6.14
293.442	73.73
293.657	59.39
293.871	28.67
294.086	36.86
294.301	61.44
294.516	69.63
294.73	38.91
294.945	10.24
295.16	-40.96
295.374	34.82
295.589	81.92
295.804	14.34
296.018	-8.19
296.233	110.59
296.447	53.25
296.662	67.58
296.877	38.91
297.091	67.58
297.306	10.24
297.52	22.53
297.735	79.87
297.949	51.2
298.164	-4.1
298.378	53.25
298.593	38.91
298.807	34.82
299.022	63.49
299.236	71.68
299.451	94.21
299.665	32.77
299.88	26.62
300.094	10.24
300.309	20.48
300.523	73.73
300.737	-30.72
300.952	79.87
301.166	45.06
301.381	6.14
301.595	53.25
301.809	-51.2
302.024	6.14
302.238	14.34
302.452	77.82
302.667	43.01
302.881	28.67
303.095	18.43
303.309	38.91
303.524	14.34
303.738	47.1
303.952	-14.34
304.166	-16.38
304.381	47.1
304.595	114.69
304.809	22.53
305.023	8.19
305.237	30.72
305.452	12.29
305.666	90.11
305.88	45.06
306.094	-16.38
306.308	83.97
306.522	38.91
306.736	86.01
306.95	43.01
307.164	8.19
307.379	-61.44
307.593	145.41
307.807	20.48
308.021	30.72
308.235	71.68
308.449	4.1
308.663	20.48
308.877	96.25
309.091	32.77
309.305	26.62
309.519	-34.82
309.733	32.77
309.947	36.86
310.161	36.86
310.374	43.01
310.588	63.49
310.802	51.2
311.016	6.14
311.23	24.58
311.444	36.86
311.658	-14.34
311.872	77.82
312.085	96.25
312.299	32.77
312.513	-14.34
312.727	94.21
312.941	69.63
313.154	51.2
313.368	22.53
313.582	47.1
313.796	16.38
314.009	28.67
314.223	75.77
314.437	77.82
314.651	18.43
314.864	-30.72
315.078	28.67
315.292	45.06
315.505	57.34
315.719	43.01
315.933	47.1
316.146	-14.34
316.36	30.72
316.573	98.3
316.787	22.53
317.001	59.39
317.214	40.96
317.428	55.3
317.641	-2.05
317.855	12.29
318.068	4.1
318.282	75.77
318.495	59.39
318.709	94.21
318.922	22.53
319.136	6.14
319.349	49.15
319.563	69.63
319.776	83.97
319.99	20.48
320.203	16.38
320.417	110.59
320.63	65.54
320.843	83.97
321.057	40.96
321.27	-12.29
321.483	59.39
321.697	108.54
321.91	30.72
322.124	43.01
322.337	24.58
322.55	104.45
322.763	40.96
322.977	28.67
323.19	100.35
323.403	53.25
323.617	8.19
323.83	65.54
324.043	14.34
324.256	36.86
324.469	-2.05
324.683	79.87
324.896	83.97
325.109	34.82
325.322	34.82
325.535	53.25
325.748	98.3
325.962	6.14
326.175	43.01
326.388	43.01
326.601	102.4
326.814	53.25
327.027	36.86
327.24	137.21
327.453	22.53
327.666	12.29
327.879	73.73
328.092	63.49
328.305	86.01
328.518	65.54
328.731	4.1
328.944	77.82
329.157	-2.05
329.37	-10.24
329.583	18.43
329.796	90.11
330.009	-8.19
330.222	88.06
330.435	4.1
330.648	53.25
330.861	53.25
331.073	51.2
331.286	34.82
331.499	98.3
331.712	26.62
331.925	73.73
332.138	53.25
332.35	61.44
332.563	40.96
332.776	8.19
332.989	-38.91
333.202	34.82
333.414	77.82
333.627	120.83
333.84	79.87
334.053	51.2
334.265	47.1
334.478	51.2
334.691	32.77
334.903	53.25
335.116	40.96
335.329	47.1
335.541	38.91
335.754	90.11
335.966	6.14
336.179	-18.43
336.392	55.3
336.604	28.67
336.817	40.96
337.029	88.06
337.242	43.01
337.454	36.86
337.667	32.77
337.88	79.87
338.092	18.43
338.305	49.15
338.517	51.2
338.729	34.82
338.942	71.68
339.154	-32.77
339.367	14.34
339.579	-30.72
339.792	-2.05
340.004	90.11
340.217	12.29
340.429	100.35
340.641	-43.01
340.854	34.82
341.066	38.91
341.278	126.97
341.491	-2.05
341.703	40.96
341.915	28.67
342.128	55.3
342.34	47.1
342.552	6.14
342.764	38.91
342.977	28.67
343.189	24.58
343.401	57.34
343.613	57.34
343.826	94.21
344.038	38.91
344.25	53.25
344.462	6.14
344.674	-47.1
344.886	63.49
345.099	120.83
345.311	16.38
345.523	-6.14
345.735	-2.05
345.947	24.58
346.159	86.01
346.371	81.92
346.583	51.2
346.795	51.2
347.007	55.3
347.219	67.58
347.431	45.06
347.643	71.68
347.855	-43.01
348.067	114.69
348.279	59.39
348.491	104.45
348.703	61.44
348.915	53.25
349.127	53.25
349.339	14.34
349.551	22.53
349.763	43.01
349.975	30.72
350.187	90.11
350.399	32.77
350.61	30.72
350.822	61.44
351.034	53.25
351.246	40.96
351.458	45.06
351.669	86.01
351.881	2.05
352.093	102.4
352.305	88.06
352.517	81.92
352.728	114.69
352.94	20.48
353.152	-32.77
353.363	57.34
353.575	86.01
353.787	34.82
353.999	108.54
354.21	116.73
354.422	6.14
354.633	-12.29
354.845	6.14
355.057	-20.48
355.268	100.35
355.48	79.87
355.692	63.49
355.903	28.67
356.115	36.86
356.326	16.38
356.538	75.77
356.749	67.58
356.961	75.77
357.172	20.48
357.384	131.07
357.595	26.62
357.807	14.34
358.018	-10.24
358.23	71.68
358.441	2.05
358.653	34.82
358.864	61.44
359.075	-18.43
359.287	40.96
359.498	79.87
359.709	8.19
359.921	83.97
360.132	36.86
360.344	10.24
360.555	149.5
360.766	59.39
360.977	16.38
361.189	71.68
361.4	73.73
361.611	71.68
361.823	32.77
362.034	88.06
362.245	-6.14
362.456	83.97
362.667	40.96
362.879	24.58
363.09	14.34
363.301	63.49
363.512	14.34
363.723	57.34
363.935	24.58
364.146	106.49
364.357	112.64
364.568	18.43
364.779	61.44
364.99	96.25
365.201	-6.14
365.412	-4.1
365.623	30.72
365.834	32.77
366.045	8.19
366.256	75.77
366.467	71.68
366.678	81.92
366.889	57.34
367.1	18.43
367.311	98.3
367.522	88.06
367.733	63.49
367.944	94.21
368.155	2.05
368.366	43.01
368.577	116.73
368.788	114.69
368.999	24.58
369.209	83.97
369.42	51.2
369.631	98.3
369.842	69.63
370.053	73.73
370.264	8.19
370.474	40.96
370.685	32.77
370.896	6.14
371.107	83.97
371.317	47.1
371.528	30.72
371.739	65.54
371.95	57.34
372.16	34.82
372.371	73.73
372.582	36.86
372.792	49.15
373.003	43.01
373.214	16.38
373.424	61.44
373.635	-18.43
373.846	14.34
374.056	67.58
374.267	34.82
374.477	100.35
374.688	104.45
374.898	2.05
375.109	51.2
375.319	51.2
375.53	83.97
375.74	20.48
375.951	36.86
376.161	51.2
376.372	61.44
376.582	47.1
376.793	24.58
377.003	20.48
377.214	159.74
377.424	77.82
377.635	18.43
377.845	114.69
378.055	71.68
378.266	6.14
378.476	106.49
378.686	38.91
378.897	47.1
379.107	71.68
379.317	61.44
379.528	32.77
379.738	26.62
379.948	34.82
380.158	38.91
380.369	49.15
380.579	120.83
380.789	36.86
380.999	114.69
381.21	4.1
381.42	129.02
381.63	0
381.84	18.43
382.05	106.49
382.261	100.35
382.471	63.49
382.681	63.49
382.891	69.63
383.101	47.1
383.311	69.63
383.521	77.82
383.731	32.77
383.941	57.34
384.151	36.86
384.361	45.06
384.571	67.58
384.781	90.11
384.991	16.38
385.201	67.58
385.411	73.73
385.621	-18.43
385.831	26.62
386.041	30.72
386.251	59.39
386.461	88.06
386.671	71.68
386.881	55.3
387.091	-20.48
387.301	43.01
387.511	73.73
387.72	139.26
387.93	45.06
388.14	94.21
388.35	122.88
388.56	57.34
388.769	10.24
388.979	69.63
389.189	90.11
389.399	38.91
389.609	26.62
389.818	77.82
390.028	38.91
390.238	165.89
390.447	67.58
390.657	30.72
390.867	20.48
391.076	65.54
391.286	34.82
391.496	34.82
391.705	79.87
391.915	100.35
392.125	94.21
392.334	124.93
392.544	102.4
392.753	71.68
392.963	67.58
393.172	108.54
393.382	69.63
393.591	65.54
393.801	102.4
394.01	120.83
394.22	98.3
394.429	114.69
394.639	73.73
394.848	126.97
395.058	135.17
395.267	67.58
395.477	59.39
395.686	137.21
395.895	98.3
396.105	102.4
396.314	110.59
396.524	100.35
396.733	63.49
396.942	133.12
397.152	90.11
397.361	114.69
397.57	116.73
397.78	75.77
397.989	118.78
398.198	174.08
398.407	65.54
398.617	63.49
398.826	122.88
399.035	118.78
399.244	133.12
399.453	151.55
399.663	110.59
399.872	147.45
400.081	77.82
400.29	88.06
400.499	114.69
400.708	112.64
400.917	120.83
401.127	147.45
401.336	155.65
401.545	198.65
401.754	141.31
401.963	147.45
402.172	212.99
402.381	65.54
402.59	131.07
402.799	206.84
403.008	143.36
403.217	143.36
403.426	159.74
403.635	135.17
403.844	174.08
404.053	102.4
404.262	114.69
404.471	202.75
404.68	198.65
404.888	129.02
405.097	129.02
405.306	174.08
405.515	192.51
405.724	159.74
405.933	174.08
406.142	192.51
406.35	141.31
406.559	223.23
406.768	198.65
406.977	258.04
407.185	215.04
407.394	206.84
407.603	165.89
407.812	243.71
408.02	260.09
408.229	305.15
408.438	223.23
408.646	229.37
408.855	198.65
409.064	280.57
409.272	227.32
409.481	317.44
409.69	358.39
409.898	321.53
410.107	344.06
410.315	348.15
410.524	299
410.733	323.58
410.941	378.87
411.15	485.37
411.358	444.41
411.567	430.07
411.775	462.84
411.984	425.98
412.192	464.89
412.401	550.9
412.609	536.57
412.818	602.1
413.026	444.41
413.234	540.66
413.443	499.7
413.651	612.34
413.86	612.34
414.068	632.82
414.276	630.77
414.485	755.7
414.693	567.29
414.901	782.32
415.11	757.75
415.318	724.98
415.526	903.15
415.734	858.1
415.943	806.9
416.151	833.52
416.359	813.04
416.567	964.59
416.776	944.11
416.984	1007.6
417.192	1036.27
417.4	1054.7
417.608	1005.55
417.817	1048.56
418.025	1175.53
418.233	1196.01
418.441	1226.73
418.649	1275.88
418.857	1409
419.065	1368.04
419.273	1318.89
419.481	1400.81
419.689	1449.96
419.897	1495.02
420.105	1544.17
420.313	1533.93
420.521	1648.61
420.729	1644.52
420.937	1753.06
421.145	1804.26
421.353	1877.99
421.561	1847.27
421.769	2041.82
421.977	2041.82
422.185	2031.59
422.393	2174.94
422.601	2222.05
422.809	2326.49
423.017	2406.36
423.224	2516.95
423.432	2549.72
423.64	2596.82
423.848	2811.86
424.056	2748.37
424.263	2756.57
424.471	2938.84
424.679	2994.13
424.887	3170.26
425.094	3258.32
425.302	3164.11
425.51	3364.81
425.718	3518.41
425.925	3454.92
426.133	3676.1
426.341	3710.92
426.548	4040.64
426.756	3950.53
426.964	4048.83
427.171	4392.89
427.379	4466.62
427.586	4462.52
427.794	4493.24
428.001	4829.11
428.209	5013.43
428.417	4900.79
428.624	5466.03
428.832	5156.79
429.039	5199.79
429.247	5199.79
429.454	5701.55
429.662	6096.8
429.869	5670.83
430.076	6137.76
430.284	6018.98
430.491	6279.07
430.699	6647.71
430.906	6686.62
431.114	6674.33
431.321	7071.64
431.528	7088.02
431.736	7423.89
431.943	7772.04
432.15	7774.09
432.358	7866.25
432.565	8318.85
432.772	8247.17
432.979	8699.77
433.187	8734.59
433.394	8873.85
433.601	9322.35
433.808	9484.14
434.016	9523.05
434.223	9787.24
434.43	10356.58
434.637	10131.3
434.844	10936.15
435.052	10661.73
435.259	10915.67
435.466	10897.24
435.673	10850.14
435.88	11489.1
436.087	12379.97
436.294	12218.18
436.501	11927.37
436.708	12269.38
436.915	12721.98
437.122	13342.52
437.329	13367.09
437.537	13725.49
437.743	14006.06
437.95	13696.81
438.157	14681.89
438.364	14995.23
438.571	14931.74
438.778	14866.21
438.985	16291.59
439.192	15767.31
439.399	16060.17
439.606	15996.68
439.813	16822.02
440.02	17886.96
440.227	17499.89
440.433	17346.3
440.64	17915.63
440.847	17944.3
441.054	18380.52
441.261	19277.53
441.467	19060.45
441.674	19670.74
441.881	20557.51
442.088	20139.72
442.294	20129.48
442.501	20551.37
442.708	21212.86
442.914	21874.35
443.121	22912.67
443.328	22466.22
443.534	23850.64
443.741	23207.58
443.948	22802.08
444.154	24649.35
444.361	24274.57
444.568	24546.95
444.774	24663.69
444.981	24807.05
445.187	25687.67
445.394	26525.29
445.6	26392.17
445.807	28866.12
446.013	27438.69
446.22	28487.25
446.426	29308.48
446.633	29355.58
446.839	30340.66
447.046	29349.44
447.252	30731.82
447.459	30840.36
447.665	30819.88
447.871	32239.12
448.078	33678.85
448.284	32009.75
448.491	32564.75
448.697	34006.52
448.903	34729.45
449.11	34231.8
449.316	33936.89
449.522	34436.59
449.728	35542.5
449.935	35694.05
450.141	35728.86
450.347	36220.38
450.553	35405.28
450.76	35843.55
450.966	37141.96
451.172	36668.88
451.378	37443.01
451.584	36720.08
451.791	37574.08
451.997	37330.37
452.203	37660.1
452.409	38032.83
452.615	37490.12
452.821	36107.74
453.027	35544.55
453.233	37705.15
453.44	36402.64
453.646	36609.49
453.852	36693.46
454.058	36849.1
454.264	35716.57
454.47	36947.4
454.676	35773.92
454.882	37137.87
455.088	33895.93
455.294	34260.47
455.5	34749.93
455.705	34852.33
455.911	33537.54
456.117	32812.56
456.323	32802.32
456.529	30832.17
456.735	32017.94
456.941	31243.81
457.147	30649.9
457.352	29828.66
457.558	29208.13
457.764	29589.05
457.97	28894.79
458.176	27903.57
458.381	28112.47
458.587	26506.86
458.793	26887.78
458.999	25351.81
459.204	27231.84
459.41	26099.31
459.616	24688.26
459.821	24718.98
460.027	24596.1
460.233	24200.85
460.438	22939.3
460.644	23039.65
460.85	21659.32
461.055	21687.99
461.261	21761.72
461.466	20082.38
461.672	19287.77
461.878	20612.81
462.083	19453.66
462.289	19232.47
462.494	18925.28
462.7	17925.87
462.905	17731.31
463.111	18226.92
463.316	18165.48
463.522	17940.21
463.727	17712.88
463.932	17743.6
464.138	17706.74
464.343	17903.34
464.549	17159.93
464.754	17639.15
464.959	17389.3
465.165	17297.14
465.37	16703.23
465.575	16295.69
465.781	16862.97
465.986	17231.61
466.191	16568.07
466.397	16314.12
466.602	15542.03
466.807	15851.28
467.012	15865.61
467.218	15943.44
467.423	15716.11
467.628	15802.13
467.833	16580.35
468.038	15679.25
