Data from USB4F104151__97__12-02-40-463.txt Node

Date: Fri Mar 14 12:02:40 EDT 2025
User: louis
Spectrometer: USB4F10415
Trigger mode: 4
Integration Time (sec): 2.000000E-2
Scans to average: 1
Electric dark correction enabled: true
Nonlinearity correction enabled: false
Boxcar width: 0
XAxis mode: Wavelengths
Number of Pixels in Spectrum: 3648
>>>>>Begin Spectral Data<<<<<
178.204	-59.73
178.424	-59.73
178.644	-59.73
178.864	-53.59
179.084	-100.69
179.304	9.9
179.524	1.71
179.744	28.33
179.964	5.8
180.184	20.14
180.404	-37.2
180.624	20.14
180.844	-39.25
181.064	-22.87
181.283	40.62
181.503	-0.34
181.723	-26.96
181.943	-37.2
182.163	24.23
182.383	-16.73
182.602	114.34
182.822	71.34
183.042	24.23
183.262	11.95
183.482	20.14
183.701	-33.11
183.921	-2.39
184.141	-57.68
184.361	69.29
184.58	24.23
184.8	-43.35
185.02	-29.01
185.239	91.82
185.459	-6.49
185.679	-0.34
185.898	87.72
186.118	102.06
186.338	5.8
186.557	34.47
186.777	-6.49
186.997	3.75
187.216	-43.35
187.436	50.86
187.655	108.2
187.875	-4.44
188.095	-4.44
188.314	30.38
188.534	24.23
188.753	-26.96
188.973	-35.16
189.192	-2.39
189.412	81.58
189.631	38.57
189.851	40.62
190.07	75.43
190.29	34.47
190.509	7.85
190.729	36.52
190.948	61.1
191.168	22.19
191.387	71.34
191.607	11.95
191.826	85.67
192.045	-18.77
192.265	18.09
192.484	38.57
192.704	44.71
192.923	26.28
193.142	85.67
193.362	67.24
193.581	79.53
193.8	-14.68
194.02	79.53
194.239	24.23
194.458	42.67
194.678	20.14
194.897	57
195.116	-2.39
195.335	42.67
195.555	44.71
195.774	-31.06
195.993	30.38
196.212	67.24
196.432	26.28
196.651	73.39
196.87	-0.34
197.089	93.87
197.308	71.34
197.528	42.67
197.747	-10.58
197.966	11.95
198.185	108.2
198.404	73.39
198.623	-16.73
198.842	44.71
199.062	1.71
199.281	30.38
199.5	-18.77
199.719	32.43
199.938	20.14
200.157	38.57
200.376	26.28
200.595	71.34
200.814	-6.49
201.033	61.1
201.252	-8.53
201.471	11.95
201.69	-8.53
201.909	30.38
202.128	44.71
202.347	-37.2
202.566	52.91
202.785	16.04
203.004	30.38
203.223	79.53
203.442	9.9
203.661	34.47
203.879	18.09
204.098	40.62
204.317	-29.01
204.536	11.95
204.755	24.23
204.974	16.04
205.193	30.38
205.411	-31.06
205.63	-10.58
205.849	-29.01
206.068	-59.73
206.287	-22.87
206.505	40.62
206.724	1.71
206.943	-22.87
207.162	-14.68
207.381	3.75
207.599	22.19
207.818	-2.39
208.037	26.28
208.255	-61.78
208.474	34.47
208.693	11.95
208.911	48.81
209.13	18.09
209.349	52.91
209.567	18.09
209.786	-31.06
210.005	42.67
210.223	24.23
210.442	-45.4
210.661	54.95
210.879	-6.49
211.098	-0.34
211.316	48.81
211.535	13.99
211.753	57
211.972	5.8
212.191	11.95
212.409	24.23
212.628	-20.82
212.846	46.76
213.065	20.14
213.283	91.82
213.502	-2.39
213.72	48.81
213.938	20.14
214.157	18.09
214.375	-4.44
214.594	26.28
214.812	63.15
215.031	22.19
215.249	7.85
215.467	-14.68
215.686	3.75
215.904	95.91
216.122	42.67
216.341	54.95
216.559	95.91
216.778	61.1
216.996	24.23
217.214	63.15
217.432	-0.34
217.651	-24.92
217.869	-6.49
218.087	-45.4
218.306	-82.26
218.524	81.58
218.742	65.19
218.96	-14.68
219.179	11.95
219.397	48.81
219.615	-0.34
219.833	65.19
220.051	-51.54
220.27	5.8
220.488	20.14
220.706	46.76
220.924	30.38
221.142	38.57
221.36	-43.35
221.578	71.34
221.796	-6.49
222.015	81.58
222.233	-24.92
222.451	69.29
222.669	-20.82
222.887	22.19
223.105	-51.54
223.323	30.38
223.541	32.43
223.759	63.15
223.977	3.75
224.195	13.99
224.413	57
224.631	44.71
224.849	1.71
225.067	89.77
225.285	32.43
225.503	100.01
225.721	-65.88
225.939	1.71
226.157	9.9
226.375	124.58
226.592	-33.11
226.81	13.99
227.028	93.87
227.246	30.38
227.464	71.34
227.682	34.47
227.9	22.19
228.117	20.14
228.335	-4.44
228.553	-8.53
228.771	24.23
228.989	61.1
229.206	11.95
229.424	-22.87
229.642	46.76
229.86	11.95
230.077	67.24
230.295	20.14
230.513	34.47
230.731	50.86
230.948	3.75
231.166	54.95
231.384	-16.73
231.601	26.28
231.819	79.53
232.037	-22.87
232.254	24.23
232.472	32.43
232.689	28.33
232.907	69.29
233.125	-14.68
233.342	40.62
233.56	24.23
233.777	54.95
233.995	24.23
234.213	11.95
234.43	100.01
234.648	-31.06
234.865	57
235.083	59.05
235.3	83.63
235.518	9.9
235.735	34.47
235.953	5.8
236.17	7.85
236.388	-22.87
236.605	18.09
236.822	61.1
237.04	-47.44
237.257	-72.02
237.475	-33.11
237.692	38.57
237.909	-2.39
238.127	5.8
238.344	16.04
238.562	-31.06
238.779	32.43
238.996	18.09
239.214	-43.35
239.431	97.96
239.648	-10.58
239.865	46.76
240.083	54.95
240.3	54.95
240.517	-31.06
240.735	-6.49
240.952	18.09
241.169	57
241.386	38.57
241.603	34.47
241.821	36.52
242.038	40.62
242.255	34.47
242.472	34.47
242.689	65.19
242.907	118.44
243.124	-6.49
243.341	-14.68
243.558	-37.2
243.775	81.58
243.992	40.62
244.209	85.67
244.426	52.91
244.643	-26.96
244.86	32.43
245.078	50.86
245.295	1.71
245.512	-57.68
245.729	-26.96
245.946	-8.53
246.163	-18.77
246.38	36.52
246.597	-18.77
246.814	28.33
247.031	100.01
247.248	48.81
247.464	59.05
247.681	59.05
247.898	38.57
248.115	63.15
248.332	-14.68
248.549	114.34
248.766	93.87
248.983	85.67
249.2	-2.39
249.417	100.01
249.633	-31.06
249.85	-8.53
250.067	-8.53
250.284	11.95
250.501	73.39
250.717	100.01
250.934	22.19
251.151	81.58
251.368	24.23
251.585	-31.06
251.801	40.62
252.018	40.62
252.235	61.1
252.451	3.75
252.668	-4.44
252.885	71.34
253.102	26.28
253.318	24.23
253.535	-0.34
253.752	87.72
253.968	16.04
254.185	5.8
254.401	50.86
254.618	-33.11
254.835	9.9
255.051	69.29
255.268	57
255.484	28.33
255.701	26.28
255.917	59.05
256.134	93.87
256.351	26.28
256.567	-4.44
256.784	93.87
257	67.24
257.217	28.33
257.433	65.19
257.65	5.8
257.866	16.04
258.082	5.8
258.299	30.38
258.515	-2.39
258.732	54.95
258.948	-4.44
259.165	57
259.381	-2.39
259.597	-37.2
259.814	11.95
260.03	-4.44
260.246	-2.39
260.463	-8.53
260.679	77.48
260.895	24.23
261.112	50.86
261.328	5.8
261.544	16.04
261.761	63.15
261.977	-29.01
262.193	-0.34
262.409	52.91
262.626	114.34
262.842	44.71
263.058	-31.06
263.274	61.1
263.49	-12.63
263.707	81.58
263.923	38.57
264.139	69.29
264.355	81.58
264.571	63.15
264.787	79.53
265.004	-4.44
265.22	-43.35
265.436	9.9
265.652	59.05
265.868	9.9
266.084	54.95
266.3	24.23
266.516	16.04
266.732	9.9
266.948	42.67
267.164	38.57
267.38	42.67
267.596	50.86
267.812	77.48
268.028	11.95
268.244	-20.82
268.46	36.52
268.676	5.8
268.892	28.33
269.108	13.99
269.324	-12.63
269.54	61.1
269.756	46.76
269.972	38.57
270.188	9.9
270.403	36.52
270.619	95.91
270.835	-16.73
271.051	18.09
271.267	63.15
271.483	40.62
271.698	-12.63
271.914	63.15
272.13	-22.87
272.346	79.53
272.562	-39.25
272.777	65.19
272.993	63.15
273.209	18.09
273.425	38.57
273.64	42.67
273.856	40.62
274.072	-22.87
274.287	1.71
274.503	30.38
274.719	54.95
274.934	-6.49
275.15	-51.54
275.366	59.05
275.581	59.05
275.797	-8.53
276.012	46.76
276.228	-24.92
276.444	93.87
276.659	36.52
276.875	59.05
277.09	5.8
277.306	59.05
277.521	16.04
277.737	30.38
277.952	110.25
278.168	-10.58
278.383	22.19
278.599	7.85
278.814	46.76
279.03	65.19
279.245	18.09
279.461	87.72
279.676	67.24
279.892	11.95
280.107	9.9
280.322	85.67
280.538	63.15
280.753	48.81
280.969	13.99
281.184	-8.53
281.399	42.67
281.615	59.05
281.83	87.72
282.045	22.19
282.26	81.58
282.476	5.8
282.691	50.86
282.906	79.53
283.122	57
283.337	-22.87
283.552	57
283.767	20.14
283.983	106.15
284.198	32.43
284.413	118.44
284.628	16.04
284.843	71.34
285.058	91.82
285.274	5.8
285.489	22.19
285.704	108.2
285.919	34.47
286.134	140.97
286.349	91.82
286.564	-37.2
286.779	54.95
286.995	7.85
287.21	63.15
287.425	-37.2
287.64	-4.44
287.855	36.52
288.07	-26.96
288.285	28.33
288.5	46.76
288.715	95.91
288.93	71.34
289.145	36.52
289.36	42.67
289.575	-4.44
289.79	85.67
290.004	3.75
290.219	-12.63
290.434	3.75
290.649	3.75
290.864	97.96
291.079	57
291.294	30.38
291.509	-4.44
291.724	18.09
291.938	38.57
292.153	100.01
292.368	-8.53
292.583	26.28
292.798	20.14
293.012	52.91
293.227	-18.77
293.442	1.71
293.657	1.71
293.871	48.81
294.086	-4.44
294.301	28.33
294.516	67.24
294.73	3.75
294.945	-74.07
295.16	3.75
295.374	100.01
295.589	69.29
295.804	79.53
296.018	44.71
296.233	69.29
296.447	97.96
296.662	22.19
296.877	46.76
297.091	-24.92
297.306	-2.39
297.52	75.43
297.735	11.95
297.949	67.24
298.164	3.75
298.378	34.47
298.593	30.38
298.807	20.14
299.022	54.95
299.236	65.19
299.451	20.14
299.665	7.85
299.88	24.23
300.094	59.05
300.309	83.63
300.523	61.1
300.737	9.9
300.952	40.62
301.166	91.82
301.381	30.38
301.595	65.19
301.809	93.87
302.024	-18.77
302.238	18.09
302.452	85.67
302.667	-14.68
302.881	104.11
303.095	-4.44
303.309	-12.63
303.524	-18.77
303.738	38.57
303.952	83.63
304.166	79.53
304.381	36.52
304.595	36.52
304.809	-16.73
305.023	9.9
305.237	28.33
305.452	57
305.666	3.75
305.88	38.57
306.094	-16.73
306.308	77.48
306.522	130.73
306.736	1.71
306.95	44.71
307.164	-18.77
307.379	69.29
307.593	3.75
307.807	102.06
308.021	-18.77
308.235	-26.96
308.449	52.91
308.663	-6.49
308.877	22.19
309.091	30.38
309.305	77.48
309.519	-18.77
309.733	20.14
309.947	-76.12
310.161	57
310.374	52.91
310.588	83.63
310.802	11.95
311.016	22.19
311.23	77.48
311.444	-12.63
311.658	20.14
311.872	65.19
312.085	52.91
312.299	44.71
312.513	42.67
312.727	38.57
312.941	38.57
313.154	57
313.368	95.91
313.582	28.33
313.796	52.91
314.009	28.33
314.223	9.9
314.437	108.2
314.651	-18.77
314.864	65.19
315.078	28.33
315.292	18.09
315.505	65.19
315.719	-10.58
315.933	59.05
316.146	5.8
316.36	-35.16
316.573	102.06
316.787	85.67
317.001	102.06
317.214	40.62
317.428	85.67
317.641	30.38
317.855	18.09
318.068	13.99
318.282	-69.97
318.495	57
318.709	69.29
318.922	5.8
319.136	95.91
319.349	100.01
319.563	34.47
319.776	91.82
319.99	-29.01
320.203	16.04
320.417	73.39
320.63	28.33
320.843	100.01
321.057	30.38
321.27	30.38
321.483	-0.34
321.697	18.09
321.91	-29.01
322.124	81.58
322.337	67.24
322.55	11.95
322.763	52.91
322.977	52.91
323.19	-18.77
323.403	-10.58
323.617	46.76
323.83	13.99
324.043	65.19
324.256	38.57
324.469	11.95
324.683	30.38
324.896	18.09
325.109	48.81
325.322	-41.3
325.535	-8.53
325.748	59.05
325.962	-41.3
326.175	46.76
326.388	67.24
326.601	-2.39
326.814	89.77
327.027	3.75
327.24	95.91
327.453	-4.44
327.666	85.67
327.879	57
328.092	28.33
328.305	36.52
328.518	106.15
328.731	18.09
328.944	44.71
329.157	20.14
329.37	32.43
329.583	87.72
329.796	69.29
330.009	-6.49
330.222	77.48
330.435	52.91
330.648	87.72
330.861	36.52
331.073	28.33
331.286	30.38
331.499	36.52
331.712	30.38
331.925	87.72
332.138	18.09
332.35	34.47
332.563	61.1
332.776	5.8
332.989	13.99
333.202	71.34
333.414	24.23
333.627	-2.39
333.84	79.53
334.053	44.71
334.265	30.38
334.478	-18.77
334.691	-29.01
334.903	16.04
335.116	9.9
335.329	-35.16
335.541	36.52
335.754	124.58
335.966	69.29
336.179	69.29
336.392	-20.82
336.604	95.91
336.817	9.9
337.029	3.75
337.242	67.24
337.454	11.95
337.667	122.54
337.88	59.05
338.092	165.54
338.305	57
338.517	63.15
338.729	63.15
338.942	110.25
339.154	30.38
339.367	-24.92
339.579	73.39
339.792	-51.54
340.004	63.15
340.217	5.8
340.429	-12.63
340.641	-26.96
340.854	22.19
341.066	-14.68
341.278	69.29
341.491	118.44
341.703	75.43
341.915	89.77
342.128	46.76
342.34	54.95
342.552	108.2
342.764	65.19
342.977	63.15
343.189	79.53
343.401	69.29
343.613	38.57
343.826	112.3
344.038	65.19
344.25	71.34
344.462	-43.35
344.674	32.43
344.886	34.47
345.099	77.48
345.311	24.23
345.523	30.38
345.735	52.91
345.947	-20.82
346.159	57
346.371	81.58
346.583	34.47
346.795	93.87
347.007	3.75
347.219	9.9
347.431	40.62
347.643	44.71
347.855	50.86
348.067	52.91
348.279	11.95
348.491	54.95
348.703	32.43
348.915	-8.53
349.127	-20.82
349.339	65.19
349.551	1.71
349.763	63.15
349.975	38.57
350.187	34.47
350.399	89.77
350.61	-14.68
350.822	30.38
351.034	40.62
351.246	91.82
351.458	61.1
351.669	5.8
351.881	85.67
352.093	65.19
352.305	46.76
352.517	67.24
352.728	140.97
352.94	36.52
353.152	44.71
353.363	73.39
353.575	85.67
353.787	65.19
353.999	26.28
354.21	42.67
354.422	-10.58
354.633	16.04
354.845	38.57
355.057	-16.73
355.268	22.19
355.48	32.43
355.692	-41.3
355.903	40.62
356.115	38.57
356.326	-43.35
356.538	18.09
356.749	20.14
356.961	73.39
357.172	28.33
357.384	52.91
357.595	102.06
357.807	32.43
358.018	18.09
358.23	40.62
358.441	32.43
358.653	48.81
358.864	-18.77
359.075	136.87
359.287	11.95
359.498	118.44
359.709	24.23
359.921	71.34
360.132	52.91
360.344	3.75
360.555	24.23
360.766	3.75
360.977	18.09
361.189	65.19
361.4	16.04
361.611	140.97
361.823	145.06
362.034	52.91
362.245	32.43
362.456	34.47
362.667	67.24
362.879	57
363.09	22.19
363.301	50.86
363.512	149.16
363.723	7.85
363.935	91.82
364.146	36.52
364.357	71.34
364.568	136.87
364.779	50.86
364.99	116.39
365.201	18.09
365.412	91.82
365.623	18.09
365.834	-0.34
366.045	11.95
366.256	100.01
366.467	11.95
366.678	30.38
366.889	44.71
367.1	-24.92
367.311	87.72
367.522	28.33
367.733	11.95
367.944	110.25
368.155	67.24
368.366	38.57
368.577	130.73
368.788	116.39
368.999	75.43
369.209	50.86
369.42	38.57
369.631	93.87
369.842	38.57
370.053	63.15
370.264	71.34
370.474	-47.44
370.685	30.38
370.896	95.91
371.107	32.43
371.317	34.47
371.528	59.05
371.739	40.62
371.95	116.39
372.16	7.85
372.371	11.95
372.582	44.71
372.792	57
373.003	85.67
373.214	71.34
373.424	110.25
373.635	11.95
373.846	67.24
374.056	-22.87
374.267	97.96
374.477	79.53
374.688	48.81
374.898	73.39
375.109	11.95
375.319	102.06
375.53	42.67
375.74	34.47
375.951	9.9
376.161	-12.63
376.372	11.95
376.582	130.73
376.793	71.34
377.003	40.62
377.214	5.8
377.424	69.29
377.635	9.9
377.845	106.15
378.055	100.01
378.266	97.96
378.476	24.23
378.686	73.39
378.897	108.2
379.107	97.96
379.317	104.11
379.528	-14.68
379.738	54.95
379.948	36.52
380.158	38.57
380.369	79.53
380.579	28.33
380.789	3.75
380.999	77.48
381.21	30.38
381.42	106.15
381.63	38.57
381.84	30.38
382.05	36.52
382.261	87.72
382.471	87.72
382.681	3.75
382.891	-8.53
383.101	81.58
383.311	16.04
383.521	3.75
383.731	100.01
383.941	75.43
384.151	48.81
384.361	38.57
384.571	-16.73
384.781	18.09
384.991	130.73
385.201	95.91
385.411	89.77
385.621	50.86
385.831	54.95
386.041	22.19
386.251	75.43
386.461	93.87
386.671	122.54
386.881	77.48
387.091	44.71
387.301	-8.53
387.511	-53.59
387.72	54.95
387.93	22.19
388.14	16.04
388.35	52.91
388.56	108.2
388.769	89.77
388.979	77.48
389.189	-22.87
389.399	91.82
389.609	46.76
389.818	42.67
390.028	40.62
390.238	24.23
390.447	59.05
390.657	138.92
390.867	-2.39
391.076	20.14
391.286	93.87
391.496	61.1
391.705	38.57
391.915	71.34
392.125	118.44
392.334	130.73
392.544	124.58
392.753	63.15
392.963	59.05
393.172	36.52
393.382	22.19
393.591	165.54
393.801	54.95
394.01	79.53
394.22	79.53
394.429	63.15
394.639	69.29
394.848	71.34
395.058	71.34
395.267	59.05
395.477	93.87
395.686	32.43
395.895	149.16
396.105	116.39
396.314	57
396.524	124.58
396.733	61.1
396.942	128.68
397.152	132.78
397.361	163.5
397.57	50.86
397.78	91.82
397.989	108.2
398.198	128.68
398.407	22.19
398.617	136.87
398.826	126.63
399.035	102.06
399.244	136.87
399.453	61.1
399.663	128.68
399.872	95.91
400.081	97.96
400.29	91.82
400.499	114.34
400.708	93.87
400.917	112.3
401.127	59.05
401.336	77.48
401.545	169.64
401.754	196.26
401.963	83.63
402.172	102.06
402.381	1.71
402.59	91.82
402.799	91.82
403.008	128.68
403.217	161.45
403.426	165.54
403.635	79.53
403.844	95.91
404.053	179.88
404.262	124.58
404.471	229.03
404.68	61.1
404.888	71.34
405.097	91.82
405.306	169.64
405.515	159.4
405.724	140.97
405.933	233.13
406.142	157.35
406.35	200.36
406.559	204.46
406.768	138.92
406.977	247.46
407.185	163.5
407.394	159.4
407.603	243.37
407.812	204.46
408.02	179.88
408.229	222.89
408.438	226.98
408.646	188.07
408.855	257.7
409.064	251.56
409.272	257.7
409.481	151.21
409.69	257.7
409.898	235.18
410.107	247.46
410.315	356.01
410.524	253.61
410.733	341.67
410.941	392.87
411.15	319.14
411.358	339.62
411.567	388.77
411.775	392.87
411.984	378.53
412.192	431.78
412.401	415.4
412.609	439.97
412.818	482.98
413.026	489.12
413.234	407.2
413.443	568.99
413.651	562.85
413.86	497.32
414.068	587.43
414.276	607.91
414.485	571.04
414.693	556.71
414.901	659.1
415.11	667.3
415.318	593.57
415.526	716.45
415.734	714.4
415.943	724.64
416.151	765.6
416.359	788.13
416.567	751.26
416.776	863.9
416.984	827.04
417.192	888.48
417.4	968.35
417.608	800.41
417.817	935.58
418.025	1062.55
418.233	1070.75
418.441	1070.75
418.649	1128.09
418.857	1160.86
419.065	1205.91
419.273	1160.86
419.481	1253.02
419.689	1265.3
419.897	1345.17
420.105	1365.65
420.313	1386.13
420.521	1533.59
420.729	1455.76
420.937	1613.46
421.145	1611.41
421.353	1631.89
421.561	1789.58
421.769	1922.7
421.977	1875.6
422.185	1908.37
422.393	1947.28
422.601	2158.22
422.809	2178.7
423.017	2162.31
423.224	2350.73
423.432	2324.1
423.64	2324.1
423.848	2625.15
424.056	2473.6
424.263	2616.96
424.471	2641.54
424.679	2680.45
424.887	2827.9
425.094	2918.01
425.302	2963.07
425.51	3118.72
425.718	3139.19
425.925	3255.93
426.133	3331.7
426.341	3378.81
426.548	3673.71
426.756	3659.38
426.964	3620.47
427.171	3962.48
427.379	4064.88
427.586	4058.73
427.794	4130.41
428.001	4306.54
428.209	4597.35
428.417	4464.23
428.624	4871.78
428.832	4812.39
429.039	4767.33
429.247	4800.1
429.454	5199.45
429.662	5766.74
429.869	5379.67
430.076	5578.33
430.284	5498.45
430.491	5789.27
430.699	6121.04
430.906	5951.06
431.114	6067.79
431.321	6219.34
431.528	6352.46
431.736	6880.83
431.943	7138.88
432.15	6923.84
432.358	7040.58
432.565	7601.72
432.772	7480.89
432.979	7755.32
433.187	7917.11
433.394	8027.7
433.601	8306.22
433.808	8406.57
434.016	8343.08
434.223	8822.31
434.43	9340.44
434.637	9201.18
434.844	9834
435.052	9909.78
435.259	9870.87
435.466	9997.84
435.673	9641.5
435.88	10610.18
436.087	10905.09
436.294	10821.13
436.501	10868.23
436.708	11101.7
436.915	11365.89
437.122	11988.47
437.329	11783.67
437.537	12258.8
437.743	12520.94
437.95	12572.14
438.157	12862.95
438.364	13460.96
438.571	13460.96
438.778	13393.37
438.985	14679.5
439.192	14161.36
439.399	14630.35
439.606	14339.54
439.813	14894.54
440.02	15855.03
440.227	15656.38
440.433	15482.3
440.64	16123.32
440.847	16096.69
441.054	16399.79
441.261	17386.91
441.467	17132.97
441.674	17692.06
441.881	18027.93
442.088	17909.15
442.294	17997.21
442.501	18378.13
442.708	18802.06
442.914	19473.79
443.121	20528.5
443.328	19879.29
443.534	21179.75
443.741	20698.48
443.948	20432.24
444.154	21818.72
444.361	21994.84
444.568	21923.16
444.774	21953.88
444.981	22072.67
445.187	22861.13
445.394	23471.43
445.6	23512.39
445.807	25693.47
446.013	24495.41
446.22	25054.51
446.426	26162.46
446.633	26219.8
446.839	26967.31
447.046	25824.54
447.252	27518.21
447.459	27421.96
447.665	27323.66
447.871	28626.17
448.078	29828.32
448.284	28499.19
448.491	29267.18
448.697	30319.84
448.903	31048.91
449.11	31036.63
449.316	30129.37
449.522	30868.69
449.728	31999.17
449.935	32261.31
450.141	31573.19
450.347	32918.71
450.553	31745.22
450.76	32070.85
450.966	33324.21
451.172	32629.94
451.378	33238.19
451.584	33246.38
451.791	33758.38
451.997	33909.93
452.203	34198.69
452.409	34368.67
452.615	34073.76
452.821	32298.17
453.027	32310.46
453.233	33782.95
453.44	32515.26
453.646	33103.03
453.852	33365.17
454.058	33369.26
454.264	32386.24
454.47	33252.53
454.676	32412.86
454.882	33582.25
455.088	30612.7
455.294	31360.2
455.5	31579.34
455.705	31970.5
455.911	30592.22
456.117	29961.44
456.323	29832.42
456.529	27835.65
456.735	29187.31
456.941	28529.91
457.147	27684.1
457.352	26903.82
457.558	26983.69
457.764	26535.19
457.97	26084.64
458.176	25842.98
458.381	25687.33
458.587	24458.55
458.793	24274.23
458.999	23348.55
459.204	24999.21
459.41	24067.39
459.616	22801.74
459.821	22777.17
460.027	22418.77
460.233	22123.87
460.438	21024.11
460.644	21325.16
460.85	20186.49
461.055	19793.28
461.261	19643.77
461.466	18625.93
461.672	17835.42
461.878	19129.73
462.083	17925.53
462.289	17628.57
462.494	17239.46
462.7	16584.11
462.905	16385.46
463.111	16872.87
463.316	16772.52
463.522	16217.52
463.727	16450.99
463.932	16330.16
464.138	16072.12
464.343	16008.63
464.549	15668.67
464.754	16125.36
464.959	16031.16
465.165	15957.43
465.37	15406.53
465.575	15044.04
465.781	15549.89
465.986	15582.65
466.191	15177.16
466.397	14761.42
466.602	14061.01
466.807	14636.49
467.012	14724.55
467.218	14331.34
467.423	14319.06
467.628	14595.53
467.833	14788.04
468.038	14319.06
468.244	14202.32
