Data from USB4F104151__95__12-02-36-763.txt Node

Date: Fri Mar 14 12:02:36 EDT 2025
User: louis
Spectrometer: USB4F10415
Trigger mode: 4
Integration Time (sec): 2.000000E-2
Scans to average: 1
Electric dark correction enabled: true
Nonlinearity correction enabled: false
Boxcar width: 0
XAxis mode: Wavelengths
Number of Pixels in Spectrum: 3648
>>>>>Begin Spectral Data<<<<<
178.204	-76.46
178.424	-76.46
178.644	-76.46
178.864	-76.46
179.084	-107.18
179.304	3.41
179.524	3.41
179.744	50.52
179.964	-27.31
180.184	19.8
180.404	58.71
180.624	-23.21
180.844	77.14
181.064	-51.88
181.283	-21.16
181.503	-68.27
181.723	-21.16
181.943	3.41
182.163	25.94
182.383	-15.02
182.602	40.28
182.822	27.99
183.042	23.89
183.262	-70.31
183.482	-0.68
183.701	9.56
183.921	38.23
184.141	-23.21
184.361	-4.78
184.58	38.23
184.8	34.13
185.02	-19.11
185.239	48.47
185.459	15.7
185.679	40.28
185.898	34.13
186.118	30.04
186.338	-98.99
186.557	68.95
186.777	73.04
186.997	62.8
187.216	36.18
187.436	58.71
187.655	9.56
187.875	25.94
188.095	-4.78
188.314	13.65
188.534	77.14
188.753	13.65
188.973	42.32
189.192	27.99
189.412	15.7
189.631	-17.07
189.851	-2.73
190.07	54.61
190.29	-17.07
190.509	30.04
190.729	-15.02
190.948	19.8
191.168	32.08
191.387	-21.16
191.607	-29.35
191.826	56.66
192.045	27.99
192.265	21.84
192.484	3.41
192.704	-21.16
192.923	-6.83
193.142	13.65
193.362	23.89
193.581	-25.26
193.8	54.61
194.02	27.99
194.239	-10.92
194.458	56.66
194.678	-6.83
194.897	36.18
195.116	30.04
195.335	19.8
195.555	-4.78
195.774	60.76
195.993	50.52
196.212	-21.16
196.432	-33.45
196.651	60.76
196.87	-55.98
197.089	36.18
197.308	50.52
197.528	75.09
197.747	-10.92
197.966	-12.97
198.185	97.62
198.404	38.23
198.623	1.37
198.842	46.42
199.062	23.89
199.281	1.37
199.5	7.51
199.719	27.99
199.938	40.28
200.157	101.72
200.376	38.23
200.595	44.37
200.814	21.84
201.033	68.95
201.252	46.42
201.471	25.94
201.69	-43.69
201.909	25.94
202.128	9.56
202.347	42.32
202.566	36.18
202.785	-31.4
203.004	-19.11
203.223	75.09
203.442	30.04
203.661	1.37
203.879	1.37
204.098	79.19
204.317	-29.35
204.536	1.37
204.755	-41.64
204.974	9.56
205.193	52.56
205.411	36.18
205.63	-29.35
205.849	-29.35
206.068	44.37
206.287	-10.92
206.505	13.65
206.724	-35.5
206.943	-2.73
207.162	21.84
207.381	54.61
207.599	34.13
207.818	-72.36
208.037	48.47
208.255	30.04
208.474	-25.26
208.693	77.14
208.911	60.76
209.13	-60.07
209.349	13.65
209.567	5.46
209.786	19.8
210.005	1.37
210.223	32.08
210.442	-2.73
210.661	58.71
210.879	11.61
211.098	19.8
211.316	7.51
211.535	11.61
211.753	-4.78
211.972	25.94
212.191	-35.5
212.409	71
212.628	-25.26
212.846	-62.12
213.065	54.61
213.283	58.71
213.502	114
213.72	-39.59
213.938	-15.02
214.157	64.85
214.375	-6.83
214.594	17.75
214.812	25.94
215.031	-19.11
215.249	-29.35
215.467	38.23
215.686	13.65
215.904	99.67
216.122	5.46
216.341	-4.78
216.559	93.52
216.778	-6.83
216.996	11.61
217.214	36.18
217.432	-17.07
217.651	36.18
217.869	71
218.087	11.61
218.306	81.24
218.524	17.75
218.742	-25.26
218.96	5.46
219.179	-6.83
219.397	9.56
219.615	60.76
219.833	71
220.051	7.51
220.27	83.28
220.488	7.51
220.706	21.84
220.924	-37.55
221.142	-39.59
221.36	9.56
221.578	3.41
221.796	-49.83
222.015	-29.35
222.233	62.8
222.451	91.48
222.669	-21.16
222.887	-51.88
223.105	17.75
223.323	-6.83
223.541	-19.11
223.759	25.94
223.977	-12.97
224.195	36.18
224.413	114
224.631	27.99
224.849	-23.21
225.067	25.94
225.285	15.7
225.503	-33.45
225.721	11.61
225.939	66.9
226.157	-29.35
226.375	101.72
226.592	-0.68
226.81	9.56
227.028	77.14
227.246	99.67
227.464	-25.26
227.682	46.42
227.9	17.75
228.117	23.89
228.335	54.61
228.553	30.04
228.771	44.37
228.989	-51.88
229.206	5.46
229.424	-60.07
229.642	-37.55
229.86	-0.68
230.077	-10.92
230.295	13.65
230.513	-17.07
230.731	68.95
230.948	62.8
231.166	66.9
231.384	21.84
231.601	19.8
231.819	62.8
232.037	21.84
232.254	-10.92
232.472	-25.26
232.689	-2.73
232.907	60.76
233.125	48.47
233.342	17.75
233.56	-10.92
233.777	3.41
233.995	54.61
234.213	97.62
234.43	-15.02
234.648	-2.73
234.865	23.89
235.083	11.61
235.3	54.61
235.518	-17.07
235.735	-4.78
235.953	25.94
236.17	1.37
236.388	32.08
236.605	1.37
236.822	68.95
237.04	109.91
237.257	42.32
237.475	-27.31
237.692	-6.83
237.909	91.48
238.127	50.52
238.344	-78.51
238.562	-39.59
238.779	-64.17
238.996	-51.88
239.214	11.61
239.431	3.41
239.648	52.56
239.865	58.71
240.083	-19.11
240.3	-27.31
240.517	111.96
240.735	-90.79
240.952	71
241.169	101.72
241.386	-17.07
241.603	32.08
241.821	17.75
242.038	50.52
242.255	13.65
242.472	1.37
242.689	38.23
242.907	21.84
243.124	7.51
243.341	5.46
243.558	17.75
243.775	-0.68
243.992	3.41
244.209	-41.64
244.426	99.67
244.643	83.28
244.86	58.71
245.078	91.48
245.295	48.47
245.512	64.85
245.729	-35.5
245.946	1.37
246.163	34.13
246.38	101.72
246.597	7.51
246.814	17.75
247.031	58.71
247.248	-0.68
247.464	79.19
247.681	62.8
247.898	54.61
248.115	-6.83
248.332	23.89
248.549	-21.16
248.766	52.56
248.983	30.04
249.2	77.14
249.417	13.65
249.633	-94.89
249.85	30.04
250.067	-80.55
250.284	68.95
250.501	75.09
250.717	56.66
250.934	-27.31
251.151	-4.78
251.368	40.28
251.585	25.94
251.801	38.23
252.018	-19.11
252.235	23.89
252.451	-12.97
252.668	79.19
252.885	17.75
253.102	5.46
253.318	42.32
253.535	17.75
253.752	9.56
253.968	-27.31
254.185	-51.88
254.401	30.04
254.618	32.08
254.835	-35.5
255.051	91.48
255.268	15.7
255.484	42.32
255.701	64.85
255.917	56.66
256.134	83.28
256.351	1.37
256.567	23.89
256.784	-15.02
257	5.46
257.217	44.37
257.433	-70.31
257.65	40.28
257.866	27.99
258.082	64.85
258.299	-23.21
258.515	46.42
258.732	30.04
258.948	60.76
259.165	27.99
259.381	7.51
259.597	32.08
259.814	75.09
260.03	-12.97
260.246	58.71
260.463	77.14
260.679	15.7
260.895	11.61
261.112	27.99
261.328	-21.16
261.544	25.94
261.761	25.94
261.977	5.46
262.193	-43.69
262.409	46.42
262.626	19.8
262.842	23.89
263.058	-45.74
263.274	21.84
263.49	56.66
263.707	7.51
263.923	58.71
264.139	-17.07
264.355	-0.68
264.571	48.47
264.787	36.18
265.004	54.61
265.22	-6.83
265.436	-2.73
265.652	23.89
265.868	7.51
266.084	13.65
266.3	68.95
266.516	-33.45
266.732	36.18
266.948	58.71
267.164	-0.68
267.38	30.04
267.596	-12.97
267.812	23.89
268.028	30.04
268.244	-35.5
268.46	58.71
268.676	13.65
268.892	77.14
269.108	-49.83
269.324	27.99
269.54	21.84
269.756	60.76
269.972	-2.73
270.188	-6.83
270.403	34.13
270.619	38.23
270.835	7.51
271.051	7.51
271.267	-12.97
271.483	60.76
271.698	46.42
271.914	-53.93
272.13	-53.93
272.346	-25.26
272.562	-6.83
272.777	42.32
272.993	38.23
273.209	-19.11
273.425	38.23
273.64	-2.73
273.856	11.61
274.072	42.32
274.287	23.89
274.503	87.38
274.719	5.46
274.934	73.04
275.15	11.61
275.366	-72.36
275.581	23.89
275.797	64.85
276.012	19.8
276.228	-37.55
276.444	68.95
276.659	-0.68
276.875	30.04
277.09	5.46
277.306	17.75
277.521	42.32
277.737	-37.55
277.952	77.14
278.168	-41.64
278.383	-2.73
278.599	-25.26
278.814	5.46
279.03	-19.11
279.245	73.04
279.461	60.76
279.676	46.42
279.892	-21.16
280.107	-37.55
280.322	1.37
280.538	23.89
280.753	54.61
280.969	68.95
281.184	-35.5
281.399	-25.26
281.615	-31.4
281.83	68.95
282.045	-47.79
282.26	-15.02
282.476	34.13
282.691	77.14
282.906	40.28
283.122	13.65
283.337	-4.78
283.552	46.42
283.767	-17.07
283.983	27.99
284.198	-43.69
284.413	-27.31
284.628	-2.73
284.843	36.18
285.058	7.51
285.274	83.28
285.489	-27.31
285.704	44.37
285.919	-64.17
286.134	58.71
286.349	9.56
286.564	25.94
286.779	40.28
286.995	30.04
287.21	-17.07
287.425	124.24
287.64	-31.4
287.855	66.9
288.07	-84.65
288.285	-51.88
288.5	-27.31
288.715	13.65
288.93	17.75
289.145	-12.97
289.36	-0.68
289.575	40.28
289.79	46.42
290.004	60.76
290.219	71
290.434	50.52
290.649	-17.07
290.864	7.51
291.079	-29.35
291.294	1.37
291.509	54.61
291.724	46.42
291.938	7.51
292.153	27.99
292.368	54.61
292.583	44.37
292.798	75.09
293.012	34.13
293.227	54.61
293.442	-10.92
293.657	21.84
293.871	21.84
294.086	46.42
294.301	101.72
294.516	11.61
294.73	58.71
294.945	36.18
295.16	83.28
295.374	11.61
295.589	62.8
295.804	60.76
296.018	-2.73
296.233	64.85
296.447	5.46
296.662	-35.5
296.877	19.8
297.091	-35.5
297.306	42.32
297.52	-4.78
297.735	56.66
297.949	17.75
298.164	17.75
298.378	62.8
298.593	42.32
298.807	32.08
299.022	36.18
299.236	62.8
299.451	-21.16
299.665	-58.03
299.88	25.94
300.094	71
300.309	-10.92
300.523	-4.78
300.737	-17.07
300.952	60.76
301.166	25.94
301.381	48.47
301.595	50.52
301.809	-21.16
302.024	-17.07
302.238	40.28
302.452	23.89
302.667	23.89
302.881	66.9
303.095	46.42
303.309	30.04
303.524	93.52
303.738	54.61
303.952	64.85
304.166	-19.11
304.381	-21.16
304.595	40.28
304.809	-25.26
305.023	1.37
305.237	54.61
305.452	-19.11
305.666	85.33
305.88	50.52
306.094	75.09
306.308	46.42
306.522	-10.92
306.736	-10.92
306.95	-35.5
307.164	-39.59
307.379	7.51
307.593	103.76
307.807	46.42
308.021	54.61
308.235	93.52
308.449	17.75
308.663	-27.31
308.877	62.8
309.091	5.46
309.305	81.24
309.519	7.51
309.733	36.18
309.947	13.65
310.161	56.66
310.374	38.23
310.588	114
310.802	-2.73
311.016	15.7
311.23	-10.92
311.444	25.94
311.658	73.04
311.872	68.95
312.085	25.94
312.299	58.71
312.513	15.7
312.727	13.65
312.941	54.61
313.154	34.13
313.368	-19.11
313.582	-80.55
313.796	5.46
314.009	21.84
314.223	75.09
314.437	15.7
314.651	50.52
314.864	56.66
315.078	30.04
315.292	-0.68
315.505	9.56
315.719	46.42
315.933	91.48
316.146	36.18
316.36	-12.97
316.573	15.7
316.787	17.75
317.001	11.61
317.214	40.28
317.428	23.89
317.641	38.23
317.855	99.67
318.068	-45.74
318.282	50.52
318.495	7.51
318.709	64.85
318.922	13.65
319.136	11.61
319.349	32.08
319.563	48.47
319.776	83.28
319.99	1.37
320.203	66.9
320.417	40.28
320.63	-55.98
320.843	52.56
321.057	32.08
321.27	-25.26
321.483	5.46
321.697	79.19
321.91	-8.87
322.124	7.51
322.337	38.23
322.55	-45.74
322.763	71
322.977	1.37
323.19	50.52
323.403	-25.26
323.617	11.61
323.83	73.04
324.043	-17.07
324.256	25.94
324.469	38.23
324.683	11.61
324.896	-12.97
325.109	71
325.322	30.04
325.535	77.14
325.748	-6.83
325.962	-15.02
326.175	93.52
326.388	-4.78
326.601	21.84
326.814	52.56
327.027	73.04
327.24	159.06
327.453	-2.73
327.666	-0.68
327.879	3.41
328.092	83.28
328.305	66.9
328.518	-8.87
328.731	3.41
328.944	-6.83
329.157	-12.97
329.37	-15.02
329.583	73.04
329.796	52.56
330.009	48.47
330.222	42.32
330.435	54.61
330.648	11.61
330.861	3.41
331.073	126.29
331.286	42.32
331.499	-2.73
331.712	48.47
331.925	17.75
332.138	-27.31
332.35	42.32
332.563	68.95
332.776	36.18
332.989	48.47
333.202	34.13
333.414	25.94
333.627	50.52
333.84	52.56
334.053	73.04
334.265	15.7
334.478	17.75
334.691	21.84
334.903	-21.16
335.116	58.71
335.329	56.66
335.541	25.94
335.754	3.41
335.966	3.41
336.179	77.14
336.392	5.46
336.604	48.47
336.817	-6.83
337.029	42.32
337.242	-0.68
337.454	60.76
337.667	21.84
337.88	46.42
338.092	23.89
338.305	46.42
338.517	79.19
338.729	52.56
338.942	91.48
339.154	9.56
339.367	13.65
339.579	89.43
339.792	32.08
340.004	19.8
340.217	56.66
340.429	62.8
340.641	42.32
340.854	-4.78
341.066	48.47
341.278	7.51
341.491	81.24
341.703	75.09
341.915	-10.92
342.128	17.75
342.34	48.47
342.552	64.85
342.764	64.85
342.977	66.9
343.189	-12.97
343.401	25.94
343.613	-8.87
343.826	21.84
344.038	15.7
344.25	25.94
344.462	-23.21
344.674	60.76
344.886	58.71
345.099	3.41
345.311	60.76
345.523	66.9
345.735	25.94
345.947	79.19
346.159	89.43
346.371	-10.92
346.583	62.8
346.795	42.32
347.007	42.32
347.219	101.72
347.431	81.24
347.643	-8.87
347.855	-37.55
348.067	42.32
348.279	19.8
348.491	58.71
348.703	-12.97
348.915	-4.78
349.127	52.56
349.339	75.09
349.551	15.7
349.763	77.14
349.975	-15.02
350.187	17.75
350.399	87.38
350.61	-10.92
350.822	-39.59
351.034	32.08
351.246	30.04
351.458	32.08
351.669	58.71
351.881	75.09
352.093	-10.92
352.305	15.7
352.517	73.04
352.728	109.91
352.94	68.95
353.152	71
353.363	48.47
353.575	60.76
353.787	89.43
353.999	38.23
354.21	83.28
354.422	56.66
354.633	38.23
354.845	48.47
355.057	11.61
355.268	79.19
355.48	-10.92
355.692	-21.16
355.903	7.51
356.115	-6.83
356.326	71
356.538	89.43
356.749	27.99
356.961	111.96
357.172	-2.73
357.384	-8.87
357.595	118.1
357.807	68.95
358.018	11.61
358.23	-6.83
358.441	136.53
358.653	40.28
358.864	-21.16
359.075	23.89
359.287	42.32
359.498	95.57
359.709	27.99
359.921	27.99
360.132	44.37
360.344	54.61
360.555	21.84
360.766	36.18
360.977	54.61
361.189	1.37
361.4	68.95
361.611	23.89
361.823	-23.21
362.034	58.71
362.245	-31.4
362.456	9.56
362.667	19.8
362.879	11.61
363.09	15.7
363.301	30.04
363.512	34.13
363.723	60.76
363.935	-0.68
364.146	89.43
364.357	44.37
364.568	5.46
364.779	-4.78
364.99	17.75
365.201	-10.92
365.412	66.9
365.623	23.89
365.834	124.24
366.045	34.13
366.256	87.38
366.467	25.94
366.678	11.61
366.889	30.04
367.1	54.61
367.311	-2.73
367.522	114
367.733	-2.73
367.944	13.65
368.155	75.09
368.366	79.19
368.577	40.28
368.788	25.94
368.999	9.56
369.209	122.2
369.42	44.37
369.631	32.08
369.842	30.04
370.053	1.37
370.264	68.95
370.474	25.94
370.685	25.94
370.896	27.99
371.107	32.08
371.317	99.67
371.528	83.28
371.739	124.24
371.95	30.04
372.16	21.84
372.371	52.56
372.582	54.61
372.792	46.42
373.003	-35.5
373.214	23.89
373.424	34.13
373.635	87.38
373.846	75.09
374.056	46.42
374.267	19.8
374.477	54.61
374.688	7.51
374.898	-17.07
375.109	9.56
375.319	36.18
375.53	42.32
375.74	75.09
375.951	21.84
376.161	-8.87
376.372	30.04
376.582	-27.31
376.793	52.56
377.003	1.37
377.214	15.7
377.424	58.71
377.635	68.95
377.845	7.51
378.055	75.09
378.266	32.08
378.476	30.04
378.686	-2.73
378.897	17.75
379.107	71
379.317	140.63
379.528	13.65
379.738	85.33
379.948	-33.45
380.158	48.47
380.369	-6.83
380.579	13.65
380.789	50.52
380.999	114
381.21	71
381.42	122.2
381.63	-0.68
381.84	-17.07
382.05	38.23
382.261	87.38
382.471	56.66
382.681	-35.5
382.891	56.66
383.101	32.08
383.311	3.41
383.521	30.04
383.731	7.51
383.941	114
384.151	17.75
384.361	52.56
384.571	42.32
384.781	64.85
384.991	9.56
385.201	36.18
385.411	75.09
385.621	9.56
385.831	-4.78
386.041	42.32
386.251	130.39
386.461	-29.35
386.671	-17.07
386.881	97.62
387.091	50.52
387.301	111.96
387.511	-2.73
387.72	66.9
387.93	66.9
388.14	13.65
388.35	38.23
388.56	50.52
388.769	13.65
388.979	101.72
389.189	-27.31
389.399	87.38
389.609	25.94
389.818	-17.07
390.028	3.41
390.238	30.04
390.447	17.75
390.657	64.85
390.867	83.28
391.076	-12.97
391.286	105.81
391.496	44.37
391.705	81.24
391.915	68.95
392.125	48.47
392.334	111.96
392.544	56.66
392.753	71
392.963	-17.07
393.172	58.71
393.382	105.81
393.591	93.52
393.801	42.32
394.01	27.99
394.22	58.71
394.429	44.37
394.639	38.23
394.848	128.34
395.058	83.28
395.267	11.61
395.477	36.18
395.686	95.57
395.895	89.43
396.105	183.63
396.314	32.08
396.524	17.75
396.733	54.61
396.942	114
397.152	116.05
397.361	89.43
397.57	71
397.78	56.66
397.989	99.67
398.198	120.15
398.407	109.91
398.617	62.8
398.826	169.3
399.035	118.1
399.244	99.67
399.453	85.33
399.663	95.57
399.872	138.58
400.081	81.24
400.29	99.67
400.499	97.62
400.708	120.15
400.917	77.14
401.127	157.01
401.336	109.91
401.545	87.38
401.754	95.57
401.963	85.33
402.172	161.11
402.381	50.52
402.59	122.2
402.799	134.48
403.008	118.1
403.217	93.52
403.426	66.9
403.635	40.28
403.844	126.29
404.053	226.64
404.262	85.33
404.471	140.63
404.68	136.53
404.888	38.23
405.097	75.09
405.306	126.29
405.515	71
405.724	206.16
405.933	142.68
406.142	230.74
406.35	232.79
406.559	187.73
406.768	157.01
406.977	204.11
407.185	128.34
407.394	173.39
407.603	126.29
407.812	243.03
408.02	247.12
408.229	300.37
408.438	273.75
408.646	251.22
408.855	232.79
409.064	245.07
409.272	290.13
409.481	326.99
409.69	267.6
409.898	304.46
410.107	337.23
410.315	316.75
410.524	308.56
410.733	367.95
410.941	343.38
411.15	378.19
411.358	347.47
411.567	482.64
411.775	488.78
411.984	402.77
412.192	464.21
412.401	478.54
412.609	478.54
412.818	531.79
413.026	468.3
413.234	537.93
413.443	550.22
413.651	544.08
413.86	660.81
414.068	662.86
414.276	677.19
414.485	669
414.693	703.82
414.901	720.2
415.11	714.06
415.318	732.49
415.526	810.31
415.734	804.17
415.943	843.08
416.151	818.5
416.359	918.86
416.567	961.86
416.776	959.81
416.984	1084.74
417.192	1023.3
417.4	1021.25
417.608	1070.4
417.817	1160.52
418.025	1144.13
418.233	1242.43
418.441	1150.28
418.649	1209.67
418.857	1355.07
419.065	1396.03
419.273	1348.93
419.481	1463.61
419.689	1592.64
419.897	1621.31
420.105	1582.4
420.313	1578.3
420.521	1740.09
420.729	1811.77
420.937	1867.06
421.145	1953.08
421.353	2014.52
421.561	2166.07
421.769	2071.86
421.977	2073.91
422.185	2284.85
422.393	2288.95
422.601	2405.68
422.809	2413.87
423.017	2471.22
423.224	2528.56
423.432	2727.21
423.64	2608.43
423.848	2987.3
424.056	2882.86
424.263	3003.69
424.471	2999.59
424.679	3108.13
424.887	3382.56
425.094	3310.88
425.302	3409.19
425.51	3554.59
425.718	3605.79
425.925	3808.54
426.133	3800.35
426.341	3882.27
426.548	4199.7
426.756	4224.28
426.964	4341.01
427.171	4527.38
427.379	4740.36
427.586	4799.76
427.794	4736.27
428.001	5178.63
428.209	5180.68
428.417	5063.94
428.624	5553.41
428.832	5633.28
429.039	5508.35
429.247	5618.94
429.454	6065.4
429.662	6423.8
429.869	6182.13
430.076	6497.52
430.284	6247.67
430.491	6579.44
430.699	6999.27
430.906	6915.31
431.114	7073
431.321	7292.13
431.528	7361.77
431.736	7888.09
431.943	8256.73
432.15	8076.51
432.358	8080.6
432.565	8588.5
432.772	8561.87
432.979	8891.6
433.187	9295.05
433.394	9225.42
433.601	9856.19
433.808	9993.4
434.016	9790.66
434.223	10247.35
434.43	10949.81
434.637	10540.21
434.844	11349.16
435.052	11551.91
435.259	11291.82
435.466	11465.89
435.673	11254.95
435.88	12467.35
436.087	12754.07
436.294	12840.08
436.501	12604.56
436.708	12766.35
436.915	13022.35
437.122	13749.38
437.329	13661.32
437.537	14230.65
437.743	14439.54
437.95	14314.62
438.157	15053.94
438.364	15246.44
438.571	15348.84
438.778	15565.93
438.985	17056.85
439.192	16317.53
439.399	17044.56
439.606	17003.6
439.813	17521.74
440.02	18560.06
440.227	18115.65
440.433	18111.55
440.64	18566.2
440.847	18510.91
441.054	19063.86
441.261	20290.59
441.467	19821.61
441.674	20419.61
441.881	21042.2
442.088	21287.95
442.294	20923.41
442.501	21300.24
442.708	21900.3
442.914	22498.3
443.121	23886.82
443.328	22993.91
443.534	24959.96
443.741	23774.19
443.948	23647.21
444.154	25322.45
444.361	25344.98
444.568	25463.76
444.774	25209.81
444.981	25793.48
445.187	26389.44
445.394	27366.32
445.6	27095.99
445.807	29584.27
446.013	28062.63
446.22	28920.73
446.426	29993.87
446.633	30380.93
446.839	31470.45
447.046	29907.85
447.252	31765.36
447.459	31847.28
447.665	31607.67
447.871	32975.71
448.078	34779.97
448.284	32684.9
448.491	33801.04
448.697	34917.18
448.903	35707.7
449.11	35615.54
449.316	34941.76
449.522	35832.63
449.728	36639.53
449.935	36926.24
450.141	36860.71
450.347	37434.14
450.553	36512.55
450.76	36789.03
450.966	38302.48
451.172	37669.65
451.378	38658.82
451.584	37708.57
451.791	38474.51
451.997	38341.39
452.203	39443.2
452.409	39490.3
452.615	39119.62
452.821	37208.86
453.027	36903.71
453.233	39109.38
453.44	37530.39
453.646	37944.08
453.852	38150.93
454.058	38591.24
454.264	37423.9
454.47	38419.21
454.676	37229.34
454.882	38460.17
455.088	35017.53
455.294	35681.08
455.5	35810.1
455.705	36494.12
455.911	35064.64
456.117	34321.23
456.323	33925.97
456.529	31886.19
456.735	33370.97
456.941	32754.53
457.147	32320.36
457.352	31148.92
457.558	30782.34
457.764	30647.17
457.97	29932.43
458.176	29627.28
458.381	29864.85
458.587	28046.25
458.793	28205.99
458.999	26426.31
459.204	28455.84
459.41	28031.91
459.616	25889.74
459.821	25854.92
460.027	25533.39
460.233	25025.5
460.438	24038.37
460.644	24271.84
460.85	23188.47
461.055	22680.57
461.261	22893.56
461.466	21144.59
461.672	20401.18
461.878	21617.68
462.083	20378.65
462.289	20251.68
462.494	19758.12
462.7	18928.69
462.905	18265.15
463.111	19049.52
463.316	19090.48
463.522	18783.29
463.727	18719.8
463.932	18664.5
464.138	18635.83
464.343	18558.01
464.549	18123.84
464.754	18748.47
464.959	18385.98
465.165	18332.73
465.37	17574.99
465.575	17007.7
465.781	17841.22
465.986	17863.75
466.191	17161.3
466.397	16792.66
466.602	16168.03
466.807	16727.13
467.012	16495.71
467.218	16622.68
467.423	16249.95
467.628	16489.56
467.833	17128.53
468.038	16192.61
