Data from USB4F104151__89__12-02-31-944.txt Node

Date: Fri Mar 14 12:02:31 EDT 2025
User: louis
Spectrometer: USB4F10415
Trigger mode: 4
Integration Time (sec): 2.000000E-2
Scans to average: 1
Electric dark correction enabled: true
Nonlinearity correction enabled: false
Boxcar width: 0
XAxis mode: Wavelengths
Number of Pixels in Spectrum: 3648
>>>>>Begin Spectral Data<<<<<
178.204	-71.68
178.424	-71.68
178.644	-71.68
178.864	-100.35
179.084	-22.53
179.304	40.96
179.524	-67.58
179.744	-6.14
179.964	32.77
180.184	8.19
180.404	51.2
180.624	-92.16
180.844	-20.48
181.064	32.77
181.283	-8.19
181.503	-2.05
181.723	30.72
181.943	-6.14
182.163	43.01
182.383	4.1
182.602	22.53
182.822	108.54
183.042	40.96
183.262	-14.34
183.482	2.05
183.701	16.38
183.921	59.39
184.141	26.62
184.361	71.68
184.58	14.34
184.8	-20.48
185.02	96.25
185.239	77.82
185.459	86.01
185.679	30.72
185.898	55.3
186.118	51.2
186.338	36.86
186.557	-14.34
186.777	-10.24
186.997	38.91
187.216	61.44
187.436	73.73
187.655	16.38
187.875	14.34
188.095	-2.05
188.314	14.34
188.534	79.87
188.753	61.44
188.973	-26.62
189.192	110.59
189.412	-2.05
189.631	90.11
189.851	75.77
190.07	40.96
190.29	96.25
190.509	22.53
190.729	12.29
190.948	20.48
191.168	145.41
191.387	4.1
191.607	18.43
191.826	18.43
192.045	-22.53
192.265	4.1
192.484	-2.05
192.704	16.38
192.923	22.53
193.142	55.3
193.362	57.34
193.581	24.58
193.8	65.54
194.02	65.54
194.239	63.49
194.458	57.34
194.678	79.87
194.897	79.87
195.116	30.72
195.335	0
195.555	49.15
195.774	53.25
195.993	69.63
196.212	16.38
196.432	-10.24
196.651	75.77
196.87	77.82
197.089	124.93
197.308	71.68
197.528	12.29
197.747	-28.67
197.966	36.86
198.185	53.25
198.404	18.43
198.623	-49.15
198.842	20.48
199.062	22.53
199.281	139.26
199.5	12.29
199.719	-6.14
199.938	10.24
200.157	75.77
200.376	43.01
200.595	86.01
200.814	77.82
201.033	30.72
201.252	10.24
201.471	36.86
201.69	88.06
201.909	126.97
202.128	10.24
202.347	30.72
202.566	8.19
202.785	24.58
203.004	90.11
203.223	51.2
203.442	45.06
203.661	28.67
203.879	53.25
204.098	71.68
204.317	36.86
204.536	49.15
204.755	63.49
204.974	102.4
205.193	24.58
205.411	45.06
205.63	36.86
205.849	73.73
206.068	-26.62
206.287	8.19
206.505	-4.1
206.724	73.73
206.943	26.62
207.162	-10.24
207.381	2.05
207.599	96.25
207.818	96.25
208.037	-2.05
208.255	67.58
208.474	61.44
208.693	106.49
208.911	88.06
209.13	55.3
209.349	51.2
209.567	-18.43
209.786	-2.05
210.005	10.24
210.223	18.43
210.442	73.73
210.661	90.11
210.879	69.63
211.098	14.34
211.316	77.82
211.535	118.78
211.753	-8.19
211.972	14.34
212.191	49.15
212.409	12.29
212.628	32.77
212.846	26.62
213.065	36.86
213.283	102.4
213.502	22.53
213.72	2.05
213.938	10.24
214.157	53.25
214.375	20.48
214.594	79.87
214.812	83.97
215.031	49.15
215.249	-4.1
215.467	18.43
215.686	6.14
215.904	71.68
216.122	-4.1
216.341	73.73
216.559	77.82
216.778	126.97
216.996	20.48
217.214	102.4
217.432	22.53
217.651	73.73
217.869	40.96
218.087	71.68
218.306	47.1
218.524	61.44
218.742	-32.77
218.96	94.21
219.179	2.05
219.397	51.2
219.615	57.34
219.833	45.06
220.051	59.39
220.27	131.07
220.488	-28.67
220.706	32.77
220.924	-14.34
221.142	34.82
221.36	57.34
221.578	75.77
221.796	49.15
222.015	86.01
222.233	-10.24
222.451	81.92
222.669	38.91
222.887	145.41
223.105	45.06
223.323	81.92
223.541	90.11
223.759	22.53
223.977	26.62
224.195	106.49
224.413	0
224.631	83.97
224.849	40.96
225.067	71.68
225.285	14.34
225.503	69.63
225.721	28.67
225.939	16.38
226.157	104.45
226.375	36.86
226.592	96.25
226.81	75.77
227.028	126.97
227.246	63.49
227.464	14.34
227.682	20.48
227.9	16.38
228.117	61.44
228.335	-40.96
228.553	86.01
228.771	108.54
228.989	94.21
229.206	61.44
229.424	88.06
229.642	22.53
229.86	8.19
230.077	30.72
230.295	43.01
230.513	45.06
230.731	18.43
230.948	86.01
231.166	53.25
231.384	73.73
231.601	75.77
231.819	49.15
232.037	22.53
232.254	-18.43
232.472	75.77
232.689	36.86
232.907	102.4
233.125	10.24
233.342	75.77
233.56	67.58
233.777	38.91
233.995	88.06
234.213	63.49
234.43	75.77
234.648	55.3
234.865	40.96
235.083	143.36
235.3	4.1
235.518	43.01
235.735	59.39
235.953	108.54
236.17	104.45
236.388	92.16
236.605	75.77
236.822	65.54
237.04	79.87
237.257	88.06
237.475	8.19
237.692	36.86
237.909	86.01
238.127	55.3
238.344	73.73
238.562	102.4
238.779	49.15
238.996	71.68
239.214	86.01
239.431	40.96
239.648	118.78
239.865	59.39
240.083	69.63
240.3	36.86
240.517	57.34
240.735	36.86
240.952	51.2
241.169	120.83
241.386	28.67
241.603	26.62
241.821	47.1
242.038	43.01
242.255	12.29
242.472	-2.05
242.689	47.1
242.907	65.54
243.124	32.77
243.341	77.82
243.558	-6.14
243.775	-16.38
243.992	36.86
244.209	77.82
244.426	102.4
244.643	59.39
244.86	2.05
245.078	98.3
245.295	10.24
245.512	92.16
245.729	86.01
245.946	59.39
246.163	159.74
246.38	86.01
246.597	-4.1
246.814	108.54
247.031	4.1
247.248	-6.14
247.464	133.12
247.681	4.1
247.898	-6.14
248.115	63.49
248.332	14.34
248.549	57.34
248.766	16.38
248.983	71.68
249.2	51.2
249.417	49.15
249.633	43.01
249.85	77.82
250.067	22.53
250.284	30.72
250.501	120.83
250.717	16.38
250.934	69.63
251.151	4.1
251.368	6.14
251.585	110.59
251.801	98.3
252.018	-12.29
252.235	55.3
252.451	30.72
252.668	32.77
252.885	51.2
253.102	-8.19
253.318	20.48
253.535	16.38
253.752	8.19
253.968	4.1
254.185	59.39
254.401	-8.19
254.618	96.25
254.835	10.24
255.051	94.21
255.268	59.39
255.484	122.88
255.701	106.49
255.917	63.49
256.134	47.1
256.351	69.63
256.567	59.39
256.784	69.63
257	28.67
257.217	67.58
257.433	2.05
257.65	47.1
257.866	75.77
258.082	-2.05
258.299	28.67
258.515	-26.62
258.732	114.69
258.948	2.05
259.165	-12.29
259.381	55.3
259.597	-43.01
259.814	45.06
260.03	30.72
260.246	69.63
260.463	10.24
260.679	34.82
260.895	10.24
261.112	43.01
261.328	49.15
261.544	14.34
261.761	71.68
261.977	94.21
262.193	22.53
262.409	38.91
262.626	90.11
262.842	-36.86
263.058	43.01
263.274	104.45
263.49	45.06
263.707	120.83
263.923	65.54
264.139	-18.43
264.355	71.68
264.571	-14.34
264.787	-45.06
265.004	32.77
265.22	53.25
265.436	59.39
265.652	45.06
265.868	104.45
266.084	47.1
266.3	94.21
266.516	77.82
266.732	10.24
266.948	65.54
267.164	100.35
267.38	51.2
267.596	40.96
267.812	88.06
268.028	-14.34
268.244	92.16
268.46	45.06
268.676	4.1
268.892	108.54
269.108	114.69
269.324	-2.05
269.54	34.82
269.756	16.38
269.972	43.01
270.188	6.14
270.403	-18.43
270.619	49.15
270.835	102.4
271.051	47.1
271.267	120.83
271.483	57.34
271.698	10.24
271.914	61.44
272.13	73.73
272.346	63.49
272.562	102.4
272.777	81.92
272.993	71.68
273.209	108.54
273.425	51.2
273.64	34.82
273.856	86.01
274.072	0
274.287	28.67
274.503	26.62
274.719	-24.58
274.934	32.77
275.15	34.82
275.366	16.38
275.581	47.1
275.797	51.2
276.012	73.73
276.228	-43.01
276.444	28.67
276.659	71.68
276.875	59.39
277.09	129.02
277.306	55.3
277.521	86.01
277.737	40.96
277.952	79.87
278.168	57.34
278.383	59.39
278.599	10.24
278.814	51.2
279.03	30.72
279.245	32.77
279.461	20.48
279.676	47.1
279.892	0
280.107	104.45
280.322	-57.34
280.538	90.11
280.753	-28.67
280.969	14.34
281.184	-30.72
281.399	118.78
281.615	-8.19
281.83	2.05
282.045	20.48
282.26	61.44
282.476	26.62
282.691	75.77
282.906	2.05
283.122	124.93
283.337	112.64
283.552	32.77
283.767	45.06
283.983	18.43
284.198	26.62
284.413	36.86
284.628	63.49
284.843	90.11
285.058	34.82
285.274	32.77
285.489	24.58
285.704	4.1
285.919	20.48
286.134	86.01
286.349	96.25
286.564	-4.1
286.779	57.34
286.995	51.2
287.21	-32.77
287.425	75.77
287.64	63.49
287.855	38.91
288.07	16.38
288.285	75.77
288.5	8.19
288.715	90.11
288.93	14.34
289.145	55.3
289.36	28.67
289.575	-14.34
289.79	147.45
290.004	24.58
290.219	18.43
290.434	59.39
290.649	75.77
290.864	28.67
291.079	12.29
291.294	16.38
291.509	45.06
291.724	2.05
291.938	2.05
292.153	-16.38
292.368	38.91
292.583	10.24
292.798	120.83
293.012	73.73
293.227	53.25
293.442	45.06
293.657	106.49
293.871	22.53
294.086	20.48
294.301	172.03
294.516	81.92
294.73	63.49
294.945	55.3
295.16	59.39
295.374	26.62
295.589	98.3
295.804	40.96
296.018	43.01
296.233	32.77
296.447	6.14
296.662	30.72
296.877	106.49
297.091	20.48
297.306	108.54
297.52	-22.53
297.735	6.14
297.949	90.11
298.164	67.58
298.378	59.39
298.593	34.82
298.807	45.06
299.022	20.48
299.236	116.73
299.451	-16.38
299.665	61.44
299.88	30.72
300.094	14.34
300.309	106.49
300.523	55.3
300.737	-26.62
300.952	26.62
301.166	2.05
301.381	-28.67
301.595	-2.05
301.809	59.39
302.024	63.49
302.238	114.69
302.452	94.21
302.667	16.38
302.881	57.34
303.095	22.53
303.309	61.44
303.524	104.45
303.738	36.86
303.952	100.35
304.166	18.43
304.381	34.82
304.595	129.02
304.809	40.96
305.023	59.39
305.237	51.2
305.452	26.62
305.666	110.59
305.88	67.58
306.094	-16.38
306.308	53.25
306.522	47.1
306.736	-4.1
306.95	114.69
307.164	57.34
307.379	24.58
307.593	61.44
307.807	118.78
308.021	108.54
308.235	61.44
308.449	69.63
308.663	16.38
308.877	24.58
309.091	28.67
309.305	69.63
309.519	14.34
309.733	63.49
309.947	40.96
310.161	65.54
310.374	51.2
310.588	67.58
310.802	-8.19
311.016	10.24
311.23	10.24
311.444	59.39
311.658	22.53
311.872	65.54
312.085	22.53
312.299	118.78
312.513	28.67
312.727	92.16
312.941	34.82
313.154	32.77
313.368	67.58
313.582	-14.34
313.796	75.77
314.009	59.39
314.223	22.53
314.437	86.01
314.651	26.62
314.864	79.87
315.078	38.91
315.292	81.92
315.505	16.38
315.719	67.58
315.933	65.54
316.146	69.63
316.36	53.25
316.573	51.2
316.787	106.49
317.001	65.54
317.214	45.06
317.428	18.43
317.641	63.49
317.855	0
318.068	0
318.282	124.93
318.495	124.93
318.709	59.39
318.922	71.68
319.136	102.4
319.349	20.48
319.563	83.97
319.776	69.63
319.99	47.1
320.203	57.34
320.417	61.44
320.63	36.86
320.843	108.54
321.057	79.87
321.27	14.34
321.483	104.45
321.697	49.15
321.91	86.01
322.124	100.35
322.337	0
322.55	-10.24
322.763	71.68
322.977	90.11
323.19	59.39
323.403	32.77
323.617	90.11
323.83	124.93
324.043	40.96
324.256	63.49
324.469	77.82
324.683	8.19
324.896	61.44
325.109	32.77
325.322	131.07
325.535	126.97
325.748	53.25
325.962	67.58
326.175	57.34
326.388	55.3
326.601	59.39
326.814	100.35
327.027	34.82
327.24	32.77
327.453	26.62
327.666	32.77
327.879	83.97
328.092	38.91
328.305	55.3
328.518	16.38
328.731	14.34
328.944	51.2
329.157	73.73
329.37	12.29
329.583	36.86
329.796	73.73
330.009	34.82
330.222	-6.14
330.435	24.58
330.648	38.91
330.861	51.2
331.073	77.82
331.286	40.96
331.499	30.72
331.712	71.68
331.925	59.39
332.138	10.24
332.35	53.25
332.563	38.91
332.776	26.62
332.989	-12.29
333.202	28.67
333.414	30.72
333.627	63.49
333.84	34.82
334.053	141.31
334.265	51.2
334.478	10.24
334.691	73.73
334.903	75.77
335.116	-18.43
335.329	90.11
335.541	49.15
335.754	124.93
335.966	28.67
336.179	65.54
336.392	-43.01
336.604	73.73
336.817	32.77
337.029	63.49
337.242	71.68
337.454	34.82
337.667	-16.38
337.88	137.21
338.092	88.06
338.305	110.59
338.517	2.05
338.729	116.73
338.942	63.49
339.154	57.34
339.367	75.77
339.579	59.39
339.792	83.97
340.004	67.58
340.217	22.53
340.429	4.1
340.641	71.68
340.854	30.72
341.066	0
341.278	71.68
341.491	79.87
341.703	59.39
341.915	4.1
342.128	36.86
342.34	81.92
342.552	45.06
342.764	30.72
342.977	65.54
343.189	55.3
343.401	73.73
343.613	36.86
343.826	65.54
344.038	69.63
344.25	16.38
344.462	20.48
344.674	57.34
344.886	126.97
345.099	49.15
345.311	120.83
345.523	53.25
345.735	14.34
345.947	98.3
346.159	112.64
346.371	28.67
346.583	32.77
346.795	126.97
347.007	96.25
347.219	104.45
347.431	22.53
347.643	145.41
347.855	69.63
348.067	176.13
348.279	47.1
348.491	-28.67
348.703	63.49
348.915	98.3
349.127	67.58
349.339	86.01
349.551	-6.14
349.763	30.72
349.975	75.77
350.187	124.93
350.399	28.67
350.61	104.45
350.822	61.44
351.034	67.58
351.246	83.97
351.458	149.5
351.669	147.45
351.881	83.97
352.093	102.4
352.305	49.15
352.517	2.05
352.728	110.59
352.94	77.82
353.152	43.01
353.363	22.53
353.575	141.31
353.787	100.35
353.999	38.91
354.21	38.91
354.422	86.01
354.633	71.68
354.845	59.39
355.057	40.96
355.268	116.73
355.48	83.97
355.692	-45.06
355.903	40.96
356.115	83.97
356.326	34.82
356.538	145.41
356.749	83.97
356.961	167.93
357.172	75.77
357.384	90.11
357.595	61.44
357.807	-38.91
358.018	94.21
358.23	88.06
358.441	26.62
358.653	98.3
358.864	30.72
359.075	38.91
359.287	96.25
359.498	75.77
359.709	92.16
359.921	6.14
360.132	75.77
360.344	116.73
360.555	34.82
360.766	57.34
360.977	45.06
361.189	71.68
361.4	141.31
361.611	141.31
361.823	49.15
362.034	10.24
362.245	2.05
362.456	16.38
362.667	118.78
362.879	40.96
363.09	18.43
363.301	73.73
363.512	47.1
363.723	75.77
363.935	116.73
364.146	94.21
364.357	-24.58
364.568	73.73
364.779	96.25
364.99	96.25
365.201	53.25
365.412	122.88
365.623	63.49
365.834	47.1
366.045	32.77
366.256	61.44
366.467	53.25
366.678	96.25
366.889	26.62
367.1	38.91
367.311	90.11
367.522	-16.38
367.733	122.88
367.944	102.4
368.155	75.77
368.366	61.44
368.577	114.69
368.788	77.82
368.999	-6.14
369.209	59.39
369.42	38.91
369.631	102.4
369.842	49.15
370.053	51.2
370.264	63.49
370.474	26.62
370.685	69.63
370.896	110.59
371.107	104.45
371.317	133.12
371.528	6.14
371.739	83.97
371.95	104.45
372.16	73.73
372.371	14.34
372.582	55.3
372.792	34.82
373.003	90.11
373.214	73.73
373.424	90.11
373.635	8.19
373.846	26.62
374.056	59.39
374.267	92.16
374.477	51.2
374.688	67.58
374.898	81.92
375.109	116.73
375.319	24.58
375.53	133.12
375.74	141.31
375.951	65.54
376.161	118.78
376.372	57.34
376.582	94.21
376.793	40.96
377.003	57.34
377.214	65.54
377.424	75.77
377.635	90.11
377.845	53.25
378.055	112.64
378.266	88.06
378.476	38.91
378.686	69.63
378.897	88.06
379.107	65.54
379.317	73.73
379.528	96.25
379.738	12.29
379.948	59.39
380.158	147.45
380.369	165.89
380.579	49.15
380.789	120.83
380.999	14.34
381.21	120.83
381.42	43.01
381.63	16.38
381.84	114.69
382.05	49.15
382.261	110.59
382.471	116.73
382.681	26.62
382.891	65.54
383.101	67.58
383.311	57.34
383.521	83.97
383.731	135.17
383.941	110.59
384.151	96.25
384.361	98.3
384.571	98.3
384.781	94.21
384.991	53.25
385.201	98.3
385.411	77.82
385.621	57.34
385.831	30.72
386.041	73.73
386.251	122.88
386.461	45.06
386.671	16.38
386.881	135.17
387.091	118.78
387.301	106.49
387.511	43.01
387.72	86.01
387.93	45.06
388.14	110.59
388.35	79.87
388.56	159.74
388.769	167.93
388.979	98.3
389.189	92.16
389.399	59.39
389.609	100.35
389.818	110.59
390.028	102.4
390.238	65.54
390.447	51.2
390.657	67.58
390.867	20.48
391.076	94.21
391.286	90.11
391.496	98.3
391.705	143.36
391.915	104.45
392.125	163.84
392.334	90.11
392.544	73.73
392.753	86.01
392.963	126.97
393.172	102.4
393.382	92.16
393.591	102.4
393.801	75.77
394.01	110.59
394.22	71.68
394.429	90.11
394.639	65.54
394.848	169.98
395.058	143.36
395.267	98.3
395.477	90.11
395.686	133.12
395.895	122.88
396.105	186.37
396.314	194.56
396.524	153.6
396.733	112.64
396.942	174.08
397.152	135.17
397.361	131.07
397.57	139.26
397.78	178.17
397.989	167.93
398.198	108.54
398.407	135.17
398.617	155.65
398.826	98.3
399.035	139.26
399.244	180.22
399.453	122.88
399.663	157.69
399.872	190.46
400.081	153.6
400.29	141.31
400.499	83.97
400.708	100.35
400.917	57.34
401.127	182.27
401.336	190.46
401.545	159.74
401.754	129.02
401.963	186.37
402.172	174.08
402.381	184.32
402.59	137.21
402.799	92.16
403.008	174.08
403.217	184.32
403.426	198.65
403.635	124.93
403.844	102.4
404.053	153.6
404.262	225.28
404.471	235.52
404.68	223.23
404.888	256
405.097	243.71
405.306	215.04
405.515	239.61
405.724	196.61
405.933	180.22
406.142	233.47
406.35	292.86
406.559	196.61
406.768	296.96
406.977	272.38
407.185	239.61
407.394	266.24
407.603	249.85
407.812	286.72
408.02	270.33
408.229	356.35
408.438	284.67
408.646	329.72
408.855	311.29
409.064	274.43
409.272	366.59
409.481	301.05
409.69	385.02
409.898	446.46
410.107	411.64
410.315	423.93
410.524	391.16
410.733	483.32
410.941	440.31
411.15	442.36
411.358	524.28
411.567	522.23
411.775	528.38
411.984	565.24
412.192	651.25
412.401	593.91
412.609	587.77
412.818	675.83
413.026	675.83
413.234	706.55
413.443	776.18
413.651	675.83
413.86	696.31
414.068	860.15
414.276	731.12
414.485	767.99
414.693	868.34
414.901	935.92
415.11	942.07
415.318	915.44
415.526	956.4
415.734	1046.51
415.943	1019.89
416.151	1085.42
416.359	1046.51
416.567	1124.33
416.776	1140.72
416.984	1339.37
417.192	1255.4
417.4	1204.21
417.608	1466.35
417.817	1310.7
418.025	1417.19
418.233	1527.78
418.441	1583.08
418.649	1619.94
418.857	1703.91
419.065	1683.43
419.273	1724.39
419.481	1808.36
419.689	1763.3
419.897	1931.23
420.105	1933.28
420.313	2066.4
420.521	2164.7
420.729	2213.85
420.937	2199.52
421.145	2367.45
421.353	2545.63
421.561	2697.17
421.769	2648.02
421.977	2775
422.185	2658.26
422.393	3004.37
422.601	3022.8
422.809	3063.76
423.017	3061.71
423.224	3160.02
423.432	3321.81
423.64	3399.63
423.848	3577.8
424.056	3542.99
424.263	3796.93
424.471	3768.26
424.679	3889.09
424.887	4052.93
425.094	4175.81
425.302	4415.42
425.51	4532.15
425.718	4480.96
425.925	4630.46
426.133	4927.41
426.341	5005.24
426.548	5318.57
426.756	5242.8
426.964	5437.36
427.171	5597.1
427.379	5836.71
427.586	5971.88
427.794	6084.52
428.001	6354.85
428.209	6748.06
428.417	6723.48
428.624	7034.77
428.832	7016.34
429.039	6997.91
429.247	7020.44
429.454	7638.92
429.662	7995.27
429.869	7628.68
430.076	8228.74
430.284	8099.72
430.491	8253.31
430.699	8669.05
430.906	8816.51
431.114	8961.91
431.321	9068.41
431.528	9574.25
431.736	9844.59
431.943	10358.63
432.15	10184.55
432.358	10311.52
432.565	10794.84
432.772	10977.11
432.979	11362.13
433.187	11327.32
433.394	11648.85
433.601	12494.66
433.808	12398.4
434.016	12107.59
434.223	12881.72
434.43	13678.38
434.637	13225.78
434.844	14024.49
435.052	14411.56
435.259	14337.83
435.466	14227.24
435.673	14210.86
435.88	15429.4
436.087	15841.04
436.294	15859.47
436.501	15632.15
436.708	16086.79
436.915	16764.67
437.122	17651.44
437.329	17121.02
437.537	17923.82
437.743	18120.43
437.95	18124.52
438.157	19119.84
438.364	19515.09
438.571	19605.2
438.778	19640.02
438.985	21356.22
439.192	20917.95
439.399	21106.37
439.606	20934.34
439.813	22216.36
440.02	23070.37
440.227	22744.74
440.433	22793.89
440.64	23428.76
440.847	23363.23
441.054	23672.47
441.261	25355.9
441.467	24907.4
441.674	25788.02
441.881	26590.83
442.088	26596.97
442.294	25986.68
442.501	26777.19
442.708	27317.86
442.914	28603.98
443.121	29693.5
443.328	28894.79
443.534	30879.27
443.741	30182.96
443.948	29632.06
444.154	31895.07
444.361	31391.26
444.568	31675.93
444.774	31671.84
444.981	32359.95
445.187	33119.75
445.394	34682.35
445.6	33879.55
445.807	37035.47
446.013	35683.81
446.22	36931.02
446.426	37524.93
446.633	37860.8
446.839	39239.08
447.046	37596.61
447.252	39654.82
447.459	39800.22
447.665	39638.44
447.871	41758.08
448.078	43335.02
448.284	40598.93
448.491	42220.92
448.697	43818.34
448.903	44445.02
449.11	44420.44
449.316	43392.36
449.522	44557.66
449.728	45677.89
449.935	45995.33
450.141	45815.11
450.347	47127.86
450.553	45587.78
450.76	46048.58
450.966	47463.72
451.172	46953.78
451.378	48164.13
451.584	47213.87
451.791	47867.17
451.997	47922.47
452.203	48680.22
452.409	48792.86
452.615	48239.9
452.821	46869.81
453.027	46054.72
453.233	49179.92
453.44	46880.05
453.646	47203.63
453.852	47236.4
454.058	47770.92
454.264	46552.38
454.47	47576.36
454.676	46296.38
454.882	47598.89
455.088	43593.06
455.294	44342.62
455.5	45167.95
455.705	45571.4
455.911	43789.67
456.117	42640.76
456.323	42143.1
456.529	40199.58
456.735	41848.19
456.941	40762.77
457.147	40175
457.352	38981.04
457.558	38364.6
457.764	38604.21
457.97	37965.24
458.176	36392.4
458.381	36851.15
458.587	34911.72
458.793	35296.74
458.999	33340.93
459.204	35540.45
459.41	34489.84
459.616	32294.42
459.821	32155.16
460.027	32380.43
460.233	31493.66
460.438	29681.21
460.644	30311.99
460.85	28593.74
461.055	28393.04
461.261	28321.36
461.466	26336.88
461.672	25546.36
461.878	27387.49
462.083	25466.49
462.289	24673.93
462.494	24731.27
462.7	23531.16
462.905	23086.75
463.111	23627.42
463.316	23877.27
463.522	23281.31
463.727	23539.35
463.932	22900.39
464.138	23051.94
464.343	23258.78
464.549	22484.65
464.754	23066.27
464.959	22832.8
465.165	23002.78
465.37	22079.15
465.575	21176
465.781	22232.75
465.986	22451.88
466.191	21610.17
466.397	21276.35
466.602	20055.76
466.807	20616.9
467.012	20940.48
467.218	20518.6
