Data from USB4F104151__39__12-00-50-567.txt Node

Date: Fri Mar 14 12:00:50 EDT 2025
User: louis
Spectrometer: USB4F10415
Trigger mode: 4
Integration Time (sec): 2.000000E-2
Scans to average: 1
Electric dark correction enabled: true
Nonlinearity correction enabled: false
Boxcar width: 0
XAxis mode: Wavelengths
Number of Pixels in Spectrum: 3648
>>>>>Begin Spectral Data<<<<<
178.204	-120.49
178.424	-120.49
178.644	-120.49
178.864	-38.57
179.084	-30.38
179.304	-32.43
179.524	-16.04
179.744	-38.57
179.964	-28.33
180.184	22.87
180.404	57.68
180.624	4.44
180.844	29.01
181.064	20.82
181.283	-26.28
181.503	-13.99
181.723	20.82
181.943	69.97
182.163	67.92
182.383	14.68
182.602	29.01
182.822	33.11
183.042	61.78
183.262	-22.19
183.482	-18.09
183.701	-24.23
183.921	31.06
184.141	47.44
184.361	33.11
184.58	51.54
184.8	26.96
185.02	45.4
185.239	74.07
185.459	37.2
185.679	22.87
185.898	-9.9
186.118	59.73
186.338	31.06
186.557	59.73
186.777	-1.71
186.997	39.25
187.216	78.16
187.436	33.11
187.655	65.88
187.875	16.73
188.095	41.3
188.314	33.11
188.534	18.77
188.753	41.3
188.973	29.01
189.192	-9.9
189.412	67.92
189.631	59.73
189.851	33.11
190.07	65.88
190.29	18.77
190.509	26.96
190.729	106.84
190.948	53.59
191.168	119.12
191.387	96.6
191.607	-46.76
191.826	78.16
192.045	6.49
192.265	8.53
192.484	39.25
192.704	94.55
192.923	-13.99
193.142	33.11
193.362	6.49
193.581	24.92
193.8	82.26
194.02	33.11
194.239	-20.14
194.458	69.97
194.678	10.58
194.897	16.73
195.116	10.58
195.335	31.06
195.555	-11.95
195.774	-5.8
195.993	76.12
196.212	63.83
196.432	31.06
196.651	106.84
196.87	14.68
197.089	59.73
197.308	84.31
197.528	65.88
197.747	51.54
197.966	20.82
198.185	0.34
198.404	20.82
198.623	39.25
198.842	16.73
199.062	24.92
199.281	33.11
199.5	-63.15
199.719	8.53
199.938	20.82
200.157	24.92
200.376	29.01
200.595	24.92
200.814	100.69
201.033	-40.62
201.252	37.2
201.471	74.07
201.69	41.3
201.909	115.03
202.128	51.54
202.347	-22.19
202.566	12.63
202.785	-46.76
203.004	-38.57
203.223	31.06
203.442	10.58
203.661	31.06
203.879	22.87
204.098	63.83
204.317	29.01
204.536	33.11
204.755	-18.09
204.974	8.53
205.193	35.16
205.411	43.35
205.63	22.87
205.849	14.68
206.068	57.68
206.287	-32.43
206.505	-22.19
206.724	104.79
206.943	-5.8
207.162	78.16
207.381	-9.9
207.599	108.88
207.818	88.4
208.037	0.34
208.255	53.59
208.474	24.92
208.693	49.49
208.911	47.44
209.13	74.07
209.349	31.06
209.567	8.53
209.786	49.49
210.005	-46.76
210.223	51.54
210.442	14.68
210.661	2.39
210.879	65.88
211.098	-13.99
211.316	-9.9
211.535	72.02
211.753	-20.14
211.972	-42.67
212.191	2.39
212.409	2.39
212.628	12.63
212.846	57.68
213.065	69.97
213.283	41.3
213.502	-16.04
213.72	47.44
213.938	29.01
214.157	139.6
214.375	55.64
214.594	33.11
214.812	22.87
215.031	-1.71
215.249	26.96
215.467	4.44
215.686	67.92
215.904	74.07
216.122	-50.86
216.341	117.08
216.559	80.21
216.778	96.6
216.996	88.4
217.214	-18.09
217.432	6.49
217.651	14.68
217.869	14.68
218.087	8.53
218.306	65.88
218.524	49.49
218.742	-38.57
218.96	57.68
219.179	35.16
219.397	49.49
219.615	49.49
219.833	59.73
220.051	35.16
220.27	98.64
220.488	57.68
220.706	-48.81
220.924	51.54
221.142	-9.9
221.36	-13.99
221.578	37.2
221.796	-3.75
222.015	-50.86
222.233	-5.8
222.451	86.36
222.669	0.34
222.887	18.77
223.105	-59.05
223.323	41.3
223.541	31.06
223.759	6.49
223.977	53.59
224.195	51.54
224.413	4.44
224.631	14.68
224.849	-13.99
225.067	59.73
225.285	-1.71
225.503	37.2
225.721	-30.38
225.939	63.83
226.157	-9.9
226.375	65.88
226.592	39.25
226.81	16.73
227.028	115.03
227.246	37.2
227.464	94.55
227.682	8.53
227.9	-3.75
228.117	39.25
228.335	51.54
228.553	33.11
228.771	31.06
228.989	41.3
229.206	16.73
229.424	29.01
229.642	-18.09
229.86	37.2
230.077	41.3
230.295	0.34
230.513	72.02
230.731	-1.71
230.948	49.49
231.166	35.16
231.384	18.77
231.601	41.3
231.819	24.92
232.037	-50.86
232.254	53.59
232.472	88.4
232.689	45.4
232.907	55.64
233.125	4.44
233.342	59.73
233.56	26.96
233.777	33.11
233.995	0.34
234.213	88.4
234.43	43.35
234.648	72.02
234.865	37.2
235.083	45.4
235.3	10.58
235.518	33.11
235.735	14.68
235.953	108.88
236.17	26.96
236.388	12.63
236.605	26.96
236.822	10.58
237.04	8.53
237.257	98.64
237.475	22.87
237.692	24.92
237.909	8.53
238.127	14.68
238.344	-3.75
238.562	18.77
238.779	-3.75
238.996	80.21
239.214	39.25
239.431	26.96
239.648	12.63
239.865	76.12
240.083	61.78
240.3	67.92
240.517	6.49
240.735	20.82
240.952	84.31
241.169	12.63
241.386	100.69
241.603	10.58
241.821	51.54
242.038	8.53
242.255	65.88
242.472	37.2
242.689	24.92
242.907	31.06
243.124	129.36
243.341	39.25
243.558	76.12
243.775	-13.99
243.992	35.16
244.209	53.59
244.426	18.77
244.643	12.63
244.86	10.58
245.078	88.4
245.295	16.73
245.512	29.01
245.729	-9.9
245.946	31.06
246.163	45.4
246.38	45.4
246.597	29.01
246.814	8.53
247.031	41.3
247.248	65.88
247.464	20.82
247.681	45.4
247.898	-54.95
248.115	108.88
248.332	59.73
248.549	86.36
248.766	45.4
248.983	82.26
249.2	37.2
249.417	2.39
249.633	8.53
249.85	65.88
250.067	41.3
250.284	16.73
250.501	39.25
250.717	6.49
250.934	39.25
251.151	74.07
251.368	43.35
251.585	96.6
251.801	53.59
252.018	24.92
252.235	74.07
252.451	59.73
252.668	10.58
252.885	24.92
253.102	14.68
253.318	-30.38
253.535	35.16
253.752	61.78
253.968	63.83
254.185	8.53
254.401	35.16
254.618	41.3
254.835	-40.62
255.051	98.64
255.268	92.5
255.484	57.68
255.701	26.96
255.917	47.44
256.134	6.49
256.351	47.44
256.567	-9.9
256.784	84.31
257	57.68
257.217	102.74
257.433	41.3
257.65	43.35
257.866	43.35
258.082	74.07
258.299	-3.75
258.515	20.82
258.732	0.34
258.948	35.16
259.165	37.2
259.381	45.4
259.597	51.54
259.814	20.82
260.03	35.16
260.246	49.49
260.463	104.79
260.679	18.77
260.895	72.02
261.112	72.02
261.328	33.11
261.544	26.96
261.761	45.4
261.977	2.39
262.193	37.2
262.409	72.02
262.626	92.5
262.842	63.83
263.058	115.03
263.274	37.2
263.49	63.83
263.707	41.3
263.923	6.49
264.139	20.82
264.355	6.49
264.571	74.07
264.787	0.34
265.004	90.45
265.22	12.63
265.436	65.88
265.652	-16.04
265.868	69.97
266.084	-16.04
266.3	88.4
266.516	12.63
266.732	123.22
266.948	14.68
267.164	31.06
267.38	4.44
267.596	65.88
267.812	6.49
268.028	41.3
268.244	18.77
268.46	63.83
268.676	-1.71
268.892	90.45
269.108	35.16
269.324	0.34
269.54	80.21
269.756	18.77
269.972	-36.52
270.188	-5.8
270.403	80.21
270.619	43.35
270.835	18.77
271.051	14.68
271.267	14.68
271.483	47.44
271.698	43.35
271.914	-5.8
272.13	31.06
272.346	-30.38
272.562	80.21
272.777	2.39
272.993	10.58
273.209	31.06
273.425	8.53
273.64	18.77
273.856	92.5
274.072	2.39
274.287	55.64
274.503	8.53
274.719	26.96
274.934	4.44
275.15	14.68
275.366	-40.62
275.581	74.07
275.797	112.98
276.012	-7.85
276.228	59.73
276.444	-9.9
276.659	84.31
276.875	-9.9
277.09	26.96
277.306	33.11
277.521	78.16
277.737	69.97
277.952	76.12
278.168	43.35
278.383	53.59
278.599	8.53
278.814	53.59
279.03	57.68
279.245	125.27
279.461	57.68
279.676	137.56
279.892	-22.19
280.107	4.44
280.322	-7.85
280.538	35.16
280.753	-3.75
280.969	-5.8
281.184	57.68
281.399	45.4
281.615	-42.67
281.83	69.97
282.045	16.73
282.26	14.68
282.476	8.53
282.691	67.92
282.906	69.97
283.122	35.16
283.337	69.97
283.552	4.44
283.767	47.44
283.983	18.77
284.198	29.01
284.413	55.64
284.628	14.68
284.843	76.12
285.058	141.65
285.274	-63.15
285.489	39.25
285.704	123.22
285.919	16.73
286.134	41.3
286.349	6.49
286.564	20.82
286.779	22.87
286.995	-22.19
287.21	-42.67
287.425	102.74
287.64	16.73
287.855	26.96
288.07	-61.1
288.285	96.6
288.5	110.93
288.715	-59.05
288.93	20.82
289.145	67.92
289.36	14.68
289.575	80.21
289.79	98.64
290.004	33.11
290.219	-22.19
290.434	33.11
290.649	26.96
290.864	94.55
291.079	37.2
291.294	6.49
291.509	108.88
291.724	0.34
291.938	-24.23
292.153	63.83
292.368	106.84
292.583	0.34
292.798	61.78
293.012	92.5
293.227	18.77
293.442	-32.43
293.657	-18.09
293.871	37.2
294.086	59.73
294.301	39.25
294.516	110.93
294.73	-65.19
294.945	72.02
295.16	24.92
295.374	78.16
295.589	35.16
295.804	-9.9
296.018	65.88
296.233	-16.04
296.447	76.12
296.662	88.4
296.877	53.59
297.091	67.92
297.306	16.73
297.52	76.12
297.735	12.63
297.949	16.73
298.164	104.79
298.378	35.16
298.593	49.49
298.807	6.49
299.022	74.07
299.236	20.82
299.451	22.87
299.665	35.16
299.88	-13.99
300.094	20.82
300.309	-46.76
300.523	115.03
300.737	24.92
300.952	14.68
301.166	18.77
301.381	39.25
301.595	41.3
301.809	76.12
302.024	41.3
302.238	14.68
302.452	0.34
302.667	33.11
302.881	63.83
303.095	67.92
303.309	74.07
303.524	35.16
303.738	45.4
303.952	59.73
304.166	47.44
304.381	49.49
304.595	117.08
304.809	-5.8
305.023	-7.85
305.237	-1.71
305.452	74.07
305.666	84.31
305.88	16.73
306.094	14.68
306.308	53.59
306.522	127.32
306.736	35.16
306.95	82.26
307.164	8.53
307.379	39.25
307.593	26.96
307.807	24.92
308.021	59.73
308.235	-3.75
308.449	98.64
308.663	4.44
308.877	104.79
309.091	-18.09
309.305	20.82
309.519	67.92
309.733	55.64
309.947	69.97
310.161	45.4
310.374	88.4
310.588	2.39
310.802	-34.47
311.016	-11.95
311.23	47.44
311.444	-11.95
311.658	63.83
311.872	94.55
312.085	63.83
312.299	45.4
312.513	82.26
312.727	82.26
312.941	-9.9
313.154	-44.71
313.368	2.39
313.582	-34.47
313.796	37.2
314.009	45.4
314.223	8.53
314.437	2.39
314.651	18.77
314.864	55.64
315.078	76.12
315.292	45.4
315.505	20.82
315.719	53.59
315.933	-3.75
316.146	8.53
316.36	-11.95
316.573	31.06
316.787	35.16
317.001	43.35
317.214	2.39
317.428	39.25
317.641	45.4
317.855	96.6
318.068	-9.9
318.282	-20.14
318.495	82.26
318.709	61.78
318.922	-5.8
319.136	72.02
319.349	16.73
319.563	-9.9
319.776	135.51
319.99	-18.09
320.203	72.02
320.417	24.92
320.63	35.16
320.843	59.73
321.057	10.58
321.27	10.58
321.483	59.73
321.697	-5.8
321.91	35.16
322.124	10.58
322.337	41.3
322.55	76.12
322.763	35.16
322.977	-7.85
323.19	18.77
323.403	86.36
323.617	29.01
323.83	57.68
324.043	53.59
324.256	84.31
324.469	41.3
324.683	2.39
324.896	22.87
325.109	37.2
325.322	8.53
325.535	37.2
325.748	12.63
325.962	61.78
326.175	12.63
326.388	29.01
326.601	41.3
326.814	72.02
327.027	65.88
327.24	24.92
327.453	-20.14
327.666	78.16
327.879	41.3
328.092	96.6
328.305	4.44
328.518	31.06
328.731	-71.34
328.944	39.25
329.157	-3.75
329.37	61.78
329.583	57.68
329.796	104.79
330.009	-28.33
330.222	72.02
330.435	-3.75
330.648	22.87
330.861	33.11
331.073	4.44
331.286	84.31
331.499	82.26
331.712	82.26
331.925	14.68
332.138	51.54
332.35	6.49
332.563	-52.91
332.776	45.4
332.989	-7.85
333.202	123.22
333.414	67.92
333.627	35.16
333.84	14.68
334.053	115.03
334.265	14.68
334.478	45.4
334.691	35.16
334.903	86.36
335.116	4.44
335.329	76.12
335.541	123.22
335.754	104.79
335.966	6.49
336.179	26.96
336.392	45.4
336.604	31.06
336.817	12.63
337.029	-3.75
337.242	57.68
337.454	8.53
337.667	41.3
337.88	76.12
338.092	2.39
338.305	18.77
338.517	86.36
338.729	-18.09
338.942	43.35
339.154	47.44
339.367	-1.71
339.579	39.25
339.792	63.83
340.004	31.06
340.217	47.44
340.429	-59.05
340.641	-22.19
340.854	8.53
341.066	12.63
341.278	76.12
341.491	47.44
341.703	82.26
341.915	-1.71
342.128	65.88
342.34	47.44
342.552	-42.67
342.764	6.49
342.977	29.01
343.189	80.21
343.401	112.98
343.613	-18.09
343.826	35.16
344.038	-59.05
344.25	-13.99
344.462	-11.95
344.674	33.11
344.886	26.96
345.099	2.39
345.311	35.16
345.523	53.59
345.735	80.21
345.947	57.68
346.159	43.35
346.371	49.49
346.583	31.06
346.795	16.73
347.007	43.35
347.219	127.32
347.431	45.4
347.643	29.01
347.855	35.16
348.067	53.59
348.279	-1.71
348.491	39.25
348.703	72.02
348.915	4.44
349.127	76.12
349.339	63.83
349.551	4.44
349.763	12.63
349.975	6.49
350.187	22.87
350.399	65.88
350.61	26.96
350.822	31.06
351.034	20.82
351.246	-26.28
351.458	76.12
351.669	61.78
351.881	86.36
352.093	49.49
352.305	84.31
352.517	47.44
352.728	78.16
352.94	49.49
353.152	57.68
353.363	33.11
353.575	82.26
353.787	55.64
353.999	39.25
354.21	84.31
354.422	49.49
354.633	65.88
354.845	-16.04
355.057	33.11
355.268	74.07
355.48	110.93
355.692	33.11
355.903	92.5
356.115	88.4
356.326	31.06
356.538	102.74
356.749	43.35
356.961	69.97
357.172	76.12
357.384	43.35
357.595	137.56
357.807	-1.71
358.018	47.44
358.23	100.69
358.441	14.68
358.653	39.25
358.864	88.4
359.075	94.55
359.287	37.2
359.498	88.4
359.709	98.64
359.921	16.73
360.132	86.36
360.344	20.82
360.555	-69.29
360.766	78.16
360.977	39.25
361.189	51.54
361.4	-16.04
361.611	65.88
361.823	88.4
362.034	69.97
362.245	10.58
362.456	43.35
362.667	78.16
362.879	98.64
363.09	47.44
363.301	26.96
363.512	22.87
363.723	78.16
363.935	33.11
364.146	72.02
364.357	53.59
364.568	104.79
364.779	-7.85
364.99	137.56
365.201	43.35
365.412	92.5
365.623	20.82
365.834	43.35
366.045	33.11
366.256	115.03
366.467	20.82
366.678	26.96
366.889	8.53
367.1	6.49
367.311	121.17
367.522	-16.04
367.733	84.31
367.944	10.58
368.155	69.97
368.366	61.78
368.577	47.44
368.788	82.26
368.999	-52.91
369.209	69.97
369.42	33.11
369.631	76.12
369.842	8.53
370.053	4.44
370.264	-5.8
370.474	22.87
370.685	96.6
370.896	39.25
371.107	47.44
371.317	78.16
371.528	-1.71
371.739	45.4
371.95	31.06
372.16	53.59
372.371	22.87
372.582	57.68
372.792	49.49
373.003	108.88
373.214	76.12
373.424	2.39
373.635	59.73
373.846	76.12
374.056	96.6
374.267	-13.99
374.477	84.31
374.688	108.88
374.898	24.92
375.109	63.83
375.319	63.83
375.53	98.64
375.74	-1.71
375.951	45.4
376.161	29.01
376.372	98.64
376.582	-69.29
376.793	96.6
377.003	72.02
377.214	0.34
377.424	98.64
377.635	82.26
377.845	117.08
378.055	98.64
378.266	20.82
378.476	4.44
378.686	59.73
378.897	67.92
379.107	37.2
379.317	59.73
379.528	33.11
379.738	63.83
379.948	8.53
380.158	110.93
380.369	35.16
380.579	37.2
380.789	61.78
380.999	20.82
381.21	90.45
381.42	4.44
381.63	33.11
381.84	86.36
382.05	24.92
382.261	41.3
382.471	117.08
382.681	59.73
382.891	121.17
383.101	49.49
383.311	69.97
383.521	53.59
383.731	16.73
383.941	76.12
384.151	82.26
384.361	43.35
384.571	108.88
384.781	63.83
384.991	115.03
385.201	80.21
385.411	98.64
385.621	59.73
385.831	55.64
386.041	2.39
386.251	43.35
386.461	119.12
386.671	61.78
386.881	41.3
387.091	104.79
387.301	31.06
387.511	92.5
387.72	76.12
387.93	26.96
388.14	45.4
388.35	123.22
388.56	82.26
388.769	82.26
388.979	63.83
389.189	47.44
389.399	-18.09
389.609	29.01
389.818	84.31
390.028	2.39
390.238	86.36
390.447	49.49
390.657	51.54
390.867	-65.19
391.076	63.83
391.286	69.97
391.496	61.78
391.705	35.16
391.915	162.13
392.125	119.12
392.334	49.49
392.544	74.07
392.753	65.88
392.963	43.35
393.172	149.84
393.382	33.11
393.591	57.68
393.801	88.4
394.01	96.6
394.22	106.84
394.429	80.21
394.639	57.68
394.848	53.59
395.058	53.59
395.267	110.93
395.477	74.07
395.686	51.54
395.895	151.89
396.105	90.45
396.314	104.79
396.524	74.07
396.733	141.65
396.942	125.27
397.152	26.96
397.361	137.56
397.57	110.93
397.78	110.93
397.989	94.55
398.198	127.32
398.407	26.96
398.617	80.21
398.826	10.58
399.035	63.83
399.244	82.26
399.453	72.02
399.663	90.45
399.872	119.12
400.081	149.84
400.29	123.22
400.499	37.2
400.708	127.32
400.917	102.74
401.127	135.51
401.336	69.97
401.545	127.32
401.754	160.08
401.963	131.41
402.172	162.13
402.381	45.4
402.59	61.78
402.799	63.83
403.008	166.23
403.217	158.03
403.426	82.26
403.635	98.64
403.844	98.64
404.053	108.88
404.262	55.64
404.471	100.69
404.68	108.88
404.888	121.17
405.097	65.88
405.306	158.03
405.515	160.08
405.724	127.32
405.933	133.46
406.142	86.36
406.35	153.94
406.559	153.94
406.768	98.64
406.977	260.43
407.185	252.24
407.394	219.47
407.603	121.17
407.812	217.43
408.02	209.23
408.229	209.23
408.438	227.67
408.646	198.99
408.855	190.8
409.064	219.47
409.272	282.96
409.481	207.19
409.69	168.27
409.898	309.58
410.107	254.29
410.315	282.96
410.524	358.74
410.733	325.97
410.941	332.11
411.15	272.72
411.358	387.41
411.567	434.51
411.775	391.5
411.984	338.26
412.192	407.89
412.401	274.77
412.609	450.89
412.818	516.43
413.026	399.7
413.234	446.8
413.443	436.56
413.651	475.47
413.86	522.57
414.068	512.33
414.276	520.53
414.485	563.53
414.693	510.29
414.901	682.31
415.11	655.69
415.318	639.31
415.526	686.41
415.734	661.84
415.943	745.8
416.151	749.9
416.359	686.41
416.567	772.43
416.776	821.58
416.984	837.96
417.192	868.68
417.4	932.17
417.608	909.64
417.817	897.35
418.025	895.3
418.233	1053
418.441	1026.37
418.649	1112.39
418.857	1112.39
419.065	1167.68
419.273	1132.87
419.481	1300.8
419.689	1274.18
419.897	1341.76
420.105	1413.44
420.313	1386.82
420.521	1456.45
420.729	1456.45
420.937	1425.73
421.145	1589.57
421.353	1734.97
421.561	1743.16
421.769	1751.35
421.977	1851.71
422.185	1810.75
422.393	1933.62
422.601	2009.4
422.809	1978.68
423.017	1978.68
423.224	2148.66
423.432	2208.05
423.64	2289.97
423.848	2474.29
424.056	2359.6
424.263	2556.21
424.471	2629.93
424.679	2570.54
424.887	2793.77
425.094	2828.59
425.302	2830.63
425.51	2961.7
425.718	3090.73
425.925	3111.21
426.133	3248.42
426.341	3342.63
426.548	3549.47
426.756	3578.14
426.964	3477.79
427.171	3772.7
427.379	3854.62
427.586	3838.23
427.794	4006.17
428.001	4251.92
428.209	4571.41
428.417	4346.13
428.624	4729.1
428.832	4800.78
429.039	4643.09
429.247	4690.19
429.454	5110.02
429.662	5447.94
429.869	5087.5
430.076	5425.41
430.284	5333.25
430.491	5378.31
430.699	5902.59
430.906	5832.96
431.114	5970.17
431.321	6060.28
431.528	6254.84
431.736	6482.16
431.943	6998.25
432.15	6732.01
432.358	6887.66
432.565	7289.06
432.772	7217.38
432.979	7669.98
433.187	7680.22
433.394	7712.99
433.601	8247.51
433.808	8425.68
434.016	8401.11
434.223	8544.47
434.43	9140.43
434.637	9109.71
434.844	9380.04
435.052	9625.79
435.259	9588.93
435.466	9646.27
435.673	9595.07
435.88	10193.08
436.087	10995.89
436.294	10815.66
436.501	10494.13
436.708	10694.83
436.915	11253.93
437.122	11454.63
437.329	11571.36
437.537	12015.77
437.743	12150.94
437.95	11925.66
438.157	12642.45
438.364	13062.29
438.571	13115.53
438.778	12998.8
438.985	14323.83
439.192	13901.95
439.399	14362.75
439.606	13922.43
439.813	14968.94
440.02	15777.89
440.227	15421.55
440.433	15018.1
440.64	15831.14
440.847	15726.69
441.054	16355.42
441.261	17199.18
441.467	16709.72
441.674	17184.85
441.881	18034.75
442.088	17899.59
442.294	17678.41
442.501	18262.08
442.708	18505.79
442.914	19212.34
443.121	20154.4
443.328	19748.9
443.534	20611.1
443.741	20308
443.948	19922.98
444.154	21422.09
444.361	21080.08
444.568	21352.46
444.774	21639.18
444.981	21929.99
445.187	22265.86
445.394	22951.93
445.6	23156.72
445.807	25376.72
446.013	24293.35
446.22	24317.92
446.426	25569.23
446.633	25857.99
446.839	26691.52
447.046	25749.45
447.252	26953.66
447.459	26763.2
447.665	27002.81
447.871	28508.07
448.078	29314.97
448.284	27844.52
448.491	28540.83
448.697	29855.63
448.903	30115.72
449.11	30242.7
449.316	29763.47
449.522	30236.55
449.728	31133.56
449.935	31399.8
450.141	31522.68
450.347	31977.33
450.553	31096.7
450.76	31481.72
450.966	32348.01
451.172	32360.3
451.378	32712.55
451.584	32089.96
451.791	32911.2
451.997	32952.16
452.203	33517.4
452.409	33570.65
452.615	33060.7
452.821	31872.88
453.027	31930.22
453.233	33249.11
453.44	31788.91
453.646	32208.75
453.852	32530.28
454.058	32999.26
454.264	31997.81
454.47	32917.34
454.676	31895.41
454.882	32796.51
455.088	30091.15
455.294	30521.22
455.5	31025.02
455.705	31233.91
455.911	29970.32
456.117	29343.64
456.323	28805.02
456.529	27527.09
456.735	28579.75
456.941	27731.89
457.147	27199.41
457.352	26449.86
457.558	26265.54
457.764	26075.08
457.97	25831.37
458.176	25130.97
458.381	25098.2
458.587	23816.17
458.793	23728.11
458.999	22796.28
459.204	24307.68
459.41	23603.18
459.616	21999.62
459.821	22212.61
460.027	22077.44
460.233	21352.46
460.438	20312.1
460.644	20572.19
460.85	19511.34
461.055	19279.92
461.261	19320.88
461.466	17885.25
461.672	17279.05
461.878	18608.19
462.083	17281.1
462.289	17043.54
462.494	16685.14
462.7	16029.79
462.905	15593.58
463.111	16140.38
463.316	16177.25
463.522	15896.67
463.727	15757.41
463.932	15810.66
464.138	15523.94
464.343	15779.94
464.549	15288.43
464.754	15839.33
464.959	15833.19
465.165	15525.99
465.37	14710.9
465.575	14469.24
465.781	15296.62
465.986	15079.54
466.191	14411.9
466.397	14248.06
466.602	13605
466.807	14198.91
467.012	14053.5
467.218	13985.92
467.423	14002.3
467.628	13985.92
467.833	14622.84
468.038	13813.89
468.244	13545.61
468.449	14291.07
468.654	13637.77
468.859	13457.54
