Data from USB4F104151__18__12-00-27-433.txt Node

Date: Fri Mar 14 12:00:27 EDT 2025
User: louis
Spectrometer: USB4F10415
Trigger mode: 4
Integration Time (sec): 2.000000E-2
Scans to average: 1
Electric dark correction enabled: true
Nonlinearity correction enabled: false
Boxcar width: 0
XAxis mode: Wavelengths
Number of Pixels in Spectrum: 3648
>>>>>Begin Spectral Data<<<<<
178.204	-95.91
178.424	-95.91
178.644	-95.91
178.864	-73.39
179.084	-93.87
179.304	-5.8
179.524	-16.04
179.744	-36.52
179.964	6.49
180.184	22.87
180.404	6.49
180.624	-13.99
180.844	2.39
181.064	45.4
181.283	-3.75
181.503	-13.99
181.723	6.49
181.943	-50.86
182.163	49.49
182.383	-5.8
182.602	18.77
182.822	51.54
183.042	-52.91
183.262	-11.95
183.482	35.16
183.701	45.4
183.921	12.63
184.141	-26.28
184.361	106.84
184.58	-54.95
184.8	39.25
185.02	-5.8
185.239	35.16
185.459	-28.33
185.679	63.83
185.898	2.39
186.118	-26.28
186.338	67.92
186.557	-3.75
186.777	12.63
186.997	-13.99
187.216	67.92
187.436	69.97
187.655	24.92
187.875	90.45
188.095	35.16
188.314	76.12
188.534	26.96
188.753	-3.75
188.973	65.88
189.192	88.4
189.412	35.16
189.631	-32.43
189.851	-34.47
190.07	61.78
190.29	-30.38
190.509	41.3
190.729	43.35
190.948	22.87
191.168	108.88
191.387	102.74
191.607	-24.23
191.826	84.31
192.045	20.82
192.265	61.78
192.484	55.64
192.704	80.21
192.923	22.87
193.142	53.59
193.362	14.68
193.581	74.07
193.8	41.3
194.02	47.44
194.239	39.25
194.458	8.53
194.678	-9.9
194.897	12.63
195.116	8.53
195.335	-24.23
195.555	78.16
195.774	53.59
195.993	67.92
196.212	-36.52
196.432	-3.75
196.651	10.58
196.87	43.35
197.089	110.93
197.308	55.64
197.528	-42.67
197.747	0.34
197.966	37.2
198.185	-11.95
198.404	-3.75
198.623	90.45
198.842	16.73
199.062	29.01
199.281	22.87
199.5	18.77
199.719	43.35
199.938	8.53
200.157	6.49
200.376	-22.19
200.595	35.16
200.814	-20.14
201.033	16.73
201.252	33.11
201.471	49.49
201.69	43.35
201.909	39.25
202.128	8.53
202.347	43.35
202.566	80.21
202.785	43.35
203.004	59.73
203.223	65.88
203.442	55.64
203.661	16.73
203.879	63.83
204.098	45.4
204.317	24.92
204.536	76.12
204.755	84.31
204.974	31.06
205.193	35.16
205.411	74.07
205.63	-16.04
205.849	88.4
206.068	88.4
206.287	-1.71
206.505	37.2
206.724	72.02
206.943	24.92
207.162	63.83
207.381	6.49
207.599	33.11
207.818	6.49
208.037	8.53
208.255	14.68
208.474	33.11
208.693	37.2
208.911	16.73
209.13	78.16
209.349	33.11
209.567	65.88
209.786	31.06
210.005	24.92
210.223	43.35
210.442	-7.85
210.661	76.12
210.879	22.87
211.098	39.25
211.316	65.88
211.535	86.36
211.753	90.45
211.972	8.53
212.191	24.92
212.409	33.11
212.628	63.83
212.846	-91.82
213.065	-38.57
213.283	76.12
213.502	16.73
213.72	20.82
213.938	4.44
214.157	106.84
214.375	16.73
214.594	31.06
214.812	29.01
215.031	-13.99
215.249	-5.8
215.467	10.58
215.686	-52.91
215.904	127.32
216.122	-22.19
216.341	18.77
216.559	-24.23
216.778	65.88
216.996	10.58
217.214	-67.24
217.432	-13.99
217.651	-28.33
217.869	4.44
218.087	-42.67
218.306	59.73
218.524	22.87
218.742	53.59
218.96	31.06
219.179	2.39
219.397	53.59
219.615	184.66
219.833	61.78
220.051	-28.33
220.27	102.74
220.488	31.06
220.706	0.34
220.924	-32.43
221.142	-18.09
221.36	35.16
221.578	-16.04
221.796	29.01
222.015	24.92
222.233	-26.28
222.451	22.87
222.669	-67.24
222.887	12.63
223.105	-1.71
223.323	41.3
223.541	16.73
223.759	-5.8
223.977	86.36
224.195	82.26
224.413	31.06
224.631	55.64
224.849	59.73
225.067	-11.95
225.285	-36.52
225.503	67.92
225.721	-40.62
225.939	39.25
226.157	24.92
226.375	78.16
226.592	-3.75
226.81	80.21
227.028	29.01
227.246	47.44
227.464	92.5
227.682	82.26
227.9	39.25
228.117	20.82
228.335	-59.05
228.553	10.58
228.771	-7.85
228.989	26.96
229.206	39.25
229.424	-30.38
229.642	-13.99
229.86	39.25
230.077	123.22
230.295	-9.9
230.513	49.49
230.731	26.96
230.948	0.34
231.166	51.54
231.384	53.59
231.601	82.26
231.819	6.49
232.037	-3.75
232.254	43.35
232.472	45.4
232.689	-28.33
232.907	59.73
233.125	61.78
233.342	39.25
233.56	-11.95
233.777	-3.75
233.995	47.44
234.213	31.06
234.43	39.25
234.648	65.88
234.865	59.73
235.083	-7.85
235.3	12.63
235.518	4.44
235.735	65.88
235.953	51.54
236.17	-5.8
236.388	-22.19
236.605	6.49
236.822	86.36
237.04	2.39
237.257	4.44
237.475	-5.8
237.692	-32.43
237.909	41.3
238.127	8.53
238.344	-1.71
238.562	59.73
238.779	20.82
238.996	6.49
239.214	-42.67
239.431	65.88
239.648	8.53
239.865	4.44
240.083	86.36
240.3	63.83
240.517	14.68
240.735	45.4
240.952	-13.99
241.169	41.3
241.386	-24.23
241.603	98.64
241.821	-16.04
242.038	39.25
242.255	22.87
242.472	-114.34
242.689	-24.23
242.907	24.92
243.124	57.68
243.341	24.92
243.558	49.49
243.775	18.77
243.992	33.11
244.209	41.3
244.426	35.16
244.643	59.73
244.86	14.68
245.078	90.45
245.295	-1.71
245.512	74.07
245.729	61.78
245.946	24.92
246.163	-9.9
246.38	31.06
246.597	-26.28
246.814	63.83
247.031	39.25
247.248	43.35
247.464	61.78
247.681	16.73
247.898	84.31
248.115	-5.8
248.332	-30.38
248.549	88.4
248.766	137.56
248.983	18.77
249.2	33.11
249.417	100.69
249.633	-26.28
249.85	67.92
250.067	86.36
250.284	41.3
250.501	29.01
250.717	61.78
250.934	10.58
251.151	0.34
251.368	-40.62
251.585	61.78
251.801	47.44
252.018	33.11
252.235	67.92
252.451	43.35
252.668	53.59
252.885	29.01
253.102	18.77
253.318	47.44
253.535	65.88
253.752	22.87
253.968	14.68
254.185	0.34
254.401	-13.99
254.618	10.58
254.835	6.49
255.051	82.26
255.268	22.87
255.484	61.78
255.701	65.88
255.917	-32.43
256.134	72.02
256.351	10.58
256.567	-38.57
256.784	18.77
257	14.68
257.217	-20.14
257.433	-1.71
257.65	-13.99
257.866	51.54
258.082	-18.09
258.299	33.11
258.515	45.4
258.732	67.92
258.948	6.49
259.165	24.92
259.381	31.06
259.597	47.44
259.814	39.25
260.03	24.92
260.246	31.06
260.463	84.31
260.679	72.02
260.895	33.11
261.112	49.49
261.328	6.49
261.544	45.4
261.761	59.73
261.977	-44.71
262.193	41.3
262.409	88.4
262.626	76.12
262.842	-13.99
263.058	-7.85
263.274	14.68
263.49	61.78
263.707	86.36
263.923	72.02
264.139	45.4
264.355	-1.71
264.571	2.39
264.787	0.34
265.004	72.02
265.22	84.31
265.436	61.78
265.652	33.11
265.868	-16.04
266.084	4.44
266.3	45.4
266.516	-30.38
266.732	43.35
266.948	-32.43
267.164	16.73
267.38	39.25
267.596	69.97
267.812	14.68
268.028	12.63
268.244	29.01
268.46	41.3
268.676	49.49
268.892	45.4
269.108	123.22
269.324	-3.75
269.54	0.34
269.756	41.3
269.972	-79.53
270.188	16.73
270.403	37.2
270.619	-46.76
270.835	41.3
271.051	22.87
271.267	35.16
271.483	-11.95
271.698	84.31
271.914	78.16
272.13	41.3
272.346	41.3
272.562	8.53
272.777	31.06
272.993	31.06
273.209	-26.28
273.425	12.63
273.64	12.63
273.856	-20.14
274.072	90.45
274.287	43.35
274.503	24.92
274.719	37.2
274.934	72.02
275.15	-30.38
275.366	-22.19
275.581	39.25
275.797	51.54
276.012	-34.47
276.228	96.6
276.444	78.16
276.659	-28.33
276.875	-30.38
277.09	41.3
277.306	41.3
277.521	39.25
277.737	61.78
277.952	63.83
278.168	53.59
278.383	47.44
278.599	55.64
278.814	69.97
279.03	-11.95
279.245	26.96
279.461	14.68
279.676	74.07
279.892	-30.38
280.107	-24.23
280.322	35.16
280.538	26.96
280.753	37.2
280.969	37.2
281.184	94.55
281.399	35.16
281.615	94.55
281.83	4.44
282.045	10.58
282.26	-34.47
282.476	18.77
282.691	84.31
282.906	-46.76
283.122	55.64
283.337	-13.99
283.552	63.83
283.767	0.34
283.983	10.58
284.198	20.82
284.413	33.11
284.628	-52.91
284.843	80.21
285.058	6.49
285.274	43.35
285.489	-42.67
285.704	112.98
285.919	69.97
286.134	6.49
286.349	47.44
286.564	49.49
286.779	37.2
286.995	55.64
287.21	-7.85
287.425	88.4
287.64	33.11
287.855	4.44
288.07	33.11
288.285	86.36
288.5	6.49
288.715	63.83
288.93	6.49
289.145	-46.76
289.36	51.54
289.575	12.63
289.79	2.39
290.004	49.49
290.219	86.36
290.434	41.3
290.649	22.87
290.864	-9.9
291.079	14.68
291.294	65.88
291.509	-16.04
291.724	12.63
291.938	82.26
292.153	57.68
292.368	84.31
292.583	67.92
292.798	67.92
293.012	55.64
293.227	4.44
293.442	0.34
293.657	10.58
293.871	2.39
294.086	84.31
294.301	86.36
294.516	4.44
294.73	0.34
294.945	4.44
295.16	-9.9
295.374	78.16
295.589	104.79
295.804	24.92
296.018	76.12
296.233	72.02
296.447	59.73
296.662	-1.71
296.877	35.16
297.091	41.3
297.306	39.25
297.52	-36.52
297.735	-20.14
297.949	31.06
298.164	67.92
298.378	10.58
298.593	24.92
298.807	-73.39
299.022	55.64
299.236	-7.85
299.451	2.39
299.665	35.16
299.88	14.68
300.094	59.73
300.309	100.69
300.523	49.49
300.737	0.34
300.952	63.83
301.166	4.44
301.381	6.49
301.595	-3.75
301.809	51.54
302.024	88.4
302.238	10.58
302.452	72.02
302.667	33.11
302.881	67.92
303.095	61.78
303.309	51.54
303.524	31.06
303.738	33.11
303.952	61.78
304.166	37.2
304.381	-7.85
304.595	59.73
304.809	18.77
305.023	78.16
305.237	100.69
305.452	53.59
305.666	69.97
305.88	6.49
306.094	0.34
306.308	59.73
306.522	90.45
306.736	61.78
306.95	55.64
307.164	139.6
307.379	2.39
307.593	-3.75
307.807	4.44
308.021	102.74
308.235	16.73
308.449	8.53
308.663	41.3
308.877	67.92
309.091	26.96
309.305	14.68
309.519	-7.85
309.733	61.78
309.947	80.21
310.161	6.49
310.374	74.07
310.588	37.2
310.802	16.73
311.016	12.63
311.23	6.49
311.444	2.39
311.658	78.16
311.872	47.44
312.085	47.44
312.299	31.06
312.513	18.77
312.727	63.83
312.941	-20.14
313.154	82.26
313.368	-46.76
313.582	4.44
313.796	47.44
314.009	102.74
314.223	-26.28
314.437	80.21
314.651	4.44
314.864	31.06
315.078	-26.28
315.292	37.2
315.505	14.68
315.719	31.06
315.933	69.97
316.146	45.4
316.36	80.21
316.573	41.3
316.787	55.64
317.001	37.2
317.214	24.92
317.428	98.64
317.641	8.53
317.855	43.35
318.068	16.73
318.282	72.02
318.495	53.59
318.709	92.5
318.922	-36.52
319.136	104.79
319.349	63.83
319.563	53.59
319.776	135.51
319.99	29.01
320.203	45.4
320.417	2.39
320.63	55.64
320.843	39.25
321.057	47.44
321.27	55.64
321.483	100.69
321.697	78.16
321.91	-24.23
322.124	49.49
322.337	43.35
322.55	88.4
322.763	-16.04
322.977	-36.52
323.19	10.58
323.403	55.64
323.617	39.25
323.83	69.97
324.043	-20.14
324.256	84.31
324.469	-28.33
324.683	74.07
324.896	-9.9
325.109	88.4
325.322	-40.62
325.535	121.17
325.748	63.83
325.962	43.35
326.175	-13.99
326.388	63.83
326.601	0.34
326.814	39.25
327.027	51.54
327.24	104.79
327.453	-1.71
327.666	61.78
327.879	-9.9
328.092	65.88
328.305	-13.99
328.518	76.12
328.731	16.73
328.944	100.69
329.157	-22.19
329.37	10.58
329.583	104.79
329.796	55.64
330.009	6.49
330.222	41.3
330.435	29.01
330.648	69.97
330.861	51.54
331.073	-22.19
331.286	18.77
331.499	24.92
331.712	47.44
331.925	-20.14
332.138	90.45
332.35	102.74
332.563	16.73
332.776	47.44
332.989	51.54
333.202	18.77
333.414	12.63
333.627	-32.43
333.84	59.73
334.053	49.49
334.265	59.73
334.478	63.83
334.691	-3.75
334.903	74.07
335.116	31.06
335.329	2.39
335.541	49.49
335.754	86.36
335.966	47.44
336.179	43.35
336.392	-7.85
336.604	67.92
336.817	4.44
337.029	82.26
337.242	41.3
337.454	39.25
337.667	-9.9
337.88	69.97
338.092	6.49
338.305	59.73
338.517	2.39
338.729	55.64
338.942	69.97
339.154	74.07
339.367	104.79
339.579	22.87
339.792	10.58
340.004	51.54
340.217	100.69
340.429	6.49
340.641	29.01
340.854	80.21
341.066	33.11
341.278	57.68
341.491	51.54
341.703	4.44
341.915	-42.67
342.128	22.87
342.34	61.78
342.552	-13.99
342.764	127.32
342.977	-38.57
343.189	47.44
343.401	-1.71
343.613	59.73
343.826	-3.75
344.038	-30.38
344.25	67.92
344.462	51.54
344.674	63.83
344.886	61.78
345.099	43.35
345.311	43.35
345.523	41.3
345.735	10.58
345.947	110.93
346.159	24.92
346.371	108.88
346.583	-34.47
346.795	65.88
347.007	55.64
347.219	51.54
347.431	61.78
347.643	69.97
347.855	6.49
348.067	100.69
348.279	-1.71
348.491	-28.33
348.703	69.97
348.915	12.63
349.127	-1.71
349.339	74.07
349.551	16.73
349.763	94.55
349.975	49.49
350.187	6.49
350.399	55.64
350.61	63.83
350.822	84.31
351.034	51.54
351.246	37.2
351.458	-22.19
351.669	14.68
351.881	24.92
352.093	74.07
352.305	100.69
352.517	39.25
352.728	72.02
352.94	37.2
353.152	-20.14
353.363	61.78
353.575	112.98
353.787	18.77
353.999	10.58
354.21	78.16
354.422	37.2
354.633	51.54
354.845	10.58
355.057	43.35
355.268	94.55
355.48	176.47
355.692	29.01
355.903	63.83
356.115	22.87
356.326	26.96
356.538	4.44
356.749	2.39
356.961	22.87
357.172	10.58
357.384	86.36
357.595	65.88
357.807	39.25
358.018	14.68
358.23	121.17
358.441	92.5
358.653	12.63
358.864	55.64
359.075	49.49
359.287	6.49
359.498	76.12
359.709	4.44
359.921	117.08
360.132	24.92
360.344	63.83
360.555	78.16
360.766	47.44
360.977	65.88
361.189	67.92
361.4	39.25
361.611	41.3
361.823	-52.91
362.034	2.39
362.245	80.21
362.456	31.06
362.667	59.73
362.879	22.87
363.09	112.98
363.301	37.2
363.512	102.74
363.723	26.96
363.935	59.73
364.146	29.01
364.357	39.25
364.568	82.26
364.779	8.53
364.99	18.77
365.201	51.54
365.412	121.17
365.623	0.34
365.834	24.92
366.045	16.73
366.256	35.16
366.467	80.21
366.678	63.83
366.889	104.79
367.1	26.96
367.311	59.73
367.522	45.4
367.733	74.07
367.944	29.01
368.155	67.92
368.366	53.59
368.577	26.96
368.788	26.96
368.999	22.87
369.209	45.4
369.42	117.08
369.631	59.73
369.842	55.64
370.053	2.39
370.264	6.49
370.474	33.11
370.685	59.73
370.896	18.77
371.107	63.83
371.317	102.74
371.528	86.36
371.739	88.4
371.95	12.63
372.16	47.44
372.371	41.3
372.582	37.2
372.792	10.58
373.003	16.73
373.214	141.65
373.424	88.4
373.635	6.49
373.846	69.97
374.056	61.78
374.267	12.63
374.477	31.06
374.688	18.77
374.898	51.54
375.109	57.68
375.319	33.11
375.53	33.11
375.74	49.49
375.951	100.69
376.161	14.68
376.372	86.36
376.582	29.01
376.793	33.11
377.003	26.96
377.214	82.26
377.424	59.73
377.635	18.77
377.845	10.58
378.055	41.3
378.266	53.59
378.476	51.54
378.686	2.39
378.897	82.26
379.107	74.07
379.317	61.78
379.528	16.73
379.738	31.06
379.948	51.54
380.158	24.92
380.369	29.01
380.579	78.16
380.789	55.64
380.999	80.21
381.21	94.55
381.42	-9.9
381.63	20.82
381.84	51.54
382.05	24.92
382.261	104.79
382.471	92.5
382.681	55.64
382.891	104.79
383.101	147.8
383.311	12.63
383.521	31.06
383.731	18.77
383.941	10.58
384.151	98.64
384.361	-7.85
384.571	14.68
384.781	74.07
384.991	57.68
385.201	53.59
385.411	86.36
385.621	8.53
385.831	39.25
386.041	39.25
386.251	6.49
386.461	102.74
386.671	20.82
386.881	51.54
387.091	123.22
387.301	69.97
387.511	45.4
387.72	88.4
387.93	57.68
388.14	55.64
388.35	37.2
388.56	22.87
388.769	47.44
388.979	53.59
389.189	69.97
389.399	55.64
389.609	53.59
389.818	67.92
390.028	86.36
390.238	24.92
390.447	45.4
390.657	35.16
390.867	53.59
391.076	47.44
391.286	39.25
391.496	8.53
391.705	80.21
391.915	110.93
392.125	104.79
392.334	35.16
392.544	88.4
392.753	86.36
392.963	61.78
393.172	90.45
393.382	31.06
393.591	119.12
393.801	57.68
394.01	41.3
394.22	94.55
394.429	24.92
394.639	86.36
394.848	108.88
395.058	59.73
395.267	74.07
395.477	43.35
395.686	76.12
395.895	121.17
396.105	155.99
396.314	78.16
396.524	53.59
396.733	47.44
396.942	188.75
397.152	125.27
397.361	115.03
397.57	100.69
397.78	129.36
397.989	100.69
398.198	49.49
398.407	92.5
398.617	49.49
398.826	100.69
399.035	88.4
399.244	131.41
399.453	69.97
399.663	63.83
399.872	153.94
400.081	102.74
400.29	180.56
400.499	82.26
400.708	139.6
400.917	82.26
401.127	119.12
401.336	135.51
401.545	184.66
401.754	100.69
401.963	76.12
402.172	67.92
402.381	4.44
402.59	90.45
402.799	115.03
403.008	51.54
403.217	115.03
403.426	151.89
403.635	90.45
403.844	100.69
404.053	119.12
404.262	133.46
404.471	219.47
404.68	168.27
404.888	151.89
405.097	160.08
405.306	125.27
405.515	192.85
405.724	176.47
405.933	139.6
406.142	133.46
406.35	65.88
406.559	158.03
406.768	135.51
406.977	215.38
407.185	235.86
407.394	237.91
407.603	168.27
407.812	198.99
408.02	215.38
408.229	266.58
408.438	225.62
408.646	276.82
408.855	186.71
409.064	252.24
409.272	248.15
409.481	266.58
409.69	221.52
409.898	309.58
410.107	303.44
410.315	334.16
410.524	313.68
410.733	291.15
410.941	342.35
411.15	340.3
411.358	315.73
411.567	405.84
411.775	397.65
411.984	391.5
412.192	373.07
412.401	403.79
412.609	461.13
412.818	508.24
413.026	432.46
413.234	518.48
413.443	409.94
413.651	477.52
413.86	502.09
414.068	592.2
414.276	588.11
414.485	569.68
414.693	596.3
414.901	680.27
415.11	604.49
415.318	633.16
415.526	768.33
415.734	708.94
415.943	739.66
416.151	799.05
416.359	799.05
416.567	844.1
416.776	856.39
416.984	866.63
417.192	979.27
417.4	911.69
417.608	862.54
417.817	1012.04
418.025	1001.8
418.233	1145.16
418.441	1139.01
418.649	1190.21
418.857	1192.26
419.065	1241.41
419.273	1186.12
419.481	1358.14
419.689	1382.72
419.897	1395.01
420.105	1417.54
420.313	1399.1
420.521	1546.56
420.729	1569.09
420.937	1601.85
421.145	1632.57
421.353	1782.07
421.561	1814.84
421.769	1900.86
421.977	1900.86
422.185	1943.86
422.393	2109.75
422.601	2234.68
422.809	2189.62
423.017	2130.23
423.224	2294.07
423.432	2347.31
423.64	2490.67
423.848	2597.17
424.056	2492.72
424.263	2824.49
424.471	2679.08
424.679	2869.55
424.887	2976.04
425.094	3078.44
425.302	3010.86
425.51	3176.74
425.718	3248.42
425.925	3330.34
426.133	3381.54
426.341	3676.45
426.548	3770.65
426.756	3766.56
426.964	3797.28
427.171	4100.37
427.379	4231.44
427.586	4253.97
427.794	4389.14
428.001	4587.79
428.209	4808.97
428.417	4708.62
428.624	5071.11
428.832	5144.84
429.039	4995.34
429.247	4923.66
429.454	5441.79
429.662	5822.72
429.869	5431.55
430.076	5847.29
430.284	5728.51
430.491	5945.59
430.699	6338.8
430.906	6213.88
431.114	6379.76
431.321	6455.54
431.528	6750.45
431.736	7293.16
431.943	7477.48
432.15	7342.31
432.358	7305.45
432.565	7616.74
432.772	7837.92
432.979	8267.99
433.187	8341.72
433.394	8419.54
433.601	8997.07
433.808	9062.6
434.016	8958.16
434.223	9201.86
434.43	9810.11
434.637	9672.9
434.844	10197.18
435.052	10410.17
435.259	10416.31
435.466	10289.34
435.673	10258.62
435.88	10934.45
436.087	11671.72
436.294	11749.54
436.501	11413.67
436.708	11544.74
436.915	12044.45
437.122	12593.3
437.329	12501.14
437.537	12927.12
437.743	13006.99
437.95	13078.67
438.157	13695.11
438.364	14002.3
438.571	14256.25
438.778	14030.98
438.985	15624.29
439.192	15097.97
439.399	15380.59
439.606	14895.22
439.813	16158.81
440.02	17119.31
440.227	16691.29
440.433	16627.8
440.64	16851.03
440.847	16900.18
441.054	17313.87
441.261	18645.05
441.467	18325.57
441.674	18884.66
441.881	19243.06
442.088	19234.86
442.294	19202.1
442.501	19681.32
442.708	20101.15
442.914	21106.71
443.121	21665.8
443.328	21084.18
443.534	22753.27
443.741	21975.05
443.948	21831.69
444.154	23478.26
444.361	23162.87
444.568	23341.04
444.774	23248.88
444.981	23236.59
445.187	24375.27
445.394	25589.71
445.6	25063.38
445.807	27332.53
446.013	26075.08
446.22	26798.01
446.426	27807.66
446.633	28092.33
446.839	29079.45
447.046	27905.96
447.252	29339.54
447.459	29497.24
447.665	29317.01
447.871	30320.52
448.078	31766.38
448.284	30359.43
448.491	31440.76
448.697	32372.58
448.903	32913.25
449.11	33050.46
449.316	32372.58
449.522	33193.82
449.728	33636.18
449.935	34377.54
450.141	34316.11
450.347	34922.3
450.553	33890.13
450.76	33886.03
450.966	35424.06
451.172	34656.07
451.378	35860.27
451.584	35118.91
451.791	35682.1
451.997	35755.83
452.203	36325.16
452.409	36390.7
452.615	35817.27
452.821	34842.43
453.027	34389.83
453.233	36284.2
453.44	34905.92
453.646	35317.56
453.852	35092.29
454.058	35878.71
454.264	34344.78
454.47	35598.13
454.676	34719.56
454.882	35944.24
455.088	32511.85
455.294	32900.96
455.5	33707.86
455.705	33750.87
455.911	32730.98
456.117	31577.97
456.323	31577.97
456.529	29544.34
456.735	30986.11
456.941	30052.23
457.147	29775.76
457.352	29089.69
457.558	28190.63
457.764	28450.72
457.97	27914.16
458.176	27144.12
458.381	27150.26
458.587	25864.14
458.793	25960.39
458.999	24659.93
459.204	26191.81
459.41	25409.49
459.616	23693.29
459.821	23707.63
460.027	23764.97
460.233	23169.01
460.438	22097.92
460.644	22245.38
460.85	20840.47
461.055	21219.35
461.261	20877.33
461.466	19576.87
461.672	18786.36
461.878	20164.64
462.083	18729.02
462.289	18452.54
462.494	18354.24
462.7	17436.75
462.905	17016.91
463.111	17764.42
463.316	17670.22
463.522	17342.54
463.727	17029.2
463.932	17221.71
464.138	16767.06
464.343	17291.34
464.549	16679
464.754	17016.91
464.959	17158.22
465.165	16871.51
465.37	16222.3
465.575	15685.73
465.781	16324.7
465.986	16498.78
466.191	15825
466.397	15333.48
466.602	14915.7
466.807	15491.18
467.012	15474.79
467.218	15444.07
467.423	15167.6
467.628	15140.97
467.833	15571.05
468.038	15274.09
