Data from USB4F104151__75__12-02-06-986.txt Node

Date: Fri Mar 14 12:02:06 EDT 2025
User: louis
Spectrometer: USB4F10415
Trigger mode: 4
Integration Time (sec): 2.000000E-2
Scans to average: 1
Electric dark correction enabled: true
Nonlinearity correction enabled: false
Boxcar width: 0
XAxis mode: Wavelengths
Number of Pixels in Spectrum: 3648
>>>>>Begin Spectral Data<<<<<
178.204	-19.8
178.424	-19.8
178.644	-19.8
178.864	-62.8
179.084	-114
179.304	-36.18
179.524	-62.8
179.744	-23.89
179.964	33.45
180.184	15.02
180.404	23.21
180.624	12.97
180.844	-27.99
181.064	19.11
181.283	2.73
181.503	25.26
181.723	19.11
181.943	21.16
182.163	41.64
182.383	31.4
182.602	78.51
182.822	33.45
183.042	86.7
183.262	55.98
183.482	64.17
183.701	107.18
183.921	60.07
184.141	66.22
184.361	41.64
184.58	29.35
184.8	55.98
185.02	-7.51
185.239	37.55
185.459	105.13
185.679	66.22
185.898	51.88
186.118	94.89
186.338	33.45
186.557	23.21
186.777	12.97
186.997	49.83
187.216	47.79
187.436	80.55
187.655	17.07
187.875	35.5
188.095	4.78
188.314	45.74
188.534	19.11
188.753	45.74
188.973	-23.89
189.192	74.41
189.412	60.07
189.631	43.69
189.851	64.17
190.07	4.78
190.29	27.31
190.509	72.36
190.729	4.78
190.948	72.36
191.168	98.99
191.387	-7.51
191.607	39.59
191.826	29.35
192.045	10.92
192.265	-11.61
192.484	53.93
192.704	70.31
192.923	-13.65
193.142	98.99
193.362	49.83
193.581	129.7
193.8	-23.89
194.02	55.98
194.239	47.79
194.458	6.83
194.678	21.16
194.897	131.75
195.116	47.79
195.335	4.78
195.555	-17.75
195.774	21.16
195.993	58.03
196.212	6.83
196.432	12.97
196.651	33.45
196.87	-3.41
197.089	21.16
197.308	29.35
197.528	88.75
197.747	60.07
197.966	47.79
198.185	80.55
198.404	82.6
198.623	19.11
198.842	49.83
199.062	-1.37
199.281	47.79
199.5	8.87
199.719	72.36
199.938	60.07
200.157	68.27
200.376	31.4
200.595	74.41
200.814	58.03
201.033	2.73
201.252	94.89
201.471	62.12
201.69	47.79
201.909	119.46
202.128	-32.08
202.347	68.27
202.566	29.35
202.785	37.55
203.004	21.16
203.223	51.88
203.442	49.83
203.661	10.92
203.879	10.92
204.098	17.07
204.317	-46.42
204.536	31.4
204.755	66.22
204.974	31.4
205.193	0.68
205.411	96.94
205.63	35.5
205.849	68.27
206.068	35.5
206.287	58.03
206.505	19.11
206.724	43.69
206.943	0.68
207.162	74.41
207.381	-9.56
207.599	12.97
207.818	35.5
208.037	37.55
208.255	-17.75
208.474	43.69
208.693	86.7
208.911	-1.37
209.13	27.31
209.349	60.07
209.567	60.07
209.786	113.32
210.005	6.83
210.223	21.16
210.442	-21.85
210.661	15.02
210.879	45.74
211.098	-46.42
211.316	41.64
211.535	39.59
211.753	15.02
211.972	25.26
212.191	60.07
212.409	45.74
212.628	58.03
212.846	62.12
213.065	29.35
213.283	135.85
213.502	47.79
213.72	78.51
213.938	72.36
214.157	39.59
214.375	64.17
214.594	105.13
214.812	10.92
215.031	15.02
215.249	62.12
215.467	74.41
215.686	41.64
215.904	78.51
216.122	27.31
216.341	76.46
216.559	105.13
216.778	60.07
216.996	58.03
217.214	-9.56
217.432	58.03
217.651	31.4
217.869	-7.51
218.087	12.97
218.306	33.45
218.524	15.02
218.742	-21.85
218.96	84.65
219.179	35.5
219.397	21.16
219.615	66.22
219.833	109.22
220.051	-32.08
220.27	45.74
220.488	-1.37
220.706	62.12
220.924	-11.61
221.142	-1.37
221.36	70.31
221.578	-17.75
221.796	-21.85
222.015	78.51
222.233	39.59
222.451	70.31
222.669	58.03
222.887	55.98
223.105	45.74
223.323	43.69
223.541	23.21
223.759	43.69
223.977	33.45
224.195	55.98
224.413	10.92
224.631	37.55
224.849	-11.61
225.067	90.79
225.285	-44.37
225.503	41.64
225.721	-30.04
225.939	39.59
226.157	-1.37
226.375	70.31
226.592	25.26
226.81	35.5
227.028	27.31
227.246	51.88
227.464	86.7
227.682	66.22
227.9	21.16
228.117	66.22
228.335	55.98
228.553	15.02
228.771	12.97
228.989	2.73
229.206	123.56
229.424	-13.65
229.642	109.22
229.86	0.68
230.077	98.99
230.295	51.88
230.513	23.21
230.731	60.07
230.948	25.26
231.166	94.89
231.384	127.66
231.601	64.17
231.819	96.94
232.037	-11.61
232.254	-17.75
232.472	-68.95
232.689	72.36
232.907	51.88
233.125	49.83
233.342	37.55
233.56	-3.41
233.777	82.6
233.995	49.83
234.213	23.21
234.43	10.92
234.648	12.97
234.865	58.03
235.083	17.07
235.3	29.35
235.518	105.13
235.735	49.83
235.953	98.99
236.17	2.73
236.388	60.07
236.605	23.21
236.822	64.17
237.04	58.03
237.257	76.46
237.475	53.93
237.692	86.7
237.909	70.31
238.127	-5.46
238.344	58.03
238.562	27.31
238.779	-17.75
238.996	21.16
239.214	55.98
239.431	45.74
239.648	64.17
239.865	109.22
240.083	55.98
240.3	49.83
240.517	49.83
240.735	-3.41
240.952	66.22
241.169	74.41
241.386	45.74
241.603	4.78
241.821	-54.61
242.038	53.93
242.255	12.97
242.472	-23.89
242.689	10.92
242.907	72.36
243.124	64.17
243.341	53.93
243.558	27.31
243.775	-23.89
243.992	113.32
244.209	6.83
244.426	27.31
244.643	74.41
244.86	62.12
245.078	45.74
245.295	43.69
245.512	51.88
245.729	37.55
245.946	88.75
246.163	25.26
246.38	84.65
246.597	27.31
246.814	58.03
247.031	39.59
247.248	25.26
247.464	21.16
247.681	21.16
247.898	-48.47
248.115	76.46
248.332	82.6
248.549	62.12
248.766	-7.51
248.983	53.93
249.2	74.41
249.417	55.98
249.633	19.11
249.85	21.16
250.067	43.69
250.284	58.03
250.501	15.02
250.717	-7.51
250.934	37.55
251.151	-1.37
251.368	39.59
251.585	10.92
251.801	25.26
252.018	-1.37
252.235	74.41
252.451	37.55
252.668	55.98
252.885	37.55
253.102	-36.18
253.318	4.78
253.535	-30.04
253.752	19.11
253.968	82.6
254.185	31.4
254.401	-9.56
254.618	25.26
254.835	-3.41
255.051	84.65
255.268	53.93
255.484	60.07
255.701	-21.85
255.917	98.99
256.134	23.21
256.351	47.79
256.567	10.92
256.784	39.59
257	2.73
257.217	-9.56
257.433	98.99
257.65	-5.46
257.866	35.5
258.082	45.74
258.299	4.78
258.515	23.21
258.732	47.79
258.948	19.11
259.165	35.5
259.381	-11.61
259.597	19.11
259.814	39.59
260.03	137.9
260.246	105.13
260.463	76.46
260.679	58.03
260.895	41.64
261.112	53.93
261.328	15.02
261.544	29.35
261.761	107.18
261.977	115.37
262.193	49.83
262.409	55.98
262.626	15.02
262.842	41.64
263.058	-52.56
263.274	31.4
263.49	113.32
263.707	78.51
263.923	43.69
264.139	2.73
264.355	21.16
264.571	15.02
264.787	4.78
265.004	92.84
265.22	31.4
265.436	96.94
265.652	21.16
265.868	64.17
266.084	31.4
266.3	53.93
266.516	76.46
266.732	15.02
266.948	58.03
267.164	33.45
267.38	109.22
267.596	60.07
267.812	-9.56
268.028	78.51
268.244	-5.46
268.46	39.59
268.676	60.07
268.892	68.27
269.108	35.5
269.324	113.32
269.54	68.27
269.756	82.6
269.972	109.22
270.188	-17.75
270.403	47.79
270.619	23.21
270.835	-15.7
271.051	29.35
271.267	2.73
271.483	-15.7
271.698	55.98
271.914	19.11
272.13	4.78
272.346	80.55
272.562	27.31
272.777	90.79
272.993	12.97
273.209	55.98
273.425	45.74
273.64	31.4
273.856	103.08
274.072	76.46
274.287	10.92
274.503	88.75
274.719	19.11
274.934	-19.8
275.15	-1.37
275.366	-1.37
275.581	60.07
275.797	-9.56
276.012	15.02
276.228	80.55
276.444	17.07
276.659	92.84
276.875	74.41
277.09	-73.04
277.306	29.35
277.521	23.21
277.737	4.78
277.952	17.07
278.168	-13.65
278.383	55.98
278.599	31.4
278.814	41.64
279.03	58.03
279.245	103.08
279.461	19.11
279.676	62.12
279.892	-38.23
280.107	47.79
280.322	-25.94
280.538	47.79
280.753	-15.7
280.969	90.79
281.184	72.36
281.399	8.87
281.615	-17.75
281.83	105.13
282.045	-11.61
282.26	41.64
282.476	25.26
282.691	70.31
282.906	129.7
283.122	41.64
283.337	58.03
283.552	115.37
283.767	80.55
283.983	64.17
284.198	70.31
284.413	74.41
284.628	-44.37
284.843	47.79
285.058	68.27
285.274	31.4
285.489	-15.7
285.704	45.74
285.919	80.55
286.134	33.45
286.349	74.41
286.564	98.99
286.779	37.55
286.995	49.83
287.21	58.03
287.425	60.07
287.64	33.45
287.855	82.6
288.07	33.45
288.285	84.65
288.5	64.17
288.715	90.79
288.93	23.21
289.145	43.69
289.36	39.59
289.575	41.64
289.79	60.07
290.004	109.22
290.219	133.8
290.434	-17.75
290.649	21.16
290.864	86.7
291.079	41.64
291.294	12.97
291.509	4.78
291.724	41.64
291.938	6.83
292.153	43.69
292.368	4.78
292.583	4.78
292.798	66.22
293.012	19.11
293.227	8.87
293.442	53.93
293.657	23.21
293.871	96.94
294.086	-25.94
294.301	64.17
294.516	98.99
294.73	45.74
294.945	37.55
295.16	55.98
295.374	2.73
295.589	25.26
295.804	35.5
296.018	-83.28
296.233	111.27
296.447	27.31
296.662	66.22
296.877	90.79
297.091	86.7
297.306	41.64
297.52	92.84
297.735	121.51
297.949	21.16
298.164	76.46
298.378	82.6
298.593	-21.85
298.807	27.31
299.022	55.98
299.236	-5.46
299.451	64.17
299.665	33.45
299.88	53.93
300.094	58.03
300.309	25.26
300.523	37.55
300.737	66.22
300.952	78.51
301.166	43.69
301.381	-73.04
301.595	90.79
301.809	49.83
302.024	105.13
302.238	101.03
302.452	47.79
302.667	17.07
302.881	58.03
303.095	41.64
303.309	-3.41
303.524	55.98
303.738	84.65
303.952	78.51
304.166	58.03
304.381	-27.99
304.595	51.88
304.809	33.45
305.023	47.79
305.237	25.26
305.452	64.17
305.666	76.46
305.88	64.17
306.094	92.84
306.308	31.4
306.522	23.21
306.736	6.83
306.95	-32.08
307.164	127.66
307.379	-54.61
307.593	33.45
307.807	17.07
308.021	64.17
308.235	6.83
308.449	92.84
308.663	-15.7
308.877	185
309.091	-3.41
309.305	101.03
309.519	10.92
309.733	125.61
309.947	-30.04
310.161	2.73
310.374	19.11
310.588	119.46
310.802	109.22
311.016	74.41
311.23	-11.61
311.444	66.22
311.658	6.83
311.872	51.88
312.085	37.55
312.299	164.52
312.513	35.5
312.727	49.83
312.941	82.6
313.154	137.9
313.368	12.97
313.582	70.31
313.796	17.07
314.009	101.03
314.223	70.31
314.437	66.22
314.651	111.27
314.864	0.68
315.078	96.94
315.292	101.03
315.505	55.98
315.719	84.65
315.933	41.64
316.146	94.89
316.36	37.55
316.573	88.75
316.787	-1.37
317.001	70.31
317.214	68.27
317.428	82.6
317.641	-42.32
317.855	45.74
318.068	-5.46
318.282	17.07
318.495	117.42
318.709	45.74
318.922	19.11
319.136	131.75
319.349	35.5
319.563	-1.37
319.776	113.32
319.99	35.5
320.203	74.41
320.417	78.51
320.63	47.79
320.843	94.89
321.057	-17.75
321.27	37.55
321.483	21.16
321.697	80.55
321.91	119.46
322.124	82.6
322.337	-15.7
322.55	78.51
322.763	45.74
322.977	27.31
323.19	37.55
323.403	103.08
323.617	-15.7
323.83	8.87
324.043	23.21
324.256	105.13
324.469	-13.65
324.683	55.98
324.896	47.79
325.109	105.13
325.322	-15.7
325.535	23.21
325.748	86.7
325.962	43.69
326.175	15.02
326.388	47.79
326.601	109.22
326.814	58.03
327.027	45.74
327.24	107.18
327.453	45.74
327.666	90.79
327.879	31.4
328.092	105.13
328.305	82.6
328.518	-23.89
328.731	86.7
328.944	86.7
329.157	37.55
329.37	66.22
329.583	86.7
329.796	49.83
330.009	23.21
330.222	45.74
330.435	60.07
330.648	76.46
330.861	55.98
331.073	0.68
331.286	82.6
331.499	129.7
331.712	80.55
331.925	148.14
332.138	45.74
332.35	21.16
332.563	19.11
332.776	96.94
332.989	74.41
333.202	2.73
333.414	-38.23
333.627	47.79
333.84	82.6
334.053	60.07
334.265	76.46
334.478	33.45
334.691	51.88
334.903	33.45
335.116	12.97
335.329	96.94
335.541	43.69
335.754	31.4
335.966	45.74
336.179	84.65
336.392	33.45
336.604	0.68
336.817	29.35
337.029	94.89
337.242	53.93
337.454	53.93
337.667	66.22
337.88	90.79
338.092	10.92
338.305	33.45
338.517	74.41
338.729	43.69
338.942	21.16
339.154	-17.75
339.367	45.74
339.579	80.55
339.792	47.79
340.004	62.12
340.217	66.22
340.429	45.74
340.641	74.41
340.854	4.78
341.066	86.7
341.278	94.89
341.491	62.12
341.703	45.74
341.915	15.02
342.128	146.09
342.34	88.75
342.552	6.83
342.764	21.16
342.977	-27.99
343.189	47.79
343.401	72.36
343.613	-1.37
343.826	80.55
344.038	39.59
344.25	31.4
344.462	66.22
344.674	29.35
344.886	47.79
345.099	70.31
345.311	37.55
345.523	29.35
345.735	86.7
345.947	68.27
346.159	70.31
346.371	43.69
346.583	66.22
346.795	70.31
347.007	4.78
347.219	90.79
347.431	29.35
347.643	62.12
347.855	58.03
348.067	94.89
348.279	12.97
348.491	8.87
348.703	17.07
348.915	72.36
349.127	98.99
349.339	39.59
349.551	21.16
349.763	76.46
349.975	74.41
350.187	21.16
350.399	131.75
350.61	68.27
350.822	98.99
351.034	101.03
351.246	107.18
351.458	8.87
351.669	86.7
351.881	76.46
352.093	80.55
352.305	66.22
352.517	35.5
352.728	68.27
352.94	-11.61
353.152	68.27
353.363	10.92
353.575	101.03
353.787	41.64
353.999	49.83
354.21	109.22
354.422	2.73
354.633	4.78
354.845	-30.04
355.057	62.12
355.268	55.98
355.48	8.87
355.692	92.84
355.903	78.51
356.115	8.87
356.326	55.98
356.538	21.16
356.749	84.65
356.961	49.83
357.172	72.36
357.384	19.11
357.595	144.04
357.807	80.55
358.018	88.75
358.23	23.21
358.441	58.03
358.653	47.79
358.864	68.27
359.075	-7.51
359.287	45.74
359.498	-27.99
359.709	68.27
359.921	23.21
360.132	70.31
360.344	107.18
360.555	8.87
360.766	86.7
360.977	88.75
361.189	96.94
361.4	80.55
361.611	76.46
361.823	92.84
362.034	92.84
362.245	62.12
362.456	21.16
362.667	43.69
362.879	-21.85
363.09	82.6
363.301	92.84
363.512	88.75
363.723	29.35
363.935	-7.51
364.146	-13.65
364.357	2.73
364.568	107.18
364.779	21.16
364.99	49.83
365.201	72.36
365.412	133.8
365.623	21.16
365.834	137.9
366.045	55.98
366.256	60.07
366.467	88.75
366.678	78.51
366.889	29.35
367.1	43.69
367.311	53.93
367.522	45.74
367.733	45.74
367.944	111.27
368.155	35.5
368.366	82.6
368.577	19.11
368.788	51.88
368.999	113.32
369.209	19.11
369.42	129.7
369.631	133.8
369.842	84.65
370.053	-5.46
370.264	43.69
370.474	27.31
370.685	133.8
370.896	86.7
371.107	154.28
371.317	25.26
371.528	51.88
371.739	72.36
371.95	2.73
372.16	119.46
372.371	92.84
372.582	131.75
372.792	70.31
373.003	135.85
373.214	21.16
373.424	115.37
373.635	37.55
373.846	86.7
374.056	39.59
374.267	74.41
374.477	96.94
374.688	98.99
374.898	39.59
375.109	4.78
375.319	15.02
375.53	113.32
375.74	-15.7
375.951	117.42
376.161	33.45
376.372	94.89
376.582	66.22
376.793	88.75
377.003	23.21
377.214	62.12
377.424	90.79
377.635	88.75
377.845	33.45
378.055	125.61
378.266	43.69
378.476	8.87
378.686	60.07
378.897	55.98
379.107	55.98
379.317	47.79
379.528	35.5
379.738	72.36
379.948	74.41
380.158	78.51
380.369	19.11
380.579	66.22
380.789	23.21
380.999	103.08
381.21	45.74
381.42	88.75
381.63	41.64
381.84	82.6
382.05	82.6
382.261	86.7
382.471	64.17
382.681	119.46
382.891	45.74
383.101	113.32
383.311	12.97
383.521	23.21
383.731	-21.85
383.941	90.79
384.151	70.31
384.361	37.55
384.571	55.98
384.781	72.36
384.991	70.31
385.201	94.89
385.411	66.22
385.621	80.55
385.831	88.75
386.041	96.94
386.251	41.64
386.461	64.17
386.671	84.65
386.881	66.22
387.091	127.66
387.301	129.7
387.511	-1.37
387.72	47.79
387.93	131.75
388.14	8.87
388.35	21.16
388.56	127.66
388.769	115.37
388.979	-1.37
389.189	96.94
389.399	113.32
389.609	74.41
389.818	137.9
390.028	55.98
390.238	74.41
390.447	49.83
390.657	96.94
390.867	96.94
391.076	84.65
391.286	19.11
391.496	76.46
391.705	-13.65
391.915	68.27
392.125	58.03
392.334	51.88
392.544	119.46
392.753	76.46
392.963	53.93
393.172	86.7
393.382	74.41
393.591	70.31
393.801	156.33
394.01	80.55
394.22	115.37
394.429	37.55
394.639	29.35
394.848	111.27
395.058	82.6
395.267	84.65
395.477	68.27
395.686	189.1
395.895	68.27
396.105	135.85
396.314	39.59
396.524	84.65
396.733	137.9
396.942	41.64
397.152	197.29
397.361	111.27
397.57	80.55
397.78	96.94
397.989	115.37
398.198	133.8
398.407	135.85
398.617	103.08
398.826	72.36
399.035	98.99
399.244	66.22
399.453	150.18
399.663	123.56
399.872	103.08
400.081	66.22
400.29	144.04
400.499	92.84
400.708	55.98
400.917	111.27
401.127	170.66
401.336	135.85
401.545	146.09
401.754	127.66
401.963	78.51
402.172	84.65
402.381	146.09
402.59	121.51
402.799	68.27
403.008	139.94
403.217	111.27
403.426	158.38
403.635	86.7
403.844	58.03
404.053	240.29
404.262	133.8
404.471	139.94
404.68	160.42
404.888	105.13
405.097	146.09
405.306	101.03
405.515	139.94
405.724	189.1
405.933	170.66
406.142	170.66
406.35	238.25
406.559	207.53
406.768	228.01
406.977	242.34
407.185	189.1
407.394	211.62
407.603	207.53
407.812	211.62
408.02	293.54
408.229	187.05
408.438	193.19
408.646	223.91
408.855	260.77
409.064	289.45
409.272	205.48
409.481	221.86
409.69	232.1
409.898	293.54
410.107	326.31
410.315	307.88
410.524	275.11
410.733	318.12
410.941	297.64
411.15	340.65
411.358	422.56
411.567	252.58
411.775	352.93
411.984	361.13
412.192	391.84
412.401	400.04
412.609	438.95
412.818	510.63
413.026	504.48
413.234	563.87
413.443	488.1
413.651	545.44
413.86	613.03
414.068	565.92
414.276	586.4
414.485	535.2
414.693	602.79
414.901	737.95
415.11	719.52
415.318	641.7
415.526	772.77
415.734	733.86
415.943	688.8
416.151	748.19
416.359	764.57
416.567	815.77
416.776	826.01
416.984	907.93
417.192	967.32
417.4	981.66
417.608	901.79
417.817	936.6
418.025	948.89
418.233	1092.25
418.441	1043.1
418.649	1147.55
418.857	1176.22
419.065	1229.46
419.273	1219.22
419.481	1327.77
419.689	1274.52
419.897	1440.4
420.105	1376.92
420.313	1424.02
420.521	1559.19
420.729	1524.37
420.937	1573.52
421.145	1471.12
421.353	1757.84
421.561	1927.82
421.769	1837.71
421.977	1954.44
422.185	1780.37
422.393	1997.45
422.601	2165.39
422.809	2069.13
423.017	2253.45
423.224	2265.74
423.432	2247.3
423.64	2396.81
423.848	2394.76
424.056	2464.39
424.263	2693.76
424.471	2665.09
424.679	2673.28
424.887	2865.79
425.094	2896.51
425.302	2906.75
425.51	2992.76
425.718	3129.98
425.925	3277.43
426.133	3211.9
426.341	3541.62
426.548	3607.16
426.756	3654.26
426.964	3754.61
427.171	3875.44
427.379	3963.5
427.586	4129.39
427.794	4287.08
428.001	4364.9
428.209	4518.5
428.417	4528.74
428.624	4756.07
428.832	4825.7
429.039	4815.46
429.247	4651.62
429.454	5255.77
429.662	5700.18
429.869	5296.73
430.076	5667.41
430.284	5542.49
430.491	5548.63
430.699	6187.6
430.906	6066.77
431.114	6013.52
431.321	6246.99
431.528	6466.12
431.736	6992.45
431.943	7230.01
432.15	6920.77
432.358	6937.15
432.565	7488.06
432.772	7408.19
432.979	7735.86
433.187	7868.98
433.394	7862.83
433.601	8430.12
433.808	8481.32
434.016	8516.14
434.223	8978.98
434.43	9384.48
434.637	9036.32
434.844	9820.69
435.052	9974.29
435.259	9935.38
435.466	10041.87
435.673	9888.28
435.88	10557.96
436.087	10996.23
436.294	11319.81
436.501	10899.97
436.708	11123.2
436.915	11629.05
437.122	12110.32
437.329	11909.62
437.537	12235.25
437.743	12607.98
437.95	12433.9
438.157	13001.19
438.364	13453.79
438.571	13392.35
438.778	13666.78
438.985	14580.17
439.192	14100.95
439.399	14868.94
439.606	14379.47
439.813	15311.3
440.02	16026.04
440.227	15950.26
440.433	15671.74
440.64	15997.37
440.847	15985.08
441.054	16570.8
441.261	17480.1
441.467	17402.27
441.674	17838.49
441.881	18258.32
442.088	18377.11
442.294	18276.76
442.501	18645.39
442.708	19163.53
442.914	19743.1
443.121	20609.39
443.328	20279.67
443.534	21586.27
443.741	20980.07
443.948	20492.66
444.154	22090.07
444.361	21850.46
444.568	22075.74
444.774	22278.49
444.981	22655.31
445.187	23333.19
445.394	24289.59
445.6	23824.7
445.807	25950.49
446.013	24899.89
446.22	25434.41
446.426	26054.94
446.633	26685.72
446.839	27543.81
447.046	26417.43
447.252	27531.53
447.459	28078.33
447.665	27949.31
447.871	29055.22
448.078	30376.16
448.284	29157.61
448.491	29321.45
448.697	30767.32
448.903	31275.21
449.11	31269.07
449.316	30902.48
449.522	31461.58
449.728	32553.15
449.935	32813.24
450.141	32319.68
450.347	33562.79
450.553	32346.3
450.76	32551.1
450.966	33685.67
451.172	33329.33
451.378	34267.3
451.584	33546.41
451.791	34392.22
451.997	34125.99
452.203	34871.45
452.409	34803.86
452.615	34662.55
452.821	33444.01
453.027	33104.05
453.233	34660.51
453.44	33290.41
453.646	33960.1
453.852	33671.34
454.058	34588.83
454.264	33517.74
454.47	34441.37
454.676	33548.46
454.882	34187.42
455.088	31506.63
455.294	31883.46
455.5	32460.99
455.705	32516.28
455.911	31400.14
456.117	30804.18
456.323	30247.13
456.529	28883.19
456.735	29944.03
456.941	29276.4
457.147	28725.49
457.352	27885.83
457.558	27697.41
457.764	27607.3
457.97	27037.97
458.176	26593.56
458.381	26257.69
458.587	25137.45
458.793	25389.35
458.999	24064.32
459.204	25614.63
459.41	25229.61
459.616	23333.19
459.821	22911.31
460.027	22749.52
460.233	22624.59
460.438	21635.42
460.644	21901.66
460.85	20855.15
461.055	20558.19
461.261	20531.57
461.466	18907.53
461.672	18428.31
461.878	19538.3
462.083	18387.35
462.289	18112.92
462.494	17801.63
462.7	16886.19
462.905	16320.95
463.111	16994.73
463.316	17289.63
463.522	16763.31
463.727	17035.69
463.932	16910.76
464.138	16693.68
464.343	16781.74
464.549	16044.47
464.754	16746.92
464.959	16562.61
465.165	16458.16
465.37	15686.08
465.575	15378.88
465.781	15999.41
465.986	16257.46
466.191	15374.78
466.397	15296.96
466.602	14590.41
466.807	15100.36
467.012	15065.54
467.218	15040.97
467.423	14598.6
467.628	14934.47
467.833	15372.74
