Data from USB4F104151__36__12-00-47-992.txt Node

Date: Fri Mar 14 12:00:47 EDT 2025
User: louis
Spectrometer: USB4F10415
Trigger mode: 4
Integration Time (sec): 2.000000E-2
Scans to average: 1
Electric dark correction enabled: true
Nonlinearity correction enabled: false
Boxcar width: 0
XAxis mode: Wavelengths
Number of Pixels in Spectrum: 3648
>>>>>Begin Spectral Data<<<<<
178.204	-127.49
178.424	-127.49
178.644	-127.49
178.864	-86.53
179.084	-68.09
179.304	19.97
179.524	-55.81
179.744	-27.14
179.964	56.83
180.184	3.58
180.404	19.97
180.624	54.78
180.844	11.78
181.064	-23.04
181.283	34.3
181.503	-61.95
181.723	-33.28
181.943	-37.38
182.163	38.4
182.383	-10.75
182.602	62.98
182.822	24.06
183.042	73.21
183.262	36.35
183.482	11.78
183.701	-0.51
183.921	44.54
184.141	-18.94
184.361	46.59
184.58	40.45
184.8	13.82
185.02	9.73
185.239	99.84
185.459	-55.81
185.679	52.74
185.898	60.93
186.118	34.3
186.338	48.64
186.557	42.5
186.777	5.63
186.997	-35.33
187.216	-57.86
187.436	48.64
187.655	108.03
187.875	15.87
188.095	-43.52
188.314	32.26
188.534	56.83
188.753	73.21
188.973	83.45
189.192	-4.61
189.412	110.08
189.631	36.35
189.851	54.78
190.07	38.4
190.29	28.16
190.509	1.54
190.729	-6.66
190.948	-8.7
191.168	128.51
191.387	-0.51
191.607	-66.05
191.826	19.97
192.045	-16.9
192.265	60.93
192.484	-43.52
192.704	-49.66
192.923	38.4
193.142	93.69
193.362	-31.23
193.581	101.89
193.8	54.78
194.02	85.5
194.239	97.79
194.458	58.88
194.678	38.4
194.897	36.35
195.116	26.11
195.335	26.11
195.555	48.64
195.774	22.02
195.993	26.11
196.212	108.03
196.432	1.54
196.651	42.5
196.87	-0.51
197.089	69.12
197.308	-31.23
197.528	62.98
197.747	-0.51
197.966	-12.8
198.185	-14.85
198.404	-41.47
198.623	-10.75
198.842	9.73
199.062	7.68
199.281	34.3
199.5	30.21
199.719	-12.8
199.938	44.54
200.157	71.17
200.376	26.11
200.595	85.5
200.814	19.97
201.033	-2.56
201.252	85.5
201.471	99.84
201.69	81.41
201.909	73.21
202.128	54.78
202.347	-27.14
202.566	-16.9
202.785	38.4
203.004	17.92
203.223	120.32
203.442	89.6
203.661	22.02
203.879	56.83
204.098	69.12
204.317	22.02
204.536	101.89
204.755	87.55
204.974	-10.75
205.193	17.92
205.411	11.78
205.63	46.59
205.849	99.84
206.068	-39.42
206.287	-4.61
206.505	-4.61
206.724	3.58
206.943	22.02
207.162	13.82
207.381	60.93
207.599	34.3
207.818	17.92
208.037	40.45
208.255	15.87
208.474	7.68
208.693	24.06
208.911	26.11
209.13	13.82
209.349	91.65
209.567	30.21
209.786	85.5
210.005	54.78
210.223	42.5
210.442	75.26
210.661	73.21
210.879	75.26
211.098	30.21
211.316	42.5
211.535	3.58
211.753	65.02
211.972	26.11
212.191	-66.05
212.409	62.98
212.628	54.78
212.846	46.59
213.065	28.16
213.283	60.93
213.502	-53.76
213.72	-25.09
213.938	58.88
214.157	5.63
214.375	36.35
214.594	73.21
214.812	103.93
215.031	71.17
215.249	-35.33
215.467	19.97
215.686	73.21
215.904	22.02
216.122	67.07
216.341	97.79
216.559	-4.61
216.778	42.5
216.996	28.16
217.214	-16.9
217.432	-14.85
217.651	44.54
217.869	7.68
218.087	65.02
218.306	42.5
218.524	44.54
218.742	58.88
218.96	22.02
219.179	-23.04
219.397	50.69
219.615	28.16
219.833	26.11
220.051	28.16
220.27	13.82
220.488	-39.42
220.706	15.87
220.924	-2.56
221.142	58.88
221.36	-23.04
221.578	32.26
221.796	26.11
222.015	73.21
222.233	32.26
222.451	28.16
222.669	-20.99
222.887	9.73
223.105	30.21
223.323	1.54
223.541	-51.71
223.759	34.3
223.977	-8.7
224.195	22.02
224.413	34.3
224.631	17.92
224.849	77.31
225.067	46.59
225.285	13.82
225.503	-64
225.721	-37.38
225.939	15.87
226.157	34.3
226.375	52.74
226.592	26.11
226.81	-25.09
227.028	42.5
227.246	58.88
227.464	91.65
227.682	-6.66
227.9	-18.94
228.117	28.16
228.335	38.4
228.553	-6.66
228.771	67.07
228.989	11.78
229.206	-4.61
229.424	-33.28
229.642	26.11
229.86	50.69
230.077	89.6
230.295	42.5
230.513	46.59
230.731	99.84
230.948	67.07
231.166	65.02
231.384	19.97
231.601	-25.09
231.819	34.3
232.037	-49.66
232.254	5.63
232.472	-8.7
232.689	79.36
232.907	56.83
233.125	13.82
233.342	73.21
233.56	40.45
233.777	-4.61
233.995	-8.7
234.213	44.54
234.43	65.02
234.648	48.64
234.865	-27.14
235.083	83.45
235.3	46.59
235.518	-2.56
235.735	26.11
235.953	13.82
236.17	22.02
236.388	38.4
236.605	-4.61
236.822	134.65
237.04	58.88
237.257	-14.85
237.475	-76.29
237.692	1.54
237.909	22.02
238.127	-25.09
238.344	-10.75
238.562	89.6
238.779	-2.56
238.996	67.07
239.214	-14.85
239.431	7.68
239.648	19.97
239.865	3.58
240.083	5.63
240.3	73.21
240.517	19.97
240.735	40.45
240.952	87.55
241.169	22.02
241.386	42.5
241.603	-2.56
241.821	-14.85
242.038	83.45
242.255	42.5
242.472	44.54
242.689	-47.62
242.907	58.88
243.124	73.21
243.341	81.41
243.558	42.5
243.775	34.3
243.992	-18.94
244.209	-6.66
244.426	1.54
244.643	58.88
244.86	32.26
245.078	17.92
245.295	48.64
245.512	77.31
245.729	42.5
245.946	46.59
246.163	-23.04
246.38	67.07
246.597	-74.24
246.814	67.07
247.031	77.31
247.248	17.92
247.464	36.35
247.681	77.31
247.898	-35.33
248.115	7.68
248.332	9.73
248.549	26.11
248.766	60.93
248.983	40.45
249.2	24.06
249.417	40.45
249.633	32.26
249.85	69.12
250.067	11.78
250.284	50.69
250.501	24.06
250.717	73.21
250.934	46.59
251.151	-12.8
251.368	26.11
251.585	1.54
251.801	3.58
252.018	34.3
252.235	13.82
252.451	9.73
252.668	40.45
252.885	187.9
253.102	7.68
253.318	67.07
253.535	48.64
253.752	15.87
253.968	114.17
254.185	46.59
254.401	5.63
254.618	-33.28
254.835	-10.75
255.051	65.02
255.268	-23.04
255.484	15.87
255.701	-4.61
255.917	54.78
256.134	-61.95
256.351	58.88
256.567	13.82
256.784	28.16
257	1.54
257.217	15.87
257.433	-2.56
257.65	99.84
257.866	-0.51
258.082	26.11
258.299	28.16
258.515	40.45
258.732	56.83
258.948	52.74
259.165	60.93
259.381	32.26
259.597	32.26
259.814	50.69
260.03	24.06
260.246	34.3
260.463	67.07
260.679	79.36
260.895	77.31
261.112	101.89
261.328	46.59
261.544	17.92
261.761	87.55
261.977	22.02
262.193	44.54
262.409	15.87
262.626	69.12
262.842	17.92
263.058	-33.28
263.274	-12.8
263.49	54.78
263.707	120.32
263.923	-45.57
264.139	36.35
264.355	40.45
264.571	54.78
264.787	34.3
265.004	67.07
265.22	1.54
265.436	50.69
265.652	-12.8
265.868	-66.05
266.084	62.98
266.3	9.73
266.516	-29.18
266.732	48.64
266.948	-6.66
267.164	85.5
267.38	22.02
267.596	108.03
267.812	46.59
268.028	3.58
268.244	-10.75
268.46	-0.51
268.676	62.98
268.892	58.88
269.108	-4.61
269.324	7.68
269.54	24.06
269.756	124.41
269.972	-41.47
270.188	38.4
270.403	5.63
270.619	-20.99
270.835	85.5
271.051	-45.57
271.267	-20.99
271.483	56.83
271.698	67.07
271.914	1.54
272.13	91.65
272.346	52.74
272.562	38.4
272.777	91.65
272.993	28.16
273.209	24.06
273.425	-43.52
273.64	22.02
273.856	79.36
274.072	-8.7
274.287	54.78
274.503	11.78
274.719	34.3
274.934	26.11
275.15	-8.7
275.366	81.41
275.581	-47.62
275.797	44.54
276.012	40.45
276.228	-6.66
276.444	17.92
276.659	65.02
276.875	-4.61
277.09	79.36
277.306	-6.66
277.521	38.4
277.737	44.54
277.952	44.54
278.168	54.78
278.383	-49.66
278.599	85.5
278.814	112.13
279.03	85.5
279.245	75.26
279.461	30.21
279.676	60.93
279.892	-18.94
280.107	-33.28
280.322	-2.56
280.538	62.98
280.753	-51.71
280.969	77.31
281.184	122.37
281.399	13.82
281.615	38.4
281.83	44.54
282.045	24.06
282.26	26.11
282.476	5.63
282.691	52.74
282.906	26.11
283.122	-37.38
283.337	26.11
283.552	60.93
283.767	69.12
283.983	5.63
284.198	-2.56
284.413	28.16
284.628	17.92
284.843	32.26
285.058	-29.18
285.274	34.3
285.489	50.69
285.704	79.36
285.919	-10.75
286.134	-20.99
286.349	13.82
286.564	22.02
286.779	46.59
286.995	9.73
287.21	50.69
287.425	-39.42
287.64	75.26
287.855	36.35
288.07	-43.52
288.285	7.68
288.5	81.41
288.715	42.5
288.93	-14.85
289.145	32.26
289.36	36.35
289.575	32.26
289.79	46.59
290.004	9.73
290.219	5.63
290.434	42.5
290.649	-8.7
290.864	65.02
291.079	17.92
291.294	48.64
291.509	1.54
291.724	83.45
291.938	15.87
292.153	67.07
292.368	-25.09
292.583	11.78
292.798	24.06
293.012	71.17
293.227	42.5
293.442	22.02
293.657	26.11
293.871	-8.7
294.086	73.21
294.301	95.74
294.516	67.07
294.73	132.61
294.945	19.97
295.16	32.26
295.374	95.74
295.589	81.41
295.804	60.93
296.018	46.59
296.233	42.5
296.447	81.41
296.662	58.88
296.877	3.58
297.091	103.93
297.306	11.78
297.52	26.11
297.735	7.68
297.949	89.6
298.164	17.92
298.378	48.64
298.593	46.59
298.807	-10.75
299.022	56.83
299.236	62.98
299.451	-25.09
299.665	-49.66
299.88	42.5
300.094	38.4
300.309	34.3
300.523	65.02
300.737	58.88
300.952	24.06
301.166	108.03
301.381	11.78
301.595	75.26
301.809	-37.38
302.024	48.64
302.238	-10.75
302.452	50.69
302.667	32.26
302.881	65.02
303.095	69.12
303.309	56.83
303.524	-10.75
303.738	-20.99
303.952	38.4
304.166	75.26
304.381	-53.76
304.595	112.13
304.809	-14.85
305.023	56.83
305.237	38.4
305.452	17.92
305.666	3.58
305.88	87.55
306.094	13.82
306.308	122.37
306.522	54.78
306.736	62.98
306.95	-0.51
307.164	44.54
307.379	28.16
307.593	19.97
307.807	30.21
308.021	122.37
308.235	46.59
308.449	-8.7
308.663	44.54
308.877	60.93
309.091	19.97
309.305	15.87
309.519	17.92
309.733	91.65
309.947	36.35
310.161	22.02
310.374	22.02
310.588	105.98
310.802	44.54
311.016	42.5
311.23	22.02
311.444	83.45
311.658	-14.85
311.872	17.92
312.085	34.3
312.299	38.4
312.513	50.69
312.727	54.78
312.941	-4.61
313.154	-10.75
313.368	-12.8
313.582	19.97
313.796	40.45
314.009	60.93
314.223	34.3
314.437	83.45
314.651	93.69
314.864	9.73
315.078	7.68
315.292	89.6
315.505	67.07
315.719	30.21
315.933	138.75
316.146	38.4
316.36	9.73
316.573	54.78
316.787	-12.8
317.001	56.83
317.214	-61.95
317.428	1.54
317.641	62.98
317.855	54.78
318.068	3.58
318.282	-10.75
318.495	26.11
318.709	69.12
318.922	34.3
319.136	124.41
319.349	17.92
319.563	62.98
319.776	3.58
319.99	60.93
320.203	77.31
320.417	103.93
320.63	34.3
320.843	-12.8
321.057	50.69
321.27	28.16
321.483	-8.7
321.697	13.82
321.91	69.12
322.124	79.36
322.337	13.82
322.55	15.87
322.763	-12.8
322.977	1.54
323.19	32.26
323.403	44.54
323.617	1.54
323.83	108.03
324.043	40.45
324.256	38.4
324.469	-39.42
324.683	52.74
324.896	52.74
325.109	110.08
325.322	110.08
325.535	22.02
325.748	15.87
325.962	71.17
326.175	3.58
326.388	9.73
326.601	24.06
326.814	44.54
327.027	-8.7
327.24	22.02
327.453	-12.8
327.666	48.64
327.879	79.36
328.092	89.6
328.305	5.63
328.518	-16.9
328.731	19.97
328.944	118.27
329.157	46.59
329.37	73.21
329.583	58.88
329.796	79.36
330.009	101.89
330.222	38.4
330.435	75.26
330.648	9.73
330.861	71.17
331.073	-10.75
331.286	24.06
331.499	-0.51
331.712	-43.52
331.925	3.58
332.138	42.5
332.35	101.89
332.563	11.78
332.776	136.7
332.989	56.83
333.202	5.63
333.414	-4.61
333.627	26.11
333.84	42.5
334.053	36.35
334.265	83.45
334.478	-10.75
334.691	44.54
334.903	85.5
335.116	65.02
335.329	9.73
335.541	54.78
335.754	101.89
335.966	54.78
336.179	30.21
336.392	15.87
336.604	67.07
336.817	36.35
337.029	28.16
337.242	5.63
337.454	46.59
337.667	32.26
337.88	-16.9
338.092	22.02
338.305	71.17
338.517	5.63
338.729	34.3
338.942	54.78
339.154	22.02
339.367	36.35
339.579	28.16
339.792	-43.52
340.004	28.16
340.217	-33.28
340.429	91.65
340.641	7.68
340.854	42.5
341.066	91.65
341.278	95.74
341.491	28.16
341.703	-16.9
341.915	-0.51
342.128	97.79
342.34	62.98
342.552	-2.56
342.764	13.82
342.977	11.78
343.189	87.55
343.401	-6.66
343.613	75.26
343.826	22.02
344.038	5.63
344.25	54.78
344.462	9.73
344.674	44.54
344.886	26.11
345.099	105.98
345.311	-33.28
345.523	36.35
345.735	77.31
345.947	-6.66
346.159	17.92
346.371	17.92
346.583	95.74
346.795	89.6
347.007	-0.51
347.219	71.17
347.431	15.87
347.643	130.56
347.855	-12.8
348.067	118.27
348.279	44.54
348.491	65.02
348.703	108.03
348.915	28.16
349.127	-25.09
349.339	108.03
349.551	-8.7
349.763	71.17
349.975	19.97
350.187	40.45
350.399	73.21
350.61	36.35
350.822	38.4
351.034	62.98
351.246	54.78
351.458	81.41
351.669	110.08
351.881	34.3
352.093	77.31
352.305	56.83
352.517	-43.52
352.728	30.21
352.94	69.12
353.152	71.17
353.363	9.73
353.575	83.45
353.787	79.36
353.999	97.79
354.21	5.63
354.422	-20.99
354.633	-8.7
354.845	99.84
355.057	50.69
355.268	9.73
355.48	93.69
355.692	22.02
355.903	13.82
356.115	9.73
356.326	34.3
356.538	62.98
356.749	52.74
356.961	60.93
357.172	11.78
357.384	26.11
357.595	99.84
357.807	19.97
358.018	13.82
358.23	79.36
358.441	54.78
358.653	122.37
358.864	-0.51
359.075	48.64
359.287	58.88
359.498	40.45
359.709	36.35
359.921	46.59
360.132	28.16
360.344	38.4
360.555	77.31
360.766	-0.51
360.977	62.98
361.189	5.63
361.4	17.92
361.611	89.6
361.823	-6.66
362.034	73.21
362.245	69.12
362.456	48.64
362.667	28.16
362.879	85.5
363.09	71.17
363.301	44.54
363.512	48.64
363.723	65.02
363.935	77.31
364.146	5.63
364.357	28.16
364.568	95.74
364.779	-16.9
364.99	62.98
365.201	60.93
365.412	17.92
365.623	44.54
365.834	79.36
366.045	26.11
366.256	73.21
366.467	62.98
366.678	30.21
366.889	71.17
367.1	89.6
367.311	67.07
367.522	83.45
367.733	32.26
367.944	-4.61
368.155	15.87
368.366	50.69
368.577	77.31
368.788	108.03
368.999	-14.85
369.209	28.16
369.42	38.4
369.631	62.98
369.842	93.69
370.053	56.83
370.264	54.78
370.474	28.16
370.685	-2.56
370.896	7.68
371.107	108.03
371.317	22.02
371.528	19.97
371.739	77.31
371.95	44.54
372.16	58.88
372.371	58.88
372.582	3.58
372.792	15.87
373.003	22.02
373.214	30.21
373.424	108.03
373.635	7.68
373.846	103.93
374.056	58.88
374.267	30.21
374.477	17.92
374.688	75.26
374.898	75.26
375.109	22.02
375.319	81.41
375.53	87.55
375.74	87.55
375.951	65.02
376.161	48.64
376.372	91.65
376.582	24.06
376.793	34.3
377.003	85.5
377.214	26.11
377.424	67.07
377.635	19.97
377.845	-2.56
378.055	75.26
378.266	36.35
378.476	24.06
378.686	79.36
378.897	56.83
379.107	28.16
379.317	79.36
379.528	-6.66
379.738	52.74
379.948	1.54
380.158	15.87
380.369	52.74
380.579	67.07
380.789	42.5
380.999	44.54
381.21	58.88
381.42	62.98
381.63	40.45
381.84	-16.9
382.05	50.69
382.261	79.36
382.471	30.21
382.681	77.31
382.891	73.21
383.101	17.92
383.311	-12.8
383.521	48.64
383.731	26.11
383.941	56.83
384.151	89.6
384.361	46.59
384.571	11.78
384.781	32.26
384.991	105.98
385.201	52.74
385.411	93.69
385.621	42.5
385.831	60.93
386.041	15.87
386.251	81.41
386.461	73.21
386.671	58.88
386.881	-49.66
387.091	36.35
387.301	105.98
387.511	71.17
387.72	22.02
387.93	60.93
388.14	-4.61
388.35	87.55
388.56	120.32
388.769	48.64
388.979	103.93
389.189	30.21
389.399	24.06
389.609	60.93
389.818	95.74
390.028	42.5
390.238	9.73
390.447	62.98
390.657	24.06
390.867	89.6
391.076	58.88
391.286	-10.75
391.496	24.06
391.705	69.12
391.915	65.02
392.125	15.87
392.334	65.02
392.544	40.45
392.753	112.13
392.963	-4.61
393.172	48.64
393.382	110.08
393.591	101.89
393.801	24.06
394.01	65.02
394.22	52.74
394.429	71.17
394.639	38.4
394.848	85.5
395.058	116.22
395.267	1.54
395.477	50.69
395.686	163.33
395.895	110.08
396.105	62.98
396.314	97.79
396.524	62.98
396.733	97.79
396.942	87.55
397.152	110.08
397.361	60.93
397.57	134.65
397.78	124.41
397.989	108.03
398.198	110.08
398.407	73.21
398.617	26.11
398.826	114.17
399.035	50.69
399.244	60.93
399.453	81.41
399.663	48.64
399.872	165.37
400.081	79.36
400.29	112.13
400.499	124.41
400.708	124.41
400.917	44.54
401.127	81.41
401.336	42.5
401.545	62.98
401.754	116.22
401.963	108.03
402.172	112.13
402.381	71.17
402.59	118.27
402.799	151.04
403.008	134.65
403.217	32.26
403.426	157.18
403.635	97.79
403.844	124.41
404.053	134.65
404.262	36.35
404.471	155.13
404.68	95.74
404.888	159.23
405.097	148.99
405.306	114.17
405.515	122.37
405.724	95.74
405.933	159.23
406.142	91.65
406.35	122.37
406.559	196.09
406.768	212.48
406.977	230.91
407.185	187.9
407.394	169.47
407.603	124.41
407.812	194.05
408.02	171.52
408.229	216.57
408.438	228.86
408.646	212.48
408.855	226.81
409.064	294.4
409.272	290.3
409.481	253.44
409.69	206.33
409.898	278.01
410.107	255.48
410.315	298.49
410.524	239.1
410.733	327.16
410.941	265.72
411.15	364.03
411.358	306.68
411.567	407.03
411.775	370.17
411.984	359.93
412.192	382.46
412.401	384.51
412.609	380.41
412.818	425.47
413.026	411.13
413.234	421.37
413.443	407.03
413.651	364.03
413.86	566.78
414.068	529.91
414.276	603.64
414.485	497.14
414.693	597.49
414.901	615.93
415.11	587.26
415.318	658.93
415.526	652.79
415.734	624.12
415.943	658.93
416.151	740.85
416.359	703.99
416.567	740.85
416.776	798.2
416.984	851.44
417.192	935.41
417.4	822.77
417.608	779.76
417.817	906.74
418.025	955.89
418.233	986.61
418.441	953.84
418.649	1062.38
418.857	1095.15
419.065	1138.16
419.273	978.42
419.481	1132.01
419.689	1248.75
419.897	1236.46
420.105	1109.49
420.313	1232.37
420.521	1306.09
420.729	1412.59
420.937	1418.73
421.145	1508.84
421.353	1553.9
421.561	1603.05
421.769	1668.58
421.977	1709.54
422.185	1850.85
422.393	1916.39
422.601	1992.16
422.809	2067.94
423.017	1953.25
423.224	2035.17
423.432	2307.55
423.64	2221.53
423.848	2342.36
424.056	2260.45
424.263	2498.01
424.471	2436.57
424.679	2473.43
424.887	2526.68
425.094	2700.76
425.302	2711
425.51	2825.68
425.718	2844.12
425.925	2915.8
426.133	3055.06
426.341	3249.61
426.548	3306.96
426.756	3284.43
426.964	3417.55
427.171	3714.5
427.379	3571.15
427.586	3747.27
427.794	3818.95
428.001	4001.22
428.209	4398.52
428.417	4122.05
428.624	4414.91
428.832	4431.29
429.039	4390.33
429.247	4380.09
429.454	4677.05
429.662	5242.29
429.869	4900.28
430.076	5172.66
430.284	4957.62
430.491	5103.03
430.699	5547.44
430.906	5619.11
431.114	5604.78
431.321	5916.07
431.528	5930.41
431.736	6321.57
431.943	6401.44
432.15	6317.47
432.358	6559.13
432.565	6935.96
432.772	6940.05
432.979	7185.81
433.187	7378.32
433.394	7339.41
433.601	7794.06
433.808	7802.25
434.016	7804.3
434.223	8191.36
434.43	8670.59
434.637	8494.46
434.844	8932.73
435.052	9080.18
435.259	9057.65
435.466	9370.99
435.673	8887.67
435.88	9704.81
436.087	10216.8
436.294	10237.28
436.501	10167.65
436.708	10280.29
436.915	10542.43
437.122	11015.51
437.329	11183.45
437.537	11445.59
437.743	11269.46
437.95	11562.32
438.157	11933
438.364	12627.26
438.571	12248.39
438.778	12385.6
438.985	13907.24
439.192	13061.43
439.399	13579.57
439.606	13194.55
439.813	14028.07
440.02	14798.11
440.227	14722.34
440.433	14374.18
440.64	14857.5
440.847	14652.7
441.054	15119.64
441.261	16250.12
441.467	16145.67
441.674	16276.74
441.881	16950.53
442.088	17106.17
442.294	16628.99
442.501	17280.25
442.708	17693.94
442.914	18386.15
443.121	19059.93
443.328	18638.05
443.534	19637.46
443.741	19242.2
443.948	18744.55
444.154	20440.26
444.361	20219.08
444.568	20516.04
444.774	20311.24
444.981	20626.63
445.187	21269.69
445.394	22355.11
445.6	21843.12
445.807	23817.36
446.013	22928.55
446.22	23178.4
446.426	24104.08
446.633	24370.32
446.839	25308.29
447.046	24265.87
447.252	25627.77
447.459	25437.31
447.665	25627.77
447.871	26410.09
448.078	27991.12
448.284	26315.89
448.491	27270.24
448.697	28183.63
448.903	28746.83
449.11	28726.35
449.316	28337.23
449.522	28353.62
449.728	29664.32
449.935	29779
450.141	29705.27
450.347	30686.25
450.553	29643.84
450.76	30170.16
450.966	31046.69
451.172	30559.28
451.378	31280.16
451.584	30497.84
451.791	31509.54
451.997	31400.99
452.203	31923.22
452.409	31976.47
452.615	31616.03
452.821	30538.8
453.027	30321.71
453.233	31779.87
453.44	30356.53
453.646	30731.31
453.852	30661.68
454.058	31353.89
454.264	30219.31
454.47	31181.86
454.676	30532.65
454.882	31179.81
455.088	28632.14
455.294	29002.82
455.5	29219.91
455.705	29377.6
455.911	28724.3
456.117	27855.96
456.323	27268.19
456.529	26049.65
456.735	27307.1
456.941	26408.05
457.147	26041.46
457.352	25158.78
457.558	24622.22
457.764	24927.36
457.97	24611.98
458.176	23993.49
458.381	23905.43
458.587	22682.79
458.793	22662.31
458.999	21793.97
459.204	22977.7
459.41	22353.07
459.616	21116.09
459.821	20735.17
460.027	20853.95
460.233	20427.98
460.438	19203.29
460.644	19528.92
460.85	18599.14
461.055	18509.03
461.261	18144.49
461.466	16987.39
461.672	16282.89
461.878	17458.42
462.083	16573.7
462.289	16182.54
462.494	15977.74
462.7	15389.97
462.905	14714.14
463.111	15420.69
463.316	15484.18
463.522	15166.74
463.727	15193.37
463.932	15238.42
464.138	15303.96
464.343	15226.14
464.549	14753.05
464.754	15009.05
464.959	14998.81
465.165	14527.78
465.37	14021.93
465.575	13626.67
465.781	14316.84
465.986	14402.85
466.191	14054.7
466.397	13776.17
466.602	12893.5
466.807	13542.71
467.012	13450.55
467.218	13647.15
467.423	13253.94
467.628	13436.21
467.833	13911.34
468.038	13507.89
468.244	12920.12
468.449	13395.25
