Data from USB4F104151__0__12-00-15-709.txt Node

Date: Fri Mar 14 12:00:15 EDT 2025
User: louis
Spectrometer: USB4F10415
Trigger mode: 4
Integration Time (sec): 2.000000E-2
Scans to average: 1
Electric dark correction enabled: true
Nonlinearity correction enabled: false
Boxcar width: 0
XAxis mode: Wavelengths
Number of Pixels in Spectrum: 3648
>>>>>Begin Spectral Data<<<<<
178.204	-74.41
178.424	-74.41
178.644	-74.41
178.864	-94.89
179.084	-66.22
179.304	5.46
179.524	-0.68
179.744	36.18
179.964	36.18
180.184	17.75
180.404	38.23
180.624	-12.97
180.844	-51.88
181.064	-37.55
181.283	25.94
181.503	-31.4
181.723	-25.26
181.943	15.7
182.163	21.85
182.383	7.51
182.602	68.95
182.822	7.51
183.042	19.8
183.262	44.37
183.482	3.41
183.701	1.37
183.921	46.42
184.141	25.94
184.361	85.33
184.58	-15.02
184.8	-25.26
185.02	32.08
185.239	50.52
185.459	60.76
185.679	21.85
185.898	30.04
186.118	50.52
186.338	-23.21
186.557	1.37
186.777	-25.26
186.997	25.94
187.216	-2.73
187.436	21.85
187.655	-0.68
187.875	32.08
188.095	-19.11
188.314	7.51
188.534	32.08
188.753	36.18
188.973	5.46
189.192	50.52
189.412	58.71
189.631	46.42
189.851	64.85
190.07	5.46
190.29	-33.45
190.509	25.94
190.729	-2.73
190.948	38.23
191.168	75.09
191.387	36.18
191.607	1.37
191.826	-41.64
192.045	13.65
192.265	30.04
192.484	50.52
192.704	-31.4
192.923	-74.41
193.142	27.99
193.362	97.62
193.581	-21.16
193.8	50.52
194.02	-25.26
194.239	114
194.458	50.52
194.678	-21.16
194.897	-15.02
195.116	30.04
195.335	19.8
195.555	-23.21
195.774	7.51
195.993	30.04
196.212	-19.11
196.432	-88.75
196.651	7.51
196.87	85.33
197.089	27.99
197.308	-23.21
197.528	5.46
197.747	5.46
197.966	32.08
198.185	64.85
198.404	36.18
198.623	-37.55
198.842	9.56
199.062	34.13
199.281	114
199.5	21.85
199.719	-98.99
199.938	23.89
200.157	56.66
200.376	42.32
200.595	-19.11
200.814	-23.21
201.033	17.75
201.252	-53.93
201.471	-6.83
201.69	-6.83
201.909	21.85
202.128	-33.45
202.347	19.8
202.566	-12.97
202.785	36.18
203.004	52.56
203.223	91.48
203.442	87.38
203.661	21.85
203.879	-19.11
204.098	71
204.317	19.8
204.536	13.65
204.755	89.43
204.974	-41.64
205.193	68.95
205.411	27.99
205.63	105.81
205.849	44.37
206.068	32.08
206.287	-27.31
206.505	-4.78
206.724	-51.88
206.943	-15.02
207.162	38.23
207.381	-0.68
207.599	30.04
207.818	-6.83
208.037	25.94
208.255	40.28
208.474	-10.92
208.693	11.61
208.911	-19.11
209.13	-4.78
209.349	17.75
209.567	73.04
209.786	-17.07
210.005	-17.07
210.223	11.61
210.442	-119.46
210.661	62.8
210.879	-15.02
211.098	-8.87
211.316	87.38
211.535	56.66
211.753	-39.59
211.972	25.94
212.191	-29.35
212.409	7.51
212.628	36.18
212.846	-27.31
213.065	75.09
213.283	50.52
213.502	25.94
213.72	-41.64
213.938	34.13
214.157	36.18
214.375	9.56
214.594	-15.02
214.812	34.13
215.031	60.76
215.249	34.13
215.467	13.65
215.686	32.08
215.904	25.94
216.122	-21.16
216.341	19.8
216.559	73.04
216.778	3.41
216.996	-55.98
217.214	73.04
217.432	7.51
217.651	34.13
217.869	11.61
218.087	62.8
218.306	-2.73
218.524	-15.02
218.742	-35.5
218.96	7.51
219.179	48.47
219.397	25.94
219.615	64.85
219.833	-6.83
220.051	-53.93
220.27	32.08
220.488	50.52
220.706	62.8
220.924	-15.02
221.142	-15.02
221.36	54.61
221.578	23.89
221.796	19.8
222.015	-37.55
222.233	27.99
222.451	-19.11
222.669	21.85
222.887	36.18
223.105	-41.64
223.323	17.75
223.541	-19.11
223.759	11.61
223.977	-4.78
224.195	83.28
224.413	-8.87
224.631	34.13
224.849	23.89
225.067	52.56
225.285	-15.02
225.503	42.32
225.721	1.37
225.939	13.65
226.157	-21.16
226.375	-41.64
226.592	-62.12
226.81	-6.83
227.028	83.28
227.246	-19.11
227.464	-6.83
227.682	60.76
227.9	52.56
228.117	-103.08
228.335	42.32
228.553	38.23
228.771	-19.11
228.989	-15.02
229.206	13.65
229.424	60.76
229.642	32.08
229.86	-60.07
230.077	15.7
230.295	-35.5
230.513	-27.31
230.731	91.48
230.948	71
231.166	66.9
231.384	-45.74
231.601	5.46
231.819	21.85
232.037	-29.35
232.254	-45.74
232.472	46.42
232.689	-37.55
232.907	48.47
233.125	1.37
233.342	-15.02
233.56	3.41
233.777	11.61
233.995	44.37
234.213	9.56
234.43	-15.02
234.648	3.41
234.865	-27.31
235.083	42.32
235.3	-21.16
235.518	19.8
235.735	73.04
235.953	7.51
236.17	-6.83
236.388	3.41
236.605	54.61
236.822	-43.69
237.04	-17.07
237.257	-51.88
237.475	19.8
237.692	13.65
237.909	34.13
238.127	71
238.344	-19.11
238.562	38.23
238.779	-27.31
238.996	25.94
239.214	15.7
239.431	116.05
239.648	38.23
239.865	81.24
240.083	81.24
240.3	62.8
240.517	-0.68
240.735	-17.07
240.952	50.52
241.169	52.56
241.386	-86.7
241.603	30.04
241.821	36.18
242.038	46.42
242.255	21.85
242.472	-33.45
242.689	21.85
242.907	64.85
243.124	-37.55
243.341	-2.73
243.558	-41.64
243.775	-2.73
243.992	1.37
244.209	42.32
244.426	32.08
244.643	17.75
244.86	40.28
245.078	9.56
245.295	71
245.512	7.51
245.729	15.7
245.946	-10.92
246.163	3.41
246.38	-35.5
246.597	30.04
246.814	9.56
247.031	30.04
247.248	1.37
247.464	15.7
247.681	17.75
247.898	25.94
248.115	-8.87
248.332	-0.68
248.549	-19.11
248.766	79.19
248.983	-21.16
249.2	62.8
249.417	62.8
249.633	23.89
249.85	-27.31
250.067	-12.97
250.284	15.7
250.501	15.7
250.717	17.75
250.934	-51.88
251.151	56.66
251.368	-47.79
251.585	9.56
251.801	-35.5
252.018	11.61
252.235	62.8
252.451	15.7
252.668	25.94
252.885	-8.87
253.102	-23.21
253.318	-51.88
253.535	46.42
253.752	-51.88
253.968	40.28
254.185	-2.73
254.401	-94.89
254.618	-12.97
254.835	5.46
255.051	-8.87
255.268	56.66
255.484	46.42
255.701	30.04
255.917	-2.73
256.134	21.85
256.351	25.94
256.567	-60.07
256.784	-2.73
257	50.52
257.217	-8.87
257.433	-0.68
257.65	15.7
257.866	-51.88
258.082	-2.73
258.299	-15.02
258.515	95.57
258.732	19.8
258.948	9.56
259.165	46.42
259.381	60.76
259.597	34.13
259.814	-43.69
260.03	50.52
260.246	-35.5
260.463	3.41
260.679	64.85
260.895	48.47
261.112	42.32
261.328	7.51
261.544	-2.73
261.761	-31.4
261.977	-33.45
262.193	-55.98
262.409	1.37
262.626	23.89
262.842	21.85
263.058	15.7
263.274	-51.88
263.49	81.24
263.707	118.1
263.923	25.94
264.139	-51.88
264.355	27.99
264.571	-33.45
264.787	9.56
265.004	9.56
265.22	30.04
265.436	34.13
265.652	5.46
265.868	23.89
266.084	-21.16
266.3	11.61
266.516	30.04
266.732	36.18
266.948	64.85
267.164	1.37
267.38	-21.16
267.596	15.7
267.812	105.81
268.028	42.32
268.244	-2.73
268.46	9.56
268.676	-33.45
268.892	25.94
269.108	-15.02
269.324	-10.92
269.54	15.7
269.756	38.23
269.972	-10.92
270.188	44.37
270.403	27.99
270.619	-37.55
270.835	-8.87
271.051	17.75
271.267	-12.97
271.483	64.85
271.698	42.32
271.914	17.75
272.13	-17.07
272.346	-6.83
272.562	7.51
272.777	101.72
272.993	-6.83
273.209	13.65
273.425	27.99
273.64	15.7
273.856	-41.64
274.072	21.85
274.287	-21.16
274.503	17.75
274.719	66.9
274.934	-8.87
275.15	-27.31
275.366	64.85
275.581	-45.74
275.797	68.95
276.012	83.28
276.228	-29.35
276.444	-45.74
276.659	-6.83
276.875	48.47
277.09	11.61
277.306	7.51
277.521	-10.92
277.737	-12.97
277.952	95.57
278.168	54.61
278.383	27.99
278.599	5.46
278.814	32.08
279.03	21.85
279.245	75.09
279.461	-15.02
279.676	79.19
279.892	32.08
280.107	-39.59
280.322	-37.55
280.538	30.04
280.753	83.28
280.969	-12.97
281.184	52.56
281.399	27.99
281.615	-15.02
281.83	5.46
282.045	-41.64
282.26	3.41
282.476	30.04
282.691	111.96
282.906	50.52
283.122	19.8
283.337	-12.97
283.552	-8.87
283.767	-64.17
283.983	73.04
284.198	-10.92
284.413	7.51
284.628	9.56
284.843	-8.87
285.058	60.76
285.274	38.23
285.489	-2.73
285.704	66.9
285.919	13.65
286.134	40.28
286.349	3.41
286.564	-10.92
286.779	3.41
286.995	-41.64
287.21	-31.4
287.425	3.41
287.64	36.18
287.855	105.81
288.07	-39.59
288.285	52.56
288.5	38.23
288.715	77.14
288.93	-6.83
289.145	5.46
289.36	5.46
289.575	75.09
289.79	48.47
290.004	1.37
290.219	23.89
290.434	-2.73
290.649	36.18
290.864	-4.78
291.079	-2.73
291.294	32.08
291.509	87.38
291.724	7.51
291.938	36.18
292.153	-29.35
292.368	79.19
292.583	58.71
292.798	30.04
293.012	52.56
293.227	23.89
293.442	-25.26
293.657	19.8
293.871	44.37
294.086	-4.78
294.301	13.65
294.516	-6.83
294.73	21.85
294.945	-33.45
295.16	3.41
295.374	-41.64
295.589	23.89
295.804	-12.97
296.018	-10.92
296.233	36.18
296.447	-43.69
296.662	-10.92
296.877	1.37
297.091	58.71
297.306	-25.26
297.52	5.46
297.735	21.85
297.949	15.7
298.164	7.51
298.378	7.51
298.593	32.08
298.807	25.94
299.022	50.52
299.236	-15.02
299.451	62.8
299.665	-10.92
299.88	-62.12
300.094	97.62
300.309	42.32
300.523	50.52
300.737	97.62
300.952	11.61
301.166	-41.64
301.381	-4.78
301.595	3.41
301.809	25.94
302.024	11.61
302.238	13.65
302.452	105.81
302.667	48.47
302.881	85.33
303.095	40.28
303.309	27.99
303.524	25.94
303.738	109.91
303.952	-25.26
304.166	13.65
304.381	-19.11
304.595	44.37
304.809	15.7
305.023	56.66
305.237	17.75
305.452	5.46
305.666	-2.73
305.88	15.7
306.094	-4.78
306.308	42.32
306.522	36.18
306.736	-35.5
306.95	11.61
307.164	-4.78
307.379	-21.16
307.593	52.56
307.807	68.95
308.021	89.43
308.235	-12.97
308.449	-19.11
308.663	-10.92
308.877	32.08
309.091	46.42
309.305	48.47
309.519	-27.31
309.733	71
309.947	36.18
310.161	21.85
310.374	-47.79
310.588	15.7
310.802	-21.16
311.016	9.56
311.23	-64.17
311.444	-23.21
311.658	126.29
311.872	-0.68
312.085	-41.64
312.299	17.75
312.513	-17.07
312.727	30.04
312.941	-21.16
313.154	-33.45
313.368	17.75
313.582	3.41
313.796	46.42
314.009	19.8
314.223	56.66
314.437	60.76
314.651	-12.97
314.864	3.41
315.078	-35.5
315.292	-4.78
315.505	25.94
315.719	-35.5
315.933	-0.68
316.146	66.9
316.36	3.41
316.573	-35.5
316.787	23.89
317.001	46.42
317.214	21.85
317.428	30.04
317.641	-12.97
317.855	-49.83
318.068	-21.16
318.282	23.89
318.495	7.51
318.709	1.37
318.922	40.28
319.136	17.75
319.349	34.13
319.563	3.41
319.776	50.52
319.99	-15.02
320.203	83.28
320.417	5.46
320.63	62.8
320.843	27.99
321.057	71
321.27	36.18
321.483	-27.31
321.697	-19.11
321.91	-6.83
322.124	-6.83
322.337	75.09
322.55	-60.07
322.763	1.37
322.977	-0.68
323.19	3.41
323.403	-41.64
323.617	-2.73
323.83	30.04
324.043	-29.35
324.256	-4.78
324.469	-15.02
324.683	73.04
324.896	9.56
325.109	-4.78
325.322	-39.59
325.535	44.37
325.748	32.08
325.962	25.94
326.175	-60.07
326.388	99.67
326.601	25.94
326.814	1.37
327.027	38.23
327.24	27.99
327.453	21.85
327.666	-0.68
327.879	85.33
328.092	91.48
328.305	13.65
328.518	44.37
328.731	-39.59
328.944	-6.83
329.157	19.8
329.37	60.76
329.583	40.28
329.796	56.66
330.009	30.04
330.222	1.37
330.435	42.32
330.648	46.42
330.861	23.89
331.073	-0.68
331.286	30.04
331.499	-21.16
331.712	-10.92
331.925	91.48
332.138	46.42
332.35	19.8
332.563	38.23
332.776	64.85
332.989	40.28
333.202	40.28
333.414	38.23
333.627	44.37
333.84	111.96
334.053	19.8
334.265	-35.5
334.478	56.66
334.691	46.42
334.903	36.18
335.116	-4.78
335.329	58.71
335.541	-49.83
335.754	11.61
335.966	38.23
336.179	13.65
336.392	-21.16
336.604	-25.26
336.817	42.32
337.029	44.37
337.242	3.41
337.454	11.61
337.667	-37.55
337.88	27.99
338.092	-35.5
338.305	77.14
338.517	-41.64
338.729	77.14
338.942	68.95
339.154	44.37
339.367	-8.87
339.579	-4.78
339.792	46.42
340.004	111.96
340.217	-12.97
340.429	-2.73
340.641	9.56
340.854	48.47
341.066	38.23
341.278	11.61
341.491	42.32
341.703	-70.31
341.915	-21.16
342.128	68.95
342.34	42.32
342.552	23.89
342.764	-19.11
342.977	73.04
343.189	-29.35
343.401	34.13
343.613	9.56
343.826	7.51
344.038	-33.45
344.25	-43.69
344.462	52.56
344.674	95.57
344.886	-2.73
345.099	66.9
345.311	89.43
345.523	19.8
345.735	-33.45
345.947	-4.78
346.159	9.56
346.371	56.66
346.583	5.46
346.795	77.14
347.007	15.7
347.219	-31.4
347.431	-31.4
347.643	27.99
347.855	-31.4
348.067	11.61
348.279	17.75
348.491	-39.59
348.703	-19.11
348.915	7.51
349.127	-15.02
349.339	13.65
349.551	40.28
349.763	40.28
349.975	23.89
350.187	138.58
350.399	-37.55
350.61	-0.68
350.822	-45.74
351.034	50.52
351.246	114
351.458	-8.87
351.669	-19.11
351.881	66.9
352.093	40.28
352.305	40.28
352.517	-0.68
352.728	52.56
352.94	-2.73
353.152	66.9
353.363	17.75
353.575	-0.68
353.787	3.41
353.999	30.04
354.21	62.8
354.422	19.8
354.633	-37.55
354.845	124.24
355.057	25.94
355.268	-62.12
355.48	21.85
355.692	7.51
355.903	58.71
356.115	-33.45
356.326	-21.16
356.538	83.28
356.749	25.94
356.961	-15.02
357.172	-0.68
357.384	-0.68
357.595	30.04
357.807	54.61
358.018	54.61
358.23	48.47
358.441	40.28
358.653	54.61
358.864	46.42
359.075	-10.92
359.287	-41.64
359.498	-23.21
359.709	-8.87
359.921	85.33
360.132	5.46
360.344	38.23
360.555	-2.73
360.766	23.89
360.977	13.65
361.189	7.51
361.4	44.37
361.611	52.56
361.823	17.75
362.034	52.56
362.245	7.51
362.456	68.95
362.667	-23.21
362.879	-51.88
363.09	-25.26
363.301	40.28
363.512	27.99
363.723	38.23
363.935	-55.98
364.146	19.8
364.357	48.47
364.568	25.94
364.779	-45.74
364.99	19.8
365.201	79.19
365.412	21.85
365.623	-21.16
365.834	21.85
366.045	-19.11
366.256	42.32
366.467	13.65
366.678	21.85
366.889	34.13
367.1	38.23
367.311	73.04
367.522	126.29
367.733	79.19
367.944	27.99
368.155	3.41
368.366	54.61
368.577	30.04
368.788	15.7
368.999	7.51
369.209	-21.16
369.42	5.46
369.631	62.8
369.842	68.95
370.053	52.56
370.264	77.14
370.474	21.85
370.685	62.8
370.896	21.85
371.107	21.85
371.317	23.89
371.528	36.18
371.739	11.61
371.95	40.28
372.16	48.47
372.371	-53.93
372.582	15.7
372.792	19.8
373.003	38.23
373.214	-25.26
373.424	1.37
373.635	15.7
373.846	36.18
374.056	-27.31
374.267	11.61
374.477	23.89
374.688	-51.88
374.898	5.46
375.109	50.52
375.319	1.37
375.53	95.57
375.74	48.47
375.951	50.52
376.161	-29.35
376.372	25.94
376.582	60.76
376.793	120.15
377.003	23.89
377.214	23.89
377.424	-19.11
377.635	-10.92
377.845	42.32
378.055	19.8
378.266	-12.97
378.476	1.37
378.686	-4.78
378.897	36.18
379.107	11.61
379.317	50.52
379.528	21.85
379.738	21.85
379.948	9.56
380.158	30.04
380.369	-4.78
380.579	38.23
380.789	64.85
380.999	21.85
381.21	40.28
381.42	97.62
381.63	-49.83
381.84	46.42
382.05	11.61
382.261	75.09
382.471	56.66
382.681	-19.11
382.891	-10.92
383.101	3.41
383.311	13.65
383.521	46.42
383.731	60.76
383.941	46.42
384.151	38.23
384.361	46.42
384.571	11.61
384.781	132.44
384.991	34.13
385.201	32.08
385.411	34.13
385.621	85.33
385.831	-31.4
386.041	19.8
386.251	-27.31
386.461	27.99
386.671	13.65
386.881	-4.78
387.091	9.56
387.301	66.9
387.511	-0.68
387.72	23.89
387.93	46.42
388.14	11.61
388.35	-15.02
388.56	36.18
388.769	13.65
388.979	40.28
389.189	-25.26
389.399	7.51
389.609	-58.03
389.818	1.37
390.028	48.47
390.238	7.51
390.447	13.65
390.657	-47.79
390.867	-2.73
391.076	-17.07
391.286	15.7
391.496	36.18
391.705	3.41
391.915	95.57
392.125	60.76
392.334	40.28
392.544	64.85
392.753	38.23
392.963	-33.45
393.172	40.28
393.382	11.61
393.591	52.56
393.801	27.99
394.01	109.91
394.22	62.8
394.429	5.46
394.639	-0.68
394.848	77.14
395.058	66.9
395.267	56.66
395.477	46.42
395.686	34.13
395.895	50.52
396.105	81.24
396.314	79.19
396.524	42.32
396.733	64.85
396.942	54.61
397.152	27.99
397.361	38.23
397.57	48.47
397.78	-6.83
397.989	52.56
398.198	118.1
398.407	126.29
398.617	66.9
398.826	54.61
399.035	15.7
399.244	23.89
399.453	34.13
399.663	71
399.872	60.76
400.081	13.65
400.29	109.91
400.499	56.66
400.708	40.28
400.917	25.94
401.127	93.52
401.336	11.61
401.545	58.71
401.754	97.62
401.963	81.24
402.172	44.37
402.381	50.52
402.59	75.09
402.799	177.49
403.008	103.76
403.217	32.08
403.426	71
403.635	83.28
403.844	79.19
404.053	99.67
404.262	56.66
404.471	185.68
404.68	91.48
404.888	173.39
405.097	40.28
405.306	66.9
405.515	48.47
405.724	83.28
405.933	93.52
406.142	50.52
406.35	118.1
406.559	99.67
406.768	79.19
406.977	122.2
407.185	91.48
407.394	97.62
407.603	111.96
407.812	142.68
408.02	183.63
408.229	124.24
408.438	140.63
408.646	87.38
408.855	95.57
409.064	161.11
409.272	111.96
409.481	159.06
409.69	128.34
409.898	101.72
410.107	218.45
410.315	214.35
410.524	202.07
410.733	214.35
410.941	187.73
411.15	238.93
411.358	236.88
411.567	269.65
411.775	230.74
411.984	269.65
412.192	296.27
412.401	304.46
412.609	380.24
412.818	275.79
413.026	316.75
413.234	372.05
413.443	357.71
413.651	320.85
413.86	361.81
414.068	378.19
414.276	425.29
414.485	308.56
414.693	492.88
414.901	396.62
415.11	419.15
415.318	357.71
415.526	447.82
415.734	439.63
415.943	419.15
416.151	482.64
416.359	535.89
416.567	535.89
416.776	484.69
416.984	558.41
417.192	615.76
417.4	611.66
417.608	582.99
417.817	589.13
418.025	582.99
418.233	728.39
418.441	628.04
418.649	759.11
418.857	685.39
419.065	822.6
419.273	789.83
419.481	761.16
419.689	906.57
419.897	871.75
420.105	925
420.313	978.25
420.521	1033.54
420.729	998.73
420.937	959.81
421.145	1033.54
421.353	1101.12
421.561	1199.43
421.769	1133.89
421.977	1281.35
422.185	1207.62
422.393	1320.26
422.601	1469.76
422.809	1396.03
423.017	1377.6
423.224	1387.84
423.432	1447.23
423.64	1525.05
423.848	1639.74
424.056	1566.01
424.263	1772.86
424.471	1776.95
424.679	1738.04
424.887	1805.63
425.094	1926.46
425.302	1955.13
425.51	2088.25
425.718	2051.38
425.925	2096.44
426.133	2231.6
426.341	2278.71
426.548	2391.34
426.756	2370.87
426.964	2463.02
427.171	2452.78
427.379	2602.29
427.586	2663.72
427.794	2762.03
428.001	2917.67
428.209	3073.32
428.417	3030.31
428.624	3138.85
428.832	3259.68
429.039	3124.52
429.247	3130.66
429.454	3454.24
429.662	3640.61
429.869	3417.38
430.076	3781.92
430.284	3628.32
430.491	3853.59
430.699	3984.66
430.906	3935.51
431.114	3955.99
431.321	4220.18
431.528	4238.61
431.736	4566.29
431.943	4771.08
432.15	4554
432.358	4633.87
432.565	4795.66
432.772	4943.11
432.979	5113.1
433.187	5270.79
433.394	5256.45
433.601	5643.52
433.808	5625.09
434.016	5643.52
434.223	5606.66
434.43	6255.86
434.637	5983.48
434.844	6374.64
435.052	6620.4
435.259	6540.53
435.466	6479.09
435.673	6589.68
435.88	6868.2
436.087	7271.65
436.294	7421.16
436.501	7179.5
436.708	7314.66
436.915	7711.97
437.122	8082.65
437.329	7705.82
437.537	7914.72
437.743	8226.01
437.95	8205.53
438.157	8684.75
438.364	8850.64
438.571	8795.34
438.778	9020.62
438.985	9741.5
439.192	9430.21
439.399	9643.2
439.606	9553.09
439.813	10245.3
440.02	10499.25
440.227	10441.91
440.433	10464.44
440.64	10763.44
440.847	10767.54
441.054	11015.34
441.261	11635.88
441.467	11431.08
441.674	11773.09
441.881	12225.69
442.088	12010.65
442.294	11904.16
442.501	12414.1
442.708	12702.87
442.914	13114.51
443.121	13585.54
443.328	13448.33
443.534	14271.61
443.741	13898.88
443.948	13624.45
444.154	14890.1
444.361	14548.09
444.568	14910.58
444.774	14994.54
444.981	14998.64
445.187	15592.55
445.394	16149.6
445.6	15844.45
445.807	17298.51
446.013	16305.24
446.22	16831.57
446.426	17720.39
446.633	17695.82
446.839	18175.04
447.046	17431.63
447.252	18525.24
447.459	18738.23
447.665	18676.79
447.871	19313.71
448.078	20397.09
448.284	19037.23
448.491	19672.11
448.697	20558.88
448.903	21031.96
449.11	20982.81
449.316	20560.92
449.522	20874.26
449.728	21548.04
449.935	21603.34
450.141	21824.52
450.347	22012.93
450.553	21531.66
450.76	21767.18
450.966	22590.46
451.172	22219.78
451.378	22688.76
451.584	22211.59
451.791	22762.49
451.997	22572.03
452.203	22830.07
452.409	23075.83
452.615	22981.62
452.821	21951.49
453.027	21707.79
453.233	22856.7
453.44	22162.44
453.646	22096.9
453.852	22379.52
454.058	22598.65
454.264	21783.56
454.47	22531.07
454.676	22010.89
454.882	22529.02
455.088	20345.89
455.294	20786.2
455.5	21240.85
455.705	21380.11
455.911	20618.27
456.117	19756.07
456.323	19813.42
456.529	18488.38
456.735	19633.19
456.941	18986.04
457.147	18990.13
457.352	17996.87
457.558	17722.44
457.764	18054.21
457.97	17597.51
458.176	17124.43
458.381	17106
458.587	16612.44
458.793	16479.32
458.999	15344.75
459.204	16393.31
459.41	16000.1
459.616	14998.64
459.821	15160.43
460.027	14931.06
460.233	14689.4
460.438	14083.2
460.644	14206.08
460.85	13511.82
461.055	13233.29
461.261	13094.03
461.466	12178.59
461.672	11748.51
461.878	12532.89
462.083	11859.1
462.289	11834.53
462.494	11584.68
462.7	11125.93
462.905	10515.64
463.111	11218.09
463.316	10990.77
463.522	10900.65
463.727	10693.81
463.932	10851.5
464.138	10755.25
464.343	10892.46
464.549	10441.91
464.754	10857.65
464.959	10767.54
465.165	10736.82
465.37	10194.11
465.575	9917.63
465.781	10327.22
465.986	10435.77
466.191	10034.36
466.397	9815.23
466.602	9321.67
466.807	9692.35
467.012	9747.65
467.218	9643.2
467.423	9428.17
467.628	9567.43
467.833	10073.28
468.038	9708.74
468.244	9608.39
468.449	9821.38
