Data from USB4F104151__80__12-02-11-686.txt Node

Date: Fri Mar 14 12:02:11 EDT 2025
User: louis
Spectrometer: USB4F10415
Trigger mode: 4
Integration Time (sec): 2.000000E-2
Scans to average: 1
Electric dark correction enabled: true
Nonlinearity correction enabled: false
Boxcar width: 0
XAxis mode: Wavelengths
Number of Pixels in Spectrum: 3648
>>>>>Begin Spectral Data<<<<<
178.204	-123.56
178.424	-123.56
178.644	-123.56
178.864	-123.56
179.084	-78.51
179.304	-51.88
179.524	48.47
179.744	15.7
179.964	5.46
180.184	-10.92
180.404	7.51
180.624	27.99
180.844	-47.79
181.064	-23.21
181.283	42.32
181.503	-43.69
181.723	30.04
181.943	-74.41
182.163	-15.02
182.383	-15.02
182.602	77.14
182.822	-23.21
183.042	-0.68
183.262	-29.35
183.482	101.72
183.701	-15.02
183.921	54.61
184.141	-12.97
184.361	-2.73
184.58	-55.98
184.8	34.13
185.02	-45.74
185.239	-29.35
185.459	13.65
185.679	-37.55
185.898	-12.97
186.118	50.52
186.338	-4.78
186.557	-39.59
186.777	3.41
186.997	-15.02
187.216	66.9
187.436	-2.73
187.655	17.75
187.875	19.8
188.095	48.47
188.314	9.56
188.534	42.32
188.753	34.13
188.973	-8.87
189.192	54.61
189.412	44.37
189.631	-21.16
189.851	44.37
190.07	48.47
190.29	21.85
190.509	13.65
190.729	23.89
190.948	23.89
191.168	66.9
191.387	1.37
191.607	-53.93
191.826	-51.88
192.045	58.71
192.265	-27.31
192.484	-10.92
192.704	-17.07
192.923	36.18
193.142	87.38
193.362	81.24
193.581	23.89
193.8	89.43
194.02	58.71
194.239	21.85
194.458	15.7
194.678	-68.27
194.897	-31.4
195.116	-12.97
195.335	-19.11
195.555	15.7
195.774	7.51
195.993	9.56
196.212	83.28
196.432	5.46
196.651	5.46
196.87	38.23
197.089	-0.68
197.308	64.85
197.528	-27.31
197.747	-10.92
197.966	46.42
198.185	109.91
198.404	-12.97
198.623	32.08
198.842	52.56
199.062	-2.73
199.281	3.41
199.5	23.89
199.719	13.65
199.938	-10.92
200.157	71
200.376	-27.31
200.595	126.29
200.814	44.37
201.033	34.13
201.252	30.04
201.471	52.56
201.69	34.13
201.909	-12.97
202.128	-6.83
202.347	58.71
202.566	11.61
202.785	32.08
203.004	-23.21
203.223	73.04
203.442	-35.5
203.661	-37.55
203.879	-10.92
204.098	87.38
204.317	19.8
204.536	-27.31
204.755	-21.16
204.974	46.42
205.193	15.7
205.411	71
205.63	-31.4
205.849	15.7
206.068	-19.11
206.287	-17.07
206.505	11.61
206.724	27.99
206.943	-6.83
207.162	5.46
207.381	15.7
207.599	32.08
207.818	-45.74
208.037	60.76
208.255	48.47
208.474	54.61
208.693	19.8
208.911	21.85
209.13	-10.92
209.349	95.57
209.567	7.51
209.786	-19.11
210.005	-17.07
210.223	30.04
210.442	-0.68
210.661	40.28
210.879	40.28
211.098	19.8
211.316	5.46
211.535	97.62
211.753	23.89
211.972	36.18
212.191	38.23
212.409	-10.92
212.628	7.51
212.846	-58.03
213.065	56.66
213.283	34.13
213.502	-51.88
213.72	13.65
213.938	-19.11
214.157	30.04
214.375	9.56
214.594	13.65
214.812	-12.97
215.031	48.47
215.249	-39.59
215.467	-25.26
215.686	79.19
215.904	-55.98
216.122	13.65
216.341	-10.92
216.559	-45.74
216.778	-17.07
216.996	38.23
217.214	87.38
217.432	38.23
217.651	3.41
217.869	5.46
218.087	13.65
218.306	58.71
218.524	-27.31
218.742	-49.83
218.96	-12.97
219.179	-45.74
219.397	-21.16
219.615	36.18
219.833	-31.4
220.051	3.41
220.27	83.28
220.488	30.04
220.706	7.51
220.924	-19.11
221.142	-31.4
221.36	-27.31
221.578	56.66
221.796	48.47
222.015	30.04
222.233	19.8
222.451	54.61
222.669	15.7
222.887	36.18
223.105	3.41
223.323	34.13
223.541	-8.87
223.759	38.23
223.977	48.47
224.195	21.85
224.413	56.66
224.631	71
224.849	-15.02
225.067	42.32
225.285	-39.59
225.503	5.46
225.721	-15.02
225.939	17.75
226.157	-60.07
226.375	56.66
226.592	25.94
226.81	13.65
227.028	52.56
227.246	46.42
227.464	23.89
227.682	60.76
227.9	-19.11
228.117	13.65
228.335	-53.93
228.553	73.04
228.771	75.09
228.989	21.85
229.206	-10.92
229.424	-15.02
229.642	-31.4
229.86	25.94
230.077	62.8
230.295	-17.07
230.513	46.42
230.731	3.41
230.948	5.46
231.166	40.28
231.384	-62.12
231.601	62.8
231.819	40.28
232.037	-31.4
232.254	7.51
232.472	-25.26
232.689	46.42
232.907	-2.73
233.125	42.32
233.342	81.24
233.56	7.51
233.777	1.37
233.995	-47.79
234.213	7.51
234.43	17.75
234.648	34.13
234.865	30.04
235.083	17.75
235.3	54.61
235.518	-4.78
235.735	54.61
235.953	79.19
236.17	66.9
236.388	-25.26
236.605	27.99
236.822	-25.26
237.04	25.94
237.257	21.85
237.475	32.08
237.692	38.23
237.909	13.65
238.127	23.89
238.344	27.99
238.562	77.14
238.779	-27.31
238.996	68.95
239.214	-25.26
239.431	9.56
239.648	1.37
239.865	44.37
240.083	97.62
240.3	-12.97
240.517	15.7
240.735	19.8
240.952	38.23
241.169	9.56
241.386	50.52
241.603	5.46
241.821	-15.02
242.038	-0.68
242.255	19.8
242.472	44.37
242.689	-15.02
242.907	1.37
243.124	-35.5
243.341	-6.83
243.558	30.04
243.775	-6.83
243.992	-27.31
244.209	-27.31
244.426	15.7
244.643	17.75
244.86	-41.64
245.078	25.94
245.295	50.52
245.512	44.37
245.729	-74.41
245.946	42.32
246.163	54.61
246.38	66.9
246.597	52.56
246.814	27.99
247.031	50.52
247.248	42.32
247.464	5.46
247.681	-6.83
247.898	13.65
248.115	15.7
248.332	-17.07
248.549	140.63
248.766	44.37
248.983	15.7
249.2	-37.55
249.417	-51.88
249.633	3.41
249.85	-31.4
250.067	11.61
250.284	50.52
250.501	21.85
250.717	71
250.934	-39.59
251.151	-8.87
251.368	32.08
251.585	27.99
251.801	-10.92
252.018	9.56
252.235	48.47
252.451	32.08
252.668	-39.59
252.885	-31.4
253.102	85.33
253.318	1.37
253.535	30.04
253.752	48.47
253.968	25.94
254.185	40.28
254.401	19.8
254.618	79.19
254.835	9.56
255.051	23.89
255.268	44.37
255.484	-68.27
255.701	15.7
255.917	11.61
256.134	21.85
256.351	-27.31
256.567	-45.74
256.784	21.85
257	3.41
257.217	40.28
257.433	111.96
257.65	48.47
257.866	71
258.082	36.18
258.299	25.94
258.515	-29.35
258.732	-78.51
258.948	-23.21
259.165	19.8
259.381	5.46
259.597	32.08
259.814	-45.74
260.03	-35.5
260.246	7.51
260.463	7.51
260.679	25.94
260.895	60.76
261.112	54.61
261.328	-19.11
261.544	-0.68
261.761	103.76
261.977	-12.97
262.193	17.75
262.409	50.52
262.626	-29.35
262.842	-0.68
263.058	3.41
263.274	23.89
263.49	62.8
263.707	32.08
263.923	44.37
264.139	-55.98
264.355	32.08
264.571	66.9
264.787	21.85
265.004	27.99
265.22	68.95
265.436	60.76
265.652	-31.4
265.868	34.13
266.084	44.37
266.3	-8.87
266.516	-43.69
266.732	-6.83
266.948	-62.12
267.164	75.09
267.38	1.37
267.596	62.8
267.812	38.23
268.028	-17.07
268.244	9.56
268.46	36.18
268.676	-6.83
268.892	11.61
269.108	48.47
269.324	-25.26
269.54	19.8
269.756	87.38
269.972	50.52
270.188	103.76
270.403	32.08
270.619	7.51
270.835	-12.97
271.051	50.52
271.267	40.28
271.483	-49.83
271.698	9.56
271.914	-41.64
272.13	-4.78
272.346	-12.97
272.562	-62.12
272.777	50.52
272.993	-10.92
273.209	-4.78
273.425	-27.31
273.64	-19.11
273.856	64.85
274.072	-80.55
274.287	-2.73
274.503	54.61
274.719	9.56
274.934	120.15
275.15	-23.21
275.366	23.89
275.581	23.89
275.797	7.51
276.012	46.42
276.228	66.9
276.444	25.94
276.659	19.8
276.875	5.46
277.09	34.13
277.306	30.04
277.521	-29.35
277.737	32.08
277.952	40.28
278.168	1.37
278.383	44.37
278.599	-21.16
278.814	30.04
279.03	64.85
279.245	122.2
279.461	30.04
279.676	77.14
279.892	-23.21
280.107	11.61
280.322	-6.83
280.538	7.51
280.753	-49.83
280.969	95.57
281.184	-15.02
281.399	-8.87
281.615	32.08
281.83	11.61
282.045	-43.69
282.26	-2.73
282.476	60.76
282.691	54.61
282.906	-0.68
283.122	-41.64
283.337	-8.87
283.552	75.09
283.767	81.24
283.983	66.9
284.198	-60.07
284.413	30.04
284.628	-19.11
284.843	48.47
285.058	50.52
285.274	-25.26
285.489	36.18
285.704	120.15
285.919	1.37
286.134	79.19
286.349	73.04
286.564	103.76
286.779	-19.11
286.995	23.89
287.21	-4.78
287.425	93.52
287.64	7.51
287.855	36.18
288.07	19.8
288.285	48.47
288.5	-6.83
288.715	48.47
288.93	-78.51
289.145	-15.02
289.36	58.71
289.575	-21.16
289.79	42.32
290.004	3.41
290.219	-12.97
290.434	17.75
290.649	-31.4
290.864	5.46
291.079	1.37
291.294	64.85
291.509	42.32
291.724	58.71
291.938	-2.73
292.153	-19.11
292.368	-25.26
292.583	-8.87
292.798	17.75
293.012	11.61
293.227	52.56
293.442	-15.02
293.657	27.99
293.871	60.76
294.086	42.32
294.301	81.24
294.516	46.42
294.73	52.56
294.945	30.04
295.16	62.8
295.374	38.23
295.589	107.86
295.804	46.42
296.018	25.94
296.233	-0.68
296.447	71
296.662	17.75
296.877	50.52
297.091	77.14
297.306	64.85
297.52	32.08
297.735	66.9
297.949	1.37
298.164	-21.16
298.378	42.32
298.593	-12.97
298.807	30.04
299.022	-39.59
299.236	-35.5
299.451	75.09
299.665	56.66
299.88	-0.68
300.094	46.42
300.309	34.13
300.523	-37.55
300.737	97.62
300.952	34.13
301.166	3.41
301.381	13.65
301.595	3.41
301.809	44.37
302.024	-19.11
302.238	48.47
302.452	58.71
302.667	-2.73
302.881	23.89
303.095	60.76
303.309	79.19
303.524	40.28
303.738	36.18
303.952	17.75
304.166	36.18
304.381	-80.55
304.595	44.37
304.809	-12.97
305.023	3.41
305.237	17.75
305.452	-35.5
305.666	50.52
305.88	62.8
306.094	-15.02
306.308	-53.93
306.522	-21.16
306.736	48.47
306.95	9.56
307.164	58.71
307.379	11.61
307.593	126.29
307.807	60.76
308.021	85.33
308.235	54.61
308.449	48.47
308.663	48.47
308.877	44.37
309.091	34.13
309.305	34.13
309.519	-111.27
309.733	11.61
309.947	34.13
310.161	62.8
310.374	60.76
310.588	15.7
310.802	42.32
311.016	-29.35
311.23	64.85
311.444	-4.78
311.658	-43.69
311.872	30.04
312.085	17.75
312.299	60.76
312.513	48.47
312.727	83.28
312.941	-10.92
313.154	42.32
313.368	75.09
313.582	-0.68
313.796	-25.26
314.009	-47.79
314.223	3.41
314.437	83.28
314.651	-19.11
314.864	23.89
315.078	19.8
315.292	64.85
315.505	23.89
315.719	66.9
315.933	21.85
316.146	44.37
316.36	-0.68
316.573	19.8
316.787	46.42
317.001	1.37
317.214	66.9
317.428	38.23
317.641	-31.4
317.855	68.95
318.068	-2.73
318.282	30.04
318.495	-27.31
318.709	64.85
318.922	42.32
319.136	66.9
319.349	-80.55
319.563	73.04
319.776	32.08
319.99	-27.31
320.203	60.76
320.417	-37.55
320.63	62.8
320.843	58.71
321.057	11.61
321.27	17.75
321.483	21.85
321.697	46.42
321.91	56.66
322.124	32.08
322.337	44.37
322.55	95.57
322.763	36.18
322.977	66.9
323.19	62.8
323.403	34.13
323.617	21.85
323.83	-2.73
324.043	93.52
324.256	46.42
324.469	38.23
324.683	50.52
324.896	52.56
325.109	-39.59
325.322	52.56
325.535	40.28
325.748	54.61
325.962	11.61
326.175	1.37
326.388	32.08
326.601	32.08
326.814	58.71
327.027	30.04
327.24	103.76
327.453	-33.45
327.666	36.18
327.879	17.75
328.092	27.99
328.305	-21.16
328.518	93.52
328.731	-25.26
328.944	3.41
329.157	68.95
329.37	17.75
329.583	32.08
329.796	105.81
330.009	30.04
330.222	50.52
330.435	42.32
330.648	15.7
330.861	32.08
331.073	50.52
331.286	-23.21
331.499	-31.4
331.712	13.65
331.925	19.8
332.138	44.37
332.35	93.52
332.563	38.23
332.776	-10.92
332.989	48.47
333.202	46.42
333.414	46.42
333.627	-31.4
333.84	-12.97
334.053	62.8
334.265	44.37
334.478	62.8
334.691	-37.55
334.903	15.7
335.116	5.46
335.329	46.42
335.541	19.8
335.754	36.18
335.966	27.99
336.179	32.08
336.392	36.18
336.604	27.99
336.817	27.99
337.029	46.42
337.242	44.37
337.454	81.24
337.667	-94.89
337.88	17.75
338.092	71
338.305	30.04
338.517	30.04
338.729	40.28
338.942	25.94
339.154	25.94
339.367	5.46
339.579	-33.45
339.792	38.23
340.004	66.9
340.217	5.46
340.429	-0.68
340.641	5.46
340.854	46.42
341.066	25.94
341.278	56.66
341.491	48.47
341.703	-6.83
341.915	85.33
342.128	13.65
342.34	-25.26
342.552	46.42
342.764	50.52
342.977	58.71
343.189	-39.59
343.401	15.7
343.613	27.99
343.826	87.38
344.038	11.61
344.25	36.18
344.462	-23.21
344.674	17.75
344.886	-31.4
345.099	48.47
345.311	-41.64
345.523	81.24
345.735	-23.21
345.947	-19.11
346.159	56.66
346.371	73.04
346.583	17.75
346.795	101.72
347.007	-19.11
347.219	91.48
347.431	111.96
347.643	19.8
347.855	46.42
348.067	114
348.279	-19.11
348.491	15.7
348.703	30.04
348.915	9.56
349.127	97.62
349.339	15.7
349.551	-12.97
349.763	19.8
349.975	62.8
350.187	120.15
350.399	171.35
350.61	48.47
350.822	-4.78
351.034	40.28
351.246	9.56
351.458	62.8
351.669	93.52
351.881	38.23
352.093	19.8
352.305	40.28
352.517	48.47
352.728	46.42
352.94	62.8
353.152	87.38
353.363	38.23
353.575	-4.78
353.787	42.32
353.999	89.43
354.21	-49.83
354.422	79.19
354.633	7.51
354.845	107.86
355.057	3.41
355.268	54.61
355.48	62.8
355.692	36.18
355.903	89.43
356.115	1.37
356.326	-2.73
356.538	3.41
356.749	64.85
356.961	30.04
357.172	54.61
357.384	58.71
357.595	40.28
357.807	79.19
358.018	38.23
358.23	5.46
358.441	27.99
358.653	56.66
358.864	40.28
359.075	128.34
359.287	71
359.498	87.38
359.709	38.23
359.921	71
360.132	15.7
360.344	64.85
360.555	56.66
360.766	87.38
360.977	11.61
361.189	52.56
361.4	46.42
361.611	64.85
361.823	56.66
362.034	42.32
362.245	-33.45
362.456	68.95
362.667	62.8
362.879	54.61
363.09	19.8
363.301	42.32
363.512	34.13
363.723	50.52
363.935	3.41
364.146	105.81
364.357	56.66
364.568	79.19
364.779	3.41
364.99	3.41
365.201	-2.73
365.412	23.89
365.623	-27.31
365.834	17.75
366.045	32.08
366.256	5.46
366.467	5.46
366.678	17.75
366.889	-17.07
367.1	36.18
367.311	32.08
367.522	111.96
367.733	-8.87
367.944	154.96
368.155	21.85
368.366	30.04
368.577	83.28
368.788	91.48
368.999	-2.73
369.209	-43.69
369.42	116.05
369.631	60.76
369.842	64.85
370.053	54.61
370.264	25.94
370.474	64.85
370.685	9.56
370.896	-86.7
371.107	32.08
371.317	-6.83
371.528	36.18
371.739	81.24
371.95	105.81
372.16	99.67
372.371	-17.07
372.582	116.05
372.792	27.99
373.003	62.8
373.214	85.33
373.424	15.7
373.635	56.66
373.846	140.63
374.056	1.37
374.267	44.37
374.477	32.08
374.688	79.19
374.898	130.39
375.109	36.18
375.319	79.19
375.53	101.72
375.74	34.13
375.951	42.32
376.161	56.66
376.372	91.48
376.582	42.32
376.793	48.47
377.003	-21.16
377.214	111.96
377.424	36.18
377.635	50.52
377.845	48.47
378.055	95.57
378.266	46.42
378.476	34.13
378.686	40.28
378.897	66.9
379.107	79.19
379.317	34.13
379.528	73.04
379.738	87.38
379.948	62.8
380.158	23.89
380.369	13.65
380.579	9.56
380.789	-27.31
380.999	40.28
381.21	36.18
381.42	21.85
381.63	23.89
381.84	79.19
382.05	44.37
382.261	52.56
382.471	111.96
382.681	212.31
382.891	60.76
383.101	-15.02
383.311	32.08
383.521	62.8
383.731	38.23
383.941	50.52
384.151	93.52
384.361	64.85
384.571	32.08
384.781	68.95
384.991	38.23
385.201	206.16
385.411	30.04
385.621	-41.64
385.831	50.52
386.041	46.42
386.251	42.32
386.461	122.2
386.671	44.37
386.881	21.85
387.091	3.41
387.301	52.56
387.511	58.71
387.72	75.09
387.93	85.33
388.14	64.85
388.35	27.99
388.56	50.52
388.769	109.91
388.979	91.48
389.189	25.94
389.399	32.08
389.609	85.33
389.818	136.53
390.028	54.61
390.238	46.42
390.447	17.75
390.657	144.72
390.867	46.42
391.076	58.71
391.286	130.39
391.496	1.37
391.705	60.76
391.915	152.91
392.125	79.19
392.334	34.13
392.544	19.8
392.753	140.63
392.963	34.13
393.172	71
393.382	60.76
393.591	91.48
393.801	13.65
394.01	58.71
394.22	58.71
394.429	42.32
394.639	107.86
394.848	36.18
395.058	91.48
395.267	11.61
395.477	118.1
395.686	140.63
395.895	91.48
396.105	189.78
396.314	62.8
396.524	136.53
396.733	1.37
396.942	73.04
397.152	30.04
397.361	107.86
397.57	146.77
397.78	134.48
397.989	163.15
398.198	200.02
398.407	101.72
398.617	120.15
398.826	7.51
399.035	99.67
399.244	193.87
399.453	124.24
399.663	87.38
399.872	132.44
400.081	148.82
400.29	165.2
400.499	165.2
400.708	136.53
400.917	99.67
401.127	73.04
401.336	99.67
401.545	150.87
401.754	171.35
401.963	169.3
402.172	142.68
402.381	116.05
402.59	167.25
402.799	91.48
403.008	132.44
403.217	206.16
403.426	195.92
403.635	157.01
403.844	124.24
404.053	34.13
404.262	124.24
404.471	181.59
404.68	103.76
404.888	179.54
405.097	142.68
405.306	206.16
405.515	181.59
405.724	122.2
405.933	191.83
406.142	216.4
406.35	283.99
406.559	206.16
406.768	245.07
406.977	261.46
407.185	210.26
407.394	230.74
407.603	232.79
407.812	226.64
408.02	298.32
408.229	255.31
408.438	296.27
408.646	269.65
408.855	193.87
409.064	333.14
409.272	216.4
409.481	394.58
409.69	302.42
409.898	349.52
410.107	386.38
410.315	361.81
410.524	378.19
410.733	398.67
410.941	306.51
411.15	451.92
411.358	470.35
411.567	431.44
411.775	486.73
411.984	505.17
412.192	580.94
412.401	527.69
412.609	546.13
412.818	609.61
413.026	568.65
413.234	630.09
413.443	597.32
413.651	589.13
413.86	666.96
414.068	671.05
414.276	845.13
414.485	685.39
414.693	810.31
414.901	787.79
415.11	816.46
415.318	787.79
415.526	947.53
415.734	933.19
415.943	978.25
416.151	1008.97
416.359	1105.22
416.567	1107.27
416.776	1119.56
416.984	1232.19
417.192	1203.52
417.4	1185.09
417.608	1148.23
417.817	1199.43
418.025	1385.79
418.233	1432.9
418.441	1463.62
418.649	1377.6
418.857	1594.69
419.065	1643.84
419.273	1639.74
419.481	1578.3
419.689	1731.9
419.897	1883.45
420.105	1957.18
420.313	1975.61
420.521	1918.26
420.729	2008.37
420.937	1971.51
421.145	2071.86
421.353	2243.89
421.561	2403.63
421.769	2317.62
421.977	2506.03
422.185	2587.95
422.393	2764.08
422.601	2911.53
422.809	2798.89
423.017	2813.23
423.224	3003.69
423.432	3034.41
423.64	3140.9
423.848	3480.86
424.056	3319.07
424.263	3517.73
424.471	3534.11
424.679	3630.37
424.887	3915.03
425.094	3878.17
425.302	4058.39
425.51	4078.87
425.718	4097.3
425.925	4287.76
426.133	4506.9
426.341	4816.14
426.548	4898.06
426.756	4943.11
426.964	4822.28
427.171	5340.42
427.379	5260.55
427.586	5483.78
427.794	5604.61
428.001	5907.71
428.209	6221.05
428.417	6161.66
428.624	6599.92
428.832	6477.04
429.039	6536.43
429.247	6444.27
429.454	7150.82
429.662	7474.4
429.869	7204.07
430.076	7615.71
430.284	7398.63
430.491	7718.11
430.699	8168.66
430.906	8301.78
431.114	8320.21
431.321	8461.52
431.528	8801.49
431.736	9278.66
431.943	9602.24
432.15	9467.08
432.358	9567.43
432.565	9983.17
432.772	9983.17
432.979	10632.37
433.187	10747.06
433.394	10775.73
433.601	11478.18
433.808	11492.52
434.016	11535.53
434.223	12061.85
434.43	12653.72
434.637	12446.87
434.844	13274.25
435.052	13274.25
435.259	13218.96
435.466	13286.54
435.673	13458.57
435.88	14271.61
436.087	15305.84
436.294	15029.36
436.501	14660.73
436.708	15086.7
436.915	15905.89
437.122	16286.81
437.329	16340.06
437.537	16499.8
437.743	17267.79
437.95	16944.21
438.157	18027.59
438.364	18349.12
438.571	18375.74
438.778	18498.62
438.985	20198.43
439.192	19106.87
439.399	19967.01
439.606	19538.99
439.813	20900.89
440.02	22023.17
440.227	21515.28
440.433	21183.51
440.64	21955.59
440.847	22039.56
441.054	22502.4
441.261	23778.28
441.467	23528.43
441.674	24167.4
441.881	25029.59
442.088	25156.57
442.294	24701.92
442.501	25697.23
442.708	25811.92
442.914	26999.74
443.121	28017.58
443.328	27095.99
443.534	28965.79
443.741	28119.98
443.948	27929.52
444.154	30198.66
444.361	29997.96
444.568	30163.85
444.774	30075.79
444.981	30591.87
445.187	31880.05
445.394	32777.06
445.6	32267.11
445.807	35373.88
446.013	33815.38
446.22	34931.52
446.426	35783.48
446.633	35881.78
446.839	37444.38
447.046	35830.58
447.252	37923.6
447.459	37702.42
447.665	37649.17
447.871	39365.37
448.078	41104.1
448.284	39189.25
448.491	40176.37
448.697	41827.03
448.903	42085.08
449.11	42844.87
449.316	41665.24
449.522	42371.79
449.728	43678.39
449.935	43422.4
450.141	43844.28
450.347	44681.9
450.553	43158.21
450.76	43926.2
450.966	45470.37
451.172	44563.12
451.378	46236.31
451.584	44966.57
451.791	46127.77
451.997	45771.42
452.203	46520.98
452.409	46514.83
452.615	46645.9
452.821	45030.05
453.027	44567.21
453.233	46228.12
453.44	44778.15
453.646	45068.97
453.852	45316.77
454.058	46066.33
454.264	44303.03
454.47	45714.08
454.676	44071.6
454.882	45752.99
455.088	42023.64
455.294	42814.15
455.5	43313.86
455.705	43563.71
455.911	41898.71
456.117	41218.78
456.323	40698.6
456.529	38873.86
456.735	39860.98
456.941	39189.25
457.147	38462.22
457.352	37335.84
457.558	36870.95
457.764	36977.44
457.97	36207.4
458.176	35488.57
458.381	35670.84
458.587	33561.43
458.793	33534.81
458.999	32076.65
459.204	34241.35
459.41	33170.27
459.616	31560.56
459.821	30913.41
460.027	30772.1
460.233	30186.38
460.438	28715.94
460.644	29164.44
460.85	27802.54
461.055	27632.56
461.261	27415.47
461.466	25048.02
461.672	24568.8
461.878	26364.87
462.083	24411.1
462.289	23884.78
462.494	23718.89
462.7	22830.07
462.905	22014.98
463.111	22819.83
463.316	23043.06
463.522	22291.46
463.727	22694.91
463.932	22391.81
464.138	22684.67
464.343	22440.96
464.549	21957.64
464.754	22397.95
464.959	22197.25
465.165	22053.89
465.37	21054.48
465.575	20225.06
465.781	21576.72
465.986	21632.01
466.191	20761.62
466.397	20415.52
466.602	19475.5
466.807	20243.49
467.012	20083.75
467.218	20093.99
