Data from USB4F104151__51__12-01-40-310.txt Node

Date: Fri Mar 14 12:01:40 EDT 2025
User: louis
Spectrometer: USB4F10415
Trigger mode: 4
Integration Time (sec): 2.000000E-2
Scans to average: 1
Electric dark correction enabled: true
Nonlinearity correction enabled: false
Boxcar width: 0
XAxis mode: Wavelengths
Number of Pixels in Spectrum: 3648
>>>>>Begin Spectral Data<<<<<
178.204	-113.49
178.424	-113.49
178.644	-113.49
178.864	-123.73
179.084	-56.15
179.304	-47.96
179.524	-43.86
179.744	-54.1
179.964	-31.57
180.184	40.11
180.404	48.3
180.624	-9.05
180.844	-19.29
181.064	81.07
181.283	-0.85
181.503	1.19
181.723	36.01
181.943	42.15
182.163	-29.52
182.383	-11.09
182.602	3.24
182.822	-25.43
183.042	5.29
183.262	50.35
183.482	107.69
183.701	3.24
183.921	46.25
184.141	-15.19
184.361	-13.14
184.58	38.06
184.8	36.01
185.02	-7
185.239	46.25
185.459	-41.81
185.679	97.45
185.898	-27.48
186.118	-7
186.338	-17.24
186.557	66.73
186.777	-33.62
186.997	-2.9
187.216	5.29
187.436	50.35
187.655	15.53
187.875	-2.9
188.095	-2.9
188.314	74.92
188.534	89.26
188.753	-19.29
188.973	72.87
189.192	103.59
189.412	-33.62
189.631	87.21
189.851	-15.19
190.07	62.63
190.29	25.77
190.509	60.59
190.729	29.87
190.948	-0.85
191.168	142.5
191.387	81.07
191.607	-45.91
191.826	23.72
192.045	-2.9
192.265	-29.52
192.484	-39.76
192.704	7.34
192.923	50.35
193.142	27.82
193.362	89.26
193.581	111.78
193.8	33.96
194.02	134.31
194.239	21.67
194.458	-19.29
194.678	68.78
194.897	15.53
195.116	15.53
195.335	50.35
195.555	-13.14
195.774	-9.05
195.993	68.78
196.212	42.15
196.432	29.87
196.651	29.87
196.87	-23.38
197.089	62.63
197.308	21.67
197.528	13.48
197.747	11.43
197.966	74.92
198.185	111.78
198.404	58.54
198.623	48.3
198.842	25.77
199.062	68.78
199.281	36.01
199.5	64.68
199.719	124.07
199.938	66.73
200.157	93.35
200.376	13.48
200.595	62.63
200.814	7.34
201.033	68.78
201.252	-27.48
201.471	79.02
201.69	68.78
201.909	60.59
202.128	-17.24
202.347	17.58
202.566	64.68
202.785	-37.72
203.004	23.72
203.223	124.07
203.442	38.06
203.661	-15.19
203.879	1.19
204.098	40.11
204.317	11.43
204.536	19.63
204.755	5.29
204.974	83.11
205.193	-27.48
205.411	68.78
205.63	-9.05
205.849	-68.44
206.068	9.39
206.287	-4.95
206.505	-9.05
206.724	101.55
206.943	-31.57
207.162	3.24
207.381	27.82
207.599	36.01
207.818	29.87
208.037	-43.86
208.255	52.39
208.474	9.39
208.693	9.39
208.911	29.87
209.13	-0.85
209.349	-4.95
209.567	25.77
209.786	52.39
210.005	7.34
210.223	13.48
210.442	46.25
210.661	52.39
210.879	3.24
211.098	52.39
211.316	19.63
211.535	99.5
211.753	72.87
211.972	17.58
212.191	-27.48
212.409	36.01
212.628	-17.24
212.846	1.19
213.065	87.21
213.283	87.21
213.502	58.54
213.72	-35.67
213.938	-23.38
214.157	72.87
214.375	46.25
214.594	11.43
214.812	25.77
215.031	13.48
215.249	-0.85
215.467	40.11
215.686	36.01
215.904	70.83
216.122	5.29
216.341	-0.85
216.559	-33.62
216.778	60.59
216.996	56.49
217.214	3.24
217.432	58.54
217.651	29.87
217.869	-27.48
218.087	68.78
218.306	9.39
218.524	-19.29
218.742	11.43
218.96	50.35
219.179	-21.33
219.397	-58.2
219.615	42.15
219.833	38.06
220.051	1.19
220.27	31.91
220.488	68.78
220.706	3.24
220.924	3.24
221.142	31.91
221.36	11.43
221.578	74.92
221.796	40.11
222.015	-23.38
222.233	-4.95
222.451	68.78
222.669	36.01
222.887	11.43
223.105	27.82
223.323	-9.05
223.541	60.59
223.759	-4.95
223.977	-43.86
224.195	19.63
224.413	38.06
224.631	25.77
224.849	33.96
225.067	56.49
225.285	-27.48
225.503	52.39
225.721	-25.43
225.939	42.15
226.157	-56.15
226.375	3.24
226.592	62.63
226.81	-2.9
227.028	21.67
227.246	1.19
227.464	-11.09
227.682	46.25
227.9	42.15
228.117	44.2
228.335	15.53
228.553	38.06
228.771	-25.43
228.989	38.06
229.206	-25.43
229.424	72.87
229.642	-19.29
229.86	25.77
230.077	33.96
230.295	21.67
230.513	19.63
230.731	33.96
230.948	-13.14
231.166	42.15
231.384	-31.57
231.601	-9.05
231.819	38.06
232.037	-0.85
232.254	60.59
232.472	-60.24
232.689	38.06
232.907	19.63
233.125	-2.9
233.342	-13.14
233.56	15.53
233.777	-23.38
233.995	-76.63
234.213	60.59
234.43	58.54
234.648	-7
234.865	68.78
235.083	29.87
235.3	-7
235.518	91.31
235.735	31.91
235.953	208.04
236.17	-47.96
236.388	-17.24
236.605	-4.95
236.822	87.21
237.04	33.96
237.257	11.43
237.475	17.58
237.692	79.02
237.909	62.63
238.127	27.82
238.344	66.73
238.562	19.63
238.779	38.06
238.996	-56.15
239.214	21.67
239.431	42.15
239.648	-29.52
239.865	76.97
240.083	54.44
240.3	13.48
240.517	74.92
240.735	38.06
240.952	25.77
241.169	-58.2
241.386	-39.76
241.603	79.02
241.821	-0.85
242.038	38.06
242.255	70.83
242.472	13.48
242.689	46.25
242.907	93.35
243.124	-17.24
243.341	38.06
243.558	-43.86
243.775	11.43
243.992	17.58
244.209	-11.09
244.426	103.59
244.643	66.73
244.86	-13.14
245.078	1.19
245.295	38.06
245.512	58.54
245.729	25.77
245.946	-4.95
246.163	-23.38
246.38	44.2
246.597	29.87
246.814	33.96
247.031	-13.14
247.248	27.82
247.464	-4.95
247.681	25.77
247.898	54.44
248.115	21.67
248.332	-0.85
248.549	15.53
248.766	79.02
248.983	93.35
249.2	-21.33
249.417	42.15
249.633	27.82
249.85	52.39
250.067	38.06
250.284	33.96
250.501	-19.29
250.717	29.87
250.934	-2.9
251.151	40.11
251.368	3.24
251.585	-78.68
251.801	21.67
252.018	46.25
252.235	-7
252.451	27.82
252.668	36.01
252.885	36.01
253.102	-17.24
253.318	36.01
253.535	50.35
253.752	70.83
253.968	68.78
254.185	-21.33
254.401	1.19
254.618	27.82
254.835	56.49
255.051	46.25
255.268	-13.14
255.484	15.53
255.701	9.39
255.917	68.78
256.134	-47.96
256.351	-2.9
256.567	-19.29
256.784	52.39
257	9.39
257.217	60.59
257.433	-13.14
257.65	3.24
257.866	17.58
258.082	-4.95
258.299	9.39
258.515	36.01
258.732	33.96
258.948	-7
259.165	21.67
259.381	27.82
259.597	-29.52
259.814	3.24
260.03	33.96
260.246	38.06
260.463	27.82
260.679	38.06
260.895	128.17
261.112	-25.43
261.328	109.74
261.544	-19.29
261.761	60.59
261.977	9.39
262.193	29.87
262.409	-105.3
262.626	29.87
262.842	29.87
263.058	33.96
263.274	-66.39
263.49	136.36
263.707	46.25
263.923	-0.85
264.139	5.29
264.355	38.06
264.571	17.58
264.787	38.06
265.004	52.39
265.22	46.25
265.436	-19.29
265.652	-19.29
265.868	-15.19
266.084	46.25
266.3	56.49
266.516	-33.62
266.732	42.15
266.948	91.31
267.164	62.63
267.38	21.67
267.596	15.53
267.812	58.54
268.028	-7
268.244	44.2
268.46	62.63
268.676	-0.85
268.892	-35.67
269.108	9.39
269.324	58.54
269.54	-7
269.756	46.25
269.972	7.34
270.188	52.39
270.403	17.58
270.619	103.59
270.835	-35.67
271.051	111.78
271.267	23.72
271.483	-31.57
271.698	38.06
271.914	-4.95
272.13	-21.33
272.346	52.39
272.562	7.34
272.777	3.24
272.993	52.39
273.209	25.77
273.425	-88.92
273.64	-33.62
273.856	66.73
274.072	-4.95
274.287	-27.48
274.503	42.15
274.719	21.67
274.934	50.35
275.15	-0.85
275.366	72.87
275.581	-7
275.797	-39.76
276.012	38.06
276.228	29.87
276.444	93.35
276.659	29.87
276.875	83.11
277.09	66.73
277.306	46.25
277.521	54.44
277.737	58.54
277.952	76.97
278.168	56.49
278.383	1.19
278.599	-13.14
278.814	40.11
279.03	97.45
279.245	62.63
279.461	50.35
279.676	46.25
279.892	38.06
280.107	-25.43
280.322	3.24
280.538	60.59
280.753	-19.29
280.969	60.59
281.184	25.77
281.399	36.01
281.615	-2.9
281.83	81.07
282.045	3.24
282.26	21.67
282.476	9.39
282.691	1.19
282.906	11.43
283.122	56.49
283.337	-17.24
283.552	15.53
283.767	5.29
283.983	68.78
284.198	-23.38
284.413	-4.95
284.628	31.91
284.843	21.67
285.058	31.91
285.274	29.87
285.489	11.43
285.704	85.16
285.919	-13.14
286.134	31.91
286.349	50.35
286.564	21.67
286.779	60.59
286.995	-21.33
287.21	-2.9
287.425	79.02
287.64	89.26
287.855	85.16
288.07	-11.09
288.285	25.77
288.5	85.16
288.715	31.91
288.93	-66.39
289.145	33.96
289.36	-15.19
289.575	101.55
289.79	29.87
290.004	-23.38
290.219	-23.38
290.434	-4.95
290.649	3.24
290.864	15.53
291.079	-23.38
291.294	66.73
291.509	-0.85
291.724	76.97
291.938	11.43
292.153	-23.38
292.368	99.5
292.583	56.49
292.798	1.19
293.012	97.45
293.227	29.87
293.442	76.97
293.657	23.72
293.871	48.3
294.086	76.97
294.301	33.96
294.516	74.92
294.73	66.73
294.945	64.68
295.16	29.87
295.374	-7
295.589	54.44
295.804	-72.53
296.018	68.78
296.233	46.25
296.447	68.78
296.662	-70.48
296.877	76.97
297.091	56.49
297.306	31.91
297.52	50.35
297.735	46.25
297.949	7.34
298.164	40.11
298.378	-39.76
298.593	19.63
298.807	-43.86
299.022	-58.2
299.236	11.43
299.451	87.21
299.665	1.19
299.88	56.49
300.094	11.43
300.309	9.39
300.523	-15.19
300.737	40.11
300.952	76.97
301.166	-17.24
301.381	15.53
301.595	44.2
301.809	50.35
302.024	33.96
302.238	13.48
302.452	79.02
302.667	36.01
302.881	119.98
303.095	58.54
303.309	54.44
303.524	9.39
303.738	-37.72
303.952	46.25
304.166	48.3
304.381	-21.33
304.595	89.26
304.809	-0.85
305.023	-50
305.237	68.78
305.452	87.21
305.666	23.72
305.88	15.53
306.094	17.58
306.308	7.34
306.522	46.25
306.736	56.49
306.95	23.72
307.164	-9.05
307.379	13.48
307.593	17.58
307.807	50.35
308.021	66.73
308.235	1.19
308.449	-13.14
308.663	31.91
308.877	29.87
309.091	33.96
309.305	42.15
309.519	-76.63
309.733	46.25
309.947	5.29
310.161	83.11
310.374	29.87
310.588	13.48
310.802	13.48
311.016	-7
311.23	13.48
311.444	-4.95
311.658	-9.05
311.872	3.24
312.085	38.06
312.299	-21.33
312.513	44.2
312.727	-7
312.941	27.82
313.154	66.73
313.368	81.07
313.582	-56.15
313.796	19.63
314.009	-21.33
314.223	50.35
314.437	85.16
314.651	-9.05
314.864	64.68
315.078	-19.29
315.292	-2.9
315.505	58.54
315.719	50.35
315.933	46.25
316.146	23.72
316.36	70.83
316.573	29.87
316.787	-19.29
317.001	33.96
317.214	-19.29
317.428	36.01
317.641	7.34
317.855	19.63
318.068	5.29
318.282	23.72
318.495	60.59
318.709	7.34
318.922	64.68
319.136	-13.14
319.349	21.67
319.563	21.67
319.776	31.91
319.99	23.72
320.203	15.53
320.417	31.91
320.63	31.91
320.843	87.21
321.057	38.06
321.27	-25.43
321.483	15.53
321.697	13.48
321.91	124.07
322.124	-21.33
322.337	66.73
322.55	11.43
322.763	56.49
322.977	95.4
323.19	40.11
323.403	44.2
323.617	25.77
323.83	23.72
324.043	-7
324.256	56.49
324.469	76.97
324.683	52.39
324.896	99.5
325.109	95.4
325.322	-7
325.535	-35.67
325.748	33.96
325.962	46.25
326.175	48.3
326.388	-29.52
326.601	38.06
326.814	21.67
327.027	3.24
327.24	103.59
327.453	-4.95
327.666	-2.9
327.879	25.77
328.092	66.73
328.305	13.48
328.518	-25.43
328.731	46.25
328.944	76.97
329.157	-21.33
329.37	-4.95
329.583	56.49
329.796	91.31
330.009	36.01
330.222	85.16
330.435	5.29
330.648	42.15
330.861	68.78
331.073	7.34
331.286	29.87
331.499	38.06
331.712	33.96
331.925	25.77
332.138	-0.85
332.35	52.39
332.563	7.34
332.776	29.87
332.989	58.54
333.202	-2.9
333.414	38.06
333.627	-86.87
333.84	46.25
334.053	97.45
334.265	-2.9
334.478	23.72
334.691	107.69
334.903	17.58
335.116	87.21
335.329	44.2
335.541	66.73
335.754	21.67
335.966	21.67
336.179	25.77
336.392	17.58
336.604	11.43
336.817	7.34
337.029	64.68
337.242	-33.62
337.454	54.44
337.667	70.83
337.88	44.2
338.092	38.06
338.305	70.83
338.517	31.91
338.729	21.67
338.942	60.59
339.154	-0.85
339.367	85.16
339.579	46.25
339.792	-9.05
340.004	21.67
340.217	15.53
340.429	66.73
340.641	-29.52
340.854	46.25
341.066	-35.67
341.278	42.15
341.491	124.07
341.703	27.82
341.915	58.54
342.128	93.35
342.34	15.53
342.552	-25.43
342.764	9.39
342.977	76.97
343.189	-2.9
343.401	58.54
343.613	19.63
343.826	62.63
344.038	7.34
344.25	50.35
344.462	50.35
344.674	95.4
344.886	-52.05
345.099	54.44
345.311	89.26
345.523	58.54
345.735	66.73
345.947	122.02
346.159	52.39
346.371	87.21
346.583	72.87
346.795	89.26
347.007	-2.9
347.219	89.26
347.431	29.87
347.643	-7
347.855	40.11
348.067	87.21
348.279	15.53
348.491	70.83
348.703	38.06
348.915	95.4
349.127	52.39
349.339	79.02
349.551	40.11
349.763	-0.85
349.975	7.34
350.187	46.25
350.399	72.87
350.61	68.78
350.822	62.63
351.034	76.97
351.246	-0.85
351.458	89.26
351.669	38.06
351.881	23.72
352.093	44.2
352.305	46.25
352.517	-2.9
352.728	68.78
352.94	-4.95
353.152	58.54
353.363	50.35
353.575	40.11
353.787	-23.38
353.999	60.59
354.21	76.97
354.422	111.78
354.633	31.91
354.845	128.17
355.057	56.49
355.268	9.39
355.48	38.06
355.692	19.63
355.903	-11.09
356.115	33.96
356.326	-2.9
356.538	83.11
356.749	42.15
356.961	68.78
357.172	68.78
357.384	87.21
357.595	52.39
357.807	31.91
358.018	58.54
358.23	58.54
358.441	62.63
358.653	99.5
358.864	115.88
359.075	-11.09
359.287	-19.29
359.498	101.55
359.709	40.11
359.921	50.35
360.132	44.2
360.344	54.44
360.555	25.77
360.766	19.63
360.977	27.82
361.189	107.69
361.4	62.63
361.611	33.96
361.823	89.26
362.034	-17.24
362.245	-37.72
362.456	27.82
362.667	-7
362.879	160.94
363.09	103.59
363.301	23.72
363.512	93.35
363.723	-0.85
363.935	27.82
364.146	29.87
364.357	15.53
364.568	117.93
364.779	58.54
364.99	97.45
365.201	-29.52
365.412	58.54
365.623	9.39
365.834	44.2
366.045	-31.57
366.256	72.87
366.467	52.39
366.678	17.58
366.889	15.53
367.1	109.74
367.311	87.21
367.522	27.82
367.733	99.5
367.944	76.97
368.155	44.2
368.366	62.63
368.577	31.91
368.788	85.16
368.999	40.11
369.209	105.64
369.42	58.54
369.631	58.54
369.842	105.64
370.053	44.2
370.264	70.83
370.474	-27.48
370.685	48.3
370.896	13.48
371.107	103.59
371.317	150.7
371.528	33.96
371.739	109.74
371.95	42.15
372.16	105.64
372.371	3.24
372.582	56.49
372.792	31.91
373.003	54.44
373.214	60.59
373.424	60.59
373.635	52.39
373.846	44.2
374.056	52.39
374.267	46.25
374.477	23.72
374.688	48.3
374.898	1.19
375.109	38.06
375.319	70.83
375.53	72.87
375.74	91.31
375.951	17.58
376.161	60.59
376.372	74.92
376.582	109.74
376.793	58.54
377.003	5.29
377.214	72.87
377.424	95.4
377.635	40.11
377.845	72.87
378.055	52.39
378.266	46.25
378.476	46.25
378.686	91.31
378.897	70.83
379.107	97.45
379.317	48.3
379.528	-35.67
379.738	103.59
379.948	76.97
380.158	50.35
380.369	50.35
380.579	44.2
380.789	83.11
380.999	27.82
381.21	95.4
381.42	142.5
381.63	64.68
381.84	119.98
382.05	50.35
382.261	85.16
382.471	79.02
382.681	33.96
382.891	56.49
383.101	103.59
383.311	7.34
383.521	68.78
383.731	33.96
383.941	122.02
384.151	76.97
384.361	64.68
384.571	99.5
384.781	38.06
384.991	70.83
385.201	52.39
385.411	68.78
385.621	54.44
385.831	-56.15
386.041	21.67
386.251	-33.62
386.461	103.59
386.671	105.64
386.881	50.35
387.091	72.87
387.301	58.54
387.511	21.67
387.72	7.34
387.93	40.11
388.14	91.31
388.35	89.26
388.56	97.45
388.769	-13.14
388.979	58.54
389.189	46.25
389.399	87.21
389.609	95.4
389.818	36.01
390.028	83.11
390.238	109.74
390.447	83.11
390.657	68.78
390.867	33.96
391.076	91.31
391.286	9.39
391.496	58.54
391.705	62.63
391.915	103.59
392.125	50.35
392.334	66.73
392.544	105.64
392.753	40.11
392.963	46.25
393.172	36.01
393.382	31.91
393.591	83.11
393.801	50.35
394.01	158.89
394.22	99.5
394.429	101.55
394.639	64.68
394.848	144.55
395.058	103.59
395.267	68.78
395.477	42.15
395.686	-23.38
395.895	113.83
396.105	101.55
396.314	128.17
396.524	50.35
396.733	111.78
396.942	136.36
397.152	152.74
397.361	142.5
397.57	132.26
397.78	60.59
397.989	66.73
398.198	160.94
398.407	-7
398.617	74.92
398.826	36.01
399.035	111.78
399.244	115.88
399.453	81.07
399.663	107.69
399.872	130.22
400.081	52.39
400.29	144.55
400.499	162.98
400.708	171.18
400.917	193.7
401.127	152.74
401.336	140.46
401.545	126.12
401.754	234.66
401.963	142.5
402.172	212.14
402.381	175.27
402.59	193.7
402.799	132.26
403.008	160.94
403.217	128.17
403.426	140.46
403.635	89.26
403.844	208.04
404.053	187.56
404.262	142.5
404.471	220.33
404.68	134.31
404.888	148.65
405.097	158.89
405.306	220.33
405.515	124.07
405.724	191.66
405.933	175.27
406.142	222.38
406.35	218.28
406.559	187.56
406.768	179.37
406.977	230.57
407.185	177.32
407.394	292.01
407.603	177.32
407.812	265.38
408.02	261.29
408.229	201.9
408.438	271.53
408.646	253.09
408.855	345.25
409.064	349.35
409.272	281.77
409.481	357.54
409.69	380.07
409.898	283.81
410.107	431.27
410.315	439.46
410.524	386.21
410.733	451.75
410.941	367.78
411.15	437.41
411.358	500.9
411.567	529.57
411.775	521.38
411.984	531.62
412.192	504.99
412.401	515.23
412.609	634.02
412.818	646.3
413.026	568.48
413.234	615.59
413.443	644.26
413.651	685.22
413.86	732.32
414.068	734.37
414.276	756.9
414.485	695.46
414.693	724.13
414.901	965.79
415.11	789.66
415.318	865.44
415.526	926.88
415.734	961.69
415.943	951.45
416.151	978.08
416.359	1031.32
416.567	1033.37
416.776	1103
416.984	1225.88
417.192	1246.36
417.4	1262.74
417.608	1262.74
417.817	1338.52
418.025	1313.94
418.233	1469.59
418.441	1348.76
418.649	1447.06
418.857	1520.79
419.065	1584.27
419.273	1473.68
419.481	1637.52
419.689	1680.53
419.897	1934.48
420.105	1959.05
420.313	1893.52
420.521	2020.49
420.729	2016.4
420.937	1950.86
421.145	2131.08
421.353	2167.95
421.561	2346.12
421.769	2354.31
421.977	2483.33
422.185	2520.2
422.393	2600.07
422.601	2948.22
422.809	2872.45
423.017	2874.49
423.224	2927.74
423.432	3146.87
423.64	3067
423.848	3390.58
424.056	3345.53
424.263	3589.24
424.471	3626.1
424.679	3665.01
424.887	3847.28
425.094	3802.22
425.302	3855.47
425.51	4066.41
425.718	4099.18
425.925	4195.43
426.133	4441.19
426.341	4637.8
426.548	4906.08
426.756	5008.48
426.964	4865.12
427.171	5205.08
427.379	5413.98
427.586	5452.89
427.794	5596.25
428.001	5973.07
428.209	6077.52
428.417	6044.75
428.624	6452.3
428.832	6554.69
429.039	6448.2
429.247	6618.18
429.454	7027.78
429.662	7691.32
429.869	7130.17
430.076	7599.16
430.284	7412.79
430.491	7633.97
430.699	8207.41
430.906	8129.58
431.114	8301.61
431.321	8733.73
431.528	8801.32
431.736	9253.92
431.943	9589.78
432.15	9589.78
432.358	9731.09
432.565	10185.74
432.772	10071.06
432.979	10468.36
433.187	10759.17
433.394	10951.68
433.601	11498.49
433.808	11568.12
434.016	11717.62
434.223	11906.04
434.43	12770.28
434.637	12590.06
434.844	13272.03
435.052	13724.63
435.259	13601.76
435.466	13523.93
435.673	13351.9
435.88	14443.47
436.087	15201.22
436.294	14853.06
436.501	14861.26
436.708	15414.21
436.915	15506.37
437.122	16501.68
437.329	16319.41
437.537	17003.43
437.743	17015.72
437.95	16995.24
438.157	17974.17
438.364	18525.07
438.571	18328.47
438.778	18520.98
438.985	20300.66
439.192	19415.94
439.399	20022.14
439.606	19676.03
439.813	20501.36
440.02	22170.46
440.227	21429.09
440.433	21318.5
440.64	22158.17
440.847	21959.52
441.054	22588.24
441.261	23790.4
441.467	23583.55
441.674	24298.3
441.881	25322.28
442.088	25037.61
442.294	24314.68
442.501	25473.83
442.708	25969.44
442.914	26962.7
443.121	28224.25
443.328	27257.61
443.534	29496.04
443.741	28420.86
443.948	27894.53
444.154	30069.47
444.361	29946.59
444.568	30253.79
444.774	30249.69
444.981	30595.8
445.187	31308.49
445.394	32535.23
445.6	32086.72
445.807	35189.39
446.013	33968.8
446.22	34556.57
446.426	35736.2
446.633	35977.86
446.839	37202.55
447.046	35756.68
447.252	37929.58
447.459	38113.89
447.665	37722.73
447.871	39406.16
448.078	40866.36
448.284	39135.83
448.491	39901.77
448.697	41390.64
448.903	42545.7
449.11	42304.04
449.316	41968.17
449.522	43096.6
449.728	43477.52
449.935	43848.21
450.141	43909.64
450.347	44943.87
450.553	43051.55
450.76	43792.91
450.966	45306.36
451.172	44501.51
451.378	45769.2
451.584	45093.37
451.791	45949.42
451.997	46166.51
452.203	46707.17
452.409	46973.41
452.615	46277.1
452.821	44745.22
453.027	44378.63
453.233	46547.43
453.44	44536.32
453.646	45195.77
453.852	45212.15
454.058	46004.72
454.264	44835.33
454.47	45701.62
454.676	44425.73
454.882	45967.85
455.088	41830.96
455.294	42615.33
455.5	43141.66
455.705	43653.65
455.911	42129.96
456.117	40792.64
456.323	40227.4
456.529	38666.84
456.735	40188.49
456.941	39238.23
457.147	38464.1
457.352	37599.85
457.558	37048.95
457.764	36827.77
457.97	36235.91
458.176	35363.47
458.381	35355.28
458.587	33579.69
458.793	33632.94
458.999	32082.63
459.204	34097.83
459.41	33325.74
459.616	31005.39
459.821	30941.91
460.027	30741.21
460.233	30255.84
460.438	28633.85
460.644	29321.96
460.85	28056.32
461.055	27245.32
461.261	27390.73
461.466	25168.68
461.672	24296.25
461.878	26495.77
462.083	24738.61
462.289	23946.05
462.494	23591.75
462.7	22811.47
462.905	22291.29
463.111	22784.85
463.316	22786.89
463.522	22661.97
463.727	22504.28
463.932	22688.59
464.138	22502.23
464.343	22461.27
464.549	21508.96
464.754	22418.26
464.959	22051.67
465.165	22049.63
465.37	21255.01
465.575	20425.59
465.781	21568.35
465.986	21355.36
466.191	20802.41
466.397	20327.28
466.602	19270.53
466.807	20413.3
467.012	20222.84
467.218	19989.37
467.423	19899.26
