Data from USB4F104151__79__12-02-11-335.txt Node

Date: Fri Mar 14 12:02:11 EDT 2025
User: louis
Spectrometer: USB4F10415
Trigger mode: 4
Integration Time (sec): 2.000000E-2
Scans to average: 1
Electric dark correction enabled: true
Nonlinearity correction enabled: false
Boxcar width: 0
XAxis mode: Wavelengths
Number of Pixels in Spectrum: 3648
>>>>>Begin Spectral Data<<<<<
178.204	-81.58
178.424	-81.58
178.644	-81.58
178.864	-100.01
179.084	-44.71
179.304	49.49
179.524	24.92
179.744	-11.95
179.964	47.44
180.184	-26.28
180.404	78.16
180.624	8.53
180.844	-30.38
181.064	-28.33
181.283	-13.99
181.503	-30.38
181.723	-67.24
181.943	-52.91
182.163	-1.71
182.383	33.11
182.602	37.2
182.822	-20.14
183.042	0.34
183.262	-32.43
183.482	-20.14
183.701	35.16
183.921	53.59
184.141	-34.47
184.361	51.54
184.58	170.32
184.8	37.2
185.02	47.44
185.239	47.44
185.459	-9.9
185.679	90.45
185.898	20.82
186.118	65.88
186.338	-38.57
186.557	4.44
186.777	-38.57
186.997	47.44
187.216	76.12
187.436	35.16
187.655	90.45
187.875	31.06
188.095	-40.62
188.314	63.83
188.534	26.96
188.753	-34.47
188.973	127.32
189.192	22.87
189.412	72.02
189.631	22.87
189.851	-52.91
190.07	51.54
190.29	22.87
190.509	-13.99
190.729	-11.95
190.948	51.54
191.168	84.31
191.387	76.12
191.607	37.2
191.826	57.68
192.045	45.4
192.265	14.68
192.484	-11.95
192.704	-24.23
192.923	-46.76
193.142	121.17
193.362	29.01
193.581	92.5
193.8	22.87
194.02	96.6
194.239	12.63
194.458	102.74
194.678	2.39
194.897	45.4
195.116	57.68
195.335	69.97
195.555	-28.33
195.774	-26.28
195.993	61.78
196.212	31.06
196.432	6.49
196.651	-73.39
196.87	12.63
197.089	102.74
197.308	49.49
197.528	78.16
197.747	16.73
197.966	-5.8
198.185	35.16
198.404	0.34
198.623	37.2
198.842	90.45
199.062	-16.04
199.281	72.02
199.5	6.49
199.719	-34.47
199.938	63.83
200.157	78.16
200.376	-7.85
200.595	51.54
200.814	4.44
201.033	14.68
201.252	94.55
201.471	10.58
201.69	26.96
201.909	41.3
202.128	43.35
202.347	43.35
202.566	18.77
202.785	4.44
203.004	-13.99
203.223	78.16
203.442	-20.14
203.661	49.49
203.879	22.87
204.098	115.03
204.317	-7.85
204.536	59.73
204.755	-22.19
204.974	12.63
205.193	47.44
205.411	72.02
205.63	-16.04
205.849	61.78
206.068	31.06
206.287	86.36
206.505	67.92
206.724	47.44
206.943	82.26
207.162	20.82
207.381	-38.57
207.599	-114.34
207.818	14.68
208.037	-5.8
208.255	-11.95
208.474	16.73
208.693	-48.81
208.911	0.34
209.13	-75.43
209.349	74.07
209.567	31.06
209.786	78.16
210.005	-32.43
210.223	-1.71
210.442	26.96
210.661	-3.75
210.879	43.35
211.098	55.64
211.316	6.49
211.535	43.35
211.753	41.3
211.972	-32.43
212.191	22.87
212.409	16.73
212.628	55.64
212.846	33.11
213.065	8.53
213.283	33.11
213.502	-32.43
213.72	67.92
213.938	41.3
214.157	-28.33
214.375	39.25
214.594	-42.67
214.812	51.54
215.031	43.35
215.249	29.01
215.467	8.53
215.686	80.21
215.904	49.49
216.122	47.44
216.341	-52.91
216.559	69.97
216.778	26.96
216.996	6.49
217.214	31.06
217.432	-5.8
217.651	4.44
217.869	22.87
218.087	24.92
218.306	63.83
218.524	-7.85
218.742	72.02
218.96	63.83
219.179	14.68
219.397	76.12
219.615	76.12
219.833	-89.77
220.051	6.49
220.27	14.68
220.488	-59.05
220.706	47.44
220.924	-22.19
221.142	37.2
221.36	63.83
221.578	37.2
221.796	102.74
222.015	20.82
222.233	112.98
222.451	24.92
222.669	41.3
222.887	69.97
223.105	26.96
223.323	-38.57
223.541	8.53
223.759	41.3
223.977	4.44
224.195	29.01
224.413	76.12
224.631	10.58
224.849	22.87
225.067	72.02
225.285	39.25
225.503	20.82
225.721	29.01
225.939	135.51
226.157	72.02
226.375	10.58
226.592	-1.71
226.81	45.4
227.028	-36.52
227.246	-28.33
227.464	65.88
227.682	39.25
227.9	6.49
228.117	24.92
228.335	16.73
228.553	-18.09
228.771	-1.71
228.989	39.25
229.206	51.54
229.424	6.49
229.642	10.58
229.86	-1.71
230.077	158.03
230.295	22.87
230.513	-24.23
230.731	55.64
230.948	14.68
231.166	2.39
231.384	65.88
231.601	26.96
231.819	33.11
232.037	119.12
232.254	8.53
232.472	33.11
232.689	22.87
232.907	100.69
233.125	39.25
233.342	6.49
233.56	-1.71
233.777	33.11
233.995	12.63
234.213	94.55
234.43	-20.14
234.648	-5.8
234.865	45.4
235.083	67.92
235.3	-11.95
235.518	-30.38
235.735	80.21
235.953	22.87
236.17	-11.95
236.388	33.11
236.605	41.3
236.822	96.6
237.04	39.25
237.257	-13.99
237.475	26.96
237.692	-38.57
237.909	31.06
238.127	92.5
238.344	-30.38
238.562	104.79
238.779	-40.62
238.996	-20.14
239.214	26.96
239.431	84.31
239.648	4.44
239.865	-5.8
240.083	-1.71
240.3	29.01
240.517	14.68
240.735	65.88
240.952	-16.04
241.169	121.17
241.386	-7.85
241.603	112.98
241.821	-16.04
242.038	-36.52
242.255	22.87
242.472	-9.9
242.689	24.92
242.907	80.21
243.124	-34.47
243.341	45.4
243.558	-11.95
243.775	88.4
243.992	4.44
244.209	131.41
244.426	90.45
244.643	92.5
244.86	82.26
245.078	-5.8
245.295	-5.8
245.512	-24.23
245.729	41.3
245.946	59.73
246.163	4.44
246.38	24.92
246.597	12.63
246.814	35.16
247.031	10.58
247.248	14.68
247.464	33.11
247.681	63.83
247.898	14.68
248.115	41.3
248.332	-9.9
248.549	82.26
248.766	90.45
248.983	65.88
249.2	63.83
249.417	110.93
249.633	26.96
249.85	10.58
250.067	-11.95
250.284	55.64
250.501	24.92
250.717	76.12
250.934	-11.95
251.151	35.16
251.368	78.16
251.585	35.16
251.801	51.54
252.018	-3.75
252.235	72.02
252.451	4.44
252.668	22.87
252.885	82.26
253.102	-1.71
253.318	47.44
253.535	8.53
253.752	69.97
253.968	18.77
254.185	-1.71
254.401	65.88
254.618	24.92
254.835	16.73
255.051	26.96
255.268	127.32
255.484	102.74
255.701	20.82
255.917	-9.9
256.134	-22.19
256.351	-11.95
256.567	18.77
256.784	-120.49
257	76.12
257.217	57.68
257.433	12.63
257.65	69.97
257.866	153.94
258.082	-24.23
258.299	-26.28
258.515	65.88
258.732	31.06
258.948	-3.75
259.165	43.35
259.381	12.63
259.597	-24.23
259.814	69.97
260.03	37.2
260.246	53.59
260.463	74.07
260.679	37.2
260.895	29.01
261.112	-9.9
261.328	94.55
261.544	49.49
261.761	8.53
261.977	20.82
262.193	55.64
262.409	59.73
262.626	110.93
262.842	10.58
263.058	-26.28
263.274	53.59
263.49	-1.71
263.707	41.3
263.923	61.78
264.139	-16.04
264.355	12.63
264.571	35.16
264.787	18.77
265.004	22.87
265.22	102.74
265.436	-30.38
265.652	51.54
265.868	86.36
266.084	-7.85
266.3	29.01
266.516	-11.95
266.732	22.87
266.948	86.36
267.164	2.39
267.38	55.64
267.596	94.55
267.812	127.32
268.028	98.64
268.244	-77.48
268.46	57.68
268.676	22.87
268.892	153.94
269.108	-13.99
269.324	0.34
269.54	47.44
269.756	65.88
269.972	2.39
270.188	20.82
270.403	16.73
270.619	49.49
270.835	14.68
271.051	55.64
271.267	-16.04
271.483	55.64
271.698	-42.67
271.914	-11.95
272.13	14.68
272.346	106.84
272.562	33.11
272.777	-1.71
272.993	74.07
273.209	-42.67
273.425	-5.8
273.64	47.44
273.856	82.26
274.072	61.78
274.287	-7.85
274.503	-26.28
274.719	102.74
274.934	-7.85
275.15	14.68
275.366	35.16
275.581	14.68
275.797	55.64
276.012	18.77
276.228	12.63
276.444	24.92
276.659	63.83
276.875	41.3
277.09	59.73
277.306	-13.99
277.521	112.98
277.737	-36.52
277.952	63.83
278.168	-1.71
278.383	35.16
278.599	-1.71
278.814	82.26
279.03	18.77
279.245	61.78
279.461	51.54
279.676	80.21
279.892	-3.75
280.107	45.4
280.322	49.49
280.538	31.06
280.753	10.58
280.969	78.16
281.184	67.92
281.399	4.44
281.615	-9.9
281.83	69.97
282.045	47.44
282.26	-20.14
282.476	-26.28
282.691	96.6
282.906	20.82
283.122	80.21
283.337	24.92
283.552	-3.75
283.767	10.58
283.983	55.64
284.198	-5.8
284.413	55.64
284.628	-40.62
284.843	53.59
285.058	-11.95
285.274	-30.38
285.489	-61.1
285.704	51.54
285.919	92.5
286.134	-1.71
286.349	61.78
286.564	51.54
286.779	67.92
286.995	39.25
287.21	16.73
287.425	10.58
287.64	-5.8
287.855	39.25
288.07	14.68
288.285	43.35
288.5	51.54
288.715	24.92
288.93	-1.71
289.145	45.4
289.36	88.4
289.575	74.07
289.79	51.54
290.004	80.21
290.219	41.3
290.434	59.73
290.649	53.59
290.864	6.49
291.079	49.49
291.294	-34.47
291.509	-3.75
291.724	33.11
291.938	53.59
292.153	39.25
292.368	4.44
292.583	53.59
292.798	16.73
293.012	96.6
293.227	-36.52
293.442	53.59
293.657	61.78
293.871	51.54
294.086	41.3
294.301	61.78
294.516	20.82
294.73	100.69
294.945	65.88
295.16	4.44
295.374	43.35
295.589	-3.75
295.804	43.35
296.018	127.32
296.233	67.92
296.447	33.11
296.662	24.92
296.877	49.49
297.091	65.88
297.306	51.54
297.52	61.78
297.735	92.5
297.949	86.36
298.164	45.4
298.378	22.87
298.593	51.54
298.807	18.77
299.022	20.82
299.236	4.44
299.451	22.87
299.665	53.59
299.88	59.73
300.094	39.25
300.309	43.35
300.523	-24.23
300.737	57.68
300.952	-36.52
301.166	88.4
301.381	-11.95
301.595	31.06
301.809	108.88
302.024	26.96
302.238	-26.28
302.452	94.55
302.667	12.63
302.881	160.08
303.095	49.49
303.309	41.3
303.524	12.63
303.738	59.73
303.952	26.96
304.166	67.92
304.381	24.92
304.595	104.79
304.809	20.82
305.023	6.49
305.237	-20.14
305.452	57.68
305.666	2.39
305.88	24.92
306.094	29.01
306.308	14.68
306.522	86.36
306.736	43.35
306.95	69.97
307.164	0.34
307.379	-3.75
307.593	49.49
307.807	24.92
308.021	10.58
308.235	-7.85
308.449	49.49
308.663	22.87
308.877	84.31
309.091	35.16
309.305	65.88
309.519	22.87
309.733	74.07
309.947	14.68
310.161	49.49
310.374	35.16
310.588	-9.9
310.802	39.25
311.016	39.25
311.23	24.92
311.444	24.92
311.658	-16.04
311.872	26.96
312.085	35.16
312.299	61.78
312.513	16.73
312.727	55.64
312.941	20.82
313.154	51.54
313.368	8.53
313.582	45.4
313.796	41.3
314.009	26.96
314.223	74.07
314.437	24.92
314.651	63.83
314.864	45.4
315.078	43.35
315.292	47.44
315.505	37.2
315.719	41.3
315.933	16.73
316.146	26.96
316.36	6.49
316.573	69.97
316.787	33.11
317.001	49.49
317.214	86.36
317.428	-24.23
317.641	41.3
317.855	-11.95
318.068	35.16
318.282	72.02
318.495	55.64
318.709	63.83
318.922	88.4
319.136	78.16
319.349	78.16
319.563	67.92
319.776	72.02
319.99	22.87
320.203	63.83
320.417	57.68
320.63	90.45
320.843	137.56
321.057	-22.19
321.27	94.55
321.483	8.53
321.697	80.21
321.91	47.44
322.124	90.45
322.337	86.36
322.55	-7.85
322.763	69.97
322.977	53.59
323.19	-50.86
323.403	43.35
323.617	35.16
323.83	55.64
324.043	-3.75
324.256	-1.71
324.469	8.53
324.683	112.98
324.896	18.77
325.109	51.54
325.322	26.96
325.535	84.31
325.748	72.02
325.962	2.39
326.175	20.82
326.388	20.82
326.601	41.3
326.814	6.49
327.027	47.44
327.24	100.69
327.453	74.07
327.666	-71.34
327.879	69.97
328.092	51.54
328.305	18.77
328.518	-34.47
328.731	4.44
328.944	14.68
329.157	57.68
329.37	65.88
329.583	125.27
329.796	26.96
330.009	29.01
330.222	92.5
330.435	31.06
330.648	-18.09
330.861	22.87
331.073	35.16
331.286	102.74
331.499	-20.14
331.712	20.82
331.925	88.4
332.138	31.06
332.35	61.78
332.563	41.3
332.776	69.97
332.989	102.74
333.202	-24.23
333.414	29.01
333.627	51.54
333.84	35.16
334.053	43.35
334.265	41.3
334.478	69.97
334.691	-13.99
334.903	12.63
335.116	29.01
335.329	31.06
335.541	-13.99
335.754	37.2
335.966	10.58
336.179	102.74
336.392	8.53
336.604	43.35
336.817	94.55
337.029	151.89
337.242	37.2
337.454	49.49
337.667	104.79
337.88	162.13
338.092	72.02
338.305	57.68
338.517	16.73
338.729	-9.9
338.942	65.88
339.154	8.53
339.367	2.39
339.579	24.92
339.792	55.64
340.004	37.2
340.217	41.3
340.429	26.96
340.641	-24.23
340.854	67.92
341.066	-5.8
341.278	26.96
341.491	98.64
341.703	6.49
341.915	80.21
342.128	76.12
342.34	-26.28
342.552	-1.71
342.764	16.73
342.977	24.92
343.189	31.06
343.401	90.45
343.613	55.64
343.826	49.49
344.038	-18.09
344.25	12.63
344.462	10.58
344.674	26.96
344.886	14.68
345.099	14.68
345.311	29.01
345.523	57.68
345.735	0.34
345.947	-9.9
346.159	86.36
346.371	72.02
346.583	65.88
346.795	84.31
347.007	-63.15
347.219	43.35
347.431	4.44
347.643	123.22
347.855	41.3
348.067	88.4
348.279	63.83
348.491	78.16
348.703	4.44
348.915	47.44
349.127	57.68
349.339	51.54
349.551	65.88
349.763	31.06
349.975	-7.85
350.187	104.79
350.399	78.16
350.61	55.64
350.822	33.11
351.034	-1.71
351.246	90.45
351.458	18.77
351.669	45.4
351.881	49.49
352.093	55.64
352.305	67.92
352.517	2.39
352.728	26.96
352.94	24.92
353.152	22.87
353.363	92.5
353.575	127.32
353.787	108.88
353.999	65.88
354.21	139.6
354.422	10.58
354.633	39.25
354.845	31.06
355.057	55.64
355.268	82.26
355.48	26.96
355.692	26.96
355.903	14.68
356.115	55.64
356.326	37.2
356.538	110.93
356.749	20.82
356.961	82.26
357.172	39.25
357.384	41.3
357.595	137.56
357.807	35.16
358.018	8.53
358.23	49.49
358.441	141.65
358.653	35.16
358.864	33.11
359.075	8.53
359.287	-20.14
359.498	78.16
359.709	-5.8
359.921	82.26
360.132	88.4
360.344	49.49
360.555	43.35
360.766	45.4
360.977	78.16
361.189	67.92
361.4	80.21
361.611	63.83
361.823	53.59
362.034	76.12
362.245	12.63
362.456	80.21
362.667	-9.9
362.879	43.35
363.09	98.64
363.301	14.68
363.512	33.11
363.723	112.98
363.935	80.21
364.146	61.78
364.357	47.44
364.568	78.16
364.779	53.59
364.99	92.5
365.201	-34.47
365.412	49.49
365.623	49.49
365.834	37.2
366.045	45.4
366.256	63.83
366.467	102.74
366.678	76.12
366.889	31.06
367.1	43.35
367.311	69.97
367.522	106.84
367.733	86.36
367.944	102.74
368.155	-7.85
368.366	86.36
368.577	72.02
368.788	108.88
368.999	14.68
369.209	26.96
369.42	106.84
369.631	139.6
369.842	0.34
370.053	84.31
370.264	12.63
370.474	31.06
370.685	35.16
370.896	72.02
371.107	59.73
371.317	94.55
371.528	14.68
371.739	76.12
371.95	53.59
372.16	53.59
372.371	-7.85
372.582	119.12
372.792	10.58
373.003	53.59
373.214	47.44
373.424	123.22
373.635	26.96
373.846	82.26
374.056	112.98
374.267	43.35
374.477	14.68
374.688	16.73
374.898	12.63
375.109	51.54
375.319	104.79
375.53	86.36
375.74	74.07
375.951	-7.85
376.161	8.53
376.372	55.64
376.582	26.96
376.793	172.37
377.003	45.4
377.214	22.87
377.424	33.11
377.635	41.3
377.845	82.26
378.055	61.78
378.266	92.5
378.476	-16.04
378.686	84.31
378.897	-13.99
379.107	80.21
379.317	67.92
379.528	51.54
379.738	26.96
379.948	39.25
380.158	86.36
380.369	106.84
380.579	67.92
380.789	80.21
380.999	123.22
381.21	37.2
381.42	117.08
381.63	-1.71
381.84	72.02
382.05	57.68
382.261	47.44
382.471	96.6
382.681	39.25
382.891	94.55
383.101	74.07
383.311	98.64
383.521	-3.75
383.731	59.73
383.941	74.07
384.151	55.64
384.361	45.4
384.571	45.4
384.781	80.21
384.991	49.49
385.201	63.83
385.411	92.5
385.621	84.31
385.831	78.16
386.041	125.27
386.251	47.44
386.461	37.2
386.671	76.12
386.881	33.11
387.091	96.6
387.301	96.6
387.511	-5.8
387.72	65.88
387.93	123.22
388.14	14.68
388.35	41.3
388.56	127.32
388.769	26.96
388.979	135.51
389.189	74.07
389.399	121.17
389.609	90.45
389.818	72.02
390.028	57.68
390.238	110.93
390.447	33.11
390.657	69.97
390.867	8.53
391.076	37.2
391.286	112.98
391.496	155.99
391.705	88.4
391.915	74.07
392.125	76.12
392.334	121.17
392.544	78.16
392.753	121.17
392.963	33.11
393.172	86.36
393.382	43.35
393.591	90.45
393.801	92.5
394.01	108.88
394.22	51.54
394.429	63.83
394.639	57.68
394.848	88.4
395.058	160.08
395.267	63.83
395.477	172.37
395.686	153.94
395.895	115.03
396.105	112.98
396.314	78.16
396.524	102.74
396.733	82.26
396.942	145.75
397.152	196.95
397.361	104.79
397.57	182.61
397.78	82.26
397.989	119.12
398.198	184.66
398.407	112.98
398.617	123.22
398.826	88.4
399.035	78.16
399.244	129.36
399.453	86.36
399.663	67.92
399.872	104.79
400.081	63.83
400.29	170.32
400.499	170.32
400.708	78.16
400.917	147.8
401.127	74.07
401.336	162.13
401.545	145.75
401.754	190.8
401.963	164.18
402.172	139.6
402.381	158.03
402.59	135.51
402.799	67.92
403.008	139.6
403.217	143.7
403.426	158.03
403.635	125.27
403.844	102.74
404.053	196.95
404.262	166.23
404.471	217.43
404.68	129.36
404.888	196.95
405.097	229.71
405.306	155.99
405.515	223.57
405.724	239.95
405.933	184.66
406.142	213.33
406.35	317.78
406.559	145.75
406.768	246.1
406.977	237.91
407.185	242
407.394	260.43
407.603	160.08
407.812	317.78
408.02	340.3
408.229	250.19
408.438	282.96
408.646	258.39
408.855	211.28
409.064	268.63
409.272	272.72
409.481	444.75
409.69	319.82
409.898	375.12
410.107	260.43
410.315	465.23
410.524	371.02
410.733	399.7
410.941	485.71
411.15	481.61
411.358	498
411.567	551.24
411.775	465.23
411.984	520.53
412.192	469.33
412.401	506.19
412.609	563.53
412.818	672.08
413.026	612.68
413.234	647.5
413.443	639.31
413.651	643.4
413.86	643.4
414.068	684.36
414.276	727.37
414.485	821.58
414.693	827.72
414.901	778.57
415.11	837.96
415.318	842.06
415.526	901.45
415.734	919.88
415.943	905.54
416.151	1100.1
416.359	921.93
416.567	1032.52
416.776	1108.29
416.984	1149.25
417.192	1302.85
417.4	1186.12
417.608	1229.12
417.817	1235.27
418.025	1399.1
418.233	1474.88
418.441	1425.73
418.649	1509.69
418.857	1485.12
419.065	1548.61
419.273	1601.85
419.481	1700.16
419.689	1810.75
419.897	1833.27
420.105	1876.28
420.313	1831.23
420.521	2062.65
420.729	2113.85
420.937	2087.22
421.145	2251.06
421.353	2320.69
421.561	2298.16
421.769	2488.62
421.977	2443.57
422.185	2519.34
422.393	2738.48
422.601	2851.11
422.809	2847.02
423.017	3002.66
423.224	3014.95
423.432	3055.91
423.64	2904.36
423.848	3316
424.056	3289.38
424.263	3547.42
424.471	3430.69
424.679	3600.67
424.887	3840.28
425.094	4079.9
425.302	3946.78
425.51	4227.35
425.718	4411.67
425.925	4284.69
426.133	4593.94
426.341	4851.98
426.548	4894.99
426.756	4933.9
426.964	4970.76
427.171	5366.02
427.379	5511.43
427.586	5593.34
427.794	5738.75
428.001	5984.51
428.209	6144.25
428.417	6072.57
428.624	6486.26
428.832	6523.12
429.039	6508.79
429.247	6535.41
429.454	6965.48
429.662	7600.35
429.869	7065.83
430.076	7555.3
430.284	7413.99
430.491	7661.79
430.699	8460.5
430.906	7950.56
431.114	8267.99
431.321	8544.47
431.528	8696.02
431.736	9341.13
431.943	9550.02
432.15	9550.02
432.358	9572.55
432.565	10084.54
432.772	9967.81
432.979	10494.13
433.187	10737.84
433.394	10690.74
433.601	11677.86
433.808	11673.76
434.016	11428.01
434.223	11972.77
434.43	12656.79
434.637	12474.52
434.844	13320.33
435.052	13465.74
435.259	13381.77
435.466	13465.74
435.673	13244.56
435.88	14446.71
436.087	14985.33
436.294	15091.82
436.501	14583.93
436.708	15274.09
436.915	15523.94
437.122	16343.13
437.329	16216.16
437.537	16717.91
437.743	17072.21
437.95	16789.59
438.157	17621.06
438.364	18356.29
438.571	18337.85
438.778	18778.17
438.985	20066.34
439.192	19361.84
439.399	20088.87
439.606	19427.37
439.813	20850.71
440.02	21762.06
440.227	21725.19
440.433	21252.11
440.64	22153.22
440.847	21901.32
441.054	22681.6
441.261	24283.11
441.467	23525.36
441.674	24225.76
441.881	24780.76
442.088	25003.99
442.294	24905.69
442.501	25923.53
442.708	25599.95
442.914	26861.5
443.121	28065.71
443.328	27250.61
443.534	29140.89
443.741	28092.33
443.948	28034.99
444.154	30130.06
444.361	29749.14
444.568	30271.37
444.774	29894.54
444.981	30553.99
445.187	31278.97
445.394	32608.1
445.6	32214.89
445.807	35393.34
446.013	34213.71
446.22	34426.7
446.426	35839.79
446.633	36114.22
446.839	37254.94
447.046	35843.89
447.252	37957.39
447.459	37783.32
447.665	37717.78
447.871	39149.31
448.078	40920.8
448.284	39040.77
448.491	40261.36
448.697	41508.57
448.903	41977.56
449.11	42567.37
449.316	41572.06
449.522	42725.07
449.728	43677.37
449.935	43886.26
450.141	43853.5
450.347	44863.14
450.553	43462.33
450.76	43783.87
450.966	45459.1
451.172	44500.65
451.378	45547.17
451.584	45190.82
451.791	46130.84
451.997	46175.89
452.203	46618.25
452.409	46829.19
452.615	46196.37
452.821	44990.12
453.027	44267.19
453.233	46462.61
453.44	44564.14
453.646	45137.57
453.852	45778.59
454.058	46048.92
454.264	44410.54
454.47	45659.8
454.676	44447.41
454.882	45837.98
455.088	41811.67
455.294	42622.67
455.5	43486.91
455.705	43747
455.911	42125.01
456.117	41465.56
456.323	40466.16
456.529	38608.65
456.735	40142.58
456.941	38776.58
457.147	38629.13
457.352	37277.47
457.558	36785.96
457.764	36871.97
457.97	36060.98
458.176	35489.59
458.381	35096.38
458.587	33494.87
458.793	33718.1
458.999	31991.66
459.204	34404.17
459.41	33140.57
459.616	31121.27
459.821	31100.79
460.027	30572.42
460.233	30177.16
460.438	28540.83
460.644	29288.34
460.85	27901.87
461.055	27459.51
461.261	27334.58
461.466	25221.08
461.672	24698.84
461.878	26269.64
462.083	24694.75
462.289	24006.63
462.494	23810.03
462.7	22665.21
462.905	22233.09
463.111	22794.23
463.316	22874.1
463.522	22593.53
463.727	22554.62
463.932	22657.02
464.138	22052.87
464.343	22323.2
464.549	21889.03
464.754	22552.57
464.959	22220.8
465.165	22128.64
465.37	21162
465.575	20461.6
465.781	21422.09
465.986	21340.18
466.191	20543.52
466.397	20484.12
466.602	19292.21
466.807	20027.43
467.012	20056.1
467.218	19998.76
467.423	19623.98
