Data from USB4F104151__91__12-02-35-423.txt Node

Date: Fri Mar 14 12:02:35 EDT 2025
User: louis
Spectrometer: USB4F10415
Trigger mode: 4
Integration Time (sec): 2.000000E-2
Scans to average: 1
Electric dark correction enabled: true
Nonlinearity correction enabled: false
Boxcar width: 0
XAxis mode: Wavelengths
Number of Pixels in Spectrum: 3648
>>>>>Begin Spectral Data<<<<<
178.204	-112.64
178.424	-112.64
178.644	-112.64
178.864	-79.87
179.084	-59.39
179.304	6.14
179.524	-34.82
179.744	-49.15
179.964	20.48
180.184	22.53
180.404	18.43
180.624	43.01
180.844	34.82
181.064	40.96
181.283	-75.77
181.503	18.43
181.723	-45.06
181.943	32.77
182.163	-6.14
182.383	53.25
182.602	-12.29
182.822	-8.19
183.042	43.01
183.262	-43.01
183.482	83.97
183.701	47.1
183.921	38.91
184.141	-28.67
184.361	45.06
184.58	-28.67
184.8	71.68
185.02	2.05
185.239	-2.05
185.459	-8.19
185.679	28.67
185.898	-36.86
186.118	36.86
186.338	-10.24
186.557	49.15
186.777	47.1
186.997	14.34
187.216	79.87
187.436	-26.62
187.655	-18.43
187.875	61.44
188.095	-14.34
188.314	65.54
188.534	63.49
188.753	20.48
188.973	110.59
189.192	86.01
189.412	53.25
189.631	32.77
189.851	16.38
190.07	40.96
190.29	69.63
190.509	22.53
190.729	12.29
190.948	49.15
191.168	55.3
191.387	71.68
191.607	-32.77
191.826	65.54
192.045	67.58
192.265	26.62
192.484	-53.25
192.704	-10.24
192.923	-4.1
193.142	6.14
193.362	16.38
193.581	36.86
193.8	83.97
194.02	-26.62
194.239	108.54
194.458	55.3
194.678	36.86
194.897	-18.43
195.116	-57.34
195.335	43.01
195.555	69.63
195.774	4.1
195.993	20.48
196.212	36.86
196.432	83.97
196.651	49.15
196.87	-18.43
197.089	57.34
197.308	10.24
197.528	24.58
197.747	-8.19
197.966	0
198.185	32.77
198.404	30.72
198.623	-20.48
198.842	26.62
199.062	-8.19
199.281	26.62
199.5	16.38
199.719	2.05
199.938	75.77
200.157	24.58
200.376	45.06
200.595	96.25
200.814	8.19
201.033	18.43
201.252	100.35
201.471	45.06
201.69	8.19
201.909	75.77
202.128	4.1
202.347	-12.29
202.566	28.67
202.785	26.62
203.004	6.14
203.223	22.53
203.442	-40.96
203.661	20.48
203.879	34.82
204.098	24.58
204.317	-2.05
204.536	61.44
204.755	75.77
204.974	51.2
205.193	61.44
205.411	30.72
205.63	20.48
205.849	47.1
206.068	16.38
206.287	20.48
206.505	22.53
206.724	8.19
206.943	0
207.162	49.15
207.381	0
207.599	55.3
207.818	-20.48
208.037	40.96
208.255	18.43
208.474	24.58
208.693	-16.38
208.911	-16.38
209.13	-34.82
209.349	40.96
209.567	10.24
209.786	10.24
210.005	40.96
210.223	32.77
210.442	-28.67
210.661	26.62
210.879	38.91
211.098	18.43
211.316	20.48
211.535	18.43
211.753	-20.48
211.972	18.43
212.191	-6.14
212.409	-32.77
212.628	38.91
212.846	-6.14
213.065	16.38
213.283	73.73
213.502	22.53
213.72	57.34
213.938	20.48
214.157	-18.43
214.375	26.62
214.594	51.2
214.812	45.06
215.031	51.2
215.249	12.29
215.467	6.14
215.686	88.06
215.904	-18.43
216.122	-28.67
216.341	61.44
216.559	98.3
216.778	18.43
216.996	45.06
217.214	30.72
217.432	-14.34
217.651	14.34
217.869	30.72
218.087	88.06
218.306	-20.48
218.524	36.86
218.742	-57.34
218.96	61.44
219.179	51.2
219.397	65.54
219.615	24.58
219.833	-28.67
220.051	-16.38
220.27	51.2
220.488	4.1
220.706	0
220.924	14.34
221.142	2.05
221.36	2.05
221.578	45.06
221.796	-30.72
222.015	-16.38
222.233	4.1
222.451	65.54
222.669	-10.24
222.887	30.72
223.105	16.38
223.323	57.34
223.541	-8.19
223.759	110.59
223.977	36.86
224.195	73.73
224.413	-32.77
224.631	10.24
224.849	30.72
225.067	28.67
225.285	59.39
225.503	57.34
225.721	-53.25
225.939	40.96
226.157	-2.05
226.375	92.16
226.592	-4.1
226.81	-18.43
227.028	-20.48
227.246	32.77
227.464	-8.19
227.682	92.16
227.9	71.68
228.117	-16.38
228.335	30.72
228.553	-55.3
228.771	2.05
228.989	40.96
229.206	16.38
229.424	32.77
229.642	81.92
229.86	69.63
230.077	61.44
230.295	-28.67
230.513	-40.96
230.731	8.19
230.948	12.29
231.166	38.91
231.384	-22.53
231.601	2.05
231.819	57.34
232.037	18.43
232.254	-4.1
232.472	59.39
232.689	-20.48
232.907	26.62
233.125	69.63
233.342	-22.53
233.56	-14.34
233.777	-24.58
233.995	8.19
234.213	26.62
234.43	26.62
234.648	6.14
234.865	-4.1
235.083	-36.86
235.3	45.06
235.518	57.34
235.735	26.62
235.953	45.06
236.17	-28.67
236.388	-16.38
236.605	30.72
236.822	6.14
237.04	18.43
237.257	49.15
237.475	-20.48
237.692	36.86
237.909	-22.53
238.127	10.24
238.344	18.43
238.562	79.87
238.779	6.14
238.996	28.67
239.214	-10.24
239.431	-14.34
239.648	-32.77
239.865	26.62
240.083	18.43
240.3	67.58
240.517	-53.25
240.735	36.86
240.952	67.58
241.169	8.19
241.386	0
241.603	75.77
241.821	47.1
242.038	18.43
242.255	47.1
242.472	-24.58
242.689	75.77
242.907	18.43
243.124	8.19
243.341	104.45
243.558	59.39
243.775	-20.48
243.992	16.38
244.209	22.53
244.426	18.43
244.643	6.14
244.86	-45.06
245.078	-38.91
245.295	26.62
245.512	2.05
245.729	-16.38
245.946	14.34
246.163	57.34
246.38	22.53
246.597	38.91
246.814	100.35
247.031	2.05
247.248	8.19
247.464	-49.15
247.681	38.91
247.898	61.44
248.115	43.01
248.332	4.1
248.549	49.15
248.766	8.19
248.983	6.14
249.2	36.86
249.417	26.62
249.633	-14.34
249.85	92.16
250.067	-12.29
250.284	14.34
250.501	6.14
250.717	86.01
250.934	-4.1
251.151	83.97
251.368	-43.01
251.585	-2.05
251.801	-4.1
252.018	2.05
252.235	-26.62
252.451	20.48
252.668	-40.96
252.885	8.19
253.102	28.67
253.318	118.78
253.535	-8.19
253.752	34.82
253.968	24.58
254.185	6.14
254.401	2.05
254.618	40.96
254.835	0
255.051	38.91
255.268	45.06
255.484	86.01
255.701	-12.29
255.917	69.63
256.134	40.96
256.351	75.77
256.567	2.05
256.784	-4.1
257	-10.24
257.217	47.1
257.433	0
257.65	40.96
257.866	67.58
258.082	-40.96
258.299	-6.14
258.515	94.21
258.732	-4.1
258.948	-24.58
259.165	-18.43
259.381	-8.19
259.597	2.05
259.814	28.67
260.03	36.86
260.246	-6.14
260.463	-40.96
260.679	59.39
260.895	30.72
261.112	79.87
261.328	73.73
261.544	-18.43
261.761	65.54
261.977	4.1
262.193	-14.34
262.409	55.3
262.626	12.29
262.842	67.58
263.058	-14.34
263.274	40.96
263.49	-4.1
263.707	47.1
263.923	0
264.139	45.06
264.355	55.3
264.571	40.96
264.787	20.48
265.004	14.34
265.22	-20.48
265.436	51.2
265.652	49.15
265.868	-20.48
266.084	12.29
266.3	-8.19
266.516	12.29
266.732	81.92
266.948	34.82
267.164	-2.05
267.38	24.58
267.596	-24.58
267.812	63.49
268.028	-45.06
268.244	12.29
268.46	63.49
268.676	12.29
268.892	83.97
269.108	28.67
269.324	-6.14
269.54	-12.29
269.756	49.15
269.972	-8.19
270.188	47.1
270.403	-38.91
270.619	49.15
270.835	67.58
271.051	10.24
271.267	-22.53
271.483	4.1
271.698	26.62
271.914	-36.86
272.13	20.48
272.346	122.88
272.562	20.48
272.777	69.63
272.993	77.82
273.209	34.82
273.425	40.96
273.64	24.58
273.856	86.01
274.072	45.06
274.287	0
274.503	75.77
274.719	14.34
274.934	20.48
275.15	53.25
275.366	0
275.581	-2.05
275.797	43.01
276.012	59.39
276.228	24.58
276.444	-14.34
276.659	45.06
276.875	55.3
277.09	-4.1
277.306	47.1
277.521	51.2
277.737	0
277.952	69.63
278.168	43.01
278.383	59.39
278.599	28.67
278.814	38.91
279.03	51.2
279.245	88.06
279.461	-16.38
279.676	61.44
279.892	40.96
280.107	38.91
280.322	38.91
280.538	18.43
280.753	-30.72
280.969	36.86
281.184	63.49
281.399	45.06
281.615	14.34
281.83	10.24
282.045	-16.38
282.26	-22.53
282.476	53.25
282.691	51.2
282.906	-10.24
283.122	51.2
283.337	-51.2
283.552	90.11
283.767	0
283.983	20.48
284.198	6.14
284.413	6.14
284.628	49.15
284.843	153.6
285.058	53.25
285.274	65.54
285.489	28.67
285.704	51.2
285.919	81.92
286.134	43.01
286.349	2.05
286.564	69.63
286.779	10.24
286.995	75.77
287.21	-30.72
287.425	8.19
287.64	90.11
287.855	-45.06
288.07	104.45
288.285	45.06
288.5	26.62
288.715	38.91
288.93	-2.05
289.145	55.3
289.36	20.48
289.575	14.34
289.79	38.91
290.004	8.19
290.219	30.72
290.434	-20.48
290.649	-2.05
290.864	86.01
291.079	6.14
291.294	45.06
291.509	36.86
291.724	-71.68
291.938	61.44
292.153	10.24
292.368	73.73
292.583	73.73
292.798	43.01
293.012	43.01
293.227	24.58
293.442	4.1
293.657	2.05
293.871	104.45
294.086	47.1
294.301	88.06
294.516	-6.14
294.73	47.1
294.945	65.54
295.16	-18.43
295.374	86.01
295.589	45.06
295.804	71.68
296.018	32.77
296.233	-38.91
296.447	18.43
296.662	-28.67
296.877	36.86
297.091	16.38
297.306	16.38
297.52	24.58
297.735	-4.1
297.949	0
298.164	12.29
298.378	18.43
298.593	61.44
298.807	-32.77
299.022	43.01
299.236	83.97
299.451	12.29
299.665	12.29
299.88	57.34
300.094	10.24
300.309	79.87
300.523	20.48
300.737	18.43
300.952	88.06
301.166	79.87
301.381	-30.72
301.595	36.86
301.809	14.34
302.024	36.86
302.238	-63.49
302.452	-12.29
302.667	38.91
302.881	149.5
303.095	38.91
303.309	18.43
303.524	22.53
303.738	14.34
303.952	-12.29
304.166	32.77
304.381	24.58
304.595	92.16
304.809	26.62
305.023	-36.86
305.237	24.58
305.452	22.53
305.666	-2.05
305.88	69.63
306.094	77.82
306.308	24.58
306.522	53.25
306.736	106.49
306.95	61.44
307.164	0
307.379	38.91
307.593	45.06
307.807	8.19
308.021	51.2
308.235	59.39
308.449	-20.48
308.663	-26.62
308.877	126.97
309.091	8.19
309.305	77.82
309.519	2.05
309.733	18.43
309.947	0
310.161	133.12
310.374	34.82
310.588	88.06
310.802	4.1
311.016	86.01
311.23	30.72
311.444	20.48
311.658	22.53
311.872	88.06
312.085	34.82
312.299	24.58
312.513	20.48
312.727	47.1
312.941	-6.14
313.154	18.43
313.368	14.34
313.582	8.19
313.796	47.1
314.009	36.86
314.223	34.82
314.437	94.21
314.651	-4.1
314.864	20.48
315.078	2.05
315.292	40.96
315.505	88.06
315.719	-14.34
315.933	59.39
316.146	-26.62
316.36	-2.05
316.573	-20.48
316.787	120.83
317.001	79.87
317.214	38.91
317.428	-30.72
317.641	6.14
317.855	65.54
318.068	-22.53
318.282	45.06
318.495	14.34
318.709	81.92
318.922	-24.58
319.136	63.49
319.349	20.48
319.563	43.01
319.776	36.86
319.99	-12.29
320.203	30.72
320.417	55.3
320.63	-12.29
320.843	10.24
321.057	32.77
321.27	8.19
321.483	47.1
321.697	75.77
321.91	-8.19
322.124	69.63
322.337	-14.34
322.55	24.58
322.763	79.87
322.977	30.72
323.19	-8.19
323.403	34.82
323.617	-40.96
323.83	32.77
324.043	49.15
324.256	65.54
324.469	24.58
324.683	40.96
324.896	4.1
325.109	61.44
325.322	16.38
325.535	47.1
325.748	59.39
325.962	32.77
326.175	16.38
326.388	34.82
326.601	79.87
326.814	86.01
327.027	38.91
327.24	81.92
327.453	2.05
327.666	18.43
327.879	-32.77
328.092	77.82
328.305	43.01
328.518	45.06
328.731	57.34
328.944	75.77
329.157	20.48
329.37	-16.38
329.583	114.69
329.796	36.86
330.009	-6.14
330.222	26.62
330.435	43.01
330.648	20.48
330.861	43.01
331.073	16.38
331.286	-8.19
331.499	73.73
331.712	108.54
331.925	10.24
332.138	53.25
332.35	14.34
332.563	63.49
332.776	57.34
332.989	-53.25
333.202	77.82
333.414	12.29
333.627	77.82
333.84	-4.1
334.053	71.68
334.265	10.24
334.478	57.34
334.691	43.01
334.903	38.91
335.116	-55.3
335.329	102.4
335.541	-10.24
335.754	43.01
335.966	-4.1
336.179	-55.3
336.392	75.77
336.604	-63.49
336.817	-28.67
337.029	16.38
337.242	6.14
337.454	83.97
337.667	14.34
337.88	83.97
338.092	61.44
338.305	12.29
338.517	2.05
338.729	14.34
338.942	36.86
339.154	18.43
339.367	0
339.579	98.3
339.792	20.48
340.004	118.78
340.217	59.39
340.429	51.2
340.641	-45.06
340.854	18.43
341.066	34.82
341.278	2.05
341.491	90.11
341.703	6.14
341.915	16.38
342.128	118.78
342.34	34.82
342.552	-30.72
342.764	-69.63
342.977	34.82
343.189	55.3
343.401	67.58
343.613	43.01
343.826	83.97
344.038	-18.43
344.25	28.67
344.462	18.43
344.674	59.39
344.886	61.44
345.099	75.77
345.311	43.01
345.523	-32.77
345.735	28.67
345.947	40.96
346.159	-28.67
346.371	40.96
346.583	73.73
346.795	104.45
347.007	-4.1
347.219	57.34
347.431	-6.14
347.643	6.14
347.855	30.72
348.067	75.77
348.279	-26.62
348.491	6.14
348.703	2.05
348.915	34.82
349.127	14.34
349.339	75.77
349.551	30.72
349.763	32.77
349.975	18.43
350.187	28.67
350.399	88.06
350.61	36.86
350.822	51.2
351.034	12.29
351.246	16.38
351.458	8.19
351.669	36.86
351.881	67.58
352.093	38.91
352.305	0
352.517	98.3
352.728	131.07
352.94	36.86
353.152	38.91
353.363	16.38
353.575	69.63
353.787	6.14
353.999	30.72
354.21	83.97
354.422	47.1
354.633	49.15
354.845	38.91
355.057	59.39
355.268	-14.34
355.48	36.86
355.692	16.38
355.903	88.06
356.115	-6.14
356.326	-2.05
356.538	49.15
356.749	86.01
356.961	49.15
357.172	98.3
357.384	-28.67
357.595	65.54
357.807	110.59
358.018	-40.96
358.23	102.4
358.441	34.82
358.653	28.67
358.864	22.53
359.075	-12.29
359.287	22.53
359.498	90.11
359.709	51.2
359.921	36.86
360.132	45.06
360.344	43.01
360.555	61.44
360.766	32.77
360.977	-12.29
361.189	45.06
361.4	22.53
361.611	53.25
361.823	51.2
362.034	28.67
362.245	24.58
362.456	45.06
362.667	75.77
362.879	153.6
363.09	49.15
363.301	81.92
363.512	61.44
363.723	59.39
363.935	47.1
364.146	129.02
364.357	59.39
364.568	120.83
364.779	96.25
364.99	65.54
365.201	69.63
365.412	71.68
365.623	-20.48
365.834	18.43
366.045	88.06
366.256	43.01
366.467	98.3
366.678	36.86
366.889	167.93
367.1	2.05
367.311	75.77
367.522	75.77
367.733	2.05
367.944	43.01
368.155	22.53
368.366	69.63
368.577	-10.24
368.788	45.06
368.999	-12.29
369.209	-8.19
369.42	8.19
369.631	73.73
369.842	36.86
370.053	47.1
370.264	-24.58
370.474	45.06
370.685	63.49
370.896	43.01
371.107	40.96
371.317	38.91
371.528	36.86
371.739	43.01
371.95	-24.58
372.16	65.54
372.371	71.68
372.582	-2.05
372.792	71.68
373.003	2.05
373.214	53.25
373.424	40.96
373.635	-2.05
373.846	75.77
374.056	40.96
374.267	53.25
374.477	43.01
374.688	24.58
374.898	8.19
375.109	-14.34
375.319	38.91
375.53	73.73
375.74	24.58
375.951	-14.34
376.161	114.69
376.372	-38.91
376.582	38.91
376.793	75.77
377.003	63.49
377.214	69.63
377.424	28.67
377.635	81.92
377.845	18.43
378.055	124.93
378.266	-8.19
378.476	-32.77
378.686	53.25
378.897	38.91
379.107	51.2
379.317	104.45
379.528	-30.72
379.738	26.62
379.948	102.4
380.158	83.97
380.369	92.16
380.579	63.49
380.789	63.49
380.999	69.63
381.21	131.07
381.42	28.67
381.63	26.62
381.84	-6.14
382.05	36.86
382.261	126.97
382.471	47.1
382.681	40.96
382.891	40.96
383.101	59.39
383.311	38.91
383.521	118.78
383.731	86.01
383.941	79.87
384.151	83.97
384.361	69.63
384.571	65.54
384.781	81.92
384.991	71.68
385.201	59.39
385.411	-14.34
385.621	65.54
385.831	79.87
386.041	71.68
386.251	30.72
386.461	98.3
386.671	63.49
386.881	145.41
387.091	75.77
387.301	49.15
387.511	28.67
387.72	-14.34
387.93	83.97
388.14	47.1
388.35	45.06
388.56	102.4
388.769	57.34
388.979	81.92
389.189	30.72
389.399	36.86
389.609	92.16
389.818	4.1
390.028	6.14
390.238	45.06
390.447	30.72
390.657	26.62
390.867	57.34
391.076	53.25
391.286	92.16
391.496	45.06
391.705	126.97
391.915	116.73
392.125	73.73
392.334	75.77
392.544	100.35
392.753	71.68
392.963	38.91
393.172	67.58
393.382	57.34
393.591	30.72
393.801	53.25
394.01	106.49
394.22	61.44
394.429	86.01
394.639	59.39
394.848	178.17
395.058	32.77
395.267	-43.01
395.477	112.64
395.686	88.06
395.895	86.01
396.105	192.51
396.314	100.35
396.524	131.07
396.733	124.93
396.942	98.3
397.152	86.01
397.361	122.88
397.57	102.4
397.78	118.78
397.989	131.07
398.198	83.97
398.407	151.55
398.617	114.69
398.826	96.25
399.035	61.44
399.244	65.54
399.453	100.35
399.663	120.83
399.872	16.38
400.081	110.59
400.29	69.63
400.499	26.62
400.708	98.3
400.917	112.64
401.127	73.73
401.336	118.78
401.545	139.26
401.754	96.25
401.963	159.74
402.172	90.11
402.381	114.69
402.59	137.21
402.799	151.55
403.008	141.31
403.217	163.84
403.426	81.92
403.635	59.39
403.844	118.78
404.053	122.88
404.262	75.77
404.471	124.93
404.68	145.41
404.888	212.99
405.097	120.83
405.306	157.69
405.515	139.26
405.724	77.82
405.933	219.13
406.142	217.08
406.35	231.42
406.559	204.8
406.768	176.13
406.977	227.32
407.185	212.99
407.394	225.28
407.603	108.54
407.812	196.61
408.02	247.8
408.229	192.51
408.438	264.19
408.646	262.14
408.855	231.42
409.064	270.33
409.272	321.53
409.481	321.53
409.69	288.76
409.898	327.68
410.107	325.63
410.315	411.64
410.524	307.2
410.733	452.6
410.941	385.02
411.15	397.31
411.358	430.07
411.567	391.16
411.775	376.83
411.984	430.07
412.192	479.22
412.401	479.22
412.609	544.76
412.818	577.53
413.026	534.52
413.234	520.18
413.443	528.38
413.651	604.15
413.86	524.28
414.068	675.83
414.276	669.69
414.485	610.29
414.693	667.64
414.901	811
415.11	720.88
415.318	806.9
415.526	911.35
415.734	765.94
415.943	929.78
416.151	929.78
416.359	808.95
416.567	931.83
416.776	913.39
416.984	958.45
417.192	1103.86
417.4	1066.99
417.608	1054.7
417.817	1099.76
418.025	1144.81
418.233	1261.55
418.441	1224.69
418.649	1185.77
418.857	1417.19
419.065	1386.47
419.273	1435.63
419.481	1322.99
419.689	1564.65
419.897	1591.27
420.105	1638.38
420.313	1718.25
420.521	1683.43
420.729	1906.66
420.937	1845.22
421.145	1888.23
421.353	2033.63
421.561	1996.77
421.769	2058.21
421.977	2131.94
422.185	2174.94
422.393	2412.51
422.601	2461.66
422.809	2396.12
423.017	2637.78
423.224	2406.36
423.432	2633.69
423.64	2652.12
423.848	2975.7
424.056	2910.16
424.263	3100.62
424.471	3100.62
424.679	3125.2
424.887	3379.15
425.094	3440.59
425.302	3444.68
425.51	3536.84
425.718	3637.19
425.925	3731.4
426.133	3833.8
426.341	4054.98
426.548	4151.23
426.756	4200.38
426.964	4304.83
427.171	4491.2
427.379	4675.51
427.586	4659.13
427.794	5031.86
428.001	5081.01
428.209	5449.64
428.417	5193.65
428.624	5676.97
428.832	5496.75
429.039	5636.01
429.247	5597.1
429.454	6205.35
429.662	6453.15
429.869	6018.98
430.076	6387.61
430.284	6453.15
430.491	6494.11
430.699	7049.11
430.906	6991.77
431.114	7069.59
431.321	7497.61
431.528	7509.9
431.736	7952.26
431.943	8411.01
432.15	8073.09
432.358	8206.21
432.565	8601.47
432.772	8611.71
432.979	9254.77
433.187	9138.04
433.394	9127.8
433.601	9844.59
433.808	10086.25
434.016	9914.22
434.223	10321.76
434.43	10925.91
434.637	10592.09
434.844	11243.35
435.052	11536.21
435.259	11493.2
435.466	11562.83
435.673	11366.23
435.88	12298.05
436.087	12715.84
436.294	12703.55
436.501	12564.29
436.708	12871.48
436.915	13309.75
437.122	13774.64
437.329	13723.44
437.537	14184.23
437.743	14536.48
437.95	14315.3
438.157	15175.45
438.364	15574.8
438.571	15628.05
438.778	15712.02
438.985	17053.44
439.192	16512.77
439.399	17118.97
439.606	16705.28
439.813	17972.97
440.02	18695.91
440.227	18421.48
440.433	17956.59
440.64	18630.37
440.847	18620.13
441.054	19271.39
441.261	20375.24
441.467	20049.61
441.674	20391.62
441.881	21159.61
442.088	21171.9
442.294	20674.24
442.501	21687.99
442.708	21894.83
442.914	22638.25
443.121	23858.84
443.328	22935.2
443.534	24675.98
443.741	23936.66
443.948	23885.46
444.154	25603.71
444.361	25501.31
444.568	25429.63
444.774	25388.67
444.981	25718.39
445.187	26457.71
445.394	27571.8
445.6	27479.64
445.807	29902.39
446.013	28530.25
446.22	28986.95
446.426	30371.38
446.633	30539.31
446.839	31333.92
447.046	30010.93
447.252	31925.78
447.459	31624.73
447.665	31716.89
447.871	33199.62
448.078	35163.62
448.284	33015.3
448.491	33680.89
448.697	34719.21
448.903	35657.18
449.11	36007.39
449.316	35235.3
449.522	36005.34
449.728	36441.56
449.935	36920.78
450.141	36824.53
450.347	37512.64
450.553	36806.09
450.76	37246.41
450.966	38270.39
451.172	37918.14
451.378	38841.78
451.584	37774.78
451.791	38989.23
451.997	39019.95
452.203	39398.82
452.409	39531.94
452.615	39077.29
452.821	37854.65
453.027	37092.81
453.233	38913.45
453.44	37498.31
453.646	38063.55
453.852	38389.17
454.058	38845.87
454.264	37494.21
454.47	38380.98
454.676	37387.72
454.882	38733.23
455.088	35259.88
455.294	35984.86
455.5	36220.38
455.705	36974.03
455.911	35227.11
456.117	34366.96
456.323	33871.36
456.529	32212.5
456.735	33558.02
456.941	32763.4
457.147	32314.9
457.352	31190.56
457.558	30475.82
457.764	30799.4
457.97	30344.75
458.176	29503.04
458.381	29812.28
458.587	28128.85
458.793	28339.79
458.999	26762.86
459.204	28814.92
459.41	27629.15
459.616	26232.43
459.821	26058.35
460.027	25773.69
460.233	25323.13
460.438	24215.18
460.644	24174.22
460.85	23199.39
461.055	22791.84
461.261	22816.42
461.466	20958.91
461.672	20502.22
461.878	21790.39
462.083	20377.29
462.289	19920.59
462.494	19621.59
462.7	18960.09
462.905	18374.38
463.111	19154.65
463.316	19259.1
463.522	18702.05
463.727	18726.63
463.932	18601.7
464.138	18654.95
464.343	18554.6
464.549	17946.35
464.754	18648.8
464.959	18376.42
465.165	18474.73
465.37	17639.15
465.575	17067.77
465.781	17499.89
465.986	17972.97
466.191	17317.62
466.397	16774.91
466.602	16336.65
466.807	16566.02
467.012	16447.24
467.218	16541.44
467.423	16383.75
467.628	16416.52
467.833	17014.52
468.038	16609.03
468.244	16099.08
