Data from USB4F104151__16__12-00-26-474.txt Node

Date: Fri Mar 14 12:00:26 EDT 2025
User: louis
Spectrometer: USB4F10415
Trigger mode: 4
Integration Time (sec): 2.000000E-2
Scans to average: 1
Electric dark correction enabled: true
Nonlinearity correction enabled: false
Boxcar width: 0
XAxis mode: Wavelengths
Number of Pixels in Spectrum: 3648
>>>>>Begin Spectral Data<<<<<
178.204	-108.03
178.424	-108.03
178.644	-108.03
178.864	10.75
179.084	-69.12
179.304	-3.58
179.524	-30.21
179.744	33.28
179.964	25.09
180.184	14.85
180.404	2.56
180.624	-48.64
180.844	-11.78
181.064	39.42
181.283	-7.68
181.503	-42.5
181.723	29.18
181.943	-34.3
182.163	25.09
182.383	-40.45
182.602	86.53
182.822	4.61
183.042	-60.93
183.262	41.47
183.482	8.7
183.701	33.28
183.921	59.9
184.141	12.8
184.361	2.56
184.58	49.66
184.8	25.09
185.02	31.23
185.239	43.52
185.459	33.28
185.679	-15.87
185.898	4.61
186.118	37.38
186.338	-7.68
186.557	43.52
186.777	37.38
186.997	37.38
187.216	-73.21
187.436	111.1
187.655	-3.58
187.875	8.7
188.095	57.86
188.314	-22.02
188.534	70.14
188.753	-15.87
188.973	16.9
189.192	25.09
189.412	20.99
189.631	-34.3
189.851	45.57
190.07	20.99
190.29	-46.59
190.509	43.52
190.729	-15.87
190.948	-13.82
191.168	72.19
191.387	39.42
191.607	35.33
191.826	39.42
192.045	-67.07
192.265	-1.54
192.484	-40.45
192.704	16.9
192.923	-40.45
193.142	31.23
193.362	16.9
193.581	33.28
193.8	43.52
194.02	33.28
194.239	12.8
194.458	-5.63
194.678	16.9
194.897	0.51
195.116	2.56
195.335	-3.58
195.555	39.42
195.774	57.86
195.993	55.81
196.212	10.75
196.432	23.04
196.651	100.86
196.87	45.57
197.089	102.91
197.308	-11.78
197.528	35.33
197.747	31.23
197.966	25.09
198.185	127.49
198.404	-7.68
198.623	25.09
198.842	78.33
199.062	10.75
199.281	14.85
199.5	-52.74
199.719	-1.54
199.938	41.47
200.157	61.95
200.376	45.57
200.595	4.61
200.814	-15.87
201.033	47.62
201.252	-5.63
201.471	-34.3
201.69	20.99
201.909	31.23
202.128	23.04
202.347	100.86
202.566	45.57
202.785	33.28
203.004	-52.74
203.223	78.33
203.442	-7.68
203.661	29.18
203.879	25.09
204.098	96.77
204.317	-26.11
204.536	-30.21
204.755	-1.54
204.974	-13.82
205.193	25.09
205.411	76.29
205.63	-15.87
205.849	18.94
206.068	29.18
206.287	10.75
206.505	20.99
206.724	20.99
206.943	-50.69
207.162	51.71
207.381	74.24
207.599	102.91
207.818	-17.92
208.037	47.62
208.255	-44.54
208.474	-58.88
208.693	41.47
208.911	-28.16
209.13	53.76
209.349	90.62
209.567	8.7
209.786	16.9
210.005	39.42
210.223	47.62
210.442	-32.26
210.661	33.28
210.879	-24.06
211.098	41.47
211.316	43.52
211.535	27.14
211.753	-30.21
211.972	18.94
212.191	-5.63
212.409	14.85
212.628	-1.54
212.846	6.66
213.065	-1.54
213.283	53.76
213.502	4.61
213.72	12.8
213.938	4.61
214.157	43.52
214.375	-46.59
214.594	14.85
214.812	6.66
215.031	-36.35
215.249	70.14
215.467	-5.63
215.686	53.76
215.904	98.81
216.122	16.9
216.341	76.29
216.559	45.57
216.778	53.76
216.996	-15.87
217.214	61.95
217.432	-11.78
217.651	20.99
217.869	-11.78
218.087	74.24
218.306	8.7
218.524	6.66
218.742	-52.74
218.96	4.61
219.179	-17.92
219.397	4.61
219.615	-11.78
219.833	4.61
220.051	6.66
220.27	78.33
220.488	29.18
220.706	57.86
220.924	20.99
221.142	20.99
221.36	57.86
221.578	74.24
221.796	90.62
222.015	-54.78
222.233	59.9
222.451	18.94
222.669	152.06
222.887	16.9
223.105	37.38
223.323	72.19
223.541	-54.78
223.759	70.14
223.977	8.7
224.195	84.48
224.413	61.95
224.631	59.9
224.849	33.28
225.067	100.86
225.285	-13.82
225.503	47.62
225.721	0.51
225.939	70.14
226.157	25.09
226.375	35.33
226.592	-34.3
226.81	16.9
227.028	4.61
227.246	41.47
227.464	-28.16
227.682	-1.54
227.9	-5.63
228.117	47.62
228.335	55.81
228.553	10.75
228.771	-3.58
228.989	6.66
229.206	2.56
229.424	-9.73
229.642	-73.21
229.86	31.23
230.077	0.51
230.295	6.66
230.513	127.49
230.731	14.85
230.948	-9.73
231.166	-13.82
231.384	61.95
231.601	2.56
231.819	98.81
232.037	66.05
232.254	78.33
232.472	70.14
232.689	-9.73
232.907	53.76
233.125	23.04
233.342	-46.59
233.56	41.47
233.777	27.14
233.995	4.61
234.213	66.05
234.43	78.33
234.648	-24.06
234.865	6.66
235.083	100.86
235.3	-58.88
235.518	86.53
235.735	29.18
235.953	70.14
236.17	8.7
236.388	100.86
236.605	39.42
236.822	-30.21
237.04	25.09
237.257	113.15
237.475	-24.06
237.692	43.52
237.909	10.75
238.127	12.8
238.344	-17.92
238.562	55.81
238.779	-52.74
238.996	-40.45
239.214	-17.92
239.431	76.29
239.648	-36.35
239.865	33.28
240.083	-24.06
240.3	-3.58
240.517	0.51
240.735	43.52
240.952	55.81
241.169	2.56
241.386	20.99
241.603	20.99
241.821	-17.92
242.038	76.29
242.255	102.91
242.472	102.91
242.689	23.04
242.907	-32.26
243.124	-67.07
243.341	2.56
243.558	-34.3
243.775	20.99
243.992	29.18
244.209	41.47
244.426	27.14
244.643	18.94
244.86	41.47
245.078	-15.87
245.295	35.33
245.512	51.71
245.729	27.14
245.946	55.81
246.163	-17.92
246.38	-34.3
246.597	53.76
246.814	18.94
247.031	94.72
247.248	6.66
247.464	-17.92
247.681	-60.93
247.898	88.57
248.115	-5.63
248.332	-17.92
248.549	-34.3
248.766	41.47
248.983	29.18
249.2	0.51
249.417	23.04
249.633	53.76
249.85	-30.21
250.067	-32.26
250.284	0.51
250.501	-32.26
250.717	23.04
250.934	-7.68
251.151	66.05
251.368	-26.11
251.585	49.66
251.801	-65.02
252.018	72.19
252.235	37.38
252.451	31.23
252.668	57.86
252.885	-15.87
253.102	25.09
253.318	-22.02
253.535	6.66
253.752	-1.54
253.968	-15.87
254.185	16.9
254.401	6.66
254.618	61.95
254.835	-32.26
255.051	53.76
255.268	39.42
255.484	-46.59
255.701	25.09
255.917	90.62
256.134	-34.3
256.351	94.72
256.567	-34.3
256.784	29.18
257	-17.92
257.217	-9.73
257.433	12.8
257.65	94.72
257.866	59.9
258.082	-17.92
258.299	18.94
258.515	-5.63
258.732	-17.92
258.948	61.95
259.165	41.47
259.381	57.86
259.597	-34.3
259.814	49.66
260.03	-17.92
260.246	-1.54
260.463	14.85
260.679	-5.63
260.895	0.51
261.112	-3.58
261.328	37.38
261.544	-7.68
261.761	90.62
261.977	-19.97
262.193	47.62
262.409	68.09
262.626	35.33
262.842	84.48
263.058	-7.68
263.274	-3.58
263.49	16.9
263.707	74.24
263.923	16.9
264.139	64
264.355	6.66
264.571	16.9
264.787	16.9
265.004	-36.35
265.22	-52.74
265.436	47.62
265.652	43.52
265.868	-5.63
266.084	25.09
266.3	43.52
266.516	-46.59
266.732	78.33
266.948	33.28
267.164	23.04
267.38	59.9
267.596	51.71
267.812	66.05
268.028	45.57
268.244	43.52
268.46	4.61
268.676	59.9
268.892	111.1
269.108	2.56
269.324	6.66
269.54	-52.74
269.756	74.24
269.972	-3.58
270.188	-1.54
270.403	8.7
270.619	64
270.835	94.72
271.051	-19.97
271.267	10.75
271.483	-19.97
271.698	12.8
271.914	61.95
272.13	14.85
272.346	41.47
272.562	-5.63
272.777	64
272.993	41.47
273.209	-110.08
273.425	59.9
273.64	-38.4
273.856	29.18
274.072	8.7
274.287	47.62
274.503	74.24
274.719	25.09
274.934	-7.68
275.15	-19.97
275.366	59.9
275.581	-3.58
275.797	16.9
276.012	66.05
276.228	6.66
276.444	33.28
276.659	27.14
276.875	-11.78
277.09	-54.78
277.306	-15.87
277.521	49.66
277.737	41.47
277.952	51.71
278.168	84.48
278.383	70.14
278.599	-9.73
278.814	68.09
279.03	64
279.245	92.67
279.461	41.47
279.676	109.05
279.892	33.28
280.107	49.66
280.322	-3.58
280.538	92.67
280.753	6.66
280.969	-13.82
281.184	-32.26
281.399	78.33
281.615	-48.64
281.83	70.14
282.045	10.75
282.26	-42.5
282.476	61.95
282.691	25.09
282.906	23.04
283.122	29.18
283.337	6.66
283.552	68.09
283.767	31.23
283.983	66.05
284.198	-9.73
284.413	92.67
284.628	-3.58
284.843	-1.54
285.058	31.23
285.274	-56.83
285.489	-22.02
285.704	49.66
285.919	51.71
286.134	29.18
286.349	-17.92
286.564	-7.68
286.779	31.23
286.995	-36.35
287.21	-34.3
287.425	-3.58
287.64	61.95
287.855	41.47
288.07	-44.54
288.285	14.85
288.5	55.81
288.715	-7.68
288.93	14.85
289.145	84.48
289.36	-15.87
289.575	37.38
289.79	37.38
290.004	64
290.219	23.04
290.434	-52.74
290.649	35.33
290.864	70.14
291.079	41.47
291.294	47.62
291.509	-19.97
291.724	25.09
291.938	49.66
292.153	-13.82
292.368	6.66
292.583	68.09
292.798	-7.68
293.012	41.47
293.227	47.62
293.442	49.66
293.657	33.28
293.871	25.09
294.086	-46.59
294.301	74.24
294.516	84.48
294.73	20.99
294.945	-13.82
295.16	27.14
295.374	45.57
295.589	45.57
295.804	-75.26
296.018	2.56
296.233	98.81
296.447	31.23
296.662	27.14
296.877	76.29
297.091	-13.82
297.306	64
297.52	53.76
297.735	20.99
297.949	18.94
298.164	49.66
298.378	18.94
298.593	-13.82
298.807	-52.74
299.022	-1.54
299.236	41.47
299.451	121.34
299.665	-24.06
299.88	107.01
300.094	53.76
300.309	64
300.523	14.85
300.737	-24.06
300.952	-28.16
301.166	29.18
301.381	2.56
301.595	88.57
301.809	-32.26
302.024	16.9
302.238	-50.69
302.452	86.53
302.667	45.57
302.881	51.71
303.095	80.38
303.309	76.29
303.524	-54.78
303.738	45.57
303.952	35.33
304.166	82.43
304.381	14.85
304.595	23.04
304.809	8.7
305.023	16.9
305.237	-11.78
305.452	41.47
305.666	-1.54
305.88	-7.68
306.094	41.47
306.308	43.52
306.522	109.05
306.736	4.61
306.95	76.29
307.164	59.9
307.379	59.9
307.593	66.05
307.807	49.66
308.021	70.14
308.235	-1.54
308.449	6.66
308.663	113.15
308.877	-3.58
309.091	41.47
309.305	6.66
309.519	-42.5
309.733	16.9
309.947	39.42
310.161	41.47
310.374	78.33
310.588	64
310.802	16.9
311.016	14.85
311.23	37.38
311.444	35.33
311.658	-24.06
311.872	-65.02
312.085	12.8
312.299	39.42
312.513	139.77
312.727	10.75
312.941	33.28
313.154	72.19
313.368	14.85
313.582	90.62
313.796	66.05
314.009	-52.74
314.223	61.95
314.437	-11.78
314.651	-3.58
314.864	-46.59
315.078	-7.68
315.292	-7.68
315.505	-38.4
315.719	-1.54
315.933	-3.58
316.146	23.04
316.36	64
316.573	74.24
316.787	41.47
317.001	16.9
317.214	39.42
317.428	27.14
317.641	37.38
317.855	29.18
318.068	29.18
318.282	80.38
318.495	43.52
318.709	23.04
318.922	80.38
319.136	-9.73
319.349	64
319.563	-58.88
319.776	39.42
319.99	4.61
320.203	25.09
320.417	35.33
320.63	-3.58
320.843	96.77
321.057	16.9
321.27	51.71
321.483	18.94
321.697	96.77
321.91	82.43
322.124	96.77
322.337	66.05
322.55	6.66
322.763	12.8
322.977	29.18
323.19	14.85
323.403	57.86
323.617	-1.54
323.83	23.04
324.043	-52.74
324.256	43.52
324.469	57.86
324.683	57.86
324.896	119.29
325.109	51.71
325.322	-1.54
325.535	125.44
325.748	41.47
325.962	33.28
326.175	16.9
326.388	18.94
326.601	2.56
326.814	-5.63
327.027	51.71
327.24	53.76
327.453	14.85
327.666	18.94
327.879	33.28
328.092	-22.02
328.305	29.18
328.518	-19.97
328.731	59.9
328.944	4.61
329.157	125.44
329.37	-7.68
329.583	92.67
329.796	119.29
330.009	-7.68
330.222	84.48
330.435	43.52
330.648	-28.16
330.861	-22.02
331.073	-54.78
331.286	88.57
331.499	-13.82
331.712	23.04
331.925	47.62
332.138	53.76
332.35	8.7
332.563	37.38
332.776	39.42
332.989	-5.63
333.202	-5.63
333.414	4.61
333.627	2.56
333.84	49.66
334.053	86.53
334.265	29.18
334.478	45.57
334.691	27.14
334.903	20.99
335.116	102.91
335.329	37.38
335.541	8.7
335.754	47.62
335.966	4.61
336.179	55.81
336.392	-11.78
336.604	12.8
336.817	33.28
337.029	39.42
337.242	-28.16
337.454	25.09
337.667	133.63
337.88	45.57
338.092	-50.69
338.305	45.57
338.517	35.33
338.729	45.57
338.942	0.51
339.154	45.57
339.367	-7.68
339.579	25.09
339.792	18.94
340.004	113.15
340.217	29.18
340.429	33.28
340.641	-7.68
340.854	59.9
341.066	-3.58
341.278	72.19
341.491	90.62
341.703	35.33
341.915	-11.78
342.128	2.56
342.34	2.56
342.552	-38.4
342.764	23.04
342.977	-34.3
343.189	113.15
343.401	98.81
343.613	16.9
343.826	33.28
344.038	-19.97
344.25	-1.54
344.462	-9.73
344.674	51.71
344.886	94.72
345.099	16.9
345.311	31.23
345.523	23.04
345.735	27.14
345.947	39.42
346.159	-38.4
346.371	49.66
346.583	49.66
346.795	76.29
347.007	23.04
347.219	6.66
347.431	-15.87
347.643	-1.54
347.855	78.33
348.067	68.09
348.279	-40.45
348.491	45.57
348.703	47.62
348.915	20.99
349.127	66.05
349.339	39.42
349.551	90.62
349.763	0.51
349.975	59.9
350.187	76.29
350.399	12.8
350.61	27.14
350.822	27.14
351.034	4.61
351.246	57.86
351.458	37.38
351.669	59.9
351.881	64
352.093	102.91
352.305	57.86
352.517	8.7
352.728	35.33
352.94	53.76
353.152	16.9
353.363	88.57
353.575	31.23
353.787	12.8
353.999	-1.54
354.21	10.75
354.422	23.04
354.633	41.47
354.845	-1.54
355.057	-5.63
355.268	92.67
355.48	61.95
355.692	0.51
355.903	-5.63
356.115	37.38
356.326	53.76
356.538	76.29
356.749	-26.11
356.961	115.2
357.172	74.24
357.384	-11.78
357.595	20.99
357.807	41.47
358.018	72.19
358.23	12.8
358.441	59.9
358.653	8.7
358.864	16.9
359.075	-3.58
359.287	33.28
359.498	23.04
359.709	-40.45
359.921	41.47
360.132	14.85
360.344	37.38
360.555	-30.21
360.766	29.18
360.977	2.56
361.189	92.67
361.4	16.9
361.611	100.86
361.823	59.9
362.034	59.9
362.245	18.94
362.456	31.23
362.667	-32.26
362.879	23.04
363.09	-3.58
363.301	-48.64
363.512	33.28
363.723	59.9
363.935	-24.06
364.146	96.77
364.357	74.24
364.568	43.52
364.779	18.94
364.99	23.04
365.201	-65.02
365.412	111.1
365.623	4.61
365.834	-1.54
366.045	39.42
366.256	35.33
366.467	74.24
366.678	59.9
366.889	45.57
367.1	51.71
367.311	82.43
367.522	49.66
367.733	61.95
367.944	107.01
368.155	35.33
368.366	66.05
368.577	2.56
368.788	37.38
368.999	23.04
369.209	-28.16
369.42	51.71
369.631	119.29
369.842	47.62
370.053	72.19
370.264	88.57
370.474	51.71
370.685	61.95
370.896	57.86
371.107	2.56
371.317	-38.4
371.528	-7.68
371.739	61.95
371.95	18.94
372.16	-56.83
372.371	23.04
372.582	43.52
372.792	66.05
373.003	188.93
373.214	-15.87
373.424	45.57
373.635	129.53
373.846	33.28
374.056	25.09
374.267	78.33
374.477	0.51
374.688	-36.35
374.898	53.76
375.109	84.48
375.319	-7.68
375.53	43.52
375.74	-5.63
375.951	-32.26
376.161	94.72
376.372	-38.4
376.582	107.01
376.793	49.66
377.003	-11.78
377.214	29.18
377.424	27.14
377.635	70.14
377.845	57.86
378.055	33.28
378.266	-19.97
378.476	51.71
378.686	78.33
378.897	27.14
379.107	90.62
379.317	45.57
379.528	61.95
379.738	84.48
379.948	12.8
380.158	45.57
380.369	90.62
380.579	84.48
380.789	-24.06
380.999	41.47
381.21	8.7
381.42	53.76
381.63	33.28
381.84	45.57
382.05	35.33
382.261	29.18
382.471	31.23
382.681	31.23
382.891	76.29
383.101	-15.87
383.311	-48.64
383.521	-110.08
383.731	27.14
383.941	45.57
384.151	53.76
384.361	47.62
384.571	51.71
384.781	27.14
384.991	41.47
385.201	90.62
385.411	59.9
385.621	111.1
385.831	-28.16
386.041	29.18
386.251	55.81
386.461	121.34
386.671	-17.92
386.881	70.14
387.091	100.86
387.301	55.81
387.511	33.28
387.72	14.85
387.93	76.29
388.14	12.8
388.35	-11.78
388.56	37.38
388.769	45.57
388.979	68.09
389.189	18.94
389.399	55.81
389.609	55.81
389.818	45.57
390.028	64
390.238	84.48
390.447	20.99
390.657	84.48
390.867	8.7
391.076	55.81
391.286	82.43
391.496	135.68
391.705	109.05
391.915	74.24
392.125	43.52
392.334	-22.02
392.544	80.38
392.753	37.38
392.963	25.09
393.172	98.81
393.382	-26.11
393.591	47.62
393.801	49.66
394.01	74.24
394.22	-5.63
394.429	66.05
394.639	55.81
394.848	64
395.058	41.47
395.267	70.14
395.477	102.91
395.686	107.01
395.895	78.33
396.105	127.49
396.314	121.34
396.524	-19.97
396.733	33.28
396.942	82.43
397.152	119.29
397.361	96.77
397.57	74.24
397.78	143.87
397.989	29.18
398.198	119.29
398.407	76.29
398.617	129.53
398.826	66.05
399.035	82.43
399.244	82.43
399.453	92.67
399.663	133.63
399.872	125.44
400.081	90.62
400.29	109.05
400.499	47.62
400.708	170.49
400.917	88.57
401.127	158.21
401.336	143.87
401.545	123.39
401.754	31.23
401.963	68.09
402.172	143.87
402.381	94.72
402.59	100.86
402.799	59.9
403.008	152.06
403.217	104.96
403.426	72.19
403.635	45.57
403.844	100.86
404.053	86.53
404.262	127.49
404.471	188.93
404.68	162.3
404.888	147.97
405.097	121.34
405.306	152.06
405.515	170.49
405.724	111.1
405.933	162.3
406.142	156.16
406.35	238.08
406.559	160.25
406.768	211.45
406.977	166.4
407.185	143.87
407.394	250.36
407.603	158.21
407.812	180.73
408.02	242.17
408.229	219.64
408.438	254.46
408.646	215.55
408.855	240.12
409.064	197.12
409.272	201.21
409.481	262.65
409.69	250.36
409.898	270.84
410.107	276.99
410.315	268.8
410.524	322.04
410.733	297.47
410.941	272.89
411.15	340.47
411.358	342.52
411.567	354.81
411.775	393.72
411.984	434.68
412.192	395.77
412.401	479.74
412.609	369.15
412.818	483.83
413.026	502.26
413.234	571.9
413.443	590.33
413.651	559.61
413.86	524.79
414.068	535.03
414.276	619
414.485	580.09
414.693	614.9
414.901	696.82
415.11	590.33
415.318	616.95
415.526	702.97
415.734	733.68
415.943	694.77
416.151	768.5
416.359	715.25
416.567	778.74
416.776	899.57
416.984	903.67
417.192	965.11
417.4	956.91
417.608	885.23
417.817	991.73
418.025	1024.5
418.233	1149.42
418.441	942.58
418.649	1085.94
418.857	1159.66
419.065	1231.34
419.273	1143.28
419.481	1333.74
419.689	1335.79
419.897	1397.23
420.105	1507.82
420.313	1499.63
420.521	1690.09
420.729	1554.92
420.937	1550.82
421.145	1653.22
421.353	1829.35
421.561	1903.07
421.769	1888.74
421.977	1972.71
422.185	1991.14
422.393	2077.15
422.601	2175.45
422.809	2265.57
423.017	2339.29
423.224	2386.4
423.432	2406.88
423.64	2433.5
423.848	2628.06
424.056	2560.47
424.263	2789.85
424.471	2703.83
424.679	2757.08
424.887	2947.54
425.094	3037.65
425.302	3115.47
425.51	3162.58
425.718	3142.1
425.925	3328.46
426.133	3316.17
426.341	3645.9
426.548	3693
426.756	3852.74
426.964	3666.38
427.171	4059.59
427.379	4149.7
427.586	4196.8
427.794	4426.17
428.001	4557.24
428.209	4655.54
428.417	4710.84
428.624	4913.59
428.832	4929.97
429.039	4913.59
429.247	4938.16
429.454	5235.12
429.662	5759.4
429.869	5470.64
430.076	5908.9
430.284	5613.99
430.491	5824.94
430.699	6214.05
430.906	6218.15
431.114	6406.56
431.321	6631.83
431.528	6904.21
431.736	7135.64
431.943	7354.77
432.15	7225.75
432.358	7221.65
432.565	7707.02
432.772	7817.61
432.979	8229.25
433.187	8223.11
433.394	8343.94
433.601	8915.32
433.808	8862.07
434.016	8753.53
434.223	9210.23
434.43	9781.61
434.637	9623.92
434.844	10232.16
435.052	10404.19
435.259	10176.87
435.466	10371.43
435.673	10260.84
435.88	10924.38
436.087	11551.06
436.294	11614.54
436.501	11231.57
436.708	11581.78
436.915	11827.53
437.122	12491.07
437.329	12468.55
437.537	12775.74
437.743	13199.67
437.95	12988.73
438.157	13668.66
438.364	14027.05
438.571	13938.99
438.778	13914.41
438.985	15507.73
439.192	15104.28
439.399	15493.4
439.606	14913.82
439.813	15876.37
440.02	16687.36
440.227	16599.3
440.433	16429.32
440.64	17137.91
440.847	16820.48
441.054	17373.43
441.261	18346.22
441.467	18219.24
441.674	18596.07
441.881	19300.57
442.088	19116.25
442.294	18897.12
442.501	19376.34
442.708	19947.73
442.914	20943.04
443.121	21514.42
443.328	20977.86
443.534	22716.58
443.741	21883.06
443.948	21223.61
444.154	23306.4
444.361	22751.4
444.568	22970.53
444.774	23226.53
444.981	23560.34
445.187	24191.12
445.394	25196.67
445.6	24778.89
445.807	27015.27
446.013	26200.18
446.22	26476.65
446.426	27723.86
446.633	27822.17
446.839	29081.67
447.046	27355.23
447.252	28993.61
447.459	28958.79
447.665	28948.55
447.871	30359.6
448.078	31270.95
448.284	29841.46
448.491	30588.97
448.697	32170.01
448.903	32866.31
449.11	33019.91
449.316	32432.15
449.522	32440.34
449.728	33449.99
449.935	33765.37
450.141	33771.52
450.347	34537.46
450.553	33605.63
450.76	33966.07
450.966	34959.34
451.172	34758.64
451.378	35723.23
451.584	34740.21
451.791	35323.88
451.997	35323.88
452.203	35968.99
452.409	36181.98
452.615	35686.37
452.821	34502.64
453.027	34146.29
453.233	35833.82
453.44	34453.49
453.646	34926.57
453.852	34891.76
454.058	35964.89
454.264	34201.59
454.47	35104.74
454.676	34334.71
454.882	35383.27
455.088	32417.81
455.294	32917.51
455.5	33118.21
455.705	33710.08
455.911	32208.92
456.117	31459.36
456.323	31238.18
456.529	29425.73
456.735	30642.22
456.941	29732.92
457.147	29376.58
457.352	28473.42
457.558	28039.25
457.764	28098.64
457.97	27557.98
458.176	26912.87
458.381	26849.38
458.587	25829.49
458.793	25538.68
458.999	24346.76
459.204	25999.48
459.41	25395.32
459.616	23566.49
459.821	23597.21
460.027	23308.44
460.233	23054.5
460.438	21889.2
460.644	22137.01
460.85	20938.94
461.055	20781.25
461.261	20832.45
461.466	19235.03
461.672	18645.22
461.878	19943.63
462.083	18596.07
462.289	18305.26
462.494	18198.76
462.7	17234.17
462.905	16748.8
463.111	17414.39
463.316	17398.01
463.522	16873.73
463.727	17369.33
463.932	17092.86
464.138	16814.34
464.343	17156.35
464.549	16632.07
464.754	17152.25
464.959	16996.6
465.165	16746.75
465.37	16150.79
465.575	15728.91
465.781	16177.42
465.986	16296.2
466.191	15798.54
466.397	15569.17
466.602	14862.62
466.807	15345.94
467.012	15081.75
467.218	15178.01
467.423	14809.37
467.628	15182.1
467.833	15538.45
