Data from USB4F104151__20__12-00-28-334.txt Node

Date: Fri Mar 14 12:00:28 EDT 2025
User: louis
Spectrometer: USB4F10415
Trigger mode: 4
Integration Time (sec): 2.000000E-2
Scans to average: 1
Electric dark correction enabled: true
Nonlinearity correction enabled: false
Boxcar width: 0
XAxis mode: Wavelengths
Number of Pixels in Spectrum: 3648
>>>>>Begin Spectral Data<<<<<
178.204	-85.16
178.424	-85.16
178.644	-85.16
178.864	-89.26
179.084	-144.55
179.304	-38.06
179.524	23.38
179.744	-15.53
179.964	93.01
180.184	-15.53
180.404	-15.53
180.624	95.06
180.844	-15.53
181.064	-40.11
181.283	7
181.503	-101.55
181.723	23.38
181.943	-50.35
182.163	103.25
182.383	54.1
182.602	58.2
182.822	11.09
183.042	9.05
183.262	9.05
183.482	35.67
183.701	0.85
183.921	2.9
184.141	-31.91
184.361	4.95
184.58	86.87
184.8	50
185.02	39.76
185.239	95.06
185.459	31.57
185.679	76.63
185.898	15.19
186.118	4.95
186.338	-40.11
186.557	4.95
186.777	-3.24
186.997	2.9
187.216	13.14
187.436	21.33
187.655	43.86
187.875	7
188.095	103.25
188.314	39.76
188.534	39.76
188.753	-11.43
188.973	47.96
189.192	76.63
189.412	74.58
189.631	15.19
189.851	-13.48
190.07	88.92
190.29	-62.63
190.509	-3.24
190.729	19.29
190.948	52.05
191.168	68.44
191.387	-11.43
191.607	9.05
191.826	-7.34
192.045	-1.19
192.265	50
192.484	-23.72
192.704	-7.34
192.923	-33.96
193.142	95.06
193.362	43.86
193.581	50
193.8	-3.24
194.02	70.48
194.239	7
194.458	17.24
194.678	-70.83
194.897	45.91
195.116	-1.19
195.335	-3.24
195.555	9.05
195.774	45.91
195.993	68.44
196.212	11.09
196.432	31.57
196.651	17.24
196.87	23.38
197.089	41.81
197.308	-1.19
197.528	23.38
197.747	4.95
197.966	19.29
198.185	70.48
198.404	37.72
198.623	-25.77
198.842	-33.96
199.062	70.48
199.281	64.34
199.5	-11.43
199.719	86.87
199.938	43.86
200.157	35.67
200.376	15.19
200.595	50
200.814	25.43
201.033	84.82
201.252	72.53
201.471	-17.58
201.69	31.57
201.909	-29.87
202.128	52.05
202.347	0.85
202.566	-11.43
202.785	43.86
203.004	-3.24
203.223	47.96
203.442	2.9
203.661	76.63
203.879	-27.82
204.098	93.01
204.317	-33.96
204.536	-17.58
204.755	27.48
204.974	31.57
205.193	2.9
205.411	72.53
205.63	15.19
205.849	-19.63
206.068	-52.39
206.287	37.72
206.505	41.81
206.724	11.09
206.943	54.1
207.162	-9.39
207.381	39.76
207.599	-33.96
207.818	78.68
208.037	58.2
208.255	0.85
208.474	29.52
208.693	70.48
208.911	7
209.13	33.62
209.349	-5.29
209.567	41.81
209.786	62.29
210.005	41.81
210.223	25.43
210.442	29.52
210.661	-17.58
210.879	66.39
211.098	-1.19
211.316	4.95
211.535	111.44
211.753	-48.3
211.972	60.24
212.191	19.29
212.409	50
212.628	-21.67
212.846	86.87
213.065	-13.48
213.283	-25.77
213.502	-11.43
213.72	50
213.938	64.34
214.157	27.48
214.375	74.58
214.594	43.86
214.812	27.48
215.031	17.24
215.249	-21.67
215.467	29.52
215.686	80.72
215.904	107.35
216.122	78.68
216.341	95.06
216.559	-29.87
216.778	29.52
216.996	95.06
217.214	66.39
217.432	23.38
217.651	-11.43
217.869	78.68
218.087	21.33
218.306	66.39
218.524	21.33
218.742	-3.24
218.96	131.92
219.179	-42.15
219.397	27.48
219.615	70.48
219.833	84.82
220.051	7
220.27	80.72
220.488	64.34
220.706	19.29
220.924	78.68
221.142	-3.24
221.36	7
221.578	45.91
221.796	21.33
222.015	11.09
222.233	80.72
222.451	43.86
222.669	25.43
222.887	21.33
223.105	4.95
223.323	62.29
223.541	52.05
223.759	35.67
223.977	78.68
224.195	25.43
224.413	31.57
224.631	-44.2
224.849	47.96
225.067	93.01
225.285	-1.19
225.503	50
225.721	7
225.939	21.33
226.157	31.57
226.375	146.26
226.592	11.09
226.81	35.67
227.028	-13.48
227.246	78.68
227.464	54.1
227.682	66.39
227.9	97.11
228.117	7
228.335	11.09
228.553	13.14
228.771	97.11
228.989	45.91
229.206	97.11
229.424	7
229.642	39.76
229.86	31.57
230.077	70.48
230.295	58.2
230.513	72.53
230.731	-25.77
230.948	15.19
231.166	72.53
231.384	21.33
231.601	13.14
231.819	17.24
232.037	-9.39
232.254	0.85
232.472	-21.67
232.689	97.11
232.907	74.58
233.125	62.29
233.342	47.96
233.56	-19.63
233.777	19.29
233.995	19.29
234.213	39.76
234.43	-11.43
234.648	4.95
234.865	31.57
235.083	60.24
235.3	-3.24
235.518	2.9
235.735	41.81
235.953	37.72
236.17	60.24
236.388	-3.24
236.605	70.48
236.822	58.2
237.04	-1.19
237.257	31.57
237.475	-11.43
237.692	-40.11
237.909	54.1
238.127	13.14
238.344	50
238.562	7
238.779	27.48
238.996	62.29
239.214	-19.63
239.431	74.58
239.648	86.87
239.865	58.2
240.083	31.57
240.3	60.24
240.517	-7.34
240.735	33.62
240.952	54.1
241.169	41.81
241.386	43.86
241.603	4.95
241.821	-5.29
242.038	29.52
242.255	27.48
242.472	64.34
242.689	50
242.907	43.86
243.124	56.15
243.341	54.1
243.558	33.62
243.775	29.52
243.992	-52.39
244.209	29.52
244.426	-25.77
244.643	45.91
244.86	54.1
245.078	29.52
245.295	-23.72
245.512	-5.29
245.729	0.85
245.946	68.44
246.163	64.34
246.38	31.57
246.597	70.48
246.814	33.62
247.031	54.1
247.248	58.2
247.464	13.14
247.681	-17.58
247.898	-31.91
248.115	52.05
248.332	7
248.549	64.34
248.766	21.33
248.983	50
249.2	58.2
249.417	17.24
249.633	7
249.85	88.92
250.067	93.01
250.284	37.72
250.501	62.29
250.717	19.29
250.934	78.68
251.151	56.15
251.368	99.16
251.585	15.19
251.801	-11.43
252.018	54.1
252.235	58.2
252.451	45.91
252.668	29.52
252.885	21.33
253.102	-27.82
253.318	4.95
253.535	-72.87
253.752	-23.72
253.968	54.1
254.185	37.72
254.401	-17.58
254.618	60.24
254.835	39.76
255.051	140.12
255.268	23.38
255.484	4.95
255.701	4.95
255.917	23.38
256.134	-3.24
256.351	15.19
256.567	-11.43
256.784	33.62
257	68.44
257.217	76.63
257.433	21.33
257.65	-19.63
257.866	45.91
258.082	31.57
258.299	29.52
258.515	-21.67
258.732	35.67
258.948	-21.67
259.165	45.91
259.381	-40.11
259.597	47.96
259.814	2.9
260.03	-50.35
260.246	23.38
260.463	-5.29
260.679	88.92
260.895	50
261.112	76.63
261.328	41.81
261.544	-27.82
261.761	56.15
261.977	78.68
262.193	62.29
262.409	19.29
262.626	-1.19
262.842	64.34
263.058	-13.48
263.274	56.15
263.49	60.24
263.707	15.19
263.923	41.81
264.139	31.57
264.355	-9.39
264.571	15.19
264.787	-38.06
265.004	66.39
265.22	-40.11
265.436	45.91
265.652	25.43
265.868	43.86
266.084	-58.54
266.3	-13.48
266.516	-25.77
266.732	-5.29
266.948	41.81
267.164	45.91
267.38	70.48
267.596	37.72
267.812	109.4
268.028	-29.87
268.244	-52.39
268.46	76.63
268.676	-46.25
268.892	82.77
269.108	21.33
269.324	-27.82
269.54	21.33
269.756	43.86
269.972	-44.2
270.188	29.52
270.403	0.85
270.619	86.87
270.835	41.81
271.051	74.58
271.267	-9.39
271.483	-36.01
271.698	-17.58
271.914	47.96
272.13	0.85
272.346	66.39
272.562	-13.48
272.777	23.38
272.993	47.96
273.209	93.01
273.425	76.63
273.64	-44.2
273.856	50
274.072	50
274.287	2.9
274.503	70.48
274.719	11.09
274.934	-36.01
275.15	-42.15
275.366	19.29
275.581	-1.19
275.797	39.76
276.012	17.24
276.228	15.19
276.444	-19.63
276.659	43.86
276.875	27.48
277.09	47.96
277.306	2.9
277.521	35.67
277.737	45.91
277.952	58.2
278.168	39.76
278.383	-19.63
278.599	43.86
278.814	72.53
279.03	2.9
279.245	0.85
279.461	11.09
279.676	50
279.892	11.09
280.107	21.33
280.322	2.9
280.538	47.96
280.753	66.39
280.969	29.52
281.184	29.52
281.399	78.68
281.615	-7.34
281.83	0.85
282.045	-36.01
282.26	39.76
282.476	-11.43
282.691	88.92
282.906	0.85
283.122	52.05
283.337	15.19
283.552	54.1
283.767	-50.35
283.983	21.33
284.198	-62.63
284.413	29.52
284.628	-21.67
284.843	52.05
285.058	29.52
285.274	29.52
285.489	31.57
285.704	11.09
285.919	31.57
286.134	54.1
286.349	-7.34
286.564	21.33
286.779	0.85
286.995	54.1
287.21	54.1
287.425	66.39
287.64	-29.87
287.855	-21.67
288.07	54.1
288.285	60.24
288.5	54.1
288.715	29.52
288.93	37.72
289.145	35.67
289.36	29.52
289.575	64.34
289.79	0.85
290.004	86.87
290.219	72.53
290.434	31.57
290.649	-11.43
290.864	4.95
291.079	-31.91
291.294	113.49
291.509	-25.77
291.724	74.58
291.938	17.24
292.153	35.67
292.368	21.33
292.583	23.38
292.798	4.95
293.012	80.72
293.227	-13.48
293.442	31.57
293.657	2.9
293.871	52.05
294.086	25.43
294.301	58.2
294.516	4.95
294.73	27.48
294.945	-38.06
295.16	15.19
295.374	31.57
295.589	54.1
295.804	131.92
296.018	62.29
296.233	-13.48
296.447	39.76
296.662	37.72
296.877	121.68
297.091	97.11
297.306	0.85
297.52	19.29
297.735	-21.67
297.949	0.85
298.164	45.91
298.378	19.29
298.593	-3.24
298.807	0.85
299.022	82.77
299.236	25.43
299.451	41.81
299.665	47.96
299.88	54.1
300.094	37.72
300.309	-11.43
300.523	-27.82
300.737	60.24
300.952	41.81
301.166	56.15
301.381	-9.39
301.595	95.06
301.809	2.9
302.024	54.1
302.238	-7.34
302.452	84.82
302.667	84.82
302.881	35.67
303.095	15.19
303.309	-25.77
303.524	0.85
303.738	70.48
303.952	31.57
304.166	-42.15
304.381	-9.39
304.595	39.76
304.809	4.95
305.023	119.64
305.237	-27.82
305.452	21.33
305.666	35.67
305.88	78.68
306.094	35.67
306.308	74.58
306.522	133.97
306.736	19.29
306.95	68.44
307.164	78.68
307.379	9.05
307.593	15.19
307.807	33.62
308.021	54.1
308.235	82.77
308.449	37.72
308.663	9.05
308.877	41.81
309.091	84.82
309.305	2.9
309.519	64.34
309.733	99.16
309.947	37.72
310.161	2.9
310.374	-7.34
310.588	86.87
310.802	11.09
311.016	4.95
311.23	-1.19
311.444	9.05
311.658	90.96
311.872	-46.25
312.085	39.76
312.299	-31.91
312.513	82.77
312.727	58.2
312.941	21.33
313.154	74.58
313.368	4.95
313.582	29.52
313.796	97.11
314.009	54.1
314.223	7
314.437	-21.67
314.651	35.67
314.864	62.29
315.078	-5.29
315.292	43.86
315.505	-19.63
315.719	47.96
315.933	93.01
316.146	41.81
316.36	-23.72
316.573	21.33
316.787	88.92
317.001	31.57
317.214	68.44
317.428	35.67
317.641	80.72
317.855	21.33
318.068	43.86
318.282	41.81
318.495	31.57
318.709	-3.24
318.922	11.09
319.136	17.24
319.349	70.48
319.563	50
319.776	50
319.99	74.58
320.203	47.96
320.417	-23.72
320.63	82.77
320.843	58.2
321.057	31.57
321.27	43.86
321.483	47.96
321.697	76.63
321.91	70.48
322.124	70.48
322.337	31.57
322.55	-15.53
322.763	64.34
322.977	99.16
323.19	-13.48
323.403	64.34
323.617	39.76
323.83	66.39
324.043	37.72
324.256	88.92
324.469	-33.96
324.683	107.35
324.896	76.63
325.109	-17.58
325.322	-3.24
325.535	41.81
325.748	56.15
325.962	21.33
326.175	70.48
326.388	4.95
326.601	68.44
326.814	72.53
327.027	60.24
327.24	101.2
327.453	35.67
327.666	25.43
327.879	47.96
328.092	19.29
328.305	88.92
328.518	27.48
328.731	74.58
328.944	64.34
329.157	90.96
329.37	52.05
329.583	-1.19
329.796	23.38
330.009	23.38
330.222	60.24
330.435	-54.44
330.648	41.81
330.861	-48.3
331.073	41.81
331.286	62.29
331.499	35.67
331.712	2.9
331.925	95.06
332.138	41.81
332.35	52.05
332.563	27.48
332.776	64.34
332.989	52.05
333.202	37.72
333.414	-7.34
333.627	76.63
333.84	25.43
334.053	-1.19
334.265	54.1
334.478	64.34
334.691	70.48
334.903	72.53
335.116	15.19
335.329	-3.24
335.541	62.29
335.754	93.01
335.966	54.1
336.179	43.86
336.392	17.24
336.604	72.53
336.817	52.05
337.029	-17.58
337.242	117.59
337.454	117.59
337.667	-44.2
337.88	136.02
338.092	88.92
338.305	113.49
338.517	31.57
338.729	66.39
338.942	88.92
339.154	68.44
339.367	-1.19
339.579	37.72
339.792	-1.19
340.004	62.29
340.217	11.09
340.429	25.43
340.641	29.52
340.854	-7.34
341.066	23.38
341.278	103.25
341.491	60.24
341.703	45.91
341.915	41.81
342.128	50
342.34	84.82
342.552	9.05
342.764	25.43
342.977	80.72
343.189	62.29
343.401	35.67
343.613	31.57
343.826	60.24
344.038	23.38
344.25	119.64
344.462	45.91
344.674	13.14
344.886	43.86
345.099	117.59
345.311	-3.24
345.523	72.53
345.735	25.43
345.947	-3.24
346.159	58.2
346.371	33.62
346.583	37.72
346.795	68.44
347.007	62.29
347.219	15.19
347.431	37.72
347.643	123.73
347.855	23.38
348.067	58.2
348.279	-15.53
348.491	52.05
348.703	-11.43
348.915	23.38
349.127	27.48
349.339	70.48
349.551	-58.54
349.763	66.39
349.975	-33.96
350.187	54.1
350.399	121.68
350.61	31.57
350.822	-42.15
351.034	17.24
351.246	4.95
351.458	50
351.669	37.72
351.881	27.48
352.093	144.21
352.305	60.24
352.517	37.72
352.728	52.05
352.94	47.96
353.152	-11.43
353.363	11.09
353.575	21.33
353.787	52.05
353.999	62.29
354.21	-27.82
354.422	15.19
354.633	-15.53
354.845	88.92
355.057	37.72
355.268	78.68
355.48	56.15
355.692	66.39
355.903	88.92
356.115	50
356.326	-17.58
356.538	117.59
356.749	31.57
356.961	52.05
357.172	72.53
357.384	9.05
357.595	93.01
357.807	47.96
358.018	35.67
358.23	35.67
358.441	52.05
358.653	-33.96
358.864	31.57
359.075	4.95
359.287	15.19
359.498	86.87
359.709	72.53
359.921	70.48
360.132	54.1
360.344	35.67
360.555	56.15
360.766	70.48
360.977	37.72
361.189	35.67
361.4	117.59
361.611	76.63
361.823	78.68
362.034	21.33
362.245	90.96
362.456	29.52
362.667	-7.34
362.879	4.95
363.09	50
363.301	39.76
363.512	60.24
363.723	7
363.935	31.57
364.146	103.25
364.357	113.49
364.568	9.05
364.779	-3.24
364.99	115.54
365.201	74.58
365.412	72.53
365.623	-87.21
365.834	-1.19
366.045	-44.2
366.256	111.44
366.467	111.44
366.678	-25.77
366.889	50
367.1	25.43
367.311	88.92
367.522	27.48
367.733	27.48
367.944	129.88
368.155	82.77
368.366	37.72
368.577	29.52
368.788	0.85
368.999	21.33
369.209	86.87
369.42	93.01
369.631	80.72
369.842	2.9
370.053	54.1
370.264	15.19
370.474	31.57
370.685	154.45
370.896	-21.67
371.107	58.2
371.317	129.88
371.528	-42.15
371.739	119.64
371.95	60.24
372.16	21.33
372.371	101.2
372.582	56.15
372.792	45.91
373.003	70.48
373.214	4.95
373.424	33.62
373.635	-9.39
373.846	9.05
374.056	13.14
374.267	37.72
374.477	60.24
374.688	4.95
374.898	15.19
375.109	19.29
375.319	19.29
375.53	76.63
375.74	9.05
375.951	90.96
376.161	-3.24
376.372	47.96
376.582	-13.48
376.793	37.72
377.003	-23.72
377.214	47.96
377.424	43.86
377.635	47.96
377.845	82.77
378.055	62.29
378.266	33.62
378.476	47.96
378.686	-9.39
378.897	101.2
379.107	54.1
379.317	33.62
379.528	45.91
379.738	105.3
379.948	70.48
380.158	127.83
380.369	54.1
380.579	56.15
380.789	68.44
380.999	93.01
381.21	74.58
381.42	78.68
381.63	56.15
381.84	88.92
382.05	35.67
382.261	70.48
382.471	78.68
382.681	17.24
382.891	82.77
383.101	95.06
383.311	2.9
383.521	-46.25
383.731	66.39
383.941	54.1
384.151	121.68
384.361	11.09
384.571	41.81
384.781	82.77
384.991	97.11
385.201	95.06
385.411	127.83
385.621	60.24
385.831	35.67
386.041	50
386.251	60.24
386.461	43.86
386.671	-9.39
386.881	101.2
387.091	95.06
387.301	115.54
387.511	109.4
387.72	121.68
387.93	11.09
388.14	-5.29
388.35	97.11
388.56	50
388.769	64.34
388.979	125.78
389.189	15.19
389.399	107.35
389.609	58.2
389.818	23.38
390.028	121.68
390.238	54.1
390.447	23.38
390.657	117.59
390.867	50
391.076	39.76
391.286	-1.19
391.496	31.57
391.705	39.76
391.915	66.39
392.125	33.62
392.334	54.1
392.544	136.02
392.753	68.44
392.963	4.95
393.172	50
393.382	37.72
393.591	123.73
393.801	21.33
394.01	29.52
394.22	166.74
394.429	9.05
394.639	88.92
394.848	52.05
395.058	66.39
395.267	109.4
395.477	148.31
395.686	95.06
395.895	86.87
396.105	68.44
396.314	119.64
396.524	103.25
396.733	33.62
396.942	80.72
397.152	58.2
397.361	150.36
397.57	154.45
397.78	84.82
397.989	136.02
398.198	158.55
398.407	37.72
398.617	103.25
398.826	105.3
399.035	119.64
399.244	117.59
399.453	95.06
399.663	125.78
399.872	72.53
400.081	146.26
400.29	150.36
400.499	-5.29
400.708	127.83
400.917	84.82
401.127	109.4
401.336	78.68
401.545	117.59
401.754	82.77
401.963	76.63
402.172	82.77
402.381	121.68
402.59	164.69
402.799	144.21
403.008	90.96
403.217	144.21
403.426	129.88
403.635	162.64
403.844	62.29
404.053	129.88
404.262	99.16
404.471	174.93
404.68	101.2
404.888	168.79
405.097	64.34
405.306	179.03
405.515	207.7
405.724	152.4
405.933	164.69
406.142	156.5
406.35	191.31
406.559	162.64
406.768	170.83
406.977	197.46
407.185	201.55
407.394	203.6
407.603	222.03
407.812	154.45
408.02	242.51
408.229	219.99
408.438	154.45
408.646	166.74
408.855	271.19
409.064	312.14
409.272	168.79
409.481	267.09
409.69	334.67
409.898	244.56
410.107	322.38
410.315	353.1
410.524	387.92
410.733	265.04
410.941	351.06
411.15	381.78
411.358	316.24
411.567	418.64
411.775	400.21
411.984	416.59
412.192	383.82
412.401	439.12
412.609	387.92
412.818	486.22
413.026	545.61
413.234	420.69
413.443	478.03
413.651	469.84
413.86	484.17
414.068	594.76
414.276	678.73
414.485	652.11
414.693	662.35
414.901	682.83
415.11	709.45
415.318	723.79
415.526	742.22
415.734	727.88
415.943	723.79
416.151	799.56
416.359	764.75
416.567	791.37
416.776	924.49
416.984	877.38
417.192	906.06
417.4	934.73
417.608	1030.98
417.817	1039.17
418.025	1088.32
418.233	1061.7
418.441	1094.47
418.649	1143.62
418.857	1205.06
419.065	1239.87
419.273	1278.79
419.481	1289.03
419.689	1356.61
419.897	1469.25
420.105	1440.58
420.313	1514.3
420.521	1520.45
420.729	1567.55
420.937	1631.04
421.145	1684.28
421.353	1872.7
421.561	1817.4
421.769	1882.94
421.977	2026.29
422.185	1956.66
422.393	2136.88
422.601	2016.05
422.809	2222.9
423.017	2263.86
423.224	2333.49
423.432	2310.96
423.64	2513.71
423.848	2607.92
424.056	2577.2
424.263	2736.94
424.471	2661.16
424.679	2751.28
424.887	2911.02
425.094	3021.61
425.302	3029.8
425.51	3220.26
425.718	3296.04
425.925	3283.75
426.133	3576.61
426.341	3541.79
426.548	3818.27
426.756	3951.39
426.964	3894.04
427.171	4102.93
427.379	4137.75
427.586	4264.72
427.794	4371.22
428.001	4633.36
428.209	4870.92
428.417	4713.23
428.624	5094.15
428.832	4971.27
429.039	4905.74
429.247	5034.76
429.454	5579.52
429.662	5839.61
429.869	5384.96
430.076	5927.67
430.284	5753.6
430.491	5999.35
430.699	6218.49
430.906	6290.17
431.114	6415.09
431.321	6593.26
431.528	6791.92
431.736	7250.66
431.943	7508.71
432.15	7246.57
432.358	7344.87
432.565	7738.08
432.772	7820
432.979	8176.34
433.187	8368.85
433.394	8418
433.601	8997.58
433.808	9067.21
434.016	8962.76
434.223	9495.24
434.43	9857.73
434.637	9704.13
434.844	10232.51
435.052	10363.58
435.259	10468.02
435.466	10562.23
435.673	10414.77
435.88	11166.38
436.087	11885.22
436.294	11907.74
436.501	11342.5
436.708	11809.44
436.915	12376.73
437.122	12475.03
437.329	12724.88
437.537	12989.07
437.743	13142.67
437.95	13081.23
438.157	13855.36
438.364	14353.02
438.571	14129.79
438.778	14277.24
438.985	15725.16
439.192	14869.11
439.399	15436.39
439.606	15374.95
439.813	16300.64
440.02	17058.39
440.227	16566.87
440.433	16370.27
440.64	17123.92
440.847	16968.27
441.054	17414.73
441.261	18483.77
441.467	18403.9
441.674	18758.2
441.881	19501.61
442.088	19270.19
442.294	19257.9
442.501	20206.11
442.708	20275.74
442.914	20994.58
443.121	21883.4
443.328	21252.63
443.534	22460.93
443.741	22030.85
443.948	21914.12
444.154	23622.12
444.361	22981.11
444.568	23654.89
444.774	23454.19
444.981	23808.49
445.187	24302.05
445.394	25366.99
445.6	25170.39
445.807	27646.38
446.013	26460.61
446.22	26982.84
446.426	28211.62
446.633	28221.86
446.839	29159.83
447.046	28051.88
447.252	29505.94
447.459	29479.32
447.665	29514.13
447.871	30808.45
448.078	32354.66
448.284	30464.39
448.491	31353.21
448.697	32534.88
448.903	32754.02
449.11	32962.91
449.316	32651.62
449.522	32932.19
449.728	33978.7
449.935	34244.94
450.141	34011.47
450.347	35244.35
450.553	34160.97
450.76	34646.34
450.966	35582.26
451.172	35125.57
451.378	35981.62
451.584	35248.44
451.791	36075.82
451.997	35858.74
452.203	36456.75
452.409	36473.13
452.615	36364.59
452.821	35111.23
453.027	34775.36
453.233	36430.12
453.44	34941.25
453.646	35410.23
453.852	35367.23
454.058	36135.21
454.264	34691.4
454.47	35969.33
454.676	34574.66
454.882	35989.81
455.088	32950.62
455.294	33270.11
455.5	33573.21
455.705	34152.78
455.911	32538.98
456.117	31711.6
456.323	31486.32
456.529	30089.61
456.735	31261.05
456.941	30448
457.147	29634.96
457.352	28914.08
457.558	28285.35
457.764	28672.42
457.97	27902.38
458.176	27271.61
458.381	27300.28
458.587	26292.68
458.793	26231.24
458.999	24650.21
459.204	26425.79
459.41	25631.18
459.616	24027.62
459.821	23988.71
460.027	24039.91
460.233	23423.47
460.438	22112.77
460.644	22602.24
460.85	21631.5
461.055	21180.95
461.261	20810.26
461.466	19495.47
461.672	18676.28
461.878	20154.91
462.083	19055.15
462.289	18555.45
462.494	18627.13
462.7	17705.54
462.905	17398.35
463.111	17658.44
463.316	17666.63
463.522	17236.56
463.727	17345.1
463.932	17312.33
464.138	17254.99
464.343	17324.62
464.549	16786.01
464.754	17384.01
464.959	17097.3
465.165	16902.74
465.37	16263.77
465.575	15778.4
465.781	16632.41
465.986	16581.21
466.191	15909.47
466.397	15747.69
466.602	15041.14
466.807	15569.51
467.012	15465.07
467.218	15415.91
467.423	15155.82
467.628	15403.63
467.833	15897.19
468.038	15385.19
468.244	14856.82
468.449	15307.37
468.654	14758.52
468.859	14885.49
469.064	14805.62
