Data from USB4F104151__33__12-00-42-461.txt Node

Date: Fri Mar 14 12:00:42 EDT 2025
User: louis
Spectrometer: USB4F10415
Trigger mode: 4
Integration Time (sec): 2.000000E-2
Scans to average: 1
Electric dark correction enabled: true
Nonlinearity correction enabled: false
Boxcar width: 0
XAxis mode: Wavelengths
Number of Pixels in Spectrum: 3648
>>>>>Begin Spectral Data<<<<<
178.204	-106.84
178.424	-106.84
178.644	-106.84
178.864	-80.21
179.084	-20.82
179.304	-47.44
179.524	-76.12
179.744	54.95
179.964	30.38
180.184	13.99
180.404	13.99
180.624	-41.3
180.844	-14.68
181.064	-63.83
181.283	69.29
181.503	20.14
181.723	40.62
181.943	-26.96
182.163	63.15
182.383	44.71
182.602	44.71
182.822	3.75
183.042	7.85
183.262	-4.44
183.482	71.34
183.701	3.75
183.921	24.23
184.141	-18.77
184.361	153.26
184.58	61.1
184.8	102.06
185.02	50.86
185.239	7.85
185.459	1.71
185.679	22.19
185.898	81.58
186.118	-2.39
186.338	73.39
186.557	18.09
186.777	44.71
186.997	104.11
187.216	46.76
187.436	87.72
187.655	24.23
187.875	28.33
188.095	-14.68
188.314	3.75
188.534	112.3
188.753	91.82
188.973	40.62
189.192	97.96
189.412	-6.49
189.631	13.99
189.851	26.28
190.07	85.67
190.29	32.43
190.509	5.8
190.729	52.91
190.948	71.34
191.168	128.68
191.387	20.14
191.607	-22.87
191.826	93.87
192.045	-14.68
192.265	22.19
192.484	40.62
192.704	22.19
192.923	13.99
193.142	108.2
193.362	136.87
193.581	40.62
193.8	30.38
194.02	1.71
194.239	36.52
194.458	20.14
194.678	-2.39
194.897	77.48
195.116	-10.58
195.335	5.8
195.555	26.28
195.774	61.1
195.993	32.43
196.212	-0.34
196.432	20.14
196.651	-61.78
196.87	59.05
197.089	61.1
197.308	95.91
197.528	30.38
197.747	-55.64
197.966	69.29
198.185	136.87
198.404	71.34
198.623	20.14
198.842	5.8
199.062	26.28
199.281	71.34
199.5	120.49
199.719	30.38
199.938	54.95
200.157	50.86
200.376	57
200.595	20.14
200.814	40.62
201.033	-0.34
201.252	13.99
201.471	54.95
201.69	63.15
201.909	59.05
202.128	26.28
202.347	59.05
202.566	-8.53
202.785	5.8
203.004	71.34
203.223	173.74
203.442	81.58
203.661	46.76
203.879	93.87
204.098	28.33
204.317	22.19
204.536	34.47
204.755	18.09
204.974	91.82
205.193	30.38
205.411	95.91
205.63	50.86
205.849	91.82
206.068	95.91
206.287	57
206.505	34.47
206.724	24.23
206.943	46.76
207.162	32.43
207.381	-18.77
207.599	5.8
207.818	138.92
208.037	22.19
208.255	61.1
208.474	79.53
208.693	-16.73
208.911	28.33
209.13	30.38
209.349	63.15
209.567	40.62
209.786	22.19
210.005	65.19
210.223	-14.68
210.442	-20.82
210.661	63.15
210.879	38.57
211.098	71.34
211.316	112.3
211.535	30.38
211.753	83.63
211.972	54.95
212.191	50.86
212.409	100.01
212.628	3.75
212.846	-39.25
213.065	42.67
213.283	52.91
213.502	95.91
213.72	-29.01
213.938	73.39
214.157	20.14
214.375	83.63
214.594	65.19
214.812	57
215.031	24.23
215.249	-8.53
215.467	1.71
215.686	-18.77
215.904	11.95
216.122	-16.73
216.341	102.06
216.559	-8.53
216.778	65.19
216.996	24.23
217.214	69.29
217.432	59.05
217.651	44.71
217.869	44.71
218.087	38.57
218.306	71.34
218.524	1.71
218.742	3.75
218.96	54.95
219.179	65.19
219.397	24.23
219.615	57
219.833	106.15
220.051	22.19
220.27	112.3
220.488	18.09
220.706	71.34
220.924	22.19
221.142	38.57
221.36	-6.49
221.578	65.19
221.796	22.19
222.015	79.53
222.233	102.06
222.451	44.71
222.669	-0.34
222.887	116.39
223.105	5.8
223.323	7.85
223.541	-14.68
223.759	30.38
223.977	63.15
224.195	5.8
224.413	50.86
224.631	116.39
224.849	40.62
225.067	30.38
225.285	93.87
225.503	-29.01
225.721	-26.96
225.939	9.9
226.157	69.29
226.375	108.2
226.592	-16.73
226.81	32.43
227.028	59.05
227.246	145.06
227.464	75.43
227.682	116.39
227.9	54.95
228.117	85.67
228.335	63.15
228.553	26.28
228.771	89.77
228.989	63.15
229.206	59.05
229.424	11.95
229.642	-49.49
229.86	61.1
230.077	-20.82
230.295	63.15
230.513	61.1
230.731	106.15
230.948	67.24
231.166	91.82
231.384	-45.4
231.601	54.95
231.819	59.05
232.037	7.85
232.254	48.81
232.472	38.57
232.689	30.38
232.907	134.82
233.125	20.14
233.342	63.15
233.56	16.04
233.777	11.95
233.995	-26.96
234.213	34.47
234.43	-0.34
234.648	57
234.865	7.85
235.083	48.81
235.3	30.38
235.518	95.91
235.735	77.48
235.953	9.9
236.17	61.1
236.388	77.48
236.605	-24.92
236.822	120.49
237.04	34.47
237.257	79.53
237.475	13.99
237.692	13.99
237.909	36.52
238.127	52.91
238.344	38.57
238.562	-12.63
238.779	-16.73
238.996	50.86
239.214	32.43
239.431	81.58
239.648	13.99
239.865	-0.34
240.083	34.47
240.3	-22.87
240.517	67.24
240.735	50.86
240.952	54.95
241.169	77.48
241.386	5.8
241.603	54.95
241.821	34.47
242.038	110.25
242.255	85.67
242.472	18.09
242.689	-6.49
242.907	-14.68
243.124	81.58
243.341	-2.39
243.558	-43.35
243.775	-22.87
243.992	-20.82
244.209	-8.53
244.426	87.72
244.643	63.15
244.86	54.95
245.078	89.77
245.295	61.1
245.512	38.57
245.729	-22.87
245.946	108.2
246.163	-24.92
246.38	91.82
246.597	34.47
246.814	57
247.031	52.91
247.248	-47.44
247.464	24.23
247.681	61.1
247.898	54.95
248.115	7.85
248.332	7.85
248.549	57
248.766	30.38
248.983	91.82
249.2	46.76
249.417	69.29
249.633	20.14
249.85	126.63
250.067	91.82
250.284	65.19
250.501	85.67
250.717	42.67
250.934	34.47
251.151	18.09
251.368	83.63
251.585	22.19
251.801	3.75
252.018	69.29
252.235	57
252.451	61.1
252.668	42.67
252.885	13.99
253.102	28.33
253.318	44.71
253.535	50.86
253.752	5.8
253.968	24.23
254.185	-53.59
254.401	38.57
254.618	87.72
254.835	20.14
255.051	22.19
255.268	9.9
255.484	69.29
255.701	36.52
255.917	122.54
256.134	48.81
256.351	79.53
256.567	18.09
256.784	87.72
257	-39.25
257.217	-6.49
257.433	71.34
257.65	34.47
257.866	110.25
258.082	134.82
258.299	26.28
258.515	95.91
258.732	61.1
258.948	-14.68
259.165	61.1
259.381	61.1
259.597	-43.35
259.814	97.96
260.03	95.91
260.246	3.75
260.463	48.81
260.679	52.91
260.895	32.43
261.112	87.72
261.328	-14.68
261.544	71.34
261.761	91.82
261.977	-2.39
262.193	54.95
262.409	77.48
262.626	11.95
262.842	18.09
263.058	69.29
263.274	61.1
263.49	-51.54
263.707	77.48
263.923	85.67
264.139	-12.63
264.355	48.81
264.571	57
264.787	-22.87
265.004	114.34
265.22	83.63
265.436	34.47
265.652	40.62
265.868	32.43
266.084	54.95
266.3	114.34
266.516	97.96
266.732	79.53
266.948	46.76
267.164	46.76
267.38	36.52
267.596	36.52
267.812	52.91
268.028	20.14
268.244	11.95
268.46	126.63
268.676	-2.39
268.892	124.58
269.108	7.85
269.324	50.86
269.54	28.33
269.756	83.63
269.972	69.29
270.188	46.76
270.403	18.09
270.619	40.62
270.835	81.58
271.051	3.75
271.267	59.05
271.483	46.76
271.698	32.43
271.914	97.96
272.13	7.85
272.346	63.15
272.562	44.71
272.777	93.87
272.993	-29.01
273.209	61.1
273.425	7.85
273.64	42.67
273.856	40.62
274.072	67.24
274.287	-12.63
274.503	30.38
274.719	-2.39
274.934	69.29
275.15	40.62
275.366	-6.49
275.581	50.86
275.797	67.24
276.012	16.04
276.228	95.91
276.444	-6.49
276.659	59.05
276.875	5.8
277.09	91.82
277.306	-24.92
277.521	-51.54
277.737	63.15
277.952	81.58
278.168	-6.49
278.383	114.34
278.599	-26.96
278.814	30.38
279.03	32.43
279.245	57
279.461	87.72
279.676	61.1
279.892	22.19
280.107	7.85
280.322	42.67
280.538	69.29
280.753	11.95
280.969	71.34
281.184	-4.44
281.399	59.05
281.615	73.39
281.83	112.3
282.045	1.71
282.26	26.28
282.476	44.71
282.691	71.34
282.906	77.48
283.122	54.95
283.337	87.72
283.552	50.86
283.767	85.67
283.983	79.53
284.198	69.29
284.413	11.95
284.628	34.47
284.843	22.19
285.058	59.05
285.274	44.71
285.489	36.52
285.704	73.39
285.919	54.95
286.134	44.71
286.349	20.14
286.564	67.24
286.779	85.67
286.995	13.99
287.21	-37.2
287.425	83.63
287.64	9.9
287.855	13.99
288.07	-2.39
288.285	11.95
288.5	26.28
288.715	46.76
288.93	24.23
289.145	28.33
289.36	-45.4
289.575	44.71
289.79	61.1
290.004	61.1
290.219	7.85
290.434	30.38
290.649	46.76
290.864	108.2
291.079	30.38
291.294	42.67
291.509	38.57
291.724	95.91
291.938	-8.53
292.153	95.91
292.368	-6.49
292.583	65.19
292.798	32.43
293.012	108.2
293.227	28.33
293.442	73.39
293.657	83.63
293.871	91.82
294.086	54.95
294.301	93.87
294.516	7.85
294.73	28.33
294.945	-8.53
295.16	71.34
295.374	87.72
295.589	93.87
295.804	36.52
296.018	108.2
296.233	61.1
296.447	132.78
296.662	71.34
296.877	32.43
297.091	83.63
297.306	36.52
297.52	59.05
297.735	79.53
297.949	83.63
298.164	63.15
298.378	7.85
298.593	91.82
298.807	38.57
299.022	136.87
299.236	46.76
299.451	75.43
299.665	44.71
299.88	26.28
300.094	44.71
300.309	50.86
300.523	7.85
300.737	46.76
300.952	89.77
301.166	46.76
301.381	-14.68
301.595	-35.16
301.809	100.01
302.024	102.06
302.238	61.1
302.452	24.23
302.667	32.43
302.881	50.86
303.095	87.72
303.309	44.71
303.524	95.91
303.738	75.43
303.952	61.1
304.166	36.52
304.381	38.57
304.595	93.87
304.809	28.33
305.023	1.71
305.237	75.43
305.452	-12.63
305.666	114.34
305.88	46.76
306.094	136.87
306.308	52.91
306.522	52.91
306.736	-10.58
306.95	1.71
307.164	61.1
307.379	26.28
307.593	95.91
307.807	87.72
308.021	130.73
308.235	79.53
308.449	18.09
308.663	3.75
308.877	38.57
309.091	67.24
309.305	30.38
309.519	18.09
309.733	91.82
309.947	75.43
310.161	59.05
310.374	57
310.588	126.63
310.802	63.15
311.016	54.95
311.23	42.67
311.444	-45.4
311.658	57
311.872	52.91
312.085	106.15
312.299	89.77
312.513	32.43
312.727	52.91
312.941	52.91
313.154	85.67
313.368	108.2
313.582	36.52
313.796	59.05
314.009	48.81
314.223	69.29
314.437	79.53
314.651	-26.96
314.864	116.39
315.078	26.28
315.292	26.28
315.505	-4.44
315.719	34.47
315.933	16.04
316.146	91.82
316.36	42.67
316.573	-8.53
316.787	1.71
317.001	89.77
317.214	1.71
317.428	75.43
317.641	1.71
317.855	100.01
318.068	75.43
318.282	79.53
318.495	61.1
318.709	77.48
318.922	163.5
319.136	57
319.349	18.09
319.563	52.91
319.776	52.91
319.99	63.15
320.203	97.96
320.417	118.44
320.63	1.71
320.843	36.52
321.057	32.43
321.27	50.86
321.483	67.24
321.697	116.39
321.91	73.39
322.124	61.1
322.337	42.67
322.55	95.91
322.763	32.43
322.977	36.52
323.19	61.1
323.403	57
323.617	42.67
323.83	48.81
324.043	9.9
324.256	54.95
324.469	52.91
324.683	52.91
324.896	69.29
325.109	36.52
325.322	5.8
325.535	79.53
325.748	40.62
325.962	57
326.175	69.29
326.388	40.62
326.601	48.81
326.814	-4.44
327.027	69.29
327.24	104.11
327.453	26.28
327.666	102.06
327.879	126.63
328.092	-24.92
328.305	59.05
328.518	97.96
328.731	65.19
328.944	36.52
329.157	24.23
329.37	65.19
329.583	155.3
329.796	26.28
330.009	57
330.222	28.33
330.435	126.63
330.648	22.19
330.861	20.14
331.073	52.91
331.286	147.11
331.499	36.52
331.712	28.33
331.925	22.19
332.138	108.2
332.35	95.91
332.563	89.77
332.776	132.78
332.989	38.57
333.202	54.95
333.414	-26.96
333.627	38.57
333.84	13.99
334.053	73.39
334.265	30.38
334.478	40.62
334.691	52.91
334.903	93.87
335.116	28.33
335.329	48.81
335.541	85.67
335.754	81.58
335.966	77.48
336.179	36.52
336.392	57
336.604	40.62
336.817	93.87
337.029	50.86
337.242	-4.44
337.454	57
337.667	91.82
337.88	87.72
338.092	69.29
338.305	40.62
338.517	71.34
338.729	85.67
338.942	89.77
339.154	134.82
339.367	24.23
339.579	126.63
339.792	24.23
340.004	130.73
340.217	77.48
340.429	28.33
340.641	34.47
340.854	48.81
341.066	106.15
341.278	93.87
341.491	171.69
341.703	81.58
341.915	32.43
342.128	24.23
342.34	42.67
342.552	128.68
342.764	16.04
342.977	42.67
343.189	-61.78
343.401	91.82
343.613	11.95
343.826	46.76
344.038	26.28
344.25	73.39
344.462	75.43
344.674	24.23
344.886	26.28
345.099	-2.39
345.311	97.96
345.523	130.73
345.735	28.33
345.947	65.19
346.159	36.52
346.371	38.57
346.583	81.58
346.795	163.5
347.007	69.29
347.219	65.19
347.431	22.19
347.643	102.06
347.855	104.11
348.067	100.01
348.279	59.05
348.491	77.48
348.703	50.86
348.915	46.76
349.127	40.62
349.339	83.63
349.551	110.25
349.763	52.91
349.975	83.63
350.187	79.53
350.399	89.77
350.61	93.87
350.822	50.86
351.034	71.34
351.246	69.29
351.458	143.02
351.669	67.24
351.881	28.33
352.093	42.67
352.305	83.63
352.517	13.99
352.728	126.63
352.94	83.63
353.152	75.43
353.363	-20.82
353.575	52.91
353.787	50.86
353.999	102.06
354.21	48.81
354.422	69.29
354.633	65.19
354.845	-12.63
355.057	38.57
355.268	102.06
355.48	13.99
355.692	11.95
355.903	69.29
356.115	97.96
356.326	-43.35
356.538	97.96
356.749	128.68
356.961	-8.53
357.172	11.95
357.384	73.39
357.595	61.1
357.807	9.9
358.018	9.9
358.23	79.53
358.441	165.54
358.653	63.15
358.864	155.3
359.075	73.39
359.287	159.4
359.498	95.91
359.709	87.72
359.921	48.81
360.132	93.87
360.344	50.86
360.555	85.67
360.766	38.57
360.977	9.9
361.189	30.38
361.4	89.77
361.611	143.02
361.823	42.67
362.034	110.25
362.245	73.39
362.456	28.33
362.667	34.47
362.879	136.87
363.09	3.75
363.301	81.58
363.512	20.14
363.723	87.72
363.935	73.39
364.146	138.92
364.357	13.99
364.568	44.71
364.779	42.67
364.99	120.49
365.201	-8.53
365.412	106.15
365.623	-8.53
365.834	95.91
366.045	104.11
366.256	122.54
366.467	16.04
366.678	57
366.889	40.62
367.1	95.91
367.311	30.38
367.522	57
367.733	136.87
367.944	149.16
368.155	85.67
368.366	44.71
368.577	161.45
368.788	83.63
368.999	130.73
369.209	54.95
369.42	67.24
369.631	167.59
369.842	38.57
370.053	52.91
370.264	93.87
370.474	71.34
370.685	134.82
370.896	89.77
371.107	75.43
371.317	57
371.528	102.06
371.739	18.09
371.95	30.38
372.16	112.3
372.371	63.15
372.582	38.57
372.792	67.24
373.003	93.87
373.214	114.34
373.424	73.39
373.635	30.38
373.846	65.19
374.056	120.49
374.267	104.11
374.477	93.87
374.688	5.8
374.898	77.48
375.109	87.72
375.319	-6.49
375.53	114.34
375.74	34.47
375.951	16.04
376.161	59.05
376.372	122.54
376.582	104.11
376.793	42.67
377.003	30.38
377.214	44.71
377.424	132.78
377.635	48.81
377.845	126.63
378.055	50.86
378.266	79.53
378.476	57
378.686	54.95
378.897	1.71
379.107	59.05
379.317	77.48
379.528	75.43
379.738	75.43
379.948	67.24
380.158	32.43
380.369	26.28
380.579	79.53
380.789	46.76
380.999	77.48
381.21	100.01
381.42	143.02
381.63	114.34
381.84	63.15
382.05	112.3
382.261	77.48
382.471	169.64
382.681	44.71
382.891	112.3
383.101	93.87
383.311	73.39
383.521	85.67
383.731	67.24
383.941	116.39
384.151	79.53
384.361	20.14
384.571	93.87
384.781	97.96
384.991	83.63
385.201	163.5
385.411	104.11
385.621	52.91
385.831	52.91
386.041	93.87
386.251	75.43
386.461	120.49
386.671	48.81
386.881	102.06
387.091	120.49
387.301	73.39
387.511	48.81
387.72	67.24
387.93	13.99
388.14	93.87
388.35	73.39
388.56	36.52
388.769	110.25
388.979	65.19
389.189	136.87
389.399	50.86
389.609	112.3
389.818	63.15
390.028	57
390.238	122.54
390.447	79.53
390.657	81.58
390.867	91.82
391.076	48.81
391.286	91.82
391.496	147.11
391.705	79.53
391.915	100.01
392.125	63.15
392.334	104.11
392.544	85.67
392.753	93.87
392.963	-8.53
393.172	108.2
393.382	83.63
393.591	179.88
393.801	73.39
394.01	220.84
394.22	71.34
394.429	95.91
394.639	93.87
394.848	81.58
395.058	100.01
395.267	134.82
395.477	161.45
395.686	124.58
395.895	149.16
396.105	149.16
396.314	110.25
396.524	120.49
396.733	120.49
396.942	52.91
397.152	155.3
397.361	151.21
397.57	114.34
397.78	149.16
397.989	143.02
398.198	104.11
398.407	67.24
398.617	69.29
398.826	104.11
399.035	196.26
399.244	194.22
399.453	153.26
399.663	122.54
399.872	143.02
400.081	192.17
400.29	153.26
400.499	147.11
400.708	212.65
400.917	89.77
401.127	9.9
401.336	95.91
401.545	132.78
401.754	173.74
401.963	147.11
402.172	106.15
402.381	173.74
402.59	212.65
402.799	186.02
403.008	128.68
403.217	173.74
403.426	163.5
403.635	136.87
403.844	138.92
404.053	188.07
404.262	175.78
404.471	210.6
404.68	157.35
404.888	196.26
405.097	190.12
405.306	222.89
405.515	206.5
405.724	229.03
405.933	198.31
406.142	274.09
406.35	261.8
406.559	249.51
406.768	249.51
406.977	239.27
407.185	257.7
407.394	339.62
407.603	243.37
407.812	267.94
408.02	337.57
408.229	351.91
408.438	294.57
408.646	315.05
408.855	378.53
409.064	353.96
409.272	317.09
409.481	380.58
409.69	368.29
409.898	333.48
410.107	380.58
410.315	384.68
410.524	401.06
410.733	511.65
410.941	444.07
411.15	409.25
411.358	470.69
411.567	495.27
411.775	448.16
411.984	593.57
412.192	581.28
412.401	589.47
412.609	620.19
412.818	673.44
413.026	745.12
413.234	743.07
413.443	700.06
413.651	751.26
413.86	702.11
414.068	837.28
414.276	841.37
414.485	820.89
414.693	847.52
414.901	947.87
415.11	927.39
415.318	960.16
415.526	970.4
415.734	1035.93
415.943	999.07
416.151	1099.42
416.359	1107.61
416.567	1136.28
416.776	1140.38
416.984	1287.83
417.192	1443.48
417.4	1236.63
417.608	1253.02
417.817	1386.13
418.025	1453.72
418.233	1537.68
418.441	1451.67
418.649	1615.51
418.857	1615.51
419.065	1744.53
419.273	1664.66
419.481	1771.15
419.689	1922.7
419.897	1947.28
420.105	2023.05
420.313	2113.16
420.521	2279.05
420.729	2143.88
420.937	2147.98
421.145	2473.6
421.353	2365.06
421.561	2680.45
421.769	2686.59
421.977	2711.17
422.185	2784.9
422.393	2928.25
422.601	3128.95
422.809	3065.47
423.017	3030.65
423.224	3257.98
423.432	3264.12
423.64	3460.73
423.848	3589.75
424.056	3749.49
424.263	3827.31
424.471	3874.42
424.679	3974.77
424.887	4109.93
425.094	4392.55
425.302	4204.14
425.51	4476.52
425.718	4626.02
425.925	4664.93
426.133	4816.48
426.341	5277.27
426.548	5426.78
426.756	5289.56
426.964	5420.63
427.171	5623.38
427.379	5961.3
427.586	6071.89
427.794	6266.44
428.001	6426.18
428.209	6858.31
428.417	6637.13
428.624	6997.57
428.832	7011.9
429.039	7052.86
429.247	7122.49
429.454	7759.41
429.662	8146.48
429.869	7851.57
430.076	8304.17
430.284	7984.69
430.491	8238.64
430.699	8883.75
430.906	8812.07
431.114	8926.75
431.321	9401.88
431.528	9448.99
431.736	10057.23
431.943	10501.64
432.15	10302.99
432.358	10663.43
432.565	10913.28
432.772	11175.42
432.979	11392.51
433.187	11824.63
433.394	11910.64
433.601	12545.52
433.808	12639.72
434.016	12621.29
434.223	13237.73
434.43	13700.57
434.637	13635.03
434.844	14454.22
435.052	14671.31
435.259	14616.01
435.466	14964.17
435.673	14618.06
435.88	15431.1
436.087	16311.73
436.294	16383.41
436.501	16061.88
436.708	16520.62
436.915	17038.76
437.122	17554.85
437.329	17882.52
437.537	18120.09
437.743	18709.9
437.95	18216.34
438.157	19342.72
438.364	20213.11
438.571	19643.77
438.778	20186.49
438.985	21765.47
439.192	20938.09
439.399	21968.22
439.606	21316.97
439.813	22453.59
440.02	23971.13
440.227	23342.41
440.433	23276.87
440.64	23801.15
440.847	23881.02
441.054	24532.28
441.261	25953.57
441.467	25961.76
441.674	26207.51
441.881	27063.57
442.088	27077.9
442.294	26856.72
442.501	27272.46
442.708	28271.87
442.914	29150.45
443.121	30514.39
443.328	29834.47
443.534	31775.94
443.741	30864.6
443.948	30170.33
444.154	32724.15
444.361	32478.4
444.568	32580.79
444.774	32994.48
444.981	33285.29
445.187	34088.1
445.394	35474.57
445.6	34583.71
445.807	38495.33
446.013	36523.13
446.22	37039.22
446.426	39150.68
446.633	39205.97
446.839	40414.27
447.046	38392.93
447.252	40975.42
447.459	41104.44
447.665	40760.38
447.871	42253.35
448.078	44000.27
448.284	42433.57
448.491	43428.88
448.697	44899.33
448.903	45970.41
449.11	45765.62
449.316	45364.21
449.522	45849.58
449.728	47041.5
449.935	47729.62
450.141	47184.86
450.347	48067.53
450.553	47010.78
450.76	47588.31
450.966	49112
451.172	48128.97
451.378	49529.78
451.584	48698.31
451.791	49882.03
451.997	49118.14
452.203	50613.16
452.409	50213.8
452.615	49656.76
452.821	48237.51
453.027	47627.22
453.233	49886.13
453.44	48194.51
453.646	48989.12
453.852	48425.93
454.058	49591.22
454.264	47504.34
454.47	48894.91
454.676	47518.68
454.882	49370.04
455.088	45091.83
455.294	45911.02
455.5	46693.35
455.705	46531.56
455.911	44479.49
456.117	43584.53
456.323	43322.39
456.529	41202.74
456.735	42839.07
456.941	41790.51
457.147	41364.53
457.352	39666.77
457.558	39558.22
457.764	39408.72
457.97	38462.56
458.176	37692.52
458.381	37637.23
458.587	35886.22
458.793	35867.78
458.999	34065.57
459.204	36455.55
459.41	35372.17
459.616	32887.99
459.821	33285.29
460.027	32965.81
460.233	32150.72
460.438	30856.4
460.644	31102.16
460.85	29732.07
461.055	28935.41
461.261	29080.81
461.466	27213.07
461.672	26154.27
461.878	27827.46
462.083	26436.89
462.289	25546.02
462.494	25081.13
462.7	24200.51
462.905	23358.79
463.111	24372.53
463.316	24255.8
463.522	23852.35
463.727	23991.61
463.932	24071.48
464.138	23790.91
464.343	23866.69
464.549	22898
464.754	23795.01
464.959	23541.06
465.165	23674.18
465.37	22322.52
465.575	21726.56
465.781	22639.95
465.986	22990.16
466.191	22304.09
466.397	21601.63
466.602	20911.47
466.807	21577.06
467.012	21319.01
467.218	21040.49
467.423	20845.93
