Data from USB4F104151__2__12-10-40-241.txt Node

Date: Fri Mar 14 12:10:40 EDT 2025
User: louis
Spectrometer: USB4F10415
Trigger mode: 4
Integration Time (sec): 5.000000E-2
Scans to average: 1
Electric dark correction enabled: true
Nonlinearity correction enabled: false
Boxcar width: 0
XAxis mode: Wavelengths
Number of Pixels in Spectrum: 3648
>>>>>Begin Spectral Data<<<<<
178.204	-223.91
178.424	-223.91
178.644	-223.91
178.864	-160.42
179.084	-266.92
179.304	17.75
179.524	50.52
179.744	-39.59
179.964	5.46
180.184	5.46
180.404	-8.87
180.624	-15.02
180.844	19.8
181.064	-72.36
181.283	27.99
181.503	-29.35
181.723	38.23
181.943	1.37
182.163	107.86
182.383	68.95
182.602	103.76
182.822	140.63
183.042	42.32
183.262	-10.92
183.482	5.46
183.701	27.99
183.921	19.8
184.141	40.28
184.361	128.34
184.58	122.2
184.8	71
185.02	48.47
185.239	99.67
185.459	50.52
185.679	114
185.898	-10.92
186.118	130.39
186.338	68.95
186.557	64.85
186.777	1.37
186.997	40.28
187.216	-4.78
187.436	91.48
187.655	77.14
187.875	66.9
188.095	-10.92
188.314	66.9
188.534	136.53
188.753	-23.21
188.973	27.99
189.192	140.63
189.412	25.94
189.631	56.66
189.851	21.84
190.07	130.39
190.29	30.04
190.509	17.75
190.729	21.84
190.948	130.39
191.168	185.68
191.387	103.76
191.607	7.51
191.826	73.04
192.045	-29.35
192.265	62.8
192.484	36.18
192.704	101.72
192.923	-19.11
193.142	134.48
193.362	38.23
193.581	79.19
193.8	103.76
194.02	114
194.239	30.04
194.458	60.76
194.678	-27.31
194.897	19.8
195.116	89.43
195.335	23.89
195.555	109.91
195.774	79.19
195.993	118.1
196.212	79.19
196.432	73.04
196.651	5.46
196.87	38.23
197.089	107.86
197.308	32.08
197.528	89.43
197.747	-55.98
197.966	64.85
198.185	175.44
198.404	-27.31
198.623	19.8
198.842	81.24
199.062	42.32
199.281	152.91
199.5	23.89
199.719	58.71
199.938	68.95
200.157	109.91
200.376	27.99
200.595	91.48
200.814	68.95
201.033	-23.21
201.252	167.25
201.471	126.29
201.69	116.05
201.909	30.04
202.128	71
202.347	3.41
202.566	62.8
202.785	3.41
203.004	-80.55
203.223	142.68
203.442	66.9
203.661	21.84
203.879	89.43
204.098	34.13
204.317	17.75
204.536	114
204.755	27.99
204.974	111.96
205.193	85.33
205.411	187.73
205.63	120.15
205.849	91.48
206.068	-31.4
206.287	103.76
206.505	56.66
206.724	52.56
206.943	46.42
207.162	73.04
207.381	48.47
207.599	11.61
207.818	21.84
208.037	15.7
208.255	42.32
208.474	-12.97
208.693	48.47
208.911	-2.73
209.13	93.52
209.349	83.28
209.567	36.18
209.786	95.57
210.005	81.24
210.223	50.52
210.442	-39.59
210.661	71
210.879	87.38
211.098	19.8
211.316	48.47
211.535	71
211.753	56.66
211.972	32.08
212.191	60.76
212.409	25.94
212.628	60.76
212.846	44.37
213.065	87.38
213.283	114
213.502	23.89
213.72	89.43
213.938	66.9
214.157	54.61
214.375	15.7
214.594	21.84
214.812	73.04
215.031	85.33
215.249	136.53
215.467	54.61
215.686	48.47
215.904	81.24
216.122	142.68
216.341	134.48
216.559	23.89
216.778	60.76
216.996	91.48
217.214	56.66
217.432	62.8
217.651	48.47
217.869	54.61
218.087	91.48
218.306	27.99
218.524	19.8
218.742	17.75
218.96	120.15
219.179	36.18
219.397	30.04
219.615	89.43
219.833	146.77
220.051	56.66
220.27	91.48
220.488	142.68
220.706	105.81
220.924	17.75
221.142	60.76
221.36	52.56
221.578	109.91
221.796	46.42
222.015	179.54
222.233	34.13
222.451	99.67
222.669	42.32
222.887	79.19
223.105	77.14
223.323	73.04
223.541	-17.07
223.759	103.76
223.977	64.85
224.195	68.95
224.413	95.57
224.631	93.52
224.849	77.14
225.067	124.24
225.285	36.18
225.503	66.9
225.721	-47.79
225.939	19.8
226.157	-0.68
226.375	122.2
226.592	-51.88
226.81	97.62
227.028	103.76
227.246	93.52
227.464	89.43
227.682	118.1
227.9	75.09
228.117	132.44
228.335	13.65
228.553	52.56
228.771	91.48
228.989	-17.07
229.206	64.85
229.424	40.28
229.642	1.37
229.86	36.18
230.077	83.28
230.295	42.32
230.513	52.56
230.731	44.37
230.948	111.96
231.166	81.24
231.384	19.8
231.601	-6.83
231.819	52.56
232.037	-2.73
232.254	7.51
232.472	157.01
232.689	21.84
232.907	60.76
233.125	44.37
233.342	-4.78
233.56	-6.83
233.777	54.61
233.995	11.61
234.213	25.94
234.43	107.86
234.648	79.19
234.865	38.23
235.083	150.87
235.3	73.04
235.518	89.43
235.735	105.81
235.953	71
236.17	23.89
236.388	58.71
236.605	120.15
236.822	89.43
237.04	91.48
237.257	126.29
237.475	3.41
237.692	-4.78
237.909	181.59
238.127	-39.59
238.344	46.42
238.562	34.13
238.779	-96.94
238.996	42.32
239.214	42.32
239.431	109.91
239.648	5.46
239.865	-2.73
240.083	58.71
240.3	9.56
240.517	58.71
240.735	87.38
240.952	36.18
241.169	126.29
241.386	95.57
241.603	46.42
241.821	44.37
242.038	120.15
242.255	148.82
242.472	-2.73
242.689	111.96
242.907	99.67
243.124	-15.02
243.341	23.89
243.558	52.56
243.775	30.04
243.992	-70.31
244.209	68.95
244.426	148.82
244.643	27.99
244.86	19.8
245.078	136.53
245.295	79.19
245.512	91.48
245.729	36.18
245.946	-4.78
246.163	1.37
246.38	-58.03
246.597	44.37
246.814	34.13
247.031	46.42
247.248	50.52
247.464	13.65
247.681	89.43
247.898	-47.79
248.115	5.46
248.332	19.8
248.549	105.81
248.766	177.49
248.983	50.52
249.2	93.52
249.417	114
249.633	11.61
249.85	46.42
250.067	17.75
250.284	-47.79
250.501	64.85
250.717	62.8
250.934	36.18
251.151	23.89
251.368	5.46
251.585	73.04
251.801	-10.92
252.018	19.8
252.235	50.52
252.451	42.32
252.668	52.56
252.885	79.19
253.102	-4.78
253.318	73.04
253.535	56.66
253.752	19.8
253.968	-29.35
254.185	-53.93
254.401	58.71
254.618	30.04
254.835	1.37
255.051	138.58
255.268	103.76
255.484	54.61
255.701	64.85
255.917	138.58
256.134	5.46
256.351	15.7
256.567	27.99
256.784	23.89
257	30.04
257.217	83.28
257.433	38.23
257.65	42.32
257.866	118.1
258.082	-62.12
258.299	-10.92
258.515	48.47
258.732	-8.87
258.948	-12.97
259.165	34.13
259.381	68.95
259.597	9.56
259.814	1.37
260.03	-45.74
260.246	87.38
260.463	73.04
260.679	81.24
260.895	68.95
261.112	101.72
261.328	75.09
261.544	79.19
261.761	91.48
261.977	71
262.193	-15.02
262.409	81.24
262.626	64.85
262.842	148.82
263.058	-8.87
263.274	40.28
263.49	128.34
263.707	62.8
263.923	58.71
264.139	38.23
264.355	73.04
264.571	214.35
264.787	66.9
265.004	173.39
265.22	75.09
265.436	32.08
265.652	21.84
265.868	109.91
266.084	-39.59
266.3	30.04
266.516	71
266.732	77.14
266.948	68.95
267.164	-4.78
267.38	56.66
267.596	17.75
267.812	152.91
268.028	101.72
268.244	32.08
268.46	114
268.676	9.56
268.892	50.52
269.108	32.08
269.324	38.23
269.54	-15.02
269.756	83.28
269.972	-21.16
270.188	60.76
270.403	-78.51
270.619	21.84
270.835	23.89
271.051	-25.26
271.267	107.86
271.483	32.08
271.698	91.48
271.914	66.9
272.13	5.46
272.346	-4.78
272.562	-4.78
272.777	101.72
272.993	56.66
273.209	-17.07
273.425	71
273.64	46.42
273.856	81.24
274.072	21.84
274.287	-4.78
274.503	132.44
274.719	50.52
274.934	3.41
275.15	46.42
275.366	40.28
275.581	30.04
275.797	87.38
276.012	32.08
276.228	44.37
276.444	83.28
276.659	150.87
276.875	3.41
277.09	48.47
277.306	81.24
277.521	77.14
277.737	21.84
277.952	167.25
278.168	-47.79
278.383	83.28
278.599	40.28
278.814	58.71
279.03	140.63
279.245	132.44
279.461	107.86
279.676	93.52
279.892	-41.64
280.107	-15.02
280.322	83.28
280.538	89.43
280.753	66.9
280.969	73.04
281.184	-6.83
281.399	30.04
281.615	11.61
281.83	85.33
282.045	-4.78
282.26	64.85
282.476	42.32
282.691	36.18
282.906	87.38
283.122	71
283.337	5.46
283.552	103.76
283.767	-8.87
283.983	161.11
284.198	-23.21
284.413	136.53
284.628	-60.07
284.843	75.09
285.058	101.72
285.274	34.13
285.489	81.24
285.704	62.8
285.919	32.08
286.134	105.81
286.349	-37.55
286.564	-0.68
286.779	48.47
286.995	13.65
287.21	1.37
287.425	83.28
287.64	58.71
287.855	34.13
288.07	-78.51
288.285	126.29
288.5	48.47
288.715	79.19
288.93	21.84
289.145	-2.73
289.36	161.11
289.575	75.09
289.79	36.18
290.004	34.13
290.219	97.62
290.434	11.61
290.649	-0.68
290.864	3.41
291.079	7.51
291.294	46.42
291.509	32.08
291.724	40.28
291.938	-45.74
292.153	101.72
292.368	44.37
292.583	183.63
292.798	103.76
293.012	89.43
293.227	42.32
293.442	32.08
293.657	85.33
293.871	165.2
294.086	44.37
294.301	150.87
294.516	103.76
294.73	75.09
294.945	52.56
295.16	68.95
295.374	75.09
295.589	130.39
295.804	7.51
296.018	83.28
296.233	79.19
296.447	134.48
296.662	-25.26
296.877	157.01
297.091	118.1
297.306	48.47
297.52	64.85
297.735	60.76
297.949	54.61
298.164	93.52
298.378	-41.64
298.593	38.23
298.807	-15.02
299.022	48.47
299.236	87.38
299.451	130.39
299.665	56.66
299.88	114
300.094	79.19
300.309	62.8
300.523	52.56
300.737	-72.36
300.952	52.56
301.166	81.24
301.381	50.52
301.595	40.28
301.809	116.05
302.024	17.75
302.238	3.41
302.452	118.1
302.667	-45.74
302.881	66.9
303.095	56.66
303.309	48.47
303.524	7.51
303.738	114
303.952	9.56
304.166	109.91
304.381	-68.27
304.595	183.63
304.809	-19.11
305.023	-0.68
305.237	77.14
305.452	50.52
305.666	111.96
305.88	132.44
306.094	122.2
306.308	60.76
306.522	111.96
306.736	50.52
306.95	52.56
307.164	15.7
307.379	3.41
307.593	150.87
307.807	71
308.021	42.32
308.235	114
308.449	17.75
308.663	66.9
308.877	154.96
309.091	83.28
309.305	146.77
309.519	-35.5
309.733	132.44
309.947	-53.93
310.161	91.48
310.374	83.28
310.588	109.91
310.802	-15.02
311.016	1.37
311.23	36.18
311.444	42.32
311.658	85.33
311.872	85.33
312.085	17.75
312.299	114
312.513	120.15
312.727	40.28
312.941	21.84
313.154	54.61
313.368	46.42
313.582	89.43
313.796	73.04
314.009	27.99
314.223	109.91
314.437	87.38
314.651	107.86
314.864	85.33
315.078	1.37
315.292	30.04
315.505	-25.26
315.719	75.09
315.933	136.53
316.146	13.65
316.36	9.56
316.573	114
316.787	124.24
317.001	64.85
317.214	-23.21
317.428	68.95
317.641	56.66
317.855	60.76
318.068	44.37
318.282	99.67
318.495	167.25
318.709	54.61
318.922	148.82
319.136	50.52
319.349	130.39
319.563	-2.73
319.776	118.1
319.99	64.85
320.203	128.34
320.417	38.23
320.63	75.09
320.843	81.24
321.057	109.91
321.27	87.38
321.483	50.52
321.697	157.01
321.91	62.8
322.124	42.32
322.337	87.38
322.55	15.7
322.763	38.23
322.977	81.24
323.19	11.61
323.403	77.14
323.617	103.76
323.83	120.15
324.043	19.8
324.256	25.94
324.469	-17.07
324.683	179.54
324.896	-8.87
325.109	75.09
325.322	48.47
325.535	93.52
325.748	71
325.962	-12.97
326.175	52.56
326.388	105.81
326.601	114
326.814	62.8
327.027	13.65
327.24	101.72
327.453	3.41
327.666	77.14
327.879	23.89
328.092	107.86
328.305	99.67
328.518	34.13
328.731	19.8
328.944	-0.68
329.157	19.8
329.37	68.95
329.583	154.96
329.796	210.26
330.009	-2.73
330.222	95.57
330.435	87.38
330.648	27.99
330.861	44.37
331.073	105.81
331.286	140.63
331.499	111.96
331.712	-49.83
331.925	11.61
332.138	-29.35
332.35	177.49
332.563	5.46
332.776	130.39
332.989	56.66
333.202	77.14
333.414	103.76
333.627	34.13
333.84	-58.03
334.053	25.94
334.265	75.09
334.478	50.52
334.691	97.62
334.903	58.71
335.116	48.47
335.329	34.13
335.541	42.32
335.754	89.43
335.966	34.13
336.179	36.18
336.392	27.99
336.604	48.47
336.817	91.48
337.029	73.04
337.242	52.56
337.454	138.58
337.667	73.04
337.88	111.96
338.092	105.81
338.305	44.37
338.517	1.37
338.729	46.42
338.942	154.96
339.154	30.04
339.367	5.46
339.579	134.48
339.792	40.28
340.004	71
340.217	56.66
340.429	25.94
340.641	-17.07
340.854	13.65
341.066	15.7
341.278	124.24
341.491	140.63
341.703	79.19
341.915	15.7
342.128	44.37
342.34	23.89
342.552	15.7
342.764	40.28
342.977	52.56
343.189	85.33
343.401	46.42
343.613	77.14
343.826	-27.31
344.038	66.9
344.25	68.95
344.462	52.56
344.674	19.8
344.886	81.24
345.099	58.71
345.311	122.2
345.523	73.04
345.735	9.56
345.947	52.56
346.159	132.44
346.371	81.24
346.583	-10.92
346.795	118.1
347.007	44.37
347.219	83.28
347.431	25.94
347.643	30.04
347.855	54.61
348.067	109.91
348.279	-78.51
348.491	-12.97
348.703	64.85
348.915	105.81
349.127	19.8
349.339	111.96
349.551	46.42
349.763	60.76
349.975	79.19
350.187	87.38
350.399	107.86
350.61	91.48
350.822	40.28
351.034	64.85
351.246	46.42
351.458	32.08
351.669	109.91
351.881	130.39
352.093	52.56
352.305	75.09
352.517	38.23
352.728	97.62
352.94	44.37
353.152	48.47
353.363	54.61
353.575	140.63
353.787	167.25
353.999	42.32
354.21	87.38
354.422	85.33
354.633	46.42
354.845	75.09
355.057	50.52
355.268	97.62
355.48	140.63
355.692	77.14
355.903	58.71
356.115	-31.4
356.326	23.89
356.538	157.01
356.749	48.47
356.961	138.58
357.172	81.24
357.384	13.65
357.595	114
357.807	9.56
358.018	-6.83
358.23	81.24
358.441	130.39
358.653	134.48
358.864	-0.68
359.075	46.42
359.287	44.37
359.498	71
359.709	48.47
359.921	105.81
360.132	56.66
360.344	75.09
360.555	25.94
360.766	128.34
360.977	46.42
361.189	85.33
361.4	25.94
361.611	103.76
361.823	66.9
362.034	105.81
362.245	42.32
362.456	19.8
362.667	120.15
362.879	71
363.09	50.52
363.301	101.72
363.512	91.48
363.723	120.15
363.935	32.08
364.146	111.96
364.357	97.62
364.568	116.05
364.779	66.9
364.99	103.76
365.201	44.37
365.412	140.63
365.623	19.8
365.834	128.34
366.045	132.44
366.256	-45.74
366.467	73.04
366.678	91.48
366.889	120.15
367.1	99.67
367.311	103.76
367.522	103.76
367.733	17.75
367.944	154.96
368.155	79.19
368.366	19.8
368.577	163.15
368.788	163.15
368.999	71
369.209	71
369.42	200.02
369.631	171.35
369.842	107.86
370.053	81.24
370.264	107.86
370.474	83.28
370.685	58.71
370.896	30.04
371.107	48.47
371.317	120.15
371.528	-23.21
371.739	138.58
371.95	120.15
372.16	89.43
372.371	107.86
372.582	-23.21
372.792	66.9
373.003	109.91
373.214	27.99
373.424	93.52
373.635	71
373.846	89.43
374.056	40.28
374.267	48.47
374.477	120.15
374.688	5.46
374.898	118.1
375.109	13.65
375.319	73.04
375.53	132.44
375.74	103.76
375.951	3.41
376.161	44.37
376.372	136.53
376.582	38.23
376.793	97.62
377.003	60.76
377.214	52.56
377.424	46.42
377.635	64.85
377.845	5.46
378.055	116.05
378.266	40.28
378.476	46.42
378.686	25.94
378.897	79.19
379.107	124.24
379.317	116.05
379.528	32.08
379.738	42.32
379.948	13.65
380.158	83.28
380.369	124.24
380.579	124.24
380.789	36.18
380.999	52.56
381.21	181.59
381.42	136.53
381.63	71
381.84	89.43
382.05	58.71
382.261	165.2
382.471	152.91
382.681	79.19
382.891	120.15
383.101	32.08
383.311	11.61
383.521	34.13
383.731	157.01
383.941	71
384.151	89.43
384.361	56.66
384.571	58.71
384.781	109.91
384.991	157.01
385.201	171.35
385.411	114
385.621	-2.73
385.831	13.65
386.041	91.48
386.251	87.38
386.461	97.62
386.671	87.38
386.881	128.34
387.091	66.9
387.301	85.33
387.511	23.89
387.72	97.62
387.93	56.66
388.14	-25.26
388.35	97.62
388.56	116.05
388.769	152.91
388.979	128.34
389.189	146.77
389.399	3.41
389.609	118.1
389.818	138.58
390.028	38.23
390.238	46.42
390.447	122.2
390.657	103.76
390.867	97.62
391.076	32.08
391.286	107.86
391.496	64.85
391.705	58.71
391.915	171.35
392.125	134.48
392.334	79.19
392.544	171.35
392.753	32.08
392.963	107.86
393.172	87.38
393.382	25.94
393.591	226.64
393.801	99.67
394.01	234.83
394.22	23.89
394.429	64.85
394.639	97.62
394.848	144.72
395.058	116.05
395.267	91.48
395.477	144.72
395.686	58.71
395.895	181.59
396.105	204.11
396.314	97.62
396.524	140.63
396.733	64.85
396.942	107.86
397.152	93.52
397.361	97.62
397.57	126.29
397.78	134.48
397.989	163.15
398.198	132.44
398.407	107.86
398.617	152.91
398.826	71
399.035	128.34
399.244	193.87
399.453	109.91
399.663	122.2
399.872	71
400.081	122.2
400.29	185.68
400.499	83.28
400.708	93.52
400.917	107.86
401.127	157.01
401.336	75.09
401.545	183.63
401.754	111.96
401.963	130.39
402.172	169.3
402.381	107.86
402.59	105.81
402.799	64.85
403.008	183.63
403.217	161.11
403.426	189.78
403.635	73.04
403.844	232.79
404.053	77.14
404.262	181.59
404.471	236.88
404.68	85.33
404.888	71
405.097	132.44
405.306	185.68
405.515	193.87
405.724	142.68
405.933	195.92
406.142	191.83
406.35	245.07
406.559	238.93
406.768	107.86
406.977	286.03
407.185	169.3
407.394	279.89
407.603	218.45
407.812	247.12
408.02	275.79
408.229	189.78
408.438	298.32
408.646	173.39
408.855	189.78
409.064	232.79
409.272	210.26
409.481	380.24
409.69	314.7
409.898	247.12
410.107	365.9
410.315	240.98
410.524	290.13
410.733	298.32
410.941	410.96
411.15	367.95
411.358	347.47
411.567	367.95
411.775	396.62
411.984	386.38
412.192	484.69
412.401	388.43
412.609	509.26
412.818	443.73
413.026	490.83
413.234	486.73
413.443	578.89
413.651	533.84
413.86	560.46
414.068	689.48
414.276	658.76
414.485	605.52
414.693	576.84
414.901	703.82
415.11	646.48
415.318	595.28
415.526	652.62
415.734	623.95
415.943	757.07
416.151	877.9
416.359	818.5
416.567	806.22
416.776	838.98
416.984	871.75
417.192	1058.12
417.4	970.05
417.608	959.81
417.817	1107.27
418.025	1076.55
418.233	1135.94
418.441	1054.02
418.649	1090.88
418.857	1250.63
419.065	1279.3
419.273	1129.8
419.481	1277.25
419.689	1242.43
419.897	1424.7
420.105	1398.08
420.313	1506.62
420.521	1494.33
420.729	1641.79
420.937	1652.03
421.145	1619.26
421.353	1813.82
421.561	1795.39
421.769	1873.21
421.977	1918.26
422.185	2008.37
422.393	2047.29
422.601	2137.4
422.809	2164.02
423.017	2090.29
423.224	2278.71
423.432	2360.63
423.64	2358.58
423.848	2575.66
424.056	2401.58
424.263	2585.9
424.471	2614.57
424.679	2745.64
424.887	2841.9
425.094	3142.95
425.302	3061.03
425.51	3140.9
425.718	3208.48
425.925	3249.44
426.133	3456.29
426.341	3532.06
426.548	3722.52
426.756	3712.28
426.964	3812.64
427.171	3929.37
427.379	4158.74
427.586	4013.34
427.794	4199.7
428.001	4461.84
428.209	4676.88
428.417	4674.83
428.624	4848.91
428.832	4900.11
429.039	4885.77
429.247	4855.05
429.454	5340.42
429.662	5557.5
429.869	5266.69
430.076	5678.33
430.284	5590.27
430.491	5731.58
430.699	5946.62
430.906	5987.58
431.114	6065.4
431.321	6337.78
431.528	6442.23
431.736	6941.93
431.943	7255.27
432.15	6958.32
432.358	7169.26
432.565	7474.4
432.772	7347.43
432.979	7955.68
433.187	7912.67
433.394	7898.33
433.601	8414.42
433.808	8590.55
434.016	8383.7
434.223	8817.87
434.43	9430.21
434.637	9342.15
434.844	9741.5
435.052	10003.64
435.259	9774.27
435.466	10075.32
435.673	9792.7
435.88	10544.31
436.087	11216.04
436.294	11095.21
436.501	10933.42
436.708	11261.1
436.915	11496.61
437.122	11957.41
437.329	11981.98
437.537	12272.79
437.743	12483.73
437.95	12432.54
438.157	13091.98
438.364	13556.87
438.571	13577.35
438.778	13493.38
438.985	14777.46
439.192	14072.96
439.399	14644.34
439.606	14136.45
439.813	15174.77
440.02	15836.26
440.227	15823.97
440.433	15522.92
440.64	16047.2
440.847	16100.45
441.054	16473.18
441.261	17675.34
441.467	17521.74
441.674	17742.92
441.881	18312.25
442.088	18172.99
442.294	18064.45
442.501	18623.55
442.708	18922.55
442.914	19620.91
443.121	20282.4
443.328	20071.46
443.534	21312.53
443.741	20554.78
443.948	20452.38
444.154	21885.96
444.361	21969.93
444.568	21910.53
444.774	22070.28
444.981	22434.81
445.187	22612.99
445.394	23772.14
445.6	23538.67
445.807	25519.06
446.013	24339.43
446.22	25033.69
446.426	25940.94
446.633	26082.25
446.839	26993.59
447.046	25916.36
447.252	27358.13
447.459	27638.7
447.665	27495.35
447.871	28713.89
448.078	30036.88
448.284	28412.84
448.491	29092.76
448.697	30176.14
448.903	31226.74
449.11	30851.97
449.316	30450.56
449.522	31150.97
449.728	31916.91
449.935	32166.76
450.141	31857.52
450.347	32940.89
450.553	31791.98
450.76	31929.2
450.966	33293.15
451.172	32885.6
451.378	33559.38
451.584	32824.16
451.791	33598.29
451.997	33698.64
452.203	34212.68
452.409	33975.12
452.615	33979.21
452.821	32342.89
453.027	32377.7
453.233	33962.83
453.44	32349.03
453.646	32906.08
453.852	32934.75
454.058	33739.6
454.264	32648.04
454.47	33178.46
454.676	32488.29
454.882	33440.6
455.088	30790.53
455.294	31191.93
455.5	31294.33
455.705	31564.66
455.911	30598.02
456.117	30045.07
456.323	29733.78
456.529	28013.48
456.735	29217.69
456.941	28566.43
457.147	27931.56
457.352	27182.01
457.558	26876.86
457.764	26878.91
457.97	26358.72
458.176	25684.94
458.381	25562.06
458.587	24548.32
458.793	24755.16
458.999	22881.27
459.204	24622.05
459.41	23966.7
459.616	22789.11
459.821	22524.93
460.027	22520.83
460.233	22021.13
460.438	21283.86
460.644	20947.99
460.85	20145.19
461.055	19743.78
461.261	19809.32
461.466	18246.72
461.672	17701.96
461.878	18805.81
462.083	17835.08
462.289	17226.83
462.494	17239.12
462.7	16614.49
462.905	16032.86
463.111	16643.16
463.316	16628.82
463.522	16299.1
463.727	16460.89
463.932	16315.48
464.138	16065.63
464.343	16159.84
464.549	15481.96
464.754	16039.01
464.959	15881.31
465.165	15830.12
465.37	15209.58
465.575	14773.36
465.781	15404.14
465.986	15385.71
466.191	14914.67
466.397	14773.36
466.602	13784.19
