Data from USB4F104151__11__12-00-23-753.txt Node

Date: Fri Mar 14 12:00:23 EDT 2025
User: louis
Spectrometer: USB4F10415
Trigger mode: 4
Integration Time (sec): 2.000000E-2
Scans to average: 1
Electric dark correction enabled: true
Nonlinearity correction enabled: false
Boxcar width: 0
XAxis mode: Wavelengths
Number of Pixels in Spectrum: 3648
>>>>>Begin Spectral Data<<<<<
178.204	-94.21
178.424	-94.21
178.644	-94.21
178.864	-90.11
179.084	-114.69
179.304	45.06
179.524	22.53
179.744	24.58
179.964	30.72
180.184	-67.58
180.404	-18.43
180.624	-4.1
180.844	0
181.064	-22.53
181.283	65.53
181.503	-67.58
181.723	-8.19
181.943	-16.38
182.163	26.62
182.383	4.1
182.602	12.29
182.822	-40.96
183.042	36.86
183.262	-59.39
183.482	-6.14
183.701	20.48
183.921	30.72
184.141	-77.82
184.361	30.72
184.58	24.58
184.8	-22.53
185.02	10.24
185.239	-8.19
185.459	-10.24
185.679	6.14
185.898	-40.96
186.118	20.48
186.338	-18.43
186.557	40.96
186.777	-24.58
186.997	36.86
187.216	-20.48
187.436	18.43
187.655	16.38
187.875	20.48
188.095	-24.58
188.314	-28.67
188.534	81.92
188.753	18.43
188.973	20.48
189.192	61.44
189.412	38.91
189.631	0
189.851	-2.05
190.07	-12.29
190.29	0
190.509	-43.01
190.729	-47.1
190.948	-45.06
191.168	90.11
191.387	102.4
191.607	-18.43
191.826	49.15
192.045	49.15
192.265	-2.05
192.484	-18.43
192.704	55.3
192.923	-4.1
193.142	-14.34
193.362	-24.58
193.581	86.01
193.8	47.1
194.02	38.91
194.239	47.1
194.458	14.34
194.678	24.58
194.897	51.2
195.116	14.34
195.335	-12.29
195.555	14.34
195.774	-8.19
195.993	-4.1
196.212	-24.58
196.432	22.53
196.651	20.48
196.87	-6.14
197.089	12.29
197.308	10.24
197.528	-10.24
197.747	34.82
197.966	20.48
198.185	-24.58
198.404	61.44
198.623	-71.68
198.842	-24.58
199.062	51.2
199.281	43.01
199.5	-63.49
199.719	57.34
199.938	-63.49
200.157	24.58
200.376	47.1
200.595	2.05
200.814	10.24
201.033	-57.34
201.252	-12.29
201.471	-22.53
201.69	67.58
201.909	-6.14
202.128	-40.96
202.347	8.19
202.566	-8.19
202.785	-45.06
203.004	53.25
203.223	59.39
203.442	-4.1
203.661	-22.53
203.879	8.19
204.098	26.62
204.317	8.19
204.536	22.53
204.755	43.01
204.974	45.06
205.193	18.43
205.411	51.2
205.63	-2.05
205.849	53.25
206.068	-16.38
206.287	18.43
206.505	79.87
206.724	-26.62
206.943	-38.91
207.162	-14.34
207.381	20.48
207.599	-67.58
207.818	22.53
208.037	-4.1
208.255	55.3
208.474	55.3
208.693	-63.49
208.911	-38.91
209.13	47.1
209.349	-22.53
209.567	6.14
209.786	61.44
210.005	-20.48
210.223	-2.05
210.442	24.58
210.661	-20.48
210.879	6.14
211.098	38.91
211.316	-2.05
211.535	-12.29
211.753	45.06
211.972	26.62
212.191	-12.29
212.409	26.62
212.628	47.1
212.846	51.2
213.065	98.3
213.283	38.91
213.502	-34.82
213.72	92.16
213.938	86.01
214.157	-16.38
214.375	-55.3
214.594	10.24
214.812	47.1
215.031	53.25
215.249	-8.19
215.467	12.29
215.686	16.38
215.904	22.53
216.122	28.67
216.341	28.67
216.559	6.14
216.778	53.25
216.996	-36.86
217.214	-4.1
217.432	-45.06
217.651	49.15
217.869	30.72
218.087	-28.67
218.306	-20.48
218.524	86.01
218.742	26.62
218.96	22.53
219.179	-4.1
219.397	8.19
219.615	92.16
219.833	-28.67
220.051	-12.29
220.27	-2.05
220.488	2.05
220.706	18.43
220.924	-47.1
221.142	100.35
221.36	-14.34
221.578	-4.1
221.796	-26.62
222.015	63.49
222.233	12.29
222.451	59.39
222.669	-24.58
222.887	45.06
223.105	-38.91
223.323	36.86
223.541	-22.53
223.759	-12.29
223.977	-12.29
224.195	24.58
224.413	-2.05
224.631	-26.62
224.849	-30.72
225.067	69.63
225.285	8.19
225.503	-47.1
225.721	8.19
225.939	-2.05
226.157	32.77
226.375	53.25
226.592	-22.53
226.81	-4.1
227.028	34.82
227.246	51.2
227.464	36.86
227.682	61.44
227.9	79.87
228.117	-6.14
228.335	-2.05
228.553	-6.14
228.771	-26.62
228.989	-18.43
229.206	0
229.424	104.45
229.642	59.39
229.86	-47.1
230.077	38.91
230.295	22.53
230.513	47.1
230.731	-6.14
230.948	61.44
231.166	63.49
231.384	-12.29
231.601	-51.2
231.819	24.58
232.037	77.82
232.254	43.01
232.472	-18.43
232.689	-6.14
232.907	-81.92
233.125	-18.43
233.342	69.63
233.56	-10.24
233.777	-14.34
233.995	28.67
234.213	49.15
234.43	30.72
234.648	-12.29
234.865	-2.05
235.083	24.58
235.3	-16.38
235.518	53.25
235.735	55.3
235.953	102.4
236.17	12.29
236.388	-24.58
236.605	-12.29
236.822	43.01
237.04	28.67
237.257	34.82
237.475	36.86
237.692	-47.1
237.909	-2.05
238.127	8.19
238.344	-14.34
238.562	0
238.779	47.1
238.996	20.48
239.214	-49.15
239.431	49.15
239.648	20.48
239.865	47.1
240.083	55.3
240.3	-65.54
240.517	-49.15
240.735	43.01
240.952	43.01
241.169	14.34
241.386	10.24
241.603	63.49
241.821	32.77
242.038	63.49
242.255	49.15
242.472	-38.91
242.689	59.39
242.907	59.39
243.124	-55.3
243.341	16.38
243.558	26.62
243.775	4.1
243.992	20.48
244.209	43.01
244.426	18.43
244.643	16.38
244.86	55.3
245.078	53.25
245.295	24.58
245.512	-6.14
245.729	16.38
245.946	-10.24
246.163	-26.62
246.38	0
246.597	-32.77
246.814	61.44
247.031	40.96
247.248	32.77
247.464	-20.48
247.681	38.91
247.898	-12.29
248.115	4.1
248.332	69.63
248.549	47.1
248.766	94.21
248.983	22.53
249.2	6.14
249.417	57.34
249.633	-22.53
249.85	-12.29
250.067	28.67
250.284	86.01
250.501	81.92
250.717	40.96
250.934	-4.1
251.151	2.05
251.368	-22.53
251.585	73.73
251.801	45.06
252.018	-45.06
252.235	-16.38
252.451	-28.67
252.668	65.53
252.885	10.24
253.102	40.96
253.318	69.63
253.535	32.77
253.752	-59.39
253.968	45.06
254.185	24.58
254.401	-30.72
254.618	57.34
254.835	18.43
255.051	102.4
255.268	110.59
255.484	14.34
255.701	-28.67
255.917	59.39
256.134	26.62
256.351	-40.96
256.567	24.58
256.784	-73.73
257	20.48
257.217	-2.05
257.433	77.82
257.65	-8.19
257.866	2.05
258.082	-16.38
258.299	49.15
258.515	-22.53
258.732	-16.38
258.948	100.35
259.165	47.1
259.381	-2.05
259.597	-2.05
259.814	12.29
260.03	12.29
260.246	14.34
260.463	0
260.679	63.49
260.895	-34.82
261.112	-20.48
261.328	45.06
261.544	67.58
261.761	49.15
261.977	16.38
262.193	12.29
262.409	14.34
262.626	-2.05
262.842	26.62
263.058	-49.15
263.274	-43.01
263.49	-55.3
263.707	100.35
263.923	2.05
264.139	24.58
264.355	47.1
264.571	20.48
264.787	24.58
265.004	-6.14
265.22	26.62
265.436	-22.53
265.652	-20.48
265.868	45.06
266.084	-14.34
266.3	57.34
266.516	-14.34
266.732	53.25
266.948	-45.06
267.164	12.29
267.38	12.29
267.596	0
267.812	57.34
268.028	88.06
268.244	36.86
268.46	-10.24
268.676	16.38
268.892	-20.48
269.108	18.43
269.324	30.72
269.54	-16.38
269.756	-36.86
269.972	-28.67
270.188	12.29
270.403	4.1
270.619	75.77
270.835	51.2
271.051	30.72
271.267	32.77
271.483	4.1
271.698	51.2
271.914	61.44
272.13	-14.34
272.346	-8.19
272.562	-36.86
272.777	69.63
272.993	24.58
273.209	-2.05
273.425	34.82
273.64	40.96
273.856	4.1
274.072	2.05
274.287	36.86
274.503	61.44
274.719	8.19
274.934	-26.62
275.15	12.29
275.366	0
275.581	94.21
275.797	47.1
276.012	36.86
276.228	57.34
276.444	-6.14
276.659	59.39
276.875	43.01
277.09	-32.77
277.306	-8.19
277.521	38.91
277.737	-59.39
277.952	32.77
278.168	16.38
278.383	-116.73
278.599	-16.38
278.814	-6.14
279.03	-32.77
279.245	-38.91
279.461	-20.48
279.676	104.45
279.892	-26.62
280.107	71.68
280.322	10.24
280.538	-28.67
280.753	36.86
280.969	79.87
281.184	53.25
281.399	55.3
281.615	-16.38
281.83	28.67
282.045	24.58
282.26	-6.14
282.476	14.34
282.691	16.38
282.906	38.91
283.122	2.05
283.337	-45.06
283.552	86.01
283.767	-26.62
283.983	92.16
284.198	32.77
284.413	8.19
284.628	36.86
284.843	34.82
285.058	24.58
285.274	-18.43
285.489	6.14
285.704	81.92
285.919	-12.29
286.134	-2.05
286.349	-45.06
286.564	36.86
286.779	34.82
286.995	16.38
287.21	-34.82
287.425	24.58
287.64	26.62
287.855	22.53
288.07	-26.62
288.285	55.3
288.5	98.3
288.715	4.1
288.93	38.91
289.145	22.53
289.36	-14.34
289.575	-4.1
289.79	28.67
290.004	63.49
290.219	67.58
290.434	-14.34
290.649	16.38
290.864	-2.05
291.079	4.1
291.294	20.48
291.509	38.91
291.724	4.1
291.938	-45.06
292.153	114.69
292.368	-34.82
292.583	30.72
292.798	65.53
293.012	-96.25
293.227	96.25
293.442	38.91
293.657	43.01
293.871	-2.05
294.086	0
294.301	116.73
294.516	-20.48
294.73	65.53
294.945	-12.29
295.16	24.58
295.374	77.82
295.589	32.77
295.804	-12.29
296.018	-12.29
296.233	38.91
296.447	-10.24
296.662	-51.2
296.877	36.86
297.091	-34.82
297.306	-14.34
297.52	-24.58
297.735	34.82
297.949	-34.82
298.164	71.68
298.378	20.48
298.593	-32.77
298.807	-8.19
299.022	-12.29
299.236	81.92
299.451	6.14
299.665	10.24
299.88	30.72
300.094	-16.38
300.309	2.05
300.523	28.67
300.737	-12.29
300.952	-16.38
301.166	22.53
301.381	14.34
301.595	20.48
301.809	55.3
302.024	49.15
302.238	-24.58
302.452	36.86
302.667	45.06
302.881	-14.34
303.095	10.24
303.309	32.77
303.524	-6.14
303.738	24.58
303.952	0
304.166	108.54
304.381	-34.82
304.595	40.96
304.809	14.34
305.023	49.15
305.237	14.34
305.452	102.4
305.666	22.53
305.88	24.58
306.094	-8.19
306.308	6.14
306.522	0
306.736	20.48
306.95	-8.19
307.164	10.24
307.379	-14.34
307.593	-18.43
307.807	-18.43
308.021	28.67
308.235	26.62
308.449	-83.97
308.663	43.01
308.877	26.62
309.091	14.34
309.305	71.68
309.519	-38.91
309.733	-2.05
309.947	55.3
310.161	18.43
310.374	12.29
310.588	51.2
310.802	69.63
311.016	12.29
311.23	22.53
311.444	45.06
311.658	43.01
311.872	-8.19
312.085	53.25
312.299	-30.72
312.513	-4.1
312.727	38.91
312.941	6.14
313.154	12.29
313.368	32.77
313.582	24.58
313.796	51.2
314.009	43.01
314.223	36.86
314.437	10.24
314.651	4.1
314.864	18.43
315.078	77.82
315.292	14.34
315.505	114.69
315.719	2.05
315.933	77.82
316.146	-2.05
316.36	55.3
316.573	77.82
316.787	49.15
317.001	36.86
317.214	24.58
317.428	10.24
317.641	38.91
317.855	43.01
318.068	40.96
318.282	45.06
318.495	83.97
318.709	6.14
318.922	-12.29
319.136	38.91
319.349	6.14
319.563	86.01
319.776	79.87
319.99	6.14
320.203	69.63
320.417	36.86
320.63	32.77
320.843	28.67
321.057	45.06
321.27	61.44
321.483	14.34
321.697	67.58
321.91	-43.01
322.124	12.29
322.337	-40.96
322.55	-24.58
322.763	14.34
322.977	47.1
323.19	67.58
323.403	-22.53
323.617	-16.38
323.83	22.53
324.043	14.34
324.256	22.53
324.469	20.48
324.683	83.97
324.896	-63.49
325.109	12.29
325.322	-14.34
325.535	30.72
325.748	-38.91
325.962	-12.29
326.175	69.63
326.388	53.25
326.601	100.35
326.814	38.91
327.027	55.3
327.24	45.06
327.453	-24.58
327.666	20.48
327.879	67.58
328.092	-2.05
328.305	6.14
328.518	69.63
328.731	-67.58
328.944	86.01
329.157	36.86
329.37	32.77
329.583	24.58
329.796	26.62
330.009	12.29
330.222	45.06
330.435	69.63
330.648	-8.19
330.861	-14.34
331.073	24.58
331.286	57.34
331.499	81.92
331.712	-8.19
331.925	-28.67
332.138	-20.48
332.35	26.62
332.563	92.16
332.776	43.01
332.989	-57.34
333.202	59.39
333.414	43.01
333.627	4.1
333.84	73.73
334.053	14.34
334.265	-55.3
334.478	53.25
334.691	71.68
334.903	40.96
335.116	18.43
335.329	-12.29
335.541	40.96
335.754	57.34
335.966	-22.53
336.179	28.67
336.392	-53.25
336.604	-16.38
336.817	86.01
337.029	49.15
337.242	38.91
337.454	73.73
337.667	79.87
337.88	30.72
338.092	63.49
338.305	32.77
338.517	-22.53
338.729	-2.05
338.942	63.49
339.154	-10.24
339.367	14.34
339.579	40.96
339.792	-45.06
340.004	-51.2
340.217	22.53
340.429	51.2
340.641	-38.91
340.854	26.62
341.066	53.25
341.278	110.59
341.491	53.25
341.703	59.39
341.915	4.1
342.128	83.97
342.34	36.86
342.552	65.53
342.764	-10.24
342.977	67.58
343.189	34.82
343.401	26.62
343.613	-40.96
343.826	10.24
344.038	-10.24
344.25	32.77
344.462	81.92
344.674	-26.62
344.886	18.43
345.099	30.72
345.311	22.53
345.523	102.4
345.735	20.48
345.947	-2.05
346.159	71.68
346.371	18.43
346.583	30.72
346.795	36.86
347.007	30.72
347.219	43.01
347.431	73.73
347.643	24.58
347.855	6.14
348.067	26.62
348.279	22.53
348.491	14.34
348.703	53.25
348.915	-22.53
349.127	71.68
349.339	-20.48
349.551	18.43
349.763	53.25
349.975	-43.01
350.187	96.25
350.399	-8.19
350.61	-18.43
350.822	4.1
351.034	77.82
351.246	18.43
351.458	-18.43
351.669	65.53
351.881	36.86
352.093	51.2
352.305	14.34
352.517	20.48
352.728	55.3
352.94	45.06
353.152	116.73
353.363	-57.34
353.575	0
353.787	2.05
353.999	-32.77
354.21	32.77
354.422	-34.82
354.633	45.06
354.845	4.1
355.057	65.53
355.268	-4.1
355.48	6.14
355.692	63.49
355.903	73.73
356.115	10.24
356.326	-49.15
356.538	55.3
356.749	61.44
356.961	63.49
357.172	57.34
357.384	53.25
357.595	75.77
357.807	-14.34
358.018	34.82
358.23	8.19
358.441	28.67
358.653	34.82
358.864	8.19
359.075	26.62
359.287	26.62
359.498	-10.24
359.709	26.62
359.921	-26.62
360.132	69.63
360.344	36.86
360.555	51.2
360.766	38.91
360.977	20.48
361.189	79.87
361.4	-6.14
361.611	71.68
361.823	38.91
362.034	-43.01
362.245	4.1
362.456	-10.24
362.667	43.01
362.879	-30.72
363.09	14.34
363.301	73.73
363.512	30.72
363.723	43.01
363.935	75.77
364.146	69.63
364.357	92.16
364.568	47.1
364.779	34.82
364.99	83.97
365.201	4.1
365.412	45.06
365.623	-22.53
365.834	55.3
366.045	24.58
366.256	57.34
366.467	38.91
366.678	88.06
366.889	-40.96
367.1	-4.1
367.311	67.58
367.522	24.58
367.733	30.72
367.944	40.96
368.155	49.15
368.366	67.58
368.577	69.63
368.788	65.53
368.999	40.96
369.209	0
369.42	-6.14
369.631	12.29
369.842	36.86
370.053	16.38
370.264	24.58
370.474	-6.14
370.685	-45.06
370.896	4.1
371.107	18.43
371.317	32.77
371.528	30.72
371.739	47.1
371.95	59.39
372.16	67.58
372.371	57.34
372.582	18.43
372.792	57.34
373.003	92.16
373.214	-2.05
373.424	53.25
373.635	30.72
373.846	28.67
374.056	4.1
374.267	36.86
374.477	6.14
374.688	28.67
374.898	30.72
375.109	65.53
375.319	57.34
375.53	92.16
375.74	45.06
375.951	75.77
376.161	83.97
376.372	20.48
376.582	30.72
376.793	36.86
377.003	61.44
377.214	45.06
377.424	-36.86
377.635	104.45
377.845	-10.24
378.055	73.73
378.266	20.48
378.476	102.4
378.686	2.05
378.897	26.62
379.107	55.3
379.317	98.3
379.528	20.48
379.738	77.82
379.948	-4.1
380.158	100.35
380.369	51.2
380.579	-6.14
380.789	-51.2
380.999	73.73
381.21	40.96
381.42	110.59
381.63	12.29
381.84	100.35
382.05	20.48
382.261	106.49
382.471	65.53
382.681	18.43
382.891	98.3
383.101	43.01
383.311	49.15
383.521	96.25
383.731	-18.43
383.941	108.54
384.151	36.86
384.361	20.48
384.571	6.14
384.781	36.86
384.991	57.34
385.201	96.25
385.411	61.44
385.621	-12.29
385.831	40.96
386.041	61.44
386.251	59.39
386.461	67.58
386.671	16.38
386.881	38.91
387.091	36.86
387.301	104.45
387.511	8.19
387.72	10.24
387.93	53.25
388.14	49.15
388.35	26.62
388.56	-34.82
388.769	106.49
388.979	4.1
389.189	24.58
389.399	0
389.609	94.21
389.818	36.86
390.028	57.34
390.238	86.01
390.447	28.67
390.657	57.34
390.867	22.53
391.076	34.82
391.286	53.25
391.496	24.58
391.705	53.25
391.915	30.72
392.125	69.63
392.334	6.14
392.544	77.82
392.753	51.2
392.963	98.3
393.172	90.11
393.382	43.01
393.591	47.1
393.801	30.72
394.01	126.97
394.22	83.97
394.429	51.2
394.639	100.35
394.848	65.53
395.058	114.69
395.267	83.97
395.477	75.77
395.686	24.58
395.895	71.68
396.105	100.35
396.314	141.31
396.524	51.2
396.733	137.21
396.942	36.86
397.152	43.01
397.361	73.73
397.57	38.91
397.78	81.92
397.989	139.26
398.198	94.21
398.407	100.35
398.617	77.82
398.826	106.49
399.035	57.34
399.244	86.01
399.453	106.49
399.663	61.44
399.872	116.73
400.081	108.54
400.29	18.43
400.499	81.92
400.708	126.97
400.917	126.97
401.127	67.58
401.336	26.62
401.545	116.73
401.754	155.65
401.963	112.64
402.172	61.44
402.381	90.11
402.59	108.54
402.799	75.77
403.008	184.32
403.217	159.74
403.426	120.83
403.635	108.54
403.844	139.26
404.053	176.13
404.262	63.49
404.471	219.13
404.68	137.21
404.888	112.64
405.097	188.41
405.306	167.93
405.515	200.7
405.724	131.07
405.933	98.3
406.142	133.12
406.35	147.45
406.559	194.56
406.768	217.08
406.977	231.42
407.185	165.89
407.394	231.42
407.603	174.08
407.812	114.69
408.02	196.61
408.229	247.8
408.438	192.51
408.646	192.51
408.855	192.51
409.064	301.05
409.272	237.56
409.481	276.48
409.69	221.18
409.898	272.38
410.107	329.72
410.315	403.45
410.524	313.34
410.733	305.15
410.941	331.77
411.15	329.72
411.358	358.39
411.567	466.94
411.775	464.89
411.984	454.65
412.192	471.03
412.401	405.5
412.609	495.61
412.818	561.14
413.026	624.63
413.234	559.1
413.443	571.38
413.651	632.82
413.86	643.06
414.068	591.86
414.276	718.84
414.485	559.1
414.693	712.69
414.901	759.8
415.11	786.42
415.318	757.75
415.526	737.27
415.734	757.75
415.943	776.18
416.151	888.82
416.359	907.25
416.567	950.26
416.776	919.54
416.984	1003.5
417.192	1089.52
417.4	1101.81
417.608	1114.09
417.817	1187.82
418.025	1163.25
418.233	1245.16
418.441	1243.12
418.649	1259.5
418.857	1304.56
419.065	1368.04
419.273	1368.04
419.481	1431.53
419.689	1626.09
419.897	1691.62
420.105	1685.48
420.313	1675.24
420.521	1802.21
420.729	1818.6
420.937	1882.08
421.145	1955.81
421.353	2043.87
421.561	2103.26
421.769	2179.04
421.977	2193.37
422.185	2256.86
422.393	2371.55
422.601	2455.51
422.809	2562.01
423.017	2371.55
423.224	2695.13
423.432	2846.68
423.64	2865.11
423.848	2987.99
424.056	2944.98
424.263	3196.88
424.471	3239.89
424.679	3215.31
424.887	3370.96
425.094	3401.68
425.302	3612.62
425.51	3479.5
425.718	3766.21
425.925	3866.56
426.133	3880.9
426.341	4202.43
426.548	4351.93
426.756	4323.26
426.964	4368.32
427.171	4542.39
427.379	4972.47
427.586	4980.66
427.794	4925.36
428.001	5255.09
428.209	5455.79
428.417	5277.62
428.624	5998.5
428.832	5853.09
429.039	5736.36
429.247	5994.4
429.454	6342.56
429.662	6829.98
429.869	6203.3
430.076	6768.54
430.284	6659.99
430.491	7032.72
430.699	7210.9
430.906	7354.26
431.114	7268.24
431.321	7565.2
431.528	7761.8
431.736	8265.6
431.943	8855.42
432.15	8376.19
432.358	8746.87
432.565	8939.38
432.772	8998.77
432.979	9455.47
433.187	9682.8
433.394	9686.89
433.601	10413.92
433.808	10264.42
434.016	10385.25
434.223	10893.15
434.43	11419.47
434.637	10987.35
434.844	11880.27
435.052	12123.97
435.259	12042.06
435.466	12410.69
435.673	11997
435.88	12752.7
436.087	13655.86
436.294	13705.01
436.501	13268.79
436.708	13455.15
436.915	13846.32
437.122	14507.81
437.329	14386.98
437.537	15150.87
437.743	15384.34
437.95	15296.28
438.157	16056.07
438.364	16496.39
438.571	16541.44
438.778	16541.44
438.985	17932.01
439.192	17559.28
439.399	17878.77
439.606	17524.47
439.813	18505.45
440.02	19576.53
440.227	19488.47
440.433	18716.39
440.64	19787.47
440.847	19762.9
441.054	20221.64
441.261	21497.53
441.467	21157.57
441.674	21724.85
441.881	22480.55
442.088	22173.36
442.294	22116.01
442.501	22585
442.708	23400.09
442.914	24268.43
443.121	25446.01
443.328	24436.36
443.534	26007.16
443.741	25411.2
443.948	25116.29
444.154	27033.19
444.361	26793.58
444.568	26830.44
444.774	27051.62
444.981	27430.49
445.187	28120.66
445.394	29036.1
445.6	29089.35
445.807	31749.66
446.013	30420.53
446.22	30766.63
446.426	32323.09
446.633	32443.92
446.839	33295.88
447.046	32189.97
447.252	34057.72
447.459	33977.85
447.665	33451.52
447.871	35579.36
448.078	37074.38
448.284	35413.48
448.491	35958.24
448.697	37092.81
448.903	38438.33
449.11	38092.22
449.316	37440.96
449.522	37799.36
449.728	39458.21
449.935	39148.97
450.141	39351.72
450.347	39904.67
450.553	39093.68
450.76	39730.59
450.966	40711.57
451.172	40267.16
451.378	41260.43
451.584	40142.24
451.791	41252.23
451.997	41250.19
452.203	41719.17
452.409	41817.47
452.615	41352.58
452.821	40285.59
453.027	39450.02
453.233	41870.72
453.44	40000.93
453.646	40482.2
453.852	40508.82
454.058	41137.55
454.264	39962.01
454.47	40875.41
454.676	39574.95
454.882	41213.32
455.088	37451.2
455.294	38098.36
455.5	38421.94
455.705	38589.88
455.911	37031.37
456.117	36546
456.323	35765.73
456.529	34225.65
456.735	35378.66
456.941	34686.45
457.147	33893.88
457.352	32933.39
457.558	32450.06
457.764	32671.25
457.97	32101.91
458.176	31342.11
458.381	31338.02
458.587	29587
458.793	29738.55
458.999	28403.28
459.204	30297.65
459.41	29343.3
459.616	27545.18
459.821	27438.69
460.027	27541.08
460.233	26547.82
460.438	25486.97
460.644	25704.06
460.85	24569.48
461.055	24321.68
461.261	24188.56
461.466	22132.4
461.672	21614.26
461.878	22890.15
462.083	21579.45
462.289	21192.38
462.494	21034.69
462.7	20008.65
462.905	19498.71
463.111	20219.6
463.316	20305.61
463.522	19812.05
463.727	19599.06
463.932	19990.22
464.138	19578.58
464.343	19523.29
464.549	19136.22
464.754	19807.95
464.959	19572.44
465.165	19338.97
465.37	18728.67
465.575	18046.7
465.781	18757.35
465.986	19029.73
466.191	18183.91
466.397	17989.36
466.602	16963.33
466.807	17823.47
467.012	17805.04
467.218	17542.9
467.423	17456.89
