Data from USB4F104151__14__12-00-25-053.txt Node

Date: Fri Mar 14 12:00:25 EDT 2025
User: louis
Spectrometer: USB4F10415
Trigger mode: 4
Integration Time (sec): 2.000000E-2
Scans to average: 1
Electric dark correction enabled: true
Nonlinearity correction enabled: false
Boxcar width: 0
XAxis mode: Wavelengths
Number of Pixels in Spectrum: 3648
>>>>>Begin Spectral Data<<<<<
178.204	-80.21
178.424	-80.21
178.644	-80.21
178.864	-80.21
179.084	-115.03
179.304	7.85
179.524	30.38
179.744	-29.01
179.964	65.19
180.184	46.76
180.404	-29.01
180.624	16.04
180.844	-4.44
181.064	-110.93
181.283	24.23
181.503	44.71
181.723	-61.78
181.943	-29.01
182.163	-16.73
182.383	-26.96
182.602	-18.77
182.822	16.04
183.042	-43.35
183.262	-12.63
183.482	13.99
183.701	42.67
183.921	34.47
184.141	1.71
184.361	95.91
184.58	40.62
184.8	44.71
185.02	-10.58
185.239	81.58
185.459	-16.73
185.679	50.86
185.898	-65.88
186.118	-55.64
186.338	46.76
186.557	38.57
186.777	57
186.997	-35.16
187.216	57
187.436	126.63
187.655	91.82
187.875	73.39
188.095	-26.96
188.314	75.43
188.534	48.81
188.753	48.81
188.973	-2.39
189.192	-2.39
189.412	26.28
189.631	75.43
189.851	-41.3
190.07	9.9
190.29	-12.63
190.509	54.95
190.729	-41.3
190.948	54.95
191.168	161.45
191.387	38.57
191.607	-18.77
191.826	75.43
192.045	-10.58
192.265	-47.44
192.484	26.28
192.704	5.8
192.923	40.62
193.142	153.26
193.362	11.95
193.581	-2.39
193.8	57
194.02	18.09
194.239	-51.54
194.458	38.57
194.678	16.04
194.897	-20.82
195.116	-37.2
195.335	87.72
195.555	-18.77
195.774	5.8
195.993	126.63
196.212	40.62
196.432	87.72
196.651	-0.34
196.87	-10.58
197.089	38.57
197.308	46.76
197.528	11.95
197.747	32.43
197.966	-31.06
198.185	108.2
198.404	11.95
198.623	50.86
198.842	57
199.062	18.09
199.281	93.87
199.5	-2.39
199.719	65.19
199.938	1.71
200.157	9.9
200.376	38.57
200.595	34.47
200.814	-2.39
201.033	-2.39
201.252	46.76
201.471	11.95
201.69	36.52
201.909	120.49
202.128	-14.68
202.347	71.34
202.566	93.87
202.785	-24.92
203.004	22.19
203.223	106.15
203.442	73.39
203.661	-67.92
203.879	13.99
204.098	-39.25
204.317	61.1
204.536	81.58
204.755	16.04
204.974	-35.16
205.193	-20.82
205.411	87.72
205.63	5.8
205.849	-31.06
206.068	44.71
206.287	128.68
206.505	50.86
206.724	-14.68
206.943	-6.49
207.162	104.11
207.381	-26.96
207.599	3.75
207.818	7.85
208.037	38.57
208.255	7.85
208.474	50.86
208.693	104.11
208.911	13.99
209.13	61.1
209.349	42.67
209.567	46.76
209.786	69.29
210.005	20.14
210.223	-31.06
210.442	-29.01
210.661	-26.96
210.879	3.75
211.098	110.25
211.316	-31.06
211.535	-20.82
211.753	44.71
211.972	61.1
212.191	24.23
212.409	-22.87
212.628	-20.82
212.846	54.95
213.065	85.67
213.283	46.76
213.502	67.24
213.72	30.38
213.938	104.11
214.157	-65.88
214.375	42.67
214.594	-20.82
214.812	57
215.031	28.33
215.249	18.09
215.467	85.67
215.686	9.9
215.904	71.34
216.122	83.63
216.341	46.76
216.559	28.33
216.778	48.81
216.996	83.63
217.214	36.52
217.432	24.23
217.651	-22.87
217.869	-4.44
218.087	18.09
218.306	-2.39
218.524	57
218.742	7.85
218.96	34.47
219.179	18.09
219.397	-10.58
219.615	75.43
219.833	52.91
220.051	38.57
220.27	28.33
220.488	18.09
220.706	57
220.924	63.15
221.142	67.24
221.36	44.71
221.578	-12.63
221.796	18.09
222.015	83.63
222.233	-6.49
222.451	54.95
222.669	22.19
222.887	34.47
223.105	9.9
223.323	1.71
223.541	79.53
223.759	93.87
223.977	38.57
224.195	-0.34
224.413	5.8
224.631	13.99
224.849	50.86
225.067	116.39
225.285	16.04
225.503	-24.92
225.721	16.04
225.939	48.81
226.157	-4.44
226.375	147.11
226.592	20.14
226.81	-8.53
227.028	52.91
227.246	95.91
227.464	18.09
227.682	28.33
227.9	-10.58
228.117	-6.49
228.335	50.86
228.553	36.52
228.771	16.04
228.989	-10.58
229.206	11.95
229.424	73.39
229.642	36.52
229.86	110.25
230.077	73.39
230.295	24.23
230.513	28.33
230.731	-14.68
230.948	38.57
231.166	-4.44
231.384	26.28
231.601	36.52
231.819	38.57
232.037	-16.73
232.254	1.71
232.472	9.9
232.689	-31.06
232.907	57
233.125	13.99
233.342	16.04
233.56	9.9
233.777	122.54
233.995	24.23
234.213	106.15
234.43	3.75
234.648	24.23
234.865	36.52
235.083	36.52
235.3	116.39
235.518	20.14
235.735	-49.49
235.953	122.54
236.17	38.57
236.388	122.54
236.605	3.75
236.822	102.06
237.04	-8.53
237.257	69.29
237.475	-2.39
237.692	32.43
237.909	40.62
238.127	34.47
238.344	61.1
238.562	-16.73
238.779	-26.96
238.996	-39.25
239.214	1.71
239.431	54.95
239.648	67.24
239.865	85.67
240.083	-47.44
240.3	13.99
240.517	16.04
240.735	-6.49
240.952	26.28
241.169	34.47
241.386	9.9
241.603	-10.58
241.821	-0.34
242.038	57
242.255	5.8
242.472	3.75
242.689	7.85
242.907	48.81
243.124	-4.44
243.341	59.05
243.558	16.04
243.775	-6.49
243.992	5.8
244.209	65.19
244.426	42.67
244.643	26.28
244.86	30.38
245.078	5.8
245.295	16.04
245.512	89.77
245.729	-8.53
245.946	-10.58
246.163	11.95
246.38	-16.73
246.597	13.99
246.814	34.47
247.031	-31.06
247.248	-35.16
247.464	40.62
247.681	32.43
247.898	108.2
248.115	20.14
248.332	18.09
248.549	91.82
248.766	59.05
248.983	87.72
249.2	-18.77
249.417	36.52
249.633	1.71
249.85	73.39
250.067	-29.01
250.284	77.48
250.501	46.76
250.717	18.09
250.934	18.09
251.151	69.29
251.368	-26.96
251.585	85.67
251.801	46.76
252.018	-41.3
252.235	28.33
252.451	11.95
252.668	24.23
252.885	42.67
253.102	65.19
253.318	30.38
253.535	-14.68
253.752	-26.96
253.968	50.86
254.185	-53.59
254.401	-18.77
254.618	57
254.835	52.91
255.051	13.99
255.268	26.28
255.484	-0.34
255.701	73.39
255.917	63.15
256.134	-0.34
256.351	1.71
256.567	7.85
256.784	54.95
257	-24.92
257.217	104.11
257.433	57
257.65	93.87
257.866	7.85
258.082	-0.34
258.299	28.33
258.515	63.15
258.732	30.38
258.948	-2.39
259.165	34.47
259.381	30.38
259.597	106.15
259.814	52.91
260.03	50.86
260.246	36.52
260.463	71.34
260.679	34.47
260.895	59.05
261.112	67.24
261.328	79.53
261.544	20.14
261.761	46.76
261.977	42.67
262.193	11.95
262.409	34.47
262.626	-18.77
262.842	-41.3
263.058	16.04
263.274	57
263.49	44.71
263.707	79.53
263.923	-59.73
264.139	65.19
264.355	3.75
264.571	147.11
264.787	30.38
265.004	38.57
265.22	44.71
265.436	-0.34
265.652	46.76
265.868	-0.34
266.084	44.71
266.3	44.71
266.516	-29.01
266.732	18.09
266.948	106.15
267.164	26.28
267.38	-20.82
267.596	75.43
267.812	87.72
268.028	30.38
268.244	-12.63
268.46	63.15
268.676	38.57
268.892	18.09
269.108	-0.34
269.324	30.38
269.54	16.04
269.756	48.81
269.972	-10.58
270.188	20.14
270.403	26.28
270.619	34.47
270.835	-39.25
271.051	32.43
271.267	40.62
271.483	-31.06
271.698	9.9
271.914	-14.68
272.13	36.52
272.346	83.63
272.562	122.54
272.777	36.52
272.993	-18.77
273.209	-12.63
273.425	-14.68
273.64	30.38
273.856	24.23
274.072	65.19
274.287	24.23
274.503	73.39
274.719	59.05
274.934	28.33
275.15	-2.39
275.366	46.76
275.581	52.91
275.797	50.86
276.012	26.28
276.228	57
276.444	-33.11
276.659	85.67
276.875	-67.92
277.09	7.85
277.306	-4.44
277.521	20.14
277.737	42.67
277.952	38.57
278.168	44.71
278.383	67.24
278.599	32.43
278.814	-0.34
279.03	34.47
279.245	102.06
279.461	-4.44
279.676	32.43
279.892	36.52
280.107	1.71
280.322	-10.58
280.538	5.8
280.753	48.81
280.969	26.28
281.184	71.34
281.399	128.68
281.615	-24.92
281.83	-4.44
282.045	-26.96
282.26	-2.39
282.476	7.85
282.691	11.95
282.906	59.05
283.122	91.82
283.337	-10.58
283.552	108.2
283.767	-8.53
283.983	63.15
284.198	42.67
284.413	93.87
284.628	-4.44
284.843	26.28
285.058	61.1
285.274	16.04
285.489	110.25
285.704	87.72
285.919	30.38
286.134	120.49
286.349	95.91
286.564	46.76
286.779	48.81
286.995	-26.96
287.21	44.71
287.425	75.43
287.64	16.04
287.855	9.9
288.07	16.04
288.285	71.34
288.5	81.58
288.715	9.9
288.93	69.29
289.145	26.28
289.36	34.47
289.575	63.15
289.79	77.48
290.004	-6.49
290.219	28.33
290.434	-4.44
290.649	5.8
290.864	26.28
291.079	69.29
291.294	26.28
291.509	40.62
291.724	81.58
291.938	93.87
292.153	18.09
292.368	-4.44
292.583	57
292.798	-20.82
293.012	83.63
293.227	1.71
293.442	67.24
293.657	128.68
293.871	67.24
294.086	-18.77
294.301	67.24
294.516	54.95
294.73	48.81
294.945	-43.35
295.16	65.19
295.374	112.3
295.589	9.9
295.804	-8.53
296.018	11.95
296.233	83.63
296.447	77.48
296.662	110.25
296.877	73.39
297.091	36.52
297.306	65.19
297.52	-0.34
297.735	48.81
297.949	65.19
298.164	-0.34
298.378	34.47
298.593	16.04
298.807	42.67
299.022	9.9
299.236	36.52
299.451	34.47
299.665	38.57
299.88	32.43
300.094	-14.68
300.309	7.85
300.523	1.71
300.737	16.04
300.952	87.72
301.166	77.48
301.381	-29.01
301.595	46.76
301.809	57
302.024	-18.77
302.238	26.28
302.452	40.62
302.667	46.76
302.881	36.52
303.095	40.62
303.309	52.91
303.524	3.75
303.738	42.67
303.952	-8.53
304.166	89.77
304.381	-37.2
304.595	40.62
304.809	-45.4
305.023	36.52
305.237	65.19
305.452	-6.49
305.666	65.19
305.88	20.14
306.094	59.05
306.308	38.57
306.522	26.28
306.736	-8.53
306.95	38.57
307.164	18.09
307.379	-26.96
307.593	118.44
307.807	46.76
308.021	-10.58
308.235	52.91
308.449	24.23
308.663	1.71
308.877	52.91
309.091	77.48
309.305	95.91
309.519	-6.49
309.733	91.82
309.947	71.34
310.161	108.2
310.374	87.72
310.588	124.58
310.802	-43.35
311.016	57
311.23	61.1
311.444	44.71
311.658	7.85
311.872	89.77
312.085	75.43
312.299	26.28
312.513	73.39
312.727	50.86
312.941	-22.87
313.154	-33.11
313.368	54.95
313.582	83.63
313.796	13.99
314.009	-26.96
314.223	54.95
314.437	44.71
314.651	20.14
314.864	104.11
315.078	77.48
315.292	61.1
315.505	26.28
315.719	79.53
315.933	18.09
316.146	26.28
316.36	30.38
316.573	5.8
316.787	57
317.001	114.34
317.214	-35.16
317.428	108.2
317.641	24.23
317.855	1.71
318.068	-6.49
318.282	24.23
318.495	128.68
318.709	54.95
318.922	79.53
319.136	71.34
319.349	28.33
319.563	26.28
319.776	95.91
319.99	20.14
320.203	11.95
320.417	38.57
320.63	13.99
320.843	65.19
321.057	102.06
321.27	32.43
321.483	83.63
321.697	30.38
321.91	75.43
322.124	-10.58
322.337	73.39
322.55	-49.49
322.763	93.87
322.977	-12.63
323.19	26.28
323.403	-18.77
323.617	-4.44
323.83	46.76
324.043	52.91
324.256	91.82
324.469	-33.11
324.683	71.34
324.896	50.86
325.109	38.57
325.322	34.47
325.535	11.95
325.748	67.24
325.962	-6.49
326.175	28.33
326.388	128.68
326.601	40.62
326.814	48.81
327.027	50.86
327.24	44.71
327.453	-26.96
327.666	16.04
327.879	18.09
328.092	46.76
328.305	54.95
328.518	5.8
328.731	-16.73
328.944	77.48
329.157	-39.25
329.37	-10.58
329.583	63.15
329.796	87.72
330.009	16.04
330.222	22.19
330.435	93.87
330.648	28.33
330.861	165.54
331.073	63.15
331.286	69.29
331.499	71.34
331.712	75.43
331.925	52.91
332.138	22.19
332.35	65.19
332.563	50.86
332.776	30.38
332.989	91.82
333.202	97.96
333.414	30.38
333.627	120.49
333.84	34.47
334.053	42.67
334.265	50.86
334.478	36.52
334.691	75.43
334.903	-14.68
335.116	-0.34
335.329	67.24
335.541	24.23
335.754	128.68
335.966	-0.34
336.179	77.48
336.392	91.82
336.604	89.77
336.817	50.86
337.029	61.1
337.242	65.19
337.454	26.28
337.667	85.67
337.88	65.19
338.092	46.76
338.305	7.85
338.517	-55.64
338.729	110.25
338.942	26.28
339.154	87.72
339.367	9.9
339.579	3.75
339.792	32.43
340.004	52.91
340.217	50.86
340.429	114.34
340.641	48.81
340.854	91.82
341.066	-35.16
341.278	-2.39
341.491	32.43
341.703	52.91
341.915	28.33
342.128	75.43
342.34	-10.58
342.552	36.52
342.764	61.1
342.977	59.05
343.189	9.9
343.401	50.86
343.613	-12.63
343.826	32.43
344.038	-16.73
344.25	18.09
344.462	124.58
344.674	61.1
344.886	38.57
345.099	34.47
345.311	18.09
345.523	-16.73
345.735	67.24
345.947	42.67
346.159	20.14
346.371	22.19
346.583	22.19
346.795	40.62
347.007	18.09
347.219	-6.49
347.431	59.05
347.643	91.82
347.855	69.29
348.067	46.76
348.279	63.15
348.491	13.99
348.703	22.19
348.915	102.06
349.127	-8.53
349.339	75.43
349.551	95.91
349.763	83.63
349.975	13.99
350.187	57
350.399	97.96
350.61	114.34
350.822	36.52
351.034	38.57
351.246	110.25
351.458	-2.39
351.669	-8.53
351.881	71.34
352.093	87.72
352.305	126.63
352.517	81.58
352.728	102.06
352.94	57
353.152	50.86
353.363	54.95
353.575	69.29
353.787	59.05
353.999	77.48
354.21	32.43
354.422	54.95
354.633	73.39
354.845	46.76
355.057	54.95
355.268	77.48
355.48	120.49
355.692	46.76
355.903	11.95
356.115	3.75
356.326	50.86
356.538	93.87
356.749	52.91
356.961	5.8
357.172	48.81
357.384	50.86
357.595	97.96
357.807	81.58
358.018	91.82
358.23	128.68
358.441	93.87
358.653	22.19
358.864	52.91
359.075	38.57
359.287	57
359.498	28.33
359.709	91.82
359.921	134.82
360.132	79.53
360.344	18.09
360.555	30.38
360.766	46.76
360.977	20.14
361.189	40.62
361.4	149.16
361.611	71.34
361.823	26.28
362.034	83.63
362.245	65.19
362.456	26.28
362.667	18.09
362.879	36.52
363.09	-41.3
363.301	67.24
363.512	63.15
363.723	-31.06
363.935	50.86
364.146	91.82
364.357	73.39
364.568	71.34
364.779	73.39
364.99	57
365.201	24.23
365.412	77.48
365.623	79.53
365.834	102.06
366.045	67.24
366.256	77.48
366.467	11.95
366.678	89.77
366.889	102.06
367.1	44.71
367.311	-35.16
367.522	5.8
367.733	108.2
367.944	71.34
368.155	40.62
368.366	71.34
368.577	59.05
368.788	124.58
368.999	61.1
369.209	69.29
369.42	85.67
369.631	87.72
369.842	57
370.053	73.39
370.264	75.43
370.474	1.71
370.685	69.29
370.896	44.71
371.107	42.67
371.317	54.95
371.528	67.24
371.739	44.71
371.95	63.15
372.16	28.33
372.371	-29.01
372.582	3.75
372.792	32.43
373.003	79.53
373.214	65.19
373.424	118.44
373.635	48.81
373.846	18.09
374.056	32.43
374.267	91.82
374.477	38.57
374.688	-12.63
374.898	38.57
375.109	48.81
375.319	91.82
375.53	97.96
375.74	-29.01
375.951	71.34
376.161	50.86
376.372	61.1
376.582	81.58
376.793	42.67
377.003	73.39
377.214	81.58
377.424	65.19
377.635	108.2
377.845	28.33
378.055	77.48
378.266	-6.49
378.476	48.81
378.686	-2.39
378.897	102.06
379.107	93.87
379.317	89.77
379.528	46.76
379.738	81.58
379.948	7.85
380.158	67.24
380.369	100.01
380.579	50.86
380.789	26.28
380.999	46.76
381.21	11.95
381.42	18.09
381.63	50.86
381.84	65.19
382.05	108.2
382.261	30.38
382.471	89.77
382.681	65.19
382.891	73.39
383.101	13.99
383.311	40.62
383.521	32.43
383.731	75.43
383.941	63.15
384.151	100.01
384.361	83.63
384.571	46.76
384.781	81.58
384.991	110.25
385.201	138.92
385.411	20.14
385.621	48.81
385.831	75.43
386.041	61.1
386.251	52.91
386.461	106.15
386.671	-24.92
386.881	102.06
387.091	104.11
387.301	116.39
387.511	54.95
387.72	124.58
387.93	11.95
388.14	67.24
388.35	63.15
388.56	81.58
388.769	140.97
388.979	83.63
389.189	13.99
389.399	50.86
389.609	93.87
389.818	85.67
390.028	83.63
390.238	106.15
390.447	63.15
390.657	3.75
390.867	126.63
391.076	112.3
391.286	79.53
391.496	77.48
391.705	48.81
391.915	106.15
392.125	140.97
392.334	95.91
392.544	83.63
392.753	93.87
392.963	-0.34
393.172	59.05
393.382	122.54
393.591	120.49
393.801	79.53
394.01	104.11
394.22	104.11
394.429	112.3
394.639	65.19
394.848	157.35
395.058	157.35
395.267	65.19
395.477	110.25
395.686	87.72
395.895	100.01
396.105	153.26
396.314	136.87
396.524	93.87
396.733	67.24
396.942	136.87
397.152	87.72
397.361	87.72
397.57	65.19
397.78	48.81
397.989	97.96
398.198	65.19
398.407	120.49
398.617	145.06
398.826	128.68
399.035	181.93
399.244	147.11
399.453	95.91
399.663	120.49
399.872	161.45
400.081	59.05
400.29	183.98
400.499	108.2
400.708	128.68
400.917	106.15
401.127	110.25
401.336	24.23
401.545	243.37
401.754	118.44
401.963	63.15
402.172	83.63
402.381	120.49
402.59	134.82
402.799	155.3
403.008	220.84
403.217	151.21
403.426	112.3
403.635	57
403.844	138.92
404.053	116.39
404.262	100.01
404.471	210.6
404.68	159.4
404.888	188.07
405.097	177.83
405.306	153.26
405.515	196.26
405.724	143.02
405.933	249.51
406.142	247.46
406.35	179.88
406.559	124.58
406.768	186.02
406.977	280.23
407.185	155.3
407.394	235.18
407.603	239.27
407.812	190.12
408.02	263.85
408.229	241.32
408.438	259.75
408.646	249.51
408.855	278.18
409.064	237.22
409.272	298.66
409.481	253.61
409.69	288.42
409.898	286.37
410.107	360.1
410.315	378.53
410.524	331.43
410.733	431.78
410.941	392.87
411.15	442.02
411.358	439.97
411.567	472.74
411.775	335.53
411.984	458.4
412.192	528.03
412.401	485.03
412.609	575.14
412.818	550.56
413.026	538.27
413.234	548.51
413.443	581.28
413.651	562.85
413.86	605.86
414.068	743.07
414.276	624.29
414.485	732.83
414.693	702.11
414.901	700.06
415.11	724.64
415.318	880.29
415.526	818.85
415.734	790.17
415.943	888.48
416.151	888.48
416.359	984.73
416.567	1027.74
416.776	1009.31
416.984	1040.03
417.192	1101.47
417.4	1134.23
417.608	1140.38
417.817	1134.23
418.025	1279.64
418.233	1373.85
418.441	1277.59
418.649	1359.51
418.857	1457.81
419.065	1449.62
419.273	1478.29
419.481	1533.59
419.689	1597.07
419.897	1791.63
420.105	1758.86
420.313	1715.86
420.521	1822.35
420.729	1820.3
420.937	1982.09
421.145	2008.72
421.353	2184.84
421.561	2162.31
421.769	2254.47
421.977	2408.07
422.185	2242.18
422.393	2381.45
422.601	2559.62
422.809	2573.96
423.017	2571.91
423.224	2571.91
423.432	2811.52
423.64	2817.66
423.848	3106.43
424.056	2987.65
424.263	3380.86
424.471	3274.36
424.679	3364.47
424.887	3526.26
425.094	3643
425.302	3624.56
425.51	3780.21
425.718	3946.09
425.925	3802.74
426.133	4034.16
426.341	4214.38
426.548	4537.96
426.756	4492.9
426.964	4634.21
427.171	4773.47
427.379	4888.16
427.586	5045.85
427.794	5099.1
428.001	5523.03
428.209	5705.3
428.417	5412.44
428.624	5897.81
428.832	6020.69
429.039	5926.48
429.247	5918.29
429.454	6381.13
429.662	6835.78
429.869	6401.61
430.076	6860.35
430.284	6641.22
430.491	7085.63
430.699	7255.61
430.906	7454.26
431.114	7382.59
431.321	7798.32
431.528	7910.96
431.736	8502.82
431.943	8805.92
432.15	8594.98
432.358	8433.19
432.565	9293.34
432.772	9287.2
432.979	9633.3
433.187	9608.73
433.394	9829.91
433.601	10413.58
433.808	10561.03
434.016	10440.2
434.223	10995.2
434.43	11552.25
434.637	11341.31
434.844	12094.96
435.052	12359.15
435.259	12318.19
435.466	12344.81
435.673	12072.43
435.88	12942.82
436.087	13313.5
436.294	13647.32
436.501	13372.89
436.708	13491.68
436.915	14187.99
437.122	14759.37
437.329	14724.55
437.537	15097.28
437.743	15441.34
437.95	15343.04
438.157	16104.88
438.364	16479.66
438.571	16434.61
438.778	16608.69
438.985	18214.29
439.192	17802.65
439.399	18400.66
439.606	17948.06
439.813	18900.36
440.02	19875.2
440.227	19725.69
440.433	19373.44
440.64	20221.3
440.847	20215.16
441.054	20452.72
441.261	21652.83
441.467	21556.58
441.674	21865.82
441.881	22990.16
442.088	22965.58
442.294	22676.82
442.501	23098.7
442.708	23489.86
442.914	24511.8
443.121	25816.35
443.328	24780.08
443.534	26651.92
443.741	25724.19
443.948	25627.94
444.154	27335.95
444.361	27641.09
444.568	27716.87
444.774	27288.84
444.981	27739.4
445.187	28603.64
445.394	29967.59
445.6	29697.25
445.807	32128.19
446.013	31055.06
446.22	31395.02
446.426	32656.57
446.633	32832.69
446.839	33948.84
447.046	32693.43
447.252	34544.8
447.459	34307.23
447.665	34219.17
447.871	35736.71
448.078	37127.28
448.284	35339.41
448.491	36627.58
448.697	38118.5
448.903	38761.56
449.11	38741.08
449.316	37987.43
449.522	38800.47
449.728	39681.1
449.935	40408.13
450.141	39967.82
450.347	40711.23
450.553	39564.37
450.76	40082.5
450.966	41180.21
451.172	40768.57
451.378	42095.66
451.584	41129.02
451.791	42226.73
451.997	42019.88
452.203	42527.78
452.409	42609.7
452.615	42030.12
452.821	40741.95
453.027	40293.44
453.233	42075.18
453.44	40596.54
453.646	40981.56
453.852	41280.56
454.058	41694.25
454.264	40641.6
454.47	41270.32
454.676	40186.95
454.882	41817.13
455.088	38075.49
455.294	38753.37
455.5	39267.41
455.705	39380.05
455.911	37489.77
456.117	36961.4
456.323	36584.57
456.529	34905.24
456.735	36146.31
456.941	35464.33
457.147	34653.34
457.352	33541.29
457.558	33053.87
457.764	33279.15
457.97	32507.07
458.176	31792.33
458.381	32083.14
458.587	30364.89
458.793	30000.35
458.999	28886.26
459.204	30674.13
459.41	29830.37
459.616	27892.99
459.821	27573.51
460.027	27540.74
460.233	26957.07
460.438	26000.67
460.644	25902.37
460.85	25023.79
461.055	24341.82
461.261	24534.32
461.466	22433.11
461.672	21869.92
461.878	23539.01
462.083	21841.25
462.289	21316.97
462.494	21382.5
462.7	20485.49
462.905	19778.94
463.111	20323.7
463.316	20452.72
463.522	19926.39
463.727	20135.29
463.932	20049.27
464.138	19985.79
464.343	19975.55
464.549	19498.37
464.754	19893.63
464.959	19944.83
465.165	19750.27
465.37	18662.8
465.575	18398.61
465.781	19213.7
465.986	19103.11
466.191	18615.69
466.397	18144.66
466.602	17278.37
466.807	17851.8
467.012	18134.42
467.218	18034.07
467.423	17782.17
