Data from USB4F104151__34__12-00-42-912.txt Node

Date: Fri Mar 14 12:00:42 EDT 2025
User: louis
Spectrometer: USB4F10415
Trigger mode: 4
Integration Time (sec): 2.000000E-2
Scans to average: 1
Electric dark correction enabled: true
Nonlinearity correction enabled: false
Boxcar width: 0
XAxis mode: Wavelengths
Number of Pixels in Spectrum: 3648
>>>>>Begin Spectral Data<<<<<
178.204	-5.12
178.424	-5.12
178.644	-5.12
178.864	-72.7
179.084	-87.04
179.304	31.74
179.524	-23.55
179.744	-60.42
179.964	-27.65
180.184	11.26
180.404	-9.22
180.624	-31.74
180.844	50.18
181.064	-7.17
181.283	48.13
181.503	-19.46
181.723	37.89
181.943	50.18
182.163	31.74
182.383	-3.07
182.602	15.36
182.822	-29.7
183.042	68.61
183.262	58.37
183.482	23.55
183.701	15.36
183.921	56.32
184.141	-27.65
184.361	5.12
184.58	1.02
184.8	68.61
185.02	-5.12
185.239	25.6
185.459	-35.84
185.679	1.02
185.898	-9.22
186.118	31.74
186.338	60.42
186.557	-33.79
186.777	11.26
186.997	-19.46
187.216	-9.22
187.436	82.94
187.655	1.02
187.875	-3.07
188.095	23.55
188.314	44.03
188.534	54.27
188.753	17.41
188.973	-5.12
189.192	9.22
189.412	60.42
189.631	-3.07
189.851	17.41
190.07	56.32
190.29	68.61
190.509	-46.08
190.729	68.61
190.948	-5.12
191.168	35.84
191.387	70.65
191.607	-9.22
191.826	15.36
192.045	25.6
192.265	-15.36
192.484	37.89
192.704	25.6
192.923	91.13
193.142	46.08
193.362	54.27
193.581	33.79
193.8	15.36
194.02	7.17
194.239	7.17
194.458	-5.12
194.678	21.5
194.897	25.6
195.116	-15.36
195.335	41.98
195.555	1.02
195.774	27.65
195.993	46.08
196.212	-15.36
196.432	46.08
196.651	31.74
196.87	5.12
197.089	7.17
197.308	39.94
197.528	13.31
197.747	-7.17
197.966	25.6
198.185	128
198.404	-21.5
198.623	56.32
198.842	89.09
199.062	19.46
199.281	21.5
199.5	39.94
199.719	64.51
199.938	-39.94
200.157	-7.17
200.376	-11.26
200.595	80.89
200.814	56.32
201.033	-29.7
201.252	31.74
201.471	5.12
201.69	58.37
201.909	27.65
202.128	31.74
202.347	41.98
202.566	19.46
202.785	7.17
203.004	-60.42
203.223	56.32
203.442	9.22
203.661	7.17
203.879	70.65
204.098	44.03
204.317	-29.7
204.536	37.89
204.755	-3.07
204.974	-13.31
205.193	11.26
205.411	15.36
205.63	13.31
205.849	41.98
206.068	9.22
206.287	50.18
206.505	-35.84
206.724	-1.02
206.943	-7.17
207.162	125.95
207.381	25.6
207.599	5.12
207.818	-17.41
208.037	27.65
208.255	23.55
208.474	17.41
208.693	25.6
208.911	-17.41
209.13	62.46
209.349	-19.46
209.567	60.42
209.786	68.61
210.005	-62.46
210.223	1.02
210.442	70.65
210.661	-9.22
210.879	-50.18
211.098	15.36
211.316	-19.46
211.535	113.66
211.753	9.22
211.972	3.07
212.191	68.61
212.409	5.12
212.628	89.09
212.846	-60.42
213.065	25.6
213.283	31.74
213.502	13.31
213.72	50.18
213.938	9.22
214.157	52.22
214.375	-25.6
214.594	-54.27
214.812	-25.6
215.031	19.46
215.249	-7.17
215.467	50.18
215.686	99.33
215.904	70.65
216.122	-25.6
216.341	46.08
216.559	70.65
216.778	-41.98
216.996	64.51
217.214	-15.36
217.432	-7.17
217.651	50.18
217.869	31.74
218.087	66.56
218.306	1.02
218.524	130.05
218.742	-9.22
218.96	58.37
219.179	-31.74
219.397	56.32
219.615	44.03
219.833	17.41
220.051	-48.13
220.27	46.08
220.488	89.09
220.706	25.6
220.924	17.41
221.142	-3.07
221.36	52.22
221.578	-35.84
221.796	46.08
222.015	-1.02
222.233	31.74
222.451	58.37
222.669	-9.22
222.887	33.79
223.105	17.41
223.323	84.99
223.541	-11.26
223.759	-11.26
223.977	-11.26
224.195	35.84
224.413	50.18
224.631	19.46
224.849	99.33
225.067	15.36
225.285	84.99
225.503	44.03
225.721	3.07
225.939	3.07
226.157	17.41
226.375	89.09
226.592	-15.36
226.81	70.65
227.028	15.36
227.246	89.09
227.464	-1.02
227.682	54.27
227.9	35.84
228.117	54.27
228.335	15.36
228.553	56.32
228.771	33.79
228.989	-19.46
229.206	80.89
229.424	-27.65
229.642	-25.6
229.86	11.26
230.077	21.5
230.295	39.94
230.513	39.94
230.731	21.5
230.948	11.26
231.166	35.84
231.384	56.32
231.601	11.26
231.819	56.32
232.037	11.26
232.254	3.07
232.472	29.7
232.689	27.65
232.907	70.65
233.125	17.41
233.342	-39.94
233.56	19.46
233.777	25.6
233.995	-7.17
234.213	11.26
234.43	-17.41
234.648	13.31
234.865	46.08
235.083	15.36
235.3	17.41
235.518	72.7
235.735	-13.31
235.953	-21.5
236.17	-3.07
236.388	44.03
236.605	5.12
236.822	56.32
237.04	9.22
237.257	60.42
237.475	-3.07
237.692	121.85
237.909	27.65
238.127	46.08
238.344	52.22
238.562	9.22
238.779	54.27
238.996	-9.22
239.214	-25.6
239.431	74.75
239.648	48.13
239.865	9.22
240.083	33.79
240.3	37.89
240.517	41.98
240.735	-1.02
240.952	58.37
241.169	-3.07
241.386	41.98
241.603	5.12
241.821	29.7
242.038	70.65
242.255	-35.84
242.472	-54.27
242.689	95.23
242.907	140.29
243.124	-25.6
243.341	68.61
243.558	-29.7
243.775	25.6
243.992	-7.17
244.209	54.27
244.426	39.94
244.643	50.18
244.86	-44.03
245.078	35.84
245.295	80.89
245.512	-15.36
245.729	-23.55
245.946	19.46
246.163	5.12
246.38	-1.02
246.597	-3.07
246.814	3.07
247.031	-15.36
247.248	31.74
247.464	-9.22
247.681	-1.02
247.898	3.07
248.115	62.46
248.332	-29.7
248.549	56.32
248.766	58.37
248.983	-9.22
249.2	48.13
249.417	-13.31
249.633	-25.6
249.85	44.03
250.067	-1.02
250.284	68.61
250.501	66.56
250.717	56.32
250.934	25.6
251.151	89.09
251.368	-60.42
251.585	15.36
251.801	74.75
252.018	9.22
252.235	29.7
252.451	82.94
252.668	46.08
252.885	121.85
253.102	-7.17
253.318	-29.7
253.535	74.75
253.752	-17.41
253.968	62.46
254.185	-21.5
254.401	19.46
254.618	5.12
254.835	58.37
255.051	-50.18
255.268	62.46
255.484	9.22
255.701	15.36
255.917	-33.79
256.134	56.32
256.351	15.36
256.567	11.26
256.784	-13.31
257	-35.84
257.217	44.03
257.433	37.89
257.65	44.03
257.866	33.79
258.082	31.74
258.299	-3.07
258.515	54.27
258.732	-1.02
258.948	17.41
259.165	-13.31
259.381	-17.41
259.597	27.65
259.814	60.42
260.03	15.36
260.246	50.18
260.463	7.17
260.679	109.57
260.895	-9.22
261.112	84.99
261.328	17.41
261.544	35.84
261.761	13.31
261.977	25.6
262.193	44.03
262.409	105.47
262.626	48.13
262.842	91.13
263.058	21.5
263.274	56.32
263.49	50.18
263.707	-1.02
263.923	15.36
264.139	-21.5
264.355	37.89
264.571	13.31
264.787	-46.08
265.004	66.56
265.22	48.13
265.436	-48.13
265.652	64.51
265.868	46.08
266.084	19.46
266.3	21.5
266.516	-5.12
266.732	60.42
266.948	1.02
267.164	72.7
267.38	-56.32
267.596	11.26
267.812	23.55
268.028	31.74
268.244	105.47
268.46	1.02
268.676	13.31
268.892	-13.31
269.108	9.22
269.324	-9.22
269.54	-25.6
269.756	9.22
269.972	-17.41
270.188	35.84
270.403	-9.22
270.619	27.65
270.835	31.74
271.051	-11.26
271.267	-27.65
271.483	-9.22
271.698	76.8
271.914	29.7
272.13	-11.26
272.346	-50.18
272.562	15.36
272.777	5.12
272.993	-41.98
273.209	17.41
273.425	97.28
273.64	13.31
273.856	15.36
274.072	72.7
274.287	1.02
274.503	7.17
274.719	-3.07
274.934	7.17
275.15	13.31
275.366	44.03
275.581	21.5
275.797	105.47
276.012	5.12
276.228	-31.74
276.444	3.07
276.659	7.17
276.875	-23.55
277.09	1.02
277.306	70.65
277.521	46.08
277.737	48.13
277.952	25.6
278.168	56.32
278.383	35.84
278.599	23.55
278.814	-37.89
279.03	62.46
279.245	130.05
279.461	-46.08
279.676	31.74
279.892	89.09
280.107	5.12
280.322	-9.22
280.538	25.6
280.753	23.55
280.969	52.22
281.184	13.31
281.399	-25.6
281.615	25.6
281.83	33.79
282.045	31.74
282.26	39.94
282.476	9.22
282.691	17.41
282.906	-27.65
283.122	74.75
283.337	37.89
283.552	56.32
283.767	31.74
283.983	87.04
284.198	-5.12
284.413	33.79
284.628	-1.02
284.843	52.22
285.058	-48.13
285.274	-15.36
285.489	23.55
285.704	25.6
285.919	46.08
286.134	64.51
286.349	82.94
286.564	19.46
286.779	66.56
286.995	25.6
287.21	5.12
287.425	9.22
287.64	48.13
287.855	21.5
288.07	-17.41
288.285	60.42
288.5	39.94
288.715	9.22
288.93	-25.6
289.145	-54.27
289.36	-17.41
289.575	66.56
289.79	-23.55
290.004	31.74
290.219	58.37
290.434	70.65
290.649	46.08
290.864	23.55
291.079	-39.94
291.294	82.94
291.509	-11.26
291.724	5.12
291.938	3.07
292.153	56.32
292.368	-39.94
292.583	64.51
292.798	3.07
293.012	15.36
293.227	-27.65
293.442	21.5
293.657	-39.94
293.871	41.98
294.086	13.31
294.301	48.13
294.516	56.32
294.73	9.22
294.945	-48.13
295.16	15.36
295.374	25.6
295.589	52.22
295.804	17.41
296.018	44.03
296.233	52.22
296.447	31.74
296.662	-56.32
296.877	-17.41
297.091	13.31
297.306	54.27
297.52	25.6
297.735	58.37
297.949	19.46
298.164	64.51
298.378	29.7
298.593	13.31
298.807	27.65
299.022	97.28
299.236	80.89
299.451	23.55
299.665	5.12
299.88	31.74
300.094	-25.6
300.309	56.32
300.523	-25.6
300.737	-9.22
300.952	27.65
301.166	19.46
301.381	-11.26
301.595	37.89
301.809	9.22
302.024	66.56
302.238	3.07
302.452	76.8
302.667	66.56
302.881	39.94
303.095	103.42
303.309	-15.36
303.524	64.51
303.738	62.46
303.952	-3.07
304.166	-39.94
304.381	41.98
304.595	52.22
304.809	21.5
305.023	15.36
305.237	23.55
305.452	-3.07
305.666	66.56
305.88	9.22
306.094	-7.17
306.308	-13.31
306.522	50.18
306.736	-52.22
306.95	80.89
307.164	50.18
307.379	31.74
307.593	115.71
307.807	107.52
308.021	5.12
308.235	119.81
308.449	13.31
308.663	-9.22
308.877	31.74
309.091	-3.07
309.305	46.08
309.519	5.12
309.733	74.75
309.947	15.36
310.161	9.22
310.374	37.89
310.588	72.7
310.802	31.74
311.016	-39.94
311.23	125.95
311.444	54.27
311.658	-7.17
311.872	-11.26
312.085	-3.07
312.299	52.22
312.513	35.84
312.727	9.22
312.941	50.18
313.154	29.7
313.368	70.65
313.582	68.61
313.796	48.13
314.009	-5.12
314.223	97.28
314.437	70.65
314.651	23.55
314.864	74.75
315.078	-15.36
315.292	82.94
315.505	3.07
315.719	19.46
315.933	48.13
316.146	58.37
316.36	-41.98
316.573	31.74
316.787	66.56
317.001	-5.12
317.214	3.07
317.428	68.61
317.641	-7.17
317.855	72.7
318.068	-50.18
318.282	-7.17
318.495	21.5
318.709	60.42
318.922	9.22
319.136	78.85
319.349	136.19
319.563	13.31
319.776	58.37
319.99	46.08
320.203	68.61
320.417	41.98
320.63	56.32
320.843	109.57
321.057	72.7
321.27	78.85
321.483	25.6
321.697	41.98
321.91	13.31
322.124	107.52
322.337	70.65
322.55	-41.98
322.763	111.61
322.977	7.17
323.19	23.55
323.403	9.22
323.617	27.65
323.83	66.56
324.043	39.94
324.256	25.6
324.469	17.41
324.683	72.7
324.896	-74.75
325.109	-9.22
325.322	19.46
325.535	115.71
325.748	54.27
325.962	52.22
326.175	-21.5
326.388	31.74
326.601	68.61
326.814	-39.94
327.027	35.84
327.24	91.13
327.453	-17.41
327.666	13.31
327.879	37.89
328.092	-21.5
328.305	17.41
328.518	-7.17
328.731	56.32
328.944	64.51
329.157	25.6
329.37	48.13
329.583	74.75
329.796	95.23
330.009	1.02
330.222	56.32
330.435	29.7
330.648	54.27
330.861	107.52
331.073	33.79
331.286	64.51
331.499	72.7
331.712	31.74
331.925	37.89
332.138	-21.5
332.35	134.14
332.563	5.12
332.776	99.33
332.989	48.13
333.202	31.74
333.414	39.94
333.627	50.18
333.84	41.98
334.053	58.37
334.265	41.98
334.478	25.6
334.691	41.98
334.903	11.26
335.116	54.27
335.329	56.32
335.541	68.61
335.754	109.57
335.966	-33.79
336.179	7.17
336.392	-13.31
336.604	84.99
336.817	31.74
337.029	66.56
337.242	23.55
337.454	109.57
337.667	44.03
337.88	15.36
338.092	-1.02
338.305	33.79
338.517	15.36
338.729	95.23
338.942	17.41
339.154	31.74
339.367	25.6
339.579	37.89
339.792	29.7
340.004	31.74
340.217	-25.6
340.429	-7.17
340.641	-1.02
340.854	82.94
341.066	54.27
341.278	11.26
341.491	39.94
341.703	23.55
341.915	9.22
342.128	68.61
342.34	66.56
342.552	29.7
342.764	-35.84
342.977	115.71
343.189	91.13
343.401	7.17
343.613	-50.18
343.826	23.55
344.038	1.02
344.25	58.37
344.462	23.55
344.674	50.18
344.886	23.55
345.099	82.94
345.311	82.94
345.523	13.31
345.735	15.36
345.947	25.6
346.159	56.32
346.371	5.12
346.583	9.22
346.795	66.56
347.007	54.27
347.219	-35.84
347.431	-9.22
347.643	76.8
347.855	19.46
348.067	111.61
348.279	-19.46
348.491	5.12
348.703	72.7
348.915	74.75
349.127	-1.02
349.339	7.17
349.551	56.32
349.763	-25.6
349.975	113.66
350.187	60.42
350.399	35.84
350.61	-29.7
350.822	-13.31
351.034	-9.22
351.246	60.42
351.458	52.22
351.669	-25.6
351.881	25.6
352.093	111.61
352.305	58.37
352.517	54.27
352.728	72.7
352.94	27.65
353.152	11.26
353.363	60.42
353.575	11.26
353.787	74.75
353.999	17.41
354.21	68.61
354.422	37.89
354.633	-3.07
354.845	80.89
355.057	52.22
355.268	15.36
355.48	46.08
355.692	-11.26
355.903	52.22
356.115	48.13
356.326	11.26
356.538	107.52
356.749	74.75
356.961	107.52
357.172	5.12
357.384	91.13
357.595	15.36
357.807	66.56
358.018	13.31
358.23	-1.02
358.441	-13.31
358.653	58.37
358.864	-7.17
359.075	9.22
359.287	60.42
359.498	70.65
359.709	-11.26
359.921	37.89
360.132	142.33
360.344	11.26
360.555	-15.36
360.766	50.18
360.977	54.27
361.189	119.81
361.4	-1.02
361.611	37.89
361.823	25.6
362.034	68.61
362.245	35.84
362.456	33.79
362.667	29.7
362.879	9.22
363.09	52.22
363.301	54.27
363.512	-3.07
363.723	66.56
363.935	31.74
364.146	66.56
364.357	101.37
364.568	66.56
364.779	17.41
364.99	60.42
365.201	56.32
365.412	41.98
365.623	19.46
365.834	21.5
366.045	72.7
366.256	15.36
366.467	58.37
366.678	7.17
366.889	50.18
367.1	23.55
367.311	89.09
367.522	35.84
367.733	91.13
367.944	17.41
368.155	56.32
368.366	41.98
368.577	64.51
368.788	68.61
368.999	19.46
369.209	19.46
369.42	111.61
369.631	66.56
369.842	66.56
370.053	80.89
370.264	60.42
370.474	-11.26
370.685	37.89
370.896	9.22
371.107	84.99
371.317	64.51
371.528	39.94
371.739	111.61
371.95	62.46
372.16	101.37
372.371	101.37
372.582	-3.07
372.792	1.02
373.003	78.85
373.214	64.51
373.424	115.71
373.635	3.07
373.846	119.81
374.056	128
374.267	17.41
374.477	146.43
374.688	95.23
374.898	72.7
375.109	64.51
375.319	121.85
375.53	46.08
375.74	13.31
375.951	-9.22
376.161	48.13
376.372	78.85
376.582	56.32
376.793	62.46
377.003	-17.41
377.214	46.08
377.424	111.61
377.635	105.47
377.845	35.84
378.055	138.24
378.266	56.32
378.476	87.04
378.686	-3.07
378.897	19.46
379.107	66.56
379.317	111.61
379.528	27.65
379.738	15.36
379.948	-25.6
380.158	35.84
380.369	27.65
380.579	117.76
380.789	78.85
380.999	-5.12
381.21	19.46
381.42	54.27
381.63	11.26
381.84	105.47
382.05	39.94
382.261	-11.26
382.471	150.53
382.681	-19.46
382.891	70.65
383.101	84.99
383.311	3.07
383.521	119.81
383.731	128
383.941	84.99
384.151	1.02
384.361	62.46
384.571	105.47
384.781	97.28
384.991	9.22
385.201	54.27
385.411	123.9
385.621	17.41
385.831	113.66
386.041	72.7
386.251	19.46
386.461	123.9
386.671	35.84
386.881	39.94
387.091	95.23
387.301	64.51
387.511	35.84
387.72	66.56
387.93	29.7
388.14	84.99
388.35	21.5
388.56	29.7
388.769	58.37
388.979	99.33
389.189	72.7
389.399	17.41
389.609	72.7
389.818	39.94
390.028	33.79
390.238	70.65
390.447	13.31
390.657	56.32
390.867	50.18
391.076	115.71
391.286	66.56
391.496	64.51
391.705	66.56
391.915	95.23
392.125	25.6
392.334	70.65
392.544	123.9
392.753	130.05
392.963	60.42
393.172	89.09
393.382	35.84
393.591	82.94
393.801	68.61
394.01	95.23
394.22	64.51
394.429	78.85
394.639	27.65
394.848	146.43
395.058	35.84
395.267	91.13
395.477	60.42
395.686	136.19
395.895	148.48
396.105	209.92
396.314	89.09
396.524	115.71
396.733	111.61
396.942	105.47
397.152	117.76
397.361	84.99
397.57	70.65
397.78	109.57
397.989	46.08
398.198	132.09
398.407	29.7
398.617	150.53
398.826	117.76
399.035	134.14
399.244	148.48
399.453	101.37
399.663	117.76
399.872	138.24
400.081	197.63
400.29	160.77
400.499	115.71
400.708	142.33
400.917	56.32
401.127	78.85
401.336	113.66
401.545	185.34
401.754	95.23
401.963	150.53
402.172	160.77
402.381	132.09
402.59	187.39
402.799	132.09
403.008	193.53
403.217	181.25
403.426	146.43
403.635	84.99
403.844	166.91
404.053	220.16
404.262	193.53
404.471	164.86
404.68	109.57
404.888	203.77
405.097	136.19
405.306	185.34
405.515	185.34
405.724	193.53
405.933	232.44
406.142	304.12
406.35	263.16
406.559	162.81
406.768	168.96
406.977	238.59
407.185	191.49
407.394	250.88
407.603	254.97
407.812	261.12
408.02	273.4
408.229	273.4
408.438	283.64
408.646	252.92
408.855	291.84
409.064	269.31
409.272	336.89
409.481	361.47
409.69	328.7
409.898	336.89
410.107	367.61
410.315	396.28
410.524	416.76
410.733	355.32
410.941	480.25
411.15	492.54
411.358	414.71
411.567	564.22
411.775	539.64
411.984	549.88
412.192	564.22
412.401	570.36
412.609	637.94
412.818	603.13
413.026	713.72
413.234	664.57
413.443	660.47
413.651	689.14
413.86	721.91
414.068	791.54
414.276	732.15
414.485	828.4
414.693	795.64
414.901	859.12
415.11	926.71
415.318	861.17
415.526	936.95
415.734	998.38
415.943	1154.03
416.151	1065.97
416.359	1092.59
416.567	1164.27
416.776	1174.51
416.984	1238
417.192	1352.68
417.4	1367.02
417.608	1186.8
417.817	1510.38
418.025	1432.55
418.233	1661.93
418.441	1471.47
418.649	1612.78
418.857	1682.41
419.065	1696.74
419.273	1758.18
419.481	1815.52
419.689	1885.16
419.897	2020.32
420.105	2032.61
420.313	2065.38
420.521	2102.24
420.729	2331.61
420.937	2180.06
421.145	2337.76
421.353	2466.78
421.561	2558.94
421.769	2565.08
421.977	2814.93
422.185	2776.02
422.393	2839.51
422.601	3060.69
422.809	3005.39
423.017	3058.64
423.224	3154.9
423.432	3333.07
423.64	3460.04
423.848	3709.9
424.056	3609.54
424.263	3744.71
424.471	3769.29
424.679	3969.99
424.887	4166.59
425.094	4250.56
425.302	4324.29
425.51	4457.4
425.718	4678.58
425.925	4690.87
426.133	4846.52
426.341	5073.84
426.548	5385.13
426.756	5198.77
426.964	5264.3
427.171	5661.61
427.379	5540.78
427.586	5909.41
427.794	6146.98
428.001	6548.38
428.209	6738.84
428.417	6558.62
428.624	7191.44
428.832	7111.57
429.039	6986.65
429.247	6835.1
429.454	7666.57
429.662	8504.19
429.869	7781.26
430.076	8280.96
430.284	7949.19
430.491	8248.19
430.699	8921.98
430.906	8733.56
431.114	8991.61
431.321	9216.88
431.528	9491.31
431.736	10046.31
431.943	10580.83
432.15	10384.23
432.358	10482.53
432.565	10845.02
432.772	10928.99
432.979	11506.51
433.187	11475.79
433.394	11721.55
433.601	12780.35
433.808	12774.21
434.016	12620.61
434.223	13151.03
434.43	13939.5
434.637	13804.33
434.844	14476.07
435.052	14799.65
435.259	14635.81
435.466	14895.9
435.673	14617.38
435.88	15717.14
436.087	16304.9
436.294	16290.57
436.501	16071.43
436.708	16460.55
436.915	17101.56
437.122	17930.99
437.329	17605.36
437.537	17976.05
437.743	18541.29
437.95	18518.76
438.157	19346.14
438.364	19806.93
438.571	19993.29
438.778	19915.47
438.985	22010.54
439.192	21400.25
439.399	21965.49
439.606	21320.38
439.813	22528.68
440.02	23976.59
440.227	23540.38
440.433	23106.21
440.64	24072.85
440.847	24169.1
441.054	24490.63
441.261	26100.34
441.467	25666.17
441.674	26348.14
441.881	27214.43
442.088	27290.21
442.294	27099.75
442.501	27347.55
442.708	27953.75
442.914	29057.6
443.121	30552.62
443.328	30001.72
443.534	31744.54
443.741	30833.19
443.948	30528.05
444.154	32852.49
444.361	32524.82
444.568	32954.89
444.774	33014.28
444.981	33219.08
445.187	34130.42
445.394	35840.48
445.6	35287.53
445.807	38449.59
446.013	36473.3
446.22	37513.67
446.426	39119.28
446.633	39193
446.839	40417.69
447.046	38762.93
447.252	41044.37
447.459	41116.04
447.665	40731.03
447.871	42310.01
448.078	44355.93
448.284	42297.72
448.491	43555.18
448.697	45001.04
448.903	45627.72
449.11	45961.54
449.316	44792.15
449.522	46416.19
449.728	47135.02
449.935	47507.76
450.141	47327.53
450.347	48470.3
450.553	47030.58
450.76	47425.84
450.966	48877.85
451.172	48322.85
451.378	50024.71
451.584	48605.47
451.791	49584.4
451.997	49414.41
452.203	50092.29
452.409	50579.71
452.615	49754.38
452.821	48316.7
453.027	47855.91
453.233	50110.72
453.44	47976.74
453.646	48826.65
453.852	48693.53
454.058	50094.34
454.264	47831.33
454.47	48740.63
454.676	47526.19
454.882	49707.27
455.088	45199.69
455.294	46055.75
455.5	46354.75
455.705	46463.29
455.911	45164.88
456.117	44073.31
456.323	43450.73
456.529	41490.82
456.735	42824.05
456.941	41759.11
457.147	41351.56
457.352	39723.43
457.558	39573.92
457.764	39424.42
457.97	38836.66
458.176	37988.8
458.381	37538.24
458.587	36235.74
458.793	36168.15
458.999	34015.74
459.204	36381.14
459.41	35574.24
459.616	32940.55
459.821	33040.9
460.027	32940.55
460.233	32242.2
460.438	30515.76
460.644	31195.68
460.85	29915.7
461.055	29248.07
461.261	29233.73
461.466	26815.08
461.672	26038.9
461.878	27796.06
462.083	26387.05
462.289	25432.7
462.494	25522.81
462.7	24439.44
462.905	23354.01
463.111	24396.43
463.316	24466.06
463.522	23909.01
463.727	24101.52
463.932	23855.76
464.138	23528.09
464.343	23937.68
464.549	23036.58
464.754	24023.7
464.959	23892.63
465.165	23534.23
465.37	22665.89
465.575	21922.48
465.781	22995.62
465.986	23003.81
466.191	22260.4
466.397	21689.01
466.602	20783.81
466.807	21654.2
467.012	21365.43
467.218	21469.88
467.423	20812.48
467.628	21332.67
