Data from USB4F104151__41__12-00-54-050.txt Node

Date: Fri Mar 14 12:00:54 EDT 2025
User: louis
Spectrometer: USB4F10415
Trigger mode: 4
Integration Time (sec): 2.000000E-2
Scans to average: 1
Electric dark correction enabled: true
Nonlinearity correction enabled: false
Boxcar width: 0
XAxis mode: Wavelengths
Number of Pixels in Spectrum: 3648
>>>>>Begin Spectral Data<<<<<
178.204	-131.07
178.424	-131.07
178.644	-131.07
178.864	-149.5
179.084	-108.54
179.304	-43.01
179.524	-30.72
179.744	-47.1
179.964	100.35
180.184	53.25
180.404	-75.77
180.624	20.48
180.844	-34.82
181.064	16.38
181.283	36.86
181.503	4.1
181.723	-0
181.943	-45.06
182.163	47.1
182.383	4.1
182.602	8.19
182.822	-38.91
183.042	-8.19
183.262	-28.67
183.482	4.1
183.701	24.58
183.921	6.14
184.141	-81.92
184.361	-63.49
184.58	-10.24
184.8	38.91
185.02	32.77
185.239	108.54
185.459	-30.72
185.679	51.2
185.898	-49.15
186.118	-18.43
186.338	-32.77
186.557	20.48
186.777	-10.24
186.997	18.43
187.216	-20.48
187.436	114.69
187.655	20.48
187.875	-20.48
188.095	-71.68
188.314	79.87
188.534	69.63
188.753	-24.58
188.973	79.87
189.192	43.01
189.412	-6.14
189.631	16.38
189.851	73.73
190.07	-6.14
190.29	2.05
190.509	-63.49
190.729	-12.29
190.948	61.44
191.168	18.43
191.387	-57.34
191.607	-8.19
191.826	14.34
192.045	24.58
192.265	32.77
192.484	26.62
192.704	34.82
192.923	-32.77
193.142	28.67
193.362	69.63
193.581	28.67
193.8	53.25
194.02	-8.19
194.239	55.3
194.458	-2.05
194.678	57.34
194.897	6.14
195.116	79.87
195.335	53.25
195.555	-71.68
195.774	24.58
195.993	45.06
196.212	-26.62
196.432	-30.72
196.651	-63.49
196.87	-6.14
197.089	49.15
197.308	4.1
197.528	-24.58
197.747	-6.14
197.966	32.77
198.185	57.34
198.404	36.86
198.623	102.4
198.842	10.24
199.062	-22.53
199.281	63.49
199.5	16.38
199.719	22.53
199.938	71.68
200.157	71.68
200.376	34.82
200.595	38.91
200.814	-28.67
201.033	59.39
201.252	-20.48
201.471	6.14
201.69	36.86
201.909	6.14
202.128	30.72
202.347	57.34
202.566	-49.15
202.785	-30.72
203.004	-16.38
203.223	92.16
203.442	-14.34
203.661	2.05
203.879	-45.06
204.098	-2.05
204.317	-6.14
204.536	-18.43
204.755	-22.53
204.974	-8.19
205.193	-12.29
205.411	26.62
205.63	-20.48
205.849	45.06
206.068	28.67
206.287	28.67
206.505	26.62
206.724	49.15
206.943	-22.53
207.162	-32.77
207.381	-20.48
207.599	4.1
207.818	-73.73
208.037	-28.67
208.255	61.44
208.474	22.53
208.693	-2.05
208.911	-16.38
209.13	-4.1
209.349	18.43
209.567	28.67
209.786	69.63
210.005	-53.25
210.223	49.15
210.442	8.19
210.661	2.05
210.879	10.24
211.098	-12.29
211.316	38.91
211.535	12.29
211.753	71.68
211.972	-0
212.191	4.1
212.409	24.58
212.628	22.53
212.846	28.67
213.065	8.19
213.283	-12.29
213.502	-24.58
213.72	8.19
213.938	-67.58
214.157	2.05
214.375	-10.24
214.594	-40.96
214.812	81.92
215.031	4.1
215.249	-14.34
215.467	-18.43
215.686	-10.24
215.904	38.91
216.122	83.97
216.341	-24.58
216.559	-20.48
216.778	-12.29
216.996	51.2
217.214	16.38
217.432	-0
217.651	22.53
217.869	-10.24
218.087	59.39
218.306	4.1
218.524	40.96
218.742	53.25
218.96	-20.48
219.179	63.49
219.397	4.1
219.615	47.1
219.833	-26.62
220.051	73.73
220.27	16.38
220.488	77.82
220.706	-34.82
220.924	-81.92
221.142	75.77
221.36	20.48
221.578	83.97
221.796	20.48
222.015	32.77
222.233	-2.05
222.451	73.73
222.669	-30.72
222.887	110.59
223.105	-4.1
223.323	14.34
223.541	16.38
223.759	55.3
223.977	-36.86
224.195	43.01
224.413	14.34
224.631	-45.06
224.849	-43.01
225.067	12.29
225.285	18.43
225.503	-6.14
225.721	-14.34
225.939	-2.05
226.157	-2.05
226.375	104.45
226.592	-34.82
226.81	22.53
227.028	18.43
227.246	24.58
227.464	16.38
227.682	18.43
227.9	6.14
228.117	-57.34
228.335	-53.25
228.553	94.21
228.771	-18.43
228.989	49.15
229.206	-40.96
229.424	20.48
229.642	47.1
229.86	-40.96
230.077	26.62
230.295	26.62
230.513	10.24
230.731	6.14
230.948	28.67
231.166	10.24
231.384	-0
231.601	-16.38
231.819	18.43
232.037	-26.62
232.254	-59.39
232.472	75.77
232.689	-28.67
232.907	8.19
233.125	10.24
233.342	20.48
233.56	-61.44
233.777	-12.29
233.995	40.96
234.213	47.1
234.43	20.48
234.648	34.82
234.865	6.14
235.083	-8.19
235.3	-10.24
235.518	-12.29
235.735	-67.58
235.953	-8.19
236.17	53.25
236.388	34.82
236.605	-28.67
236.822	-28.67
237.04	16.38
237.257	86.01
237.475	24.58
237.692	71.68
237.909	8.19
238.127	63.49
238.344	2.05
238.562	47.1
238.779	-22.53
238.996	20.48
239.214	12.29
239.431	-8.19
239.648	-47.1
239.865	10.24
240.083	24.58
240.3	-14.34
240.517	-36.86
240.735	34.82
240.952	94.21
241.169	6.14
241.386	16.38
241.603	26.62
241.821	-32.77
242.038	-16.38
242.255	26.62
242.472	57.34
242.689	71.68
242.907	63.49
243.124	-0
243.341	51.2
243.558	-75.77
243.775	-8.19
243.992	43.01
244.209	-12.29
244.426	6.14
244.643	24.58
244.86	-22.53
245.078	55.3
245.295	63.49
245.512	-61.44
245.729	-36.86
245.946	4.1
246.163	36.86
246.38	6.14
246.597	45.06
246.814	45.06
247.031	12.29
247.248	77.82
247.464	53.25
247.681	40.96
247.898	12.29
248.115	30.72
248.332	-2.05
248.549	47.1
248.766	14.34
248.983	59.39
249.2	8.19
249.417	47.1
249.633	-22.53
249.85	18.43
250.067	-0
250.284	26.62
250.501	38.91
250.717	-49.15
250.934	2.05
251.151	26.62
251.368	-40.96
251.585	51.2
251.801	6.14
252.018	4.1
252.235	26.62
252.451	-63.49
252.668	-63.49
252.885	18.43
253.102	20.48
253.318	38.91
253.535	24.58
253.752	12.29
253.968	10.24
254.185	6.14
254.401	61.44
254.618	28.67
254.835	-14.34
255.051	61.44
255.268	-10.24
255.484	34.82
255.701	-16.38
255.917	-45.06
256.134	69.63
256.351	4.1
256.567	-47.1
256.784	-10.24
257	-53.25
257.217	-0
257.433	43.01
257.65	24.58
257.866	32.77
258.082	20.48
258.299	63.49
258.515	-0
258.732	-45.06
258.948	63.49
259.165	10.24
259.381	20.48
259.597	83.97
259.814	8.19
260.03	-36.86
260.246	49.15
260.463	65.53
260.679	38.91
260.895	40.96
261.112	-26.62
261.328	-10.24
261.544	14.34
261.761	122.88
261.977	22.53
262.193	-16.38
262.409	26.62
262.626	18.43
262.842	59.39
263.058	22.53
263.274	65.53
263.49	-2.05
263.707	73.73
263.923	24.58
264.139	12.29
264.355	24.58
264.571	55.3
264.787	-86.01
265.004	-28.67
265.22	-28.67
265.436	47.1
265.652	22.53
265.868	67.58
266.084	63.49
266.3	14.34
266.516	-14.34
266.732	16.38
266.948	30.72
267.164	-43.01
267.38	88.06
267.596	26.62
267.812	2.05
268.028	43.01
268.244	-18.43
268.46	26.62
268.676	-16.38
268.892	18.43
269.108	-10.24
269.324	-51.2
269.54	-22.53
269.756	57.34
269.972	6.14
270.188	51.2
270.403	-4.1
270.619	-8.19
270.835	-4.1
271.051	40.96
271.267	-26.62
271.483	51.2
271.698	73.73
271.914	-2.05
272.13	40.96
272.346	63.49
272.562	28.67
272.777	30.72
272.993	40.96
273.209	38.91
273.425	-22.53
273.64	8.19
273.856	10.24
274.072	2.05
274.287	-34.82
274.503	79.87
274.719	20.48
274.934	6.14
275.15	-16.38
275.366	26.62
275.581	-12.29
275.797	32.77
276.012	28.67
276.228	88.06
276.444	16.38
276.659	12.29
276.875	45.06
277.09	-55.3
277.306	24.58
277.521	34.82
277.737	-8.19
277.952	-57.34
278.168	63.49
278.383	8.19
278.599	65.53
278.814	28.67
279.03	-38.91
279.245	32.77
279.461	67.58
279.676	-18.43
279.892	-10.24
280.107	69.63
280.322	22.53
280.538	118.78
280.753	-12.29
280.969	40.96
281.184	-0
281.399	-10.24
281.615	-10.24
281.83	-36.86
282.045	-53.25
282.26	8.19
282.476	4.1
282.691	26.62
282.906	79.87
283.122	69.63
283.337	6.14
283.552	-43.01
283.767	-22.53
283.983	-18.43
284.198	-6.14
284.413	-32.77
284.628	36.86
284.843	67.58
285.058	4.1
285.274	55.3
285.489	-20.48
285.704	47.1
285.919	-88.06
286.134	53.25
286.349	-47.1
286.564	63.49
286.779	34.82
286.995	71.68
287.21	10.24
287.425	-20.48
287.64	-10.24
287.855	114.69
288.07	-22.53
288.285	6.14
288.5	26.62
288.715	4.1
288.93	12.29
289.145	-26.62
289.36	61.44
289.575	65.53
289.79	6.14
290.004	-0
290.219	2.05
290.434	12.29
290.649	10.24
290.864	-47.1
291.079	4.1
291.294	10.24
291.509	-10.24
291.724	-22.53
291.938	32.77
292.153	10.24
292.368	-28.67
292.583	-26.62
292.798	4.1
293.012	-38.91
293.227	-18.43
293.442	120.83
293.657	-8.19
293.871	69.63
294.086	-12.29
294.301	10.24
294.516	24.58
294.73	61.44
294.945	-40.96
295.16	-28.67
295.374	55.3
295.589	45.06
295.804	83.97
296.018	-8.19
296.233	20.48
296.447	53.25
296.662	6.14
296.877	16.38
297.091	-0
297.306	55.3
297.52	-20.48
297.735	-49.15
297.949	38.91
298.164	-22.53
298.378	40.96
298.593	-0
298.807	-16.38
299.022	47.1
299.236	-36.86
299.451	51.2
299.665	16.38
299.88	-65.54
300.094	-20.48
300.309	32.77
300.523	20.48
300.737	-6.14
300.952	14.34
301.166	94.21
301.381	-16.38
301.595	-8.19
301.809	38.91
302.024	55.3
302.238	-59.39
302.452	12.29
302.667	18.43
302.881	18.43
303.095	28.67
303.309	79.87
303.524	6.14
303.738	75.77
303.952	18.43
304.166	92.16
304.381	-43.01
304.595	32.77
304.809	-20.48
305.023	40.96
305.237	40.96
305.452	40.96
305.666	26.62
305.88	-18.43
306.094	-4.1
306.308	-8.19
306.522	2.05
306.736	4.1
306.95	-4.1
307.164	71.68
307.379	-38.91
307.593	88.06
307.807	22.53
308.021	90.11
308.235	43.01
308.449	-36.86
308.663	-6.14
308.877	104.45
309.091	63.49
309.305	55.3
309.519	28.67
309.733	92.16
309.947	38.91
310.161	20.48
310.374	18.43
310.588	43.01
310.802	10.24
311.016	-0
311.23	43.01
311.444	-40.96
311.658	61.44
311.872	22.53
312.085	4.1
312.299	-6.14
312.513	12.29
312.727	-20.48
312.941	14.34
313.154	43.01
313.368	18.43
313.582	-0
313.796	30.72
314.009	-12.29
314.223	32.77
314.437	36.86
314.651	-22.53
314.864	40.96
315.078	-20.48
315.292	38.91
315.505	73.73
315.719	-12.29
315.933	20.48
316.146	34.82
316.36	-30.72
316.573	2.05
316.787	51.2
317.001	-22.53
317.214	-73.73
317.428	63.49
317.641	-4.1
317.855	30.72
318.068	-40.96
318.282	4.1
318.495	-8.19
318.709	112.64
318.922	59.39
319.136	18.43
319.349	4.1
319.563	53.25
319.776	53.25
319.99	-16.38
320.203	49.15
320.417	16.38
320.63	71.68
320.843	47.1
321.057	40.96
321.27	-8.19
321.483	40.96
321.697	61.44
321.91	-0
322.124	34.82
322.337	-2.05
322.55	24.58
322.763	59.39
322.977	18.43
323.19	-4.1
323.403	83.97
323.617	-8.19
323.83	71.68
324.043	47.1
324.256	51.2
324.469	-10.24
324.683	30.72
324.896	24.58
325.109	18.43
325.322	6.14
325.535	83.97
325.748	24.58
325.962	32.77
326.175	36.86
326.388	20.48
326.601	69.63
326.814	8.19
327.027	10.24
327.24	96.25
327.453	-32.77
327.666	88.06
327.879	10.24
328.092	36.86
328.305	40.96
328.518	116.73
328.731	6.14
328.944	75.77
329.157	-24.58
329.37	-4.1
329.583	55.3
329.796	-10.24
330.009	-77.82
330.222	102.4
330.435	28.67
330.648	28.67
330.861	114.69
331.073	-12.29
331.286	63.49
331.499	73.73
331.712	-12.29
331.925	18.43
332.138	-47.1
332.35	59.39
332.563	14.34
332.776	-22.53
332.989	-12.29
333.202	28.67
333.414	-36.86
333.627	51.2
333.84	2.05
334.053	16.38
334.265	-38.91
334.478	45.06
334.691	16.38
334.903	-2.05
335.116	12.29
335.329	-20.48
335.541	51.2
335.754	71.68
335.966	-30.72
336.179	108.54
336.392	55.3
336.604	51.2
336.817	12.29
337.029	-65.54
337.242	47.1
337.454	149.5
337.667	-51.2
337.88	6.14
338.092	18.43
338.305	-10.24
338.517	-0
338.729	67.58
338.942	4.1
339.154	-30.72
339.367	-12.29
339.579	-30.72
339.792	65.53
340.004	6.14
340.217	55.3
340.429	77.82
340.641	88.06
340.854	53.25
341.066	51.2
341.278	92.16
341.491	49.15
341.703	-16.38
341.915	51.2
342.128	-2.05
342.34	18.43
342.552	-6.14
342.764	14.34
342.977	49.15
343.189	2.05
343.401	22.53
343.613	14.34
343.826	-10.24
344.038	-4.1
344.25	53.25
344.462	-71.68
344.674	-28.67
344.886	69.63
345.099	51.2
345.311	-0
345.523	32.77
345.735	18.43
345.947	65.53
346.159	-71.68
346.371	79.87
346.583	22.53
346.795	59.39
347.007	8.19
347.219	40.96
347.431	38.91
347.643	-26.62
347.855	-30.72
348.067	94.21
348.279	-2.05
348.491	26.62
348.703	53.25
348.915	-24.58
349.127	-4.1
349.339	49.15
349.551	24.58
349.763	83.97
349.975	40.96
350.187	71.68
350.399	34.82
350.61	57.34
350.822	-14.34
351.034	73.73
351.246	59.39
351.458	30.72
351.669	-16.38
351.881	94.21
352.093	-2.05
352.305	100.35
352.517	-20.48
352.728	10.24
352.94	10.24
353.152	36.86
353.363	8.19
353.575	57.34
353.787	43.01
353.999	4.1
354.21	43.01
354.422	-2.05
354.633	-32.77
354.845	-2.05
355.057	-6.14
355.268	38.91
355.48	-6.14
355.692	16.38
355.903	-36.86
356.115	10.24
356.326	-6.14
356.538	73.73
356.749	38.91
356.961	34.82
357.172	-20.48
357.384	-36.86
357.595	100.35
357.807	61.44
358.018	2.05
358.23	-0
358.441	8.19
358.653	10.24
358.864	24.58
359.075	71.68
359.287	40.96
359.498	67.58
359.709	28.67
359.921	6.14
360.132	69.63
360.344	12.29
360.555	2.05
360.766	55.3
360.977	34.82
361.189	47.1
361.4	88.06
361.611	65.53
361.823	22.53
362.034	69.63
362.245	-2.05
362.456	81.92
362.667	43.01
362.879	79.87
363.09	30.72
363.301	16.38
363.512	53.25
363.723	40.96
363.935	12.29
364.146	-12.29
364.357	26.62
364.568	106.49
364.779	-38.91
364.99	122.88
365.201	22.53
365.412	61.44
365.623	-71.68
365.834	10.24
366.045	43.01
366.256	-61.44
366.467	12.29
366.678	16.38
366.889	12.29
367.1	-4.1
367.311	47.1
367.522	-14.34
367.733	-43.01
367.944	112.64
368.155	14.34
368.366	8.19
368.577	20.48
368.788	40.96
368.999	-18.43
369.209	12.29
369.42	124.93
369.631	8.19
369.842	61.44
370.053	24.58
370.264	-16.38
370.474	-40.96
370.685	32.77
370.896	75.77
371.107	36.86
371.317	-0
371.528	-24.58
371.739	53.25
371.95	40.96
372.16	108.54
372.371	40.96
372.582	114.69
372.792	100.35
373.003	-2.05
373.214	24.58
373.424	-14.34
373.635	-12.29
373.846	26.62
374.056	67.58
374.267	-12.29
374.477	71.68
374.688	49.15
374.898	-18.43
375.109	40.96
375.319	43.01
375.53	81.92
375.74	20.48
375.951	57.34
376.161	28.67
376.372	14.34
376.582	18.43
376.793	112.64
377.003	10.24
377.214	45.06
377.424	26.62
377.635	18.43
377.845	2.05
378.055	-4.1
378.266	53.25
378.476	43.01
378.686	47.1
378.897	55.3
379.107	118.78
379.317	22.53
379.528	88.06
379.738	100.35
379.948	38.91
380.158	83.97
380.369	36.86
380.579	-24.58
380.789	-2.05
380.999	92.16
381.21	81.92
381.42	51.2
381.63	8.19
381.84	69.63
382.05	8.19
382.261	90.11
382.471	24.58
382.681	65.53
382.891	47.1
383.101	34.82
383.311	-2.05
383.521	20.48
383.731	69.63
383.941	10.24
384.151	-36.86
384.361	49.15
384.571	-2.05
384.781	18.43
384.991	6.14
385.201	57.34
385.411	30.72
385.621	57.34
385.831	106.49
386.041	34.82
386.251	4.1
386.461	57.34
386.671	-18.43
386.881	43.01
387.091	36.86
387.301	18.43
387.511	69.63
387.72	28.67
387.93	-6.14
388.14	40.96
388.35	51.2
388.56	122.88
388.769	4.1
388.979	28.67
389.189	-2.05
389.399	43.01
389.609	83.97
389.818	145.41
390.028	106.49
390.238	-0
390.447	14.34
390.657	88.06
390.867	57.34
391.076	53.25
391.286	24.58
391.496	16.38
391.705	-8.19
391.915	118.78
392.125	71.68
392.334	10.24
392.544	18.43
392.753	139.26
392.963	-6.14
393.172	53.25
393.382	30.72
393.591	36.86
393.801	43.01
394.01	79.87
394.22	16.38
394.429	24.58
394.639	81.92
394.848	116.73
395.058	98.3
395.267	88.06
395.477	77.82
395.686	47.1
395.895	47.1
396.105	139.26
396.314	59.39
396.524	69.63
396.733	73.73
396.942	135.17
397.152	67.58
397.361	73.73
397.57	45.06
397.78	8.19
397.989	88.06
398.198	104.45
398.407	65.53
398.617	20.48
398.826	36.86
399.035	2.05
399.244	55.3
399.453	110.59
399.663	71.68
399.872	92.16
400.081	34.82
400.29	157.69
400.499	10.24
400.708	139.26
400.917	98.3
401.127	206.84
401.336	55.3
401.545	102.4
401.754	38.91
401.963	61.44
402.172	69.63
402.381	6.14
402.59	88.06
402.799	75.77
403.008	73.73
403.217	149.5
403.426	124.93
403.635	116.73
403.844	182.27
404.053	137.21
404.262	83.97
404.471	163.84
404.68	65.53
404.888	135.17
405.097	96.25
405.306	67.58
405.515	131.07
405.724	131.07
405.933	167.93
406.142	100.35
406.35	147.45
406.559	139.26
406.768	167.93
406.977	192.51
407.185	196.6
407.394	112.64
407.603	124.93
407.812	239.61
408.02	245.76
408.229	215.04
408.438	206.84
408.646	204.8
408.855	159.74
409.064	225.28
409.272	202.75
409.481	274.43
409.69	206.84
409.898	239.61
410.107	290.81
410.315	380.92
410.524	266.24
410.733	280.57
410.941	272.38
411.15	366.59
411.358	350.2
411.567	380.92
411.775	346.11
411.984	385.02
412.192	360.44
412.401	335.87
412.609	389.11
412.818	460.79
413.026	462.84
413.234	444.41
413.443	452.6
413.651	466.94
413.86	485.37
414.068	501.75
414.276	626.68
414.485	561.14
414.693	548.86
414.901	655.35
415.11	677.88
415.318	690.17
415.526	649.21
415.734	772.08
415.943	710.65
416.151	712.69
416.359	720.88
416.567	749.56
416.776	874.48
416.984	882.67
417.192	983.02
417.4	835.57
417.608	1015.79
417.817	956.4
418.025	987.12
418.233	1110
418.441	1028.08
418.649	1110
418.857	1210.35
419.065	1247.21
419.273	1112.05
419.481	1282.03
419.689	1499.11
419.897	1427.43
420.105	1439.72
420.313	1372.14
420.521	1513.45
420.729	1538.02
420.937	1585.13
421.145	1658.85
421.353	1708.01
421.561	1769.44
421.769	1873.89
421.977	1900.51
422.185	1953.76
422.393	2041.82
422.601	2043.87
422.809	2090.98
423.017	2136.03
423.224	2279.39
423.432	2363.36
423.64	2306.01
423.848	2514.91
424.056	2555.86
424.263	2584.54
424.471	2662.36
424.679	2791.38
424.887	2877.4
425.094	2940.88
425.302	2899.92
425.51	3088.34
425.718	3153.87
425.925	3223.5
426.133	3514.31
426.341	3465.16
426.548	3749.83
426.756	3620.81
426.964	3735.49
427.171	3958.72
427.379	4011.97
427.586	4091.84
427.794	4241.34
428.001	4364.22
428.209	4616.12
428.417	4599.74
428.624	4872.12
428.832	4767.67
429.039	4820.92
429.247	4937.65
429.454	5394.35
429.662	5670.83
429.869	5377.97
430.076	5597.1
430.284	5527.47
430.491	5853.09
430.699	6199.2
430.906	6197.15
431.114	6236.06
431.321	6500.25
431.528	6748.06
431.736	7051.16
431.943	7401.36
432.15	7024.53
432.358	7233.43
432.565	7559.05
432.772	7464.85
432.979	7907.21
433.187	8142.72
433.394	8025.99
433.601	8628.09
433.808	8734.59
434.016	8386.43
434.223	8859.51
434.43	9547.63
434.637	9416.56
434.844	9815.91
435.052	10147.69
435.259	10108.77
435.466	10123.11
435.673	10162.02
435.88	10712.92
436.087	11259.73
436.294	11360.08
436.501	10911.58
436.708	11204.44
436.915	11392.85
437.122	12093.26
437.329	12324.68
437.537	12508.99
437.743	12664.64
437.95	12576.58
438.157	13412.15
438.364	13649.71
438.571	13827.89
438.778	13584.18
438.985	15247.13
439.192	14667.55
439.399	15044.38
439.606	14659.36
439.813	15318.81
440.02	16535.3
440.227	15990.54
440.433	16199.43
440.64	16383.75
440.847	16254.73
441.054	16678.66
441.261	17893.1
441.467	17680.11
441.674	18284.26
441.881	18790.11
442.088	18638.56
442.294	18325.22
442.501	18822.88
442.708	19336.92
442.914	20045.52
443.121	20809.41
443.328	20686.53
443.534	21821.11
443.741	21253.82
443.948	20817.6
444.154	22703.78
444.361	22507.18
444.568	22585
444.774	22316.72
444.981	22838.95
445.187	23201.44
445.394	24501.9
445.6	24266.38
445.807	26410.6
446.013	25372.28
446.22	25505.4
446.426	26977.89
446.633	27178.59
446.839	27885.14
447.046	26938.98
447.252	28421.71
447.459	27993.68
447.665	28290.64
447.871	29623.87
448.078	30778.92
448.284	29251.14
448.491	29947.45
448.697	31288.87
448.903	31817.24
449.11	31712.8
449.316	31075.88
449.522	32073.24
449.728	32605.71
449.935	32800.27
450.141	32818.7
450.347	33701.37
450.553	32294.42
450.76	33021.45
450.966	33928.7
451.172	33527.3
451.378	34493.94
451.584	33566.21
451.791	34622.96
451.997	34510.32
452.203	35003.88
452.409	35007.98
452.615	35001.83
452.821	33465.86
453.027	33367.55
453.233	34989.55
453.44	33738.24
453.646	33865.21
453.852	34217.46
454.058	34491.89
454.264	33385.99
454.47	34239.99
454.676	33084.94
454.882	34344.44
455.088	31292.96
455.294	31819.29
455.5	32200.21
455.705	32531.98
455.911	31360.55
456.117	30629.42
456.323	30271.03
456.529	28724.81
456.735	29953.59
456.941	29056.58
457.147	28663.37
457.352	27461.21
457.558	27467.36
457.764	27577.95
457.97	27115.11
458.176	26426.99
458.381	26285.68
458.587	24925.83
458.793	25052.8
458.999	23590.55
459.204	25032.32
459.41	24770.18
459.616	22898.34
459.821	23375.52
460.027	22740.64
460.233	22634.15
460.438	21464.76
460.644	21456.57
460.85	20518.6
461.055	20109.01
461.261	20256.46
461.466	18786.02
461.672	18048.75
461.878	19439.32
462.083	18200.3
462.289	17829.62
462.494	17919.73
462.7	16828.16
462.905	16246.54
463.111	17004.28
463.316	16690.95
463.522	16797.44
463.727	16924.41
463.932	16787.2
464.138	16422.66
464.343	16465.67
464.549	15974.16
464.754	16606.98
464.959	16586.5
465.165	16211.72
465.37	15539.99
465.575	15027.99
465.781	15724.3
465.986	15996.68
466.191	15453.97
466.397	15030.04
466.602	14513.95
466.807	14722.85
467.012	14765.85
467.218	14653.22
467.423	14577.44
467.628	14772
467.833	15353.62
