Data from USB4F104151__54__12-01-41-610.txt Node

Date: Fri Mar 14 12:01:41 EDT 2025
User: louis
Spectrometer: USB4F10415
Trigger mode: 4
Integration Time (sec): 2.000000E-2
Scans to average: 1
Electric dark correction enabled: true
Nonlinearity correction enabled: false
Boxcar width: 0
XAxis mode: Wavelengths
Number of Pixels in Spectrum: 3648
>>>>>Begin Spectral Data<<<<<
178.204	-115.71
178.424	-115.71
178.644	-115.71
178.864	-107.52
179.084	-82.94
179.304	-1.02
179.524	-41.98
179.744	41.98
179.964	33.79
180.184	-33.79
180.404	7.17
180.624	3.07
180.844	25.6
181.064	-84.99
181.283	-1.02
181.503	89.09
181.723	-37.89
181.943	-54.27
182.163	84.99
182.383	35.84
182.602	15.36
182.822	52.22
183.042	35.84
183.262	37.89
183.482	39.94
183.701	-3.07
183.921	48.13
184.141	41.98
184.361	19.46
184.58	13.31
184.8	56.32
185.02	64.51
185.239	76.8
185.459	21.5
185.679	35.84
185.898	44.03
186.118	11.26
186.338	-3.07
186.557	35.84
186.777	23.55
186.997	7.17
187.216	1.02
187.436	72.7
187.655	80.89
187.875	17.41
188.095	33.79
188.314	-25.6
188.534	97.28
188.753	11.26
188.973	35.84
189.192	-13.31
189.412	27.65
189.631	33.79
189.851	50.18
190.07	111.61
190.29	11.26
190.509	-29.7
190.729	54.27
190.948	-35.84
191.168	39.94
191.387	76.8
191.607	44.03
191.826	17.41
192.045	-44.03
192.265	78.85
192.484	1.02
192.704	54.27
192.923	-27.65
193.142	117.76
193.362	37.89
193.581	99.33
193.8	25.6
194.02	105.47
194.239	-37.89
194.458	52.22
194.678	-3.07
194.897	3.07
195.116	-17.41
195.335	76.8
195.555	7.17
195.774	21.5
195.993	17.41
196.212	17.41
196.432	54.27
196.651	58.37
196.87	21.5
197.089	23.55
197.308	37.89
197.528	58.37
197.747	-13.31
197.966	48.13
198.185	11.26
198.404	33.79
198.623	-5.12
198.842	68.61
199.062	48.13
199.281	33.79
199.5	48.13
199.719	31.74
199.938	89.09
200.157	35.84
200.376	17.41
200.595	72.7
200.814	21.5
201.033	19.46
201.252	15.36
201.471	66.56
201.69	-9.22
201.909	31.74
202.128	-33.79
202.347	54.27
202.566	39.94
202.785	21.5
203.004	54.27
203.223	60.42
203.442	13.31
203.661	58.37
203.879	-23.55
204.098	60.42
204.317	3.07
204.536	39.94
204.755	13.31
204.974	39.94
205.193	-33.79
205.411	17.41
205.63	50.18
205.849	35.84
206.068	27.65
206.287	-33.79
206.505	17.41
206.724	84.99
206.943	5.12
207.162	41.98
207.381	-19.46
207.599	44.03
207.818	58.37
208.037	66.56
208.255	-9.22
208.474	-15.36
208.693	29.7
208.911	-5.12
209.13	-3.07
209.349	-19.46
209.567	80.89
209.786	39.94
210.005	-9.22
210.223	31.74
210.442	-35.84
210.661	7.17
210.879	27.65
211.098	54.27
211.316	31.74
211.535	-7.17
211.753	-1.02
211.972	54.27
212.191	-60.42
212.409	17.41
212.628	35.84
212.846	39.94
213.065	50.18
213.283	25.6
213.502	-23.55
213.72	99.33
213.938	93.18
214.157	-27.65
214.375	-19.46
214.594	66.56
214.812	44.03
215.031	50.18
215.249	-62.46
215.467	52.22
215.686	-27.65
215.904	-19.46
216.122	103.42
216.341	111.61
216.559	5.12
216.778	44.03
216.996	72.7
217.214	25.6
217.432	41.98
217.651	64.51
217.869	31.74
218.087	5.12
218.306	-25.6
218.524	-23.55
218.742	50.18
218.96	-1.02
219.179	-19.46
219.397	-17.41
219.615	46.08
219.833	33.79
220.051	64.51
220.27	70.65
220.488	-17.41
220.706	54.27
220.924	54.27
221.142	31.74
221.36	58.37
221.578	50.18
221.796	-9.22
222.015	64.51
222.233	64.51
222.451	-9.22
222.669	31.74
222.887	78.85
223.105	54.27
223.323	23.55
223.541	-15.36
223.759	-29.7
223.977	21.5
224.195	82.94
224.413	13.31
224.631	142.33
224.849	68.61
225.067	128
225.285	33.79
225.503	7.17
225.721	33.79
225.939	21.5
226.157	35.84
226.375	35.84
226.592	91.13
226.81	27.65
227.028	70.65
227.246	-1.02
227.464	84.99
227.682	56.32
227.9	62.46
228.117	50.18
228.335	-31.74
228.553	41.98
228.771	15.36
228.989	31.74
229.206	7.17
229.424	50.18
229.642	21.5
229.86	-25.6
230.077	-11.26
230.295	48.13
230.513	-3.07
230.731	3.07
230.948	13.31
231.166	84.99
231.384	3.07
231.601	-17.41
231.819	46.08
232.037	-7.17
232.254	-11.26
232.472	-7.17
232.689	13.31
232.907	82.94
233.125	33.79
233.342	87.04
233.56	33.79
233.777	27.65
233.995	-3.07
234.213	99.33
234.43	64.51
234.648	17.41
234.865	19.46
235.083	13.31
235.3	7.17
235.518	15.36
235.735	56.32
235.953	74.75
236.17	7.17
236.388	-54.27
236.605	-15.36
236.822	52.22
237.04	15.36
237.257	7.17
237.475	25.6
237.692	13.31
237.909	29.7
238.127	41.98
238.344	64.51
238.562	70.65
238.779	3.07
238.996	-11.26
239.214	54.27
239.431	11.26
239.648	39.94
239.865	103.42
240.083	48.13
240.3	41.98
240.517	35.84
240.735	-21.5
240.952	44.03
241.169	54.27
241.386	-21.5
241.603	50.18
241.821	-13.31
242.038	82.94
242.255	48.13
242.472	35.84
242.689	50.18
242.907	62.46
243.124	5.12
243.341	37.89
243.558	-29.7
243.775	7.17
243.992	-7.17
244.209	19.46
244.426	70.65
244.643	62.46
244.86	1.02
245.078	25.6
245.295	31.74
245.512	-15.36
245.729	25.6
245.946	5.12
246.163	80.89
246.38	46.08
246.597	54.27
246.814	25.6
247.031	23.55
247.248	31.74
247.464	66.56
247.681	101.37
247.898	-1.02
248.115	27.65
248.332	64.51
248.549	17.41
248.766	17.41
248.983	21.5
249.2	-9.22
249.417	-7.17
249.633	-91.13
249.85	3.07
250.067	15.36
250.284	39.94
250.501	-17.41
250.717	60.42
250.934	76.8
251.151	68.61
251.368	70.65
251.585	52.22
251.801	58.37
252.018	41.98
252.235	-1.02
252.451	11.26
252.668	64.51
252.885	97.28
253.102	70.65
253.318	9.22
253.535	-23.55
253.752	23.55
253.968	1.02
254.185	37.89
254.401	7.17
254.618	48.13
254.835	25.6
255.051	66.56
255.268	54.27
255.484	58.37
255.701	17.41
255.917	60.42
256.134	17.41
256.351	-13.31
256.567	41.98
256.784	27.65
257	-3.07
257.217	-33.79
257.433	91.13
257.65	-11.26
257.866	35.84
258.082	-33.79
258.299	56.32
258.515	7.17
258.732	103.42
258.948	-17.41
259.165	62.46
259.381	-23.55
259.597	35.84
259.814	-21.5
260.03	-7.17
260.246	60.42
260.463	17.41
260.679	78.85
260.895	15.36
261.112	41.98
261.328	-56.32
261.544	-31.74
261.761	50.18
261.977	41.98
262.193	41.98
262.409	7.17
262.626	46.08
262.842	35.84
263.058	41.98
263.274	3.07
263.49	11.26
263.707	95.23
263.923	54.27
264.139	37.89
264.355	72.7
264.571	3.07
264.787	50.18
265.004	-3.07
265.22	105.47
265.436	70.65
265.652	1.02
265.868	-7.17
266.084	56.32
266.3	46.08
266.516	-39.94
266.732	78.85
266.948	31.74
267.164	37.89
267.38	9.22
267.596	56.32
267.812	130.05
268.028	13.31
268.244	48.13
268.46	11.26
268.676	15.36
268.892	41.98
269.108	11.26
269.324	58.37
269.54	44.03
269.756	95.23
269.972	5.12
270.188	41.98
270.403	-21.5
270.619	-3.07
270.835	80.89
271.051	78.85
271.267	29.7
271.483	93.18
271.698	56.32
271.914	68.61
272.13	-68.61
272.346	3.07
272.562	39.94
272.777	31.74
272.993	70.65
273.209	-11.26
273.425	21.5
273.64	15.36
273.856	3.07
274.072	7.17
274.287	33.79
274.503	39.94
274.719	-15.36
274.934	-3.07
275.15	35.84
275.366	-5.12
275.581	-60.42
275.797	31.74
276.012	5.12
276.228	-33.79
276.444	-7.17
276.659	46.08
276.875	-7.17
277.09	39.94
277.306	23.55
277.521	19.46
277.737	58.37
277.952	68.61
278.168	48.13
278.383	-1.02
278.599	11.26
278.814	-23.55
279.03	-9.22
279.245	29.7
279.461	64.51
279.676	46.08
279.892	-41.98
280.107	-37.89
280.322	48.13
280.538	50.18
280.753	17.41
280.969	101.37
281.184	-7.17
281.399	74.75
281.615	-3.07
281.83	37.89
282.045	31.74
282.26	68.61
282.476	13.31
282.691	78.85
282.906	56.32
283.122	50.18
283.337	31.74
283.552	-1.02
283.767	25.6
283.983	35.84
284.198	-44.03
284.413	-13.31
284.628	54.27
284.843	31.74
285.058	-25.6
285.274	17.41
285.489	13.31
285.704	70.65
285.919	74.75
286.134	5.12
286.349	-3.07
286.564	33.79
286.779	78.85
286.995	29.7
287.21	48.13
287.425	82.94
287.64	48.13
287.855	113.66
288.07	1.02
288.285	84.99
288.5	111.61
288.715	136.19
288.93	-9.22
289.145	68.61
289.36	-19.46
289.575	91.13
289.79	115.71
290.004	5.12
290.219	-3.07
290.434	62.46
290.649	37.89
290.864	9.22
291.079	15.36
291.294	11.26
291.509	-9.22
291.724	-13.31
291.938	-37.89
292.153	-9.22
292.368	46.08
292.583	46.08
292.798	5.12
293.012	78.85
293.227	15.36
293.442	54.27
293.657	31.74
293.871	123.9
294.086	66.56
294.301	78.85
294.516	60.42
294.73	60.42
294.945	44.03
295.16	-35.84
295.374	84.99
295.589	-7.17
295.804	27.65
296.018	52.22
296.233	68.61
296.447	13.31
296.662	7.17
296.877	46.08
297.091	17.41
297.306	3.07
297.52	-41.98
297.735	25.6
297.949	-9.22
298.164	80.89
298.378	41.98
298.593	-7.17
298.807	-37.89
299.022	56.32
299.236	89.09
299.451	35.84
299.665	58.37
299.88	23.55
300.094	3.07
300.309	74.75
300.523	48.13
300.737	19.46
300.952	31.74
301.166	35.84
301.381	21.5
301.595	29.7
301.809	11.26
302.024	97.28
302.238	9.22
302.452	93.18
302.667	44.03
302.881	80.89
303.095	54.27
303.309	111.61
303.524	11.26
303.738	-27.65
303.952	80.89
304.166	35.84
304.381	-74.75
304.595	97.28
304.809	39.94
305.023	-23.55
305.237	21.5
305.452	29.7
305.666	117.76
305.88	78.85
306.094	56.32
306.308	31.74
306.522	1.02
306.736	-1.02
306.95	1.02
307.164	84.99
307.379	23.55
307.593	44.03
307.807	64.51
308.021	52.22
308.235	62.46
308.449	21.5
308.663	33.79
308.877	152.57
309.091	-17.41
309.305	76.8
309.519	21.5
309.733	105.47
309.947	-37.89
310.161	52.22
310.374	31.74
310.588	37.89
310.802	7.17
311.016	19.46
311.23	7.17
311.444	74.75
311.658	41.98
311.872	44.03
312.085	70.65
312.299	68.61
312.513	15.36
312.727	-13.31
312.941	-60.42
313.154	46.08
313.368	50.18
313.582	15.36
313.796	21.5
314.009	19.46
314.223	66.56
314.437	68.61
314.651	9.22
314.864	29.7
315.078	31.74
315.292	27.65
315.505	66.56
315.719	-23.55
315.933	60.42
316.146	46.08
316.36	17.41
316.573	64.51
316.787	15.36
317.001	31.74
317.214	17.41
317.428	105.47
317.641	7.17
317.855	37.89
318.068	82.94
318.282	33.79
318.495	70.65
318.709	46.08
318.922	64.51
319.136	72.7
319.349	82.94
319.563	11.26
319.776	68.61
319.99	7.17
320.203	60.42
320.417	80.89
320.63	-1.02
320.843	76.8
321.057	9.22
321.27	1.02
321.483	39.94
321.697	37.89
321.91	70.65
322.124	35.84
322.337	70.65
322.55	89.09
322.763	48.13
322.977	46.08
323.19	46.08
323.403	74.75
323.617	128
323.83	44.03
324.043	103.42
324.256	123.9
324.469	60.42
324.683	74.75
324.896	13.31
325.109	35.84
325.322	-15.36
325.535	19.46
325.748	74.75
325.962	54.27
326.175	46.08
326.388	52.22
326.601	48.13
326.814	121.85
327.027	35.84
327.24	48.13
327.453	21.5
327.666	19.46
327.879	25.6
328.092	31.74
328.305	31.74
328.518	68.61
328.731	9.22
328.944	-3.07
329.157	39.94
329.37	33.79
329.583	21.5
329.796	66.56
330.009	35.84
330.222	68.61
330.435	58.37
330.648	74.75
330.861	27.65
331.073	56.32
331.286	82.94
331.499	27.65
331.712	46.08
331.925	107.52
332.138	33.79
332.35	11.26
332.563	50.18
332.776	68.61
332.989	15.36
333.202	144.38
333.414	11.26
333.627	29.7
333.84	89.09
334.053	25.6
334.265	11.26
334.478	41.98
334.691	95.23
334.903	41.98
335.116	23.55
335.329	23.55
335.541	72.7
335.754	121.85
335.966	64.51
336.179	35.84
336.392	27.65
336.604	68.61
336.817	89.09
337.029	33.79
337.242	41.98
337.454	50.18
337.667	11.26
337.88	70.65
338.092	48.13
338.305	134.14
338.517	-17.41
338.729	46.08
338.942	48.13
339.154	29.7
339.367	19.46
339.579	78.85
339.792	-3.07
340.004	60.42
340.217	-17.41
340.429	41.98
340.641	62.46
340.854	60.42
341.066	-1.02
341.278	46.08
341.491	21.5
341.703	134.14
341.915	-1.02
342.128	54.27
342.34	-17.41
342.552	41.98
342.764	-3.07
342.977	72.7
343.189	35.84
343.401	19.46
343.613	78.85
343.826	33.79
344.038	91.13
344.25	105.47
344.462	-21.5
344.674	31.74
344.886	48.13
345.099	52.22
345.311	56.32
345.523	89.09
345.735	-78.85
345.947	44.03
346.159	3.07
346.371	46.08
346.583	62.46
346.795	35.84
347.007	11.26
347.219	103.42
347.431	66.56
347.643	136.19
347.855	25.6
348.067	64.51
348.279	52.22
348.491	115.71
348.703	64.51
348.915	80.89
349.127	21.5
349.339	101.37
349.551	19.46
349.763	56.32
349.975	-15.36
350.187	39.94
350.399	121.85
350.61	121.85
350.822	56.32
351.034	80.89
351.246	130.05
351.458	134.14
351.669	-21.5
351.881	99.33
352.093	111.61
352.305	72.7
352.517	17.41
352.728	35.84
352.94	39.94
353.152	31.74
353.363	39.94
353.575	93.18
353.787	107.52
353.999	31.74
354.21	68.61
354.422	29.7
354.633	15.36
354.845	60.42
355.057	-3.07
355.268	15.36
355.48	52.22
355.692	-52.22
355.903	52.22
356.115	31.74
356.326	-21.5
356.538	68.61
356.749	72.7
356.961	52.22
357.172	58.37
357.384	-19.46
357.595	136.19
357.807	35.84
358.018	66.56
358.23	31.74
358.441	35.84
358.653	97.28
358.864	19.46
359.075	119.81
359.287	35.84
359.498	123.9
359.709	68.61
359.921	52.22
360.132	50.18
360.344	62.46
360.555	-3.07
360.766	91.13
360.977	-37.89
361.189	37.89
361.4	80.89
361.611	93.18
361.823	80.89
362.034	54.27
362.245	29.7
362.456	19.46
362.667	121.85
362.879	19.46
363.09	78.85
363.301	130.05
363.512	84.99
363.723	101.37
363.935	-17.41
364.146	54.27
364.357	-15.36
364.568	21.5
364.779	11.26
364.99	76.8
365.201	80.89
365.412	29.7
365.623	-11.26
365.834	54.27
366.045	70.65
366.256	-1.02
366.467	35.84
366.678	-13.31
366.889	50.18
367.1	84.99
367.311	7.17
367.522	52.22
367.733	78.85
367.944	87.04
368.155	99.33
368.366	123.9
368.577	41.98
368.788	70.65
368.999	23.55
369.209	74.75
369.42	60.42
369.631	89.09
369.842	46.08
370.053	82.94
370.264	37.89
370.474	-17.41
370.685	-3.07
370.896	62.46
371.107	21.5
371.317	68.61
371.528	62.46
371.739	105.47
371.95	27.65
372.16	74.75
372.371	89.09
372.582	5.12
372.792	60.42
373.003	109.57
373.214	-19.46
373.424	23.55
373.635	7.17
373.846	105.47
374.056	41.98
374.267	103.42
374.477	31.74
374.688	62.46
374.898	95.23
375.109	25.6
375.319	58.37
375.53	117.76
375.74	107.52
375.951	121.85
376.161	52.22
376.372	64.51
376.582	3.07
376.793	62.46
377.003	72.7
377.214	39.94
377.424	113.66
377.635	66.56
377.845	48.13
378.055	101.37
378.266	74.75
378.476	46.08
378.686	7.17
378.897	35.84
379.107	89.09
379.317	52.22
379.528	25.6
379.738	13.31
379.948	9.22
380.158	103.42
380.369	48.13
380.579	105.47
380.789	15.36
380.999	48.13
381.21	25.6
381.42	115.71
381.63	50.18
381.84	99.33
382.05	76.8
382.261	31.74
382.471	-5.12
382.681	23.55
382.891	121.85
383.101	132.09
383.311	48.13
383.521	44.03
383.731	37.89
383.941	130.05
384.151	56.32
384.361	117.76
384.571	76.8
384.781	123.9
384.991	91.13
385.201	99.33
385.411	64.51
385.621	11.26
385.831	60.42
386.041	54.27
386.251	87.04
386.461	72.7
386.671	25.6
386.881	130.05
387.091	25.6
387.301	154.62
387.511	89.09
387.72	31.74
387.93	-13.31
388.14	44.03
388.35	62.46
388.56	44.03
388.769	66.56
388.979	21.5
389.189	82.94
389.399	48.13
389.609	91.13
389.818	117.76
390.028	72.7
390.238	105.47
390.447	9.22
390.657	95.23
390.867	97.28
391.076	-50.18
391.286	146.43
391.496	89.09
391.705	39.94
391.915	70.65
392.125	121.85
392.334	95.23
392.544	105.47
392.753	74.75
392.963	80.89
393.172	68.61
393.382	48.13
393.591	58.37
393.801	41.98
394.01	152.57
394.22	74.75
394.429	95.23
394.639	171.01
394.848	146.43
395.058	123.9
395.267	78.85
395.477	115.71
395.686	130.05
395.895	156.67
396.105	132.09
396.314	89.09
396.524	166.91
396.733	183.29
396.942	150.53
397.152	25.6
397.361	82.94
397.57	140.29
397.78	109.57
397.989	134.14
398.198	209.92
398.407	87.04
398.617	160.77
398.826	95.23
399.035	99.33
399.244	132.09
399.453	156.67
399.663	183.29
399.872	187.39
400.081	99.33
400.29	164.86
400.499	173.05
400.708	113.66
400.917	50.18
401.127	121.85
401.336	160.77
401.545	234.49
401.754	148.48
401.963	154.62
402.172	113.66
402.381	89.09
402.59	173.05
402.799	130.05
403.008	187.39
403.217	179.2
403.426	89.09
403.635	236.54
403.844	164.86
404.053	164.86
404.262	117.76
404.471	185.34
404.68	185.34
404.888	193.53
405.097	142.33
405.306	236.54
405.515	185.34
405.724	211.96
405.933	259.07
406.142	166.91
406.35	240.64
406.559	236.54
406.768	191.49
406.977	232.44
407.185	265.21
407.394	269.31
407.603	300.03
407.812	271.36
408.02	220.16
408.229	263.16
408.438	318.46
408.646	265.21
408.855	373.75
409.064	254.97
409.272	238.59
409.481	381.95
409.69	334.84
409.898	316.41
410.107	361.47
410.315	373.75
410.524	320.51
410.733	406.52
410.941	314.36
411.15	494.58
411.358	558.07
411.567	527.35
411.775	533.5
411.984	504.82
412.192	551.93
412.401	517.11
412.609	599.03
412.818	635.89
413.026	599.03
413.234	580.6
413.443	658.42
413.651	674.81
413.86	678.9
414.068	832.5
414.276	758.77
414.485	732.15
414.693	775.16
414.901	918.51
415.11	805.88
415.318	859.12
415.526	971.76
415.734	953.33
415.943	951.28
416.151	1100.78
416.359	1020.91
416.567	1065.97
416.776	1049.58
416.984	1176.56
417.192	1211.37
417.4	1168.37
417.608	1254.38
417.817	1352.68
418.025	1270.76
418.233	1487.85
418.441	1461.23
418.649	1475.56
418.857	1596.39
419.065	1586.15
419.273	1612.78
419.481	1672.17
419.689	1678.31
419.897	1924.07
420.105	1932.26
420.313	1928.16
420.521	2038.75
420.729	2032.61
420.937	2085.86
421.145	2206.69
421.353	2313.18
421.561	2325.47
421.769	2382.81
421.977	2587.61
422.185	2579.42
422.393	2712.53
422.601	2890.71
422.809	2690.01
423.017	2903
423.224	2964.43
423.432	3101.65
423.64	3171.28
423.848	3371.98
424.056	3322.83
424.263	3724.23
424.471	3601.35
424.679	3650.5
424.887	3843.01
425.094	3865.54
425.302	4119.49
425.51	4121.54
425.718	4164.54
425.925	4314.05
426.133	4420.54
426.341	4633.53
426.548	4946.87
426.756	4975.54
426.964	4887.48
427.171	5276.59
427.379	5505.96
427.586	5393.33
427.794	5639.08
428.001	5952.42
428.209	6239.14
428.417	6171.55
428.624	6650.78
428.832	6706.07
429.039	6495.13
429.247	6581.15
429.454	7158.67
429.662	7596.94
429.869	7060.37
430.076	7461.77
430.284	7351.18
430.491	7594.89
430.699	8172.42
430.906	8242.05
431.114	8444.8
431.321	8663.93
431.528	8713.08
431.736	9354.1
431.943	9628.53
432.15	9272.18
432.358	9444.21
432.565	9999.21
432.772	10234.72
432.979	10400.61
433.187	10783.58
433.394	10785.63
433.601	11539.28
433.808	11496.27
434.016	11723.6
434.223	12120.9
434.43	12890.94
434.637	12636.99
434.844	13218.61
435.052	13308.72
435.259	13566.77
435.466	13464.37
435.673	13450.03
435.88	14521.12
436.087	15026.97
436.294	15098.65
436.501	14713.63
436.708	15205.14
436.915	15844.11
437.122	16474.88
437.329	15958.8
437.537	16978.68
437.743	17083.13
437.95	17119.99
438.157	17980.14
438.364	18473.7
438.571	18180.84
438.778	18608.87
438.985	20413.13
439.192	19686.1
439.399	20126.41
439.606	19608.28
439.813	20519.62
440.02	21928.63
440.227	21615.29
440.433	21117.63
440.64	22092.46
440.847	21871.28
441.054	22780.58
441.261	23743.13
441.467	23788.18
441.674	24265.36
441.881	25117.31
442.088	24920.71
442.294	24789.64
442.501	25156.22
442.708	25979.51
442.914	26892.9
443.121	28314.19
443.328	27310.69
443.534	29262.4
443.741	28174.93
443.948	28150.35
444.154	30253.62
444.361	29755.96
444.568	30177.84
444.774	30202.42
444.981	30669.36
445.187	31287.84
445.394	32913.93
445.6	32414.23
445.807	35181.03
446.013	33751.55
446.22	34626.03
446.426	36045.27
446.633	35981.79
446.839	37286.34
447.046	35695.07
447.252	37566.91
447.459	37810.62
447.665	37714.37
447.871	39225.77
448.078	40898.96
448.284	39428.52
448.491	40106.4
448.697	41531.78
448.903	42451.32
449.11	42023.29
449.316	42037.63
449.522	42443.13
449.728	43585.89
449.935	44069.22
450.141	43729.25
450.347	44677.46
450.553	43174.25
450.76	44001.63
450.966	45359.44
451.172	45095.25
451.378	45668.68
451.584	45070.67
451.791	46164.29
451.997	46078.27
452.203	46643.51
452.409	47008.05
452.615	46461.24
452.821	44687.7
453.027	44796.24
453.233	46285.12
453.44	44652.89
453.646	45341
453.852	45437.26
454.058	46184.77
454.264	44925.27
454.47	45490.51
454.676	44908.88
454.882	46070.08
455.088	42334.59
455.294	42588.53
455.5	42916.21
455.705	43823.46
455.911	41718.15
456.117	41146.76
456.323	40575.38
456.529	38748.59
456.735	40153.5
456.941	39154.09
457.147	38148.54
457.352	37454.28
457.558	37108.17
457.764	36948.43
457.97	36143.58
458.176	35398.12
458.381	35240.42
458.587	33862.14
458.793	33823.23
458.999	31679
459.204	33974.78
459.41	33278.47
459.616	30620.2
459.821	30927.4
460.027	30956.07
460.233	30376.5
460.438	29157.96
460.644	29282.88
460.85	27560.54
461.055	27345.5
461.261	27304.54
461.466	25389.69
461.672	24232.59
461.878	26360.43
462.083	24593.03
462.289	24212.11
462.494	23761.56
462.7	22723.24
462.905	22213.29
463.111	23132.83
463.316	23100.06
463.522	22600.36
463.727	22565.54
463.932	22502.06
464.138	22399.66
464.343	22229.68
464.549	21469.88
464.754	22657.7
464.959	22493.86
465.165	22065.84
465.37	21191.36
465.575	20660.93
465.781	21551.8
465.986	21557.94
466.191	20886.21
466.397	20382.41
466.602	19393.24
466.807	20030.16
467.012	20347.59
467.218	19894.99
