Data from USB4F104151__58__12-01-45-209.txt Node

Date: Fri Mar 14 12:01:45 EDT 2025
User: louis
Spectrometer: USB4F10415
Trigger mode: 4
Integration Time (sec): 2.000000E-2
Scans to average: 1
Electric dark correction enabled: true
Nonlinearity correction enabled: false
Boxcar width: 0
XAxis mode: Wavelengths
Number of Pixels in Spectrum: 3648
>>>>>Begin Spectral Data<<<<<
178.204	-69.12
178.424	-69.12
178.644	-69.12
178.864	-9.73
179.084	-136.7
179.304	20.99
179.524	-15.87
179.744	20.99
179.964	41.47
180.184	-26.11
180.404	-13.82
180.624	23.04
180.844	-48.64
181.064	-17.92
181.283	20.99
181.503	18.94
181.723	-24.06
181.943	6.66
182.163	0.51
182.383	41.47
182.602	109.05
182.822	49.66
183.042	86.53
183.262	2.56
183.482	51.71
183.701	-50.69
183.921	12.8
184.141	-56.83
184.361	53.76
184.58	20.99
184.8	-19.97
185.02	64
185.239	94.72
185.459	-5.63
185.679	10.75
185.898	6.66
186.118	4.61
186.338	98.81
186.557	-13.82
186.777	-54.78
186.997	18.94
187.216	14.85
187.436	-19.97
187.655	72.19
187.875	35.33
188.095	0.51
188.314	27.14
188.534	80.38
188.753	-46.59
188.973	76.29
189.192	78.33
189.412	61.95
189.631	43.52
189.851	-1.54
190.07	2.56
190.29	39.42
190.509	20.99
190.729	25.09
190.948	35.33
191.168	53.76
191.387	41.47
191.607	-62.98
191.826	37.38
192.045	16.9
192.265	53.76
192.484	2.56
192.704	16.9
192.923	31.23
193.142	61.95
193.362	4.61
193.581	27.14
193.8	25.09
194.02	66.05
194.239	80.38
194.458	94.72
194.678	20.99
194.897	29.18
195.116	80.38
195.335	-15.87
195.555	31.23
195.774	76.29
195.993	92.67
196.212	-30.21
196.432	53.76
196.651	14.85
196.87	66.05
197.089	129.53
197.308	88.57
197.528	115.2
197.747	-38.4
197.966	-22.02
198.185	33.28
198.404	43.52
198.623	27.14
198.842	66.05
199.062	76.29
199.281	96.77
199.5	96.77
199.719	27.14
199.938	66.05
200.157	27.14
200.376	18.94
200.595	86.53
200.814	43.52
201.033	133.63
201.252	59.9
201.471	-46.59
201.69	51.71
201.909	-24.06
202.128	55.81
202.347	64
202.566	-3.58
202.785	45.57
203.004	-5.63
203.223	100.86
203.442	76.29
203.661	-91.65
203.879	43.52
204.098	27.14
204.317	-3.58
204.536	41.47
204.755	51.71
204.974	76.29
205.193	39.42
205.411	104.96
205.63	104.96
205.849	55.81
206.068	14.85
206.287	61.95
206.505	55.81
206.724	64
206.943	-3.58
207.162	-24.06
207.381	41.47
207.599	37.38
207.818	68.09
208.037	-5.63
208.255	20.99
208.474	6.66
208.693	76.29
208.911	12.8
209.13	35.33
209.349	37.38
209.567	23.04
209.786	33.28
210.005	20.99
210.223	37.38
210.442	16.9
210.661	55.81
210.879	18.94
211.098	-22.02
211.316	16.9
211.535	68.09
211.753	12.8
211.972	25.09
212.191	49.66
212.409	49.66
212.628	64
212.846	-1.54
213.065	70.14
213.283	16.9
213.502	-9.73
213.72	57.86
213.938	51.71
214.157	25.09
214.375	14.85
214.594	31.23
214.812	64
215.031	41.47
215.249	4.61
215.467	55.81
215.686	74.24
215.904	70.14
216.122	8.7
216.341	35.33
216.559	37.38
216.778	-1.54
216.996	72.19
217.214	20.99
217.432	-5.63
217.651	16.9
217.869	27.14
218.087	72.19
218.306	-13.82
218.524	33.28
218.742	-28.16
218.96	31.23
219.179	2.56
219.397	29.18
219.615	6.66
219.833	61.95
220.051	-13.82
220.27	109.05
220.488	-1.54
220.706	41.47
220.924	10.75
221.142	-36.35
221.36	-30.21
221.578	35.33
221.796	39.42
222.015	4.61
222.233	107.01
222.451	45.57
222.669	0.51
222.887	55.81
223.105	43.52
223.323	43.52
223.541	82.43
223.759	45.57
223.977	10.75
224.195	51.71
224.413	72.19
224.631	41.47
224.849	-24.06
225.067	57.86
225.285	51.71
225.503	45.57
225.721	-81.41
225.939	41.47
226.157	20.99
226.375	55.81
226.592	41.47
226.81	6.66
227.028	51.71
227.246	143.87
227.464	39.42
227.682	76.29
227.9	35.33
228.117	53.76
228.335	-50.69
228.553	94.72
228.771	-3.58
228.989	57.86
229.206	68.09
229.424	33.28
229.642	-13.82
229.86	-3.58
230.077	64
230.295	53.76
230.513	64
230.731	49.66
230.948	82.43
231.166	0.51
231.384	16.9
231.601	119.29
231.819	-1.54
232.037	125.44
232.254	-48.64
232.472	59.9
232.689	23.04
232.907	39.42
233.125	-40.45
233.342	-9.73
233.56	72.19
233.777	-13.82
233.995	47.62
234.213	113.15
234.43	-1.54
234.648	47.62
234.865	-46.59
235.083	23.04
235.3	29.18
235.518	25.09
235.735	82.43
235.953	113.15
236.17	51.71
236.388	66.05
236.605	76.29
236.822	18.94
237.04	-24.06
237.257	104.96
237.475	96.77
237.692	47.62
237.909	55.81
238.127	90.62
238.344	43.52
238.562	31.23
238.779	-75.26
238.996	-9.73
239.214	41.47
239.431	49.66
239.648	-65.02
239.865	49.66
240.083	92.67
240.3	43.52
240.517	-24.06
240.735	31.23
240.952	59.9
241.169	76.29
241.386	27.14
241.603	10.75
241.821	27.14
242.038	104.96
242.255	51.71
242.472	-91.65
242.689	78.33
242.907	43.52
243.124	76.29
243.341	-15.87
243.558	12.8
243.775	0.51
243.992	45.57
244.209	31.23
244.426	76.29
244.643	47.62
244.86	70.14
245.078	16.9
245.295	-15.87
245.512	10.75
245.729	-5.63
245.946	86.53
246.163	2.56
246.38	-44.54
246.597	-24.06
246.814	2.56
247.031	100.86
247.248	-1.54
247.464	66.05
247.681	6.66
247.898	55.81
248.115	33.28
248.332	-44.54
248.549	35.33
248.766	61.95
248.983	113.15
249.2	-36.35
249.417	-15.87
249.633	23.04
249.85	64
250.067	-5.63
250.284	12.8
250.501	20.99
250.717	35.33
250.934	14.85
251.151	35.33
251.368	12.8
251.585	49.66
251.801	20.99
252.018	0.51
252.235	10.75
252.451	53.76
252.668	68.09
252.885	80.38
253.102	16.9
253.318	-32.26
253.535	18.94
253.752	-15.87
253.968	-9.73
254.185	64
254.401	16.9
254.618	-9.73
254.835	35.33
255.051	76.29
255.268	51.71
255.484	29.18
255.701	41.47
255.917	29.18
256.134	-5.63
256.351	49.66
256.567	43.52
256.784	-44.54
257	64
257.217	84.48
257.433	53.76
257.65	55.81
257.866	41.47
258.082	47.62
258.299	-15.87
258.515	59.9
258.732	51.71
258.948	14.85
259.165	51.71
259.381	23.04
259.597	18.94
259.814	-38.4
260.03	33.28
260.246	27.14
260.463	33.28
260.679	-19.97
260.895	68.09
261.112	76.29
261.328	51.71
261.544	-1.54
261.761	92.67
261.977	55.81
262.193	25.09
262.409	27.14
262.626	0.51
262.842	37.38
263.058	-3.58
263.274	70.14
263.49	-1.54
263.707	57.86
263.923	12.8
264.139	47.62
264.355	-40.45
264.571	59.9
264.787	-46.59
265.004	66.05
265.22	29.18
265.436	61.95
265.652	39.42
265.868	125.44
266.084	14.85
266.3	47.62
266.516	78.33
266.732	53.76
266.948	-24.06
267.164	-34.3
267.38	96.77
267.596	72.19
267.812	86.53
268.028	35.33
268.244	4.61
268.46	18.94
268.676	-22.02
268.892	49.66
269.108	31.23
269.324	47.62
269.54	-32.26
269.756	72.19
269.972	55.81
270.188	0.51
270.403	8.7
270.619	45.57
270.835	-3.58
271.051	-5.63
271.267	59.9
271.483	-11.78
271.698	82.43
271.914	94.72
272.13	23.04
272.346	70.14
272.562	33.28
272.777	94.72
272.993	-40.45
273.209	29.18
273.425	96.77
273.64	68.09
273.856	49.66
274.072	94.72
274.287	82.43
274.503	23.04
274.719	74.24
274.934	14.85
275.15	-58.88
275.366	70.14
275.581	29.18
275.797	51.71
276.012	20.99
276.228	29.18
276.444	80.38
276.659	49.66
276.875	51.71
277.09	-15.87
277.306	-32.26
277.521	92.67
277.737	0.51
277.952	-26.11
278.168	41.47
278.383	25.09
278.599	18.94
278.814	53.76
279.03	35.33
279.245	88.57
279.461	39.42
279.676	57.86
279.892	41.47
280.107	45.57
280.322	-24.06
280.538	18.94
280.753	10.75
280.969	57.86
281.184	43.52
281.399	74.24
281.615	66.05
281.83	84.48
282.045	-50.69
282.26	47.62
282.476	78.33
282.691	12.8
282.906	4.61
283.122	64
283.337	16.9
283.552	66.05
283.767	53.76
283.983	20.99
284.198	2.56
284.413	84.48
284.628	39.42
284.843	90.62
285.058	57.86
285.274	35.33
285.489	68.09
285.704	119.29
285.919	55.81
286.134	43.52
286.349	70.14
286.564	37.38
286.779	20.99
286.995	39.42
287.21	70.14
287.425	41.47
287.64	31.23
287.855	-1.54
288.07	23.04
288.285	14.85
288.5	80.38
288.715	90.62
288.93	25.09
289.145	78.33
289.36	23.04
289.575	23.04
289.79	61.95
290.004	4.61
290.219	51.71
290.434	55.81
290.649	104.96
290.864	45.57
291.079	16.9
291.294	64
291.509	86.53
291.724	90.62
291.938	-38.4
292.153	64
292.368	4.61
292.583	49.66
292.798	49.66
293.012	55.81
293.227	37.38
293.442	41.47
293.657	20.99
293.871	59.9
294.086	74.24
294.301	111.1
294.516	8.7
294.73	-13.82
294.945	25.09
295.16	47.62
295.374	82.43
295.589	96.77
295.804	6.66
296.018	29.18
296.233	51.71
296.447	39.42
296.662	57.86
296.877	57.86
297.091	-3.58
297.306	102.91
297.52	23.04
297.735	-7.68
297.949	23.04
298.164	107.01
298.378	-9.73
298.593	-1.54
298.807	0.51
299.022	88.57
299.236	102.91
299.451	20.99
299.665	53.76
299.88	109.05
300.094	-11.78
300.309	10.75
300.523	16.9
300.737	59.9
300.952	51.71
301.166	94.72
301.381	-52.74
301.595	80.38
301.809	6.66
302.024	39.42
302.238	51.71
302.452	35.33
302.667	-24.06
302.881	2.56
303.095	-40.45
303.309	90.62
303.524	43.52
303.738	66.05
303.952	-34.3
304.166	16.9
304.381	-19.97
304.595	96.77
304.809	12.8
305.023	47.62
305.237	39.42
305.452	27.14
305.666	111.1
305.88	27.14
306.094	51.71
306.308	80.38
306.522	55.81
306.736	84.48
306.95	23.04
307.164	45.57
307.379	104.96
307.593	80.38
307.807	33.28
308.021	25.09
308.235	59.9
308.449	57.86
308.663	27.14
308.877	115.2
309.091	14.85
309.305	39.42
309.519	-67.07
309.733	-11.78
309.947	12.8
310.161	47.62
310.374	45.57
310.588	-1.54
310.802	31.23
311.016	86.53
311.23	39.42
311.444	68.09
311.658	78.33
311.872	115.2
312.085	102.91
312.299	111.1
312.513	49.66
312.727	23.04
312.941	14.85
313.154	68.09
313.368	27.14
313.582	29.18
313.796	-26.11
314.009	-1.54
314.223	0.51
314.437	125.44
314.651	-17.92
314.864	92.67
315.078	10.75
315.292	2.56
315.505	25.09
315.719	70.14
315.933	49.66
316.146	49.66
316.36	33.28
316.573	57.86
316.787	35.33
317.001	72.19
317.214	-15.87
317.428	64
317.641	-36.35
317.855	2.56
318.068	31.23
318.282	41.47
318.495	0.51
318.709	-1.54
318.922	66.05
319.136	59.9
319.349	23.04
319.563	94.72
319.776	66.05
319.99	55.81
320.203	18.94
320.417	31.23
320.63	18.94
320.843	135.68
321.057	-3.58
321.27	57.86
321.483	35.33
321.697	39.42
321.91	39.42
322.124	49.66
322.337	70.14
322.55	16.9
322.763	-38.4
322.977	41.47
323.19	27.14
323.403	74.24
323.617	20.99
323.83	35.33
324.043	16.9
324.256	107.01
324.469	68.09
324.683	100.86
324.896	31.23
325.109	-19.97
325.322	53.76
325.535	45.57
325.748	31.23
325.962	47.62
326.175	82.43
326.388	78.33
326.601	51.71
326.814	33.28
327.027	47.62
327.24	76.29
327.453	-22.02
327.666	10.75
327.879	-40.45
328.092	76.29
328.305	45.57
328.518	25.09
328.731	37.38
328.944	74.24
329.157	117.25
329.37	-17.92
329.583	86.53
329.796	76.29
330.009	18.94
330.222	61.95
330.435	96.77
330.648	55.81
330.861	57.86
331.073	64
331.286	86.53
331.499	84.48
331.712	43.52
331.925	41.47
332.138	59.9
332.35	49.66
332.563	-24.06
332.776	139.77
332.989	-46.59
333.202	20.99
333.414	41.47
333.627	45.57
333.84	-30.21
334.053	-22.02
334.265	43.52
334.478	45.57
334.691	66.05
334.903	-13.82
335.116	76.29
335.329	51.71
335.541	76.29
335.754	84.48
335.966	29.18
336.179	82.43
336.392	-1.54
336.604	113.15
336.817	35.33
337.029	80.38
337.242	78.33
337.454	39.42
337.667	-7.68
337.88	16.9
338.092	2.56
338.305	55.81
338.517	-1.54
338.729	72.19
338.942	23.04
339.154	18.94
339.367	35.33
339.579	37.38
339.792	25.09
340.004	39.42
340.217	-13.82
340.429	86.53
340.641	49.66
340.854	25.09
341.066	47.62
341.278	43.52
341.491	72.19
341.703	66.05
341.915	20.99
342.128	45.57
342.34	72.19
342.552	43.52
342.764	66.05
342.977	133.63
343.189	82.43
343.401	-7.68
343.613	4.61
343.826	25.09
344.038	-5.63
344.25	12.8
344.462	68.09
344.674	39.42
344.886	23.04
345.099	51.71
345.311	-48.64
345.523	-19.97
345.735	6.66
345.947	-32.26
346.159	64
346.371	104.96
346.583	90.62
346.795	82.43
347.007	35.33
347.219	61.95
347.431	-5.63
347.643	98.81
347.855	76.29
348.067	102.91
348.279	51.71
348.491	2.56
348.703	39.42
348.915	100.86
349.127	35.33
349.339	39.42
349.551	29.18
349.763	37.38
349.975	-32.26
350.187	33.28
350.399	76.29
350.61	84.48
350.822	31.23
351.034	57.86
351.246	47.62
351.458	12.8
351.669	70.14
351.881	23.04
352.093	98.81
352.305	72.19
352.517	20.99
352.728	31.23
352.94	123.39
353.152	41.47
353.363	12.8
353.575	14.85
353.787	86.53
353.999	49.66
354.21	70.14
354.422	-17.92
354.633	16.9
354.845	70.14
355.057	35.33
355.268	-5.63
355.48	51.71
355.692	14.85
355.903	88.57
356.115	45.57
356.326	-5.63
356.538	53.76
356.749	8.7
356.961	64
357.172	127.49
357.384	-1.54
357.595	78.33
357.807	74.24
358.018	20.99
358.23	31.23
358.441	162.3
358.653	31.23
358.864	25.09
359.075	14.85
359.287	41.47
359.498	20.99
359.709	72.19
359.921	98.81
360.132	33.28
360.344	27.14
360.555	39.42
360.766	127.49
360.977	8.7
361.189	80.38
361.4	33.28
361.611	33.28
361.823	55.81
362.034	80.38
362.245	23.04
362.456	31.23
362.667	64
362.879	64
363.09	88.57
363.301	113.15
363.512	12.8
363.723	51.71
363.935	76.29
364.146	82.43
364.357	0.51
364.568	166.4
364.779	104.96
364.99	100.86
365.201	37.38
365.412	51.71
365.623	61.95
365.834	61.95
366.045	80.38
366.256	117.25
366.467	72.19
366.678	-44.54
366.889	-1.54
367.1	25.09
367.311	72.19
367.522	14.85
367.733	12.8
367.944	-11.78
368.155	45.57
368.366	64
368.577	100.86
368.788	23.04
368.999	33.28
369.209	98.81
369.42	205.31
369.631	94.72
369.842	64
370.053	72.19
370.264	82.43
370.474	39.42
370.685	39.42
370.896	59.9
371.107	57.86
371.317	59.9
371.528	47.62
371.739	14.85
371.95	70.14
372.16	31.23
372.371	-11.78
372.582	59.9
372.792	111.1
373.003	88.57
373.214	74.24
373.424	59.9
373.635	39.42
373.846	88.57
374.056	80.38
374.267	90.62
374.477	74.24
374.688	47.62
374.898	25.09
375.109	33.28
375.319	119.29
375.53	47.62
375.74	27.14
375.951	37.38
376.161	84.48
376.372	47.62
376.582	27.14
376.793	51.71
377.003	25.09
377.214	57.86
377.424	25.09
377.635	88.57
377.845	102.91
378.055	-36.35
378.266	104.96
378.476	12.8
378.686	45.57
378.897	59.9
379.107	74.24
379.317	70.14
379.528	64
379.738	76.29
379.948	61.95
380.158	98.81
380.369	25.09
380.579	33.28
380.789	47.62
380.999	82.43
381.21	55.81
381.42	72.19
381.63	96.77
381.84	33.28
382.05	121.34
382.261	92.67
382.471	35.33
382.681	78.33
382.891	74.24
383.101	121.34
383.311	88.57
383.521	47.62
383.731	109.05
383.941	82.43
384.151	68.09
384.361	94.72
384.571	49.66
384.781	88.57
384.991	123.39
385.201	90.62
385.411	-26.11
385.621	119.29
385.831	43.52
386.041	102.91
386.251	53.76
386.461	125.44
386.671	35.33
386.881	4.61
387.091	51.71
387.301	84.48
387.511	-22.02
387.72	18.94
387.93	10.75
388.14	41.47
388.35	72.19
388.56	45.57
388.769	66.05
388.979	88.57
389.189	57.86
389.399	0.51
389.609	96.77
389.818	104.96
390.028	78.33
390.238	152.06
390.447	35.33
390.657	72.19
390.867	14.85
391.076	66.05
391.286	49.66
391.496	102.91
391.705	8.7
391.915	156.16
392.125	43.52
392.334	59.9
392.544	121.34
392.753	123.39
392.963	88.57
393.172	64
393.382	86.53
393.591	96.77
393.801	20.99
394.01	115.2
394.22	143.87
394.429	66.05
394.639	119.29
394.848	70.14
395.058	70.14
395.267	47.62
395.477	66.05
395.686	184.83
395.895	53.76
396.105	176.64
396.314	104.96
396.524	96.77
396.733	72.19
396.942	147.97
397.152	152.06
397.361	147.97
397.57	-7.68
397.78	143.87
397.989	139.77
398.198	186.88
398.407	76.29
398.617	139.77
398.826	68.09
399.035	-1.54
399.244	129.53
399.453	68.09
399.663	47.62
399.872	162.3
400.081	47.62
400.29	94.72
400.499	145.92
400.708	111.1
400.917	70.14
401.127	152.06
401.336	88.57
401.545	186.88
401.754	143.87
401.963	184.83
402.172	123.39
402.381	121.34
402.59	109.05
402.799	96.77
403.008	174.59
403.217	96.77
403.426	168.45
403.635	107.01
403.844	123.39
404.053	121.34
404.262	164.35
404.471	225.79
404.68	84.48
404.888	193.02
405.097	156.16
405.306	113.15
405.515	158.21
405.724	184.83
405.933	197.12
406.142	193.02
406.35	166.4
406.559	154.11
406.768	242.17
406.977	248.32
407.185	184.83
407.394	139.77
407.603	197.12
407.812	233.98
408.02	174.59
408.229	207.36
408.438	231.93
408.646	266.75
408.855	262.65
409.064	266.75
409.272	322.04
409.481	264.7
409.69	309.76
409.898	211.45
410.107	266.75
410.315	242.17
410.524	315.9
410.733	315.9
410.941	272.89
411.15	414.2
411.358	332.28
411.567	410.11
411.775	387.58
411.984	385.53
412.192	371.19
412.401	420.35
412.609	434.68
412.818	481.78
413.026	471.54
413.234	510.46
413.443	401.91
413.651	557.56
413.86	494.07
414.068	588.28
414.276	608.76
414.485	612.85
414.693	600.57
414.901	715.25
415.11	680.44
415.318	649.72
415.526	680.44
415.734	731.64
415.943	809.46
416.151	788.98
416.359	758.26
416.567	942.58
416.776	924.15
416.984	948.72
417.192	1077.74
417.4	1069.55
417.608	1059.31
417.817	1102.32
418.025	1104.37
418.233	1214.96
418.441	1145.33
418.649	1139.18
418.857	1286.64
419.065	1323.5
419.273	1358.32
419.481	1376.75
419.689	1456.62
419.897	1421.8
420.105	1554.92
420.313	1509.86
420.521	1636.84
420.729	1706.47
420.937	1685.99
421.145	1700.33
421.353	1694.18
421.561	1964.51
421.769	1976.8
421.977	2066.91
422.185	2032.1
422.393	2161.12
422.601	2210.27
422.809	2263.52
423.017	2347.48
423.224	2472.41
423.432	2460.12
423.64	2427.35
423.848	2773.46
424.056	2742.74
424.263	2869.72
424.471	2714.07
424.679	2896.34
424.887	3135.95
425.094	3271.12
425.302	3166.67
425.51	3230.16
425.718	3541.45
425.925	3437
426.133	3541.45
426.341	3729.86
426.548	3877.32
426.756	4063.68
426.964	4043.2
427.171	4184.51
427.379	4221.38
427.586	4475.32
427.794	4501.95
428.001	4796.85
428.209	5020.08
428.417	4878.77
428.624	5353.9
428.832	5202.35
429.039	5226.93
429.247	5134.77
429.454	5720.49
429.662	5992.87
429.869	5560.75
430.076	6146.47
430.284	5882.28
430.491	6046.12
430.699	6756.76
430.906	6523.29
431.114	6773.14
431.321	6810.01
431.528	7102.87
431.736	7522.7
431.943	7745.93
432.15	7678.35
432.358	7549.32
432.565	8104.32
432.772	8067.46
432.979	8481.15
433.187	8597.88
433.394	8685.95
433.601	9226.61
433.808	9402.74
434.016	9177.46
434.223	9693.55
434.43	10340.71
434.637	10008.94
434.844	10621.28
435.052	10692.96
435.259	10547.55
435.466	10584.41
435.673	10623.33
435.88	11643.21
436.087	12282.18
436.294	12130.63
436.501	11845.96
436.708	11960.65
436.915	12429.63
437.122	13048.12
437.329	12888.38
437.537	13386.04
437.743	13459.76
437.95	13508.91
438.157	14037.29
438.364	14784.8
438.571	14686.5
438.778	14686.5
438.985	16156.94
439.192	15538.45
439.399	15851.79
439.606	15642.9
439.813	16433.41
440.02	17539.32
440.227	16892.16
440.433	17293.56
440.64	17656.05
440.847	17565.94
441.054	18032.88
441.261	19275.99
441.467	18796.77
441.674	19036.38
441.881	19992.78
442.088	19937.49
442.294	19929.3
442.501	20465.86
442.708	20721.86
442.914	21561.53
443.121	22401.19
443.328	21612.73
443.534	23580.82
443.741	22640.81
443.948	22671.53
444.154	24344.72
444.361	23744.66
444.568	24135.82
444.774	23998.61
444.981	24377.48
445.187	25241.73
445.394	26300.53
445.6	25952.37
445.807	28360.78
446.013	27086.95
446.22	27852.89
446.426	28723.27
446.633	28801.1
446.839	29902.9
447.046	28995.65
447.252	30402.61
447.459	30521.39
447.665	29954.1
447.871	31719.45
448.078	33001.48
448.284	31565.85
448.491	31918.1
448.697	33501.18
448.903	33976.31
449.11	33882.11
449.316	33415.17
449.522	34246.65
449.728	35096.55
449.935	34899.95
450.141	35416.04
450.347	36032.47
450.553	34803.69
450.76	35327.97
450.966	36364.25
451.172	35866.59
451.378	37003.21
451.584	36227.03
451.791	37195.72
451.997	36949.96
452.203	37717.95
452.409	37773.25
452.615	37449.67
452.821	36212.7
453.027	35950.56
453.233	37625.79
453.44	35880.92
453.646	36290.52
453.852	36517.84
454.058	36827.09
454.264	35833.82
454.47	36851.66
454.676	35954.65
454.882	36937.68
455.088	33839.1
455.294	34156.53
455.5	34910.19
455.705	35114.98
455.911	33673.21
456.117	33015.82
456.323	32753.68
456.529	31172.64
456.735	32358.42
456.941	31371.3
457.147	30591.02
457.352	30011.45
457.558	29505.6
457.764	29438.01
457.97	29022.28
458.176	28385.36
458.381	28151.89
458.587	27252.83
458.793	27140.19
458.999	25620.6
459.204	27443.29
459.41	26902.63
459.616	24778.89
459.821	24762.5
460.027	24623.24
460.233	24207.5
460.438	23220.38
460.644	23373.98
460.85	22423.72
461.055	21659.83
461.261	22055.09
461.466	20316.36
461.672	19654.87
461.878	21012.67
462.083	19495.13
462.289	18991.33
462.494	18931.94
462.7	18110.7
462.905	17948.91
463.111	18374.89
463.316	18669.8
463.522	17936.62
463.727	18362.6
463.932	17631.47
464.138	17762.54
464.343	17766.64
464.549	17185.02
464.754	17979.63
464.959	17946.86
465.165	17588.47
465.37	16978.17
465.575	16515.33
465.781	17350.9
465.986	17258.74
466.191	16445.7
466.397	16361.73
466.602	15589.65
466.807	16161.03
467.012	16128.27
467.218	15913.23
467.423	15857.93
467.628	16122.12
467.833	16531.72
468.038	15913.23
