Data from USB4F104151__56__12-01-44-329.txt Node

Date: Fri Mar 14 12:01:44 EDT 2025
User: louis
Spectrometer: USB4F10415
Trigger mode: 4
Integration Time (sec): 2.000000E-2
Scans to average: 1
Electric dark correction enabled: true
Nonlinearity correction enabled: false
Boxcar width: 0
XAxis mode: Wavelengths
Number of Pixels in Spectrum: 3648
>>>>>Begin Spectral Data<<<<<
178.204	-81.58
178.424	-81.58
178.644	-81.58
178.864	-50.86
179.084	-75.43
179.304	-1.71
179.524	24.92
179.744	-9.9
179.964	-3.75
180.184	8.53
180.404	-28.33
180.624	2.39
180.844	16.73
181.064	12.63
181.283	12.63
181.503	-24.23
181.723	-9.9
181.943	-73.39
182.163	29.01
182.383	90.45
182.602	90.45
182.822	69.97
183.042	63.83
183.262	2.39
183.482	-63.15
183.701	39.25
183.921	-13.99
184.141	61.78
184.361	20.82
184.58	8.53
184.8	-42.67
185.02	-3.75
185.239	59.73
185.459	39.25
185.679	33.11
185.898	14.68
186.118	14.68
186.338	41.3
186.557	86.36
186.777	74.07
186.997	33.11
187.216	35.16
187.436	12.63
187.655	29.01
187.875	49.49
188.095	-1.71
188.314	39.25
188.534	53.59
188.753	49.49
188.973	22.87
189.192	112.98
189.412	88.4
189.631	104.79
189.851	-1.71
190.07	45.4
190.29	29.01
190.509	72.02
190.729	-26.28
190.948	80.21
191.168	112.98
191.387	53.59
191.607	18.77
191.826	115.03
192.045	57.68
192.265	0.34
192.484	-40.62
192.704	63.83
192.923	12.63
193.142	115.03
193.362	41.3
193.581	51.54
193.8	29.01
194.02	74.07
194.239	65.88
194.458	86.36
194.678	22.87
194.897	29.01
195.116	-1.71
195.335	39.25
195.555	80.21
195.774	88.4
195.993	49.49
196.212	35.16
196.432	16.73
196.651	-13.99
196.87	78.16
197.089	35.16
197.308	84.31
197.528	37.2
197.747	-36.52
197.966	72.02
198.185	35.16
198.404	2.39
198.623	90.45
198.842	53.59
199.062	63.83
199.281	39.25
199.5	18.77
199.719	78.16
199.938	82.26
200.157	74.07
200.376	-1.71
200.595	35.16
200.814	51.54
201.033	33.11
201.252	65.88
201.471	74.07
201.69	84.31
201.909	2.39
202.128	-7.85
202.347	59.73
202.566	110.93
202.785	2.39
203.004	35.16
203.223	158.03
203.442	22.87
203.661	45.4
203.879	22.87
204.098	59.73
204.317	18.77
204.536	86.36
204.755	84.31
204.974	47.44
205.193	59.73
205.411	61.78
205.63	-16.04
205.849	63.83
206.068	-1.71
206.287	80.21
206.505	61.78
206.724	-7.85
206.943	26.96
207.162	20.82
207.381	53.59
207.599	65.88
207.818	33.11
208.037	-11.95
208.255	45.4
208.474	-16.04
208.693	82.26
208.911	59.73
209.13	61.78
209.349	121.17
209.567	41.3
209.786	106.84
210.005	92.5
210.223	20.82
210.442	14.68
210.661	6.49
210.879	51.54
211.098	14.68
211.316	61.78
211.535	29.01
211.753	57.68
211.972	51.54
212.191	65.88
212.409	59.73
212.628	100.69
212.846	65.88
213.065	49.49
213.283	106.84
213.502	51.54
213.72	-30.38
213.938	26.96
214.157	35.16
214.375	29.01
214.594	51.54
214.812	96.6
215.031	59.73
215.249	53.59
215.467	47.44
215.686	33.11
215.904	59.73
216.122	-26.28
216.341	-42.67
216.559	166.23
216.778	65.88
216.996	26.96
217.214	22.87
217.432	-26.28
217.651	2.39
217.869	59.73
218.087	2.39
218.306	69.97
218.524	55.64
218.742	41.3
218.96	61.78
219.179	53.59
219.397	88.4
219.615	98.64
219.833	55.64
220.051	16.73
220.27	84.31
220.488	2.39
220.706	37.2
220.924	57.68
221.142	45.4
221.36	-5.8
221.578	41.3
221.796	43.35
222.015	67.92
222.233	67.92
222.451	59.73
222.669	20.82
222.887	82.26
223.105	72.02
223.323	57.68
223.541	-30.38
223.759	92.5
223.977	-77.48
224.195	-24.23
224.413	100.69
224.631	45.4
224.849	22.87
225.067	63.83
225.285	47.44
225.503	6.49
225.721	-7.85
225.939	-50.86
226.157	90.45
226.375	90.45
226.592	16.73
226.81	141.65
227.028	49.49
227.246	127.32
227.464	59.73
227.682	37.2
227.9	26.96
228.117	153.94
228.335	16.73
228.553	-50.86
228.771	-5.8
228.989	135.51
229.206	37.2
229.424	39.25
229.642	8.53
229.86	51.54
230.077	47.44
230.295	59.73
230.513	96.6
230.731	65.88
230.948	45.4
231.166	59.73
231.384	12.63
231.601	-9.9
231.819	86.36
232.037	18.77
232.254	20.82
232.472	43.35
232.689	-52.91
232.907	14.68
233.125	86.36
233.342	24.92
233.56	43.35
233.777	78.16
233.995	78.16
234.213	24.92
234.43	65.88
234.648	51.54
234.865	37.2
235.083	108.88
235.3	-36.52
235.518	51.54
235.735	-5.8
235.953	43.35
236.17	72.02
236.388	43.35
236.605	-26.28
236.822	51.54
237.04	129.36
237.257	133.46
237.475	8.53
237.692	106.84
237.909	4.44
238.127	-3.75
238.344	35.16
238.562	106.84
238.779	49.49
238.996	76.12
239.214	51.54
239.431	74.07
239.648	-11.95
239.865	57.68
240.083	35.16
240.3	18.77
240.517	39.25
240.735	137.56
240.952	47.44
241.169	61.78
241.386	45.4
241.603	51.54
241.821	74.07
242.038	86.36
242.255	35.16
242.472	43.35
242.689	41.3
242.907	94.55
243.124	33.11
243.341	82.26
243.558	-5.8
243.775	86.36
243.992	57.68
244.209	127.32
244.426	51.54
244.643	12.63
244.86	-36.52
245.078	80.21
245.295	-3.75
245.512	0.34
245.729	29.01
245.946	55.64
246.163	43.35
246.38	100.69
246.597	57.68
246.814	123.22
247.031	6.49
247.248	94.55
247.464	24.92
247.681	112.98
247.898	59.73
248.115	51.54
248.332	4.44
248.549	-20.14
248.766	31.06
248.983	29.01
249.2	106.84
249.417	63.83
249.633	45.4
249.85	-1.71
250.067	10.58
250.284	24.92
250.501	37.2
250.717	57.68
250.934	59.73
251.151	53.59
251.368	-28.33
251.585	119.12
251.801	106.84
252.018	10.58
252.235	112.98
252.451	82.26
252.668	26.96
252.885	45.4
253.102	-20.14
253.318	-32.43
253.535	35.16
253.752	-32.43
253.968	41.3
254.185	84.31
254.401	84.31
254.618	55.64
254.835	43.35
255.051	67.92
255.268	151.89
255.484	82.26
255.701	20.82
255.917	115.03
256.134	33.11
256.351	31.06
256.567	45.4
256.784	94.55
257	12.63
257.217	143.7
257.433	90.45
257.65	49.49
257.866	51.54
258.082	-5.8
258.299	106.84
258.515	63.83
258.732	-5.8
258.948	51.54
259.165	-3.75
259.381	-16.04
259.597	39.25
259.814	16.73
260.03	0.34
260.246	57.68
260.463	6.49
260.679	41.3
260.895	41.3
261.112	-5.8
261.328	59.73
261.544	65.88
261.761	43.35
261.977	45.4
262.193	-28.33
262.409	59.73
262.626	51.54
262.842	78.16
263.058	8.53
263.274	102.74
263.49	18.77
263.707	-3.75
263.923	39.25
264.139	8.53
264.355	61.78
264.571	84.31
264.787	63.83
265.004	12.63
265.22	57.68
265.436	57.68
265.652	55.64
265.868	74.07
266.084	22.87
266.3	115.03
266.516	6.49
266.732	104.79
266.948	76.12
267.164	37.2
267.38	31.06
267.596	94.55
267.812	24.92
268.028	65.88
268.244	84.31
268.46	16.73
268.676	10.58
268.892	65.88
269.108	33.11
269.324	18.77
269.54	-24.23
269.756	123.22
269.972	2.39
270.188	98.64
270.403	12.63
270.619	96.6
270.835	53.59
271.051	4.44
271.267	29.01
271.483	6.49
271.698	8.53
271.914	49.49
272.13	96.6
272.346	65.88
272.562	16.73
272.777	41.3
272.993	65.88
273.209	45.4
273.425	35.16
273.64	82.26
273.856	80.21
274.072	0.34
274.287	-3.75
274.503	4.44
274.719	100.69
274.934	8.53
275.15	12.63
275.366	37.2
275.581	67.92
275.797	59.73
276.012	47.44
276.228	-9.9
276.444	69.97
276.659	63.83
276.875	123.22
277.09	69.97
277.306	96.6
277.521	102.74
277.737	63.83
277.952	115.03
278.168	76.12
278.383	86.36
278.599	-26.28
278.814	147.8
279.03	4.44
279.245	115.03
279.461	106.84
279.676	67.92
279.892	57.68
280.107	-13.99
280.322	37.2
280.538	18.77
280.753	4.44
280.969	51.54
281.184	47.44
281.399	158.03
281.615	24.92
281.83	69.97
282.045	61.78
282.26	2.39
282.476	18.77
282.691	76.12
282.906	-28.33
283.122	55.64
283.337	72.02
283.552	33.11
283.767	104.79
283.983	74.07
284.198	20.82
284.413	112.98
284.628	12.63
284.843	35.16
285.058	31.06
285.274	115.03
285.489	55.64
285.704	12.63
285.919	96.6
286.134	49.49
286.349	24.92
286.564	108.88
286.779	72.02
286.995	39.25
287.21	-9.9
287.425	-24.23
287.64	67.92
287.855	-13.99
288.07	35.16
288.285	57.68
288.5	84.31
288.715	57.68
288.93	35.16
289.145	92.5
289.36	37.2
289.575	84.31
289.79	115.03
290.004	24.92
290.219	78.16
290.434	-38.57
290.649	37.2
290.864	78.16
291.079	49.49
291.294	39.25
291.509	0.34
291.724	14.68
291.938	22.87
292.153	-38.57
292.368	65.88
292.583	43.35
292.798	84.31
293.012	8.53
293.227	37.2
293.442	41.3
293.657	63.83
293.871	115.03
294.086	63.83
294.301	115.03
294.516	106.84
294.73	-24.23
294.945	45.4
295.16	37.2
295.374	-5.8
295.589	98.64
295.804	16.73
296.018	96.6
296.233	61.78
296.447	72.02
296.662	18.77
296.877	76.12
297.091	84.31
297.306	59.73
297.52	129.36
297.735	43.35
297.949	29.01
298.164	-26.28
298.378	35.16
298.593	35.16
298.807	37.2
299.022	43.35
299.236	47.44
299.451	61.78
299.665	49.49
299.88	49.49
300.094	10.58
300.309	51.54
300.523	76.12
300.737	20.82
300.952	49.49
301.166	49.49
301.381	39.25
301.595	59.73
301.809	164.18
302.024	6.49
302.238	22.87
302.452	76.12
302.667	67.92
302.881	96.6
303.095	88.4
303.309	22.87
303.524	-1.71
303.738	94.55
303.952	-3.75
304.166	63.83
304.381	41.3
304.595	47.44
304.809	39.25
305.023	90.45
305.237	20.82
305.452	-7.85
305.666	110.93
305.88	-22.19
306.094	65.88
306.308	94.55
306.522	59.73
306.736	-11.95
306.95	4.44
307.164	26.96
307.379	98.64
307.593	10.58
307.807	145.75
308.021	84.31
308.235	59.73
308.449	-20.14
308.663	4.44
308.877	84.31
309.091	72.02
309.305	43.35
309.519	-63.15
309.733	35.16
309.947	6.49
310.161	74.07
310.374	18.77
310.588	49.49
310.802	6.49
311.016	0.34
311.23	0.34
311.444	18.77
311.658	26.96
311.872	69.97
312.085	141.65
312.299	37.2
312.513	147.8
312.727	59.73
312.941	16.73
313.154	82.26
313.368	33.11
313.582	74.07
313.796	-1.71
314.009	-18.09
314.223	37.2
314.437	-46.76
314.651	49.49
314.864	94.55
315.078	-7.85
315.292	14.68
315.505	-7.85
315.719	94.55
315.933	49.49
316.146	112.98
316.36	37.2
316.573	67.92
316.787	94.55
317.001	51.54
317.214	-3.75
317.428	49.49
317.641	39.25
317.855	88.4
318.068	96.6
318.282	26.96
318.495	110.93
318.709	51.54
318.922	86.36
319.136	201.04
319.349	47.44
319.563	-18.09
319.776	47.44
319.99	16.73
320.203	18.77
320.417	65.88
320.63	80.21
320.843	88.4
321.057	39.25
321.27	35.16
321.483	100.69
321.697	100.69
321.91	121.17
322.124	65.88
322.337	26.96
322.55	106.84
322.763	0.34
322.977	20.82
323.19	100.69
323.403	84.31
323.617	43.35
323.83	74.07
324.043	2.39
324.256	-36.52
324.469	78.16
324.683	-16.04
324.896	35.16
325.109	65.88
325.322	45.4
325.535	76.12
325.748	117.08
325.962	94.55
326.175	37.2
326.388	80.21
326.601	55.64
326.814	55.64
327.027	53.59
327.24	74.07
327.453	29.01
327.666	80.21
327.879	55.64
328.092	90.45
328.305	-11.95
328.518	74.07
328.731	63.83
328.944	-28.33
329.157	57.68
329.37	24.92
329.583	55.64
329.796	102.74
330.009	-16.04
330.222	47.44
330.435	98.64
330.648	110.93
330.861	45.4
331.073	141.65
331.286	92.5
331.499	74.07
331.712	-30.38
331.925	37.2
332.138	65.88
332.35	55.64
332.563	26.96
332.776	29.01
332.989	47.44
333.202	61.78
333.414	78.16
333.627	4.44
333.84	-3.75
334.053	61.78
334.265	117.08
334.478	59.73
334.691	108.88
334.903	102.74
335.116	110.93
335.329	8.53
335.541	72.02
335.754	82.26
335.966	20.82
336.179	37.2
336.392	29.01
336.604	67.92
336.817	104.79
337.029	31.06
337.242	92.5
337.454	33.11
337.667	31.06
337.88	100.69
338.092	43.35
338.305	76.12
338.517	4.44
338.729	35.16
338.942	72.02
339.154	-34.47
339.367	8.53
339.579	131.41
339.792	57.68
340.004	149.84
340.217	49.49
340.429	90.45
340.641	16.73
340.854	26.96
341.066	8.53
341.278	106.84
341.491	86.36
341.703	35.16
341.915	96.6
342.128	76.12
342.34	6.49
342.552	29.01
342.764	-22.19
342.977	47.44
343.189	31.06
343.401	49.49
343.613	-1.71
343.826	117.08
344.038	43.35
344.25	29.01
344.462	125.27
344.674	51.54
344.886	63.83
345.099	94.55
345.311	41.3
345.523	78.16
345.735	2.39
345.947	86.36
346.159	22.87
346.371	49.49
346.583	74.07
346.795	108.88
347.007	67.92
347.219	37.2
347.431	57.68
347.643	74.07
347.855	-9.9
348.067	84.31
348.279	6.49
348.491	104.79
348.703	57.68
348.915	92.5
349.127	-30.38
349.339	65.88
349.551	-30.38
349.763	51.54
349.975	47.44
350.187	55.64
350.399	72.02
350.61	69.97
350.822	14.68
351.034	10.58
351.246	92.5
351.458	26.96
351.669	29.01
351.881	96.6
352.093	90.45
352.305	61.78
352.517	37.2
352.728	100.69
352.94	92.5
353.152	63.83
353.363	72.02
353.575	121.17
353.787	88.4
353.999	112.98
354.21	35.16
354.422	63.83
354.633	22.87
354.845	51.54
355.057	121.17
355.268	12.63
355.48	47.44
355.692	35.16
355.903	39.25
356.115	69.97
356.326	0.34
356.538	57.68
356.749	63.83
356.961	76.12
357.172	82.26
357.384	67.92
357.595	121.17
357.807	59.73
358.018	31.06
358.23	43.35
358.441	76.12
358.653	57.68
358.864	37.2
359.075	12.63
359.287	90.45
359.498	106.84
359.709	35.16
359.921	59.73
360.132	84.31
360.344	63.83
360.555	49.49
360.766	84.31
360.977	84.31
361.189	33.11
361.4	94.55
361.611	106.84
361.823	84.31
362.034	90.45
362.245	84.31
362.456	2.39
362.667	72.02
362.879	141.65
363.09	18.77
363.301	43.35
363.512	59.73
363.723	45.4
363.935	65.88
364.146	78.16
364.357	55.64
364.568	82.26
364.779	65.88
364.99	63.83
365.201	14.68
365.412	37.2
365.623	-50.86
365.834	69.97
366.045	16.73
366.256	16.73
366.467	41.3
366.678	16.73
366.889	69.97
367.1	53.59
367.311	37.2
367.522	61.78
367.733	123.22
367.944	-1.71
368.155	41.3
368.366	53.59
368.577	39.25
368.788	110.93
368.999	65.88
369.209	35.16
369.42	131.41
369.631	67.92
369.842	37.2
370.053	92.5
370.264	37.2
370.474	125.27
370.685	110.93
370.896	51.54
371.107	35.16
371.317	72.02
371.528	-16.04
371.739	162.13
371.95	69.97
372.16	88.4
372.371	-9.9
372.582	0.34
372.792	55.64
373.003	49.49
373.214	80.21
373.424	31.06
373.635	104.79
373.846	149.84
374.056	166.23
374.267	104.79
374.477	164.18
374.688	41.3
374.898	74.07
375.109	49.49
375.319	69.97
375.53	145.75
375.74	35.16
375.951	33.11
376.161	59.73
376.372	137.56
376.582	72.02
376.793	24.92
377.003	78.16
377.214	39.25
377.424	100.69
377.635	61.78
377.845	26.96
378.055	90.45
378.266	59.73
378.476	2.39
378.686	74.07
378.897	14.68
379.107	63.83
379.317	47.44
379.528	74.07
379.738	133.46
379.948	43.35
380.158	43.35
380.369	88.4
380.579	119.12
380.789	115.03
380.999	45.4
381.21	18.77
381.42	149.84
381.63	43.35
381.84	67.92
382.05	102.74
382.261	72.02
382.471	100.69
382.681	102.74
382.891	76.12
383.101	117.08
383.311	26.96
383.521	121.17
383.731	151.89
383.941	86.36
384.151	108.88
384.361	86.36
384.571	84.31
384.781	20.82
384.991	65.88
385.201	78.16
385.411	53.59
385.621	92.5
385.831	8.53
386.041	96.6
386.251	61.78
386.461	112.98
386.671	41.3
386.881	59.73
387.091	72.02
387.301	100.69
387.511	67.92
387.72	76.12
387.93	61.78
388.14	45.4
388.35	100.69
388.56	145.75
388.769	57.68
388.979	84.31
389.189	4.44
389.399	137.56
389.609	78.16
389.818	108.88
390.028	45.4
390.238	69.97
390.447	108.88
390.657	102.74
390.867	57.68
391.076	123.22
391.286	55.64
391.496	106.84
391.705	80.21
391.915	45.4
392.125	39.25
392.334	92.5
392.544	96.6
392.753	86.36
392.963	125.27
393.172	100.69
393.382	12.63
393.591	176.47
393.801	72.02
394.01	162.13
394.22	20.82
394.429	112.98
394.639	45.4
394.848	174.42
395.058	117.08
395.267	76.12
395.477	123.22
395.686	129.36
395.895	141.65
396.105	164.18
396.314	115.03
396.524	121.17
396.733	43.35
396.942	141.65
397.152	106.84
397.361	112.98
397.57	174.42
397.78	24.92
397.989	172.37
398.198	115.03
398.407	131.41
398.617	106.84
398.826	100.69
399.035	135.51
399.244	115.03
399.453	174.42
399.663	76.12
399.872	45.4
400.081	98.64
400.29	164.18
400.499	78.16
400.708	129.36
400.917	153.94
401.127	53.59
401.336	139.6
401.545	174.42
401.754	172.37
401.963	182.61
402.172	160.08
402.381	145.75
402.59	117.08
402.799	125.27
403.008	145.75
403.217	96.6
403.426	129.36
403.635	135.51
403.844	110.93
404.053	180.56
404.262	160.08
404.471	162.13
404.68	174.42
404.888	131.41
405.097	178.51
405.306	139.6
405.515	172.37
405.724	149.84
405.933	172.37
406.142	198.99
406.35	215.38
406.559	147.8
406.768	270.67
406.977	278.87
407.185	219.47
407.394	268.63
407.603	170.32
407.812	237.91
408.02	211.28
408.229	248.15
408.438	192.85
408.646	231.76
408.855	264.53
409.064	276.82
409.272	268.63
409.481	176.47
409.69	250.19
409.898	293.2
410.107	348.5
410.315	317.78
410.524	332.11
410.733	317.78
410.941	309.58
411.15	379.22
411.358	393.55
411.567	409.94
411.775	344.4
411.984	430.41
412.192	448.85
412.401	442.7
412.609	481.61
412.818	545.1
413.026	506.19
413.234	487.76
413.443	495.95
413.651	530.77
413.86	545.1
414.068	598.35
414.276	586.06
414.485	637.26
414.693	598.35
414.901	647.5
415.11	715.08
415.318	751.95
415.526	708.94
415.734	737.61
415.943	784.71
416.151	758.09
416.359	872.78
416.567	784.71
416.776	962.89
416.984	952.65
417.192	981.32
417.4	1024.33
417.608	1028.42
417.817	1055.05
418.025	1128.77
418.233	1206.59
418.441	1100.1
418.649	1243.46
418.857	1323.33
419.065	1319.23
419.273	1278.27
419.481	1358.14
419.689	1438.02
419.897	1470.78
420.105	1483.07
420.313	1610.04
420.521	1644.86
420.729	1655.1
420.937	1788.22
421.145	1890.62
421.353	1907
421.561	1970.49
421.769	2019.64
421.977	2023.73
422.185	2072.89
422.393	2165.04
422.601	2296.11
422.809	2240.82
423.017	2351.41
423.224	2404.66
423.432	2468.14
423.64	2539.82
423.848	2730.28
424.056	2695.47
424.263	2996.52
424.471	2914.6
424.679	2789.67
424.887	3053.86
425.094	3141.93
425.302	3215.65
425.51	3354.91
425.718	3350.82
425.925	3508.51
426.133	3723.55
426.341	3803.42
426.548	4090.13
426.756	3850.52
426.964	4051.22
427.171	4305.17
427.379	4317.46
427.586	4337.94
427.794	4600.08
428.001	4753.68
428.209	4999.43
428.417	4862.22
428.624	5239.05
428.832	5206.28
429.039	5363.97
429.247	5196.04
429.454	5708.03
429.662	6162.68
429.869	5632.26
430.076	6084.86
430.284	6002.94
430.491	6129.91
430.699	6488.31
430.906	6521.07
431.114	6609.14
431.321	6908.14
431.528	7121.13
431.736	7395.56
431.943	7764.19
432.15	7489.76
432.358	7678.18
432.565	8214.74
432.772	8208.6
432.979	8509.65
433.187	8495.32
433.394	8521.94
433.601	9322.7
433.808	9369.8
434.016	9197.77
434.223	9584.84
434.43	10006.72
434.637	9953.47
434.844	10703.03
435.052	10748.08
435.259	10891.44
435.466	10664.11
435.673	10858.67
435.88	11643.04
436.087	12236.95
436.294	12093.6
436.501	11843.74
436.708	11923.62
436.915	12464.28
437.122	12953.74
437.329	12931.22
437.537	13406.34
437.743	13625.48
437.95	13453.45
438.157	14459
438.364	14602.36
438.571	14721.14
438.778	14825.59
438.985	16242.78
439.192	15163.5
439.399	15913.06
439.606	15736.93
439.813	16707.67
440.02	17393.74
440.227	17217.61
440.433	16840.79
440.64	17623.11
440.847	17457.23
441.054	18090.05
441.261	19093.55
441.467	18841.65
441.674	18958.39
441.881	19873.83
442.088	19781.67
442.294	19920.93
442.501	20256.8
442.708	20815.9
442.914	21657.61
443.121	22695.93
443.328	21856.26
443.534	23457.78
443.741	22568.96
443.948	22491.13
444.154	24143.84
444.361	23840.75
444.568	24207.33
444.774	23857.13
444.981	24737.76
445.187	25327.57
445.394	26052.55
445.6	25941.96
445.807	28469.15
446.013	27094.97
446.22	27721.65
446.426	29036.44
446.633	28768.16
446.839	29812.62
447.046	28798.88
447.252	30531.46
447.459	30300.04
447.665	30287.75
447.871	31903.6
448.078	33255.26
448.284	31328.12
448.491	32276.33
448.697	33261.4
448.903	33804.11
449.11	34127.69
449.316	33638.23
449.522	34277.19
449.728	35133.25
449.935	35012.42
450.141	35209.02
450.347	35807.03
450.553	35028.8
450.76	35413.82
450.966	36394.79
451.172	35987.25
451.378	36747.04
451.584	36200.24
451.791	36839.2
451.997	37052.19
452.203	37857.04
452.409	37633.82
452.615	37584.66
452.821	36208.43
453.027	35929.91
453.233	37738.26
453.44	36038.45
453.646	36222.76
453.852	36124.46
454.058	37277.47
454.264	35716.92
454.47	36851.49
454.676	35690.29
454.882	37314.33
455.088	33787.73
455.294	34273.1
455.5	34893.63
455.705	35284.79
455.911	33556.31
456.117	32890.72
456.323	32829.28
456.529	30865.28
456.735	31995.76
456.941	31336.31
457.147	31074.17
457.352	29835.15
457.558	29357.97
457.764	29327.25
457.97	29116.31
458.176	28489.63
458.381	28313.51
458.587	26984.38
458.793	27060.15
458.999	25868.23
459.204	27596.72
459.41	26900.41
459.616	24917.98
459.821	24860.63
460.027	24651.74
460.233	24416.22
460.438	23252.98
460.644	23283.7
460.85	22255.62
461.055	22077.44
461.261	21925.89
461.466	20140.07
461.672	19595.31
461.878	21131.28
462.083	19767.34
462.289	19148.85
462.494	18899
462.7	18153.54
462.905	17776.71
463.111	18434.11
463.316	18575.42
463.522	17934.4
463.727	18131.01
463.932	18083.91
464.138	17901.64
464.343	18012.23
464.549	17369.16
464.754	17856.58
464.959	17631.3
465.165	17500.23
465.37	17002.58
465.575	16427.1
465.781	17213.52
465.986	17279.05
466.191	16738.39
466.397	16291.93
466.602	15530.09
466.807	16195.68
467.012	16248.93
467.218	15919.2
467.423	15790.18
