Data from USB4F104151__8__12-00-21-515.txt Node

Date: Fri Mar 14 12:00:21 EDT 2025
User: louis
Spectrometer: USB4F10415
Trigger mode: 4
Integration Time (sec): 2.000000E-2
Scans to average: 1
Electric dark correction enabled: true
Nonlinearity correction enabled: false
Boxcar width: 0
XAxis mode: Wavelengths
Number of Pixels in Spectrum: 3648
>>>>>Begin Spectral Data<<<<<
178.204	-98.64
178.424	-98.64
178.644	-98.64
178.864	-67.92
179.084	-110.93
179.304	28.33
179.524	11.95
179.744	-14.68
179.964	93.87
180.184	13.99
180.404	11.95
180.624	5.8
180.844	-12.63
181.064	-29.01
181.283	-61.78
181.503	-43.35
181.723	-4.44
181.943	-2.39
182.163	57
182.383	1.71
182.602	24.23
182.822	77.48
183.042	73.39
183.262	-12.63
183.482	-8.53
183.701	36.52
183.921	-14.68
184.141	-22.87
184.361	38.57
184.58	-24.92
184.8	3.75
185.02	-33.11
185.239	91.82
185.459	-98.64
185.679	36.52
185.898	-47.44
186.118	-0.34
186.338	-8.53
186.557	-53.59
186.777	-29.01
186.997	-55.64
187.216	69.29
187.436	97.96
187.655	48.81
187.875	-24.92
188.095	-55.64
188.314	13.99
188.534	36.52
188.753	32.43
188.973	38.57
189.192	9.9
189.412	42.67
189.631	42.67
189.851	20.14
190.07	-6.49
190.29	-20.82
190.509	-2.39
190.729	-6.49
190.948	97.96
191.168	59.05
191.387	79.53
191.607	-26.96
191.826	28.33
192.045	18.09
192.265	11.95
192.484	-24.92
192.704	9.9
192.923	54.95
193.142	83.63
193.362	46.76
193.581	9.9
193.8	20.14
194.02	67.24
194.239	-6.49
194.458	-8.53
194.678	13.99
194.897	1.71
195.116	42.67
195.335	61.1
195.555	63.15
195.774	44.71
195.993	-20.82
196.212	-10.58
196.432	-39.25
196.651	-16.73
196.87	73.39
197.089	24.23
197.308	83.63
197.528	20.14
197.747	-37.2
197.966	-24.92
198.185	48.81
198.404	7.85
198.623	16.04
198.842	5.8
199.062	28.33
199.281	40.62
199.5	32.43
199.719	24.23
199.938	-14.68
200.157	-45.4
200.376	-20.82
200.595	65.19
200.814	44.71
201.033	46.76
201.252	-49.49
201.471	48.81
201.69	97.96
201.909	-69.97
202.128	54.95
202.347	18.09
202.566	48.81
202.785	-37.2
203.004	-20.82
203.223	30.38
203.442	7.85
203.661	36.52
203.879	-55.64
204.098	18.09
204.317	-33.11
204.536	22.19
204.755	-12.63
204.974	95.91
205.193	77.48
205.411	85.67
205.63	-18.77
205.849	-0.34
206.068	20.14
206.287	46.76
206.505	11.95
206.724	9.9
206.943	18.09
207.162	-29.01
207.381	7.85
207.599	5.8
207.818	-26.96
208.037	7.85
208.255	11.95
208.474	32.43
208.693	3.75
208.911	85.67
209.13	40.62
209.349	42.67
209.567	48.81
209.786	24.23
210.005	36.52
210.223	3.75
210.442	1.71
210.661	61.1
210.879	-49.49
211.098	63.15
211.316	-8.53
211.535	-37.2
211.753	-108.88
211.972	16.04
212.191	-14.68
212.409	54.95
212.628	44.71
212.846	1.71
213.065	-37.2
213.283	57
213.502	93.87
213.72	9.9
213.938	7.85
214.157	-8.53
214.375	34.47
214.594	-18.77
214.812	-26.96
215.031	-0.34
215.249	22.19
215.467	28.33
215.686	5.8
215.904	32.43
216.122	-6.49
216.341	-26.96
216.559	11.95
216.778	69.29
216.996	63.15
217.214	46.76
217.432	-39.25
217.651	13.99
217.869	-0.34
218.087	48.81
218.306	-2.39
218.524	-12.63
218.742	24.23
218.96	-10.58
219.179	-29.01
219.397	-20.82
219.615	124.58
219.833	65.19
220.051	-10.58
220.27	-2.39
220.488	30.38
220.706	-4.44
220.924	11.95
221.142	1.71
221.36	-24.92
221.578	-12.63
221.796	9.9
222.015	71.34
222.233	-8.53
222.451	22.19
222.669	-53.59
222.887	57
223.105	52.91
223.323	18.09
223.541	-24.92
223.759	89.77
223.977	-6.49
224.195	77.48
224.413	-39.25
224.631	-47.44
224.849	28.33
225.067	-18.77
225.285	87.72
225.503	20.14
225.721	-49.49
225.939	-4.44
226.157	-43.35
226.375	24.23
226.592	24.23
226.81	30.38
227.028	34.47
227.246	59.05
227.464	24.23
227.682	83.63
227.9	38.57
228.117	26.28
228.335	18.09
228.553	7.85
228.771	46.76
228.989	16.04
229.206	-0.34
229.424	-41.3
229.642	-53.59
229.86	-24.92
230.077	-2.39
230.295	42.67
230.513	59.05
230.731	69.29
230.948	20.14
231.166	-16.73
231.384	26.28
231.601	-0.34
231.819	-2.39
232.037	50.86
232.254	26.28
232.472	20.14
232.689	28.33
232.907	28.33
233.125	11.95
233.342	-37.2
233.56	-14.68
233.777	57
233.995	52.91
234.213	3.75
234.43	30.38
234.648	1.71
234.865	-10.58
235.083	7.85
235.3	-20.82
235.518	-22.87
235.735	-8.53
235.953	40.62
236.17	-4.44
236.388	-2.39
236.605	28.33
236.822	46.76
237.04	-78.16
237.257	20.14
237.475	20.14
237.692	-20.82
237.909	-8.53
238.127	-4.44
238.344	-47.44
238.562	-14.68
238.779	-29.01
238.996	3.75
239.214	36.52
239.431	9.9
239.648	-10.58
239.865	11.95
240.083	-12.63
240.3	-12.63
240.517	-41.3
240.735	3.75
240.952	42.67
241.169	24.23
241.386	-22.87
241.603	-78.16
241.821	7.85
242.038	-8.53
242.255	-4.44
242.472	16.04
242.689	50.86
242.907	87.72
243.124	24.23
243.341	-18.77
243.558	-14.68
243.775	-31.06
243.992	-43.35
244.209	28.33
244.426	22.19
244.643	46.76
244.86	-16.73
245.078	30.38
245.295	-26.96
245.512	-41.3
245.729	-8.53
245.946	-29.01
246.163	42.67
246.38	11.95
246.597	-14.68
246.814	1.71
247.031	22.19
247.248	22.19
247.464	42.67
247.681	40.62
247.898	7.85
248.115	52.91
248.332	11.95
248.549	63.15
248.766	40.62
248.983	48.81
249.2	24.23
249.417	89.77
249.633	1.71
249.85	-14.68
250.067	50.86
250.284	57
250.501	11.95
250.717	9.9
250.934	-41.3
251.151	40.62
251.368	67.24
251.585	36.52
251.801	-31.06
252.018	32.43
252.235	11.95
252.451	46.76
252.668	-18.77
252.885	36.52
253.102	20.14
253.318	3.75
253.535	18.09
253.752	38.57
253.968	-47.44
254.185	-45.4
254.401	-8.53
254.618	-4.44
254.835	75.43
255.051	34.47
255.268	22.19
255.484	87.72
255.701	-61.78
255.917	67.24
256.134	-4.44
256.351	28.33
256.567	-47.44
256.784	32.43
257	-41.3
257.217	28.33
257.433	-2.39
257.65	3.75
257.866	52.91
258.082	16.04
258.299	-65.88
258.515	-69.97
258.732	44.71
258.948	11.95
259.165	1.71
259.381	-8.53
259.597	3.75
259.814	57
260.03	57
260.246	26.28
260.463	-72.02
260.679	48.81
260.895	18.09
261.112	18.09
261.328	-39.25
261.544	-18.77
261.761	-8.53
261.977	-0.34
262.193	26.28
262.409	-20.82
262.626	9.9
262.842	-12.63
263.058	-20.82
263.274	40.62
263.49	3.75
263.707	-20.82
263.923	-35.16
264.139	57
264.355	30.38
264.571	46.76
264.787	-45.4
265.004	-33.11
265.22	67.24
265.436	5.8
265.652	52.91
265.868	1.71
266.084	3.75
266.3	-45.4
266.516	-16.73
266.732	87.72
266.948	-26.96
267.164	-12.63
267.38	22.19
267.596	91.82
267.812	24.23
268.028	79.53
268.244	50.86
268.46	26.28
268.676	-20.82
268.892	1.71
269.108	-65.88
269.324	-8.53
269.54	42.67
269.756	22.19
269.972	-29.01
270.188	20.14
270.403	9.9
270.619	46.76
270.835	-12.63
271.051	11.95
271.267	-8.53
271.483	77.48
271.698	32.43
271.914	67.24
272.13	-41.3
272.346	5.8
272.562	5.8
272.777	7.85
272.993	24.23
273.209	-0.34
273.425	-26.96
273.64	-6.49
273.856	16.04
274.072	-18.77
274.287	-69.97
274.503	7.85
274.719	34.47
274.934	26.28
275.15	-35.16
275.366	-8.53
275.581	36.52
275.797	-22.87
276.012	-0.34
276.228	-16.73
276.444	26.28
276.659	-35.16
276.875	18.09
277.09	-20.82
277.306	5.8
277.521	5.8
277.737	-53.59
277.952	1.71
278.168	-14.68
278.383	36.52
278.599	22.19
278.814	1.71
279.03	-0.34
279.245	-4.44
279.461	77.48
279.676	-22.87
279.892	-14.68
280.107	13.99
280.322	-33.11
280.538	9.9
280.753	-12.63
280.969	-0.34
281.184	-86.36
281.399	38.57
281.615	79.53
281.83	-6.49
282.045	38.57
282.26	32.43
282.476	40.62
282.691	61.1
282.906	-55.64
283.122	5.8
283.337	-33.11
283.552	38.57
283.767	44.71
283.983	50.86
284.198	-16.73
284.413	24.23
284.628	-61.78
284.843	5.8
285.058	13.99
285.274	38.57
285.489	3.75
285.704	7.85
285.919	30.38
286.134	11.95
286.349	-2.39
286.564	40.62
286.779	22.19
286.995	36.52
287.21	-29.01
287.425	-74.07
287.64	-2.39
287.855	-20.82
288.07	22.19
288.285	110.25
288.5	46.76
288.715	52.91
288.93	-24.92
289.145	16.04
289.36	79.53
289.575	-49.49
289.79	67.24
290.004	73.39
290.219	-2.39
290.434	-6.49
290.649	-41.3
290.864	-8.53
291.079	-2.39
291.294	-14.68
291.509	16.04
291.724	7.85
291.938	-26.96
292.153	18.09
292.368	42.67
292.583	83.63
292.798	32.43
293.012	34.47
293.227	3.75
293.442	34.47
293.657	-0.34
293.871	79.53
294.086	-0.34
294.301	91.82
294.516	143.02
294.73	32.43
294.945	5.8
295.16	9.9
295.374	30.38
295.589	52.91
295.804	20.14
296.018	-0.34
296.233	20.14
296.447	-37.2
296.662	52.91
296.877	95.91
297.091	65.19
297.306	3.75
297.52	-0.34
297.735	-35.16
297.949	-39.25
298.164	34.47
298.378	9.9
298.593	5.8
298.807	-29.01
299.022	20.14
299.236	11.95
299.451	32.43
299.665	52.91
299.88	65.19
300.094	-8.53
300.309	38.57
300.523	-14.68
300.737	59.05
300.952	61.1
301.166	52.91
301.381	40.62
301.595	13.99
301.809	9.9
302.024	-0.34
302.238	28.33
302.452	28.33
302.667	-39.25
302.881	114.34
303.095	91.82
303.309	61.1
303.524	40.62
303.738	5.8
303.952	-37.2
304.166	48.81
304.381	-76.12
304.595	95.91
304.809	-2.39
305.023	-26.96
305.237	59.05
305.452	-4.44
305.666	44.71
305.88	24.23
306.094	28.33
306.308	-49.49
306.522	-0.34
306.736	-26.96
306.95	-8.53
307.164	48.81
307.379	16.04
307.593	89.77
307.807	36.52
308.021	71.34
308.235	7.85
308.449	-8.53
308.663	44.71
308.877	40.62
309.091	63.15
309.305	11.95
309.519	-80.21
309.733	61.1
309.947	7.85
310.161	34.47
310.374	48.81
310.588	89.77
310.802	16.04
311.016	34.47
311.23	-51.54
311.444	7.85
311.658	13.99
311.872	7.85
312.085	34.47
312.299	44.71
312.513	5.8
312.727	-10.58
312.941	-8.53
313.154	67.24
313.368	5.8
313.582	-16.73
313.796	44.71
314.009	7.85
314.223	46.76
314.437	71.34
314.651	26.28
314.864	-39.25
315.078	22.19
315.292	-6.49
315.505	9.9
315.719	24.23
315.933	122.54
316.146	-104.79
316.36	22.19
316.573	61.1
316.787	-12.63
317.001	54.95
317.214	50.86
317.428	140.97
317.641	-6.49
317.855	65.19
318.068	75.43
318.282	57
318.495	65.19
318.709	-0.34
318.922	50.86
319.136	1.71
319.349	-2.39
319.563	26.28
319.776	-37.2
319.99	-20.82
320.203	67.24
320.417	28.33
320.63	-6.49
320.843	110.25
321.057	42.67
321.27	-31.06
321.483	1.71
321.697	26.28
321.91	-20.82
322.124	34.47
322.337	100.01
322.55	-10.58
322.763	59.05
322.977	7.85
323.19	36.52
323.403	93.87
323.617	61.1
323.83	59.05
324.043	-22.87
324.256	-2.39
324.469	73.39
324.683	38.57
324.896	-8.53
325.109	3.75
325.322	-2.39
325.535	-16.73
325.748	52.91
325.962	20.14
326.175	9.9
326.388	13.99
326.601	13.99
326.814	38.57
327.027	50.86
327.24	44.71
327.453	42.67
327.666	9.9
327.879	59.05
328.092	75.43
328.305	9.9
328.518	52.91
328.731	24.23
328.944	-69.97
329.157	-20.82
329.37	1.71
329.583	24.23
329.796	44.71
330.009	-22.87
330.222	106.15
330.435	50.86
330.648	-24.92
330.861	-14.68
331.073	63.15
331.286	7.85
331.499	11.95
331.712	18.09
331.925	28.33
332.138	48.81
332.35	-31.06
332.563	-22.87
332.776	69.29
332.989	-4.44
333.202	-14.68
333.414	30.38
333.627	77.48
333.84	-26.96
334.053	24.23
334.265	-67.92
334.478	-0.34
334.691	38.57
334.903	16.04
335.116	-6.49
335.329	18.09
335.541	71.34
335.754	26.28
335.966	1.71
336.179	20.14
336.392	-6.49
336.604	91.82
336.817	30.38
337.029	-20.82
337.242	52.91
337.454	42.67
337.667	20.14
337.88	46.76
338.092	11.95
338.305	-22.87
338.517	67.24
338.729	3.75
338.942	50.86
339.154	93.87
339.367	69.29
339.579	32.43
339.792	-57.68
340.004	57
340.217	71.34
340.429	-16.73
340.641	9.9
340.854	-6.49
341.066	3.75
341.278	32.43
341.491	-6.49
341.703	5.8
341.915	-39.25
342.128	30.38
342.34	30.38
342.552	-45.4
342.764	24.23
342.977	16.04
343.189	34.47
343.401	7.85
343.613	20.14
343.826	57
344.038	-12.63
344.25	18.09
344.462	-6.49
344.674	54.95
344.886	24.23
345.099	3.75
345.311	-0.34
345.523	36.52
345.735	-51.54
345.947	36.52
346.159	-61.78
346.371	-33.11
346.583	-14.68
346.795	22.19
347.007	5.8
347.219	30.38
347.431	42.67
347.643	67.24
347.855	50.86
348.067	50.86
348.279	-8.53
348.491	85.67
348.703	32.43
348.915	81.58
349.127	-92.5
349.339	42.67
349.551	-6.49
349.763	-8.53
349.975	-12.63
350.187	-0.34
350.399	38.57
350.61	59.05
350.822	54.95
351.034	1.71
351.246	32.43
351.458	30.38
351.669	26.28
351.881	61.1
352.093	61.1
352.305	77.48
352.517	20.14
352.728	75.43
352.94	28.33
353.152	11.95
353.363	-20.82
353.575	59.05
353.787	1.71
353.999	-4.44
354.21	46.76
354.422	18.09
354.633	3.75
354.845	3.75
355.057	-10.58
355.268	42.67
355.48	67.24
355.692	13.99
355.903	-78.16
356.115	-0.34
356.326	-39.25
356.538	30.38
356.749	-14.68
356.961	52.91
357.172	-24.92
357.384	22.19
357.595	57
357.807	-24.92
358.018	46.76
358.23	-26.96
358.441	44.71
358.653	73.39
358.864	-59.73
359.075	59.05
359.287	3.75
359.498	81.58
359.709	65.19
359.921	59.05
360.132	87.72
360.344	40.62
360.555	81.58
360.766	54.95
360.977	3.75
361.189	50.86
361.4	3.75
361.611	71.34
361.823	46.76
362.034	77.48
362.245	32.43
362.456	9.9
362.667	-18.77
362.879	65.19
363.09	1.71
363.301	-0.34
363.512	44.71
363.723	50.86
363.935	-8.53
364.146	59.05
364.357	65.19
364.568	13.99
364.779	61.1
364.99	85.67
365.201	-10.58
365.412	59.05
365.623	79.53
365.834	3.75
366.045	52.91
366.256	61.1
366.467	22.19
366.678	89.77
366.889	34.47
367.1	79.53
367.311	24.23
367.522	36.52
367.733	1.71
367.944	42.67
368.155	18.09
368.366	9.9
368.577	9.9
368.788	91.82
368.999	24.23
369.209	13.99
369.42	73.39
369.631	128.68
369.842	-31.06
370.053	26.28
370.264	9.9
370.474	-16.73
370.685	-2.39
370.896	40.62
371.107	11.95
371.317	63.15
371.528	50.86
371.739	65.19
371.95	52.91
372.16	-22.87
372.371	30.38
372.582	40.62
372.792	-33.11
373.003	-8.53
373.214	65.19
373.424	100.01
373.635	-18.77
373.846	59.05
374.056	36.52
374.267	50.86
374.477	-33.11
374.688	-2.39
374.898	20.14
375.109	7.85
375.319	30.38
375.53	65.19
375.74	54.95
375.951	-26.96
376.161	79.53
376.372	-6.49
376.582	-4.44
376.793	-10.58
377.003	24.23
377.214	-24.92
377.424	28.33
377.635	59.05
377.845	69.29
378.055	120.49
378.266	59.05
378.476	16.04
378.686	-2.39
378.897	30.38
379.107	44.71
379.317	3.75
379.528	32.43
379.738	-2.39
379.948	40.62
380.158	44.71
380.369	40.62
380.579	5.8
380.789	16.04
380.999	89.77
381.21	59.05
381.42	54.95
381.63	-18.77
381.84	20.14
382.05	13.99
382.261	85.67
382.471	28.33
382.681	36.52
382.891	59.05
383.101	1.71
383.311	91.82
383.521	30.38
383.731	22.19
383.941	38.57
384.151	9.9
384.361	-35.16
384.571	-10.58
384.781	40.62
384.991	16.04
385.201	38.57
385.411	11.95
385.621	89.77
385.831	3.75
386.041	36.52
386.251	36.52
386.461	81.58
386.671	38.57
386.881	46.76
387.091	24.23
387.301	16.04
387.511	22.19
387.72	48.81
387.93	50.86
388.14	26.28
388.35	46.76
388.56	26.28
388.769	67.24
388.979	-35.16
389.189	13.99
389.399	61.1
389.609	32.43
389.818	85.67
390.028	44.71
390.238	1.71
390.447	30.38
390.657	44.71
390.867	3.75
391.076	9.9
391.286	36.52
391.496	89.77
391.705	-16.73
391.915	122.54
392.125	73.39
392.334	65.19
392.544	11.95
392.753	71.34
392.963	50.86
393.172	44.71
393.382	69.29
393.591	3.75
393.801	-14.68
394.01	97.96
394.22	134.82
394.429	-8.53
394.639	26.28
394.848	81.58
395.058	13.99
395.267	128.68
395.477	24.23
395.686	16.04
395.895	83.63
396.105	69.29
396.314	95.91
396.524	69.29
396.733	-2.39
396.942	63.15
397.152	114.34
397.361	57
397.57	48.81
397.78	50.86
397.989	30.38
398.198	50.86
398.407	42.67
398.617	138.92
398.826	118.44
399.035	100.01
399.244	93.87
399.453	-14.68
399.663	102.06
399.872	93.87
400.081	54.95
400.29	59.05
400.499	40.62
400.708	138.92
400.917	87.72
401.127	91.82
401.336	85.67
401.545	136.87
401.754	83.63
401.963	177.83
402.172	79.53
402.381	71.34
402.59	22.19
402.799	145.06
403.008	147.11
403.217	91.82
403.426	73.39
403.635	67.24
403.844	24.23
404.053	136.87
404.262	59.05
404.471	153.26
404.68	93.87
404.888	114.34
405.097	140.97
405.306	106.15
405.515	128.68
405.724	110.25
405.933	130.73
406.142	147.11
406.35	97.96
406.559	145.06
406.768	147.11
406.977	212.65
407.185	134.82
407.394	188.07
407.603	134.82
407.812	132.78
408.02	235.18
408.229	200.36
408.438	138.92
408.646	153.26
408.855	167.59
409.064	229.03
409.272	251.56
409.481	278.18
409.69	294.57
409.898	323.24
410.107	224.94
410.315	265.89
410.524	214.7
410.733	226.98
410.941	282.28
411.15	356.01
411.358	313
411.567	329.38
411.775	380.58
411.984	353.96
412.192	331.43
412.401	370.34
412.609	372.39
412.818	421.54
413.026	407.2
413.234	448.16
413.443	394.92
413.651	468.64
413.86	489.12
414.068	456.36
414.276	552.61
414.485	525.99
414.693	536.23
414.901	544.42
415.11	581.28
415.318	683.68
415.526	646.82
415.734	597.67
415.943	605.86
416.151	673.44
416.359	614.05
416.567	738.98
416.776	732.83
416.984	786.08
417.192	796.32
417.4	757.41
417.608	796.32
417.817	847.52
418.025	964.25
418.233	913.05
418.441	851.61
418.649	990.88
418.857	1117.85
419.065	1080.99
419.273	1117.85
419.481	1113.75
419.689	1193.62
419.897	1265.3
420.105	1271.45
420.313	1255.06
420.521	1357.46
420.729	1318.55
420.937	1449.62
421.145	1457.81
421.353	1558.16
421.561	1590.93
421.769	1681.04
421.977	1750.67
422.185	1633.94
422.393	1859.21
422.601	1844.88
422.809	1910.41
423.017	2008.72
423.224	1998.48
423.432	2207.37
423.64	2184.84
423.848	2246.28
424.056	2264.71
424.263	2322.06
424.471	2461.32
424.679	2438.79
424.887	2557.57
425.094	2567.81
425.302	2686.59
425.51	2764.42
425.718	2860.67
425.925	2909.82
426.133	2948.73
426.341	3333.75
426.548	3112.57
426.756	3317.37
426.964	3362.42
427.171	3624.56
427.379	3733.11
427.586	3653.23
427.794	3864.18
428.001	3958.38
428.209	4167.28
428.417	4040.3
428.624	4462.18
428.832	4320.87
429.039	4300.39
429.247	4400.74
429.454	4720.23
429.662	5142.11
429.869	4728.42
430.076	5092.96
430.284	4900.45
430.491	5095
430.699	5451.35
430.906	5498.45
431.114	5549.65
431.321	5883.47
431.528	5858.9
431.736	6170.19
431.943	6469.19
432.15	6291.02
432.358	6377.03
432.565	6764.1
432.772	6633.03
432.979	7177.79
433.187	7079.49
433.394	7261.76
433.601	7671.35
433.808	7820.85
434.016	7761.46
434.223	8029.74
434.43	8633.89
434.637	8427.05
434.844	8932.9
435.052	9133.6
435.259	9010.72
435.466	9178.65
435.673	9000.48
435.88	9645.59
436.087	10010.13
436.294	10313.23
436.501	9911.83
436.708	10202.64
436.915	10370.57
437.122	10812.93
437.329	10851.85
437.537	11156.99
437.743	11539.96
437.95	11286.01
438.157	11800.05
438.364	12500.46
438.571	12178.93
438.778	12522.99
438.985	13542.88
439.192	13049.32
439.399	13317.6
439.606	13080.04
439.813	13872.6
440.02	14757.32
440.227	14327.25
440.433	14286.29
440.64	14974.41
440.847	14710.22
441.054	14886.34
441.261	15959.48
441.467	15881.66
441.674	16295.35
441.881	16690.6
442.088	16577.97
442.294	16563.63
442.501	17288.61
442.708	17092.01
442.914	17984.92
443.121	19127.69
443.328	18369.94
443.534	19715.45
443.741	19162.5
443.948	18771.34
444.154	20204.92
444.361	20223.35
444.568	20321.65
444.774	20131.19
444.981	20329.84
445.187	21024.11
445.394	21675.36
445.6	21679.46
445.807	23762.24
446.013	23037.26
446.22	23156.04
446.426	23776.58
446.633	24296.76
446.839	25226.54
447.046	23938.37
447.252	25294.12
447.459	25179.43
447.665	25257.26
447.871	26430.74
448.078	27534.6
448.284	26131.74
448.491	27041.04
448.697	28495.1
448.903	28376.31
449.11	28593.4
449.316	27847.94
449.522	28851.44
449.728	29412.59
449.935	29508.84
450.141	29433.07
450.347	30004.45
450.553	29455.59
450.76	29451.5
450.966	30567.64
451.172	30289.12
451.378	30719.19
451.584	30319.84
451.791	30989.52
451.997	30594.26
452.203	31292.62
452.409	31675.59
452.615	30913.75
452.821	30082.27
453.027	29709.54
453.233	31311.05
453.44	30004.45
453.646	30172.38
453.852	30440.67
454.058	30772.44
454.264	29971.68
454.47	30391.51
454.676	29922.53
454.882	30627.03
455.088	28024.06
455.294	28427.51
455.5	28710.13
455.705	28943.6
455.911	27794.69
456.117	27096.33
456.323	26621.2
456.529	25759.01
456.735	26508.57
456.941	25601.32
457.147	25627.94
457.352	24692.02
457.558	24425.78
457.764	24415.54
457.97	24063.29
458.176	23344.45
458.381	23242.06
458.587	22299.99
458.793	22072.67
458.999	21194.09
459.204	22502.74
459.41	21785.95
459.616	20401.52
459.821	20540.79
460.027	20323.7
460.233	19867
460.438	18914.7
460.644	19139.97
460.85	18296.21
461.055	17835.42
461.261	17747.36
461.466	16262.58
461.672	15971.77
461.878	17288.61
462.083	15959.48
462.289	15820.22
462.494	15506.88
462.7	14937.54
462.905	14523.85
463.111	14923.21
463.316	15144.39
463.522	14824.9
463.727	14763.47
463.932	14742.99
464.138	14710.22
464.343	14691.79
464.549	14380.5
464.754	14679.5
464.959	14706.12
465.165	14347.73
465.37	13852.12
465.575	13405.66
465.781	13938.13
465.986	14239.19
466.191	13436.38
466.397	13444.57
466.602	12672.49
466.807	13075.94
467.012	12959.2
467.218	13168.1
467.423	12924.39
467.628	12996.07
467.833	13481.44
468.038	13141.47
468.244	12590.57
