Data from USB4F104151__42__12-00-54-570.txt Node

Date: Fri Mar 14 12:00:54 EDT 2025
User: louis
Spectrometer: USB4F10415
Trigger mode: 4
Integration Time (sec): 2.000000E-2
Scans to average: 1
Electric dark correction enabled: true
Nonlinearity correction enabled: false
Boxcar width: 0
XAxis mode: Wavelengths
Number of Pixels in Spectrum: 3648
>>>>>Begin Spectral Data<<<<<
178.204	-80.72
178.424	-80.72
178.644	-80.72
178.864	-25.43
179.084	-25.43
179.304	42.15
179.524	-0.85
179.744	-4.95
179.964	31.91
180.184	-25.43
180.404	44.2
180.624	-47.96
180.844	29.87
181.064	-54.1
181.283	29.87
181.503	-43.86
181.723	-0.85
181.943	-35.67
182.163	15.53
182.383	66.73
182.602	31.91
182.822	91.31
183.042	50.35
183.262	-4.95
183.482	-0.85
183.701	62.63
183.921	-25.43
184.141	7.34
184.361	-13.14
184.58	11.43
184.8	15.53
185.02	11.43
185.239	91.31
185.459	70.83
185.679	52.39
185.898	23.72
186.118	-31.57
186.338	79.02
186.557	58.54
186.777	25.77
186.997	-11.09
187.216	-15.19
187.436	60.59
187.655	11.43
187.875	54.44
188.095	33.96
188.314	48.3
188.534	-25.43
188.753	-0.85
188.973	44.2
189.192	25.77
189.412	-35.67
189.631	15.53
189.851	64.68
190.07	38.06
190.29	-15.19
190.509	19.63
190.729	50.35
190.948	60.59
191.168	117.93
191.387	79.02
191.607	9.39
191.826	1.19
192.045	52.39
192.265	5.29
192.484	-0.85
192.704	5.29
192.923	33.96
193.142	122.02
193.362	-31.57
193.581	79.02
193.8	-11.09
194.02	44.2
194.239	27.82
194.458	11.43
194.678	46.25
194.897	76.97
195.116	19.63
195.335	5.29
195.555	11.43
195.774	27.82
195.993	19.63
196.212	-43.86
196.432	5.29
196.651	-52.05
196.87	83.11
197.089	68.78
197.308	5.29
197.528	68.78
197.747	-19.29
197.966	46.25
198.185	58.54
198.404	15.53
198.623	58.54
198.842	9.39
199.062	52.39
199.281	66.73
199.5	38.06
199.719	-9.05
199.938	13.48
200.157	50.35
200.376	-17.24
200.595	64.68
200.814	38.06
201.033	70.83
201.252	33.96
201.471	48.3
201.69	17.58
201.909	7.34
202.128	-19.29
202.347	44.2
202.566	-64.34
202.785	5.29
203.004	31.91
203.223	42.15
203.442	-50
203.661	74.92
203.879	76.97
204.098	1.19
204.317	-15.19
204.536	1.19
204.755	36.01
204.974	46.25
205.193	72.87
205.411	103.59
205.63	21.67
205.849	72.87
206.068	40.11
206.287	3.24
206.505	54.44
206.724	46.25
206.943	-29.52
207.162	54.44
207.381	81.07
207.599	15.53
207.818	68.78
208.037	54.44
208.255	23.72
208.474	21.67
208.693	9.39
208.911	15.53
209.13	74.92
209.349	-2.9
209.567	9.39
209.786	15.53
210.005	27.82
210.223	9.39
210.442	-25.43
210.661	105.64
210.879	70.83
211.098	68.78
211.316	1.19
211.535	93.35
211.753	-0.85
211.972	40.11
212.191	56.49
212.409	64.68
212.628	3.24
212.846	52.39
213.065	46.25
213.283	50.35
213.502	-23.38
213.72	48.3
213.938	15.53
214.157	1.19
214.375	50.35
214.594	-60.24
214.812	48.3
215.031	-41.81
215.249	42.15
215.467	3.24
215.686	-64.34
215.904	74.92
216.122	-27.48
216.341	54.44
216.559	-0.85
216.778	89.26
216.996	25.77
217.214	15.53
217.432	19.63
217.651	-9.05
217.869	3.24
218.087	68.78
218.306	9.39
218.524	66.73
218.742	17.58
218.96	54.44
219.179	68.78
219.397	27.82
219.615	97.45
219.833	91.31
220.051	-31.57
220.27	33.96
220.488	-31.57
220.706	66.73
220.924	-0.85
221.142	-13.14
221.36	-9.05
221.578	-21.33
221.796	89.26
222.015	9.39
222.233	-35.67
222.451	99.5
222.669	40.11
222.887	-0.85
223.105	31.91
223.323	33.96
223.541	46.25
223.759	81.07
223.977	-58.2
224.195	54.44
224.413	21.67
224.631	9.39
224.849	23.72
225.067	150.7
225.285	19.63
225.503	-23.38
225.721	42.15
225.939	42.15
226.157	74.92
226.375	70.83
226.592	46.25
226.81	52.39
227.028	44.2
227.246	130.22
227.464	36.01
227.682	33.96
227.9	60.59
228.117	44.2
228.335	44.2
228.553	-0.85
228.771	29.87
228.989	66.73
229.206	42.15
229.424	-15.19
229.642	-29.52
229.86	-4.95
230.077	38.06
230.295	33.96
230.513	79.02
230.731	68.78
230.948	44.2
231.166	15.53
231.384	-39.76
231.601	29.87
231.819	-2.9
232.037	9.39
232.254	-41.81
232.472	64.68
232.689	56.49
232.907	44.2
233.125	54.44
233.342	-19.29
233.56	62.63
233.777	38.06
233.995	83.11
234.213	11.43
234.43	5.29
234.648	70.83
234.865	44.2
235.083	38.06
235.3	81.07
235.518	105.64
235.735	23.72
235.953	64.68
236.17	101.55
236.388	13.48
236.605	-37.72
236.822	83.11
237.04	25.77
237.257	42.15
237.475	31.91
237.692	68.78
237.909	58.54
238.127	-29.52
238.344	3.24
238.562	-62.29
238.779	48.3
238.996	44.2
239.214	19.63
239.431	15.53
239.648	70.83
239.865	-11.09
240.083	17.58
240.3	25.77
240.517	-15.19
240.735	15.53
240.952	74.92
241.169	48.3
241.386	-9.05
241.603	23.72
241.821	-29.52
242.038	79.02
242.255	66.73
242.472	21.67
242.689	-13.14
242.907	15.53
243.124	-13.14
243.341	-43.86
243.558	25.77
243.775	-27.48
243.992	-17.24
244.209	89.26
244.426	64.68
244.643	58.54
244.86	44.2
245.078	44.2
245.295	42.15
245.512	21.67
245.729	76.97
245.946	52.39
246.163	23.72
246.38	21.67
246.597	3.24
246.814	64.68
247.031	38.06
247.248	-4.95
247.464	-19.29
247.681	72.87
247.898	25.77
248.115	52.39
248.332	5.29
248.549	62.63
248.766	42.15
248.983	15.53
249.2	52.39
249.417	64.68
249.633	70.83
249.85	36.01
250.067	58.54
250.284	-0.85
250.501	81.07
250.717	109.74
250.934	44.2
251.151	-37.72
251.368	33.96
251.585	29.87
251.801	38.06
252.018	-4.95
252.235	27.82
252.451	-2.9
252.668	38.06
252.885	3.24
253.102	-11.09
253.318	56.49
253.535	-4.95
253.752	54.44
253.968	48.3
254.185	-2.9
254.401	38.06
254.618	-4.95
254.835	5.29
255.051	89.26
255.268	-25.43
255.484	-23.38
255.701	-35.67
255.917	89.26
256.134	7.34
256.351	66.73
256.567	-23.38
256.784	50.35
257	-47.96
257.217	38.06
257.433	95.4
257.65	105.64
257.866	52.39
258.082	122.02
258.299	44.2
258.515	56.49
258.732	-7
258.948	-2.9
259.165	56.49
259.381	46.25
259.597	36.01
259.814	64.68
260.03	17.58
260.246	31.91
260.463	-0.85
260.679	15.53
260.895	81.07
261.112	48.3
261.328	25.77
261.544	17.58
261.761	97.45
261.977	-2.9
262.193	11.43
262.409	105.64
262.626	1.19
262.842	13.48
263.058	-9.05
263.274	74.92
263.49	93.35
263.707	31.91
263.923	-37.72
264.139	33.96
264.355	-21.33
264.571	95.4
264.787	115.88
265.004	70.83
265.22	23.72
265.436	85.16
265.652	64.68
265.868	79.02
266.084	56.49
266.3	103.59
266.516	11.43
266.732	89.26
266.948	11.43
267.164	27.82
267.38	66.73
267.596	58.54
267.812	50.35
268.028	7.34
268.244	11.43
268.46	64.68
268.676	9.39
268.892	17.58
269.108	-33.62
269.324	42.15
269.54	7.34
269.756	72.87
269.972	27.82
270.188	38.06
270.403	64.68
270.619	-29.52
270.835	36.01
271.051	5.29
271.267	101.55
271.483	19.63
271.698	52.39
271.914	27.82
272.13	-4.95
272.346	-58.2
272.562	46.25
272.777	27.82
272.993	103.59
273.209	29.87
273.425	44.2
273.64	33.96
273.856	44.2
274.072	128.17
274.287	-9.05
274.503	54.44
274.719	-56.15
274.934	111.78
275.15	-23.38
275.366	66.73
275.581	81.07
275.797	74.92
276.012	50.35
276.228	70.83
276.444	23.72
276.659	150.7
276.875	-7
277.09	38.06
277.306	-21.33
277.521	-23.38
277.737	99.5
277.952	33.96
278.168	70.83
278.383	56.49
278.599	76.97
278.814	23.72
279.03	-2.9
279.245	70.83
279.461	-19.29
279.676	101.55
279.892	-82.77
280.107	3.24
280.322	64.68
280.538	68.78
280.753	-37.72
280.969	-7
281.184	-4.95
281.399	103.59
281.615	66.73
281.83	-4.95
282.045	-33.62
282.26	5.29
282.476	17.58
282.691	93.35
282.906	-17.24
283.122	72.87
283.337	33.96
283.552	50.35
283.767	-39.76
283.983	7.34
284.198	36.01
284.413	44.2
284.628	13.48
284.843	79.02
285.058	36.01
285.274	54.44
285.489	62.63
285.704	7.34
285.919	-7
286.134	68.78
286.349	29.87
286.564	31.91
286.779	-7
286.995	66.73
287.21	17.58
287.425	56.49
287.64	89.26
287.855	83.11
288.07	68.78
288.285	29.87
288.5	3.24
288.715	66.73
288.93	-39.76
289.145	95.4
289.36	66.73
289.575	19.63
289.79	-17.24
290.004	68.78
290.219	113.83
290.434	-7
290.649	5.29
290.864	52.39
291.079	40.11
291.294	54.44
291.509	46.25
291.724	40.11
291.938	54.44
292.153	58.54
292.368	3.24
292.583	33.96
292.798	70.83
293.012	42.15
293.227	50.35
293.442	-9.05
293.657	25.77
293.871	60.59
294.086	52.39
294.301	56.49
294.516	52.39
294.73	64.68
294.945	17.58
295.16	21.67
295.374	21.67
295.589	81.07
295.804	29.87
296.018	50.35
296.233	107.69
296.447	46.25
296.662	27.82
296.877	68.78
297.091	113.83
297.306	72.87
297.52	31.91
297.735	64.68
297.949	54.44
298.164	74.92
298.378	31.91
298.593	42.15
298.807	36.01
299.022	17.58
299.236	68.78
299.451	42.15
299.665	33.96
299.88	72.87
300.094	-11.09
300.309	-7
300.523	9.39
300.737	52.39
300.952	19.63
301.166	44.2
301.381	9.39
301.595	11.43
301.809	64.68
302.024	58.54
302.238	23.72
302.452	42.15
302.667	9.39
302.881	89.26
303.095	23.72
303.309	76.97
303.524	19.63
303.738	40.11
303.952	54.44
304.166	72.87
304.381	83.11
304.595	62.63
304.809	40.11
305.023	42.15
305.237	9.39
305.452	27.82
305.666	44.2
305.88	93.35
306.094	81.07
306.308	81.07
306.522	46.25
306.736	115.88
306.95	-23.38
307.164	-11.09
307.379	-33.62
307.593	33.96
307.807	62.63
308.021	9.39
308.235	17.58
308.449	-4.95
308.663	33.96
308.877	91.31
309.091	72.87
309.305	48.3
309.519	-2.9
309.733	31.91
309.947	-39.76
310.161	107.69
310.374	48.3
310.588	62.63
310.802	-0.85
311.016	70.83
311.23	21.67
311.444	17.58
311.658	44.2
311.872	42.15
312.085	27.82
312.299	56.49
312.513	58.54
312.727	56.49
312.941	50.35
313.154	19.63
313.368	44.2
313.582	25.77
313.796	-2.9
314.009	-19.29
314.223	74.92
314.437	54.44
314.651	29.87
314.864	21.67
315.078	31.91
315.292	-4.95
315.505	46.25
315.719	66.73
315.933	119.98
316.146	13.48
316.36	54.44
316.573	79.02
316.787	42.15
317.001	36.01
317.214	9.39
317.428	64.68
317.641	-13.14
317.855	36.01
318.068	122.02
318.282	89.26
318.495	79.02
318.709	56.49
318.922	76.97
319.136	9.39
319.349	109.74
319.563	117.93
319.776	-13.14
319.99	9.39
320.203	103.59
320.417	72.87
320.63	46.25
320.843	113.83
321.057	60.59
321.27	3.24
321.483	42.15
321.697	29.87
321.91	38.06
322.124	-23.38
322.337	13.48
322.55	111.78
322.763	107.69
322.977	117.93
323.19	81.07
323.403	15.53
323.617	36.01
323.83	68.78
324.043	-2.9
324.256	-21.33
324.469	-29.52
324.683	21.67
324.896	62.63
325.109	103.59
325.322	60.59
325.535	52.39
325.748	117.93
325.962	60.59
326.175	-2.9
326.388	29.87
326.601	36.01
326.814	93.35
327.027	113.83
327.24	64.68
327.453	70.83
327.666	19.63
327.879	-31.57
328.092	62.63
328.305	50.35
328.518	91.31
328.731	-4.95
328.944	87.21
329.157	89.26
329.37	21.67
329.583	-7
329.796	74.92
330.009	-0.85
330.222	7.34
330.435	33.96
330.648	91.31
330.861	122.02
331.073	62.63
331.286	27.82
331.499	-11.09
331.712	46.25
331.925	-4.95
332.138	31.91
332.35	-37.72
332.563	25.77
332.776	105.64
332.989	56.49
333.202	66.73
333.414	93.35
333.627	-39.76
333.84	27.82
334.053	119.98
334.265	33.96
334.478	93.35
334.691	62.63
334.903	56.49
335.116	29.87
335.329	48.3
335.541	122.02
335.754	64.68
335.966	103.59
336.179	38.06
336.392	23.72
336.604	7.34
336.817	33.96
337.029	9.39
337.242	81.07
337.454	-19.29
337.667	97.45
337.88	76.97
338.092	74.92
338.305	89.26
338.517	103.59
338.729	72.87
338.942	54.44
339.154	40.11
339.367	-29.52
339.579	81.07
339.792	54.44
340.004	95.4
340.217	56.49
340.429	81.07
340.641	64.68
340.854	7.34
341.066	52.39
341.278	44.2
341.491	40.11
341.703	19.63
341.915	-25.43
342.128	46.25
342.34	130.22
342.552	44.2
342.764	19.63
342.977	21.67
343.189	91.31
343.401	74.92
343.613	11.43
343.826	46.25
344.038	36.01
344.25	42.15
344.462	15.53
344.674	95.4
344.886	38.06
345.099	111.78
345.311	7.34
345.523	117.93
345.735	48.3
345.947	19.63
346.159	103.59
346.371	3.24
346.583	109.74
346.795	105.64
347.007	31.91
347.219	113.83
347.431	64.68
347.643	42.15
347.855	52.39
348.067	95.4
348.279	-2.9
348.491	76.97
348.703	124.07
348.915	58.54
349.127	66.73
349.339	56.49
349.551	29.87
349.763	48.3
349.975	56.49
350.187	76.97
350.399	25.77
350.61	109.74
350.822	85.16
351.034	70.83
351.246	81.07
351.458	25.77
351.669	89.26
351.881	68.78
352.093	36.01
352.305	48.3
352.517	21.67
352.728	74.92
352.94	60.59
353.152	33.96
353.363	46.25
353.575	105.64
353.787	107.69
353.999	29.87
354.21	95.4
354.422	21.67
354.633	33.96
354.845	36.01
355.057	5.29
355.268	33.96
355.48	79.02
355.692	54.44
355.903	5.29
356.115	44.2
356.326	46.25
356.538	9.39
356.749	76.97
356.961	40.11
357.172	46.25
357.384	89.26
357.595	142.5
357.807	-11.09
358.018	72.87
358.23	42.15
358.441	52.39
358.653	42.15
358.864	66.73
359.075	9.39
359.287	44.2
359.498	33.96
359.709	91.31
359.921	27.82
360.132	83.11
360.344	48.3
360.555	91.31
360.766	79.02
360.977	23.72
361.189	146.6
361.4	-9.05
361.611	52.39
361.823	27.82
362.034	29.87
362.245	54.44
362.456	19.63
362.667	58.54
362.879	79.02
363.09	19.63
363.301	29.87
363.512	46.25
363.723	11.43
363.935	42.15
364.146	93.35
364.357	46.25
364.568	60.59
364.779	1.19
364.99	89.26
365.201	23.72
365.412	89.26
365.623	-19.29
365.834	91.31
366.045	60.59
366.256	25.77
366.467	103.59
366.678	113.83
366.889	83.11
367.1	122.02
367.311	85.16
367.522	46.25
367.733	87.21
367.944	25.77
368.155	74.92
368.366	11.43
368.577	79.02
368.788	31.91
368.999	44.2
369.209	62.63
369.42	44.2
369.631	15.53
369.842	42.15
370.053	13.48
370.264	21.67
370.474	44.2
370.685	38.06
370.896	-25.43
371.107	19.63
371.317	17.58
371.528	56.49
371.739	44.2
371.95	83.11
372.16	62.63
372.371	27.82
372.582	31.91
372.792	111.78
373.003	-0.85
373.214	85.16
373.424	25.77
373.635	25.77
373.846	52.39
374.056	56.49
374.267	42.15
374.477	99.5
374.688	27.82
374.898	19.63
375.109	31.91
375.319	60.59
375.53	113.83
375.74	101.55
375.951	-19.29
376.161	19.63
376.372	91.31
376.582	64.68
376.793	70.83
377.003	27.82
377.214	89.26
377.424	97.45
377.635	126.12
377.845	40.11
378.055	83.11
378.266	-0.85
378.476	89.26
378.686	38.06
378.897	7.34
379.107	60.59
379.317	117.93
379.528	9.39
379.738	-29.52
379.948	58.54
380.158	31.91
380.369	33.96
380.579	85.16
380.789	52.39
380.999	68.78
381.21	42.15
381.42	83.11
381.63	109.74
381.84	3.24
382.05	130.22
382.261	146.6
382.471	115.88
382.681	9.39
382.891	70.83
383.101	101.55
383.311	9.39
383.521	44.2
383.731	54.44
383.941	40.11
384.151	40.11
384.361	-23.38
384.571	58.54
384.781	85.16
384.991	87.21
385.201	62.63
385.411	76.97
385.621	50.35
385.831	21.67
386.041	48.3
386.251	52.39
386.461	76.97
386.671	13.48
386.881	76.97
387.091	27.82
387.301	154.79
387.511	48.3
387.72	72.87
387.93	58.54
388.14	52.39
388.35	5.29
388.56	95.4
388.769	128.17
388.979	89.26
389.189	29.87
389.399	68.78
389.609	95.4
389.818	115.88
390.028	-0.85
390.238	-15.19
390.447	62.63
390.657	113.83
390.867	23.72
391.076	11.43
391.286	115.88
391.496	115.88
391.705	54.44
391.915	105.64
392.125	60.59
392.334	42.15
392.544	144.55
392.753	79.02
392.963	111.78
393.172	83.11
393.382	33.96
393.591	79.02
393.801	113.83
394.01	89.26
394.22	46.25
394.429	158.89
394.639	113.83
394.848	117.93
395.058	83.11
395.267	25.77
395.477	91.31
395.686	62.63
395.895	44.2
396.105	119.98
396.314	87.21
396.524	93.35
396.733	89.26
396.942	158.89
397.152	74.92
397.361	158.89
397.57	101.55
397.78	85.16
397.989	107.69
398.198	119.98
398.407	60.59
398.617	81.07
398.826	152.74
399.035	138.41
399.244	126.12
399.453	103.59
399.663	152.74
399.872	140.46
400.081	126.12
400.29	62.63
400.499	79.02
400.708	195.75
400.917	38.06
401.127	89.26
401.336	15.53
401.545	179.37
401.754	199.85
401.963	162.98
402.172	124.07
402.381	74.92
402.59	148.65
402.799	152.74
403.008	119.98
403.217	152.74
403.426	177.32
403.635	111.78
403.844	93.35
404.053	136.36
404.262	95.4
404.471	154.79
404.68	107.69
404.888	175.27
405.097	76.97
405.306	152.74
405.515	205.99
405.724	212.14
405.933	68.78
406.142	234.66
406.35	150.7
406.559	210.09
406.768	251.05
406.977	150.7
407.185	187.56
407.394	187.56
407.603	165.03
407.812	251.05
408.02	261.29
408.229	236.71
408.438	232.62
408.646	255.14
408.855	187.56
409.064	253.09
409.272	226.47
409.481	310.44
409.69	234.66
409.898	214.18
410.107	283.81
410.315	296.1
410.524	312.49
410.733	378.02
410.941	298.15
411.15	392.36
411.358	361.64
411.567	375.97
411.775	378.02
411.984	361.64
412.192	402.6
412.401	412.84
412.609	484.52
412.818	513.19
413.026	453.8
413.234	484.52
413.443	494.76
413.651	476.32
413.86	545.95
414.068	572.58
414.276	642.21
414.485	599.2
414.693	650.4
414.901	695.46
415.11	644.26
415.318	615.59
415.526	752.8
415.734	810.14
415.943	754.85
416.151	822.43
416.359	758.94
416.567	873.63
416.776	892.06
416.984	922.78
417.192	900.25
417.4	980.12
417.608	879.77
417.817	990.36
418.025	1092.76
418.233	1090.71
418.441	1025.18
418.649	1148.06
418.857	1264.79
419.065	1260.7
419.273	1193.11
419.481	1365.14
419.689	1359
419.897	1342.61
420.105	1397.91
420.313	1420.44
420.521	1602.71
420.729	1539.22
420.937	1598.61
421.145	1729.68
421.353	1809.55
421.561	1893.52
421.769	1922.19
421.977	1889.42
422.185	1821.84
422.393	2049.16
422.601	2251.91
422.809	2184.33
423.017	2141.32
423.224	2315.4
423.432	2284.68
423.64	2342.02
423.848	2608.26
424.056	2520.2
424.263	2671.75
424.471	2718.85
424.679	2724.99
424.887	2946.17
425.094	2976.89
425.302	3028.09
425.51	3155.07
425.718	3232.89
425.925	3300.47
426.133	3343.48
426.341	3605.62
426.548	3738.74
426.756	3763.31
426.964	3632.24
427.171	4009.07
427.379	4156.52
427.586	4025.45
427.794	4230.25
428.001	4523.11
428.209	4433
428.417	4525.16
428.624	4959.33
428.832	4768.87
429.039	4846.69
429.247	4852.83
429.454	5330.01
429.662	5661.78
429.869	5323.87
430.076	5733.46
430.284	5631.06
430.491	5762.13
430.699	6214.73
430.906	6069.33
431.114	6343.75
431.321	6407.24
431.528	6669.38
431.736	6874.18
431.943	7369.79
432.15	7144.51
432.358	7216.19
432.565	7564.34
432.772	7713.84
432.979	7838.77
433.187	8068.14
433.394	8182.83
433.601	8803.36
433.808	8764.45
434.016	8639.53
434.223	8993.83
434.43	9679.89
434.637	9464.86
434.844	10034.19
435.052	10101.78
435.259	10118.16
435.466	10372.11
435.673	9946.13
435.88	10851.33
436.087	11344.89
436.294	11510.78
436.501	10945.54
436.708	10937.35
436.915	11613.18
437.122	12372.97
437.329	12286.96
437.537	12594.15
437.743	12801
437.95	12669.93
438.157	13159.39
438.364	13802.46
438.571	13865.94
438.778	13945.81
438.985	15195.07
439.192	14453.71
439.399	14894.02
439.606	14871.5
439.813	15588.28
440.02	16378.8
440.227	16200.63
440.433	16094.13
440.64	16481.2
440.847	16505.77
441.054	16845.74
441.261	18033.56
441.467	17843.1
441.674	18113.43
441.881	18801.55
442.088	18504.59
442.294	18383.76
442.501	19118.98
442.708	19626.88
442.914	20007.8
443.121	21199.72
443.328	20577.14
443.534	22184.79
443.741	21322.6
443.948	20861.8
444.154	22610.77
444.361	22403.92
444.568	22487.89
444.774	22506.32
444.981	22852.43
445.187	23323.46
445.394	24539.96
445.6	24308.54
445.807	26495.77
446.013	25305.9
446.22	25776.93
446.426	26723.09
446.633	27044.62
446.839	28160.76
447.046	27149.07
447.252	28232.44
447.459	28521.21
447.665	28596.98
447.871	29123.31
448.078	30923.47
448.284	29149.93
448.491	30292.7
448.697	30991.06
448.903	31771.33
449.11	31851.2
449.316	31374.03
449.522	31957.7
449.728	32699.06
449.935	32938.68
450.141	32869.05
450.347	33503.92
450.553	32914.1
450.76	32770.74
450.966	34157.22
451.172	33843.88
451.378	34863.77
451.584	33583.79
451.791	34937.49
451.997	34495.13
452.203	35263.12
452.409	35019.41
452.615	34859.67
452.821	33821.35
453.027	33286.83
453.233	34501.28
453.44	33778.34
453.646	33890.98
453.852	34228.9
454.058	34773.66
454.264	33530.54
454.47	34108.07
454.676	33276.59
454.882	34087.59
455.088	31482.57
455.294	31990.47
455.5	32133.82
455.705	32567.99
455.911	31423.18
456.117	30683.86
456.323	30063.33
456.529	28695.28
456.735	30190.3
456.941	29094.64
457.147	28670.71
457.352	27984.64
457.558	27587.33
457.764	27874.05
457.97	27003.66
458.176	26307.35
458.381	26307.35
458.587	25090.86
458.793	25164.59
458.999	23685.95
459.204	25342.76
459.41	24869.68
459.616	23298.89
459.821	22985.55
460.027	23126.86
460.233	22578
460.438	21492.58
460.644	21728.1
460.85	20427.63
461.055	20562.8
461.261	20181.88
461.466	18490.26
461.672	18267.03
461.878	19518.34
462.083	18269.08
462.289	18025.37
462.494	17587.1
462.7	16958.38
462.905	16642.99
463.111	17138.6
463.316	16913.32
463.522	16618.41
463.727	16753.58
463.932	16636.84
464.138	16264.11
464.343	16649.13
464.549	16120.76
464.754	16737.2
464.959	16645.04
465.165	16395.18
465.37	15530.94
465.575	15508.41
465.781	15770.55
465.986	15852.47
466.191	15565.76
466.397	15068.1
466.602	14478.29
466.807	14885.83
467.012	15084.48
467.218	14891.98
467.423	14482.38
467.628	14541.77
467.833	15180.74
468.038	14599.12
