Data from USB4F104151__92__12-02-35-764.txt Node

Date: Fri Mar 14 12:02:35 EDT 2025
User: louis
Spectrometer: USB4F10415
Trigger mode: 4
Integration Time (sec): 2.000000E-2
Scans to average: 1
Electric dark correction enabled: true
Nonlinearity correction enabled: false
Boxcar width: 0
XAxis mode: Wavelengths
Number of Pixels in Spectrum: 3648
>>>>>Begin Spectral Data<<<<<
178.204	-133.46
178.424	-133.46
178.644	-133.46
178.864	-96.6
179.084	-84.31
179.304	38.57
179.524	46.76
179.744	3.75
179.964	9.9
180.184	-74.07
180.404	22.19
180.624	-63.83
180.844	-31.06
181.064	-20.82
181.283	9.9
181.503	-0.34
181.723	59.05
181.943	-2.39
182.163	65.19
182.383	-8.53
182.602	1.71
182.822	61.1
183.042	11.95
183.262	7.85
183.482	48.81
183.701	-12.63
183.921	59.05
184.141	-4.44
184.361	91.82
184.58	77.48
184.8	40.62
185.02	-6.49
185.239	48.81
185.459	-65.88
185.679	36.52
185.898	-43.35
186.118	63.15
186.338	-16.73
186.557	-31.06
186.777	9.9
186.997	52.91
187.216	77.48
187.436	32.43
187.655	81.58
187.875	32.43
188.095	16.04
188.314	24.23
188.534	65.19
188.753	5.8
188.973	7.85
189.192	-6.49
189.412	9.9
189.631	7.85
189.851	50.86
190.07	71.34
190.29	24.23
190.509	46.76
190.729	40.62
190.948	13.99
191.168	65.19
191.387	108.2
191.607	-84.31
191.826	-12.63
192.045	48.81
192.265	-8.53
192.484	16.04
192.704	50.86
192.923	-24.92
193.142	145.06
193.362	38.57
193.581	-8.53
193.8	-12.63
194.02	79.53
194.239	24.23
194.458	-74.07
194.678	24.23
194.897	-8.53
195.116	71.34
195.335	34.47
195.555	61.1
195.774	-16.73
195.993	36.52
196.212	-8.53
196.432	-29.01
196.651	57
196.87	34.47
197.089	97.96
197.308	81.58
197.528	-0.34
197.747	-33.11
197.966	77.48
198.185	9.9
198.404	71.34
198.623	42.67
198.842	-2.39
199.062	-24.92
199.281	54.95
199.5	79.53
199.719	-4.44
199.938	38.57
200.157	91.82
200.376	16.04
200.595	87.72
200.814	22.19
201.033	36.52
201.252	44.71
201.471	57
201.69	38.57
201.909	57
202.128	20.14
202.347	97.96
202.566	40.62
202.785	30.38
203.004	38.57
203.223	65.19
203.442	30.38
203.661	59.05
203.879	63.15
204.098	91.82
204.317	30.38
204.536	-10.58
204.755	73.39
204.974	44.71
205.193	97.96
205.411	81.58
205.63	36.52
205.849	48.81
206.068	34.47
206.287	38.57
206.505	18.09
206.724	38.57
206.943	-16.73
207.162	40.62
207.381	-0.34
207.599	42.67
207.818	36.52
208.037	-12.63
208.255	46.76
208.474	18.09
208.693	44.71
208.911	-45.4
209.13	26.28
209.349	-37.2
209.567	42.67
209.786	40.62
210.005	89.77
210.223	-16.73
210.442	42.67
210.661	28.33
210.879	-31.06
211.098	42.67
211.316	36.52
211.535	71.34
211.753	-8.53
211.972	30.38
212.191	-10.58
212.409	65.19
212.628	36.52
212.846	-12.63
213.065	-22.87
213.283	30.38
213.502	40.62
213.72	-12.63
213.938	-26.96
214.157	54.95
214.375	36.52
214.594	-4.44
214.812	-4.44
215.031	5.8
215.249	32.43
215.467	13.99
215.686	30.38
215.904	102.06
216.122	71.34
216.341	34.47
216.559	-20.82
216.778	48.81
216.996	-31.06
217.214	57
217.432	-12.63
217.651	46.76
217.869	13.99
218.087	73.39
218.306	-10.58
218.524	57
218.742	26.28
218.96	-2.39
219.179	-16.73
219.397	7.85
219.615	83.63
219.833	7.85
220.051	-20.82
220.27	42.67
220.488	28.33
220.706	-12.63
220.924	20.14
221.142	9.9
221.36	44.71
221.578	65.19
221.796	71.34
222.015	36.52
222.233	54.95
222.451	38.57
222.669	40.62
222.887	87.72
223.105	-24.92
223.323	79.53
223.541	-10.58
223.759	7.85
223.977	52.91
224.195	52.91
224.413	36.52
224.631	48.81
224.849	-2.39
225.067	79.53
225.285	44.71
225.503	151.21
225.721	-10.58
225.939	83.63
226.157	11.95
226.375	54.95
226.592	-10.58
226.81	24.23
227.028	128.68
227.246	44.71
227.464	48.81
227.682	81.58
227.9	102.06
228.117	50.86
228.335	3.75
228.553	-2.39
228.771	-14.68
228.989	48.81
229.206	48.81
229.424	-12.63
229.642	85.67
229.86	46.76
230.077	52.91
230.295	59.05
230.513	75.43
230.731	36.52
230.948	16.04
231.166	38.57
231.384	63.15
231.601	-10.58
231.819	-8.53
232.037	118.44
232.254	9.9
232.472	24.23
232.689	11.95
232.907	30.38
233.125	40.62
233.342	-37.2
233.56	-20.82
233.777	34.47
233.995	26.28
234.213	83.63
234.43	81.58
234.648	7.85
234.865	-0.34
235.083	26.28
235.3	73.39
235.518	36.52
235.735	44.71
235.953	93.87
236.17	59.05
236.388	32.43
236.605	140.97
236.822	13.99
237.04	63.15
237.257	50.86
237.475	18.09
237.692	34.47
237.909	28.33
238.127	7.85
238.344	24.23
238.562	18.09
238.779	36.52
238.996	71.34
239.214	-22.87
239.431	34.47
239.648	61.1
239.865	28.33
240.083	69.29
240.3	-10.58
240.517	20.14
240.735	30.38
240.952	77.48
241.169	116.39
241.386	71.34
241.603	30.38
241.821	16.04
242.038	95.91
242.255	22.19
242.472	26.28
242.689	34.47
242.907	38.57
243.124	59.05
243.341	-4.44
243.558	93.87
243.775	7.85
243.992	48.81
244.209	22.19
244.426	97.96
244.643	63.15
244.86	11.95
245.078	24.23
245.295	93.87
245.512	73.39
245.729	-20.82
245.946	36.52
246.163	97.96
246.38	106.15
246.597	87.72
246.814	24.23
247.031	26.28
247.248	-2.39
247.464	11.95
247.681	61.1
247.898	22.19
248.115	24.23
248.332	18.09
248.549	36.52
248.766	128.68
248.983	87.72
249.2	73.39
249.417	63.15
249.633	42.67
249.85	38.57
250.067	81.58
250.284	63.15
250.501	11.95
250.717	48.81
250.934	65.19
251.151	-76.12
251.368	81.58
251.585	9.9
251.801	75.43
252.018	112.3
252.235	83.63
252.451	79.53
252.668	3.75
252.885	97.96
253.102	32.43
253.318	7.85
253.535	73.39
253.752	38.57
253.968	24.23
254.185	7.85
254.401	63.15
254.618	69.29
254.835	20.14
255.051	44.71
255.268	52.91
255.484	63.15
255.701	1.71
255.917	79.53
256.134	32.43
256.351	46.76
256.567	54.95
256.784	134.82
257	-10.58
257.217	1.71
257.433	-10.58
257.65	57
257.866	34.47
258.082	24.23
258.299	1.71
258.515	16.04
258.732	44.71
258.948	-20.82
259.165	77.48
259.381	38.57
259.597	30.38
259.814	-37.2
260.03	52.91
260.246	38.57
260.463	-33.11
260.679	71.34
260.895	57
261.112	5.8
261.328	3.75
261.544	38.57
261.761	50.86
261.977	65.19
262.193	7.85
262.409	124.58
262.626	-26.96
262.842	61.1
263.058	67.24
263.274	36.52
263.49	54.95
263.707	83.63
263.923	3.75
264.139	42.67
264.355	44.71
264.571	75.43
264.787	1.71
265.004	-16.73
265.22	22.19
265.436	9.9
265.652	-61.78
265.868	16.04
266.084	59.05
266.3	26.28
266.516	11.95
266.732	26.28
266.948	85.67
267.164	44.71
267.38	22.19
267.596	40.62
267.812	126.63
268.028	61.1
268.244	24.23
268.46	40.62
268.676	40.62
268.892	5.8
269.108	-16.73
269.324	20.14
269.54	-18.77
269.756	93.87
269.972	40.62
270.188	-16.73
270.403	42.67
270.619	-8.53
270.835	-6.49
271.051	54.95
271.267	-37.2
271.483	81.58
271.698	38.57
271.914	7.85
272.13	3.75
272.346	42.67
272.562	7.85
272.777	38.57
272.993	5.8
273.209	57
273.425	67.24
273.64	22.19
273.856	52.91
274.072	34.47
274.287	34.47
274.503	-0.34
274.719	59.05
274.934	-35.16
275.15	-6.49
275.366	34.47
275.581	22.19
275.797	69.29
276.012	65.19
276.228	5.8
276.444	63.15
276.659	100.01
276.875	-0.34
277.09	81.58
277.306	20.14
277.521	40.62
277.737	67.24
277.952	30.38
278.168	122.54
278.383	42.67
278.599	-4.44
278.814	91.82
279.03	-41.3
279.245	36.52
279.461	50.86
279.676	116.39
279.892	38.57
280.107	18.09
280.322	-0.34
280.538	11.95
280.753	-10.58
280.969	-4.44
281.184	-14.68
281.399	132.78
281.615	81.58
281.83	106.15
282.045	1.71
282.26	-16.73
282.476	22.19
282.691	40.62
282.906	124.58
283.122	3.75
283.337	81.58
283.552	13.99
283.767	81.58
283.983	65.19
284.198	77.48
284.413	3.75
284.628	16.04
284.843	122.54
285.058	11.95
285.274	36.52
285.489	110.25
285.704	106.15
285.919	30.38
286.134	46.76
286.349	57
286.564	-18.77
286.779	26.28
286.995	50.86
287.21	-2.39
287.425	83.63
287.64	48.81
287.855	32.43
288.07	-10.58
288.285	38.57
288.5	7.85
288.715	87.72
288.93	22.19
289.145	36.52
289.36	24.23
289.575	63.15
289.79	73.39
290.004	20.14
290.219	75.43
290.434	73.39
290.649	38.57
290.864	28.33
291.079	22.19
291.294	61.1
291.509	-8.53
291.724	-2.39
291.938	22.19
292.153	59.05
292.368	52.91
292.583	54.95
292.798	-8.53
293.012	77.48
293.227	54.95
293.442	-4.44
293.657	69.29
293.871	1.71
294.086	1.71
294.301	7.85
294.516	59.05
294.73	-0.34
294.945	-14.68
295.16	16.04
295.374	7.85
295.589	100.01
295.804	28.33
296.018	3.75
296.233	52.91
296.447	32.43
296.662	83.63
296.877	79.53
297.091	71.34
297.306	63.15
297.52	48.81
297.735	-47.44
297.949	-10.58
298.164	46.76
298.378	59.05
298.593	122.54
298.807	67.24
299.022	69.29
299.236	20.14
299.451	11.95
299.665	13.99
299.88	16.04
300.094	26.28
300.309	65.19
300.523	20.14
300.737	61.1
300.952	57
301.166	30.38
301.381	34.47
301.595	-8.53
301.809	13.99
302.024	30.38
302.238	24.23
302.452	112.3
302.667	95.91
302.881	100.01
303.095	30.38
303.309	65.19
303.524	16.04
303.738	110.25
303.952	83.63
304.166	34.47
304.381	65.19
304.595	46.76
304.809	-6.49
305.023	59.05
305.237	48.81
305.452	-22.87
305.666	57
305.88	83.63
306.094	167.59
306.308	24.23
306.522	44.71
306.736	57
306.95	138.92
307.164	36.52
307.379	3.75
307.593	54.95
307.807	3.75
308.021	-2.39
308.235	18.09
308.449	-2.39
308.663	-18.77
308.877	71.34
309.091	-14.68
309.305	7.85
309.519	89.77
309.733	46.76
309.947	-14.68
310.161	104.11
310.374	32.43
310.588	85.67
310.802	-37.2
311.016	69.29
311.23	22.19
311.444	7.85
311.658	87.72
311.872	34.47
312.085	77.48
312.299	108.2
312.513	73.39
312.727	-51.54
312.941	95.91
313.154	126.63
313.368	42.67
313.582	-10.58
313.796	38.57
314.009	75.43
314.223	59.05
314.437	40.62
314.651	114.34
314.864	44.71
315.078	61.1
315.292	67.24
315.505	24.23
315.719	32.43
315.933	57
316.146	42.67
316.36	59.05
316.573	89.77
316.787	24.23
317.001	48.81
317.214	46.76
317.428	61.1
317.641	-2.39
317.855	11.95
318.068	3.75
318.282	67.24
318.495	61.1
318.709	22.19
318.922	118.44
319.136	89.77
319.349	77.48
319.563	16.04
319.776	3.75
319.99	34.47
320.203	81.58
320.417	97.96
320.63	102.06
320.843	52.91
321.057	-2.39
321.27	83.63
321.483	75.43
321.697	100.01
321.91	46.76
322.124	24.23
322.337	26.28
322.55	44.71
322.763	65.19
322.977	73.39
323.19	16.04
323.403	75.43
323.617	-31.06
323.83	147.11
324.043	46.76
324.256	30.38
324.469	-43.35
324.683	26.28
324.896	52.91
325.109	24.23
325.322	22.19
325.535	93.87
325.748	97.96
325.962	42.67
326.175	73.39
326.388	44.71
326.601	65.19
326.814	20.14
327.027	71.34
327.24	30.38
327.453	18.09
327.666	7.85
327.879	153.26
328.092	13.99
328.305	57
328.518	5.8
328.731	18.09
328.944	44.71
329.157	44.71
329.37	48.81
329.583	89.77
329.796	79.53
330.009	-22.87
330.222	54.95
330.435	26.28
330.648	69.29
330.861	5.8
331.073	32.43
331.286	42.67
331.499	97.96
331.712	26.28
331.925	79.53
332.138	-4.44
332.35	118.44
332.563	-18.77
332.776	75.43
332.989	5.8
333.202	48.81
333.414	16.04
333.627	38.57
333.84	-16.73
334.053	48.81
334.265	-2.39
334.478	104.11
334.691	26.28
334.903	42.67
335.116	11.95
335.329	-2.39
335.541	16.04
335.754	89.77
335.966	34.47
336.179	30.38
336.392	-26.96
336.604	67.24
336.817	106.15
337.029	57
337.242	46.76
337.454	110.25
337.667	54.95
337.88	75.43
338.092	38.57
338.305	85.67
338.517	102.06
338.729	69.29
338.942	30.38
339.154	-20.82
339.367	57
339.579	34.47
339.792	20.14
340.004	79.53
340.217	40.62
340.429	57
340.641	-45.4
340.854	3.75
341.066	71.34
341.278	34.47
341.491	63.15
341.703	59.05
341.915	18.09
342.128	65.19
342.34	1.71
342.552	38.57
342.764	93.87
342.977	87.72
343.189	36.52
343.401	67.24
343.613	16.04
343.826	26.28
344.038	44.71
344.25	36.52
344.462	130.73
344.674	77.48
344.886	7.85
345.099	44.71
345.311	93.87
345.523	11.95
345.735	26.28
345.947	79.53
346.159	7.85
346.371	1.71
346.583	13.99
346.795	95.91
347.007	71.34
347.219	57
347.431	-18.77
347.643	50.86
347.855	11.95
348.067	85.67
348.279	20.14
348.491	73.39
348.703	87.72
348.915	44.71
349.127	69.29
349.339	91.82
349.551	79.53
349.763	32.43
349.975	-4.44
350.187	65.19
350.399	24.23
350.61	52.91
350.822	57
351.034	50.86
351.246	26.28
351.458	44.71
351.669	54.95
351.881	73.39
352.093	71.34
352.305	89.77
352.517	54.95
352.728	69.29
352.94	36.52
353.152	38.57
353.363	61.1
353.575	85.67
353.787	52.91
353.999	-29.01
354.21	91.82
354.422	104.11
354.633	36.52
354.845	26.28
355.057	59.05
355.268	69.29
355.48	102.06
355.692	16.04
355.903	24.23
356.115	-33.11
356.326	38.57
356.538	93.87
356.749	26.28
356.961	77.48
357.172	71.34
357.384	-20.82
357.595	54.95
357.807	-20.82
358.018	22.19
358.23	95.91
358.441	112.3
358.653	50.86
358.864	50.86
359.075	110.25
359.287	5.8
359.498	138.92
359.709	32.43
359.921	20.14
360.132	28.33
360.344	18.09
360.555	50.86
360.766	87.72
360.977	5.8
361.189	57
361.4	22.19
361.611	65.19
361.823	32.43
362.034	11.95
362.245	26.28
362.456	95.91
362.667	63.15
362.879	16.04
363.09	48.81
363.301	1.71
363.512	-0.34
363.723	57
363.935	57
364.146	54.95
364.357	26.28
364.568	61.1
364.779	-33.11
364.99	75.43
365.201	11.95
365.412	104.11
365.623	18.09
365.834	52.91
366.045	-20.82
366.256	20.14
366.467	65.19
366.678	11.95
366.889	67.24
367.1	-18.77
367.311	-6.49
367.522	118.44
367.733	3.75
367.944	50.86
368.155	46.76
368.366	114.34
368.577	81.58
368.788	89.77
368.999	57
369.209	48.81
369.42	79.53
369.631	181.93
369.842	61.1
370.053	128.68
370.264	126.63
370.474	79.53
370.685	11.95
370.896	5.8
371.107	122.54
371.317	-0.34
371.528	3.75
371.739	124.58
371.95	67.24
372.16	95.91
372.371	36.52
372.582	102.06
372.792	108.2
373.003	69.29
373.214	32.43
373.424	40.62
373.635	34.47
373.846	93.87
374.056	-4.44
374.267	16.04
374.477	-10.58
374.688	102.06
374.898	93.87
375.109	155.3
375.319	42.67
375.53	30.38
375.74	67.24
375.951	57
376.161	34.47
376.372	42.67
376.582	18.09
376.793	32.43
377.003	7.85
377.214	38.57
377.424	118.44
377.635	67.24
377.845	63.15
378.055	46.76
378.266	-26.96
378.476	81.58
378.686	-4.44
378.897	110.25
379.107	93.87
379.317	18.09
379.528	50.86
379.738	71.34
379.948	46.76
380.158	69.29
380.369	24.23
380.579	106.15
380.789	5.8
380.999	75.43
381.21	63.15
381.42	-6.49
381.63	22.19
381.84	34.47
382.05	54.95
382.261	50.86
382.471	36.52
382.681	40.62
382.891	97.96
383.101	87.72
383.311	-8.53
383.521	50.86
383.731	52.91
383.941	104.11
384.151	57
384.361	77.48
384.571	30.38
384.781	102.06
384.991	89.77
385.201	48.81
385.411	48.81
385.621	100.01
385.831	-31.06
386.041	128.68
386.251	77.48
386.461	112.3
386.671	50.86
386.881	52.91
387.091	-26.96
387.301	100.01
387.511	42.67
387.72	87.72
387.93	40.62
388.14	71.34
388.35	24.23
388.56	100.01
388.769	46.76
388.979	104.11
389.189	1.71
389.399	87.72
389.609	32.43
389.818	65.19
390.028	79.53
390.238	128.68
390.447	38.57
390.657	11.95
390.867	-45.4
391.076	79.53
391.286	42.67
391.496	79.53
391.705	50.86
391.915	130.73
392.125	102.06
392.334	106.15
392.544	177.83
392.753	54.95
392.963	73.39
393.172	91.82
393.382	38.57
393.591	50.86
393.801	112.3
394.01	130.73
394.22	91.82
394.429	75.43
394.639	69.29
394.848	89.77
395.058	20.14
395.267	75.43
395.477	67.24
395.686	132.78
395.895	128.68
396.105	97.96
396.314	120.49
396.524	206.5
396.733	173.74
396.942	136.87
397.152	63.15
397.361	165.54
397.57	75.43
397.78	95.91
397.989	186.02
398.198	130.73
398.407	32.43
398.617	116.39
398.826	126.63
399.035	120.49
399.244	59.05
399.453	130.73
399.663	85.67
399.872	161.45
400.081	100.01
400.29	102.06
400.499	118.44
400.708	118.44
400.917	61.1
401.127	149.16
401.336	196.26
401.545	218.79
401.754	163.5
401.963	159.4
402.172	93.87
402.381	145.06
402.59	132.78
402.799	145.06
403.008	171.69
403.217	145.06
403.426	177.83
403.635	110.25
403.844	130.73
404.053	134.82
404.262	112.3
404.471	218.79
404.68	102.06
404.888	173.74
405.097	138.92
405.306	171.69
405.515	153.26
405.724	251.56
405.933	204.46
406.142	159.4
406.35	188.07
406.559	202.41
406.768	122.54
406.977	229.03
407.185	257.7
407.394	292.52
407.603	233.13
407.812	173.74
408.02	263.85
408.229	269.99
408.438	194.22
408.646	259.75
408.855	229.03
409.064	313
409.272	200.36
409.481	269.99
409.69	317.09
409.898	267.94
410.107	282.28
410.315	413.35
410.524	378.53
410.733	458.4
410.941	386.72
411.15	462.5
411.358	466.6
411.567	511.65
411.775	409.25
411.984	454.31
412.192	491.17
412.401	421.54
412.609	525.99
412.818	497.32
413.026	591.52
413.234	501.41
413.443	532.13
413.651	605.86
413.86	528.03
414.068	704.16
414.276	650.91
414.485	663.2
414.693	700.06
414.901	708.26
415.11	687.78
415.318	777.89
415.526	757.41
415.734	833.18
415.943	872.09
416.151	874.14
416.359	951.96
416.567	884.38
416.776	999.07
416.984	1060.51
417.192	1099.42
417.4	1070.75
417.608	1040.03
417.817	1189.53
418.025	1189.53
418.233	1236.63
418.441	1242.78
418.649	1318.55
418.857	1275.54
419.065	1457.81
419.273	1384.09
419.481	1468.05
419.689	1549.97
419.897	1672.85
420.105	1685.14
420.313	1754.77
420.521	1724.05
420.729	1816.21
420.937	1902.22
421.145	1851.02
421.353	2002.57
421.561	2041.48
421.769	2137.74
421.977	2176.65
422.185	2096.78
422.393	2371.21
422.601	2328.2
422.809	2408.07
423.017	2502.28
423.224	2567.81
423.432	2602.63
423.64	2651.78
423.848	2885.25
424.056	2770.56
424.263	3104.38
424.471	3122.81
424.679	3223.16
424.887	3425.91
425.094	3391.09
425.302	3421.81
425.51	3448.44
425.718	3626.61
425.925	3780.21
426.133	3937.9
426.341	4036.21
426.548	4359.78
426.756	4165.23
426.964	4277.87
427.171	4605.54
427.379	4628.07
427.586	4744.8
427.794	5017.18
428.001	5164.64
428.209	5461.59
428.417	5213.79
428.624	5615.19
428.832	5633.62
429.039	5549.65
429.247	5658.2
429.454	5996.11
429.662	6581.83
429.869	6313.55
430.076	6577.73
430.284	6194.76
430.491	6692.42
430.699	7120.45
430.906	6913.6
431.114	6919.75
431.321	7456.31
431.528	7489.08
431.736	7943.73
431.943	8408.62
432.15	8078.9
432.358	8181.29
432.565	8719.91
432.772	8476.2
432.979	8994.34
433.187	9135.65
433.394	9340.44
433.601	10026.51
433.808	9868.82
434.016	9739.8
434.223	10319.37
434.43	10778.12
434.637	10575.37
434.844	11382.27
435.052	11773.43
435.259	11431.42
435.466	11566.59
435.673	11324.93
435.88	12146.16
436.087	12809.7
436.294	13129.19
436.501	12662.25
436.708	12883.43
436.915	13256.16
437.122	14024.15
437.329	13831.64
437.537	14267.86
437.743	14603.72
437.95	14282.19
438.157	15281.6
438.364	15525.31
438.571	15590.84
438.778	15814.07
438.985	17030.57
439.192	16301.49
439.399	17034.66
439.606	16999.85
439.813	17569.18
440.02	18378.13
440.227	18302.36
440.433	18202
440.64	18640.27
440.847	18523.54
441.054	19121.54
441.261	20178.29
441.467	20061.56
441.674	20649.33
441.881	20837.74
442.088	21153.13
442.294	20970.86
442.501	21441.89
442.708	22041.95
442.914	23012.68
443.121	23790.91
443.328	23301.45
443.534	25003.31
443.741	24247.61
443.948	23895.36
444.154	25406.76
444.361	25167.15
444.568	25595.17
444.774	25580.84
444.981	25687.33
445.187	26338.58
445.394	27618.57
445.6	27329.8
445.807	29828.32
446.013	28273.92
446.22	29252.84
446.426	29940.96
446.633	30219.49
446.839	31487.18
447.046	30336.22
447.252	31935.68
447.459	32132.29
447.665	31651.02
447.871	33182.9
448.078	34657.43
448.284	33088.69
448.491	33868.97
448.697	35110.03
448.903	35773.58
449.11	35857.54
449.316	35122.32
449.522	35757.19
449.728	36637.82
449.935	37246.07
450.141	36736.12
450.347	38022.25
450.553	36619.39
450.76	36975.73
450.966	38032.49
451.172	37727.34
451.378	38704.22
451.584	37815.4
451.791	39040.09
451.997	38833.24
452.203	39201.88
452.409	39396.43
452.615	39119.96
452.821	37555.31
453.027	37186.68
453.233	39318.61
453.44	37424.24
453.646	38114.41
453.852	38143.08
454.058	38767.71
454.264	37368.94
454.47	38427.74
454.676	37311.6
454.882	38806.62
455.088	35267.73
455.294	35546.25
455.5	35984.52
455.705	36912.25
455.911	35187.86
456.117	34686.11
456.323	33854.63
456.529	32648.38
456.735	33733.8
456.941	32775.35
457.147	32376
457.352	31188.17
457.558	30930.13
457.764	30565.59
457.97	30000.35
458.176	29730.02
458.381	29424.87
458.587	28278.01
458.793	28222.72
458.999	26805.52
459.204	28382.46
459.41	27579.65
459.616	25965.85
459.821	25830.69
460.027	25783.59
460.233	24972.59
460.438	24132.92
460.644	24378.68
460.85	23170.38
461.055	22398.29
461.261	22979.92
461.466	21114.22
461.672	20444.53
461.878	21906.78
462.083	20188.53
462.289	20084.09
462.494	19594.62
462.7	19023.24
462.905	18320.79
463.111	18943.37
463.316	19228.04
463.522	18859.4
463.727	18531.73
463.932	18660.75
464.138	18658.7
464.343	18449.81
464.549	18042.26
464.754	18820.49
464.959	18455.95
465.165	18351.51
465.37	17421.73
465.575	17233.32
465.781	17794.46
465.986	17946.01
466.191	17391.01
466.397	16616.88
466.602	15928.76
466.807	16917.93
467.012	16805.29
467.218	16766.38
467.423	16610.73
467.628	16258.48
467.833	17399.2
468.038	16661.93
