Data from USB4F104151__65__12-01-52-188.txt Node

Date: Fri Mar 14 12:01:52 EDT 2025
User: louis
Spectrometer: USB4F10415
Trigger mode: 4
Integration Time (sec): 2.000000E-2
Scans to average: 1
Electric dark correction enabled: true
Nonlinearity correction enabled: false
Boxcar width: 0
XAxis mode: Wavelengths
Number of Pixels in Spectrum: 3648
>>>>>Begin Spectral Data<<<<<
178.204	-27.65
178.424	-27.65
178.644	-27.65
178.864	-35.84
179.084	-52.22
179.304	9.22
179.524	-64.51
179.744	-56.32
179.964	35.84
180.184	-7.17
180.404	-7.17
180.624	-21.5
180.844	-50.18
181.064	11.26
181.283	21.5
181.503	39.94
181.723	89.09
181.943	-11.26
182.163	35.84
182.383	-44.03
182.602	150.53
182.822	-23.55
183.042	48.13
183.262	19.46
183.482	-72.7
183.701	-7.17
183.921	-7.17
184.141	50.18
184.361	78.85
184.58	9.22
184.8	27.65
185.02	15.36
185.239	5.12
185.459	62.46
185.679	17.41
185.898	-39.94
186.118	44.03
186.338	89.09
186.557	-1.02
186.777	7.17
186.997	5.12
187.216	46.08
187.436	27.65
187.655	35.84
187.875	25.6
188.095	-5.12
188.314	7.17
188.534	15.36
188.753	-27.65
188.973	-17.41
189.192	48.13
189.412	-7.17
189.631	23.55
189.851	74.75
190.07	1.02
190.29	-33.79
190.509	25.6
190.729	-1.02
190.948	70.65
191.168	62.46
191.387	50.18
191.607	-11.26
191.826	-37.89
192.045	13.31
192.265	-11.26
192.484	-1.02
192.704	5.12
192.923	19.46
193.142	27.65
193.362	33.79
193.581	115.71
193.8	37.89
194.02	76.8
194.239	33.79
194.458	-15.36
194.678	39.94
194.897	37.89
195.116	-35.84
195.335	-19.46
195.555	41.98
195.774	89.09
195.993	-9.22
196.212	46.08
196.432	62.46
196.651	19.46
196.87	23.55
197.089	107.52
197.308	17.41
197.528	-41.98
197.747	3.07
197.966	41.98
198.185	93.18
198.404	-3.07
198.623	3.07
198.842	37.89
199.062	37.89
199.281	76.8
199.5	33.79
199.719	7.17
199.938	-76.8
200.157	-7.17
200.376	-21.5
200.595	3.07
200.814	25.6
201.033	-21.5
201.252	17.41
201.471	56.32
201.69	19.46
201.909	-5.12
202.128	13.31
202.347	17.41
202.566	9.22
202.785	-27.65
203.004	9.22
203.223	80.89
203.442	-17.41
203.661	48.13
203.879	-64.51
204.098	39.94
204.317	-29.7
204.536	105.47
204.755	101.37
204.974	33.79
205.193	25.6
205.411	72.7
205.63	-68.61
205.849	-1.02
206.068	-80.89
206.287	76.8
206.505	72.7
206.724	19.46
206.943	17.41
207.162	-46.08
207.381	1.02
207.599	52.22
207.818	-66.56
208.037	74.75
208.255	29.7
208.474	74.75
208.693	33.79
208.911	64.51
209.13	68.61
209.349	9.22
209.567	48.13
209.786	64.51
210.005	74.75
210.223	15.36
210.442	9.22
210.661	39.94
210.879	31.74
211.098	35.84
211.316	37.89
211.535	44.03
211.753	-11.26
211.972	58.37
212.191	-27.65
212.409	60.42
212.628	72.7
212.846	-33.79
213.065	72.7
213.283	3.07
213.502	19.46
213.72	89.09
213.938	93.18
214.157	31.74
214.375	-7.17
214.594	17.41
214.812	-3.07
215.031	48.13
215.249	11.26
215.467	62.46
215.686	56.32
215.904	123.9
216.122	19.46
216.341	33.79
216.559	7.17
216.778	111.61
216.996	-29.7
217.214	-89.09
217.432	54.27
217.651	-31.74
217.869	76.8
218.087	25.6
218.306	68.61
218.524	41.98
218.742	29.7
218.96	29.7
219.179	7.17
219.397	-11.26
219.615	66.56
219.833	39.94
220.051	95.23
220.27	99.33
220.488	33.79
220.706	-1.02
220.924	-17.41
221.142	54.27
221.36	-9.22
221.578	37.89
221.796	-31.74
222.015	-50.18
222.233	9.22
222.451	62.46
222.669	35.84
222.887	142.33
223.105	31.74
223.323	17.41
223.541	48.13
223.759	5.12
223.977	39.94
224.195	89.09
224.413	3.07
224.631	17.41
224.849	29.7
225.067	58.37
225.285	17.41
225.503	23.55
225.721	-21.5
225.939	-19.46
226.157	17.41
226.375	33.79
226.592	-13.31
226.81	39.94
227.028	52.22
227.246	76.8
227.464	7.17
227.682	39.94
227.9	70.65
228.117	31.74
228.335	31.74
228.553	78.85
228.771	60.42
228.989	31.74
229.206	21.5
229.424	58.37
229.642	-21.5
229.86	33.79
230.077	46.08
230.295	46.08
230.513	-19.46
230.731	21.5
230.948	52.22
231.166	82.94
231.384	-5.12
231.601	-13.31
231.819	13.31
232.037	39.94
232.254	19.46
232.472	37.89
232.689	-33.79
232.907	27.65
233.125	76.8
233.342	1.02
233.56	41.98
233.777	15.36
233.995	48.13
234.213	15.36
234.43	41.98
234.648	-27.65
234.865	-17.41
235.083	15.36
235.3	-31.74
235.518	44.03
235.735	52.22
235.953	80.89
236.17	25.6
236.388	-48.13
236.605	68.61
236.822	-5.12
237.04	13.31
237.257	1.02
237.475	-1.02
237.692	-103.42
237.909	-23.55
238.127	78.85
238.344	-31.74
238.562	60.42
238.779	58.37
238.996	-54.27
239.214	48.13
239.431	44.03
239.648	-66.56
239.865	54.27
240.083	11.26
240.3	64.51
240.517	-39.94
240.735	60.42
240.952	60.42
241.169	62.46
241.386	-68.61
241.603	41.98
241.821	27.65
242.038	66.56
242.255	97.28
242.472	17.41
242.689	33.79
242.907	80.89
243.124	74.75
243.341	15.36
243.558	62.46
243.775	23.55
243.992	23.55
244.209	1.02
244.426	109.57
244.643	-9.22
244.86	27.65
245.078	25.6
245.295	39.94
245.512	21.5
245.729	31.74
245.946	64.51
246.163	37.89
246.38	29.7
246.597	19.46
246.814	-21.5
247.031	-3.07
247.248	-46.08
247.464	-7.17
247.681	-11.26
247.898	64.51
248.115	27.65
248.332	33.79
248.549	95.23
248.766	-25.6
248.983	15.36
249.2	-9.22
249.417	27.65
249.633	-17.41
249.85	-1.02
250.067	68.61
250.284	50.18
250.501	39.94
250.717	25.6
250.934	-9.22
251.151	23.55
251.368	-13.31
251.585	56.32
251.801	17.41
252.018	-48.13
252.235	27.65
252.451	-33.79
252.668	117.76
252.885	23.55
253.102	50.18
253.318	62.46
253.535	13.31
253.752	-64.51
253.968	-7.17
254.185	-31.74
254.401	54.27
254.618	-21.5
254.835	31.74
255.051	31.74
255.268	-7.17
255.484	64.51
255.701	66.56
255.917	76.8
256.134	7.17
256.351	66.56
256.567	-5.12
256.784	31.74
257	-15.36
257.217	17.41
257.433	33.79
257.65	17.41
257.866	25.6
258.082	-29.7
258.299	44.03
258.515	109.57
258.732	-19.46
258.948	3.07
259.165	60.42
259.381	41.98
259.597	-21.5
259.814	39.94
260.03	1.02
260.246	37.89
260.463	21.5
260.679	9.22
260.895	78.85
261.112	-1.02
261.328	56.32
261.544	78.85
261.761	-17.41
261.977	60.42
262.193	48.13
262.409	27.65
262.626	91.13
262.842	46.08
263.058	-13.31
263.274	123.9
263.49	9.22
263.707	-15.36
263.923	-25.6
264.139	-35.84
264.355	29.7
264.571	15.36
264.787	95.23
265.004	99.33
265.22	21.5
265.436	54.27
265.652	7.17
265.868	21.5
266.084	39.94
266.3	13.31
266.516	-29.7
266.732	91.13
266.948	17.41
267.164	-15.36
267.38	5.12
267.596	66.56
267.812	33.79
268.028	-17.41
268.244	27.65
268.46	50.18
268.676	58.37
268.892	56.32
269.108	-31.74
269.324	-5.12
269.54	-11.26
269.756	72.7
269.972	56.32
270.188	48.13
270.403	39.94
270.619	-5.12
270.835	72.7
271.051	68.61
271.267	-19.46
271.483	82.94
271.698	31.74
271.914	11.26
272.13	41.98
272.346	58.37
272.562	13.31
272.777	3.07
272.993	60.42
273.209	31.74
273.425	87.04
273.64	1.02
273.856	99.33
274.072	-9.22
274.287	46.08
274.503	23.55
274.719	46.08
274.934	15.36
275.15	23.55
275.366	95.23
275.581	19.46
275.797	23.55
276.012	29.7
276.228	68.61
276.444	21.5
276.659	58.37
276.875	-7.17
277.09	35.84
277.306	-33.79
277.521	109.57
277.737	7.17
277.952	52.22
278.168	33.79
278.383	35.84
278.599	23.55
278.814	72.7
279.03	-9.22
279.245	35.84
279.461	89.09
279.676	23.55
279.892	11.26
280.107	-15.36
280.322	52.22
280.538	41.98
280.753	21.5
280.969	15.36
281.184	-7.17
281.399	93.18
281.615	21.5
281.83	48.13
282.045	-17.41
282.26	1.02
282.476	-3.07
282.691	21.5
282.906	-33.79
283.122	76.8
283.337	31.74
283.552	78.85
283.767	27.65
283.983	72.7
284.198	44.03
284.413	54.27
284.628	-82.94
284.843	-3.07
285.058	-5.12
285.274	50.18
285.489	-27.65
285.704	64.51
285.919	-35.84
286.134	-7.17
286.349	19.46
286.564	74.75
286.779	91.13
286.995	15.36
287.21	37.89
287.425	7.17
287.64	44.03
287.855	27.65
288.07	-68.61
288.285	58.37
288.5	-7.17
288.715	-58.37
288.93	25.6
289.145	33.79
289.36	31.74
289.575	-78.85
289.79	23.55
290.004	13.31
290.219	62.46
290.434	41.98
290.649	27.65
290.864	-17.41
291.079	3.07
291.294	19.46
291.509	-23.55
291.724	35.84
291.938	9.22
292.153	80.89
292.368	-54.27
292.583	39.94
292.798	82.94
293.012	89.09
293.227	-1.02
293.442	29.7
293.657	58.37
293.871	54.27
294.086	54.27
294.301	72.7
294.516	125.95
294.73	11.26
294.945	68.61
295.16	17.41
295.374	37.89
295.589	23.55
295.804	-3.07
296.018	5.12
296.233	70.65
296.447	13.31
296.662	11.26
296.877	58.37
297.091	37.89
297.306	-25.6
297.52	35.84
297.735	48.13
297.949	21.5
298.164	21.5
298.378	76.8
298.593	39.94
298.807	7.17
299.022	62.46
299.236	80.89
299.451	50.18
299.665	-1.02
299.88	5.12
300.094	-3.07
300.309	7.17
300.523	5.12
300.737	31.74
300.952	31.74
301.166	29.7
301.381	31.74
301.595	-5.12
301.809	-17.41
302.024	60.42
302.238	-11.26
302.452	35.84
302.667	68.61
302.881	27.65
303.095	13.31
303.309	62.46
303.524	25.6
303.738	58.37
303.952	46.08
304.166	-35.84
304.381	46.08
304.595	99.33
304.809	-105.47
305.023	33.79
305.237	23.55
305.452	119.81
305.666	7.17
305.88	46.08
306.094	41.98
306.308	74.75
306.522	52.22
306.736	50.18
306.95	78.85
307.164	89.09
307.379	52.22
307.593	31.74
307.807	87.04
308.021	87.04
308.235	33.79
308.449	60.42
308.663	-54.27
308.877	105.47
309.091	41.98
309.305	70.65
309.519	-1.02
309.733	128
309.947	-3.07
310.161	105.47
310.374	21.5
310.588	78.85
310.802	21.5
311.016	11.26
311.23	44.03
311.444	19.46
311.658	35.84
311.872	84.99
312.085	68.61
312.299	58.37
312.513	146.43
312.727	-1.02
312.941	-15.36
313.154	35.84
313.368	44.03
313.582	15.36
313.796	41.98
314.009	62.46
314.223	15.36
314.437	37.89
314.651	37.89
314.864	21.5
315.078	76.8
315.292	-62.46
315.505	33.79
315.719	31.74
315.933	-44.03
316.146	41.98
316.36	44.03
316.573	-3.07
316.787	7.17
317.001	17.41
317.214	-41.98
317.428	37.89
317.641	-1.02
317.855	-15.36
318.068	-1.02
318.282	7.17
318.495	17.41
318.709	39.94
318.922	-64.51
319.136	1.02
319.349	72.7
319.563	-25.6
319.776	21.5
319.99	52.22
320.203	80.89
320.417	-5.12
320.63	66.56
320.843	21.5
321.057	60.42
321.27	37.89
321.483	37.89
321.697	-29.7
321.91	-52.22
322.124	-23.55
322.337	-7.17
322.55	-37.89
322.763	9.22
322.977	-21.5
323.19	9.22
323.403	56.32
323.617	89.09
323.83	7.17
324.043	21.5
324.256	-3.07
324.469	84.99
324.683	113.66
324.896	15.36
325.109	1.02
325.322	-15.36
325.535	105.47
325.748	44.03
325.962	-33.79
326.175	1.02
326.388	89.09
326.601	39.94
326.814	44.03
327.027	15.36
327.24	152.57
327.453	9.22
327.666	23.55
327.879	11.26
328.092	44.03
328.305	101.37
328.518	33.79
328.731	25.6
328.944	25.6
329.157	13.31
329.37	17.41
329.583	31.74
329.796	89.09
330.009	44.03
330.222	78.85
330.435	64.51
330.648	33.79
330.861	-19.46
331.073	76.8
331.286	48.13
331.499	82.94
331.712	64.51
331.925	44.03
332.138	54.27
332.35	99.33
332.563	-58.37
332.776	64.51
332.989	72.7
333.202	50.18
333.414	5.12
333.627	39.94
333.84	11.26
334.053	7.17
334.265	5.12
334.478	19.46
334.691	48.13
334.903	29.7
335.116	3.07
335.329	21.5
335.541	138.24
335.754	13.31
335.966	17.41
336.179	3.07
336.392	52.22
336.604	-60.42
336.817	70.65
337.029	99.33
337.242	39.94
337.454	33.79
337.667	-60.42
337.88	1.02
338.092	31.74
338.305	48.13
338.517	19.46
338.729	31.74
338.942	13.31
339.154	39.94
339.367	-21.5
339.579	44.03
339.792	46.08
340.004	41.98
340.217	11.26
340.429	-11.26
340.641	-23.55
340.854	95.23
341.066	105.47
341.278	-44.03
341.491	138.24
341.703	-7.17
341.915	52.22
342.128	37.89
342.34	15.36
342.552	39.94
342.764	-11.26
342.977	-15.36
343.189	13.31
343.401	-1.02
343.613	117.76
343.826	21.5
344.038	-29.7
344.25	99.33
344.462	78.85
344.674	29.7
344.886	-13.31
345.099	15.36
345.311	15.36
345.523	5.12
345.735	-13.31
345.947	109.57
346.159	17.41
346.371	29.7
346.583	-25.6
346.795	64.51
347.007	21.5
347.219	97.28
347.431	27.65
347.643	70.65
347.855	-5.12
348.067	17.41
348.279	5.12
348.491	48.13
348.703	17.41
348.915	74.75
349.127	33.79
349.339	13.31
349.551	103.42
349.763	9.22
349.975	66.56
350.187	-11.26
350.399	44.03
350.61	58.37
350.822	74.75
351.034	50.18
351.246	15.36
351.458	-31.74
351.669	56.32
351.881	39.94
352.093	-1.02
352.305	41.98
352.517	41.98
352.728	101.37
352.94	70.65
353.152	46.08
353.363	-1.02
353.575	70.65
353.787	97.28
353.999	54.27
354.21	52.22
354.422	-31.74
354.633	1.02
354.845	54.27
355.057	27.65
355.268	29.7
355.48	-5.12
355.692	31.74
355.903	89.09
356.115	37.89
356.326	37.89
356.538	50.18
356.749	70.65
356.961	52.22
357.172	44.03
357.384	1.02
357.595	111.61
357.807	80.89
358.018	91.13
358.23	-58.37
358.441	119.81
358.653	-11.26
358.864	50.18
359.075	-1.02
359.287	35.84
359.498	66.56
359.709	-19.46
359.921	31.74
360.132	48.13
360.344	27.65
360.555	13.31
360.766	97.28
360.977	9.22
361.189	50.18
361.4	64.51
361.611	60.42
361.823	64.51
362.034	5.12
362.245	19.46
362.456	91.13
362.667	35.84
362.879	95.23
363.09	13.31
363.301	70.65
363.512	62.46
363.723	-58.37
363.935	33.79
364.146	72.7
364.357	-35.84
364.568	84.99
364.779	-17.41
364.99	58.37
365.201	27.65
365.412	41.98
365.623	15.36
365.834	97.28
366.045	17.41
366.256	-27.65
366.467	52.22
366.678	25.6
366.889	1.02
367.1	9.22
367.311	-19.46
367.522	72.7
367.733	72.7
367.944	31.74
368.155	-5.12
368.366	-29.7
368.577	41.98
368.788	50.18
368.999	-15.36
369.209	70.65
369.42	76.8
369.631	99.33
369.842	15.36
370.053	-9.22
370.264	50.18
370.474	132.09
370.685	31.74
370.896	-35.84
371.107	48.13
371.317	74.75
371.528	48.13
371.739	60.42
371.95	99.33
372.16	13.31
372.371	-21.5
372.582	50.18
372.792	27.65
373.003	48.13
373.214	-5.12
373.424	25.6
373.635	9.22
373.846	111.61
374.056	21.5
374.267	56.32
374.477	64.51
374.688	21.5
374.898	41.98
375.109	54.27
375.319	25.6
375.53	87.04
375.74	29.7
375.951	7.17
376.161	46.08
376.372	68.61
376.582	70.65
376.793	72.7
377.003	46.08
377.214	109.57
377.424	21.5
377.635	76.8
377.845	89.09
378.055	56.32
378.266	-39.94
378.476	103.42
378.686	39.94
378.897	-50.18
379.107	109.57
379.317	128
379.528	44.03
379.738	-3.07
379.948	84.99
380.158	72.7
380.369	15.36
380.579	48.13
380.789	84.99
380.999	87.04
381.21	11.26
381.42	115.71
381.63	107.52
381.84	64.51
382.05	9.22
382.261	109.57
382.471	68.61
382.681	27.65
382.891	123.9
383.101	50.18
383.311	35.84
383.521	97.28
383.731	25.6
383.941	93.18
384.151	9.22
384.361	5.12
384.571	7.17
384.781	15.36
384.991	56.32
385.201	70.65
385.411	97.28
385.621	35.84
385.831	91.13
386.041	70.65
386.251	-1.02
386.461	64.51
386.671	1.02
386.881	115.71
387.091	-15.36
387.301	78.85
387.511	52.22
387.72	52.22
387.93	44.03
388.14	31.74
388.35	52.22
388.56	76.8
388.769	33.79
388.979	50.18
389.189	66.56
389.399	80.89
389.609	48.13
389.818	76.8
390.028	58.37
390.238	76.8
390.447	39.94
390.657	76.8
390.867	-37.89
391.076	68.61
391.286	17.41
391.496	68.61
391.705	46.08
391.915	89.09
392.125	56.32
392.334	41.98
392.544	60.42
392.753	58.37
392.963	76.8
393.172	91.13
393.382	56.32
393.591	105.47
393.801	76.8
394.01	113.66
394.22	58.37
394.429	125.95
394.639	50.18
394.848	54.27
395.058	25.6
395.267	117.76
395.477	46.08
395.686	119.81
395.895	25.6
396.105	130.05
396.314	89.09
396.524	107.52
396.733	11.26
396.942	105.47
397.152	76.8
397.361	136.19
397.57	95.23
397.78	56.32
397.989	136.19
398.198	138.24
398.407	72.7
398.617	23.55
398.826	95.23
399.035	128
399.244	93.18
399.453	117.76
399.663	148.48
399.872	128
400.081	39.94
400.29	136.19
400.499	66.56
400.708	173.05
400.917	119.81
401.127	62.46
401.336	46.08
401.545	125.95
401.754	195.58
401.963	209.92
402.172	138.24
402.381	164.86
402.59	84.99
402.799	91.13
403.008	138.24
403.217	93.18
403.426	97.28
403.635	46.08
403.844	72.7
404.053	144.38
404.262	111.61
404.471	84.99
404.68	158.72
404.888	48.13
405.097	119.81
405.306	222.2
405.515	140.29
405.724	148.48
405.933	158.72
406.142	183.29
406.35	99.33
406.559	152.57
406.768	207.87
406.977	209.92
407.185	197.63
407.394	179.2
407.603	220.16
407.812	189.44
408.02	232.44
408.229	211.96
408.438	236.54
408.646	203.77
408.855	207.87
409.064	287.74
409.272	183.29
409.481	269.31
409.69	179.2
409.898	201.72
410.107	361.47
410.315	244.73
410.524	269.31
410.733	336.89
410.941	369.66
411.15	285.69
411.358	367.61
411.567	365.56
411.775	373.75
411.984	353.27
412.192	369.66
412.401	396.28
412.609	422.91
412.818	427
413.026	443.39
413.234	443.39
413.443	523.26
413.651	490.49
413.86	541.69
414.068	492.54
414.276	562.17
414.485	549.88
414.693	619.51
414.901	674.81
415.11	584.7
415.318	670.71
415.526	728.05
415.734	699.38
415.943	683
416.151	758.77
416.359	711.67
416.567	719.86
416.776	842.74
416.984	846.84
417.192	842.74
417.4	920.56
417.608	900.08
417.817	936.95
418.025	1035.25
418.233	1076.21
418.441	1045.49
418.649	1031.15
418.857	1215.47
419.065	1295.34
419.273	1121.26
419.481	1227.76
419.689	1244.14
419.897	1254.38
420.105	1354.73
420.313	1420.27
420.521	1428.46
420.729	1489.9
420.937	1450.99
421.145	1557.48
421.353	1670.12
421.561	1702.89
421.769	1799.14
421.977	1870.82
422.185	1801.19
422.393	1944.55
422.601	2155.49
422.809	1981.41
423.017	2137.06
423.224	2100.19
423.432	2192.35
423.64	2270.17
423.848	2489.31
424.056	2339.8
424.263	2620.38
424.471	2571.22
424.679	2675.67
424.887	2636.76
425.094	2773.97
425.302	2903
425.51	2849.75
425.718	2950.1
425.925	3079.12
426.133	3240.91
426.341	3421.13
426.548	3541.96
426.756	3486.67
426.964	3554.25
427.171	3843.01
427.379	3963.84
427.586	4033.47
427.794	4123.59
428.001	4301.76
428.209	4426.68
428.417	4271.04
428.624	4821.94
428.832	4635.58
429.039	4604.86
429.247	4709.3
429.454	5084.08
429.662	5399.47
429.869	5047.22
430.076	5540.78
430.284	5348.27
430.491	5483.44
430.699	5983.14
430.906	5804.97
431.114	6065.06
431.321	6220.71
431.528	6323.1
431.736	6716.31
431.943	7035.8
432.15	6970.26
432.358	6728.6
432.565	7349.14
432.772	7336.85
432.979	7619.47
433.187	7783.31
433.394	7732.11
433.601	8504.19
433.808	8330.11
434.016	8147.84
434.223	8510.33
434.43	9098.1
434.637	8954.74
434.844	9577.33
435.052	9825.13
435.259	9597.81
435.466	9825.13
435.673	9487.22
435.88	10281.83
436.087	10629.98
436.294	10810.2
436.501	10462.05
436.708	10883.93
436.915	11221.84
437.122	11529.04
437.329	11440.98
437.537	11971.4
437.743	12198.73
437.95	12170.05
438.157	12739.39
438.364	13056.82
438.571	13085.5
438.778	13230.9
438.985	14533.41
439.192	13929.26
439.399	14342.95
439.606	14011.18
439.813	14670.62
440.02	15766.29
440.227	15483.67
440.433	15174.42
440.64	15946.51
440.847	15635.22
441.054	16358.15
441.261	16943.87
441.467	16909.05
441.674	17378.04
441.881	18012.91
442.088	17752.82
442.294	17740.53
442.501	17961.71
442.708	18518.76
442.914	19393.24
443.121	20296.39
443.328	19847.89
443.534	20923.07
443.741	20273.87
443.948	20292.3
444.154	21719.73
444.361	21609.14
444.568	21430.97
444.774	21682.87
444.981	21852.85
445.187	22835.88
445.394	23487.13
445.6	23274.14
445.807	25256.57
446.013	24222.35
446.22	24773.25
446.426	25815.67
446.633	25860.73
446.839	26675.82
447.046	25766.52
447.252	27191.91
447.459	27062.88
447.665	27173.47
447.871	28406.35
448.078	29463.1
448.284	28154.45
448.491	28891.72
448.697	29985.33
448.903	30935.59
449.11	30591.53
449.316	29915.7
449.522	30779.95
449.728	31179.3
449.935	31431.2
450.141	31842.84
450.347	32338.45
450.553	31582.75
450.76	31808.03
450.966	33040.9
451.172	32332.31
451.378	33559.04
451.584	32334.35
451.791	33466.88
451.997	33180.17
452.203	33747.45
452.409	33794.56
452.615	33716.73
452.821	32412.18
453.027	32166.42
453.233	33745.41
453.44	32752.14
453.646	32848.39
453.852	32950.79
454.058	33647.1
454.264	32250.39
454.47	32934.41
454.676	32451.09
454.882	33374.72
455.088	30374.45
455.294	30777.9
455.5	30964.26
455.705	31607.33
455.911	30265.91
456.117	29649.47
456.323	29426.24
456.529	27865.69
456.735	29188.67
456.941	28320.34
457.147	27621.98
457.352	27021.92
457.558	26577.51
457.764	26604.14
457.97	26374.77
458.176	25707.13
458.381	25444.99
458.587	24177.3
458.793	24427.15
458.999	23218.85
459.204	24730.25
459.41	24267.41
459.616	22454.95
459.821	22319.79
460.027	22436.52
460.233	21760.69
460.438	20738.76
460.644	21101.25
460.85	19997.39
461.055	19745.49
461.261	19692.24
461.466	18313.96
461.672	17681.14
461.878	18916.06
462.083	17658.61
462.289	17511.16
462.494	17298.17
462.7	16665.35
462.905	16050.96
463.111	16530.18
463.316	16366.34
463.522	16245.51
463.727	16081.67
463.932	16134.92
464.138	16309
464.343	16122.63
464.549	15682.32
464.754	16247.56
464.959	15981.32
465.165	15930.12
465.37	15137.56
465.575	14809.89
465.781	15500.05
465.986	15555.35
466.191	14973.72
466.397	14752.54
466.602	14082.86
466.807	14433.06
467.012	14474.02
467.218	14392.1
467.423	14396.2
467.628	14312.23
467.833	14807.84
468.038	14445.35
468.244	13988.65
