Data from USB4F104151__47__12-01-31-990.txt Node

Date: Fri Mar 14 12:01:31 EDT 2025
User: louis
Spectrometer: USB4F10415
Trigger mode: 4
Integration Time (sec): 2.000000E-2
Scans to average: 1
Electric dark correction enabled: true
Nonlinearity correction enabled: false
Boxcar width: 0
XAxis mode: Wavelengths
Number of Pixels in Spectrum: 3648
>>>>>Begin Spectral Data<<<<<
178.204	-53.59
178.424	-53.59
178.644	-53.59
178.864	-84.31
179.084	-37.2
179.304	-22.87
179.524	65.19
179.744	-69.97
179.964	44.71
180.184	-10.58
180.404	-24.92
180.624	-2.39
180.844	1.71
181.064	-20.82
181.283	-39.25
181.503	30.38
181.723	48.81
181.943	20.14
182.163	40.62
182.383	-6.49
182.602	22.19
182.822	22.19
183.042	20.14
183.262	30.38
183.482	71.34
183.701	34.47
183.921	20.14
184.141	-26.96
184.361	59.05
184.58	-18.77
184.8	-24.92
185.02	57
185.239	34.47
185.459	46.76
185.679	54.95
185.898	-10.58
186.118	95.91
186.338	-20.82
186.557	38.57
186.777	7.85
186.997	75.43
187.216	87.72
187.436	50.86
187.655	24.23
187.875	48.81
188.095	5.8
188.314	36.52
188.534	42.67
188.753	38.57
188.973	-10.58
189.192	100.01
189.412	65.19
189.631	50.86
189.851	61.1
190.07	52.91
190.29	93.87
190.509	-65.88
190.729	-24.92
190.948	57
191.168	110.25
191.387	-4.44
191.607	20.14
191.826	57
192.045	48.81
192.265	85.67
192.484	52.91
192.704	-33.11
192.923	-14.68
193.142	87.72
193.362	50.86
193.581	22.19
193.8	-18.77
194.02	22.19
194.239	18.09
194.458	20.14
194.678	-29.01
194.897	89.77
195.116	40.62
195.335	91.82
195.555	3.75
195.774	57
195.993	36.52
196.212	54.95
196.432	102.06
196.651	7.85
196.87	48.81
197.089	-0.34
197.308	52.91
197.528	42.67
197.747	-51.54
197.966	40.62
198.185	50.86
198.404	83.63
198.623	46.76
198.842	36.52
199.062	110.25
199.281	110.25
199.5	26.28
199.719	18.09
199.938	34.47
200.157	11.95
200.376	46.76
200.595	13.99
200.814	120.49
201.033	-12.63
201.252	34.47
201.471	-51.54
201.69	87.72
201.909	13.99
202.128	18.09
202.347	30.38
202.566	-37.2
202.785	67.24
203.004	11.95
203.223	77.48
203.442	-22.87
203.661	40.62
203.879	16.04
204.098	-35.16
204.317	3.75
204.536	11.95
204.755	16.04
204.974	22.19
205.193	44.71
205.411	54.95
205.63	46.76
205.849	-10.58
206.068	85.67
206.287	-0.34
206.505	-37.2
206.724	22.19
206.943	44.71
207.162	-0.34
207.381	87.72
207.599	-33.11
207.818	-14.68
208.037	-0.34
208.255	87.72
208.474	30.38
208.693	40.62
208.911	1.71
209.13	75.43
209.349	30.38
209.567	-45.4
209.786	50.86
210.005	77.48
210.223	46.76
210.442	32.43
210.661	-6.49
210.879	-12.63
211.098	3.75
211.316	24.23
211.535	-8.53
211.753	7.85
211.972	44.71
212.191	-57.68
212.409	-47.44
212.628	18.09
212.846	1.71
213.065	-16.73
213.283	40.62
213.502	5.8
213.72	20.14
213.938	42.67
214.157	-4.44
214.375	36.52
214.594	97.96
214.812	81.58
215.031	-20.82
215.249	-6.49
215.467	67.24
215.686	69.29
215.904	22.19
216.122	-18.77
216.341	112.3
216.559	-10.58
216.778	46.76
216.996	-4.44
217.214	81.58
217.432	-72.02
217.651	-31.06
217.869	42.67
218.087	-33.11
218.306	59.05
218.524	67.24
218.742	57
218.96	26.28
219.179	26.28
219.397	46.76
219.615	20.14
219.833	97.96
220.051	20.14
220.27	75.43
220.488	-33.11
220.706	79.53
220.924	73.39
221.142	18.09
221.36	20.14
221.578	-24.92
221.796	24.23
222.015	1.71
222.233	30.38
222.451	63.15
222.669	-12.63
222.887	46.76
223.105	-24.92
223.323	67.24
223.541	38.57
223.759	36.52
223.977	28.33
224.195	34.47
224.413	11.95
224.631	46.76
224.849	24.23
225.067	65.19
225.285	-8.53
225.503	71.34
225.721	-22.87
225.939	61.1
226.157	54.95
226.375	44.71
226.592	63.15
226.81	-16.73
227.028	-14.68
227.246	40.62
227.464	50.86
227.682	7.85
227.9	36.52
228.117	69.29
228.335	54.95
228.553	42.67
228.771	36.52
228.989	30.38
229.206	63.15
229.424	24.23
229.642	11.95
229.86	11.95
230.077	1.71
230.295	7.85
230.513	93.87
230.731	11.95
230.948	110.25
231.166	93.87
231.384	93.87
231.601	30.38
231.819	108.2
232.037	91.82
232.254	54.95
232.472	9.9
232.689	-22.87
232.907	50.86
233.125	54.95
233.342	7.85
233.56	91.82
233.777	44.71
233.995	-8.53
234.213	87.72
234.43	36.52
234.648	67.24
234.865	54.95
235.083	30.38
235.3	79.53
235.518	22.19
235.735	67.24
235.953	112.3
236.17	-26.96
236.388	85.67
236.605	57
236.822	77.48
237.04	110.25
237.257	81.58
237.475	-2.39
237.692	32.43
237.909	59.05
238.127	50.86
238.344	30.38
238.562	110.25
238.779	93.87
238.996	97.96
239.214	-31.06
239.431	50.86
239.648	63.15
239.865	22.19
240.083	83.63
240.3	134.82
240.517	130.73
240.735	36.52
240.952	50.86
241.169	52.91
241.386	65.19
241.603	-22.87
241.821	-20.82
242.038	97.96
242.255	38.57
242.472	36.52
242.689	118.44
242.907	36.52
243.124	22.19
243.341	7.85
243.558	7.85
243.775	-8.53
243.992	67.24
244.209	26.28
244.426	65.19
244.643	97.96
244.86	57
245.078	28.33
245.295	71.34
245.512	59.05
245.729	-12.63
245.946	61.1
246.163	11.95
246.38	81.58
246.597	44.71
246.814	-8.53
247.031	77.48
247.248	-8.53
247.464	-12.63
247.681	118.44
247.898	-18.77
248.115	22.19
248.332	50.86
248.549	38.57
248.766	132.78
248.983	67.24
249.2	3.75
249.417	9.9
249.633	46.76
249.85	18.09
250.067	38.57
250.284	52.91
250.501	26.28
250.717	46.76
250.934	-12.63
251.151	7.85
251.368	11.95
251.585	32.43
251.801	89.77
252.018	13.99
252.235	7.85
252.451	63.15
252.668	93.87
252.885	26.28
253.102	36.52
253.318	13.99
253.535	5.8
253.752	69.29
253.968	87.72
254.185	-12.63
254.401	22.19
254.618	40.62
254.835	57
255.051	7.85
255.268	59.05
255.484	79.53
255.701	-2.39
255.917	18.09
256.134	63.15
256.351	-37.2
256.567	20.14
256.784	128.68
257	11.95
257.217	104.11
257.433	-6.49
257.65	-0.34
257.866	57
258.082	5.8
258.299	26.28
258.515	71.34
258.732	50.86
258.948	24.23
259.165	59.05
259.381	16.04
259.597	-2.39
259.814	36.52
260.03	22.19
260.246	40.62
260.463	-22.87
260.679	89.77
260.895	22.19
261.112	3.75
261.328	22.19
261.544	-10.58
261.761	32.43
261.977	143.02
262.193	-12.63
262.409	52.91
262.626	81.58
262.842	52.91
263.058	57
263.274	-2.39
263.49	-6.49
263.707	63.15
263.923	83.63
264.139	44.71
264.355	95.91
264.571	104.11
264.787	57
265.004	67.24
265.22	28.33
265.436	34.47
265.652	46.76
265.868	40.62
266.084	57
266.3	46.76
266.516	93.87
266.732	36.52
266.948	13.99
267.164	36.52
267.38	16.04
267.596	59.05
267.812	71.34
268.028	63.15
268.244	-37.2
268.46	46.76
268.676	3.75
268.892	48.81
269.108	-0.34
269.324	59.05
269.54	-8.53
269.756	79.53
269.972	3.75
270.188	-18.77
270.403	30.38
270.619	3.75
270.835	34.47
271.051	116.39
271.267	44.71
271.483	59.05
271.698	95.91
271.914	46.76
272.13	116.39
272.346	36.52
272.562	63.15
272.777	38.57
272.993	-12.63
273.209	24.23
273.425	57
273.64	44.71
273.856	-12.63
274.072	42.67
274.287	34.47
274.503	50.86
274.719	-8.53
274.934	44.71
275.15	34.47
275.366	-4.44
275.581	42.67
275.797	7.85
276.012	38.57
276.228	40.62
276.444	75.43
276.659	-10.58
276.875	-24.92
277.09	26.28
277.306	44.71
277.521	26.28
277.737	-24.92
277.952	63.15
278.168	18.09
278.383	48.81
278.599	73.39
278.814	11.95
279.03	50.86
279.245	71.34
279.461	40.62
279.676	-2.39
279.892	18.09
280.107	46.76
280.322	-16.73
280.538	57
280.753	34.47
280.969	20.14
281.184	77.48
281.399	81.58
281.615	59.05
281.83	75.43
282.045	52.91
282.26	81.58
282.476	57
282.691	13.99
282.906	69.29
283.122	5.8
283.337	48.81
283.552	63.15
283.767	63.15
283.983	140.97
284.198	83.63
284.413	57
284.628	20.14
284.843	97.96
285.058	75.43
285.274	11.95
285.489	18.09
285.704	81.58
285.919	-20.82
286.134	100.01
286.349	40.62
286.564	42.67
286.779	83.63
286.995	22.19
287.21	-31.06
287.425	18.09
287.64	44.71
287.855	61.1
288.07	16.04
288.285	54.95
288.5	57
288.715	114.34
288.93	32.43
289.145	120.49
289.36	93.87
289.575	-53.59
289.79	95.91
290.004	-43.35
290.219	1.71
290.434	-14.68
290.649	48.81
290.864	-31.06
291.079	91.82
291.294	38.57
291.509	44.71
291.724	81.58
291.938	63.15
292.153	67.24
292.368	54.95
292.583	7.85
292.798	75.43
293.012	24.23
293.227	18.09
293.442	7.85
293.657	34.47
293.871	81.58
294.086	48.81
294.301	44.71
294.516	112.3
294.73	50.86
294.945	36.52
295.16	65.19
295.374	93.87
295.589	3.75
295.804	3.75
296.018	3.75
296.233	85.67
296.447	16.04
296.662	50.86
296.877	44.71
297.091	87.72
297.306	-22.87
297.52	69.29
297.735	7.85
297.949	24.23
298.164	73.39
298.378	9.9
298.593	-26.96
298.807	71.34
299.022	18.09
299.236	73.39
299.451	7.85
299.665	71.34
299.88	-12.63
300.094	50.86
300.309	91.82
300.523	9.9
300.737	30.38
300.952	28.33
301.166	93.87
301.381	-12.63
301.595	5.8
301.809	20.14
302.024	24.23
302.238	1.71
302.452	9.9
302.667	22.19
302.881	81.58
303.095	48.81
303.309	61.1
303.524	46.76
303.738	61.1
303.952	-18.77
304.166	-14.68
304.381	48.81
304.595	128.68
304.809	32.43
305.023	18.09
305.237	13.99
305.452	36.52
305.666	48.81
305.88	52.91
306.094	36.52
306.308	85.67
306.522	44.71
306.736	28.33
306.95	91.82
307.164	9.9
307.379	-18.77
307.593	65.19
307.807	36.52
308.021	40.62
308.235	13.99
308.449	24.23
308.663	26.28
308.877	54.95
309.091	44.71
309.305	-26.96
309.519	-8.53
309.733	28.33
309.947	-14.68
310.161	52.91
310.374	28.33
310.588	83.63
310.802	40.62
311.016	128.68
311.23	71.34
311.444	46.76
311.658	7.85
311.872	91.82
312.085	124.58
312.299	83.63
312.513	112.3
312.727	50.86
312.941	32.43
313.154	97.96
313.368	71.34
313.582	9.9
313.796	71.34
314.009	67.24
314.223	81.58
314.437	89.77
314.651	57
314.864	20.14
315.078	7.85
315.292	40.62
315.505	3.75
315.719	63.15
315.933	16.04
316.146	59.05
316.36	59.05
316.573	32.43
316.787	46.76
317.001	-10.58
317.214	57
317.428	75.43
317.641	-31.06
317.855	104.11
318.068	77.48
318.282	5.8
318.495	52.91
318.709	59.05
318.922	28.33
319.136	87.72
319.349	32.43
319.563	95.91
319.776	67.24
319.99	5.8
320.203	65.19
320.417	52.91
320.63	71.34
320.843	85.67
321.057	118.44
321.27	-10.58
321.483	-69.97
321.697	138.92
321.91	-31.06
322.124	36.52
322.337	85.67
322.55	75.43
322.763	28.33
322.977	163.5
323.19	71.34
323.403	3.75
323.617	73.39
323.83	79.53
324.043	87.72
324.256	32.43
324.469	130.73
324.683	83.63
324.896	36.52
325.109	16.04
325.322	3.75
325.535	81.58
325.748	59.05
325.962	155.3
326.175	30.38
326.388	97.96
326.601	65.19
326.814	67.24
327.027	24.23
327.24	9.9
327.453	71.34
327.666	69.29
327.879	30.38
328.092	63.15
328.305	-2.39
328.518	42.67
328.731	59.05
328.944	59.05
329.157	75.43
329.37	63.15
329.583	16.04
329.796	5.8
330.009	73.39
330.222	11.95
330.435	40.62
330.648	57
330.861	16.04
331.073	81.58
331.286	-31.06
331.499	54.95
331.712	38.57
331.925	104.11
332.138	-33.11
332.35	61.1
332.563	81.58
332.776	112.3
332.989	34.47
333.202	65.19
333.414	124.58
333.627	65.19
333.84	46.76
334.053	63.15
334.265	54.95
334.478	102.06
334.691	81.58
334.903	13.99
335.116	-4.44
335.329	97.96
335.541	75.43
335.754	97.96
335.966	36.52
336.179	61.1
336.392	85.67
336.604	36.52
336.817	9.9
337.029	83.63
337.242	16.04
337.454	7.85
337.667	3.75
337.88	46.76
338.092	95.91
338.305	89.77
338.517	79.53
338.729	24.23
338.942	61.1
339.154	85.67
339.367	24.23
339.579	18.09
339.792	73.39
340.004	73.39
340.217	16.04
340.429	42.67
340.641	-8.53
340.854	34.47
341.066	34.47
341.278	118.44
341.491	77.48
341.703	57
341.915	-47.44
342.128	34.47
342.34	85.67
342.552	28.33
342.764	120.49
342.977	24.23
343.189	81.58
343.401	104.11
343.613	7.85
343.826	48.81
344.038	20.14
344.25	89.77
344.462	67.24
344.674	75.43
344.886	16.04
345.099	87.72
345.311	83.63
345.523	63.15
345.735	-22.87
345.947	-22.87
346.159	24.23
346.371	97.96
346.583	48.81
346.795	126.63
347.007	52.91
347.219	24.23
347.431	7.85
347.643	28.33
347.855	-22.87
348.067	79.53
348.279	54.95
348.491	63.15
348.703	89.77
348.915	40.62
349.127	-41.3
349.339	61.1
349.551	-2.39
349.763	57
349.975	95.91
350.187	85.67
350.399	79.53
350.61	24.23
350.822	65.19
351.034	114.34
351.246	75.43
351.458	77.48
351.669	93.87
351.881	71.34
352.093	77.48
352.305	5.8
352.517	71.34
352.728	18.09
352.94	11.95
353.152	61.1
353.363	112.3
353.575	91.82
353.787	120.49
353.999	63.15
354.21	106.15
354.422	22.19
354.633	36.52
354.845	50.86
355.057	44.71
355.268	22.19
355.48	89.77
355.692	1.71
355.903	63.15
356.115	54.95
356.326	-31.06
356.538	95.91
356.749	61.1
356.961	120.49
357.172	36.52
357.384	32.43
357.595	13.99
357.807	-29.01
358.018	83.63
358.23	114.34
358.441	161.45
358.653	91.82
358.864	7.85
359.075	77.48
359.287	57
359.498	67.24
359.709	22.19
359.921	83.63
360.132	-8.53
360.344	100.01
360.555	1.71
360.766	79.53
360.977	36.52
361.189	134.82
361.4	95.91
361.611	89.77
361.823	57
362.034	67.24
362.245	-0.34
362.456	34.47
362.667	-4.44
362.879	85.67
363.09	38.57
363.301	26.28
363.512	65.19
363.723	67.24
363.935	75.43
364.146	118.44
364.357	9.9
364.568	34.47
364.779	-16.73
364.99	100.01
365.201	22.19
365.412	69.29
365.623	28.33
365.834	97.96
366.045	52.91
366.256	67.24
366.467	93.87
366.678	50.86
366.889	130.73
367.1	89.77
367.311	81.58
367.522	83.63
367.733	130.73
367.944	28.33
368.155	63.15
368.366	28.33
368.577	75.43
368.788	112.3
368.999	-35.16
369.209	40.62
369.42	79.53
369.631	147.11
369.842	18.09
370.053	57
370.264	106.15
370.474	83.63
370.685	89.77
370.896	40.62
371.107	85.67
371.317	122.54
371.528	52.91
371.739	79.53
371.95	42.67
372.16	149.16
372.371	16.04
372.582	34.47
372.792	34.47
373.003	106.15
373.214	26.28
373.424	112.3
373.635	95.91
373.846	173.74
374.056	83.63
374.267	138.92
374.477	100.01
374.688	132.78
374.898	34.47
375.109	97.96
375.319	3.75
375.53	138.92
375.74	106.15
375.951	59.05
376.161	91.82
376.372	114.34
376.582	16.04
376.793	81.58
377.003	104.11
377.214	69.29
377.424	20.14
377.635	40.62
377.845	11.95
378.055	97.96
378.266	75.43
378.476	54.95
378.686	93.87
378.897	50.86
379.107	52.91
379.317	54.95
379.528	34.47
379.738	100.01
379.948	-16.73
380.158	120.49
380.369	108.2
380.579	79.53
380.789	73.39
380.999	38.57
381.21	38.57
381.42	75.43
381.63	93.87
381.84	36.52
382.05	175.78
382.261	42.67
382.471	122.54
382.681	93.87
382.891	54.95
383.101	81.58
383.311	59.05
383.521	120.49
383.731	112.3
383.941	61.1
384.151	69.29
384.361	79.53
384.571	75.43
384.781	32.43
384.991	143.02
385.201	91.82
385.411	73.39
385.621	100.01
385.831	95.91
386.041	106.15
386.251	24.23
386.461	89.77
386.671	69.29
386.881	81.58
387.091	38.57
387.301	81.58
387.511	73.39
387.72	40.62
387.93	85.67
388.14	120.49
388.35	30.38
388.56	134.82
388.769	30.38
388.979	20.14
389.189	-24.92
389.399	138.92
389.609	114.34
389.818	95.91
390.028	65.19
390.238	118.44
390.447	87.72
390.657	102.06
390.867	50.86
391.076	65.19
391.286	89.77
391.496	110.25
391.705	102.06
391.915	89.77
392.125	132.78
392.334	130.73
392.544	85.67
392.753	71.34
392.963	126.63
393.172	73.39
393.382	124.58
393.591	126.63
393.801	54.95
394.01	186.02
394.22	134.82
394.429	116.39
394.639	75.43
394.848	87.72
395.058	79.53
395.267	163.5
395.477	186.02
395.686	114.34
395.895	110.25
396.105	147.11
396.314	106.15
396.524	128.68
396.733	106.15
396.942	73.39
397.152	128.68
397.361	147.11
397.57	126.63
397.78	145.06
397.989	93.87
398.198	145.06
398.407	120.49
398.617	153.26
398.826	159.4
399.035	140.97
399.244	192.17
399.453	97.96
399.663	95.91
399.872	186.02
400.081	126.63
400.29	249.51
400.499	159.4
400.708	163.5
400.917	130.73
401.127	112.3
401.336	143.02
401.545	155.3
401.754	151.21
401.963	161.45
402.172	208.55
402.381	132.78
402.59	52.91
402.799	153.26
403.008	169.64
403.217	196.26
403.426	136.87
403.635	120.49
403.844	165.54
404.053	159.4
404.262	196.26
404.471	265.89
404.68	161.45
404.888	161.45
405.097	171.69
405.306	194.22
405.515	229.03
405.724	188.07
405.933	239.27
406.142	259.75
406.35	280.23
406.559	186.02
406.768	241.32
406.977	286.37
407.185	196.26
407.394	288.42
407.603	243.37
407.812	292.52
408.02	304.81
408.229	327.33
408.438	276.13
408.646	319.14
408.855	280.23
409.064	304.81
409.272	372.39
409.481	325.29
409.69	429.73
409.898	323.24
410.107	343.72
410.315	462.5
410.524	476.84
410.733	384.68
410.941	433.83
411.15	489.12
411.358	462.5
411.567	519.84
411.775	505.51
411.984	499.36
412.192	573.09
412.401	564.9
412.609	614.05
412.818	667.3
413.026	607.91
413.234	679.58
413.443	693.92
413.651	693.92
413.86	698.02
414.068	779.93
414.276	810.65
414.485	732.83
414.693	904.86
414.901	888.48
415.11	896.67
415.318	908.96
415.526	917.15
415.734	1052.31
415.943	1058.46
416.151	1072.79
416.359	1115.8
416.567	1244.82
416.776	1158.81
416.984	1371.8
417.192	1312.41
417.4	1351.32
417.608	1273.5
417.817	1369.75
418.025	1457.81
418.233	1509.01
418.441	1539.73
418.649	1564.31
418.857	1750.67
419.065	1678.99
419.273	1685.14
419.481	1722
419.689	1934.99
419.897	1906.32
420.105	2047.63
420.313	2078.35
420.521	2158.22
420.729	2123.4
420.937	2270.86
421.145	2270.86
421.353	2449.03
421.561	2643.59
421.769	2653.83
421.977	2719.36
422.185	2739.84
422.393	2829.95
422.601	3149.43
422.809	3180.15
423.017	3096.19
423.224	3321.46
423.432	3335.8
423.64	3280.5
423.848	3620.47
424.056	3595.89
424.263	3833.46
424.471	3794.54
424.679	3860.08
424.887	4210.28
425.094	4267.63
425.302	4234.86
425.51	4501.09
425.718	4554.34
425.925	4689.51
426.133	4732.51
426.341	5070.43
426.548	5389.91
426.756	5410.39
426.964	5455.45
427.171	5670.48
427.379	5899.86
427.586	6067.79
427.794	6184.52
428.001	6403.66
428.209	6757.96
428.417	6669.89
428.624	7065.15
428.832	7130.69
429.039	7210.56
429.247	7079.49
429.454	7630.39
429.662	8322.6
429.869	7548.47
430.076	8400.43
430.284	8244.78
430.491	8455.72
430.699	8764.96
430.906	8773.16
431.114	8932.9
431.321	9248.29
431.528	9541.15
431.736	10028.56
431.943	10608.14
432.15	10198.54
432.358	10456.59
432.565	11044.35
432.772	10978.82
432.979	11572.73
433.187	11595.26
433.394	11951.6
433.601	12596.71
433.808	12627.43
434.016	12455.4
434.223	12989.92
434.43	13825.5
434.637	13637.08
434.844	14489.04
435.052	14546.38
435.259	14667.21
435.466	14945.73
435.673	14446.03
435.88	15613.37
436.087	16426.42
436.294	16356.79
436.501	15963.58
436.708	16309.68
436.915	16971.18
437.122	17812.89
437.329	17692.06
437.537	18384.27
437.743	18302.36
437.95	18529.68
438.157	19420.55
438.364	19983.74
438.571	20010.36
438.778	20084.09
438.985	21882.2
439.192	21075.31
439.399	22011.23
439.606	21161.32
439.813	22478.16
440.02	23790.91
440.227	23424.33
440.433	23262.54
440.64	23708.99
440.847	23819.58
441.054	24356.15
441.261	26031.39
441.467	25859.36
441.674	26420.5
441.881	27108.62
442.088	27063.57
442.294	26846.48
442.501	27444.49
442.708	28171.52
442.914	29101.29
443.121	30354.65
443.328	29723.88
443.534	31671.5
443.741	30842.07
443.948	30158.05
444.154	32611.51
444.361	32453.82
444.568	32613.56
444.774	32421.05
444.981	33019.06
445.187	34055.33
445.394	35241.1
445.6	35167.38
445.807	38364.26
446.013	36725.88
446.22	37758.06
446.426	38659.16
446.633	39087.19
446.839	40260.68
447.046	38925.4
447.252	40688.7
447.459	40625.21
447.665	40686.65
447.871	42748.96
448.078	43586.58
448.284	42095.66
448.491	43111.45
448.697	44565.51
448.903	45278.2
449.11	45452.28
449.316	45177.85
449.522	45794.29
449.728	47094.75
449.935	47252.44
450.141	47059.93
450.347	48090.06
450.553	46736.35
450.76	47289.31
450.966	48825.28
451.172	48368.58
451.378	49408.95
451.584	48223.18
451.791	49337.27
451.997	49095.61
452.203	50199.47
452.409	50252.72
452.615	49492.92
452.821	48403.4
453.027	47682.52
453.233	49400.76
453.44	47854.54
453.646	48464.84
453.852	48757.7
454.058	49159.1
454.264	47481.81
454.47	48823.23
454.676	47819.73
454.882	49042.37
455.088	45102.07
455.294	45415.41
455.5	46111.72
455.705	46355.43
455.911	44532.74
456.117	43922.44
456.323	43418.64
456.529	41301.04
456.735	42376.23
456.941	41776.17
457.147	40746.04
457.352	39740.49
457.558	39189.59
457.764	39715.92
457.97	38556.77
458.176	38093.93
458.381	37989.48
458.587	35849.35
458.793	35689.61
458.999	33963.17
459.204	36428.93
459.41	35456.14
459.616	32611.51
459.821	33125.55
460.027	32672.95
460.233	32212.16
460.438	30676.18
460.644	30854.36
460.85	29875.43
461.055	29179.12
461.261	28959.98
461.466	26969.36
461.672	25980.19
461.878	28103.93
462.083	26432.79
462.289	25570.6
462.494	25255.21
462.7	23997.76
462.905	23344.45
463.111	24182.07
463.316	24235.32
463.522	23958.85
463.727	23940.41
463.932	23930.17
464.138	23786.82
464.343	23944.51
464.549	23117.13
464.754	23647.55
464.959	23700.8
465.165	23379.27
465.37	22365.53
465.575	21894.49
465.781	22861.13
465.986	23004.49
466.191	22097.24
466.397	21554.53
466.602	20610.42
466.807	21388.64
467.012	21247.33
467.218	21200.23
467.423	20901.23
