Data from USB4F104151__70__12-01-57-687.txt Node

Date: Fri Mar 14 12:01:57 EDT 2025
User: louis
Spectrometer: USB4F10415
Trigger mode: 4
Integration Time (sec): 2.000000E-2
Scans to average: 1
Electric dark correction enabled: true
Nonlinearity correction enabled: false
Boxcar width: 0
XAxis mode: Wavelengths
Number of Pixels in Spectrum: 3648
>>>>>Begin Spectral Data<<<<<
178.204	-47.96
178.424	-47.96
178.644	-47.96
178.864	-68.44
179.084	-119.64
179.304	-56.15
179.524	-31.57
179.744	-21.33
179.964	42.15
180.184	46.25
180.404	3.24
180.624	1.19
180.844	31.91
181.064	-37.72
181.283	42.15
181.503	-23.38
181.723	3.24
181.943	-62.29
182.163	107.69
182.383	38.06
182.602	25.77
182.822	50.35
183.042	15.53
183.262	56.49
183.482	-25.43
183.701	-37.72
183.921	-13.14
184.141	44.2
184.361	-9.05
184.58	29.87
184.8	70.83
185.02	19.63
185.239	72.87
185.459	13.48
185.679	11.43
185.898	-9.05
186.118	-41.81
186.338	46.25
186.557	-45.91
186.777	-7
186.997	103.59
187.216	-31.57
187.436	136.36
187.655	-64.34
187.875	9.39
188.095	62.63
188.314	72.87
188.534	70.83
188.753	11.43
188.973	-9.05
189.192	19.63
189.412	68.78
189.631	9.39
189.851	15.53
190.07	27.82
190.29	5.29
190.509	13.48
190.729	60.59
190.948	109.74
191.168	105.64
191.387	115.88
191.607	21.67
191.826	29.87
192.045	13.48
192.265	40.11
192.484	54.44
192.704	19.63
192.923	3.24
193.142	-45.91
193.362	-45.91
193.581	128.17
193.8	-0.85
194.02	126.12
194.239	19.63
194.458	3.24
194.678	70.83
194.897	13.48
195.116	9.39
195.335	-23.38
195.555	-0.85
195.774	74.92
195.993	5.29
196.212	109.74
196.432	56.49
196.651	38.06
196.87	13.48
197.089	93.35
197.308	40.11
197.528	50.35
197.747	40.11
197.966	25.77
198.185	101.55
198.404	3.24
198.623	42.15
198.842	74.92
199.062	36.01
199.281	1.19
199.5	-2.9
199.719	27.82
199.938	7.34
200.157	52.39
200.376	58.54
200.595	58.54
200.814	-31.57
201.033	-7
201.252	76.97
201.471	54.44
201.69	7.34
201.909	40.11
202.128	-45.91
202.347	31.91
202.566	25.77
202.785	7.34
203.004	7.34
203.223	97.45
203.442	3.24
203.661	5.29
203.879	-35.67
204.098	93.35
204.317	-17.24
204.536	99.5
204.755	33.96
204.974	13.48
205.193	7.34
205.411	48.3
205.63	-15.19
205.849	79.02
206.068	7.34
206.287	-66.39
206.505	54.44
206.724	58.54
206.943	29.87
207.162	17.58
207.381	64.68
207.599	17.58
207.818	46.25
208.037	17.58
208.255	9.39
208.474	-54.1
208.693	50.35
208.911	9.39
209.13	-0.85
209.349	58.54
209.567	42.15
209.786	95.4
210.005	15.53
210.223	3.24
210.442	-0.85
210.661	-17.24
210.879	48.3
211.098	46.25
211.316	23.72
211.535	72.87
211.753	54.44
211.972	-29.52
212.191	1.19
212.409	3.24
212.628	1.19
212.846	13.48
213.065	89.26
213.283	89.26
213.502	76.97
213.72	48.3
213.938	21.67
214.157	113.83
214.375	-7
214.594	11.43
214.812	25.77
215.031	70.83
215.249	50.35
215.467	17.58
215.686	-9.05
215.904	56.49
216.122	46.25
216.341	48.3
216.559	-9.05
216.778	40.11
216.996	87.21
217.214	93.35
217.432	-17.24
217.651	85.16
217.869	54.44
218.087	-19.29
218.306	-37.72
218.524	72.87
218.742	40.11
218.96	91.31
219.179	-15.19
219.397	-2.9
219.615	66.73
219.833	-27.48
220.051	-39.76
220.27	107.69
220.488	13.48
220.706	107.69
220.924	44.2
221.142	42.15
221.36	25.77
221.578	38.06
221.796	29.87
222.015	-0.85
222.233	54.44
222.451	58.54
222.669	-39.76
222.887	117.93
223.105	-25.43
223.323	3.24
223.541	62.63
223.759	56.49
223.977	-15.19
224.195	29.87
224.413	60.59
224.631	44.2
224.849	19.63
225.067	60.59
225.285	103.59
225.503	21.67
225.721	-62.29
225.939	52.39
226.157	-15.19
226.375	-19.29
226.592	36.01
226.81	40.11
227.028	44.2
227.246	1.19
227.464	21.67
227.682	93.35
227.9	33.96
228.117	50.35
228.335	9.39
228.553	44.2
228.771	-23.38
228.989	107.69
229.206	46.25
229.424	3.24
229.642	7.34
229.86	87.21
230.077	11.43
230.295	52.39
230.513	-15.19
230.731	25.77
230.948	-0.85
231.166	27.82
231.384	-45.91
231.601	23.72
231.819	107.69
232.037	54.44
232.254	-7
232.472	60.59
232.689	46.25
232.907	76.97
233.125	124.07
233.342	-2.9
233.56	83.11
233.777	60.59
233.995	52.39
234.213	48.3
234.43	11.43
234.648	66.73
234.865	-11.09
235.083	52.39
235.3	-2.9
235.518	33.96
235.735	44.2
235.953	79.02
236.17	-31.57
236.388	62.63
236.605	-11.09
236.822	79.02
237.04	93.35
237.257	5.29
237.475	-35.67
237.692	70.83
237.909	33.96
238.127	31.91
238.344	-13.14
238.562	60.59
238.779	-64.34
238.996	-13.14
239.214	1.19
239.431	23.72
239.648	-7
239.865	58.54
240.083	29.87
240.3	46.25
240.517	-7
240.735	27.82
240.952	19.63
241.169	-4.95
241.386	23.72
241.603	46.25
241.821	25.77
242.038	111.78
242.255	17.58
242.472	-9.05
242.689	72.87
242.907	76.97
243.124	11.43
243.341	15.53
243.558	64.68
243.775	15.53
243.992	-0.85
244.209	36.01
244.426	58.54
244.643	85.16
244.86	31.91
245.078	27.82
245.295	79.02
245.512	99.5
245.729	13.48
245.946	21.67
246.163	54.44
246.38	31.91
246.597	64.68
246.814	97.45
247.031	68.78
247.248	40.11
247.464	36.01
247.681	42.15
247.898	48.3
248.115	95.4
248.332	128.17
248.549	33.96
248.766	48.3
248.983	27.82
249.2	-27.48
249.417	95.4
249.633	-19.29
249.85	60.59
250.067	36.01
250.284	27.82
250.501	17.58
250.717	40.11
250.934	-4.95
251.151	25.77
251.368	25.77
251.585	46.25
251.801	-90.96
252.018	60.59
252.235	29.87
252.451	-13.14
252.668	3.24
252.885	58.54
253.102	81.07
253.318	25.77
253.535	36.01
253.752	-23.38
253.968	17.58
254.185	-0.85
254.401	70.83
254.618	46.25
254.835	23.72
255.051	119.98
255.268	15.53
255.484	74.92
255.701	36.01
255.917	62.63
256.134	3.24
256.351	27.82
256.567	11.43
256.784	42.15
257	23.72
257.217	81.07
257.433	44.2
257.65	60.59
257.866	27.82
258.082	-31.57
258.299	-17.24
258.515	50.35
258.732	52.39
258.948	19.63
259.165	1.19
259.381	97.45
259.597	50.35
259.814	1.19
260.03	27.82
260.246	29.87
260.463	52.39
260.679	81.07
260.895	52.39
261.112	105.64
261.328	7.34
261.544	-13.14
261.761	70.83
261.977	42.15
262.193	46.25
262.409	17.58
262.626	56.49
262.842	11.43
263.058	-11.09
263.274	74.92
263.49	52.39
263.707	74.92
263.923	-4.95
264.139	38.06
264.355	103.59
264.571	68.78
264.787	21.67
265.004	-11.09
265.22	29.87
265.436	83.11
265.652	-9.05
265.868	-7
266.084	-11.09
266.3	-13.14
266.516	13.48
266.732	11.43
266.948	-37.72
267.164	-13.14
267.38	-21.33
267.596	-31.57
267.812	107.69
268.028	68.78
268.244	58.54
268.46	-43.86
268.676	58.54
268.892	50.35
269.108	-15.19
269.324	-23.38
269.54	60.59
269.756	36.01
269.972	19.63
270.188	-11.09
270.403	-31.57
270.619	-17.24
270.835	66.73
271.051	-41.81
271.267	-2.9
271.483	3.24
271.698	52.39
271.914	48.3
272.13	56.49
272.346	-2.9
272.562	-7
272.777	107.69
272.993	42.15
273.209	21.67
273.425	1.19
273.64	7.34
273.856	3.24
274.072	13.48
274.287	21.67
274.503	76.97
274.719	72.87
274.934	1.19
275.15	-0.85
275.366	19.63
275.581	70.83
275.797	76.97
276.012	21.67
276.228	27.82
276.444	27.82
276.659	81.07
276.875	58.54
277.09	9.39
277.306	7.34
277.521	70.83
277.737	31.91
277.952	66.73
278.168	-2.9
278.383	21.67
278.599	11.43
278.814	95.4
279.03	72.87
279.245	54.44
279.461	42.15
279.676	29.87
279.892	-2.9
280.107	-21.33
280.322	13.48
280.538	40.11
280.753	-29.52
280.969	3.24
281.184	62.63
281.399	60.59
281.615	38.06
281.83	29.87
282.045	15.53
282.26	31.91
282.476	11.43
282.691	72.87
282.906	70.83
283.122	52.39
283.337	46.25
283.552	46.25
283.767	31.91
283.983	-39.76
284.198	46.25
284.413	17.58
284.628	-15.19
284.843	48.3
285.058	21.67
285.274	72.87
285.489	-0.85
285.704	70.83
285.919	-19.29
286.134	60.59
286.349	52.39
286.564	48.3
286.779	103.59
286.995	19.63
287.21	27.82
287.425	33.96
287.64	60.59
287.855	36.01
288.07	56.49
288.285	68.78
288.5	27.82
288.715	13.48
288.93	31.91
289.145	31.91
289.36	13.48
289.575	46.25
289.79	52.39
290.004	48.3
290.219	89.26
290.434	48.3
290.649	29.87
290.864	3.24
291.079	-35.67
291.294	15.53
291.509	29.87
291.724	-41.81
291.938	68.78
292.153	15.53
292.368	50.35
292.583	27.82
292.798	36.01
293.012	-17.24
293.227	36.01
293.442	36.01
293.657	-13.14
293.871	89.26
294.086	62.63
294.301	97.45
294.516	81.07
294.73	9.39
294.945	38.06
295.16	9.39
295.374	-33.62
295.589	15.53
295.804	15.53
296.018	13.48
296.233	74.92
296.447	66.73
296.662	38.06
296.877	15.53
297.091	27.82
297.306	15.53
297.52	19.63
297.735	-56.15
297.949	46.25
298.164	3.24
298.378	46.25
298.593	21.67
298.807	31.91
299.022	21.67
299.236	107.69
299.451	62.63
299.665	17.58
299.88	13.48
300.094	40.11
300.309	64.68
300.523	1.19
300.737	58.54
300.952	66.73
301.166	54.44
301.381	52.39
301.595	21.67
301.809	46.25
302.024	101.55
302.238	11.43
302.452	42.15
302.667	29.87
302.881	62.63
303.095	54.44
303.309	179.37
303.524	15.53
303.738	42.15
303.952	15.53
304.166	46.25
304.381	7.34
304.595	7.34
304.809	27.82
305.023	91.31
305.237	33.96
305.452	-29.52
305.666	7.34
305.88	74.92
306.094	40.11
306.308	27.82
306.522	23.72
306.736	11.43
306.95	52.39
307.164	-2.9
307.379	23.72
307.593	70.83
307.807	111.78
308.021	38.06
308.235	72.87
308.449	15.53
308.663	15.53
308.877	95.4
309.091	7.34
309.305	-15.19
309.519	-4.95
309.733	5.29
309.947	17.58
310.161	40.11
310.374	21.67
310.588	97.45
310.802	-47.96
311.016	7.34
311.23	-27.48
311.444	25.77
311.658	66.73
311.872	81.07
312.085	79.02
312.299	115.88
312.513	-47.96
312.727	46.25
312.941	38.06
313.154	33.96
313.368	54.44
313.582	48.3
313.796	58.54
314.009	-19.29
314.223	25.77
314.437	9.39
314.651	17.58
314.864	-0.85
315.078	15.53
315.292	11.43
315.505	1.19
315.719	7.34
315.933	19.63
316.146	25.77
316.36	25.77
316.573	13.48
316.787	50.35
317.001	1.19
317.214	21.67
317.428	40.11
317.641	23.72
317.855	13.48
318.068	29.87
318.282	38.06
318.495	52.39
318.709	79.02
318.922	7.34
319.136	144.55
319.349	60.59
319.563	3.24
319.776	1.19
319.99	46.25
320.203	66.73
320.417	19.63
320.63	54.44
320.843	79.02
321.057	3.24
321.27	38.06
321.483	-13.14
321.697	124.07
321.91	52.39
322.124	-13.14
322.337	52.39
322.55	50.35
322.763	21.67
322.977	36.01
323.19	19.63
323.403	-4.95
323.617	76.97
323.83	7.34
324.043	79.02
324.256	33.96
324.469	3.24
324.683	101.55
324.896	48.3
325.109	48.3
325.322	-0.85
325.535	25.77
325.748	3.24
325.962	58.54
326.175	5.29
326.388	126.12
326.601	76.97
326.814	70.83
327.027	5.29
327.24	27.82
327.453	-27.48
327.666	31.91
327.879	15.53
328.092	52.39
328.305	13.48
328.518	83.11
328.731	36.01
328.944	46.25
329.157	62.63
329.37	62.63
329.583	52.39
329.796	52.39
330.009	-9.05
330.222	27.82
330.435	83.11
330.648	44.2
330.861	68.78
331.073	-0.85
331.286	83.11
331.499	23.72
331.712	21.67
331.925	-4.95
332.138	76.97
332.35	83.11
332.563	-84.82
332.776	25.77
332.989	36.01
333.202	109.74
333.414	27.82
333.627	21.67
333.84	-2.9
334.053	-21.33
334.265	-29.52
334.478	13.48
334.691	-0.85
334.903	17.58
335.116	15.53
335.329	-0.85
335.541	17.58
335.754	115.88
335.966	113.83
336.179	70.83
336.392	13.48
336.604	21.67
336.817	5.29
337.029	52.39
337.242	-13.14
337.454	124.07
337.667	44.2
337.88	91.31
338.092	-9.05
338.305	46.25
338.517	44.2
338.729	7.34
338.942	33.96
339.154	46.25
339.367	50.35
339.579	70.83
339.792	3.24
340.004	-9.05
340.217	-31.57
340.429	25.77
340.641	40.11
340.854	27.82
341.066	36.01
341.278	103.59
341.491	70.83
341.703	68.78
341.915	-29.52
342.128	42.15
342.34	13.48
342.552	68.78
342.764	33.96
342.977	9.39
343.189	27.82
343.401	-43.86
343.613	-7
343.826	36.01
344.038	23.72
344.25	87.21
344.462	68.78
344.674	15.53
344.886	103.59
345.099	66.73
345.311	27.82
345.523	31.91
345.735	36.01
345.947	76.97
346.159	74.92
346.371	46.25
346.583	23.72
346.795	93.35
347.007	58.54
347.219	52.39
347.431	36.01
347.643	89.26
347.855	31.91
348.067	54.44
348.279	44.2
348.491	11.43
348.703	54.44
348.915	50.35
349.127	9.39
349.339	50.35
349.551	79.02
349.763	81.07
349.975	40.11
350.187	54.44
350.399	193.7
350.61	11.43
350.822	-33.62
351.034	-7
351.246	-2.9
351.458	93.35
351.669	42.15
351.881	107.69
352.093	44.2
352.305	87.21
352.517	74.92
352.728	42.15
352.94	64.68
353.152	19.63
353.363	21.67
353.575	70.83
353.787	101.55
353.999	-7
354.21	48.3
354.422	15.53
354.633	-13.14
354.845	103.59
355.057	7.34
355.268	50.35
355.48	74.92
355.692	54.44
355.903	40.11
356.115	44.2
356.326	33.96
356.538	27.82
356.749	76.97
356.961	19.63
357.172	17.58
357.384	79.02
357.595	15.53
357.807	-68.44
358.018	27.82
358.23	87.21
358.441	74.92
358.653	122.02
358.864	44.2
359.075	36.01
359.287	33.96
359.498	60.59
359.709	48.3
359.921	-2.9
360.132	60.59
360.344	109.74
360.555	-11.09
360.766	87.21
360.977	15.53
361.189	23.72
361.4	33.96
361.611	85.16
361.823	-13.14
362.034	72.87
362.245	5.29
362.456	52.39
362.667	23.72
362.879	42.15
363.09	25.77
363.301	7.34
363.512	83.11
363.723	97.45
363.935	156.84
364.146	-4.95
364.357	40.11
364.568	107.69
364.779	93.35
364.99	62.63
365.201	89.26
365.412	58.54
365.623	-2.9
365.834	117.93
366.045	68.78
366.256	21.67
366.467	15.53
366.678	38.06
366.889	29.87
367.1	-4.95
367.311	40.11
367.522	54.44
367.733	-17.24
367.944	81.07
368.155	42.15
368.366	136.36
368.577	58.54
368.788	83.11
368.999	66.73
369.209	99.5
369.42	36.01
369.631	142.5
369.842	40.11
370.053	58.54
370.264	56.49
370.474	97.45
370.685	128.17
370.896	89.26
371.107	68.78
371.317	48.3
371.528	91.31
371.739	89.26
371.95	38.06
372.16	126.12
372.371	-52.05
372.582	31.91
372.792	-29.52
373.003	68.78
373.214	-72.53
373.424	107.69
373.635	31.91
373.846	7.34
374.056	109.74
374.267	48.3
374.477	23.72
374.688	5.29
374.898	79.02
375.109	38.06
375.319	36.01
375.53	64.68
375.74	48.3
375.951	56.49
376.161	17.58
376.372	83.11
376.582	38.06
376.793	21.67
377.003	48.3
377.214	58.54
377.424	13.48
377.635	64.68
377.845	52.39
378.055	95.4
378.266	-35.67
378.476	-0.85
378.686	54.44
378.897	25.77
379.107	83.11
379.317	167.08
379.528	9.39
379.738	167.08
379.948	52.39
380.158	107.69
380.369	13.48
380.579	21.67
380.789	-21.33
380.999	113.83
381.21	91.31
381.42	95.4
381.63	44.2
381.84	68.78
382.05	101.55
382.261	140.46
382.471	66.73
382.681	101.55
382.891	68.78
383.101	40.11
383.311	91.31
383.521	21.67
383.731	60.59
383.941	76.97
384.151	81.07
384.361	66.73
384.571	48.3
384.781	85.16
384.991	19.63
385.201	95.4
385.411	85.16
385.621	36.01
385.831	50.35
386.041	36.01
386.251	79.02
386.461	38.06
386.671	81.07
386.881	101.55
387.091	50.35
387.301	70.83
387.511	31.91
387.72	126.12
387.93	81.07
388.14	60.59
388.35	105.64
388.56	103.59
388.769	89.26
388.979	70.83
389.189	62.63
389.399	134.31
389.609	101.55
389.818	23.72
390.028	79.02
390.238	140.46
390.447	38.06
390.657	70.83
390.867	29.87
391.076	-29.52
391.286	83.11
391.496	60.59
391.705	119.98
391.915	85.16
392.125	58.54
392.334	56.49
392.544	42.15
392.753	54.44
392.963	85.16
393.172	38.06
393.382	44.2
393.591	111.78
393.801	93.35
394.01	44.2
394.22	130.22
394.429	74.92
394.639	48.3
394.848	101.55
395.058	72.87
395.267	89.26
395.477	76.97
395.686	189.61
395.895	91.31
396.105	179.37
396.314	160.94
396.524	83.11
396.733	122.02
396.942	89.26
397.152	136.36
397.361	113.83
397.57	62.63
397.78	54.44
397.989	132.26
398.198	154.79
398.407	101.55
398.617	111.78
398.826	60.59
399.035	60.59
399.244	62.63
399.453	140.46
399.663	64.68
399.872	105.64
400.081	122.02
400.29	148.65
400.499	162.98
400.708	150.7
400.917	113.83
401.127	111.78
401.336	60.59
401.545	93.35
401.754	142.5
401.963	105.64
402.172	60.59
402.381	154.79
402.59	179.37
402.799	85.16
403.008	117.93
403.217	107.69
403.426	113.83
403.635	134.31
403.844	169.13
404.053	105.64
404.262	58.54
404.471	226.47
404.68	162.98
404.888	122.02
405.097	173.22
405.306	169.13
405.515	244.9
405.724	152.74
405.933	169.13
406.142	138.41
406.35	136.36
406.559	175.27
406.768	251.05
406.977	193.7
407.185	255.14
407.394	240.81
407.603	201.9
407.812	304.29
408.02	259.24
408.229	292.01
408.438	228.52
408.646	279.72
408.855	310.44
409.064	285.86
409.272	255.14
409.481	363.69
409.69	304.29
409.898	365.73
410.107	298.15
410.315	289.96
410.524	439.46
410.733	279.72
410.941	396.45
411.15	328.87
411.358	347.3
411.567	455.84
411.775	404.64
411.984	386.21
412.192	504.99
412.401	476.32
412.609	509.09
412.818	461.99
413.026	562.34
413.234	523.43
413.443	650.4
413.651	548
413.86	623.78
414.068	642.21
414.276	687.26
414.485	750.75
414.693	703.65
414.901	756.9
415.11	812.19
415.318	799.9
415.526	793.76
415.734	783.52
415.943	890.01
416.151	894.11
416.359	953.5
416.567	928.92
416.776	980.12
416.984	1033.37
417.192	992.41
417.4	1059.99
417.608	1062.04
417.817	1125.53
418.025	1115.29
418.233	1344.66
418.441	1195.16
418.649	1270.94
418.857	1379.48
419.065	1442.96
419.273	1389.72
419.481	1416.34
419.689	1551.51
419.897	1674.39
420.105	1610.9
420.313	1787.02
420.521	1694.86
420.729	1737.87
420.937	1864.85
421.145	1936.53
421.353	2026.64
421.561	2098.31
421.769	2213
421.977	2280.58
422.185	2190.47
422.393	2378.89
422.601	2442.37
422.809	2569.35
423.017	2446.47
423.224	2591.88
423.432	2724.99
423.64	2630.79
423.848	2999.42
424.056	2991.23
424.263	3257.46
424.471	3175.55
424.679	3234.94
424.887	3279.99
425.094	3464.31
425.302	3486.84
425.51	3572.85
425.718	3748.98
425.925	3705.97
426.133	3955.82
426.341	4113.52
426.548	4359.27
426.756	4263.02
426.964	4404.33
427.171	4621.41
427.379	4709.47
427.586	4783.2
427.794	4883.55
428.001	5205.08
428.209	5477.46
428.417	5385.3
428.624	5647.44
428.832	5688.4
429.039	5672.02
429.247	5801.04
429.454	6403.14
429.662	6493.26
429.869	6247.5
430.076	6620.23
430.284	6358.09
430.491	6644.81
430.699	7306.3
430.906	7218.24
431.114	7330.87
431.321	7363.64
431.528	7648.31
431.736	8195.12
431.943	8461.35
432.15	8279.08
432.358	8475.69
432.565	8733.73
432.772	9014.31
432.979	9278.49
433.187	9286.68
433.394	9614.36
433.601	10118.16
433.808	10267.66
434.016	10005.52
434.223	10730.5
434.43	11183.1
434.637	10744.84
434.844	11510.78
435.052	11768.82
435.259	11709.43
435.466	11887.61
435.673	11910.13
435.88	12522.48
436.087	13052.9
436.294	12903.4
436.501	12831.72
436.708	13257.7
436.915	13616.09
437.122	14148.56
437.329	14058.45
437.537	14427.09
437.743	14857.16
437.95	14556.11
438.157	15340.48
438.364	16126.9
438.571	15977.4
438.778	15891.38
438.985	17482.66
439.192	16860.07
439.399	17589.15
439.606	17044.39
439.813	17595.29
440.02	18987.91
440.227	18535.31
440.433	18504.59
440.64	19096.46
440.847	19231.62
441.054	19360.64
441.261	20771.69
441.467	20788.08
441.674	20845.42
441.881	21904.22
442.088	21742.43
442.294	21425
442.501	21932.89
442.708	22688.59
442.914	23173.96
443.121	24376.12
443.328	23538.5
443.534	25561.89
443.741	24597.3
443.948	24316.73
444.154	26379.03
444.361	25850.66
444.568	26385.18
444.774	26186.52
444.981	26430.23
445.187	27128.59
445.394	28269.31
445.6	27970.3
445.807	30675.67
446.013	29119.21
446.22	29776.61
446.426	30825.17
446.633	31310.54
446.839	32328.38
447.046	31091.41
447.252	32522.94
447.459	32641.72
447.665	32455.36
447.871	34040.48
448.078	35551.88
448.284	33944.23
448.491	34534.04
448.697	36035.2
448.903	36291.2
449.11	36733.56
449.316	36203.14
449.522	36778.62
449.728	37818.99
449.935	37835.37
450.141	38089.32
450.347	38922.84
450.553	37640.81
450.76	38189.67
450.966	39379.54
451.172	39066.2
451.378	39606.86
451.584	38795.87
451.791	40299.08
451.997	39627.34
452.203	40505.92
452.409	40327.75
452.615	39961.16
452.821	38955.61
453.027	38234.72
453.233	40360.51
453.44	38851.16
453.646	38754.91
453.852	39074.39
454.058	40286.79
454.264	38629.98
454.47	39387.73
454.676	38261.35
454.882	39621.2
455.088	36127.36
455.294	36809.34
455.5	37069.43
455.705	37667.44
455.911	36397.7
456.117	35410.57
456.323	34841.24
456.529	33340.08
456.735	34869.91
456.941	33686.18
457.147	33348.27
457.352	32176.83
457.558	31406.8
457.764	31728.33
457.97	30950.1
458.176	30491.35
458.381	30550.74
458.587	28695.28
458.793	29090.54
458.999	27384.58
459.204	29401.83
459.41	28349.18
459.616	26813.2
459.821	26774.29
460.027	26360.6
460.233	26327.83
460.438	24681.27
460.644	25303.85
460.85	23774.02
461.055	23458.63
461.261	23513.92
461.466	21939.04
461.672	21154.66
461.878	22418.26
462.083	20884.33
462.289	20659.06
462.494	20462.45
462.7	19880.83
462.905	19112.84
463.111	19688.32
463.316	19641.21
463.522	19323.78
463.727	19329.92
463.932	19207.05
464.138	19260.29
464.343	18998.15
464.549	18645.9
464.754	19262.34
464.959	19026.82
465.165	18869.13
465.37	18135.96
465.575	17785.76
465.781	18269.08
465.986	18512.78
466.191	17898.39
466.397	17476.51
466.602	16735.15
466.807	17267.62
467.012	17195.94
467.218	16810.92
467.423	16829.35
467.628	17185.7
467.833	18035.61
