Data from USB4F104151__76__12-02-10-135.txt Node

Date: Fri Mar 14 12:02:10 EDT 2025
User: louis
Spectrometer: USB4F10415
Trigger mode: 4
Integration Time (sec): 2.000000E-2
Scans to average: 1
Electric dark correction enabled: true
Nonlinearity correction enabled: false
Boxcar width: 0
XAxis mode: Wavelengths
Number of Pixels in Spectrum: 3648
>>>>>Begin Spectral Data<<<<<
178.204	-75.77
178.424	-75.77
178.644	-75.77
178.864	-135.17
179.084	-14.34
179.304	6.14
179.524	14.34
179.744	2.05
179.964	4.1
180.184	10.24
180.404	40.96
180.624	-0
180.844	-55.3
181.064	-22.53
181.283	43.01
181.503	-8.19
181.723	-34.82
181.943	-55.3
182.163	106.49
182.383	26.62
182.602	63.49
182.822	71.68
183.042	32.77
183.262	30.72
183.482	12.29
183.701	18.43
183.921	-30.72
184.141	6.14
184.361	47.1
184.58	-0
184.8	32.77
185.02	22.53
185.239	51.2
185.459	59.39
185.679	2.05
185.898	-0
186.118	61.44
186.338	38.91
186.557	36.86
186.777	-38.91
186.997	26.62
187.216	-32.77
187.436	10.24
187.655	-36.86
187.875	51.2
188.095	26.62
188.314	-18.43
188.534	-0
188.753	-75.77
188.973	90.11
189.192	47.1
189.412	45.06
189.631	49.15
189.851	-10.24
190.07	20.48
190.29	-0
190.509	118.78
190.729	71.68
190.948	100.35
191.168	71.68
191.387	59.39
191.607	45.06
191.826	110.59
192.045	-47.1
192.265	-6.14
192.484	4.1
192.704	14.34
192.923	30.72
193.142	28.67
193.362	-18.43
193.581	110.59
193.8	18.43
194.02	22.53
194.239	63.49
194.458	75.77
194.678	-2.05
194.897	79.87
195.116	71.68
195.335	49.15
195.555	34.82
195.774	12.29
195.993	53.25
196.212	43.01
196.432	26.62
196.651	8.19
196.87	32.77
197.089	22.53
197.308	2.05
197.528	51.2
197.747	-53.25
197.966	-45.06
198.185	51.2
198.404	6.14
198.623	57.34
198.842	73.73
199.062	-26.62
199.281	49.15
199.5	18.43
199.719	61.44
199.938	86.01
200.157	-22.53
200.376	57.34
200.595	6.14
200.814	83.97
201.033	59.39
201.252	10.24
201.471	10.24
201.69	53.25
201.909	69.63
202.128	26.62
202.347	10.24
202.566	73.73
202.785	-2.05
203.004	-28.67
203.223	-2.05
203.442	38.91
203.661	-59.39
203.879	24.58
204.098	96.25
204.317	108.54
204.536	71.68
204.755	38.91
204.974	28.67
205.193	83.97
205.411	104.45
205.63	47.1
205.849	34.82
206.068	30.72
206.287	30.72
206.505	47.1
206.724	2.05
206.943	6.14
207.162	8.19
207.381	59.39
207.599	34.82
207.818	75.77
208.037	6.14
208.255	4.1
208.474	49.15
208.693	-26.62
208.911	32.77
209.13	59.39
209.349	53.25
209.567	10.24
209.786	86.01
210.005	34.82
210.223	10.24
210.442	24.58
210.661	32.77
210.879	67.58
211.098	79.87
211.316	-30.72
211.535	81.92
211.753	53.25
211.972	28.67
212.191	-16.38
212.409	16.38
212.628	-6.14
212.846	-18.43
213.065	4.1
213.283	47.1
213.502	12.29
213.72	49.15
213.938	16.38
214.157	-10.24
214.375	83.97
214.594	45.06
214.812	40.96
215.031	-49.15
215.249	-18.43
215.467	45.06
215.686	53.25
215.904	32.77
216.122	104.45
216.341	-63.49
216.559	69.63
216.778	22.53
216.996	-14.34
217.214	-4.1
217.432	55.3
217.651	61.44
217.869	55.3
218.087	92.16
218.306	-2.05
218.524	112.64
218.742	-22.53
218.96	2.05
219.179	45.06
219.397	16.38
219.615	65.53
219.833	28.67
220.051	6.14
220.27	67.58
220.488	51.2
220.706	79.87
220.924	75.77
221.142	-6.14
221.36	8.19
221.578	112.64
221.796	-8.19
222.015	6.14
222.233	-53.25
222.451	63.49
222.669	-12.29
222.887	69.63
223.105	8.19
223.323	61.44
223.541	-32.77
223.759	40.96
223.977	-8.19
224.195	96.25
224.413	59.39
224.631	55.3
224.849	20.48
225.067	94.21
225.285	47.1
225.503	32.77
225.721	22.53
225.939	-12.29
226.157	73.73
226.375	22.53
226.592	14.34
226.81	79.87
227.028	51.2
227.246	57.34
227.464	51.2
227.682	51.2
227.9	71.68
228.117	18.43
228.335	-0
228.553	88.06
228.771	59.39
228.989	-6.14
229.206	110.59
229.424	8.19
229.642	2.05
229.86	4.1
230.077	40.96
230.295	-40.96
230.513	96.25
230.731	43.01
230.948	100.35
231.166	36.86
231.384	63.49
231.601	-45.06
231.819	65.53
232.037	12.29
232.254	-49.15
232.472	30.72
232.689	53.25
232.907	51.2
233.125	-20.48
233.342	-18.43
233.56	40.96
233.777	24.58
233.995	55.3
234.213	67.58
234.43	24.58
234.648	36.86
234.865	-22.53
235.083	-16.38
235.3	18.43
235.518	106.49
235.735	26.62
235.953	-6.14
236.17	18.43
236.388	55.3
236.605	26.62
236.822	90.11
237.04	59.39
237.257	32.77
237.475	-53.25
237.692	30.72
237.909	12.29
238.127	73.73
238.344	36.86
238.562	-28.67
238.779	-14.34
238.996	38.91
239.214	53.25
239.431	26.62
239.648	2.05
239.865	45.06
240.083	135.17
240.3	124.93
240.517	67.58
240.735	59.39
240.952	14.34
241.169	6.14
241.386	59.39
241.603	69.63
241.821	32.77
242.038	75.77
242.255	24.58
242.472	-8.19
242.689	43.01
242.907	24.58
243.124	43.01
243.341	-4.1
243.558	28.67
243.775	-18.43
243.992	-14.34
244.209	92.16
244.426	61.44
244.643	67.58
244.86	4.1
245.078	43.01
245.295	71.68
245.512	12.29
245.729	-10.24
245.946	24.58
246.163	-12.29
246.38	69.63
246.597	-10.24
246.814	36.86
247.031	4.1
247.248	57.34
247.464	12.29
247.681	-24.58
247.898	26.62
248.115	38.91
248.332	-12.29
248.549	59.39
248.766	116.73
248.983	20.48
249.2	10.24
249.417	20.48
249.633	-10.24
249.85	65.53
250.067	4.1
250.284	69.63
250.501	24.58
250.717	47.1
250.934	40.96
251.151	-20.48
251.368	49.15
251.585	49.15
251.801	77.82
252.018	-4.1
252.235	12.29
252.451	-22.53
252.668	63.49
252.885	73.73
253.102	47.1
253.318	38.91
253.535	10.24
253.752	-43.01
253.968	98.3
254.185	47.1
254.401	49.15
254.618	47.1
254.835	8.19
255.051	36.86
255.268	12.29
255.484	53.25
255.701	12.29
255.917	28.67
256.134	-22.53
256.351	10.24
256.567	51.2
256.784	79.87
257	22.53
257.217	-20.48
257.433	-4.1
257.65	61.44
257.866	114.69
258.082	34.82
258.299	-32.77
258.515	20.48
258.732	-0
258.948	20.48
259.165	-14.34
259.381	22.53
259.597	38.91
259.814	36.86
260.03	16.38
260.246	16.38
260.463	124.93
260.679	65.53
260.895	-32.77
261.112	24.58
261.328	45.06
261.544	34.82
261.761	114.69
261.977	12.29
262.193	38.91
262.409	-12.29
262.626	45.06
262.842	18.43
263.058	28.67
263.274	12.29
263.49	57.34
263.707	34.82
263.923	28.67
264.139	55.3
264.355	32.77
264.571	32.77
264.787	24.58
265.004	36.86
265.22	-6.14
265.436	14.34
265.652	28.67
265.868	55.3
266.084	-0
266.3	57.34
266.516	6.14
266.732	28.67
266.948	92.16
267.164	-20.48
267.38	67.58
267.596	47.1
267.812	81.92
268.028	36.86
268.244	16.38
268.46	12.29
268.676	34.82
268.892	-26.62
269.108	51.2
269.324	-6.14
269.54	55.3
269.756	94.21
269.972	6.14
270.188	-8.19
270.403	45.06
270.619	-4.1
270.835	98.3
271.051	63.49
271.267	38.91
271.483	88.06
271.698	63.49
271.914	18.43
272.13	145.41
272.346	22.53
272.562	12.29
272.777	12.29
272.993	53.25
273.209	14.34
273.425	10.24
273.64	10.24
273.856	75.77
274.072	4.1
274.287	10.24
274.503	38.91
274.719	81.92
274.934	28.67
275.15	53.25
275.366	79.87
275.581	-18.43
275.797	43.01
276.012	8.19
276.228	2.05
276.444	-2.05
276.659	65.53
276.875	49.15
277.09	-2.05
277.306	47.1
277.521	73.73
277.737	-47.1
277.952	81.92
278.168	86.01
278.383	24.58
278.599	92.16
278.814	40.96
279.03	16.38
279.245	57.34
279.461	53.25
279.676	26.62
279.892	8.19
280.107	71.68
280.322	-0
280.538	86.01
280.753	-0
280.969	43.01
281.184	63.49
281.399	45.06
281.615	73.73
281.83	-8.19
282.045	4.1
282.26	-10.24
282.476	28.67
282.691	86.01
282.906	53.25
283.122	63.49
283.337	-40.96
283.552	34.82
283.767	69.63
283.983	-6.14
284.198	-14.34
284.413	40.96
284.628	51.2
284.843	-10.24
285.058	43.01
285.274	71.68
285.489	55.3
285.704	100.35
285.919	129.02
286.134	-30.72
286.349	79.87
286.564	69.63
286.779	2.05
286.995	-0
287.21	65.53
287.425	108.54
287.64	14.34
287.855	61.44
288.07	2.05
288.285	126.97
288.5	96.25
288.715	114.69
288.93	69.63
289.145	28.67
289.36	22.53
289.575	53.25
289.79	67.58
290.004	-8.19
290.219	32.77
290.434	30.72
290.649	34.82
290.864	43.01
291.079	-6.14
291.294	26.62
291.509	34.82
291.724	-22.53
291.938	-10.24
292.153	71.68
292.368	69.63
292.583	61.44
292.798	6.14
293.012	57.34
293.227	55.3
293.442	16.38
293.657	-12.29
293.871	59.39
294.086	63.49
294.301	92.16
294.516	6.14
294.73	20.48
294.945	-6.14
295.16	18.43
295.374	71.68
295.589	30.72
295.804	-14.34
296.018	51.2
296.233	61.44
296.447	-2.05
296.662	34.82
296.877	49.15
297.091	38.91
297.306	63.49
297.52	88.06
297.735	88.06
297.949	47.1
298.164	81.92
298.378	20.48
298.593	63.49
298.807	12.29
299.022	47.1
299.236	96.25
299.451	34.82
299.665	32.77
299.88	110.59
300.094	24.58
300.309	59.39
300.523	110.59
300.737	43.01
300.952	65.53
301.166	28.67
301.381	14.34
301.595	30.72
301.809	47.1
302.024	30.72
302.238	-6.14
302.452	55.3
302.667	90.11
302.881	24.58
303.095	49.15
303.309	6.14
303.524	6.14
303.738	69.63
303.952	38.91
304.166	14.34
304.381	-0
304.595	88.06
304.809	98.3
305.023	-0
305.237	53.25
305.452	79.87
305.666	38.91
305.88	24.58
306.094	57.34
306.308	-6.14
306.522	24.58
306.736	71.68
306.95	-14.34
307.164	75.77
307.379	28.67
307.593	71.68
307.807	86.01
308.021	-2.05
308.235	45.06
308.449	26.62
308.663	75.77
308.877	61.44
309.091	69.63
309.305	28.67
309.519	-6.14
309.733	14.34
309.947	-18.43
310.161	88.06
310.374	81.92
310.588	100.35
310.802	10.24
311.016	120.83
311.23	77.82
311.444	32.77
311.658	59.39
311.872	98.3
312.085	129.02
312.299	28.67
312.513	77.82
312.727	69.63
312.941	43.01
313.154	34.82
313.368	20.48
313.582	-36.86
313.796	61.44
314.009	104.45
314.223	53.25
314.437	40.96
314.651	51.2
314.864	59.39
315.078	16.38
315.292	71.68
315.505	-10.24
315.719	81.92
315.933	36.86
316.146	51.2
316.36	49.15
316.573	59.39
316.787	12.29
317.001	51.2
317.214	-40.96
317.428	88.06
317.641	69.63
317.855	36.86
318.068	98.3
318.282	10.24
318.495	126.97
318.709	65.53
318.922	43.01
319.136	77.82
319.349	18.43
319.563	22.53
319.776	-8.19
319.99	38.91
320.203	71.68
320.417	63.49
320.63	47.1
320.843	26.62
321.057	20.48
321.27	-8.19
321.483	47.1
321.697	108.54
321.91	57.34
322.124	90.11
322.337	94.21
322.55	2.05
322.763	-0
322.977	28.67
323.19	-20.48
323.403	38.91
323.617	8.19
323.83	86.01
324.043	26.62
324.256	104.45
324.469	67.58
324.683	129.02
324.896	18.43
325.109	10.24
325.322	34.82
325.535	2.05
325.748	40.96
325.962	22.53
326.175	67.58
326.388	55.3
326.601	30.72
326.814	24.58
327.027	12.29
327.24	73.73
327.453	-14.34
327.666	65.53
327.879	94.21
328.092	67.58
328.305	53.25
328.518	110.59
328.731	-14.34
328.944	51.2
329.157	61.44
329.37	118.78
329.583	55.3
329.796	57.34
330.009	2.05
330.222	47.1
330.435	28.67
330.648	45.06
330.861	55.3
331.073	55.3
331.286	20.48
331.499	28.67
331.712	10.24
331.925	69.63
332.138	114.69
332.35	30.72
332.563	26.62
332.776	71.68
332.989	-45.06
333.202	16.38
333.414	45.06
333.627	30.72
333.84	126.97
334.053	43.01
334.265	32.77
334.478	69.63
334.691	40.96
334.903	20.48
335.116	32.77
335.329	22.53
335.541	22.53
335.754	32.77
335.966	112.64
336.179	22.53
336.392	14.34
336.604	55.3
336.817	129.02
337.029	30.72
337.242	47.1
337.454	43.01
337.667	63.49
337.88	77.82
338.092	43.01
338.305	34.82
338.517	73.73
338.729	47.1
338.942	55.3
339.154	-18.43
339.367	26.62
339.579	88.06
339.792	24.58
340.004	51.2
340.217	67.58
340.429	79.87
340.641	53.25
340.854	126.97
341.066	-2.05
341.278	96.25
341.491	143.36
341.703	30.72
341.915	22.53
342.128	96.25
342.34	110.59
342.552	45.06
342.764	43.01
342.977	53.25
343.189	24.58
343.401	34.82
343.613	8.19
343.826	53.25
344.038	16.38
344.25	73.73
344.462	-45.06
344.674	98.3
344.886	28.67
345.099	114.69
345.311	18.43
345.523	-32.77
345.735	34.82
345.947	26.62
346.159	79.87
346.371	24.58
346.583	26.62
346.795	55.3
347.007	22.53
347.219	53.25
347.431	22.53
347.643	75.77
347.855	65.53
348.067	102.4
348.279	-36.86
348.491	38.91
348.703	45.06
348.915	61.44
349.127	6.14
349.339	34.82
349.551	20.48
349.763	61.44
349.975	24.58
350.187	81.92
350.399	34.82
350.61	-4.1
350.822	98.3
351.034	75.77
351.246	81.92
351.458	-20.48
351.669	73.73
351.881	53.25
352.093	26.62
352.305	100.35
352.517	32.77
352.728	36.86
352.94	34.82
353.152	116.73
353.363	92.16
353.575	38.91
353.787	55.3
353.999	96.25
354.21	118.78
354.422	51.2
354.633	-4.1
354.845	145.41
355.057	55.3
355.268	32.77
355.48	18.43
355.692	43.01
355.903	69.63
356.115	90.11
356.326	-30.72
356.538	83.97
356.749	45.06
356.961	73.73
357.172	40.96
357.384	90.11
357.595	137.21
357.807	38.91
358.018	55.3
358.23	30.72
358.441	40.96
358.653	57.34
358.864	32.77
359.075	38.91
359.287	116.73
359.498	55.3
359.709	79.87
359.921	88.06
360.132	157.69
360.344	4.1
360.555	57.34
360.766	57.34
360.977	-32.77
361.189	106.49
361.4	102.4
361.611	8.19
361.823	94.21
362.034	12.29
362.245	10.24
362.456	65.53
362.667	53.25
362.879	45.06
363.09	98.3
363.301	124.93
363.512	32.77
363.723	30.72
363.935	24.58
364.146	55.3
364.357	71.68
364.568	28.67
364.779	71.68
364.99	94.21
365.201	-12.29
365.412	106.49
365.623	30.72
365.834	79.87
366.045	53.25
366.256	98.3
366.467	18.43
366.678	94.21
366.889	81.92
367.1	129.02
367.311	57.34
367.522	102.4
367.733	63.49
367.944	32.77
368.155	49.15
368.366	122.88
368.577	69.63
368.788	57.34
368.999	96.25
369.209	83.97
369.42	122.88
369.631	118.78
369.842	120.83
370.053	88.06
370.264	81.92
370.474	71.68
370.685	86.01
370.896	104.45
371.107	30.72
371.317	120.83
371.528	59.39
371.739	143.36
371.95	92.16
372.16	133.12
372.371	40.96
372.582	67.58
372.792	24.58
373.003	30.72
373.214	73.73
373.424	43.01
373.635	-24.58
373.846	77.82
374.056	24.58
374.267	14.34
374.477	83.97
374.688	137.21
374.898	94.21
375.109	49.15
375.319	45.06
375.53	129.02
375.74	32.77
375.951	73.73
376.161	71.68
376.372	122.88
376.582	57.34
376.793	98.3
377.003	122.88
377.214	-30.72
377.424	61.44
377.635	49.15
377.845	83.97
378.055	120.83
378.266	32.77
378.476	106.49
378.686	14.34
378.897	86.01
379.107	28.67
379.317	157.69
379.528	18.43
379.738	167.93
379.948	53.25
380.158	77.82
380.369	49.15
380.579	65.53
380.789	16.38
380.999	77.82
381.21	-6.14
381.42	102.4
381.63	18.43
381.84	79.87
382.05	106.49
382.261	88.06
382.471	71.68
382.681	-24.58
382.891	49.15
383.101	24.58
383.311	6.14
383.521	-12.29
383.731	59.39
383.941	81.92
384.151	59.39
384.361	55.3
384.571	59.39
384.781	120.83
384.991	88.06
385.201	108.54
385.411	61.44
385.621	133.12
385.831	77.82
386.041	53.25
386.251	104.45
386.461	75.77
386.671	34.82
386.881	88.06
387.091	106.49
387.301	110.59
387.511	106.49
387.72	69.63
387.93	40.96
388.14	63.49
388.35	77.82
388.56	-18.43
388.769	65.53
388.979	98.3
389.189	51.2
389.399	75.77
389.609	77.82
389.818	126.97
390.028	71.68
390.238	102.4
390.447	40.96
390.657	96.25
390.867	28.67
391.076	63.49
391.286	131.07
391.496	34.82
391.705	96.25
391.915	59.39
392.125	133.12
392.334	51.2
392.544	106.49
392.753	20.48
392.963	67.58
393.172	77.82
393.382	61.44
393.591	102.4
393.801	73.73
394.01	86.01
394.22	129.02
394.429	153.6
394.639	90.11
394.848	77.82
395.058	40.96
395.267	36.86
395.477	106.49
395.686	112.64
395.895	110.59
396.105	143.36
396.314	55.3
396.524	38.91
396.733	67.58
396.942	161.79
397.152	172.03
397.361	116.73
397.57	90.11
397.78	71.68
397.989	79.87
398.198	155.65
398.407	131.07
398.617	163.84
398.826	104.45
399.035	104.45
399.244	116.73
399.453	124.93
399.663	133.12
399.872	153.6
400.081	202.75
400.29	155.65
400.499	133.12
400.708	141.31
400.917	86.01
401.127	200.7
401.336	153.6
401.545	94.21
401.754	124.93
401.963	133.12
402.172	71.68
402.381	145.41
402.59	182.27
402.799	163.84
403.008	126.97
403.217	159.74
403.426	217.08
403.635	114.69
403.844	184.32
404.053	126.97
404.262	155.65
404.471	137.21
404.68	210.94
404.888	260.09
405.097	163.84
405.306	186.37
405.515	198.65
405.724	212.99
405.933	186.37
406.142	241.66
406.35	188.41
406.559	268.28
406.768	204.8
406.977	221.18
407.185	276.48
407.394	251.9
407.603	241.66
407.812	307.2
408.02	286.72
408.229	290.81
408.438	260.09
408.646	292.86
408.855	280.57
409.064	313.34
409.272	307.2
409.481	423.93
409.69	358.39
409.898	372.73
410.107	344.06
410.315	413.69
410.524	399.35
410.733	397.31
410.941	401.4
411.15	385.02
411.358	534.52
411.567	460.79
411.775	479.22
411.984	516.09
412.192	516.09
412.401	604.15
412.609	602.1
412.818	663.54
413.026	552.95
413.234	641.01
413.443	659.45
413.651	636.92
413.86	677.88
414.068	776.18
414.276	755.7
414.485	643.06
414.693	784.37
414.901	751.6
415.11	868.34
415.318	858.1
415.526	905.2
415.734	1015.79
415.943	925.68
416.151	980.98
416.359	985.07
416.567	964.59
416.776	1105.9
416.984	1236.97
417.192	1226.73
417.4	1279.98
417.608	1165.29
417.817	1355.76
418.025	1329.13
418.233	1452.01
418.441	1339.37
418.649	1519.59
418.857	1585.13
419.065	1595.37
419.273	1581.03
419.481	1687.53
419.689	1843.17
419.897	1824.74
420.105	1802.21
420.313	1875.94
420.521	1972.19
420.729	1996.77
420.937	2185.18
421.145	2220
421.353	2260.96
421.561	2379.74
421.769	2400.22
421.977	2492.38
422.185	2435.03
422.393	2721.75
422.601	2844.63
422.809	2920.4
423.017	2869.2
423.224	2942.93
423.432	3123.15
423.64	3020.75
423.848	3370.96
424.056	3325.9
424.263	3434.44
424.471	3596.23
424.679	3620.81
424.887	3872.71
425.094	3882.95
425.302	3848.13
425.51	4138.94
425.718	4235.2
425.925	4231.1
426.133	4442.04
426.341	4583.35
426.548	4984.76
426.756	4831.16
426.964	5009.33
427.171	5195.7
427.379	5390.25
427.586	5404.59
427.794	5564.33
428.001	6025.12
428.209	6244.26
428.417	6113.19
428.624	6512.54
428.832	6580.12
429.039	6561.69
429.247	6385.57
429.454	7067.54
429.662	7647.12
429.869	6985.62
430.076	7632.78
430.284	7411.6
430.491	7628.68
430.699	8251.27
430.906	7991.17
431.114	8255.36
431.321	8636.28
431.528	8699.77
431.736	9060.21
431.943	9607.02
432.15	9330.55
432.358	9527.15
432.565	10033
432.772	10155.88
432.979	10620.77
433.187	10739.55
433.394	10667.87
433.601	11554.64
433.808	11417.43
434.016	11364.18
434.223	12048.2
434.43	12609.34
434.637	12267.33
434.844	12967.74
435.052	13412.15
435.259	13547.31
435.466	13461.3
435.673	13496.11
435.88	14247.72
436.087	14690.08
436.294	15030.04
436.501	14692.13
436.708	15011.61
436.915	15423.25
437.122	16111.37
437.329	16084.75
437.537	16672.51
437.743	17073.92
437.95	16891.65
438.157	17807.09
438.364	18499.3
438.571	18360.04
438.778	18317.03
438.985	20031.18
439.192	19289.82
439.399	20008.65
439.606	19476.18
439.813	20684.48
440.02	21677.75
440.227	21569.21
440.433	21268.16
440.64	21962.42
440.847	21653.17
441.054	22529.7
441.261	23639.7
441.467	23391.9
441.674	23830.16
441.881	25038.47
442.088	24786.57
442.294	24557.19
442.501	25116.29
442.708	25855.61
442.914	26746.47
443.121	27862.61
443.328	27186.79
443.534	29142.6
443.741	28341.84
443.948	27991.64
444.154	29851.19
444.361	29765.18
444.568	29967.93
444.774	29658.68
444.981	30725.68
445.187	30832.17
445.394	32468.5
445.6	32210.45
445.807	35335.65
446.013	33684.99
446.22	34299.38
446.426	35546.59
446.633	36009.43
446.839	36992.46
447.046	35446.24
447.252	37424.58
447.459	37772.74
447.665	37494.21
447.871	38991.28
448.078	40654.23
448.284	39112.11
448.491	39742.88
448.697	41688.45
448.903	42227.07
449.11	42122.62
449.316	41553.29
449.522	42122.62
449.728	43564.39
449.935	43668.84
450.141	43853.15
450.347	44660.05
450.553	43236.72
450.76	43980.13
450.966	45208.91
451.172	45063.5
451.378	45700.42
451.584	44643.67
451.791	45473.1
451.997	45618.5
452.203	46585.15
452.409	46525.75
452.615	46247.23
452.821	44316
453.027	44143.97
453.233	46816.57
453.44	44416.35
453.646	44997.97
453.852	45305.16
454.058	45962.56
454.264	44232.03
454.47	45325.64
454.676	44301.66
454.882	46040.39
455.088	41758.08
455.294	42698.1
455.5	43068.78
455.705	43767.14
455.911	41635.2
456.117	40609.17
456.323	40488.34
456.529	38254.01
456.735	40152.48
456.941	39101.87
457.147	38213.05
457.352	37262.79
457.558	36916.68
457.764	36857.29
457.97	35976.67
458.176	35081.7
458.381	35163.62
458.587	33109.51
458.793	33472
458.999	31841.82
459.204	33953.27
459.41	32826.89
459.616	31026.73
459.821	30815.79
460.027	31026.73
460.233	30099
460.438	28577.36
460.644	28827.21
460.85	27659.87
461.055	27113.06
461.261	27405.92
461.466	24780.42
461.672	24317.58
461.878	26177.14
462.083	24784.52
462.289	24125.07
462.494	23776.92
462.7	22607.53
462.905	22122.16
463.111	22662.82
463.316	22851.24
463.522	22159.02
463.727	22466.22
463.932	22396.59
464.138	22179.5
464.343	22408.87
464.549	21706.42
464.754	22247.08
464.959	22130.35
465.165	21970.61
465.37	20965.06
465.575	20647.62
465.781	21167.81
465.986	21399.23
466.191	20702.92
466.397	20422.34
466.602	19183.32
466.807	20068.05
467.012	19900.11
467.218	19898.06
467.423	19728.08
467.628	19877.58
467.833	20672.2
