Data from USB4F104151__48__12-01-32-490.txt Node

Date: Fri Mar 14 12:01:32 EDT 2025
User: louis
Spectrometer: USB4F10415
Trigger mode: 4
Integration Time (sec): 2.000000E-2
Scans to average: 1
Electric dark correction enabled: true
Nonlinearity correction enabled: false
Boxcar width: 0
XAxis mode: Wavelengths
Number of Pixels in Spectrum: 3648
>>>>>Begin Spectral Data<<<<<
178.204	-104.79
178.424	-104.79
178.644	-104.79
178.864	-94.55
179.084	-78.16
179.304	1.71
179.524	-37.2
179.744	-16.73
179.964	87.72
180.184	-20.82
180.404	50.86
180.624	-8.53
180.844	26.28
181.064	-76.12
181.283	18.09
181.503	-22.87
181.723	-2.39
181.943	-18.77
182.163	-10.58
182.383	34.47
182.602	18.09
182.822	30.38
183.042	13.99
183.262	32.43
183.482	-0.34
183.701	48.81
183.921	-35.16
184.141	-6.49
184.361	-18.77
184.58	-4.44
184.8	38.57
185.02	1.71
185.239	28.33
185.459	-10.58
185.679	30.38
185.898	-41.3
186.118	42.67
186.338	30.38
186.557	52.91
186.777	36.52
186.997	112.3
187.216	-2.39
187.436	44.71
187.655	-53.59
187.875	38.57
188.095	-16.73
188.314	42.67
188.534	36.52
188.753	9.9
188.973	40.62
189.192	46.76
189.412	46.76
189.631	-22.87
189.851	1.71
190.07	71.34
190.29	-4.44
190.509	40.62
190.729	-33.11
190.948	-10.58
191.168	122.54
191.387	48.81
191.607	-2.39
191.826	16.04
192.045	18.09
192.265	28.33
192.484	-22.87
192.704	22.19
192.923	57
193.142	59.05
193.362	57
193.581	-12.63
193.8	-59.73
194.02	83.63
194.239	24.23
194.458	48.81
194.678	13.99
194.897	32.43
195.116	-53.59
195.335	26.28
195.555	-6.49
195.774	38.57
195.993	54.95
196.212	61.1
196.432	3.75
196.651	59.05
196.87	26.28
197.089	97.96
197.308	50.86
197.528	20.14
197.747	-6.49
197.966	-10.58
198.185	59.05
198.404	11.95
198.623	38.57
198.842	-0.34
199.062	5.8
199.281	73.39
199.5	1.71
199.719	30.38
199.938	-18.77
200.157	40.62
200.376	73.39
200.595	9.9
200.814	48.81
201.033	67.24
201.252	89.77
201.471	-67.92
201.69	44.71
201.909	22.19
202.128	-18.77
202.347	61.1
202.566	87.72
202.785	-41.3
203.004	-61.78
203.223	69.29
203.442	9.9
203.661	-0.34
203.879	32.43
204.098	-8.53
204.317	7.85
204.536	69.29
204.755	36.52
204.974	-41.3
205.193	22.19
205.411	22.19
205.63	95.91
205.849	-12.63
206.068	13.99
206.287	-14.68
206.505	89.77
206.724	-10.58
206.943	30.38
207.162	1.71
207.381	18.09
207.599	42.67
207.818	16.04
208.037	-37.2
208.255	-45.4
208.474	11.95
208.693	7.85
208.911	18.09
209.13	30.38
209.349	-24.92
209.567	-10.58
209.786	40.62
210.005	-0.34
210.223	36.52
210.442	26.28
210.661	7.85
210.879	1.71
211.098	1.71
211.316	5.8
211.535	5.8
211.753	3.75
211.972	28.33
212.191	36.52
212.409	48.81
212.628	5.8
212.846	1.71
213.065	18.09
213.283	-22.87
213.502	30.38
213.72	11.95
213.938	46.76
214.157	-6.49
214.375	-59.73
214.594	22.19
214.812	24.23
215.031	48.81
215.249	69.29
215.467	38.57
215.686	-24.92
215.904	110.25
216.122	83.63
216.341	-12.63
216.559	26.28
216.778	67.24
216.996	-10.58
217.214	-33.11
217.432	16.04
217.651	36.52
217.869	11.95
218.087	-24.92
218.306	-26.96
218.524	30.38
218.742	-74.07
218.96	-2.39
219.179	-14.68
219.397	20.14
219.615	-6.49
219.833	54.95
220.051	65.19
220.27	20.14
220.488	44.71
220.706	-8.53
220.924	38.57
221.142	89.77
221.36	61.1
221.578	-6.49
221.796	11.95
222.015	-57.68
222.233	42.67
222.451	71.34
222.669	24.23
222.887	1.71
223.105	46.76
223.323	-20.82
223.541	1.71
223.759	71.34
223.977	3.75
224.195	-53.59
224.413	-8.53
224.631	87.72
224.849	20.14
225.067	32.43
225.285	1.71
225.503	63.15
225.721	-80.21
225.939	-43.35
226.157	-31.06
226.375	38.57
226.592	34.47
226.81	65.19
227.028	-63.83
227.246	61.1
227.464	18.09
227.682	48.81
227.9	50.86
228.117	65.19
228.335	-2.39
228.553	77.48
228.771	91.82
228.989	20.14
229.206	-2.39
229.424	11.95
229.642	30.38
229.86	54.95
230.077	81.58
230.295	24.23
230.513	102.06
230.731	34.47
230.948	9.9
231.166	42.67
231.384	-8.53
231.601	48.81
231.819	63.15
232.037	83.63
232.254	30.38
232.472	13.99
232.689	54.95
232.907	-0.34
233.125	42.67
233.342	-39.25
233.56	71.34
233.777	-20.82
233.995	11.95
234.213	63.15
234.43	26.28
234.648	44.71
234.865	16.04
235.083	71.34
235.3	-41.3
235.518	-37.2
235.735	63.15
235.953	48.81
236.17	-8.53
236.388	-22.87
236.605	-8.53
236.822	22.19
237.04	5.8
237.257	61.1
237.475	20.14
237.692	11.95
237.909	5.8
238.127	7.85
238.344	50.86
238.562	48.81
238.779	-29.01
238.996	38.57
239.214	-12.63
239.431	77.48
239.648	-22.87
239.865	-59.73
240.083	48.81
240.3	28.33
240.517	40.62
240.735	18.09
240.952	-10.58
241.169	79.53
241.386	3.75
241.603	-84.31
241.821	36.52
242.038	106.15
242.255	24.23
242.472	-33.11
242.689	42.67
242.907	44.71
243.124	28.33
243.341	40.62
243.558	38.57
243.775	83.63
243.992	32.43
244.209	65.19
244.426	28.33
244.643	11.95
244.86	73.39
245.078	30.38
245.295	61.1
245.512	69.29
245.729	-4.44
245.946	13.99
246.163	-10.58
246.38	-4.44
246.597	-18.77
246.814	18.09
247.031	-16.73
247.248	22.19
247.464	-47.44
247.681	20.14
247.898	-20.82
248.115	87.72
248.332	30.38
248.549	38.57
248.766	65.19
248.983	87.72
249.2	81.58
249.417	40.62
249.633	26.28
249.85	81.58
250.067	-31.06
250.284	13.99
250.501	18.09
250.717	89.77
250.934	-29.01
251.151	-37.2
251.368	-2.39
251.585	100.01
251.801	61.1
252.018	-20.82
252.235	28.33
252.451	16.04
252.668	9.9
252.885	118.44
253.102	-45.4
253.318	1.71
253.535	24.23
253.752	63.15
253.968	69.29
254.185	5.8
254.401	57
254.618	48.81
254.835	-0.34
255.051	81.58
255.268	9.9
255.484	30.38
255.701	57
255.917	22.19
256.134	-37.2
256.351	-16.73
256.567	-10.58
256.784	16.04
257	-33.11
257.217	22.19
257.433	26.28
257.65	59.05
257.866	50.86
258.082	-8.53
258.299	7.85
258.515	42.67
258.732	-12.63
258.948	16.04
259.165	100.01
259.381	40.62
259.597	32.43
259.814	42.67
260.03	77.48
260.246	13.99
260.463	46.76
260.679	44.71
260.895	-45.4
261.112	89.77
261.328	44.71
261.544	77.48
261.761	42.67
261.977	13.99
262.193	38.57
262.409	36.52
262.626	-22.87
262.842	50.86
263.058	-10.58
263.274	22.19
263.49	42.67
263.707	-0.34
263.923	59.05
264.139	-74.07
264.355	57
264.571	40.62
264.787	18.09
265.004	-16.73
265.22	26.28
265.436	13.99
265.652	-39.25
265.868	34.47
266.084	20.14
266.3	44.71
266.516	1.71
266.732	67.24
266.948	38.57
267.164	59.05
267.38	22.19
267.596	26.28
267.812	54.95
268.028	52.91
268.244	46.76
268.46	16.04
268.676	46.76
268.892	108.2
269.108	-16.73
269.324	52.91
269.54	28.33
269.756	46.76
269.972	26.28
270.188	13.99
270.403	-31.06
270.619	91.82
270.835	-4.44
271.051	69.29
271.267	11.95
271.483	97.96
271.698	46.76
271.914	32.43
272.13	50.86
272.346	-8.53
272.562	16.04
272.777	32.43
272.993	-8.53
273.209	-0.34
273.425	-65.88
273.64	24.23
273.856	61.1
274.072	-2.39
274.287	-49.49
274.503	7.85
274.719	83.63
274.934	11.95
275.15	-16.73
275.366	52.91
275.581	34.47
275.797	34.47
276.012	13.99
276.228	-35.16
276.444	-24.92
276.659	57
276.875	38.57
277.09	61.1
277.306	7.85
277.521	-24.92
277.737	-8.53
277.952	57
278.168	102.06
278.383	-69.97
278.599	-24.92
278.814	69.29
279.03	73.39
279.245	40.62
279.461	1.71
279.676	42.67
279.892	30.38
280.107	46.76
280.322	-20.82
280.538	89.77
280.753	-10.58
280.969	22.19
281.184	32.43
281.399	77.48
281.615	-8.53
281.83	102.06
282.045	-26.96
282.26	89.77
282.476	38.57
282.691	34.47
282.906	-8.53
283.122	13.99
283.337	65.19
283.552	102.06
283.767	81.58
283.983	11.95
284.198	63.15
284.413	18.09
284.628	71.34
284.843	54.95
285.058	20.14
285.274	-24.92
285.489	-0.34
285.704	13.99
285.919	-12.63
286.134	87.72
286.349	77.48
286.564	13.99
286.779	13.99
286.995	-65.88
287.21	3.75
287.425	93.87
287.64	-4.44
287.855	-10.58
288.07	34.47
288.285	32.43
288.5	151.21
288.715	108.2
288.93	42.67
289.145	13.99
289.36	77.48
289.575	97.96
289.79	71.34
290.004	24.23
290.219	83.63
290.434	13.99
290.649	32.43
290.864	16.04
291.079	81.58
291.294	-41.3
291.509	61.1
291.724	24.23
291.938	-12.63
292.153	22.19
292.368	-14.68
292.583	18.09
292.798	48.81
293.012	89.77
293.227	-4.44
293.442	26.28
293.657	38.57
293.871	38.57
294.086	89.77
294.301	89.77
294.516	114.34
294.73	32.43
294.945	-8.53
295.16	-8.53
295.374	104.11
295.589	-16.73
295.804	5.8
296.018	81.58
296.233	-0.34
296.447	93.87
296.662	20.14
296.877	73.39
297.091	61.1
297.306	85.67
297.52	87.72
297.735	73.39
297.949	-22.87
298.164	16.04
298.378	54.95
298.593	30.38
298.807	38.57
299.022	73.39
299.236	3.75
299.451	48.81
299.665	65.19
299.88	118.44
300.094	48.81
300.309	67.24
300.523	-12.63
300.737	34.47
300.952	-18.77
301.166	20.14
301.381	-22.87
301.595	52.91
301.809	50.86
302.024	22.19
302.238	13.99
302.452	143.02
302.667	3.75
302.881	128.68
303.095	67.24
303.309	93.87
303.524	54.95
303.738	48.81
303.952	-22.87
304.166	30.38
304.381	-14.68
304.595	34.47
304.809	38.57
305.023	50.86
305.237	-2.39
305.452	48.81
305.666	26.28
305.88	48.81
306.094	13.99
306.308	-22.87
306.522	59.05
306.736	-14.68
306.95	36.52
307.164	16.04
307.379	83.63
307.593	46.76
307.807	24.23
308.021	5.8
308.235	-41.3
308.449	-0.34
308.663	38.57
308.877	100.01
309.091	-6.49
309.305	75.43
309.519	22.19
309.733	87.72
309.947	18.09
310.161	28.33
310.374	73.39
310.588	57
310.802	30.38
311.016	32.43
311.23	83.63
311.444	26.28
311.658	46.76
311.872	93.87
312.085	97.96
312.299	122.54
312.513	13.99
312.727	59.05
312.941	97.96
313.154	5.8
313.368	-18.77
313.582	120.49
313.796	57
314.009	44.71
314.223	-12.63
314.437	-4.44
314.651	32.43
314.864	24.23
315.078	36.52
315.292	-74.07
315.505	114.34
315.719	77.48
315.933	-0.34
316.146	46.76
316.36	-10.58
316.573	-47.44
316.787	-0.34
317.001	65.19
317.214	9.9
317.428	36.52
317.641	20.14
317.855	40.62
318.068	11.95
318.282	32.43
318.495	63.15
318.709	5.8
318.922	38.57
319.136	54.95
319.349	36.52
319.563	22.19
319.776	42.67
319.99	61.1
320.203	24.23
320.417	-2.39
320.63	24.23
320.843	77.48
321.057	-20.82
321.27	13.99
321.483	81.58
321.697	-12.63
321.91	28.33
322.124	79.53
322.337	-22.87
322.55	7.85
322.763	-12.63
322.977	7.85
323.19	13.99
323.403	20.14
323.617	-20.82
323.83	22.19
324.043	73.39
324.256	18.09
324.469	85.67
324.683	11.95
324.896	24.23
325.109	22.19
325.322	-59.73
325.535	79.53
325.748	36.52
325.962	28.33
326.175	16.04
326.388	36.52
326.601	89.77
326.814	63.15
327.027	114.34
327.24	112.3
327.453	48.81
327.666	102.06
327.879	11.95
328.092	36.52
328.305	85.67
328.518	48.81
328.731	5.8
328.944	57
329.157	-24.92
329.37	42.67
329.583	18.09
329.796	93.87
330.009	32.43
330.222	50.86
330.435	24.23
330.648	-31.06
330.861	22.19
331.073	50.86
331.286	87.72
331.499	91.82
331.712	63.15
331.925	1.71
332.138	40.62
332.35	1.71
332.563	18.09
332.776	36.52
332.989	75.43
333.202	59.05
333.414	30.38
333.627	-22.87
333.84	-8.53
334.053	46.76
334.265	24.23
334.478	149.16
334.691	57
334.903	26.28
335.116	46.76
335.329	36.52
335.541	93.87
335.754	24.23
335.966	110.25
336.179	32.43
336.392	69.29
336.604	11.95
336.817	50.86
337.029	52.91
337.242	-39.25
337.454	108.2
337.667	7.85
337.88	67.24
338.092	63.15
338.305	30.38
338.517	89.77
338.729	42.67
338.942	73.39
339.154	42.67
339.367	28.33
339.579	87.72
339.792	26.28
340.004	9.9
340.217	65.19
340.429	32.43
340.641	24.23
340.854	11.95
341.066	28.33
341.278	87.72
341.491	50.86
341.703	30.38
341.915	69.29
342.128	-2.39
342.34	34.47
342.552	28.33
342.764	54.95
342.977	87.72
343.189	36.52
343.401	13.99
343.613	11.95
343.826	48.81
344.038	100.01
344.25	132.78
344.462	38.57
344.674	-12.63
344.886	42.67
345.099	71.34
345.311	44.71
345.523	65.19
345.735	46.76
345.947	69.29
346.159	36.52
346.371	42.67
346.583	85.67
346.795	81.58
347.007	46.76
347.219	85.67
347.431	61.1
347.643	52.91
347.855	73.39
348.067	22.19
348.279	24.23
348.491	65.19
348.703	120.49
348.915	11.95
349.127	48.81
349.339	65.19
349.551	81.58
349.763	83.63
349.975	5.8
350.187	89.77
350.399	104.11
350.61	79.53
350.822	-24.92
351.034	149.16
351.246	-33.11
351.458	44.71
351.669	54.95
351.881	44.71
352.093	52.91
352.305	44.71
352.517	52.91
352.728	71.34
352.94	24.23
353.152	36.52
353.363	20.14
353.575	100.01
353.787	87.72
353.999	9.9
354.21	46.76
354.422	79.53
354.633	79.53
354.845	79.53
355.057	5.8
355.268	77.48
355.48	69.29
355.692	20.14
355.903	155.3
356.115	11.95
356.326	9.9
356.538	71.34
356.749	24.23
356.961	102.06
357.172	44.71
357.384	40.62
357.595	91.82
357.807	-12.63
358.018	34.47
358.23	48.81
358.441	85.67
358.653	71.34
358.864	-16.73
359.075	18.09
359.287	5.8
359.498	1.71
359.709	22.19
359.921	75.43
360.132	11.95
360.344	87.72
360.555	61.1
360.766	-2.39
360.977	9.9
361.189	118.44
361.4	48.81
361.611	85.67
361.823	28.33
362.034	20.14
362.245	26.28
362.456	124.58
362.667	95.91
362.879	11.95
363.09	-43.35
363.301	65.19
363.512	13.99
363.723	57
363.935	54.95
364.146	24.23
364.357	81.58
364.568	42.67
364.779	18.09
364.99	71.34
365.201	46.76
365.412	22.19
365.623	1.71
365.834	63.15
366.045	48.81
366.256	48.81
366.467	65.19
366.678	46.76
366.889	57
367.1	22.19
367.311	-16.73
367.522	-8.53
367.733	24.23
367.944	42.67
368.155	69.29
368.366	151.21
368.577	63.15
368.788	100.01
368.999	-49.49
369.209	59.05
369.42	79.53
369.631	28.33
369.842	102.06
370.053	59.05
370.264	-2.39
370.474	-18.77
370.685	38.57
370.896	59.05
371.107	124.58
371.317	87.72
371.528	22.19
371.739	143.02
371.95	28.33
372.16	54.95
372.371	-37.2
372.582	38.57
372.792	40.62
373.003	18.09
373.214	32.43
373.424	22.19
373.635	1.71
373.846	69.29
374.056	38.57
374.267	-57.68
374.477	1.71
374.688	38.57
374.898	16.04
375.109	112.3
375.319	69.29
375.53	138.92
375.74	126.63
375.951	71.34
376.161	61.1
376.372	34.47
376.582	42.67
376.793	73.39
377.003	71.34
377.214	30.38
377.424	-12.63
377.635	36.52
377.845	48.81
378.055	5.8
378.266	42.67
378.476	67.24
378.686	52.91
378.897	7.85
379.107	71.34
379.317	42.67
379.528	30.38
379.738	67.24
379.948	5.8
380.158	104.11
380.369	130.73
380.579	20.14
380.789	-24.92
380.999	54.95
381.21	87.72
381.42	136.87
381.63	28.33
381.84	120.49
382.05	50.86
382.261	132.78
382.471	102.06
382.681	50.86
382.891	104.11
383.101	132.78
383.311	59.05
383.521	69.29
383.731	102.06
383.941	83.63
384.151	42.67
384.361	100.01
384.571	63.15
384.781	67.24
384.991	71.34
385.201	112.3
385.411	36.52
385.621	106.15
385.831	-10.58
386.041	38.57
386.251	32.43
386.461	81.58
386.671	81.58
386.881	79.53
387.091	-14.68
387.301	28.33
387.511	40.62
387.72	32.43
387.93	57
388.14	52.91
388.35	38.57
388.56	11.95
388.769	18.09
388.979	145.06
389.189	-4.44
389.399	11.95
389.609	108.2
389.818	34.47
390.028	79.53
390.238	42.67
390.447	79.53
390.657	85.67
390.867	26.28
391.076	93.87
391.286	114.34
391.496	91.82
391.705	46.76
391.915	73.39
392.125	61.1
392.334	110.25
392.544	112.3
392.753	73.39
392.963	108.2
393.172	79.53
393.382	32.43
393.591	114.34
393.801	140.97
394.01	112.3
394.22	46.76
394.429	79.53
394.639	93.87
394.848	40.62
395.058	91.82
395.267	87.72
395.477	28.33
395.686	57
395.895	149.16
396.105	77.48
396.314	122.54
396.524	159.4
396.733	134.82
396.942	120.49
397.152	120.49
397.361	163.5
397.57	114.34
397.78	151.21
397.989	67.24
398.198	122.54
398.407	30.38
398.617	124.58
398.826	153.26
399.035	93.87
399.244	134.82
399.453	212.65
399.663	149.16
399.872	194.22
400.081	46.76
400.29	143.02
400.499	157.35
400.708	157.35
400.917	151.21
401.127	196.26
401.336	91.82
401.545	183.98
401.754	183.98
401.963	165.54
402.172	124.58
402.381	153.26
402.59	153.26
402.799	206.5
403.008	163.5
403.217	153.26
403.426	93.87
403.635	192.17
403.844	212.65
404.053	165.54
404.262	132.78
404.471	190.12
404.68	208.55
404.888	124.58
405.097	153.26
405.306	208.55
405.515	188.07
405.724	308.9
405.933	200.36
406.142	196.26
406.35	188.07
406.559	220.84
406.768	200.36
406.977	290.47
407.185	206.5
407.394	269.99
407.603	251.56
407.812	222.89
408.02	269.99
408.229	249.51
408.438	356.01
408.646	253.61
408.855	202.41
409.064	337.57
409.272	280.23
409.481	386.72
409.69	325.29
409.898	366.25
410.107	390.82
410.315	386.72
410.524	460.45
410.733	353.96
410.941	423.59
411.15	485.03
411.358	540.32
411.567	540.32
411.775	550.56
411.984	495.27
412.192	599.71
412.401	679.58
412.609	601.76
412.818	640.67
413.026	609.95
413.234	714.4
413.443	716.45
413.651	683.68
413.86	693.92
414.068	808.61
414.276	876.19
414.485	831.13
414.693	818.85
414.901	882.33
415.11	919.2
415.318	941.72
415.526	1015.45
415.734	1003.16
415.943	1027.74
416.151	1017.5
416.359	1054.36
416.567	1083.03
416.776	1095.32
416.984	1332.89
417.192	1283.74
417.4	1384.09
417.608	1314.45
417.817	1423
418.025	1412.76
418.233	1558.16
418.441	1423
418.649	1617.55
418.857	1644.18
419.065	1793.68
419.273	1820.3
419.481	1818.25
419.689	1875.6
419.897	2010.76
420.105	2000.52
420.313	2035.34
420.521	2182.79
420.729	2150.03
420.937	2311.82
421.145	2459.27
421.353	2395.78
421.561	2592.39
421.769	2489.99
421.977	2723.46
422.185	2692.74
422.393	2848.38
422.601	3102.33
422.809	2967.17
423.017	3229.31
423.224	3147.39
423.432	3257.98
423.64	3393.14
423.848	3593.84
424.056	3632.76
424.263	3747.44
424.471	3901.04
424.679	4021.87
424.887	4243.05
425.094	4333.16
425.302	4261.48
425.51	4550.25
425.718	4580.96
425.925	4609.64
426.133	4877.92
426.341	5099.1
426.548	5355.1
426.756	5178.97
426.964	5426.78
427.171	5850.71
427.379	5787.22
427.586	6092.37
427.794	6174.28
428.001	6495.82
428.209	6780.48
428.417	6512.2
428.624	7108.16
428.832	7007.81
429.039	7085.63
429.247	7028.29
429.454	7859.76
429.662	8267.31
429.869	7679.54
430.076	8310.32
430.284	8123.95
430.491	8572.46
430.699	9002.53
430.906	8810.02
431.114	9025.06
431.321	9477.66
431.528	9489.95
431.736	10270.22
431.943	10442.25
432.15	10229.26
432.358	10380.81
432.565	10999.3
432.772	11030.02
432.979	11408.89
433.187	11646.46
433.394	11709.94
433.601	12418.54
433.808	12473.84
434.016	12424.69
434.223	12953.06
434.43	13817.3
434.637	13624.79
434.844	14573
435.052	14667.21
435.259	14882.25
435.466	14800.33
435.673	14482.89
435.88	15324.61
436.087	16250.29
436.294	16424.37
436.501	16151.99
436.708	16317.87
436.915	17038.76
437.122	17667.49
437.329	17601.95
437.537	18285.97
437.743	18599.31
437.95	18349.46
438.157	19174.79
438.364	19811.71
438.571	19987.83
438.778	19826.04
438.985	21867.87
439.192	20784.49
439.399	21687.65
439.606	21302.63
439.813	22605.14
440.02	23872.83
440.227	23385.41
440.433	23061.83
440.64	23885.12
440.847	23702.85
441.054	24331.58
441.261	25961.76
441.467	25642.28
441.674	26148.12
441.881	27036.94
442.088	27018.51
442.294	26705.17
442.501	27544.84
442.708	27895.04
442.914	29412.59
443.121	30422.23
443.328	29723.88
443.534	31626.44
443.741	30581.98
443.948	30209.25
444.154	32654.52
444.361	32150.72
444.568	32517.31
444.774	32941.24
444.981	33252.53
445.187	33811.62
445.394	35327.12
445.6	34860.18
445.807	38001.77
446.013	36813.94
446.22	37307.51
446.426	38935.64
446.633	39218.26
446.839	40408.13
447.046	38597.73
447.252	40942.65
447.459	40758.33
447.665	40535.1
447.871	42378.28
448.078	44037.13
448.284	41800.75
448.491	42990.62
448.697	44860.41
448.903	45528.05
449.11	45736.94
449.316	44854.27
449.522	45843.44
449.728	46947.29
449.935	47041.5
450.141	47428.57
450.347	48262.09
450.553	46916.57
450.76	47616.98
450.966	48812.99
451.172	48153.55
451.378	49650.61
451.584	48225.23
451.791	49611.7
451.997	49054.65
452.203	50097.07
452.409	50570.15
452.615	49740.72
452.821	47789.01
453.027	47326.17
453.233	49787.83
453.44	48010.19
453.646	48178.12
453.852	48876.48
454.058	49367.99
454.264	48245.71
454.47	49025.98
454.676	47580.12
454.882	49236.92
455.088	44893.18
455.294	45376.5
455.5	46187.5
455.705	46797.79
455.911	44762.11
456.117	43813.9
456.323	43146.26
456.529	41165.88
456.735	42871.84
456.941	41704.49
457.147	40600.64
457.352	39752.78
457.558	39332.95
457.764	39728.2
457.97	38487.14
458.176	37971.05
458.381	37626.99
458.587	35708.04
458.793	36025.48
458.999	33967.27
459.204	36129.92
459.41	35284.11
459.616	33098.93
459.821	33408.17
460.027	32541.88
460.233	32453.82
460.438	30682.33
460.644	31014.1
460.85	29672.68
461.055	28859.63
461.261	29089.01
461.466	26692.88
461.672	25857.31
461.878	27561.22
462.083	25750.82
462.289	25732.39
462.494	25345.32
462.7	24044.86
462.905	23608.64
463.111	24384.82
463.316	24356.15
463.522	24110.39
463.727	24018.24
463.932	23885.12
464.138	23864.64
464.343	23768.38
464.549	23201.1
464.754	23602.5
464.959	23403.85
465.165	23369.03
465.37	22441.3
465.575	22052.19
465.781	22725.97
465.986	22664.53
466.191	22261.08
466.397	21775.71
466.602	20333.94
466.807	21515.62
467.012	21611.87
