Data from USB4F104151__224__11-10-53-054.txt Node

Date: Wed Mar 12 11:10:53 EDT 2025
User: louis
Spectrometer: USB4F10415
Trigger mode: 4
Integration Time (sec): 2.000000E-2
Scans to average: 1
Electric dark correction enabled: true
Nonlinearity correction enabled: false
Boxcar width: 0
XAxis mode: Wavelengths
Number of Pixels in Spectrum: 3648
>>>>>Begin Spectral Data<<<<<
178.204	-13.31
178.424	-13.31
178.644	-13.31
178.864	-136.19
179.084	-84.99
179.304	-48.13
179.524	11.26
179.744	41.98
179.964	46.08
180.184	11.26
180.404	-15.36
180.624	11.26
180.844	7.17
181.064	-29.7
181.283	-48.13
181.503	-52.22
181.723	64.51
181.943	-44.03
182.163	33.79
182.383	-13.31
182.602	15.36
182.822	-9.22
183.042	-5.12
183.262	-7.17
183.482	9.22
183.701	23.55
183.921	-23.55
184.141	-17.41
184.361	44.03
184.58	-5.12
184.8	-9.22
185.02	-17.41
185.239	11.26
185.459	15.36
185.679	52.22
185.898	-52.22
186.118	33.79
186.338	-39.94
186.557	5.12
186.777	-37.89
186.997	29.7
187.216	23.55
187.436	-21.5
187.655	-27.65
187.875	31.74
188.095	-48.13
188.314	39.94
188.534	15.36
188.753	-19.46
188.973	13.31
189.192	7.17
189.412	39.94
189.631	33.79
189.851	-11.26
190.07	70.65
190.29	11.26
190.509	52.22
190.729	-41.98
190.948	35.84
191.168	44.03
191.387	11.26
191.607	5.12
191.826	-15.36
192.045	21.5
192.265	-11.26
192.484	7.17
192.704	-46.08
192.923	-39.94
193.142	44.03
193.362	11.26
193.581	60.42
193.8	29.7
194.02	-19.46
194.239	27.65
194.458	33.79
194.678	-58.37
194.897	-68.61
195.116	-33.79
195.335	15.36
195.555	-37.89
195.774	-21.5
195.993	-5.12
196.212	-33.79
196.432	-21.5
196.651	-13.31
196.87	-72.7
197.089	44.03
197.308	-29.7
197.528	66.56
197.747	9.22
197.966	15.36
198.185	31.74
198.404	27.65
198.623	11.26
198.842	27.65
199.062	-9.22
199.281	3.07
199.5	44.03
199.719	39.94
199.938	89.09
200.157	99.33
200.376	89.09
200.595	-1.02
200.814	76.8
201.033	-5.12
201.252	84.99
201.471	-23.55
201.69	29.7
201.909	72.7
202.128	46.08
202.347	99.33
202.566	37.89
202.785	56.32
203.004	-25.6
203.223	-21.5
203.442	11.26
203.661	17.41
203.879	-9.22
204.098	72.7
204.317	-60.42
204.536	52.22
204.755	-7.17
204.974	39.94
205.193	48.13
205.411	58.37
205.63	7.17
205.849	-76.8
206.068	19.46
206.287	37.89
206.505	41.98
206.724	60.42
206.943	21.5
207.162	-17.41
207.381	1.02
207.599	-3.07
207.818	-21.5
208.037	52.22
208.255	-41.98
208.474	39.94
208.693	39.94
208.911	13.31
209.13	19.46
209.349	-25.6
209.567	-15.36
209.786	93.18
210.005	-74.75
210.223	35.84
210.442	27.65
210.661	1.02
210.879	21.5
211.098	13.31
211.316	58.37
211.535	-11.26
211.753	-37.89
211.972	84.99
212.191	33.79
212.409	-17.41
212.628	35.84
212.846	17.41
213.065	-50.18
213.283	80.89
213.502	29.7
213.72	-17.41
213.938	11.26
214.157	23.55
214.375	21.5
214.594	-87.04
214.812	33.79
215.031	-23.55
215.249	-35.84
215.467	-41.98
215.686	-37.89
215.904	44.03
216.122	-39.94
216.341	1.02
216.559	68.61
216.778	-1.02
216.996	3.07
217.214	-9.22
217.432	9.22
217.651	-33.79
217.869	-27.65
218.087	64.51
218.306	33.79
218.524	15.36
218.742	27.65
218.96	-31.74
219.179	-19.46
219.397	54.27
219.615	44.03
219.833	19.46
220.051	-13.31
220.27	23.55
220.488	-72.7
220.706	97.28
220.924	-50.18
221.142	-48.13
221.36	27.65
221.578	-1.02
221.796	-11.26
222.015	11.26
222.233	91.13
222.451	3.07
222.669	13.31
222.887	101.37
223.105	54.27
223.323	-33.79
223.541	19.46
223.759	19.46
223.977	31.74
224.195	54.27
224.413	-35.84
224.631	62.46
224.849	17.41
225.067	25.6
225.285	-39.94
225.503	-33.79
225.721	-21.5
225.939	-27.65
226.157	-82.94
226.375	33.79
226.592	56.32
226.81	15.36
227.028	29.7
227.246	1.02
227.464	-76.8
227.682	11.26
227.9	44.03
228.117	15.36
228.335	-9.22
228.553	1.02
228.771	66.56
228.989	3.07
229.206	62.46
229.424	35.84
229.642	-19.46
229.86	11.26
230.077	-58.37
230.295	-3.07
230.513	60.42
230.731	41.98
230.948	31.74
231.166	66.56
231.384	-23.55
231.601	39.94
231.819	-31.74
232.037	35.84
232.254	-1.02
232.472	64.51
232.689	37.89
232.907	3.07
233.125	52.22
233.342	-3.07
233.56	23.55
233.777	46.08
233.995	-1.02
234.213	48.13
234.43	35.84
234.648	-54.27
234.865	-17.41
235.083	72.7
235.3	-11.26
235.518	64.51
235.735	27.65
235.953	56.32
236.17	-31.74
236.388	-15.36
236.605	-11.26
236.822	105.47
237.04	31.74
237.257	25.6
237.475	7.17
237.692	21.5
237.909	66.56
238.127	-56.32
238.344	-27.65
238.562	11.26
238.779	-9.22
238.996	-21.5
239.214	68.61
239.431	60.42
239.648	48.13
239.865	111.61
240.083	48.13
240.3	66.56
240.517	66.56
240.735	29.7
240.952	-9.22
241.169	113.66
241.386	-35.84
241.603	5.12
241.821	-37.89
242.038	52.22
242.255	5.12
242.472	-11.26
242.689	9.22
242.907	84.99
243.124	-11.26
243.341	-19.46
243.558	-5.12
243.775	-54.27
243.992	-29.7
244.209	1.02
244.426	-17.41
244.643	25.6
244.86	-54.27
245.078	60.42
245.295	-48.13
245.512	9.22
245.729	56.32
245.946	-21.5
246.163	-17.41
246.38	44.03
246.597	-19.46
246.814	1.02
247.031	-7.17
247.248	80.89
247.464	-25.6
247.681	-13.31
247.898	-13.31
248.115	-1.02
248.332	15.36
248.549	27.65
248.766	-21.5
248.983	25.6
249.2	17.41
249.417	39.94
249.633	-5.12
249.85	52.22
250.067	58.37
250.284	-5.12
250.501	-7.17
250.717	46.08
250.934	13.31
251.151	41.98
251.368	37.89
251.585	44.03
251.801	37.89
252.018	113.66
252.235	56.32
252.451	-17.41
252.668	19.46
252.885	39.94
253.102	7.17
253.318	103.42
253.535	21.5
253.752	13.31
253.968	-11.26
254.185	-41.98
254.401	15.36
254.618	54.27
254.835	-117.76
255.051	50.18
255.268	54.27
255.484	72.7
255.701	7.17
255.917	39.94
256.134	-87.04
256.351	-13.31
256.567	3.07
256.784	29.7
257	-21.5
257.217	23.55
257.433	-13.31
257.65	70.65
257.866	-27.65
258.082	-5.12
258.299	-23.55
258.515	52.22
258.732	-19.46
258.948	-17.41
259.165	1.02
259.381	-105.47
259.597	15.36
259.814	5.12
260.03	11.26
260.246	-7.17
260.463	56.32
260.679	-21.5
260.895	21.5
261.112	-31.74
261.328	54.27
261.544	54.27
261.761	72.7
261.977	29.7
262.193	-13.31
262.409	84.99
262.626	7.17
262.842	-9.22
263.058	27.65
263.274	21.5
263.49	-68.61
263.707	-15.36
263.923	-5.12
264.139	-39.94
264.355	82.94
264.571	13.31
264.787	7.17
265.004	27.65
265.22	1.02
265.436	60.42
265.652	80.89
265.868	52.22
266.084	7.17
266.3	13.31
266.516	-11.26
266.732	-25.6
266.948	-48.13
267.164	11.26
267.38	1.02
267.596	31.74
267.812	87.04
268.028	64.51
268.244	66.56
268.46	-52.22
268.676	17.41
268.892	56.32
269.108	-9.22
269.324	-7.17
269.54	-37.89
269.756	54.27
269.972	-64.51
270.188	46.08
270.403	15.36
270.619	-48.13
270.835	48.13
271.051	-107.52
271.267	9.22
271.483	39.94
271.698	21.5
271.914	7.17
272.13	3.07
272.346	5.12
272.562	39.94
272.777	60.42
272.993	-21.5
273.209	-25.6
273.425	-13.31
273.64	-33.79
273.856	35.84
274.072	17.41
274.287	-39.94
274.503	11.26
274.719	39.94
274.934	37.89
275.15	-23.55
275.366	19.46
275.581	27.65
275.797	37.89
276.012	19.46
276.228	29.7
276.444	33.79
276.659	15.36
276.875	17.41
277.09	46.08
277.306	1.02
277.521	37.89
277.737	21.5
277.952	68.61
278.168	3.07
278.383	3.07
278.599	9.22
278.814	64.51
279.03	-13.31
279.245	78.85
279.461	-66.56
279.676	76.8
279.892	-25.6
280.107	19.46
280.322	-19.46
280.538	-23.55
280.753	13.31
280.969	62.46
281.184	48.13
281.399	50.18
281.615	87.04
281.83	5.12
282.045	23.55
282.26	-27.65
282.476	13.31
282.691	29.7
282.906	-23.55
283.122	60.42
283.337	-54.27
283.552	48.13
283.767	-25.6
283.983	7.17
284.198	13.31
284.413	-62.46
284.628	-7.17
284.843	19.46
285.058	-1.02
285.274	9.22
285.489	9.22
285.704	29.7
285.919	5.12
286.134	60.42
286.349	-15.36
286.564	-5.12
286.779	-29.7
286.995	-13.31
287.21	-21.5
287.425	60.42
287.64	-82.94
287.855	39.94
288.07	-15.36
288.285	7.17
288.5	31.74
288.715	7.17
288.93	68.61
289.145	44.03
289.36	64.51
289.575	3.07
289.79	54.27
290.004	13.31
290.219	25.6
290.434	-19.46
290.649	91.13
290.864	31.74
291.079	82.94
291.294	9.22
291.509	27.65
291.724	39.94
291.938	41.98
292.153	17.41
292.368	11.26
292.583	48.13
292.798	-50.18
293.012	44.03
293.227	29.7
293.442	23.55
293.657	-15.36
293.871	41.98
294.086	62.46
294.301	56.32
294.516	5.12
294.73	-7.17
294.945	-27.65
295.16	58.37
295.374	64.51
295.589	-15.36
295.804	-41.98
296.018	-17.41
296.233	-17.41
296.447	7.17
296.662	19.46
296.877	39.94
297.091	-11.26
297.306	11.26
297.52	-23.55
297.735	33.79
297.949	80.89
298.164	23.55
298.378	3.07
298.593	-13.31
298.807	-15.36
299.022	-17.41
299.236	-25.6
299.451	52.22
299.665	76.8
299.88	-13.31
300.094	84.99
300.309	-13.31
300.523	31.74
300.737	-17.41
300.952	-21.5
301.166	111.61
301.381	-46.08
301.595	48.13
301.809	29.7
302.024	-1.02
302.238	-62.46
302.452	56.32
302.667	33.79
302.881	25.6
303.095	70.65
303.309	3.07
303.524	17.41
303.738	15.36
303.952	-66.56
304.166	56.32
304.381	23.55
304.595	19.46
304.809	-17.41
305.023	-23.55
305.237	1.02
305.452	-29.7
305.666	39.94
305.88	23.55
306.094	27.65
306.308	-5.12
306.522	50.18
306.736	5.12
306.95	9.22
307.164	-21.5
307.379	-23.55
307.593	-11.26
307.807	41.98
308.021	70.65
308.235	17.41
308.449	-19.46
308.663	29.7
308.877	56.32
309.091	-1.02
309.305	46.08
309.519	-11.26
309.733	-19.46
309.947	-41.98
310.161	39.94
310.374	-21.5
310.588	82.94
310.802	11.26
311.016	-17.41
311.23	60.42
311.444	44.03
311.658	3.07
311.872	105.47
312.085	37.89
312.299	-5.12
312.513	-7.17
312.727	11.26
312.941	7.17
313.154	107.52
313.368	-33.79
313.582	70.65
313.796	15.36
314.009	35.84
314.223	-5.12
314.437	-21.5
314.651	60.42
314.864	-9.22
315.078	-17.41
315.292	-41.98
315.505	31.74
315.719	5.12
315.933	-19.46
316.146	-111.61
316.36	-3.07
316.573	27.65
316.787	5.12
317.001	41.98
317.214	-19.46
317.428	23.55
317.641	-62.46
317.855	19.46
318.068	17.41
318.282	9.22
318.495	84.99
318.709	44.03
318.922	-39.94
319.136	-25.6
319.349	29.7
319.563	35.84
319.776	48.13
319.99	37.89
320.203	72.7
320.417	-17.41
320.63	17.41
320.843	66.56
321.057	-13.31
321.27	82.94
321.483	44.03
321.697	-7.17
321.91	41.98
322.124	17.41
322.337	46.08
322.55	27.65
322.763	15.36
322.977	60.42
323.19	11.26
323.403	3.07
323.617	11.26
323.83	64.51
324.043	19.46
324.256	37.89
324.469	-11.26
324.683	56.32
324.896	15.36
325.109	25.6
325.322	-9.22
325.535	-29.7
325.748	3.07
325.962	39.94
326.175	5.12
326.388	50.18
326.601	76.8
326.814	-5.12
327.027	39.94
327.24	70.65
327.453	27.65
327.666	70.65
327.879	44.03
328.092	21.5
328.305	50.18
328.518	35.84
328.731	-68.61
328.944	27.65
329.157	11.26
329.37	25.6
329.583	82.94
329.796	56.32
330.009	-84.99
330.222	78.85
330.435	31.74
330.648	52.22
330.861	15.36
331.073	-9.22
331.286	-19.46
331.499	-17.41
331.712	-54.27
331.925	21.5
332.138	29.7
332.35	48.13
332.563	37.89
332.776	-19.46
332.989	41.98
333.202	1.02
333.414	23.55
333.627	54.27
333.84	-5.12
334.053	3.07
334.265	33.79
334.478	33.79
334.691	27.65
334.903	44.03
335.116	-7.17
335.329	70.65
335.541	89.09
335.754	29.7
335.966	3.07
336.179	9.22
336.392	-3.07
336.604	3.07
336.817	117.76
337.029	41.98
337.242	19.46
337.454	-9.22
337.667	37.89
337.88	84.99
338.092	33.79
338.305	25.6
338.517	11.26
338.729	54.27
338.942	44.03
339.154	52.22
339.367	19.46
339.579	60.42
339.792	89.09
340.004	52.22
340.217	9.22
340.429	66.56
340.641	-29.7
340.854	48.13
341.066	31.74
341.278	17.41
341.491	-13.31
341.703	78.85
341.915	3.07
342.128	41.98
342.34	76.8
342.552	52.22
342.764	25.6
342.977	54.27
343.189	19.46
343.401	56.32
343.613	-46.08
343.826	1.02
344.038	23.55
344.25	15.36
344.462	-25.6
344.674	27.65
344.886	21.5
345.099	21.5
345.311	-17.41
345.523	41.98
345.735	-54.27
345.947	84.99
346.159	1.02
346.371	62.46
346.583	7.17
346.795	80.89
347.007	50.18
347.219	21.5
347.431	27.65
347.643	35.84
347.855	-17.41
348.067	62.46
348.279	-1.02
348.491	-23.55
348.703	56.32
348.915	50.18
349.127	5.12
349.339	-19.46
349.551	56.32
349.763	15.36
349.975	-17.41
350.187	1.02
350.399	-11.26
350.61	19.46
350.822	-33.79
351.034	17.41
351.246	-29.7
351.458	-46.08
351.669	52.22
351.881	80.89
352.093	58.37
352.305	50.18
352.517	-5.12
352.728	72.7
352.94	52.22
353.152	29.7
353.363	3.07
353.575	-25.6
353.787	76.8
353.999	-7.17
354.21	50.18
354.422	-5.12
354.633	39.94
354.845	-3.07
355.057	7.17
355.268	39.94
355.48	-39.94
355.692	31.74
355.903	-27.65
356.115	39.94
356.326	-11.26
356.538	58.37
356.749	-13.31
356.961	19.46
357.172	-29.7
357.384	27.65
357.595	68.61
357.807	33.79
358.018	29.7
358.23	17.41
358.441	25.6
358.653	87.04
358.864	17.41
359.075	5.12
359.287	19.46
359.498	82.94
359.709	33.79
359.921	-19.46
360.132	76.8
360.344	48.13
360.555	80.89
360.766	37.89
360.977	-7.17
361.189	25.6
361.4	-17.41
361.611	33.79
361.823	19.46
362.034	19.46
362.245	15.36
362.456	19.46
362.667	-31.74
362.879	11.26
363.09	31.74
363.301	3.07
363.512	48.13
363.723	72.7
363.935	13.31
364.146	56.32
364.357	72.7
364.568	60.42
364.779	-41.98
364.99	68.61
365.201	-31.74
365.412	19.46
365.623	23.55
365.834	52.22
366.045	89.09
366.256	107.52
366.467	7.17
366.678	72.7
366.889	84.99
367.1	11.26
367.311	23.55
367.522	-35.84
367.733	72.7
367.944	58.37
368.155	-29.7
368.366	97.28
368.577	64.51
368.788	50.18
368.999	-35.84
369.209	1.02
369.42	84.99
369.631	76.8
369.842	25.6
370.053	64.51
370.264	99.33
370.474	5.12
370.685	-13.31
370.896	68.61
371.107	78.85
371.317	46.08
371.528	-19.46
371.739	23.55
371.95	60.42
372.16	29.7
372.371	-7.17
372.582	80.89
372.792	58.37
373.003	58.37
373.214	7.17
373.424	78.85
373.635	31.74
373.846	113.66
374.056	25.6
374.267	-13.31
374.477	15.36
374.688	9.22
374.898	50.18
375.109	35.84
375.319	-1.02
375.53	84.99
375.74	-3.07
375.951	-19.46
376.161	72.7
376.372	74.75
376.582	-9.22
376.793	50.18
377.003	15.36
377.214	-7.17
377.424	-13.31
377.635	-9.22
377.845	-3.07
378.055	119.81
378.266	31.74
378.476	25.6
378.686	19.46
378.897	35.84
379.107	33.79
379.317	99.33
379.528	64.51
379.738	56.32
379.948	-54.27
380.158	35.84
380.369	66.56
380.579	33.79
380.789	-13.31
380.999	134.14
381.21	-7.17
381.42	29.7
381.63	29.7
381.84	21.5
382.05	-44.03
382.261	31.74
382.471	5.12
382.681	21.5
382.891	105.47
383.101	60.42
383.311	-3.07
383.521	46.08
383.731	15.36
383.941	33.79
384.151	33.79
384.361	64.51
384.571	31.74
384.781	25.6
384.991	15.36
385.201	60.42
385.411	101.37
385.621	15.36
385.831	27.65
386.041	1.02
386.251	23.55
386.461	60.42
386.671	54.27
386.881	-5.12
387.091	52.22
387.301	64.51
387.511	35.84
387.72	56.32
387.93	52.22
388.14	-3.07
388.35	72.7
388.56	48.13
388.769	-21.5
388.979	19.46
389.189	27.65
389.399	50.18
389.609	56.32
389.818	56.32
390.028	29.7
390.238	46.08
390.447	-46.08
390.657	27.65
390.867	60.42
391.076	11.26
391.286	54.27
391.496	37.89
391.705	58.37
391.915	39.94
392.125	-1.02
392.334	33.79
392.544	60.42
392.753	23.55
392.963	-1.02
393.172	140.29
393.382	95.23
393.591	72.7
393.801	29.7
394.01	-9.22
394.22	21.5
394.429	82.94
394.639	9.22
394.848	35.84
395.058	56.32
395.267	84.99
395.477	105.47
395.686	99.33
395.895	99.33
396.105	109.57
396.314	11.26
396.524	39.94
396.733	64.51
396.942	62.46
397.152	56.32
397.361	87.04
397.57	48.13
397.78	93.18
397.989	48.13
398.198	54.27
398.407	25.6
398.617	105.47
398.826	52.22
399.035	97.28
399.244	109.57
399.453	109.57
399.663	72.7
399.872	103.42
400.081	89.09
400.29	123.9
400.499	41.98
400.708	119.81
400.917	27.65
401.127	197.63
401.336	76.8
401.545	173.05
401.754	58.37
401.963	154.62
402.172	60.42
402.381	80.89
402.59	140.29
402.799	119.81
403.008	91.13
403.217	125.95
403.426	128
403.635	84.99
403.844	179.2
404.053	72.7
404.262	160.77
404.471	121.85
404.68	95.23
404.888	70.65
405.097	48.13
405.306	101.37
405.515	68.61
405.724	72.7
405.933	93.18
406.142	132.09
406.35	56.32
406.559	23.55
406.768	109.57
406.977	117.76
407.185	154.62
407.394	171.01
407.603	76.8
407.812	162.81
408.02	166.91
408.229	195.58
408.438	97.28
408.646	150.53
408.855	150.53
409.064	154.62
409.272	195.58
409.481	181.25
409.69	222.2
409.898	130.05
410.107	232.44
410.315	166.91
410.524	187.39
410.733	214.01
410.941	254.97
411.15	259.07
411.358	312.32
411.567	238.59
411.775	230.4
411.984	267.26
412.192	351.23
412.401	349.18
412.609	306.17
412.818	361.47
413.026	396.28
413.234	383.99
413.443	320.51
413.651	390.14
413.86	390.14
414.068	392.19
414.276	410.62
414.485	441.34
414.693	449.53
414.901	547.83
415.11	484.34
415.318	541.69
415.526	459.77
415.734	660.47
415.943	558.07
416.151	535.54
416.359	635.89
416.567	656.37
416.776	658.42
416.984	764.92
417.192	631.8
417.4	672.76
417.608	689.14
417.817	709.62
418.025	795.64
418.233	826.36
418.441	764.92
418.649	857.07
418.857	912.37
419.065	969.71
419.273	877.55
419.481	984.05
419.689	979.95
419.897	1020.91
420.105	1149.93
420.313	1143.79
420.521	1154.03
420.729	1260.52
420.937	1252.33
421.145	1250.28
421.353	1293.29
421.561	1301.48
421.769	1426.41
421.977	1524.71
422.185	1510.38
422.393	1559.53
422.601	1653.73
422.809	1637.35
423.017	1723.37
423.224	1590.25
423.432	1743.85
423.64	1833.96
423.848	2028.51
424.056	1928.16
424.263	2055.14
424.471	2061.28
424.679	2200.54
424.887	2278.37
425.094	2243.55
425.302	2307.04
425.51	2417.63
425.718	2391
425.925	2448.35
426.133	2647
426.341	2728.92
426.548	2819.03
426.756	2847.7
426.964	2876.37
427.171	3120.08
427.379	3206.1
427.586	3222.48
427.794	3230.67
428.001	3400.65
428.209	3507.15
428.417	3478.47
428.624	3873.73
428.832	3748.81
429.039	3601.35
429.247	3777.48
429.454	4148.16
429.662	4285.37
429.869	4027.33
430.076	4467.64
430.284	4246.46
430.491	4512.7
430.699	4643.77
430.906	4793.27
431.114	4606.91
431.321	4838.33
431.528	4934.58
431.736	5272.5
431.943	5538.73
432.15	5508.01
432.358	5432.24
432.565	5925.8
432.772	5764.01
432.979	6091.68
433.187	6079.4
433.394	6146.98
433.601	6433.69
433.808	6615.96
434.016	6538.14
434.223	6753.18
434.43	7211.92
434.637	7054.23
434.844	7510.93
435.052	7748.49
435.259	7705.48
435.466	7752.59
435.673	7594.89
435.88	8061.83
436.087	8383.36
436.294	8569.73
436.501	8289.15
436.708	8534.91
436.915	8842.11
437.122	9315.19
437.329	9257.84
437.537	9411.44
437.743	9511.79
437.95	9702.25
438.157	10074.98
438.364	10453.86
438.571	10208.1
438.778	10607.45
438.985	11328.34
439.192	10998.62
439.399	11121.49
439.606	10982.23
439.813	11613.01
440.02	12319.56
440.227	12127.05
440.433	12010.31
440.64	12352.32
440.847	12258.12
441.054	12481.35
441.261	13445.94
441.467	13323.06
441.674	13652.78
441.881	13927.21
442.088	13857.58
442.294	13630.26
442.501	14113.58
442.708	14523.17
442.914	14869.28
443.121	15594.26
443.328	15096.6
443.534	16173.83
443.741	16014.09
443.948	15692.56
444.154	16941.82
444.361	16487.17
444.568	16519.94
444.774	16771.84
444.981	17195.77
445.187	17523.44
445.394	18213.61
445.6	17986.29
445.807	19892.94
446.013	18893.54
446.22	19086.04
446.426	19745.49
446.633	20237
446.839	20910.78
447.046	20134.6
447.252	20773.57
447.459	21234.36
447.665	20882.11
447.871	21654.2
448.078	22704.81
448.284	21547.7
448.491	22160.05
448.697	23179.93
448.903	23487.13
449.11	23581.34
449.316	23368.35
449.522	23519.9
449.728	24269.45
449.935	24064.66
450.141	24322.7
450.347	24904.32
450.553	24341.13
450.76	24261.26
450.966	25260.67
451.172	24656.52
451.378	25262.72
451.584	24980.1
451.791	25352.83
451.997	25240.19
452.203	26063.47
452.409	25762.42
452.615	25922.16
452.821	24779.4
453.027	24228.49
453.233	25469.56
453.44	24715.91
453.646	24990.34
453.852	25092.74
454.058	25451.13
454.264	24765.06
454.47	25178.75
454.676	24586.89
454.882	25166.46
455.088	23167.65
455.294	23493.27
455.5	23669.4
455.705	23808.66
455.911	22964.9
456.117	22358.7
456.323	22211.25
456.529	21226.17
456.735	22246.06
456.941	21480.12
457.147	21037.76
457.352	20468.42
457.558	20237
457.764	20198.09
457.97	19823.31
458.176	19276.51
458.381	19407.58
458.587	18594.53
458.793	18404.07
458.999	17607.41
459.204	18543.33
459.41	18295.53
459.616	16902.91
459.821	16927.49
460.027	16847.61
460.233	16655.11
460.438	15811.34
460.644	15821.58
460.85	15162.14
461.055	15026.97
461.261	14918.43
461.466	13849.39
461.672	13237.05
461.878	14461.73
462.083	13605.68
462.289	13163.32
462.494	13206.33
462.7	12301.12
462.905	12043.08
463.111	12757.82
463.316	12624.7
463.522	12424
463.727	12372.8
463.932	12116.81
464.138	12133.19
464.343	12272.45
464.549	12028.74
464.754	12129.09
464.959	12188.49
465.165	12075.85
465.37	11457.36
465.575	11377.49
465.781	11864.91
465.986	11725.65
466.191	11393.87
466.397	11178.84
466.602	10701.66
466.807	11160.41
467.012	11025.24
467.218	10890.07
467.423	10822.49
467.628	10855.26
467.833	11359.06
468.038	10896.22
