Data from USB4F104151__152__11-08-27-030.txt Node

Date: Wed Mar 12 11:08:27 EDT 2025
User: louis
Spectrometer: USB4F10415
Trigger mode: 4
Integration Time (sec): 2.000000E-2
Scans to average: 1
Electric dark correction enabled: true
Nonlinearity correction enabled: false
Boxcar width: 0
XAxis mode: Wavelengths
Number of Pixels in Spectrum: 3648
>>>>>Begin Spectral Data<<<<<
178.204	-38.23
178.424	-38.23
178.644	-38.23
178.864	-97.62
179.084	-111.96
179.304	23.21
179.524	-34.13
179.744	-32.08
179.964	6.83
180.184	-52.56
180.404	23.21
180.624	29.35
180.844	10.92
181.064	4.78
181.283	12.97
181.503	8.87
181.723	-1.37
181.943	45.74
182.163	-15.7
182.383	-1.37
182.602	10.92
182.822	80.55
183.042	-25.94
183.262	-7.51
183.482	12.97
183.701	31.4
183.921	60.07
184.141	-9.56
184.361	2.73
184.58	19.11
184.8	47.79
185.02	-11.61
185.239	8.87
185.459	-1.37
185.679	10.92
185.898	-5.46
186.118	25.26
186.338	12.97
186.557	84.65
186.777	15.02
186.997	-17.75
187.216	70.31
187.436	31.4
187.655	17.07
187.875	-27.99
188.095	6.83
188.314	4.78
188.534	-32.08
188.753	60.07
188.973	60.07
189.192	35.5
189.412	-36.18
189.631	60.07
189.851	-17.75
190.07	27.31
190.29	-7.51
190.509	33.45
190.729	-40.28
190.948	-1.37
191.168	84.65
191.387	17.07
191.607	31.4
191.826	-15.7
192.045	10.92
192.265	55.98
192.484	-34.13
192.704	62.12
192.923	10.92
193.142	60.07
193.362	25.26
193.581	2.73
193.8	15.02
194.02	2.73
194.239	21.16
194.458	-15.7
194.678	31.4
194.897	90.79
195.116	-7.51
195.335	-68.95
195.555	39.59
195.774	23.21
195.993	-23.89
196.212	-19.8
196.432	25.26
196.651	15.02
196.87	21.16
197.089	78.51
197.308	2.73
197.528	62.12
197.747	-17.75
197.966	-40.28
198.185	-21.85
198.404	17.07
198.623	6.83
198.842	62.12
199.062	31.4
199.281	0.68
199.5	10.92
199.719	-40.28
199.938	2.73
200.157	-5.46
200.376	-56.66
200.595	39.59
200.814	-25.94
201.033	15.02
201.252	21.16
201.471	0.68
201.69	-34.13
201.909	51.88
202.128	10.92
202.347	-25.94
202.566	-13.65
202.785	8.87
203.004	33.45
203.223	115.37
203.442	37.55
203.661	-25.94
203.879	62.12
204.098	-7.51
204.317	12.97
204.536	15.02
204.755	72.36
204.974	8.87
205.193	17.07
205.411	41.64
205.63	-5.46
205.849	45.74
206.068	82.6
206.287	92.84
206.505	35.5
206.724	53.93
206.943	-17.75
207.162	-48.47
207.381	-7.51
207.599	45.74
207.818	41.64
208.037	21.16
208.255	17.07
208.474	-89.43
208.693	-32.08
208.911	47.79
209.13	15.02
209.349	70.31
209.567	80.55
209.786	19.11
210.005	10.92
210.223	-25.94
210.442	2.73
210.661	-9.56
210.879	31.4
211.098	43.69
211.316	8.87
211.535	49.83
211.753	-3.41
211.972	-25.94
212.191	17.07
212.409	10.92
212.628	-13.65
212.846	-1.37
213.065	33.45
213.283	10.92
213.502	43.69
213.72	-50.52
213.938	43.69
214.157	-17.75
214.375	58.03
214.594	17.07
214.812	41.64
215.031	-25.94
215.249	-46.42
215.467	41.64
215.686	-15.7
215.904	107.18
216.122	35.5
216.341	86.7
216.559	-71
216.778	27.31
216.996	-38.23
217.214	-25.94
217.432	-27.99
217.651	31.4
217.869	-32.08
218.087	-30.04
218.306	-3.41
218.524	25.26
218.742	-114
218.96	45.74
219.179	10.92
219.397	55.98
219.615	6.83
219.833	6.83
220.051	-30.04
220.27	12.97
220.488	-34.13
220.706	31.4
220.924	8.87
221.142	21.16
221.36	39.59
221.578	-7.51
221.796	23.21
222.015	-60.76
222.233	78.51
222.451	-9.56
222.669	-13.65
222.887	27.31
223.105	39.59
223.323	-52.56
223.541	-13.65
223.759	-34.13
223.977	15.02
224.195	39.59
224.413	2.73
224.631	64.17
224.849	0.68
225.067	4.78
225.285	80.55
225.503	-11.61
225.721	6.83
225.939	27.31
226.157	33.45
226.375	129.7
226.592	12.97
226.81	-54.61
227.028	78.51
227.246	49.83
227.464	21.16
227.682	35.5
227.9	37.55
228.117	-7.51
228.335	21.16
228.553	-27.99
228.771	84.65
228.989	74.41
229.206	-30.04
229.424	105.13
229.642	2.73
229.86	-25.94
230.077	-32.08
230.295	27.31
230.513	64.17
230.731	-15.7
230.948	10.92
231.166	15.02
231.384	88.75
231.601	41.64
231.819	23.21
232.037	19.11
232.254	-19.8
232.472	117.42
232.689	31.4
232.907	25.26
233.125	-38.23
233.342	33.45
233.56	51.88
233.777	-5.46
233.995	-5.46
234.213	86.7
234.43	-3.41
234.648	39.59
234.865	43.69
235.083	51.88
235.3	49.83
235.518	49.83
235.735	25.26
235.953	19.11
236.17	10.92
236.388	31.4
236.605	-3.41
236.822	68.27
237.04	12.97
237.257	86.7
237.475	-40.28
237.692	47.79
237.909	-34.13
238.127	-36.18
238.344	45.74
238.562	17.07
238.779	21.16
238.996	-36.18
239.214	29.35
239.431	29.35
239.648	15.02
239.865	29.35
240.083	41.64
240.3	23.21
240.517	-83.28
240.735	64.17
240.952	53.93
241.169	-5.46
241.386	0.68
241.603	0.68
241.821	37.55
242.038	53.93
242.255	33.45
242.472	-19.8
242.689	58.03
242.907	35.5
243.124	58.03
243.341	-5.46
243.558	51.88
243.775	2.73
243.992	0.68
244.209	41.64
244.426	43.69
244.643	-44.37
244.86	-64.85
245.078	10.92
245.295	68.27
245.512	10.92
245.729	45.74
245.946	-23.89
246.163	2.73
246.38	70.31
246.597	21.16
246.814	-1.37
247.031	-46.42
247.248	45.74
247.464	39.59
247.681	35.5
247.898	45.74
248.115	-5.46
248.332	-23.89
248.549	78.51
248.766	-36.18
248.983	-40.28
249.2	2.73
249.417	8.87
249.633	10.92
249.85	-3.41
250.067	4.78
250.284	41.64
250.501	-52.56
250.717	45.74
250.934	8.87
251.151	-11.61
251.368	8.87
251.585	0.68
251.801	35.5
252.018	0.68
252.235	45.74
252.451	8.87
252.668	-21.85
252.885	68.27
253.102	-21.85
253.318	-25.94
253.535	-15.7
253.752	12.97
253.968	27.31
254.185	-13.65
254.401	0.68
254.618	-1.37
254.835	70.31
255.051	31.4
255.268	19.11
255.484	-3.41
255.701	-7.51
255.917	64.17
256.134	4.78
256.351	19.11
256.567	15.02
256.784	51.88
257	-66.9
257.217	25.26
257.433	4.78
257.65	49.83
257.866	0.68
258.082	17.07
258.299	-3.41
258.515	51.88
258.732	-48.47
258.948	31.4
259.165	-64.85
259.381	-66.9
259.597	4.78
259.814	10.92
260.03	37.55
260.246	29.35
260.463	53.93
260.679	60.07
260.895	-9.56
261.112	37.55
261.328	-19.8
261.544	-1.37
261.761	58.03
261.977	6.83
262.193	-91.48
262.409	25.26
262.626	23.21
262.842	88.75
263.058	19.11
263.274	27.31
263.49	45.74
263.707	45.74
263.923	6.83
264.139	-17.75
264.355	-13.65
264.571	68.27
264.787	19.11
265.004	41.64
265.22	35.5
265.436	17.07
265.652	6.83
265.868	66.22
266.084	-7.51
266.3	-32.08
266.516	-25.94
266.732	49.83
266.948	21.16
267.164	6.83
267.38	58.03
267.596	72.36
267.812	66.22
268.028	10.92
268.244	45.74
268.46	35.5
268.676	17.07
268.892	15.02
269.108	-13.65
269.324	-44.37
269.54	-68.95
269.756	37.55
269.972	-25.94
270.188	-21.85
270.403	-7.51
270.619	31.4
270.835	25.26
271.051	-21.85
271.267	84.65
271.483	27.31
271.698	19.11
271.914	39.59
272.13	90.79
272.346	-1.37
272.562	-79.19
272.777	12.97
272.993	-3.41
273.209	41.64
273.425	2.73
273.64	55.98
273.856	10.92
274.072	-5.46
274.287	-17.75
274.503	47.79
274.719	19.11
274.934	39.59
275.15	2.73
275.366	43.69
275.581	27.31
275.797	6.83
276.012	-13.65
276.228	-44.37
276.444	-3.41
276.659	47.79
276.875	64.17
277.09	51.88
277.306	35.5
277.521	33.45
277.737	-44.37
277.952	31.4
278.168	-27.99
278.383	72.36
278.599	-97.62
278.814	-11.61
279.03	-7.51
279.245	-17.75
279.461	35.5
279.676	-50.52
279.892	35.5
280.107	2.73
280.322	31.4
280.538	49.83
280.753	10.92
280.969	33.45
281.184	-13.65
281.399	-1.37
281.615	41.64
281.83	39.59
282.045	-40.28
282.26	8.87
282.476	-75.09
282.691	53.93
282.906	10.92
283.122	43.69
283.337	-5.46
283.552	-9.56
283.767	2.73
283.983	-50.52
284.198	35.5
284.413	33.45
284.628	29.35
284.843	-52.56
285.058	27.31
285.274	-13.65
285.489	78.51
285.704	12.97
285.919	-1.37
286.134	41.64
286.349	10.92
286.564	6.83
286.779	15.02
286.995	2.73
287.21	35.5
287.425	41.64
287.64	15.02
287.855	6.83
288.07	2.73
288.285	39.59
288.5	39.59
288.715	37.55
288.93	17.07
289.145	19.11
289.36	17.07
289.575	-50.52
289.79	60.07
290.004	-27.99
290.219	-5.46
290.434	23.21
290.649	29.35
290.864	23.21
291.079	17.07
291.294	-34.13
291.509	31.4
291.724	10.92
291.938	6.83
292.153	33.45
292.368	8.87
292.583	47.79
292.798	51.88
293.012	55.98
293.227	-11.61
293.442	55.98
293.657	17.07
293.871	29.35
294.086	-5.46
294.301	49.83
294.516	39.59
294.73	70.31
294.945	-62.8
295.16	37.55
295.374	27.31
295.589	51.88
295.804	23.21
296.018	-1.37
296.233	62.12
296.447	2.73
296.662	-11.61
296.877	33.45
297.091	0.68
297.306	6.83
297.52	0.68
297.735	25.26
297.949	29.35
298.164	25.26
298.378	6.83
298.593	12.97
298.807	62.12
299.022	-62.8
299.236	2.73
299.451	35.5
299.665	29.35
299.88	68.27
300.094	15.02
300.309	10.92
300.523	76.46
300.737	72.36
300.952	15.02
301.166	31.4
301.381	10.92
301.595	8.87
301.809	-60.76
302.024	-9.56
302.238	0.68
302.452	84.65
302.667	-30.04
302.881	-21.85
303.095	-19.8
303.309	53.93
303.524	64.17
303.738	-3.41
303.952	-17.75
304.166	8.87
304.381	29.35
304.595	25.26
304.809	33.45
305.023	27.31
305.237	21.16
305.452	2.73
305.666	-58.71
305.88	45.74
306.094	6.83
306.308	15.02
306.522	23.21
306.736	74.41
306.95	15.02
307.164	-9.56
307.379	31.4
307.593	60.07
307.807	47.79
308.021	31.4
308.235	-9.56
308.449	2.73
308.663	-21.85
308.877	55.98
309.091	8.87
309.305	27.31
309.519	72.36
309.733	41.64
309.947	21.16
310.161	55.98
310.374	107.18
310.588	68.27
310.802	23.21
311.016	-17.75
311.23	-15.7
311.444	35.5
311.658	23.21
311.872	-17.75
312.085	-9.56
312.299	55.98
312.513	17.07
312.727	53.93
312.941	4.78
313.154	58.03
313.368	111.27
313.582	21.16
313.796	-7.51
314.009	6.83
314.223	10.92
314.437	66.22
314.651	23.21
314.864	-9.56
315.078	-13.65
315.292	21.16
315.505	55.98
315.719	72.36
315.933	15.02
316.146	-17.75
316.36	19.11
316.573	19.11
316.787	55.98
317.001	49.83
317.214	-19.8
317.428	-19.8
317.641	-27.99
317.855	-25.94
318.068	43.69
318.282	0.68
318.495	-7.51
318.709	60.07
318.922	-21.85
319.136	19.11
319.349	0.68
319.563	29.35
319.776	21.16
319.99	-7.51
320.203	-5.46
320.417	8.87
320.63	64.17
320.843	12.97
321.057	49.83
321.27	4.78
321.483	-48.47
321.697	78.51
321.91	37.55
322.124	45.74
322.337	107.18
322.55	21.16
322.763	17.07
322.977	-5.46
323.19	66.22
323.403	51.88
323.617	8.87
323.83	68.27
324.043	2.73
324.256	29.35
324.469	64.17
324.683	-9.56
324.896	-19.8
325.109	21.16
325.322	-13.65
325.535	41.64
325.748	-21.85
325.962	23.21
326.175	19.11
326.388	19.11
326.601	-32.08
326.814	2.73
327.027	21.16
327.24	-46.42
327.453	-23.89
327.666	19.11
327.879	70.31
328.092	37.55
328.305	66.22
328.518	17.07
328.731	41.64
328.944	37.55
329.157	41.64
329.37	-48.47
329.583	39.59
329.796	58.03
330.009	62.12
330.222	68.27
330.435	43.69
330.648	74.41
330.861	4.78
331.073	55.98
331.286	72.36
331.499	68.27
331.712	25.26
331.925	-21.85
332.138	-30.04
332.35	84.65
332.563	-27.99
332.776	29.35
332.989	-7.51
333.202	8.87
333.414	-56.66
333.627	41.64
333.84	39.59
334.053	70.31
334.265	60.07
334.478	27.31
334.691	31.4
334.903	-5.46
335.116	19.11
335.329	17.07
335.541	45.74
335.754	98.99
335.966	-34.13
336.179	-19.8
336.392	15.02
336.604	55.98
336.817	47.79
337.029	96.94
337.242	60.07
337.454	92.84
337.667	0.68
337.88	6.83
338.092	-1.37
338.305	10.92
338.517	29.35
338.729	10.92
338.942	51.88
339.154	35.5
339.367	-44.37
339.579	-13.65
339.792	8.87
340.004	25.26
340.217	-9.56
340.429	-25.94
340.641	43.69
340.854	47.79
341.066	-5.46
341.278	98.99
341.491	82.6
341.703	43.69
341.915	-17.75
342.128	35.5
342.34	43.69
342.552	58.03
342.764	-3.41
342.977	-13.65
343.189	101.03
343.401	-56.66
343.613	-23.89
343.826	-19.8
344.038	12.97
344.25	62.12
344.462	43.69
344.674	-38.23
344.886	17.07
345.099	45.74
345.311	-40.28
345.523	-91.48
345.735	49.83
345.947	39.59
346.159	10.92
346.371	90.79
346.583	-25.94
346.795	17.07
347.007	-17.75
347.219	60.07
347.431	-36.18
347.643	43.69
347.855	60.07
348.067	96.94
348.279	-3.41
348.491	10.92
348.703	21.16
348.915	12.97
349.127	43.69
349.339	39.59
349.551	60.07
349.763	0.68
349.975	-30.04
350.187	21.16
350.399	146.09
350.61	27.31
350.822	-1.37
351.034	-15.7
351.246	49.83
351.458	33.45
351.669	29.35
351.881	21.16
352.093	10.92
352.305	101.03
352.517	43.69
352.728	45.74
352.94	-17.75
353.152	66.22
353.363	64.17
353.575	4.78
353.787	41.64
353.999	39.59
354.21	133.8
354.422	-1.37
354.633	29.35
354.845	47.79
355.057	64.17
355.268	-3.41
355.48	23.21
355.692	6.83
355.903	-13.65
356.115	-40.28
356.326	21.16
356.538	47.79
356.749	133.8
356.961	64.17
357.172	39.59
357.384	64.17
357.595	33.45
357.807	-3.41
358.018	-30.04
358.23	43.69
358.441	117.42
358.653	-19.8
358.864	-9.56
359.075	25.26
359.287	19.11
359.498	45.74
359.709	51.88
359.921	35.5
360.132	37.55
360.344	31.4
360.555	-9.56
360.766	58.03
360.977	43.69
361.189	25.26
361.4	-34.13
361.611	8.87
361.823	70.31
362.034	-15.7
362.245	23.21
362.456	-23.89
362.667	-9.56
362.879	49.83
363.09	0.68
363.301	98.99
363.512	2.73
363.723	10.92
363.935	-34.13
364.146	84.65
364.357	31.4
364.568	37.55
364.779	-17.75
364.99	111.27
365.201	98.99
365.412	-5.46
365.623	41.64
365.834	60.07
366.045	15.02
366.256	-9.56
366.467	23.21
366.678	60.07
366.889	64.17
367.1	66.22
367.311	-1.37
367.522	72.36
367.733	49.83
367.944	-38.23
368.155	6.83
368.366	27.31
368.577	25.26
368.788	70.31
368.999	-1.37
369.209	35.5
369.42	64.17
369.631	121.51
369.842	43.69
370.053	-32.08
370.264	35.5
370.474	-23.89
370.685	47.79
370.896	53.93
371.107	51.88
371.317	39.59
371.528	53.93
371.739	0.68
371.95	23.21
372.16	-17.75
372.371	2.73
372.582	60.07
372.792	53.93
373.003	51.88
373.214	-48.47
373.424	21.16
373.635	-36.18
373.846	70.31
374.056	0.68
374.267	-7.51
374.477	29.35
374.688	-25.94
374.898	33.45
375.109	21.16
375.319	33.45
375.53	27.31
375.74	51.88
375.951	41.64
376.161	-32.08
376.372	76.46
376.582	-23.89
376.793	64.17
377.003	-23.89
377.214	53.93
377.424	-21.85
377.635	-9.56
377.845	51.88
378.055	70.31
378.266	41.64
378.476	-25.94
378.686	141.99
378.897	27.31
379.107	10.92
379.317	15.02
379.528	-25.94
379.738	80.55
379.948	-5.46
380.158	68.27
380.369	107.18
380.579	-15.7
380.789	19.11
380.999	80.55
381.21	47.79
381.42	41.64
381.63	37.55
381.84	82.6
382.05	43.69
382.261	55.98
382.471	27.31
382.681	47.79
382.891	19.11
383.101	25.26
383.311	-13.65
383.521	27.31
383.731	23.21
383.941	19.11
384.151	25.26
384.361	37.55
384.571	76.46
384.781	68.27
384.991	29.35
385.201	25.26
385.411	4.78
385.621	66.22
385.831	12.97
386.041	84.65
386.251	-27.99
386.461	55.98
386.671	33.45
386.881	-1.37
387.091	68.27
387.301	80.55
387.511	2.73
387.72	74.41
387.93	113.32
388.14	8.87
388.35	141.99
388.56	82.6
388.769	-15.7
388.979	45.74
389.189	8.87
389.399	12.97
389.609	37.55
389.818	-5.46
390.028	27.31
390.238	-60.76
390.447	55.98
390.657	70.31
390.867	-1.37
391.076	-17.75
391.286	51.88
391.496	84.65
391.705	10.92
391.915	80.55
392.125	17.07
392.334	64.17
392.544	92.84
392.753	41.64
392.963	12.97
393.172	4.78
393.382	58.03
393.591	53.93
393.801	51.88
394.01	154.28
394.22	90.79
394.429	15.02
394.639	10.92
394.848	-3.41
395.058	45.74
395.267	43.69
395.477	80.55
395.686	49.83
395.895	62.12
396.105	135.85
396.314	15.02
396.524	125.61
396.733	33.45
396.942	92.84
397.152	8.87
397.361	119.46
397.57	90.79
397.78	70.31
397.989	17.07
398.198	41.64
398.407	60.07
398.617	88.75
398.826	64.17
399.035	111.27
399.244	62.12
399.453	62.12
399.663	141.99
399.872	92.84
400.081	96.94
400.29	55.98
400.499	45.74
400.708	131.75
400.917	76.46
401.127	121.51
401.336	45.74
401.545	129.7
401.754	70.31
401.963	90.79
402.172	98.99
402.381	94.89
402.59	-23.89
402.799	111.27
403.008	107.18
403.217	146.09
403.426	76.46
403.635	117.42
403.844	80.55
404.053	96.94
404.262	64.17
404.471	187.05
404.68	158.38
404.888	109.22
405.097	55.98
405.306	105.13
405.515	72.36
405.724	137.9
405.933	96.94
406.142	152.23
406.35	98.99
406.559	178.86
406.768	131.75
406.977	92.84
407.185	139.94
407.394	123.56
407.603	51.88
407.812	129.7
408.02	148.14
408.229	72.36
408.438	117.42
408.646	232.1
408.855	223.91
409.064	221.86
409.272	180.9
409.481	174.76
409.69	166.57
409.898	203.43
410.107	219.82
410.315	283.3
410.524	158.38
410.733	189.1
410.941	221.86
411.15	234.15
411.358	217.77
411.567	230.06
411.775	228.01
411.984	256.68
412.192	273.06
412.401	299.69
412.609	330.41
412.818	361.13
413.026	369.32
413.234	330.41
413.443	334.5
413.651	346.79
413.86	260.77
414.068	314.02
414.276	395.94
414.485	400.04
414.693	481.96
414.901	492.2
415.11	404.13
415.318	473.76
415.526	494.24
415.734	508.58
415.943	531.11
416.151	510.63
416.359	453.28
416.567	445.09
416.776	629.41
416.984	668.32
417.192	684.7
417.4	623.27
417.608	658.08
417.817	733.86
418.025	754.34
418.233	860.83
418.441	783.01
418.649	744.1
418.857	873.12
419.065	871.07
419.273	866.97
419.481	961.18
419.689	959.13
419.897	1018.52
420.105	950.94
420.313	1032.86
420.521	1186.46
420.729	1077.91
420.937	1092.25
421.145	1174.17
421.353	1280.66
421.561	1428.12
421.769	1364.63
421.977	1397.4
422.185	1354.39
422.393	1444.5
422.601	1583.76
422.809	1575.57
423.017	1419.92
423.224	1641.11
423.432	1641.11
423.64	1657.49
423.848	1868.43
424.056	1735.31
424.263	2052.75
424.471	1890.96
424.679	1952.4
424.887	2007.69
425.094	2185.87
425.302	2122.38
425.51	2179.72
425.718	2243.21
425.925	2335.37
426.133	2364.04
426.341	2464.39
426.548	2650.75
426.756	2583.17
426.964	2644.61
427.171	2736.77
427.379	2982.53
427.586	2869.89
427.794	3031.68
428.001	3158.65
428.209	3263.1
428.417	3193.47
428.624	3533.43
428.832	3410.55
429.039	3496.57
429.247	3547.76
429.454	3734.13
429.662	4067.95
429.869	3842.67
430.076	4115.05
430.284	3904.11
430.491	4231.79
430.699	4387.43
430.906	4391.53
431.114	4311.66
431.321	4469.35
431.528	4616.8
431.736	4895.33
431.943	5282.39
432.15	4854.37
432.358	5048.93
432.565	5409.37
432.772	5298.78
432.979	5685.84
433.187	5669.46
433.394	5737.04
433.601	5943.89
433.808	6072.91
434.016	5937.74
434.223	6451.78
434.43	6726.21
434.637	6623.81
434.844	6847.04
435.052	7178.81
435.259	7047.74
435.466	7344.7
435.673	7180.86
435.88	7744.05
436.087	7977.52
436.294	7926.32
436.501	7875.12
436.708	7871.03
436.915	7995.95
437.122	8563.24
437.329	8499.75
437.537	8825.38
437.743	8997.41
437.95	8874.53
438.157	9083.42
438.364	9531.93
438.571	9601.56
438.778	9519.64
438.985	10459.66
439.192	10158.61
439.399	10553.87
439.606	10168.85
439.813	11010.56
440.02	11371.01
440.227	11252.22
440.433	10998.27
440.64	11426.3
440.847	11418.11
441.054	12012.02
441.261	12675.56
441.467	12489.2
441.674	12577.26
441.881	13138.4
442.088	12780.01
442.294	12710.38
442.501	13541.85
442.708	13470.17
442.914	13980.12
443.121	14469.58
443.328	14264.78
443.534	15235.52
443.741	14707.15
443.948	14600.65
444.154	15817.15
444.361	15380.93
444.568	15612.35
444.774	15483.33
444.981	15860.15
445.187	16452.02
445.394	16880.04
445.6	16603.57
445.807	18436.5
446.013	17600.93
446.22	17883.55
446.426	18749.84
446.633	18610.57
446.839	19396.99
447.046	18766.22
447.252	19421.57
447.459	19517.82
447.665	19343.75
447.871	20158.84
448.078	20928.88
448.284	20035.96
448.491	20728.17
448.697	21541.22
448.903	22034.78
449.11	21797.21
449.316	21264.74
449.522	22083.93
449.728	22477.14
449.935	22475.09
450.141	22712.66
450.347	23036.24
450.553	22567.25
450.76	22591.83
450.966	23040.33
451.172	22997.32
451.378	23544.13
451.584	23304.52
451.791	23611.71
451.997	23388.49
452.203	23947.58
452.409	23583.04
452.615	23767.36
452.821	22892.88
453.027	22540.63
453.233	23857.47
453.44	22577.49
453.646	23214.41
453.852	22966.6
454.058	23687.49
454.264	22761.81
454.47	23413.06
454.676	22933.84
454.882	23257.42
455.088	21354.85
455.294	21696.86
455.5	22085.98
455.705	22403.41
455.911	21483.87
456.117	20717.93
456.323	20664.69
456.529	19661.18
456.735	20322.68
456.941	19784.06
457.147	19628.42
457.352	18803.08
457.558	18700.69
457.764	18839.95
457.97	18147.73
458.176	17856.92
458.381	17680.8
458.587	16935.34
458.793	17037.73
458.999	16107.96
459.204	17486.24
459.41	16775.59
459.616	15638.97
459.821	15927.74
460.027	15790.52
460.233	15227.33
460.438	14641.61
460.644	14694.86
460.85	13853.14
461.055	13861.34
461.261	13750.74
461.466	12673.51
461.672	12270.06
461.878	13265.38
462.083	12478.96
462.289	12378.61
462.494	12042.74
462.7	11633.15
462.905	11213.31
463.111	11422.2
463.316	11739.64
463.522	11258.37
463.727	11440.64
463.932	11192.83
464.138	11244.03
464.343	11282.94
464.549	10953.22
464.754	11291.13
464.959	11241.98
465.165	11168.26
465.37	10646.02
465.575	10551.82
465.781	11016.71
465.986	10994.18
466.191	10680.84
466.397	10396.17
466.602	9929.24
466.807	10195.47
467.012	10244.62
467.218	10068.5
467.423	9974.29
467.628	9959.95
467.833	10377.74
468.038	10072.59
