Data from USB4F104151__289__11-12-59-100.txt Node

Date: Wed Mar 12 11:12:59 EDT 2025
User: louis
Spectrometer: USB4F10415
Trigger mode: 4
Integration Time (sec): 2.000000E-2
Scans to average: 1
Electric dark correction enabled: true
Nonlinearity correction enabled: false
Boxcar width: 0
XAxis mode: Wavelengths
Number of Pixels in Spectrum: 3648
>>>>>Begin Spectral Data<<<<<
178.204	-121.34
178.424	-121.34
178.644	-121.34
178.864	-41.47
179.084	-49.66
179.304	-0.51
179.524	-20.99
179.744	15.87
179.964	26.11
180.184	-72.19
180.404	26.11
180.624	13.82
180.844	42.5
181.064	-82.43
181.283	-23.04
181.503	9.73
181.723	65.02
181.943	1.54
182.163	-8.7
182.383	1.54
182.602	19.97
182.822	15.87
183.042	32.26
183.262	17.92
183.482	22.02
183.701	42.5
183.921	30.21
184.141	-6.66
184.361	-20.99
184.58	-0.51
184.8	58.88
185.02	-39.42
185.239	81.41
185.459	24.06
185.679	26.11
185.898	15.87
186.118	48.64
186.338	38.4
186.557	42.5
186.777	69.12
186.997	89.6
187.216	54.78
187.436	73.21
187.655	52.74
187.875	38.4
188.095	-55.81
188.314	42.5
188.534	128.51
188.753	77.31
188.973	5.63
189.192	-2.56
189.412	-2.56
189.631	26.11
189.851	36.35
190.07	60.93
190.29	36.35
190.509	32.26
190.729	11.78
190.948	30.21
191.168	87.55
191.387	112.13
191.607	40.45
191.826	34.3
192.045	30.21
192.265	5.63
192.484	34.3
192.704	-6.66
192.923	-14.85
193.142	50.69
193.362	11.78
193.581	52.74
193.8	9.73
194.02	36.35
194.239	-0.51
194.458	73.21
194.678	54.78
194.897	44.54
195.116	-31.23
195.335	24.06
195.555	15.87
195.774	42.5
195.993	1.54
196.212	-8.7
196.432	28.16
196.651	26.11
196.87	5.63
197.089	99.84
197.308	-0.51
197.528	1.54
197.747	1.54
197.966	54.78
198.185	58.88
198.404	99.84
198.623	-12.8
198.842	65.02
199.062	75.26
199.281	24.06
199.5	17.92
199.719	36.35
199.938	-8.7
200.157	81.41
200.376	7.68
200.595	38.4
200.814	-0.51
201.033	-59.9
201.252	71.17
201.471	87.55
201.69	60.93
201.909	42.5
202.128	-4.61
202.347	30.21
202.566	-27.14
202.785	3.58
203.004	24.06
203.223	13.82
203.442	93.69
203.661	-2.56
203.879	22.02
204.098	67.07
204.317	56.83
204.536	36.35
204.755	85.5
204.974	42.5
205.193	32.26
205.411	69.12
205.63	26.11
205.849	28.16
206.068	79.36
206.287	15.87
206.505	56.83
206.724	34.3
206.943	56.83
207.162	67.07
207.381	19.97
207.599	50.69
207.818	34.3
208.037	9.73
208.255	15.87
208.474	50.69
208.693	15.87
208.911	52.74
209.13	1.54
209.349	28.16
209.567	105.98
209.786	58.88
210.005	22.02
210.223	3.58
210.442	-51.71
210.661	17.92
210.879	32.26
211.098	26.11
211.316	26.11
211.535	-8.7
211.753	40.45
211.972	48.64
212.191	30.21
212.409	87.55
212.628	81.41
212.846	28.16
213.065	32.26
213.283	5.63
213.502	28.16
213.72	73.21
213.938	48.64
214.157	3.58
214.375	17.92
214.594	7.68
214.812	62.98
215.031	85.5
215.249	83.45
215.467	81.41
215.686	34.3
215.904	58.88
216.122	97.79
216.341	97.79
216.559	-6.66
216.778	128.51
216.996	91.65
217.214	67.07
217.432	-31.23
217.651	36.35
217.869	32.26
218.087	-18.94
218.306	13.82
218.524	11.78
218.742	30.21
218.96	11.78
219.179	-27.14
219.397	19.97
219.615	13.82
219.833	136.7
220.051	-27.14
220.27	3.58
220.488	71.17
220.706	-41.47
220.924	-23.04
221.142	13.82
221.36	40.45
221.578	36.35
221.796	42.5
222.015	1.54
222.233	24.06
222.451	-16.9
222.669	28.16
222.887	65.02
223.105	-31.23
223.323	65.02
223.541	50.69
223.759	38.4
223.977	67.07
224.195	132.61
224.413	122.37
224.631	52.74
224.849	71.17
225.067	99.84
225.285	5.63
225.503	95.74
225.721	22.02
225.939	48.64
226.157	-6.66
226.375	22.02
226.592	-10.75
226.81	5.63
227.028	112.13
227.246	120.32
227.464	19.97
227.682	-23.04
227.9	7.68
228.117	-18.94
228.335	54.78
228.553	87.55
228.771	30.21
228.989	42.5
229.206	7.68
229.424	60.93
229.642	69.12
229.86	17.92
230.077	50.69
230.295	60.93
230.513	75.26
230.731	79.36
230.948	42.5
231.166	50.69
231.384	15.87
231.601	56.83
231.819	19.97
232.037	85.5
232.254	-6.66
232.472	42.5
232.689	60.93
232.907	40.45
233.125	5.63
233.342	-59.9
233.56	36.35
233.777	124.41
233.995	-23.04
234.213	19.97
234.43	26.11
234.648	79.36
234.865	-35.33
235.083	-10.75
235.3	54.78
235.518	46.59
235.735	81.41
235.953	103.93
236.17	103.93
236.388	91.65
236.605	38.4
236.822	1.54
237.04	42.5
237.257	-10.75
237.475	13.82
237.692	75.26
237.909	22.02
238.127	15.87
238.344	42.5
238.562	83.45
238.779	-6.66
238.996	44.54
239.214	48.64
239.431	52.74
239.648	46.59
239.865	-10.75
240.083	69.12
240.3	73.21
240.517	7.68
240.735	52.74
240.952	73.21
241.169	116.22
241.386	62.98
241.603	58.88
241.821	42.5
242.038	46.59
242.255	52.74
242.472	-33.28
242.689	40.45
242.907	32.26
243.124	95.74
243.341	9.73
243.558	38.4
243.775	60.93
243.992	5.63
244.209	-10.75
244.426	50.69
244.643	52.74
244.86	-4.61
245.078	44.54
245.295	52.74
245.512	77.31
245.729	11.78
245.946	-14.85
246.163	38.4
246.38	85.5
246.597	28.16
246.814	60.93
247.031	34.3
247.248	58.88
247.464	32.26
247.681	-12.8
247.898	13.82
248.115	105.98
248.332	11.78
248.549	50.69
248.766	15.87
248.983	-0.51
249.2	13.82
249.417	69.12
249.633	-33.28
249.85	-6.66
250.067	19.97
250.284	71.17
250.501	38.4
250.717	34.3
250.934	-43.52
251.151	54.78
251.368	-27.14
251.585	62.98
251.801	28.16
252.018	-8.7
252.235	87.55
252.451	38.4
252.668	-4.61
252.885	60.93
253.102	-2.56
253.318	132.61
253.535	5.63
253.752	50.69
253.968	1.54
254.185	13.82
254.401	116.22
254.618	71.17
254.835	3.58
255.051	48.64
255.268	67.07
255.484	71.17
255.701	54.78
255.917	112.13
256.134	54.78
256.351	50.69
256.567	69.12
256.784	65.02
257	-2.56
257.217	-2.56
257.433	-2.56
257.65	9.73
257.866	-0.51
258.082	-80.38
258.299	-6.66
258.515	48.64
258.732	75.26
258.948	62.98
259.165	13.82
259.381	42.5
259.597	34.3
259.814	87.55
260.03	5.63
260.246	73.21
260.463	99.84
260.679	71.17
260.895	28.16
261.112	73.21
261.328	40.45
261.544	-45.57
261.761	42.5
261.977	-4.61
262.193	103.93
262.409	85.5
262.626	3.58
262.842	26.11
263.058	44.54
263.274	32.26
263.49	58.88
263.707	-12.8
263.923	22.02
264.139	26.11
264.355	-25.09
264.571	5.63
264.787	40.45
265.004	7.68
265.22	-33.28
265.436	-6.66
265.652	38.4
265.868	15.87
266.084	89.6
266.3	46.59
266.516	-45.57
266.732	11.78
266.948	52.74
267.164	124.41
267.38	46.59
267.596	142.85
267.812	93.69
268.028	5.63
268.244	50.69
268.46	5.63
268.676	26.11
268.892	89.6
269.108	-0.51
269.324	3.58
269.54	-43.52
269.756	42.5
269.972	-18.94
270.188	79.36
270.403	19.97
270.619	67.07
270.835	85.5
271.051	93.69
271.267	3.58
271.483	26.11
271.698	136.7
271.914	75.26
272.13	91.65
272.346	54.78
272.562	11.78
272.777	15.87
272.993	-8.7
273.209	42.5
273.425	1.54
273.64	-16.9
273.856	71.17
274.072	13.82
274.287	28.16
274.503	26.11
274.719	42.5
274.934	5.63
275.15	46.59
275.366	22.02
275.581	40.45
275.797	13.82
276.012	30.21
276.228	48.64
276.444	71.17
276.659	9.73
276.875	38.4
277.09	36.35
277.306	60.93
277.521	71.17
277.737	65.02
277.952	-39.42
278.168	-4.61
278.383	52.74
278.599	-20.99
278.814	24.06
279.03	52.74
279.245	87.55
279.461	3.58
279.676	48.64
279.892	-2.56
280.107	44.54
280.322	9.73
280.538	118.27
280.753	62.98
280.969	42.5
281.184	1.54
281.399	75.26
281.615	58.88
281.83	28.16
282.045	-25.09
282.26	54.78
282.476	-80.38
282.691	62.98
282.906	79.36
283.122	71.17
283.337	110.08
283.552	83.45
283.767	40.45
283.983	26.11
284.198	11.78
284.413	62.98
284.628	3.58
284.843	28.16
285.058	-10.75
285.274	75.26
285.489	-6.66
285.704	77.31
285.919	-59.9
286.134	85.5
286.349	56.83
286.564	60.93
286.779	114.17
286.995	97.79
287.21	87.55
287.425	48.64
287.64	97.79
287.855	17.92
288.07	79.36
288.285	30.21
288.5	87.55
288.715	5.63
288.93	67.07
289.145	30.21
289.36	108.03
289.575	-8.7
289.79	54.78
290.004	24.06
290.219	40.45
290.434	110.08
290.649	-31.23
290.864	-0.51
291.079	46.59
291.294	71.17
291.509	36.35
291.724	73.21
291.938	-23.04
292.153	-14.85
292.368	-6.66
292.583	-10.75
292.798	142.85
293.012	50.69
293.227	17.92
293.442	58.88
293.657	73.21
293.871	52.74
294.086	62.98
294.301	79.36
294.516	54.78
294.73	11.78
294.945	60.93
295.16	58.88
295.374	103.93
295.589	11.78
295.804	44.54
296.018	54.78
296.233	110.08
296.447	9.73
296.662	71.17
296.877	108.03
297.091	13.82
297.306	83.45
297.52	1.54
297.735	30.21
297.949	122.37
298.164	62.98
298.378	26.11
298.593	58.88
298.807	56.83
299.022	65.02
299.236	83.45
299.451	13.82
299.665	26.11
299.88	62.98
300.094	44.54
300.309	30.21
300.523	40.45
300.737	1.54
300.952	13.82
301.166	28.16
301.381	7.68
301.595	54.78
301.809	17.92
302.024	13.82
302.238	71.17
302.452	69.12
302.667	15.87
302.881	75.26
303.095	24.06
303.309	83.45
303.524	26.11
303.738	71.17
303.952	36.35
304.166	22.02
304.381	-2.56
304.595	17.92
304.809	1.54
305.023	32.26
305.237	50.69
305.452	24.06
305.666	7.68
305.88	-12.8
306.094	77.31
306.308	-37.38
306.522	40.45
306.736	120.32
306.95	48.64
307.164	-0.51
307.379	85.5
307.593	22.02
307.807	91.65
308.021	81.41
308.235	17.92
308.449	40.45
308.663	87.55
308.877	71.17
309.091	7.68
309.305	5.63
309.519	-0.51
309.733	93.69
309.947	24.06
310.161	91.65
310.374	73.21
310.588	99.84
310.802	42.5
311.016	19.97
311.23	24.06
311.444	128.51
311.658	9.73
311.872	13.82
312.085	22.02
312.299	99.84
312.513	87.55
312.727	32.26
312.941	-8.7
313.154	26.11
313.368	30.21
313.582	38.4
313.796	54.78
314.009	60.93
314.223	-18.94
314.437	110.08
314.651	58.88
314.864	46.59
315.078	50.69
315.292	95.74
315.505	-47.62
315.719	89.6
315.933	-35.33
316.146	30.21
316.36	-12.8
316.573	42.5
316.787	67.07
317.001	46.59
317.214	-8.7
317.428	-20.99
317.641	32.26
317.855	30.21
318.068	54.78
318.282	48.64
318.495	79.36
318.709	138.75
318.922	26.11
319.136	67.07
319.349	19.97
319.563	54.78
319.776	-39.42
319.99	28.16
320.203	108.03
320.417	-18.94
320.63	50.69
320.843	91.65
321.057	38.4
321.27	26.11
321.483	44.54
321.697	132.61
321.91	67.07
322.124	46.59
322.337	52.74
322.55	71.17
322.763	-18.94
322.977	-0.51
323.19	54.78
323.403	15.87
323.617	-14.85
323.83	50.69
324.043	91.65
324.256	15.87
324.469	-4.61
324.683	-33.28
324.896	81.41
325.109	89.6
325.322	73.21
325.535	50.69
325.748	73.21
325.962	69.12
326.175	24.06
326.388	58.88
326.601	81.41
326.814	17.92
327.027	50.69
327.24	81.41
327.453	9.73
327.666	7.68
327.879	28.16
328.092	50.69
328.305	89.6
328.518	40.45
328.731	-4.61
328.944	15.87
329.157	9.73
329.37	38.4
329.583	44.54
329.796	75.26
330.009	132.61
330.222	62.98
330.435	116.22
330.648	50.69
330.861	71.17
331.073	142.85
331.286	75.26
331.499	13.82
331.712	17.92
331.925	5.63
332.138	26.11
332.35	89.6
332.563	30.21
332.776	93.69
332.989	34.3
333.202	71.17
333.414	146.94
333.627	26.11
333.84	50.69
334.053	93.69
334.265	-23.04
334.478	36.35
334.691	79.36
334.903	52.74
335.116	13.82
335.329	75.26
335.541	50.69
335.754	114.17
335.966	11.78
336.179	79.36
336.392	58.88
336.604	58.88
336.817	44.54
337.029	1.54
337.242	81.41
337.454	28.16
337.667	56.83
337.88	36.35
338.092	24.06
338.305	99.84
338.517	116.22
338.729	140.8
338.942	126.46
339.154	1.54
339.367	22.02
339.579	87.55
339.792	50.69
340.004	22.02
340.217	50.69
340.429	67.07
340.641	71.17
340.854	32.26
341.066	34.3
341.278	99.84
341.491	58.88
341.703	79.36
341.915	83.45
342.128	22.02
342.34	36.35
342.552	34.3
342.764	-20.99
342.977	26.11
343.189	67.07
343.401	101.89
343.613	26.11
343.826	44.54
344.038	28.16
344.25	62.98
344.462	38.4
344.674	93.69
344.886	71.17
345.099	-23.04
345.311	26.11
345.523	48.64
345.735	50.69
345.947	101.89
346.159	-16.9
346.371	50.69
346.583	7.68
346.795	85.5
347.007	46.59
347.219	42.5
347.431	81.41
347.643	32.26
347.855	19.97
348.067	163.33
348.279	79.36
348.491	38.4
348.703	54.78
348.915	144.89
349.127	46.59
349.339	85.5
349.551	9.73
349.763	81.41
349.975	110.08
350.187	67.07
350.399	15.87
350.61	83.45
350.822	62.98
351.034	54.78
351.246	1.54
351.458	81.41
351.669	73.21
351.881	65.02
352.093	11.78
352.305	40.45
352.517	46.59
352.728	65.02
352.94	50.69
353.152	163.33
353.363	11.78
353.575	52.74
353.787	3.58
353.999	52.74
354.21	38.4
354.422	36.35
354.633	13.82
354.845	58.88
355.057	-10.75
355.268	93.69
355.48	50.69
355.692	71.17
355.903	19.97
356.115	67.07
356.326	42.5
356.538	28.16
356.749	103.93
356.961	44.54
357.172	30.21
357.384	46.59
357.595	69.12
357.807	36.35
358.018	79.36
358.23	13.82
358.441	26.11
358.653	34.3
358.864	46.59
359.075	77.31
359.287	110.08
359.498	71.17
359.709	3.58
359.921	65.02
360.132	46.59
360.344	83.45
360.555	69.12
360.766	83.45
360.977	67.07
361.189	118.27
361.4	58.88
361.611	73.21
361.823	22.02
362.034	46.59
362.245	54.78
362.456	65.02
362.667	105.98
362.879	11.78
363.09	40.45
363.301	-8.7
363.512	28.16
363.723	77.31
363.935	54.78
364.146	101.89
364.357	99.84
364.568	22.02
364.779	34.3
364.99	89.6
365.201	97.79
365.412	103.93
365.623	67.07
365.834	48.64
366.045	44.54
366.256	73.21
366.467	3.58
366.678	-23.04
366.889	7.68
367.1	52.74
367.311	30.21
367.522	50.69
367.733	155.13
367.944	97.79
368.155	19.97
368.366	32.26
368.577	81.41
368.788	79.36
368.999	7.68
369.209	75.26
369.42	101.89
369.631	116.22
369.842	17.92
370.053	-43.52
370.264	97.79
370.474	-14.85
370.685	54.78
370.896	89.6
371.107	-2.56
371.317	120.32
371.528	46.59
371.739	93.69
371.95	140.8
372.16	54.78
372.371	-20.99
372.582	91.65
372.792	22.02
373.003	50.69
373.214	46.59
373.424	181.76
373.635	7.68
373.846	101.89
374.056	50.69
374.267	101.89
374.477	118.27
374.688	62.98
374.898	15.87
375.109	189.95
375.319	65.02
375.53	77.31
375.74	93.69
375.951	73.21
376.161	130.56
376.372	81.41
376.582	89.6
376.793	81.41
377.003	-23.04
377.214	24.06
377.424	97.79
377.635	85.5
377.845	9.73
378.055	17.92
378.266	46.59
378.476	75.26
378.686	24.06
378.897	108.03
379.107	5.63
379.317	83.45
379.528	56.83
379.738	54.78
379.948	56.83
380.158	161.28
380.369	54.78
380.579	34.3
380.789	58.88
380.999	120.32
381.21	9.73
381.42	65.02
381.63	42.5
381.84	71.17
382.05	91.65
382.261	65.02
382.471	71.17
382.681	50.69
382.891	105.98
383.101	60.93
383.311	69.12
383.521	44.54
383.731	99.84
383.941	60.93
384.151	69.12
384.361	42.5
384.571	38.4
384.781	79.36
384.991	116.22
385.201	99.84
385.411	54.78
385.621	50.69
385.831	153.09
386.041	19.97
386.251	58.88
386.461	103.93
386.671	-27.14
386.881	67.07
387.091	52.74
387.301	87.55
387.511	101.89
387.72	116.22
387.93	11.78
388.14	44.54
388.35	91.65
388.56	56.83
388.769	99.84
388.979	40.45
389.189	83.45
389.399	46.59
389.609	73.21
389.818	89.6
390.028	42.5
390.238	144.89
390.447	95.74
390.657	93.69
390.867	44.54
391.076	13.82
391.286	67.07
391.496	44.54
391.705	148.99
391.915	60.93
392.125	26.11
392.334	87.55
392.544	116.22
392.753	22.02
392.963	73.21
393.172	85.5
393.382	89.6
393.591	58.88
393.801	112.13
394.01	87.55
394.22	128.51
394.429	67.07
394.639	69.12
394.848	85.5
395.058	26.11
395.267	67.07
395.477	34.3
395.686	128.51
395.895	85.5
396.105	153.09
396.314	126.46
396.524	75.26
396.733	69.12
396.942	116.22
397.152	120.32
397.361	161.28
397.57	93.69
397.78	161.28
397.989	79.36
398.198	206.33
398.407	132.61
398.617	128.51
398.826	110.08
399.035	65.02
399.244	153.09
399.453	134.65
399.663	128.51
399.872	126.46
400.081	95.74
400.29	99.84
400.499	136.7
400.708	99.84
400.917	30.21
401.127	91.65
401.336	132.61
401.545	140.8
401.754	138.75
401.963	101.89
402.172	79.36
402.381	126.46
402.59	155.13
402.799	165.37
403.008	58.88
403.217	142.85
403.426	148.99
403.635	75.26
403.844	118.27
404.053	103.93
404.262	179.71
404.471	196.09
404.68	128.51
404.888	161.28
405.097	181.76
405.306	151.04
405.515	87.55
405.724	148.99
405.933	177.66
406.142	128.51
406.35	181.76
406.559	232.96
406.768	206.33
406.977	159.23
407.185	204.28
407.394	175.61
407.603	220.67
407.812	286.2
408.02	179.71
408.229	245.24
408.438	212.48
408.646	155.13
408.855	280.06
409.064	251.39
409.272	337.4
409.481	286.2
409.69	222.72
409.898	298.49
410.107	333.31
410.315	357.88
410.524	359.93
410.733	368.12
410.941	288.25
411.15	292.35
411.358	357.88
411.567	482.81
411.775	372.22
411.984	423.42
412.192	353.79
412.401	497.14
412.609	513.53
412.818	454.14
413.026	536.06
413.234	550.39
413.443	507.38
413.651	554.49
413.86	583.16
414.068	620.02
414.276	609.78
414.485	677.37
414.693	663.03
414.901	685.56
415.11	800.24
415.318	734.71
415.526	747
415.734	742.9
415.943	826.87
416.151	790
416.359	880.11
416.567	873.97
416.776	919.03
416.984	904.69
417.192	892.4
417.4	1025.52
417.608	935.41
417.817	1058.29
418.025	1240.56
418.233	1115.63
418.441	1201.65
418.649	1224.17
418.857	1230.32
419.065	1375.72
419.273	1283.56
419.481	1342.96
419.689	1381.87
419.897	1533.42
420.105	1510.89
420.313	1512.94
420.521	1709.54
420.729	1560.04
420.937	1701.35
421.145	1783.27
421.353	1889.76
421.561	1926.63
421.769	2008.55
421.977	2106.85
422.185	2055.65
422.393	2127.33
422.601	2289.12
422.809	2301.4
423.017	2285.02
423.224	2397.66
423.432	2534.87
423.64	2385.37
423.848	2778.58
424.056	2680.28
424.263	2831.83
424.471	2952.66
424.679	2913.75
424.887	3050.96
425.094	3247.57
425.302	3153.36
425.51	3380.68
425.718	3372.49
425.925	3319.25
426.133	3620.3
426.341	3673.54
426.548	3945.92
426.756	3909.06
426.964	3952.07
427.171	4273.6
427.379	4310.46
427.586	4416.96
427.794	4521.4
428.001	4658.62
428.209	4924.85
428.417	4826.55
428.624	5215.66
428.832	5328.3
429.039	5076.4
429.247	5135.79
429.454	5748.14
429.662	5944.74
429.869	5592.49
430.076	6043.04
430.284	5782.95
430.491	6253.98
430.699	6577.56
430.906	6321.57
431.114	6536.6
431.321	6831.51
431.528	6938.01
431.736	7239.06
431.943	7767.43
432.15	7656.84
432.358	7511.44
432.565	8115.59
432.772	8091.01
432.979	8402.3
433.187	8490.37
433.394	8865.14
433.601	8990.07
433.808	9094.52
434.016	8992.12
434.223	9319.79
434.43	10147.17
434.637	9956.71
434.844	10685.79
435.052	10683.74
435.259	10577.25
435.466	10653.02
435.673	10524
435.88	11310.42
436.087	11810.12
436.294	11838.8
436.501	11541.84
436.708	11681.1
436.915	12219.72
437.122	12815.68
437.329	12772.67
437.537	13243.7
437.743	13311.28
437.95	13321.52
438.157	13759.79
438.364	14394.66
438.571	14146.86
438.778	14404.9
438.985	15754.51
439.192	15254.81
439.399	15496.47
439.606	15263
439.813	16438.53
440.02	17104.12
440.227	16751.87
440.433	16844.03
440.64	17280.25
440.847	17022.2
441.054	17505.52
441.261	18986.21
441.467	18558.18
441.674	18957.53
441.881	19582.17
442.088	19447
442.294	19492.05
442.501	19778.77
442.708	20112.59
442.914	21083.33
443.121	21843.12
443.328	21335.23
443.534	22787.24
443.741	22211.76
443.948	21826.74
444.154	23538.84
444.361	23452.83
444.568	23637.14
444.774	23233.69
444.981	24050.83
445.187	24392.84
445.394	25484.41
445.6	25062.53
445.807	27810.9
446.013	26471.53
446.22	26877.03
446.426	28019.8
446.633	28124.24
446.839	29127.75
447.046	27907.16
447.252	29398.08
447.459	29326.4
447.665	28978.25
447.871	30475.31
448.078	31245.35
448.284	30387.25
448.491	31114.28
448.697	32326.67
448.903	32652.3
449.11	32687.12
449.316	31917.08
449.522	32877.58
449.728	33897.47
449.935	34059.26
450.141	33661.95
450.347	34571.25
450.553	33504.26
450.76	33977.34
450.966	34876.4
451.172	34874.35
451.378	35611.62
451.584	34774
451.791	35701.73
451.997	35517.41
452.203	35890.14
452.409	35810.27
452.615	35728.35
452.821	34769.9
453.027	34405.36
453.233	36017.11
453.44	34462.71
453.646	34700.27
453.852	35218.41
454.058	35582.95
454.264	34472.95
454.47	35118.06
454.676	34305.01
454.882	35345.38
455.088	32156.69
455.294	32830.48
455.5	33106.95
455.705	33774.59
455.911	32093.21
456.117	31507.49
456.323	30975.02
456.529	29324.35
456.735	30571.57
456.941	29754.43
457.147	29242.43
457.352	28351.57
457.558	28099.67
457.764	27909.21
457.97	27700.31
458.176	26913.89
458.381	27085.92
458.587	25793.65
458.793	25805.94
458.999	24392.84
459.204	26092.66
459.41	25650.3
459.616	23624.86
459.821	23717.01
460.027	23702.68
460.233	23114.91
460.438	22035.63
460.644	22357.16
460.85	21281.98
461.055	20962.5
461.261	20886.72
461.466	19242.2
461.672	18472.17
461.878	20030.67
462.083	18871.52
462.289	18476.26
462.494	18248.94
462.7	17624.31
462.905	16968.96
463.111	17794.29
463.316	17794.29
463.522	17200.38
463.727	17399.03
463.932	17442.04
464.138	17214.71
464.343	17274.1
464.549	16710.91
464.754	17401.08
464.959	17018.11
465.165	16844.03
465.37	16270.6
465.575	15621.39
465.781	16461.06
465.986	16674.05
466.191	15897.87
466.397	15605.01
466.602	14845.21
466.807	15353.11
467.012	15650.07
467.218	15697.17
467.423	15086.87
467.628	15224.09
467.833	15731.98
468.038	15424.79
468.244	14753.05
