Data from USB4F104151__218__11-10-45-915.txt Node

Date: Wed Mar 12 11:10:45 EDT 2025
User: louis
Spectrometer: USB4F10415
Trigger mode: 4
Integration Time (sec): 2.000000E-2
Scans to average: 1
Electric dark correction enabled: true
Nonlinearity correction enabled: false
Boxcar width: 0
XAxis mode: Wavelengths
Number of Pixels in Spectrum: 3648
>>>>>Begin Spectral Data<<<<<
178.204	-79.7
178.424	-79.7
178.644	-79.7
178.864	-94.04
179.084	-94.04
179.304	28.84
179.524	-38.74
179.744	6.31
179.964	77.99
180.184	-28.5
180.404	75.95
180.624	22.7
180.844	41.13
181.064	-87.89
181.283	-34.64
181.503	-48.98
181.723	-14.17
181.943	30.89
182.163	61.61
182.383	-10.07
182.602	32.94
182.822	37.03
183.042	-65.36
183.262	8.36
183.482	-3.93
183.701	18.6
183.921	24.75
184.141	-10.07
184.361	-5.97
184.58	18.6
184.8	28.84
185.02	-18.26
185.239	37.03
185.459	-18.26
185.679	63.66
185.898	-53.08
186.118	102.57
186.338	-32.6
186.557	34.99
186.777	-20.31
186.997	16.55
187.216	-5.97
187.436	82.09
187.655	43.18
187.875	67.75
188.095	-38.74
188.314	37.03
188.534	34.99
188.753	37.03
188.973	-40.79
189.192	123.05
189.412	4.27
189.631	-12.12
189.851	92.33
190.07	59.56
190.29	-26.45
190.509	55.47
190.729	-30.55
190.948	47.27
191.168	24.75
191.387	14.51
191.607	-12.12
191.826	-20.31
192.045	24.75
192.265	-20.31
192.484	14.51
192.704	20.65
192.923	-38.74
193.142	73.9
193.362	20.65
193.581	37.03
193.8	57.51
194.02	49.32
194.239	18.6
194.458	30.89
194.678	18.6
194.897	-46.93
195.116	-10.07
195.335	98.47
195.555	14.51
195.774	26.79
195.993	-40.79
196.212	65.71
196.432	28.84
196.651	24.75
196.87	16.55
197.089	-1.88
197.308	47.27
197.528	51.37
197.747	8.36
197.966	4.27
198.185	32.94
198.404	24.75
198.623	82.09
198.842	20.65
199.062	-14.17
199.281	39.08
199.5	-16.21
199.719	16.55
199.938	-26.45
200.157	65.71
200.376	47.27
200.595	37.03
200.814	59.56
201.033	86.19
201.252	51.37
201.471	16.55
201.69	30.89
201.909	37.03
202.128	-5.97
202.347	69.8
202.566	-22.36
202.785	-20.31
203.004	-36.69
203.223	43.18
203.442	80.04
203.661	14.51
203.879	39.08
204.098	77.99
204.317	-42.84
204.536	-30.55
204.755	-36.69
204.974	65.71
205.193	0.17
205.411	84.14
205.63	-3.93
205.849	32.94
206.068	0.17
206.287	32.94
206.505	-55.12
206.724	28.84
206.943	0.17
207.162	32.94
207.381	61.61
207.599	121
207.818	-5.97
208.037	22.7
208.255	12.46
208.474	86.19
208.693	-1.88
208.911	-16.21
209.13	45.23
209.349	16.55
209.567	59.56
209.786	67.75
210.005	4.27
210.223	32.94
210.442	-1.88
210.661	57.51
210.879	6.31
211.098	-20.31
211.316	34.99
211.535	-24.4
211.753	6.31
211.972	20.65
212.191	22.7
212.409	-18.26
212.628	-51.03
212.846	18.6
213.065	43.18
213.283	92.33
213.502	-22.36
213.72	28.84
213.938	69.8
214.157	49.32
214.375	-38.74
214.594	67.75
214.812	-24.4
215.031	4.27
215.249	30.89
215.467	75.95
215.686	-20.31
215.904	8.36
216.122	30.89
216.341	20.65
216.559	34.99
216.778	-10.07
216.996	69.8
217.214	-8.02
217.432	-20.31
217.651	-59.22
217.869	10.41
218.087	47.27
218.306	-10.07
218.524	28.84
218.742	43.18
218.96	30.89
219.179	-91.99
219.397	53.42
219.615	-1.88
219.833	-26.45
220.051	43.18
220.27	26.79
220.488	-14.17
220.706	0.17
220.924	47.27
221.142	-14.17
221.36	53.42
221.578	55.47
221.796	26.79
222.015	-8.02
222.233	86.19
222.451	104.62
222.669	-8.02
222.887	125.1
223.105	18.6
223.323	-5.97
223.541	26.79
223.759	-5.97
223.977	-18.26
224.195	57.51
224.413	69.8
224.631	61.61
224.849	14.51
225.067	55.47
225.285	2.22
225.503	-8.02
225.721	16.55
225.939	67.75
226.157	65.71
226.375	96.43
226.592	-18.26
226.81	-71.51
227.028	41.13
227.246	32.94
227.464	-5.97
227.682	47.27
227.9	18.6
228.117	6.31
228.335	67.75
228.553	-12.12
228.771	-44.88
228.989	-8.02
229.206	-1.88
229.424	34.99
229.642	-34.64
229.86	4.27
230.077	-8.02
230.295	-10.07
230.513	59.56
230.731	12.46
230.948	10.41
231.166	41.13
231.384	4.27
231.601	2.22
231.819	88.23
232.037	-5.97
232.254	57.51
232.472	16.55
232.689	16.55
232.907	0.17
233.125	-1.88
233.342	12.46
233.56	30.89
233.777	20.65
233.995	-65.36
234.213	10.41
234.43	-32.6
234.648	55.47
234.865	67.75
235.083	51.37
235.3	102.57
235.518	75.95
235.735	41.13
235.953	20.65
236.17	-32.6
236.388	84.14
236.605	26.79
236.822	53.42
237.04	-1.88
237.257	28.84
237.475	-16.21
237.692	49.32
237.909	26.79
238.127	65.71
238.344	43.18
238.562	43.18
238.779	37.03
238.996	65.71
239.214	61.61
239.431	45.23
239.648	73.9
239.865	-8.02
240.083	57.51
240.3	4.27
240.517	-22.36
240.735	34.99
240.952	-12.12
241.169	14.51
241.386	16.55
241.603	77.99
241.821	-14.17
242.038	18.6
242.255	-51.03
242.472	-24.4
242.689	77.99
242.907	39.08
243.124	10.41
243.341	65.71
243.558	45.23
243.775	39.08
243.992	14.51
244.209	4.27
244.426	16.55
244.643	100.52
244.86	22.7
245.078	10.41
245.295	26.79
245.512	18.6
245.729	-12.12
245.946	34.99
246.163	18.6
246.38	51.37
246.597	14.51
246.814	75.95
247.031	-20.31
247.248	51.37
247.464	37.03
247.681	8.36
247.898	41.13
248.115	24.75
248.332	-34.64
248.549	61.61
248.766	26.79
248.983	84.14
249.2	4.27
249.417	8.36
249.633	-51.03
249.85	88.23
250.067	26.79
250.284	45.23
250.501	20.65
250.717	49.32
250.934	-55.12
251.151	34.99
251.368	-71.51
251.585	2.22
251.801	123.05
252.018	39.08
252.235	53.42
252.451	-3.93
252.668	10.41
252.885	26.79
253.102	34.99
253.318	106.67
253.535	-28.5
253.752	-20.31
253.968	32.94
254.185	28.84
254.401	6.31
254.618	45.23
254.835	0.17
255.051	39.08
255.268	59.56
255.484	2.22
255.701	6.31
255.917	92.33
256.134	24.75
256.351	-22.36
256.567	-40.79
256.784	47.27
257	-10.07
257.217	2.22
257.433	10.41
257.65	6.31
257.866	106.67
258.082	-28.5
258.299	-61.27
258.515	20.65
258.732	-61.27
258.948	10.41
259.165	51.37
259.381	20.65
259.597	39.08
259.814	47.27
260.03	63.66
260.246	-1.88
260.463	63.66
260.679	-12.12
260.895	57.51
261.112	-26.45
261.328	12.46
261.544	-10.07
261.761	110.76
261.977	73.9
262.193	-16.21
262.409	59.56
262.626	20.65
262.842	37.03
263.058	20.65
263.274	39.08
263.49	24.75
263.707	121
263.923	45.23
264.139	-53.08
264.355	10.41
264.571	73.9
264.787	61.61
265.004	30.89
265.22	75.95
265.436	30.89
265.652	-10.07
265.868	90.28
266.084	34.99
266.3	-18.26
266.516	59.56
266.732	-53.08
266.948	32.94
267.164	6.31
267.38	-55.12
267.596	34.99
267.812	65.71
268.028	-5.97
268.244	0.17
268.46	16.55
268.676	-22.36
268.892	28.84
269.108	18.6
269.324	-12.12
269.54	39.08
269.756	77.99
269.972	28.84
270.188	45.23
270.403	65.71
270.619	71.85
270.835	-10.07
271.051	20.65
271.267	22.7
271.483	53.42
271.698	26.79
271.914	-3.93
272.13	-1.88
272.346	20.65
272.562	18.6
272.777	37.03
272.993	63.66
273.209	37.03
273.425	-10.07
273.64	37.03
273.856	2.22
274.072	49.32
274.287	96.43
274.503	26.79
274.719	12.46
274.934	-1.88
275.15	-32.6
275.366	14.51
275.581	14.51
275.797	-1.88
276.012	34.99
276.228	-22.36
276.444	-28.5
276.659	45.23
276.875	-14.17
277.09	90.28
277.306	51.37
277.521	16.55
277.737	47.27
277.952	22.7
278.168	12.46
278.383	65.71
278.599	49.32
278.814	12.46
279.03	32.94
279.245	77.99
279.461	16.55
279.676	18.6
279.892	16.55
280.107	57.51
280.322	-28.5
280.538	-24.4
280.753	-40.79
280.969	59.56
281.184	-42.84
281.399	67.75
281.615	-12.12
281.83	67.75
282.045	37.03
282.26	-16.21
282.476	-10.07
282.691	10.41
282.906	-12.12
283.122	112.81
283.337	-36.69
283.552	57.51
283.767	-1.88
283.983	-26.45
284.198	26.79
284.413	-22.36
284.628	4.27
284.843	-24.4
285.058	-69.46
285.274	22.7
285.489	43.18
285.704	-24.4
285.919	20.65
286.134	20.65
286.349	16.55
286.564	106.67
286.779	14.51
286.995	10.41
287.21	-1.88
287.425	-5.97
287.64	47.27
287.855	71.85
288.07	-8.02
288.285	75.95
288.5	-8.02
288.715	-5.97
288.93	-10.07
289.145	24.75
289.36	104.62
289.575	16.55
289.79	61.61
290.004	43.18
290.219	12.46
290.434	47.27
290.649	16.55
290.864	10.41
291.079	43.18
291.294	-10.07
291.509	26.79
291.724	69.8
291.938	-8.02
292.153	65.71
292.368	34.99
292.583	61.61
292.798	80.04
293.012	88.23
293.227	47.27
293.442	73.9
293.657	59.56
293.871	57.51
294.086	-8.02
294.301	53.42
294.516	20.65
294.73	28.84
294.945	-10.07
295.16	77.99
295.374	34.99
295.589	57.51
295.804	-40.79
296.018	125.1
296.233	-12.12
296.447	32.94
296.662	63.66
296.877	71.85
297.091	26.79
297.306	10.41
297.52	-18.26
297.735	-5.97
297.949	22.7
298.164	-10.07
298.378	80.04
298.593	28.84
298.807	88.23
299.022	45.23
299.236	129.19
299.451	-3.93
299.665	-24.4
299.88	4.27
300.094	4.27
300.309	-63.32
300.523	55.47
300.737	75.95
300.952	26.79
301.166	37.03
301.381	16.55
301.595	69.8
301.809	63.66
302.024	45.23
302.238	-22.36
302.452	12.46
302.667	-26.45
302.881	24.75
303.095	69.8
303.309	45.23
303.524	49.32
303.738	28.84
303.952	53.42
304.166	24.75
304.381	-61.27
304.595	90.28
304.809	34.99
305.023	8.36
305.237	12.46
305.452	94.38
305.666	-1.88
305.88	30.89
306.094	67.75
306.308	45.23
306.522	22.7
306.736	49.32
306.95	-20.31
307.164	49.32
307.379	4.27
307.593	96.43
307.807	26.79
308.021	82.09
308.235	77.99
308.449	22.7
308.663	-8.02
308.877	106.67
309.091	57.51
309.305	39.08
309.519	-48.98
309.733	4.27
309.947	-5.97
310.161	67.75
310.374	77.99
310.588	65.71
310.802	63.66
311.016	49.32
311.23	34.99
311.444	65.71
311.658	12.46
311.872	106.67
312.085	10.41
312.299	112.81
312.513	100.52
312.727	75.95
312.941	-1.88
313.154	49.32
313.368	28.84
313.582	30.89
313.796	12.46
314.009	82.09
314.223	20.65
314.437	63.66
314.651	55.47
314.864	12.46
315.078	2.22
315.292	-20.31
315.505	24.75
315.719	22.7
315.933	28.84
316.146	2.22
316.36	-18.26
316.573	-1.88
316.787	80.04
317.001	59.56
317.214	4.27
317.428	43.18
317.641	49.32
317.855	34.99
318.068	69.8
318.282	80.04
318.495	49.32
318.709	24.75
318.922	-16.21
319.136	80.04
319.349	-18.26
319.563	30.89
319.776	88.23
319.99	47.27
320.203	-1.88
320.417	65.71
320.63	71.85
320.843	-8.02
321.057	88.23
321.27	0.17
321.483	73.9
321.697	-18.26
321.91	61.61
322.124	55.47
322.337	34.99
322.55	77.99
322.763	55.47
322.977	34.99
323.19	-18.26
323.403	69.8
323.617	69.8
323.83	-26.45
324.043	12.46
324.256	34.99
324.469	-67.41
324.683	73.9
324.896	45.23
325.109	14.51
325.322	22.7
325.535	43.18
325.748	53.42
325.962	30.89
326.175	57.51
326.388	53.42
326.601	4.27
326.814	43.18
327.027	51.37
327.24	106.67
327.453	26.79
327.666	53.42
327.879	34.99
328.092	92.33
328.305	92.33
328.518	-61.27
328.731	20.65
328.944	43.18
329.157	20.65
329.37	-5.97
329.583	114.86
329.796	94.38
330.009	61.61
330.222	61.61
330.435	-34.64
330.648	34.99
330.861	94.38
331.073	75.95
331.286	100.52
331.499	2.22
331.712	43.18
331.925	28.84
332.138	32.94
332.35	71.85
332.563	39.08
332.776	69.8
332.989	-12.12
333.202	63.66
333.414	-32.6
333.627	43.18
333.84	67.75
334.053	47.27
334.265	51.37
334.478	-1.88
334.691	12.46
334.903	57.51
335.116	30.89
335.329	118.95
335.541	32.94
335.754	55.47
335.966	16.55
336.179	2.22
336.392	59.56
336.604	22.7
336.817	30.89
337.029	82.09
337.242	12.46
337.454	73.9
337.667	2.22
337.88	61.61
338.092	57.51
338.305	-20.31
338.517	57.51
338.729	51.37
338.942	55.47
339.154	34.99
339.367	-59.22
339.579	30.89
339.792	47.27
340.004	86.19
340.217	-22.36
340.429	47.27
340.641	8.36
340.854	49.32
341.066	73.9
341.278	41.13
341.491	20.65
341.703	8.36
341.915	-1.88
342.128	80.04
342.34	55.47
342.552	-12.12
342.764	26.79
342.977	24.75
343.189	26.79
343.401	-8.02
343.613	39.08
343.826	39.08
344.038	45.23
344.25	-8.02
344.462	24.75
344.674	10.41
344.886	30.89
345.099	-44.88
345.311	8.36
345.523	-40.79
345.735	63.66
345.947	-38.74
346.159	30.89
346.371	-8.02
346.583	0.17
346.795	125.1
347.007	82.09
347.219	20.65
347.431	22.7
347.643	-12.12
347.855	26.79
348.067	41.13
348.279	-40.79
348.491	4.27
348.703	12.46
348.915	71.85
349.127	26.79
349.339	106.67
349.551	61.61
349.763	98.47
349.975	37.03
350.187	41.13
350.399	90.28
350.61	39.08
350.822	43.18
351.034	73.9
351.246	-8.02
351.458	-5.97
351.669	55.47
351.881	-3.93
352.093	80.04
352.305	80.04
352.517	75.95
352.728	77.99
352.94	24.75
353.152	51.37
353.363	-1.88
353.575	16.55
353.787	10.41
353.999	32.94
354.21	133.29
354.422	-5.97
354.633	-32.6
354.845	75.95
355.057	8.36
355.268	41.13
355.48	18.6
355.692	8.36
355.903	55.47
356.115	51.37
356.326	37.03
356.538	69.8
356.749	63.66
356.961	67.75
357.172	102.57
357.384	2.22
357.595	47.27
357.807	92.33
358.018	45.23
358.23	98.47
358.441	86.19
358.653	39.08
358.864	28.84
359.075	-5.97
359.287	4.27
359.498	-3.93
359.709	28.84
359.921	24.75
360.132	94.38
360.344	73.9
360.555	16.55
360.766	92.33
360.977	39.08
361.189	65.71
361.4	28.84
361.611	37.03
361.823	43.18
362.034	-1.88
362.245	49.32
362.456	88.23
362.667	-36.69
362.879	-1.88
363.09	88.23
363.301	57.51
363.512	96.43
363.723	-10.07
363.935	92.33
364.146	51.37
364.357	80.04
364.568	41.13
364.779	-3.93
364.99	90.28
365.201	-1.88
365.412	90.28
365.623	63.66
365.834	51.37
366.045	63.66
366.256	73.9
366.467	80.04
366.678	34.99
366.889	90.28
367.1	18.6
367.311	-3.93
367.522	53.42
367.733	100.52
367.944	75.95
368.155	-1.88
368.366	57.51
368.577	57.51
368.788	47.27
368.999	-16.21
369.209	59.56
369.42	80.04
369.631	51.37
369.842	71.85
370.053	26.79
370.264	34.99
370.474	98.47
370.685	80.04
370.896	43.18
371.107	61.61
371.317	86.19
371.528	10.41
371.739	129.19
371.95	-5.97
372.16	55.47
372.371	-22.36
372.582	-8.02
372.792	37.03
373.003	-3.93
373.214	57.51
373.424	61.61
373.635	82.09
373.846	80.04
374.056	28.84
374.267	59.56
374.477	59.56
374.688	77.99
374.898	39.08
375.109	4.27
375.319	8.36
375.53	86.19
375.74	63.66
375.951	45.23
376.161	37.03
376.372	106.67
376.582	22.7
376.793	37.03
377.003	55.47
377.214	61.61
377.424	80.04
377.635	96.43
377.845	61.61
378.055	82.09
378.266	-20.31
378.476	80.04
378.686	-42.84
378.897	77.99
379.107	65.71
379.317	114.86
379.528	45.23
379.738	57.51
379.948	-8.02
380.158	96.43
380.369	90.28
380.579	39.08
380.789	82.09
380.999	41.13
381.21	32.94
381.42	20.65
381.63	20.65
381.84	6.31
382.05	32.94
382.261	-12.12
382.471	88.23
382.681	80.04
382.891	69.8
383.101	-18.26
383.311	12.46
383.521	55.47
383.731	47.27
383.941	71.85
384.151	26.79
384.361	57.51
384.571	88.23
384.781	112.81
384.991	41.13
385.201	28.84
385.411	30.89
385.621	0.17
385.831	47.27
386.041	123.05
386.251	61.61
386.461	75.95
386.671	-8.02
386.881	77.99
387.091	65.71
387.301	-22.36
387.511	18.6
387.72	86.19
387.93	26.79
388.14	77.99
388.35	32.94
388.56	125.1
388.769	6.31
388.979	57.51
389.189	-3.93
389.399	22.7
389.609	55.47
389.818	39.08
390.028	6.31
390.238	71.85
390.447	39.08
390.657	32.94
390.867	-18.26
391.076	28.84
391.286	73.9
391.496	73.9
391.705	112.81
391.915	73.9
392.125	14.51
392.334	39.08
392.544	112.81
392.753	-12.12
392.963	43.18
393.172	12.46
393.382	47.27
393.591	184.49
393.801	49.32
394.01	92.33
394.22	55.47
394.429	53.42
394.639	30.89
394.848	75.95
395.058	69.8
395.267	30.89
395.477	96.43
395.686	145.58
395.895	129.19
396.105	108.71
396.314	80.04
396.524	84.14
396.733	80.04
396.942	2.22
397.152	75.95
397.361	145.58
397.57	75.95
397.78	-30.55
397.989	2.22
398.198	170.15
398.407	55.47
398.617	26.79
398.826	-5.97
399.035	30.89
399.244	63.66
399.453	102.57
399.663	80.04
399.872	80.04
400.081	26.79
400.29	121
400.499	37.03
400.708	213.16
400.917	71.85
401.127	51.37
401.336	100.52
401.545	209.06
401.754	121
401.963	147.62
402.172	108.71
402.381	102.57
402.59	112.81
402.799	110.76
403.008	123.05
403.217	84.14
403.426	69.8
403.635	86.19
403.844	96.43
404.053	180.39
404.262	80.04
404.471	108.71
404.68	118.95
404.888	141.48
405.097	108.71
405.306	67.75
405.515	153.77
405.724	90.28
405.933	129.19
406.142	176.3
406.35	135.34
406.559	104.62
406.768	161.96
406.977	125.1
407.185	196.78
407.394	252.07
407.603	155.82
407.812	209.06
408.02	166.06
408.229	219.3
408.438	153.77
408.646	229.54
408.855	186.54
409.064	159.91
409.272	252.07
409.481	223.4
409.69	243.88
409.898	243.88
410.107	264.36
410.315	219.3
410.524	229.54
410.733	223.4
410.941	231.59
411.15	317.61
411.358	297.13
411.567	383.14
411.775	395.43
411.984	340.13
412.192	360.61
412.401	284.84
412.609	448.68
412.818	481.44
413.026	362.66
413.234	465.06
413.443	438.44
413.651	452.77
413.86	503.97
414.068	403.62
414.276	471.2
414.485	499.88
414.693	561.31
414.901	643.23
415.11	610.47
415.318	606.37
415.526	712.86
415.734	702.62
415.943	684.19
416.151	770.21
416.359	700.58
416.567	766.11
416.776	809.12
416.984	821.41
417.192	854.17
417.4	856.22
417.608	858.27
417.817	888.99
418.025	960.67
418.233	997.53
418.441	1067.16
418.649	1058.97
418.857	1126.55
419.065	1169.56
419.273	1216.66
419.481	1153.18
419.689	1265.82
419.897	1337.49
420.105	1319.06
420.313	1388.69
420.521	1376.41
420.729	1413.27
420.937	1452.18
421.145	1585.3
421.353	1579.15
421.561	1677.46
421.769	1650.83
421.977	1685.65
422.185	1783.95
422.393	1841.29
422.601	1986.7
422.809	2001.04
423.017	2025.61
423.224	2121.87
423.432	2119.82
423.64	2066.57
423.848	2355.33
424.056	2343.05
424.263	2472.07
424.471	2459.78
424.679	2474.12
424.887	2629.76
425.094	2781.31
425.302	2787.46
425.51	2834.56
425.718	2922.62
425.925	3002.49
426.133	3041.4
426.341	3354.74
426.548	3356.79
426.756	3289.21
426.964	3295.35
427.171	3688.56
427.379	3702.9
427.586	3958.89
427.794	4014.19
428.001	4225.13
428.209	4212.84
428.417	4192.36
428.624	4517.99
428.832	4466.79
429.039	4411.5
429.247	4563.05
429.454	4923.49
429.662	5118.04
429.869	4872.29
430.076	5171.29
430.284	5064.8
430.491	5173.34
430.699	5539.93
430.906	5589.08
431.114	5589.08
431.321	5718.1
431.528	5886.03
431.736	6326.35
431.943	6457.42
432.15	6393.93
432.358	6512.71
432.565	6803.52
432.772	6918.21
432.979	7202.88
433.187	7209.02
433.394	7266.36
433.601	7845.94
433.808	7628.85
434.016	7966.77
434.223	8276.01
434.43	8597.54
434.637	8450.09
434.844	8984.61
435.052	9146.4
435.259	9175.07
435.466	9418.78
435.673	9103.39
435.88	9637.91
436.087	10244.11
436.294	10258.45
436.501	10076.18
436.708	10205.2
436.915	10717.19
437.122	10995.71
437.329	10983.43
437.537	11128.83
437.743	11552.76
437.95	11395.07
438.157	12105.71
438.364	12308.46
438.571	12222.45
438.778	12128.24
438.985	13586.4
439.192	12978.15
439.399	13518.81
439.606	13342.69
439.813	13727.71
440.02	14680.01
440.227	14677.96
440.433	14354.38
440.64	14913.48
440.847	14770.12
441.054	15065.03
441.261	16172.98
441.467	15634.36
441.674	16144.31
441.881	16818.09
442.088	16742.32
442.294	16625.58
442.501	17244.07
442.708	17309.6
442.914	17936.28
443.121	18866.06
443.328	18343.83
443.534	19517.31
443.741	18778
443.948	18730.89
444.154	20172.66
444.361	19957.63
444.568	20277.11
444.774	19939.19
444.981	20365.17
445.187	20934.51
445.394	21921.63
445.6	21630.82
445.807	23715.65
446.013	22654.8
446.22	22925.13
446.426	24051.52
446.633	24221.5
446.839	24588.08
447.046	23641.92
447.252	25104.17
447.459	25376.55
447.665	25143.08
447.871	26244.89
448.078	27328.27
448.284	26033.95
448.491	26773.27
448.697	27864.83
448.903	28249.85
449.11	28182.27
449.316	27830.02
449.522	28200.7
449.728	28960.5
449.935	29372.14
450.141	29132.53
450.347	29966.05
450.553	29087.47
450.76	29318.89
450.966	30387.93
451.172	29691.62
451.378	30406.36
451.584	29814.5
451.791	30736.09
451.997	30322.4
452.203	31225.55
452.409	30934.74
452.615	30838.48
452.821	29490.92
453.027	29380.33
453.233	30836.44
453.44	29660.9
453.646	29873.89
453.852	30021.34
454.058	30316.25
454.264	29705.96
454.47	29970.15
454.676	29437.67
454.882	30488.28
455.088	27604.74
455.294	28206.84
455.5	28397.31
455.705	28849.91
455.911	27512.58
456.117	27074.32
456.323	26498.84
456.529	25306.92
456.735	26246.94
456.941	25972.51
457.147	25294.63
457.352	24368.95
457.558	24215.35
457.764	24379.19
457.97	24006.46
458.176	23222.09
458.381	23256.9
458.587	21899.1
458.793	22110.04
458.999	20815.73
459.204	22583.12
459.41	21794.65
459.616	20422.52
459.821	20629.36
460.027	20483.95
460.233	19916.67
460.438	19058.57
460.644	19261.32
460.85	18327.44
461.055	18212.76
461.261	18118.55
461.466	16732.08
461.672	16420.78
461.878	17473.44
462.083	16054.2
462.289	15873.98
462.494	15613.88
462.7	15114.18
462.905	14393.3
463.111	15181.76
463.316	15296.45
463.522	14893
463.727	14847.94
463.932	14960.58
464.138	14481.36
464.343	14700.49
464.549	14421.97
464.754	14600.14
464.959	14755.79
465.165	14438.35
465.37	14026.71
465.575	13635.55
465.781	14122.96
465.986	14024.66
466.191	13750.23
466.397	13602.78
466.602	12769.26
466.807	13123.55
467.012	13268.96
467.218	13228
467.423	13197.28
467.628	13072.36
