Data from USB4F104151__33__11-05-15-451.txt Node

Date: Wed Mar 12 11:05:15 EDT 2025
User: louis
Spectrometer: USB4F10415
Trigger mode: 4
Integration Time (sec): 2.000000E-2
Scans to average: 1
Electric dark correction enabled: true
Nonlinearity correction enabled: false
Boxcar width: 0
XAxis mode: Wavelengths
Number of Pixels in Spectrum: 3648
>>>>>Begin Spectral Data<<<<<
178.204	-62.8
178.424	-62.8
178.644	-62.8
178.864	-111.96
179.084	-30.04
179.304	25.26
179.524	-21.85
179.744	29.35
179.964	-42.32
180.184	17.07
180.404	49.83
180.624	6.83
180.844	-25.94
181.064	25.26
181.283	-62.8
181.503	-34.13
181.723	33.45
181.943	-9.56
182.163	43.69
182.383	47.79
182.602	-1.37
182.822	4.78
183.042	62.12
183.262	55.98
183.482	21.16
183.701	-7.51
183.921	96.94
184.141	-17.75
184.361	58.03
184.58	80.55
184.8	-1.37
185.02	0.68
185.239	15.02
185.459	51.88
185.679	25.26
185.898	60.07
186.118	8.87
186.338	21.16
186.557	33.45
186.777	31.4
186.997	4.78
187.216	-13.65
187.436	78.51
187.655	51.88
187.875	53.93
188.095	27.31
188.314	72.36
188.534	25.26
188.753	58.03
188.973	6.83
189.192	15.02
189.412	27.31
189.631	-9.56
189.851	10.92
190.07	25.26
190.29	47.79
190.509	-75.09
190.729	27.31
190.948	68.27
191.168	172.71
191.387	64.17
191.607	-38.23
191.826	64.17
192.045	45.74
192.265	47.79
192.484	47.79
192.704	-11.61
192.923	66.22
193.142	35.5
193.362	60.07
193.581	49.83
193.8	-50.52
194.02	58.03
194.239	17.07
194.458	10.92
194.678	66.22
194.897	2.73
195.116	43.69
195.335	6.83
195.555	8.87
195.774	62.12
195.993	37.55
196.212	39.59
196.432	53.93
196.651	47.79
196.87	-3.41
197.089	35.5
197.308	21.16
197.528	31.4
197.747	4.78
197.966	78.51
198.185	17.07
198.404	-7.51
198.623	10.92
198.842	35.5
199.062	-3.41
199.281	10.92
199.5	-5.46
199.719	17.07
199.938	17.07
200.157	29.35
200.376	6.83
200.595	6.83
200.814	111.27
201.033	39.59
201.252	49.83
201.471	4.78
201.69	49.83
201.909	64.17
202.128	17.07
202.347	82.6
202.566	86.7
202.785	41.64
203.004	53.93
203.223	72.36
203.442	31.4
203.661	15.02
203.879	76.46
204.098	78.51
204.317	6.83
204.536	70.31
204.755	37.55
204.974	64.17
205.193	-54.61
205.411	-9.56
205.63	-27.99
205.849	64.17
206.068	12.97
206.287	68.27
206.505	55.98
206.724	12.97
206.943	70.31
207.162	-15.7
207.381	-68.95
207.599	45.74
207.818	31.4
208.037	-44.37
208.255	10.92
208.474	23.21
208.693	45.74
208.911	33.45
209.13	39.59
209.349	72.36
209.567	80.55
209.786	43.69
210.005	33.45
210.223	19.11
210.442	31.4
210.661	-58.71
210.879	39.59
211.098	90.79
211.316	-3.41
211.535	53.93
211.753	21.16
211.972	70.31
212.191	-7.51
212.409	39.59
212.628	96.94
212.846	45.74
213.065	39.59
213.283	62.12
213.502	-38.23
213.72	39.59
213.938	51.88
214.157	-3.41
214.375	64.17
214.594	-40.28
214.812	-5.46
215.031	6.83
215.249	23.21
215.467	35.5
215.686	21.16
215.904	12.97
216.122	43.69
216.341	19.11
216.559	-5.46
216.778	27.31
216.996	17.07
217.214	-21.85
217.432	-25.94
217.651	12.97
217.869	58.03
218.087	15.02
218.306	45.74
218.524	-30.04
218.742	15.02
218.96	86.7
219.179	6.83
219.397	2.73
219.615	86.7
219.833	-27.99
220.051	-9.56
220.27	98.99
220.488	43.69
220.706	-48.47
220.924	-21.85
221.142	-7.51
221.36	10.92
221.578	-17.75
221.796	45.74
222.015	15.02
222.233	31.4
222.451	98.99
222.669	-38.23
222.887	68.27
223.105	-56.66
223.323	-5.46
223.541	2.73
223.759	76.46
223.977	6.83
224.195	23.21
224.413	45.74
224.631	17.07
224.849	58.03
225.067	31.4
225.285	47.79
225.503	35.5
225.721	68.27
225.939	62.12
226.157	55.98
226.375	78.51
226.592	19.11
226.81	15.02
227.028	-62.8
227.246	84.65
227.464	45.74
227.682	47.79
227.9	-7.51
228.117	15.02
228.335	55.98
228.553	-21.85
228.771	43.69
228.989	15.02
229.206	51.88
229.424	72.36
229.642	101.03
229.86	-5.46
230.077	-9.56
230.295	2.73
230.513	64.17
230.731	72.36
230.948	-3.41
231.166	74.41
231.384	62.12
231.601	21.16
231.819	53.93
232.037	6.83
232.254	37.55
232.472	43.69
232.689	-103.76
232.907	55.98
233.125	-30.04
233.342	86.7
233.56	12.97
233.777	41.64
233.995	19.11
234.213	76.46
234.43	33.45
234.648	68.27
234.865	6.83
235.083	105.13
235.3	27.31
235.518	84.65
235.735	80.55
235.953	19.11
236.17	101.03
236.388	17.07
236.605	41.64
236.822	70.31
237.04	60.07
237.257	45.74
237.475	-13.65
237.692	10.92
237.909	64.17
238.127	12.97
238.344	62.12
238.562	72.36
238.779	-15.7
238.996	39.59
239.214	-3.41
239.431	66.22
239.648	12.97
239.865	19.11
240.083	-13.65
240.3	-25.94
240.517	101.03
240.735	-3.41
240.952	84.65
241.169	90.79
241.386	2.73
241.603	84.65
241.821	-25.94
242.038	68.27
242.255	53.93
242.472	2.73
242.689	51.88
242.907	55.98
243.124	74.41
243.341	-7.51
243.558	33.45
243.775	25.26
243.992	21.16
244.209	29.35
244.426	90.79
244.643	19.11
244.86	-17.75
245.078	-56.66
245.295	33.45
245.512	121.51
245.729	-21.85
245.946	10.92
246.163	41.64
246.38	49.83
246.597	0.68
246.814	37.55
247.031	80.55
247.248	51.88
247.464	47.79
247.681	121.51
247.898	80.55
248.115	72.36
248.332	23.21
248.549	121.51
248.766	94.89
248.983	125.61
249.2	33.45
249.417	2.73
249.633	43.69
249.85	39.59
250.067	15.02
250.284	31.4
250.501	2.73
250.717	8.87
250.934	78.51
251.151	58.03
251.368	21.16
251.585	-9.56
251.801	45.74
252.018	-5.46
252.235	90.79
252.451	31.4
252.668	6.83
252.885	0.68
253.102	70.31
253.318	49.83
253.535	31.4
253.752	31.4
253.968	103.08
254.185	29.35
254.401	35.5
254.618	45.74
254.835	60.07
255.051	88.75
255.268	84.65
255.484	43.69
255.701	35.5
255.917	27.31
256.134	55.98
256.351	41.64
256.567	15.02
256.784	-7.51
257	23.21
257.217	17.07
257.433	96.94
257.65	80.55
257.866	47.79
258.082	-11.61
258.299	-30.04
258.515	53.93
258.732	-27.99
258.948	12.97
259.165	60.07
259.381	-3.41
259.597	33.45
259.814	15.02
260.03	-11.61
260.246	8.87
260.463	88.75
260.679	53.93
260.895	10.92
261.112	64.17
261.328	35.5
261.544	41.64
261.761	123.56
261.977	6.83
262.193	-27.99
262.409	76.46
262.626	21.16
262.842	-42.32
263.058	-46.42
263.274	111.27
263.49	-36.18
263.707	70.31
263.923	123.56
264.139	47.79
264.355	27.31
264.571	43.69
264.787	51.88
265.004	92.84
265.22	2.73
265.436	-25.94
265.652	8.87
265.868	-19.8
266.084	2.73
266.3	45.74
266.516	-25.94
266.732	74.41
266.948	31.4
267.164	64.17
267.38	39.59
267.596	64.17
267.812	88.75
268.028	27.31
268.244	-50.52
268.46	49.83
268.676	62.12
268.892	51.88
269.108	-3.41
269.324	39.59
269.54	21.16
269.756	68.27
269.972	-9.56
270.188	92.84
270.403	-21.85
270.619	2.73
270.835	-11.61
271.051	49.83
271.267	58.03
271.483	33.45
271.698	23.21
271.914	6.83
272.13	47.79
272.346	25.26
272.562	27.31
272.777	37.55
272.993	-36.18
273.209	15.02
273.425	45.74
273.64	8.87
273.856	0.68
274.072	-15.7
274.287	41.64
274.503	47.79
274.719	66.22
274.934	68.27
275.15	-19.8
275.366	33.45
275.581	-19.8
275.797	62.12
276.012	-1.37
276.228	0.68
276.444	-56.66
276.659	27.31
276.875	55.98
277.09	146.09
277.306	31.4
277.521	66.22
277.737	4.78
277.952	92.84
278.168	37.55
278.383	70.31
278.599	15.02
278.814	60.07
279.03	-9.56
279.245	47.79
279.461	92.84
279.676	64.17
279.892	62.12
280.107	90.79
280.322	33.45
280.538	66.22
280.753	33.45
280.969	60.07
281.184	72.36
281.399	88.75
281.615	-56.66
281.83	31.4
282.045	-38.23
282.26	-5.46
282.476	23.21
282.691	-3.41
282.906	92.84
283.122	33.45
283.337	33.45
283.552	51.88
283.767	-11.61
283.983	-17.75
284.198	39.59
284.413	-3.41
284.628	53.93
284.843	41.64
285.058	49.83
285.274	90.79
285.489	70.31
285.704	84.65
285.919	17.07
286.134	17.07
286.349	60.07
286.564	66.22
286.779	2.73
286.995	47.79
287.21	-17.75
287.425	35.5
287.64	25.26
287.855	72.36
288.07	23.21
288.285	60.07
288.5	66.22
288.715	29.35
288.93	-3.41
289.145	35.5
289.36	8.87
289.575	107.18
289.79	64.17
290.004	19.11
290.219	27.31
290.434	78.51
290.649	58.03
290.864	49.83
291.079	60.07
291.294	80.55
291.509	33.45
291.724	-7.51
291.938	45.74
292.153	2.73
292.368	23.21
292.583	94.89
292.798	94.89
293.012	80.55
293.227	-32.08
293.442	39.59
293.657	70.31
293.871	101.03
294.086	-11.61
294.301	152.23
294.516	78.51
294.73	78.51
294.945	86.7
295.16	15.02
295.374	78.51
295.589	6.83
295.804	-9.56
296.018	53.93
296.233	64.17
296.447	72.36
296.662	47.79
296.877	39.59
297.091	141.99
297.306	51.88
297.52	25.26
297.735	-9.56
297.949	45.74
298.164	84.65
298.378	25.26
298.593	-9.56
298.807	51.88
299.022	-21.85
299.236	19.11
299.451	6.83
299.665	6.83
299.88	70.31
300.094	39.59
300.309	53.93
300.523	-23.89
300.737	109.22
300.952	55.98
301.166	58.03
301.381	-40.28
301.595	25.26
301.809	17.07
302.024	-1.37
302.238	-9.56
302.452	-3.41
302.667	37.55
302.881	84.65
303.095	47.79
303.309	21.16
303.524	-15.7
303.738	35.5
303.952	-13.65
304.166	47.79
304.381	-27.99
304.595	109.22
304.809	0.68
305.023	86.7
305.237	35.5
305.452	72.36
305.666	51.88
305.88	84.65
306.094	21.16
306.308	64.17
306.522	62.12
306.736	64.17
306.95	-27.99
307.164	6.83
307.379	-1.37
307.593	31.4
307.807	47.79
308.021	35.5
308.235	43.69
308.449	-32.08
308.663	41.64
308.877	23.21
309.091	78.51
309.305	-32.08
309.519	-42.32
309.733	39.59
309.947	-66.9
310.161	49.83
310.374	29.35
310.588	39.59
310.802	55.98
311.016	21.16
311.23	90.79
311.444	68.27
311.658	39.59
311.872	86.7
312.085	53.93
312.299	90.79
312.513	47.79
312.727	-34.13
312.941	82.6
313.154	6.83
313.368	49.83
313.582	33.45
313.796	80.55
314.009	80.55
314.223	21.16
314.437	33.45
314.651	-19.8
314.864	94.89
315.078	6.83
315.292	37.55
315.505	12.97
315.719	-38.23
315.933	23.21
316.146	6.83
316.36	64.17
316.573	35.5
316.787	51.88
317.001	49.83
317.214	25.26
317.428	19.11
317.641	82.6
317.855	43.69
318.068	55.98
318.282	76.46
318.495	-23.89
318.709	43.69
318.922	6.83
319.136	58.03
319.349	86.7
319.563	49.83
319.776	-9.56
319.99	33.45
320.203	78.51
320.417	12.97
320.63	156.33
320.843	62.12
321.057	55.98
321.27	39.59
321.483	35.5
321.697	53.93
321.91	70.31
322.124	78.51
322.337	47.79
322.55	31.4
322.763	10.92
322.977	92.84
323.19	10.92
323.403	62.12
323.617	10.92
323.83	113.32
324.043	33.45
324.256	76.46
324.469	62.12
324.683	66.22
324.896	41.64
325.109	29.35
325.322	8.87
325.535	82.6
325.748	27.31
325.962	37.55
326.175	23.21
326.388	115.37
326.601	70.31
326.814	82.6
327.027	-17.75
327.24	43.69
327.453	27.31
327.666	10.92
327.879	92.84
328.092	49.83
328.305	39.59
328.518	45.74
328.731	98.99
328.944	33.45
329.157	60.07
329.37	55.98
329.583	64.17
329.796	84.65
330.009	-40.28
330.222	92.84
330.435	21.16
330.648	125.61
330.861	107.18
331.073	72.36
331.286	-3.41
331.499	15.02
331.712	-17.75
331.925	12.97
332.138	41.64
332.35	86.7
332.563	66.22
332.776	45.74
332.989	-52.56
333.202	15.02
333.414	31.4
333.627	-46.42
333.84	29.35
334.053	164.52
334.265	-38.23
334.478	33.45
334.691	51.88
334.903	33.45
335.116	6.83
335.329	15.02
335.541	66.22
335.754	68.27
335.966	23.21
336.179	148.14
336.392	-19.8
336.604	33.45
336.817	90.79
337.029	78.51
337.242	119.46
337.454	86.7
337.667	6.83
337.88	37.55
338.092	29.35
338.305	33.45
338.517	27.31
338.729	21.16
338.942	80.55
339.154	105.13
339.367	27.31
339.579	55.98
339.792	37.55
340.004	94.89
340.217	37.55
340.429	-11.61
340.641	-25.94
340.854	6.83
341.066	53.93
341.278	80.55
341.491	105.13
341.703	98.99
341.915	96.94
342.128	98.99
342.34	2.73
342.552	49.83
342.764	23.21
342.977	33.45
343.189	78.51
343.401	58.03
343.613	8.87
343.826	-3.41
344.038	62.12
344.25	92.84
344.462	70.31
344.674	41.64
344.886	-30.04
345.099	53.93
345.311	51.88
345.523	86.7
345.735	-17.75
345.947	-3.41
346.159	47.79
346.371	43.69
346.583	60.07
346.795	-13.65
347.007	49.83
347.219	37.55
347.431	64.17
347.643	37.55
347.855	62.12
348.067	88.75
348.279	-91.48
348.491	-21.85
348.703	45.74
348.915	78.51
349.127	21.16
349.339	15.02
349.551	-7.51
349.763	35.5
349.975	17.07
350.187	98.99
350.399	78.51
350.61	72.36
350.822	-1.37
351.034	15.02
351.246	60.07
351.458	62.12
351.669	60.07
351.881	33.45
352.093	37.55
352.305	86.7
352.517	-30.04
352.728	6.83
352.94	55.98
353.152	21.16
353.363	43.69
353.575	76.46
353.787	84.65
353.999	98.99
354.21	-5.46
354.422	31.4
354.633	25.26
354.845	62.12
355.057	43.69
355.268	72.36
355.48	45.74
355.692	78.51
355.903	-7.51
356.115	107.18
356.326	-3.41
356.538	33.45
356.749	131.75
356.961	55.98
357.172	-17.75
357.384	15.02
357.595	88.75
357.807	41.64
358.018	0.68
358.23	58.03
358.441	29.35
358.653	55.98
358.864	64.17
359.075	-23.89
359.287	4.78
359.498	94.89
359.709	31.4
359.921	-5.46
360.132	2.73
360.344	76.46
360.555	66.22
360.766	113.32
360.977	64.17
361.189	66.22
361.4	35.5
361.611	127.66
361.823	19.11
362.034	55.98
362.245	-11.61
362.456	-1.37
362.667	60.07
362.879	41.64
363.09	45.74
363.301	-13.65
363.512	70.31
363.723	27.31
363.935	86.7
364.146	121.51
364.357	10.92
364.568	49.83
364.779	33.45
364.99	76.46
365.201	-11.61
365.412	72.36
365.623	-1.37
365.834	53.93
366.045	-30.04
366.256	25.26
366.467	53.93
366.678	62.12
366.889	37.55
367.1	43.69
367.311	47.79
367.522	45.74
367.733	131.75
367.944	78.51
368.155	55.98
368.366	58.03
368.577	29.35
368.788	29.35
368.999	51.88
369.209	-1.37
369.42	86.7
369.631	141.99
369.842	8.87
370.053	-3.41
370.264	47.79
370.474	72.36
370.685	23.21
370.896	-3.41
371.107	64.17
371.317	150.18
371.528	23.21
371.739	103.08
371.95	0.68
372.16	62.12
372.371	39.59
372.582	51.88
372.792	8.87
373.003	92.84
373.214	74.41
373.424	25.26
373.635	70.31
373.846	-13.65
374.056	31.4
374.267	-13.65
374.477	72.36
374.688	62.12
374.898	41.64
375.109	19.11
375.319	76.46
375.53	29.35
375.74	-5.46
375.951	74.41
376.161	27.31
376.372	49.83
376.582	31.4
376.793	76.46
377.003	66.22
377.214	72.36
377.424	68.27
377.635	62.12
377.845	19.11
378.055	105.13
378.266	8.87
378.476	72.36
378.686	176.81
378.897	47.79
379.107	21.16
379.317	25.26
379.528	25.26
379.738	101.03
379.948	72.36
380.158	68.27
380.369	60.07
380.579	49.83
380.789	66.22
380.999	43.69
381.21	129.7
381.42	82.6
381.63	15.02
381.84	117.42
382.05	96.94
382.261	68.27
382.471	127.66
382.681	43.69
382.891	96.94
383.101	109.22
383.311	-15.7
383.521	45.74
383.731	60.07
383.941	35.5
384.151	60.07
384.361	127.66
384.571	76.46
384.781	64.17
384.991	137.9
385.201	80.55
385.411	35.5
385.621	2.73
385.831	45.74
386.041	107.18
386.251	92.84
386.461	6.83
386.671	10.92
386.881	12.97
387.091	125.61
387.301	45.74
387.511	82.6
387.72	86.7
387.93	68.27
388.14	10.92
388.35	47.79
388.56	86.7
388.769	172.71
388.979	103.08
389.189	35.5
389.399	88.75
389.609	70.31
389.818	64.17
390.028	98.99
390.238	31.4
390.447	-5.46
390.657	35.5
390.867	6.83
391.076	27.31
391.286	31.4
391.496	105.13
391.705	96.94
391.915	6.83
392.125	76.46
392.334	90.79
392.544	86.7
392.753	94.89
392.963	105.13
393.172	72.36
393.382	37.55
393.591	86.7
393.801	64.17
394.01	96.94
394.22	119.46
394.429	66.22
394.639	8.87
394.848	15.02
395.058	37.55
395.267	101.03
395.477	105.13
395.686	121.51
395.895	131.75
396.105	86.7
396.314	78.51
396.524	41.64
396.733	98.99
396.942	117.42
397.152	53.93
397.361	88.75
397.57	70.31
397.78	103.08
397.989	90.79
398.198	72.36
398.407	86.7
398.617	123.56
398.826	92.84
399.035	84.65
399.244	88.75
399.453	47.79
399.663	58.03
399.872	76.46
400.081	35.5
400.29	96.94
400.499	84.65
400.708	148.14
400.917	105.13
401.127	49.83
401.336	76.46
401.545	119.46
401.754	135.85
401.963	141.99
402.172	115.37
402.381	137.9
402.59	27.31
402.799	39.59
403.008	154.28
403.217	117.42
403.426	131.75
403.635	105.13
403.844	105.13
404.053	78.51
404.262	107.18
404.471	107.18
404.68	103.08
404.888	172.71
405.097	62.12
405.306	228.01
405.515	51.88
405.724	137.9
405.933	144.04
406.142	162.47
406.35	203.43
406.559	92.84
406.768	92.84
406.977	201.38
407.185	154.28
407.394	156.33
407.603	86.7
407.812	189.1
408.02	242.34
408.229	148.14
408.438	178.86
408.646	185
408.855	221.86
409.064	254.63
409.272	217.77
409.481	252.58
409.69	217.77
409.898	182.95
410.107	252.58
410.315	248.49
410.524	260.77
410.733	258.73
410.941	244.39
411.15	277.16
411.358	307.88
411.567	275.11
411.775	299.69
411.984	307.88
412.192	250.53
412.401	332.45
412.609	438.95
412.818	416.42
413.026	309.93
413.234	328.36
413.443	389.8
413.651	381.6
413.86	375.46
414.068	494.24
414.276	481.96
414.485	402.08
414.693	580.26
414.901	514.72
415.11	486.05
415.318	594.59
415.526	563.87
415.734	604.83
415.943	670.37
416.151	651.94
416.359	545.44
416.567	744.1
416.776	748.19
416.984	737.95
417.192	815.77
417.4	651.94
417.608	715.42
417.817	846.49
418.025	860.83
418.233	963.23
418.441	817.82
418.649	873.12
418.857	967.32
419.065	1014.43
419.273	985.76
419.481	1100.44
419.689	1090.2
419.897	1120.92
420.105	1192.6
420.313	1260.18
420.521	1206.94
420.729	1276.57
420.937	1280.66
421.145	1354.39
421.353	1436.31
421.561	1512.08
421.769	1434.26
421.977	1608.34
422.185	1594
422.393	1546.9
422.601	1837.71
422.809	1663.63
423.017	1780.37
423.224	1802.9
423.432	1878.67
423.64	1968.78
423.848	2138.76
424.056	2120.33
424.263	2220.68
424.471	2210.44
424.679	2339.46
424.887	2431.62
425.094	2478.72
425.302	2562.69
425.51	2568.84
425.718	2636.42
425.925	2654.85
426.133	2757.25
426.341	2927.23
426.548	2998.91
426.756	3168.89
426.964	3037.82
427.171	3242.62
427.379	3404.41
427.586	3349.11
427.794	3564.15
428.001	3680.88
428.209	3842.67
428.417	3746.42
428.624	3883.63
428.832	4160.11
429.039	4090.48
429.247	4106.86
429.454	4387.43
429.662	4784.74
429.869	4409.96
430.076	4688.48
430.284	4538.98
430.491	4786.79
430.699	5022.3
430.906	4979.29
431.114	5083.74
431.321	5280.35
431.528	5376.6
431.736	5726.8
431.943	5947.98
432.15	5806.67
432.358	5954.13
432.565	6294.09
432.772	6287.95
432.979	6476.36
433.187	6591.05
433.394	6715.97
433.601	7121.47
433.808	7211.58
434.016	6965.82
434.223	7371.32
434.43	7877.17
434.637	7746.1
434.844	8241.71
435.052	8208.94
435.259	8219.18
435.466	8348.2
435.673	8241.71
435.88	8960.55
436.087	9339.42
436.294	9335.32
436.501	9052.7
436.708	9146.91
436.915	9503.26
437.122	9910.8
437.329	9757.21
437.537	10183.18
437.743	10340.88
437.95	10441.23
438.157	10824.2
438.364	11127.3
438.571	11366.91
438.778	11381.24
438.985	12347.89
439.192	11731.45
439.399	12382.7
439.606	11909.62
439.813	12325.36
440.02	13492.7
440.227	12984.8
440.433	13017.57
440.64	13711.83
440.847	13375.97
441.054	13730.27
441.261	14504.4
441.467	14408.14
441.674	14729.67
441.881	15278.53
442.088	15172.04
442.294	15110.6
442.501	15186.37
442.708	15821.24
442.914	16259.51
443.121	17142.18
443.328	16380.34
443.534	17691.04
443.741	17256.87
443.948	17019.3
444.154	18332.05
444.361	18123.16
444.568	18395.54
444.774	18493.84
444.981	18856.33
445.187	19227.01
445.394	19687.81
445.6	19872.12
445.807	21719.39
446.013	20502.9
446.22	20975.98
446.426	21623.14
446.633	22315.35
446.839	22399.32
447.046	21997.92
447.252	23048.52
447.459	22927.69
447.665	22864.21
447.871	23767.36
448.078	24756.53
448.284	23871.81
448.491	24478.01
448.697	25245.99
448.903	25305.38
449.11	25819.42
449.316	25250.09
449.522	25993.5
449.728	26507.54
449.935	26452.25
450.141	26812.69
450.347	27076.88
450.553	26087.71
450.76	26652.95
450.966	27234.57
451.172	27171.08
451.378	27578.63
451.584	27156.75
451.791	27617.54
451.997	27783.43
452.203	28479.74
452.409	28373.24
452.615	27875.59
452.821	26632.47
453.027	26607.89
453.233	28184.83
453.44	26667.28
453.646	27099.41
453.852	27113.74
454.058	27228.43
454.264	26655
454.47	27412.74
454.676	26681.62
454.882	27396.36
455.088	25008.43
455.294	25037.1
455.5	25583.91
455.705	26173.72
455.911	24895.79
456.117	24310.07
456.323	24049.98
456.529	22434.13
456.735	23511.36
456.941	22931.79
457.147	22712.66
457.352	21936.48
457.558	21905.76
457.764	21805.41
457.97	21328.23
458.176	20853.1
458.381	20652.4
458.587	19673.47
458.793	19831.16
458.999	18749.84
459.204	19958.14
459.41	19513.73
459.616	18346.39
459.821	18227.6
460.027	17969.56
460.233	17271.2
460.438	16890.28
460.644	17080.74
460.85	16097.72
461.055	15995.32
461.261	15925.69
461.466	14920.13
461.672	14426.57
461.878	15401.41
462.083	14246.35
462.289	13924.82
462.494	14156.24
462.7	13285.86
462.905	13044.2
463.111	13386.21
463.316	13494.75
463.522	13205.99
463.727	13402.59
463.932	13048.29
464.138	13111.78
464.343	12956.13
464.549	12921.32
464.754	13146.59
464.959	13081.06
465.165	12888.55
465.37	12638.7
465.575	12085.75
465.781	12515.82
465.986	12528.11
466.191	12378.61
466.397	12118.51
466.602	11401.72
466.807	11905.52
467.012	11815.41
467.218	11944.44
467.423	11803.13
467.628	11784.69
467.833	12024.31
468.038	11868.66
468.244	11403.77
468.449	11942.39
