Data from USB4F104151__182__11-09-32-503.txt Node

Date: Wed Mar 12 11:09:32 EDT 2025
User: louis
Spectrometer: USB4F10415
Trigger mode: 4
Integration Time (sec): 2.000000E-2
Scans to average: 1
Electric dark correction enabled: true
Nonlinearity correction enabled: false
Boxcar width: 0
XAxis mode: Wavelengths
Number of Pixels in Spectrum: 3648
>>>>>Begin Spectral Data<<<<<
178.204	-135
178.424	-135
178.644	-135
178.864	-114.52
179.084	-128.85
179.304	-57.17
179.524	10.41
179.744	-24.4
179.964	-1.88
180.184	22.7
180.404	-3.93
180.624	71.85
180.844	-5.97
181.064	43.18
181.283	59.56
181.503	-87.89
181.723	-26.45
181.943	14.51
182.163	4.27
182.383	28.84
182.602	14.51
182.822	55.47
183.042	26.79
183.262	-30.55
183.482	8.36
183.701	-10.07
183.921	-28.5
184.141	-10.07
184.361	37.03
184.58	-5.97
184.8	-38.74
185.02	-40.79
185.239	14.51
185.459	-38.74
185.679	-10.07
185.898	20.65
186.118	-51.03
186.338	24.75
186.557	106.67
186.777	-59.22
186.997	37.03
187.216	-10.07
187.436	63.66
187.655	-18.26
187.875	-22.36
188.095	-30.55
188.314	-89.94
188.534	80.04
188.753	28.84
188.973	45.23
189.192	125.1
189.412	57.51
189.631	-22.36
189.851	84.14
190.07	14.51
190.29	-14.17
190.509	-55.12
190.729	-46.93
190.948	65.71
191.168	77.99
191.387	0.17
191.607	37.03
191.826	8.36
192.045	-5.97
192.265	14.51
192.484	34.99
192.704	-3.93
192.923	-42.84
193.142	37.03
193.362	-106.32
193.581	30.89
193.8	12.46
194.02	16.55
194.239	63.66
194.458	-3.93
194.678	75.95
194.897	22.7
195.116	-3.93
195.335	-24.4
195.555	-22.36
195.774	24.75
195.993	-3.93
196.212	41.13
196.432	-14.17
196.651	4.27
196.87	2.22
197.089	80.04
197.308	-18.26
197.528	-38.74
197.747	-63.32
197.966	2.22
198.185	92.33
198.404	73.9
198.623	47.27
198.842	71.85
199.062	45.23
199.281	-10.07
199.5	-30.55
199.719	88.23
199.938	0.17
200.157	28.84
200.376	57.51
200.595	121
200.814	-36.69
201.033	6.31
201.252	-10.07
201.471	51.37
201.69	18.6
201.909	-94.04
202.128	-16.21
202.347	-8.02
202.566	14.51
202.785	41.13
203.004	-38.74
203.223	39.08
203.442	-40.79
203.661	41.13
203.879	-77.65
204.098	-12.12
204.317	-137.04
204.536	37.03
204.755	61.61
204.974	-12.12
205.193	18.6
205.411	77.99
205.63	-26.45
205.849	-10.07
206.068	20.65
206.287	16.55
206.505	-18.26
206.724	2.22
206.943	-28.5
207.162	0.17
207.381	6.31
207.599	16.55
207.818	-44.88
208.037	-10.07
208.255	0.17
208.474	30.89
208.693	2.22
208.911	-30.55
209.13	-14.17
209.349	-18.26
209.567	43.18
209.786	73.9
210.005	2.22
210.223	-18.26
210.442	-108.37
210.661	-34.64
210.879	18.6
211.098	10.41
211.316	-34.64
211.535	-10.07
211.753	-30.55
211.972	-1.88
212.191	59.56
212.409	-42.84
212.628	2.22
212.846	6.31
213.065	-1.88
213.283	28.84
213.502	-69.46
213.72	-26.45
213.938	-18.26
214.157	71.85
214.375	84.14
214.594	53.42
214.812	-1.88
215.031	-1.88
215.249	-63.32
215.467	61.61
215.686	20.65
215.904	-5.97
216.122	30.89
216.341	-20.31
216.559	34.99
216.778	41.13
216.996	32.94
217.214	0.17
217.432	-3.93
217.651	65.71
217.869	2.22
218.087	12.46
218.306	-12.12
218.524	30.89
218.742	-18.26
218.96	-16.21
219.179	-51.03
219.397	-12.12
219.615	-40.79
219.833	-26.45
220.051	12.46
220.27	59.56
220.488	51.37
220.706	6.31
220.924	-59.22
221.142	22.7
221.36	-16.21
221.578	-106.32
221.796	43.18
222.015	-8.02
222.233	-55.12
222.451	-36.69
222.669	-26.45
222.887	12.46
223.105	-10.07
223.323	10.41
223.541	-36.69
223.759	26.79
223.977	-8.02
224.195	8.36
224.413	-12.12
224.631	-26.45
224.849	2.22
225.067	4.27
225.285	45.23
225.503	-16.21
225.721	-44.88
225.939	39.08
226.157	-5.97
226.375	67.75
226.592	47.27
226.81	-18.26
227.028	-36.69
227.246	2.22
227.464	32.94
227.682	61.61
227.9	80.04
228.117	57.51
228.335	34.99
228.553	22.7
228.771	6.31
228.989	57.51
229.206	26.79
229.424	0.17
229.642	2.22
229.86	37.03
230.077	26.79
230.295	24.75
230.513	45.23
230.731	-22.36
230.948	-51.03
231.166	6.31
231.384	-3.93
231.601	10.41
231.819	43.18
232.037	-8.02
232.254	6.31
232.472	18.6
232.689	-100.18
232.907	30.89
233.125	-36.69
233.342	-59.22
233.56	-18.26
233.777	-1.88
233.995	10.41
234.213	49.32
234.43	75.95
234.648	14.51
234.865	-12.12
235.083	47.27
235.3	61.61
235.518	24.75
235.735	37.03
235.953	-1.88
236.17	-3.93
236.388	-42.84
236.605	14.51
236.822	69.8
237.04	4.27
237.257	18.6
237.475	-69.46
237.692	4.27
237.909	-16.21
238.127	18.6
238.344	-5.97
238.562	37.03
238.779	30.89
238.996	30.89
239.214	63.66
239.431	-14.17
239.648	14.51
239.865	34.99
240.083	24.75
240.3	51.37
240.517	-20.31
240.735	51.37
240.952	-30.55
241.169	-26.45
241.386	55.47
241.603	-1.88
241.821	-30.55
242.038	45.23
242.255	-100.18
242.472	2.22
242.689	41.13
242.907	0.17
243.124	37.03
243.341	-1.88
243.558	84.14
243.775	-24.4
243.992	2.22
244.209	-3.93
244.426	69.8
244.643	63.66
244.86	-59.22
245.078	8.36
245.295	6.31
245.512	65.71
245.729	65.71
245.946	-59.22
246.163	57.51
246.38	-42.84
246.597	-51.03
246.814	34.99
247.031	45.23
247.248	14.51
247.464	-87.89
247.681	-44.88
247.898	-8.02
248.115	-1.88
248.332	-67.41
248.549	80.04
248.766	0.17
248.983	71.85
249.2	-18.26
249.417	39.08
249.633	2.22
249.85	-18.26
250.067	20.65
250.284	-30.55
250.501	51.37
250.717	-38.74
250.934	32.94
251.151	-8.02
251.368	18.6
251.585	39.08
251.801	-10.07
252.018	-55.12
252.235	-12.12
252.451	-40.79
252.668	4.27
252.885	34.99
253.102	-14.17
253.318	16.55
253.535	20.65
253.752	84.14
253.968	-42.84
254.185	34.99
254.401	39.08
254.618	-28.5
254.835	-59.22
255.051	57.51
255.268	-14.17
255.484	30.89
255.701	26.79
255.917	67.75
256.134	-22.36
256.351	22.7
256.567	-3.93
256.784	2.22
257	43.18
257.217	12.46
257.433	4.27
257.65	0.17
257.866	-10.07
258.082	51.37
258.299	-30.55
258.515	-20.31
258.732	28.84
258.948	-28.5
259.165	32.94
259.381	-42.84
259.597	22.7
259.814	8.36
260.03	-16.21
260.246	20.65
260.463	32.94
260.679	116.9
260.895	-42.84
261.112	14.51
261.328	-5.97
261.544	-65.36
261.761	63.66
261.977	-16.21
262.193	-20.31
262.409	-44.88
262.626	53.42
262.842	-46.93
263.058	6.31
263.274	12.46
263.49	57.51
263.707	-10.07
263.923	34.99
264.139	-3.93
264.355	61.61
264.571	47.27
264.787	51.37
265.004	57.51
265.22	16.55
265.436	41.13
265.652	51.37
265.868	39.08
266.084	-14.17
266.3	-77.65
266.516	-42.84
266.732	55.47
266.948	-71.51
267.164	-5.97
267.38	75.95
267.596	26.79
267.812	0.17
268.028	18.6
268.244	-20.31
268.46	-34.64
268.676	12.46
268.892	8.36
269.108	-20.31
269.324	-30.55
269.54	-12.12
269.756	34.99
269.972	12.46
270.188	18.6
270.403	-65.36
270.619	20.65
270.835	22.7
271.051	67.75
271.267	0.17
271.483	-44.88
271.698	-34.64
271.914	65.71
272.13	65.71
272.346	16.55
272.562	14.51
272.777	12.46
272.993	28.84
273.209	-22.36
273.425	-30.55
273.64	-10.07
273.856	22.7
274.072	123.05
274.287	37.03
274.503	-10.07
274.719	10.41
274.934	30.89
275.15	-53.08
275.366	-18.26
275.581	2.22
275.797	10.41
276.012	37.03
276.228	39.08
276.444	37.03
276.659	-40.79
276.875	43.18
277.09	-30.55
277.306	-5.97
277.521	104.62
277.737	-10.07
277.952	-1.88
278.168	-5.97
278.383	-42.84
278.599	-59.22
278.814	-38.74
279.03	49.32
279.245	-24.4
279.461	49.32
279.676	59.56
279.892	61.61
280.107	12.46
280.322	39.08
280.538	45.23
280.753	10.41
280.969	26.79
281.184	43.18
281.399	10.41
281.615	-26.45
281.83	22.7
282.045	-14.17
282.26	-3.93
282.476	-5.97
282.691	14.51
282.906	18.6
283.122	-8.02
283.337	-51.03
283.552	-40.79
283.767	22.7
283.983	-3.93
284.198	18.6
284.413	32.94
284.628	-16.21
284.843	-10.07
285.058	14.51
285.274	-59.22
285.489	-40.79
285.704	82.09
285.919	-57.17
286.134	41.13
286.349	28.84
286.564	71.85
286.779	53.42
286.995	-20.31
287.21	-28.5
287.425	51.37
287.64	28.84
287.855	26.79
288.07	37.03
288.285	4.27
288.5	22.7
288.715	-44.88
288.93	-16.21
289.145	8.36
289.36	-12.12
289.575	20.65
289.79	26.79
290.004	-34.64
290.219	47.27
290.434	-8.02
290.649	10.41
290.864	-3.93
291.079	-48.98
291.294	30.89
291.509	-10.07
291.724	41.13
291.938	-14.17
292.153	45.23
292.368	12.46
292.583	0.17
292.798	-59.22
293.012	-1.88
293.227	30.89
293.442	-5.97
293.657	129.19
293.871	0.17
294.086	10.41
294.301	104.62
294.516	6.31
294.73	41.13
294.945	-10.07
295.16	2.22
295.374	22.7
295.589	26.79
295.804	-75.6
296.018	-40.79
296.233	18.6
296.447	4.27
296.662	8.36
296.877	28.84
297.091	-42.84
297.306	22.7
297.52	-48.98
297.735	28.84
297.949	-55.12
298.164	45.23
298.378	-12.12
298.593	-44.88
298.807	12.46
299.022	-8.02
299.236	30.89
299.451	-26.45
299.665	90.28
299.88	-14.17
300.094	-5.97
300.309	-1.88
300.523	32.94
300.737	55.47
300.952	63.66
301.166	-34.64
301.381	-22.36
301.595	-18.26
301.809	22.7
302.024	55.47
302.238	-46.93
302.452	30.89
302.667	37.03
302.881	59.56
303.095	20.65
303.309	47.27
303.524	51.37
303.738	-20.31
303.952	-1.88
304.166	55.47
304.381	22.7
304.595	-59.22
304.809	-1.88
305.023	-38.74
305.237	28.84
305.452	-5.97
305.666	10.41
305.88	71.85
306.094	110.76
306.308	53.42
306.522	6.31
306.736	55.47
306.95	-10.07
307.164	12.46
307.379	0.17
307.593	-12.12
307.807	51.37
308.021	43.18
308.235	63.66
308.449	-87.89
308.663	55.47
308.877	55.47
309.091	53.42
309.305	12.46
309.519	-30.55
309.733	39.08
309.947	0.17
310.161	34.99
310.374	-1.88
310.588	14.51
310.802	34.99
311.016	41.13
311.23	22.7
311.444	8.36
311.658	71.85
311.872	10.41
312.085	16.55
312.299	4.27
312.513	-3.93
312.727	-42.84
312.941	24.75
313.154	51.37
313.368	-3.93
313.582	90.28
313.796	10.41
314.009	-16.21
314.223	-14.17
314.437	43.18
314.651	-46.93
314.864	-1.88
315.078	39.08
315.292	-42.84
315.505	-57.17
315.719	57.51
315.933	34.99
316.146	18.6
316.36	16.55
316.573	-12.12
316.787	73.9
317.001	51.37
317.214	14.51
317.428	49.32
317.641	45.23
317.855	18.6
318.068	-1.88
318.282	71.85
318.495	43.18
318.709	30.89
318.922	24.75
319.136	47.27
319.349	61.61
319.563	8.36
319.776	-18.26
319.99	30.89
320.203	53.42
320.417	-12.12
320.63	6.31
320.843	14.51
321.057	4.27
321.27	0.17
321.483	47.27
321.697	41.13
321.91	102.57
322.124	-5.97
322.337	-20.31
322.55	51.37
322.763	12.46
322.977	49.32
323.19	34.99
323.403	86.19
323.617	28.84
323.83	4.27
324.043	-110.42
324.256	43.18
324.469	0.17
324.683	49.32
324.896	-75.6
325.109	57.51
325.322	14.51
325.535	82.09
325.748	2.22
325.962	32.94
326.175	-20.31
326.388	-42.84
326.601	39.08
326.814	55.47
327.027	-26.45
327.24	39.08
327.453	10.41
327.666	28.84
327.879	18.6
328.092	34.99
328.305	-10.07
328.518	71.85
328.731	-55.12
328.944	39.08
329.157	-10.07
329.37	112.81
329.583	82.09
329.796	20.65
330.009	-34.64
330.222	2.22
330.435	18.6
330.648	-22.36
330.861	53.42
331.073	26.79
331.286	-3.93
331.499	-5.97
331.712	2.22
331.925	-26.45
332.138	-12.12
332.35	8.36
332.563	86.19
332.776	80.04
332.989	-30.55
333.202	75.95
333.414	41.13
333.627	41.13
333.84	-51.03
334.053	8.36
334.265	4.27
334.478	39.08
334.691	0.17
334.903	24.75
335.116	-38.74
335.329	10.41
335.541	-71.51
335.754	34.99
335.966	8.36
336.179	10.41
336.392	32.94
336.604	43.18
336.817	16.55
337.029	49.32
337.242	-16.21
337.454	22.7
337.667	4.27
337.88	90.28
338.092	34.99
338.305	53.42
338.517	-53.08
338.729	75.95
338.942	71.85
339.154	6.31
339.367	43.18
339.579	80.04
339.792	18.6
340.004	75.95
340.217	2.22
340.429	4.27
340.641	-8.02
340.854	-8.02
341.066	-18.26
341.278	53.42
341.491	-3.93
341.703	-48.98
341.915	47.27
342.128	45.23
342.34	-8.02
342.552	24.75
342.764	-28.5
342.977	22.7
343.189	6.31
343.401	-8.02
343.613	32.94
343.826	59.56
344.038	-75.6
344.25	63.66
344.462	6.31
344.674	-18.26
344.886	-18.26
345.099	26.79
345.311	20.65
345.523	-22.36
345.735	-34.64
345.947	123.05
346.159	-34.64
346.371	67.75
346.583	10.41
346.795	43.18
347.007	-77.65
347.219	94.38
347.431	-5.97
347.643	-22.36
347.855	-10.07
348.067	49.32
348.279	12.46
348.491	-63.32
348.703	2.22
348.915	37.03
349.127	-1.88
349.339	84.14
349.551	16.55
349.763	14.51
349.975	4.27
350.187	24.75
350.399	94.38
350.61	-16.21
350.822	8.36
351.034	67.75
351.246	47.27
351.458	14.51
351.669	61.61
351.881	59.56
352.093	-3.93
352.305	63.66
352.517	6.31
352.728	0.17
352.94	26.79
353.152	73.9
353.363	28.84
353.575	-12.12
353.787	71.85
353.999	0.17
354.21	45.23
354.422	16.55
354.633	2.22
354.845	45.23
355.057	4.27
355.268	-18.26
355.48	22.7
355.692	69.8
355.903	32.94
356.115	18.6
356.326	-1.88
356.538	-10.07
356.749	41.13
356.961	77.99
357.172	-16.21
357.384	-14.17
357.595	63.66
357.807	59.56
358.018	-36.69
358.23	-3.93
358.441	4.27
358.653	14.51
358.864	37.03
359.075	10.41
359.287	2.22
359.498	12.46
359.709	-53.08
359.921	8.36
360.132	6.31
360.344	26.79
360.555	6.31
360.766	18.6
360.977	28.84
361.189	-22.36
361.4	-14.17
361.611	-12.12
361.823	67.75
362.034	34.99
362.245	67.75
362.456	-14.17
362.667	20.65
362.879	12.46
363.09	14.51
363.301	-71.51
363.512	53.42
363.723	0.17
363.935	-8.02
364.146	69.8
364.357	69.8
364.568	-63.32
364.779	6.31
364.99	57.51
365.201	28.84
365.412	26.79
365.623	-22.36
365.834	8.36
366.045	-22.36
366.256	24.75
366.467	34.99
366.678	-40.79
366.889	-53.08
367.1	-10.07
367.311	24.75
367.522	18.6
367.733	8.36
367.944	32.94
368.155	-1.88
368.366	26.79
368.577	22.7
368.788	49.32
368.999	59.56
369.209	55.47
369.42	0.17
369.631	26.79
369.842	-18.26
370.053	-10.07
370.264	14.51
370.474	-10.07
370.685	16.55
370.896	20.65
371.107	32.94
371.317	61.61
371.528	-26.45
371.739	61.61
371.95	26.79
372.16	-5.97
372.371	-61.27
372.582	-12.12
372.792	-57.17
373.003	71.85
373.214	96.43
373.424	2.22
373.635	-36.69
373.846	-16.21
374.056	57.51
374.267	43.18
374.477	69.8
374.688	10.41
374.898	39.08
375.109	12.46
375.319	24.75
375.53	104.62
375.74	26.79
375.951	12.46
376.161	51.37
376.372	34.99
376.582	-67.41
376.793	67.75
377.003	34.99
377.214	75.95
377.424	47.27
377.635	34.99
377.845	37.03
378.055	-24.4
378.266	34.99
378.476	34.99
378.686	18.6
378.897	-26.45
379.107	0.17
379.317	-24.4
379.528	-30.55
379.738	18.6
379.948	-42.84
380.158	34.99
380.369	45.23
380.579	6.31
380.789	10.41
380.999	26.79
381.21	53.42
381.42	47.27
381.63	45.23
381.84	8.36
382.05	2.22
382.261	28.84
382.471	41.13
382.681	53.42
382.891	61.61
383.101	75.95
383.311	45.23
383.521	16.55
383.731	26.79
383.941	73.9
384.151	0.17
384.361	86.19
384.571	-12.12
384.781	34.99
384.991	39.08
385.201	30.89
385.411	53.42
385.621	34.99
385.831	22.7
386.041	41.13
386.251	37.03
386.461	55.47
386.671	55.47
386.881	10.41
387.091	22.7
387.301	121
387.511	53.42
387.72	47.27
387.93	6.31
388.14	-3.93
388.35	-3.93
388.56	61.61
388.769	-5.97
388.979	8.36
389.189	4.27
389.399	18.6
389.609	82.09
389.818	30.89
390.028	6.31
390.238	49.32
390.447	-26.45
390.657	55.47
390.867	24.75
391.076	20.65
391.286	55.47
391.496	-26.45
391.705	57.51
391.915	-14.17
392.125	6.31
392.334	47.27
392.544	39.08
392.753	-5.97
392.963	-10.07
393.172	63.66
393.382	92.33
393.591	41.13
393.801	28.84
394.01	55.47
394.22	49.32
394.429	20.65
394.639	-20.31
394.848	67.75
395.058	69.8
395.267	43.18
395.477	43.18
395.686	80.04
395.895	57.51
396.105	80.04
396.314	34.99
396.524	28.84
396.733	-8.02
396.942	0.17
397.152	45.23
397.361	51.37
397.57	-34.64
397.78	67.75
397.989	63.66
398.198	139.43
398.407	59.56
398.617	149.67
398.826	61.61
399.035	53.42
399.244	22.7
399.453	77.99
399.663	-24.4
399.872	94.38
400.081	10.41
400.29	20.65
400.499	6.31
400.708	98.47
400.917	-5.97
401.127	10.41
401.336	71.85
401.545	149.67
401.754	-5.97
401.963	49.32
402.172	47.27
402.381	16.55
402.59	63.66
402.799	137.38
403.008	108.71
403.217	30.89
403.426	32.94
403.635	114.86
403.844	14.51
404.053	18.6
404.262	90.28
404.471	71.85
404.68	8.36
404.888	57.51
405.097	104.62
405.306	92.33
405.515	98.47
405.724	153.77
405.933	149.67
406.142	108.71
406.35	88.23
406.559	39.08
406.768	84.14
406.977	133.29
407.185	39.08
407.394	139.43
407.603	108.71
407.812	104.62
408.02	92.33
408.229	131.24
408.438	129.19
408.646	178.34
408.855	96.43
409.064	190.63
409.272	34.99
409.481	151.72
409.69	182.44
409.898	202.92
410.107	219.3
410.315	100.52
410.524	104.62
410.733	207.02
410.941	176.3
411.15	237.74
411.358	202.92
411.567	303.27
411.775	188.58
411.984	198.82
412.192	157.86
412.401	247.97
412.609	221.35
412.818	286.89
413.026	243.88
413.234	295.08
413.443	280.74
413.651	280.74
413.86	264.36
414.068	307.37
414.276	432.29
414.485	309.41
414.693	428.2
414.901	424.1
415.11	415.91
415.318	440.48
415.526	415.91
415.734	395.43
415.943	428.2
416.151	428.2
416.359	448.68
416.567	544.93
416.776	481.44
416.984	528.55
417.192	528.55
417.4	520.35
417.608	602.27
417.817	585.89
418.025	635.04
418.233	612.51
418.441	651.42
418.649	649.38
418.857	704.67
419.065	737.44
419.273	762.02
419.481	819.36
419.689	829.6
419.897	870.56
420.105	860.32
420.313	858.27
420.521	833.69
420.729	874.65
420.937	936.09
421.145	952.48
421.353	1097.88
421.561	1075.35
421.769	1177.75
421.977	1147.03
422.185	1153.18
422.393	1235.1
422.601	1190.04
422.809	1337.49
423.017	1351.83
423.224	1323.16
423.432	1384.6
423.64	1374.36
423.848	1439.89
424.056	1423.51
424.263	1628.31
424.471	1599.63
424.679	1538.2
424.887	1714.32
425.094	1806.48
425.302	1742.99
425.51	1798.29
425.718	1953.93
425.925	1951.88
426.133	1939.6
426.341	2115.72
426.548	2318.47
426.756	2199.69
426.964	2148.49
427.171	2361.48
427.379	2449.54
427.586	2517.12
427.794	2582.66
428.001	2685.06
428.209	2844.8
428.417	2683.01
428.624	2920.57
428.832	2926.72
429.039	2957.44
429.247	2943.1
429.454	3106.94
429.662	3405.94
429.869	3289.21
430.076	3426.42
430.284	3334.26
430.491	3508.34
430.699	3696.75
430.906	3666.03
431.114	3721.33
431.321	3971.18
431.528	4051.05
431.736	4081.77
431.943	4331.62
432.15	4018.29
432.358	4255.85
432.565	4491.37
432.772	4534.37
432.979	4696.16
433.187	4841.57
433.394	4833.38
433.601	4997.21
433.808	5183.58
434.016	5029.98
434.223	5296.22
434.43	5711.96
434.637	5648.47
434.844	6150.22
435.052	6021.2
435.259	6072.4
435.466	6144.08
435.673	6139.98
435.88	6379.59
436.087	6830.15
436.294	6709.32
436.501	6621.25
436.708	6662.21
436.915	6961.22
437.122	7213.12
437.329	7198.78
437.537	7503.93
437.743	7536.7
437.95	7405.63
438.157	8017.97
438.364	8214.57
438.571	8122.41
438.778	8200.24
438.985	9044
439.192	8663.08
439.399	8824.87
439.606	8628.26
439.813	9324.57
440.02	9822.23
440.227	9512.99
440.433	9621.53
440.64	9828.37
440.847	9773.08
441.054	9920.53
441.261	10592.27
441.467	10362.89
441.674	10618.89
441.881	11012.1
442.088	11180.03
442.294	10921.99
442.501	11311.1
442.708	11653.11
442.914	11909.11
443.121	12423.15
443.328	12142.58
443.534	13053.92
443.741	12447.72
443.948	12318.7
444.154	13416.41
444.361	13279.2
444.568	13256.67
444.774	13463.52
444.981	13430.75
445.187	13649.88
445.394	14491.6
445.6	14059.48
445.807	15583.16
446.013	15034.31
446.22	14919.62
446.426	15955.9
446.633	15947.7
446.839	16271.28
447.046	15724.47
447.252	16498.61
447.459	16486.32
447.665	16402.35
447.871	17158.05
448.078	17801.12
448.284	17069.99
448.491	17543.07
448.697	18489.23
448.903	18603.92
449.11	18683.79
449.316	18306.96
449.522	18898.83
449.728	19152.77
449.935	19496.83
450.141	19306.37
450.347	20162.42
450.553	19535.74
450.76	19316.61
450.966	19912.57
451.172	19748.73
451.378	20309.88
451.584	19754.88
451.791	20277.11
451.997	20029.31
452.203	20856.68
452.409	20492.15
452.615	20592.5
452.821	19916.67
453.027	19347.33
453.233	20426.61
453.44	19799.93
453.646	19947.39
453.852	20025.21
454.058	20113.27
454.264	19384.19
454.47	19961.72
454.676	19502.98
454.882	20139.9
455.088	18347.92
455.294	18685.84
455.5	19081.1
455.705	19046.28
455.911	18114.45
456.117	18030.49
456.323	17731.48
456.529	16777.13
456.735	17336.23
456.941	17289.12
457.147	16813.99
457.352	16320.43
457.558	16222.13
457.764	16119.73
457.97	15912.89
458.176	15415.23
458.381	15579.07
458.587	14651.34
458.793	14876.62
458.999	14131.16
459.204	14921.67
459.41	14567.37
459.616	13426.65
459.821	13557.72
460.027	13547.48
460.233	13252.58
460.438	12351.47
460.644	12771.3
460.85	12296.18
461.055	11896.82
461.261	11995.12
461.466	11130.88
461.672	10727.43
461.878	11759.61
462.083	10924.04
462.289	10663.94
462.494	10364.94
462.7	10027.03
462.905	9633.82
463.111	10041.36
463.316	10090.51
463.522	9924.63
463.727	9787.41
463.932	9914.39
464.138	9746.45
464.343	9986.07
464.549	9551.9
464.754	9830.42
464.959	9828.37
465.165	9736.21
465.37	9240.61
465.575	8953.89
465.781	9238.56
465.986	9596.95
466.191	9121.82
466.397	8849.44
466.602	8575.02
466.807	8931.36
467.012	8820.77
467.218	8712.23
467.423	8849.44
467.628	8745
467.833	9193.5
