Data from USB4F104151__106__11-07-12-859.txt Node

Date: Wed Mar 12 11:07:12 EDT 2025
User: louis
Spectrometer: USB4F10415
Trigger mode: 4
Integration Time (sec): 2.000000E-2
Scans to average: 1
Electric dark correction enabled: true
Nonlinearity correction enabled: false
Boxcar width: 0
XAxis mode: Wavelengths
Number of Pixels in Spectrum: 3648
>>>>>Begin Spectral Data<<<<<
178.204	-100.35
178.424	-100.35
178.644	-100.35
178.864	-88.06
179.084	-53.25
179.304	28.67
179.524	36.86
179.744	-59.39
179.964	36.86
180.184	55.3
180.404	14.34
180.624	-96.25
180.844	-0
181.064	-43.01
181.283	67.58
181.503	-36.86
181.723	-4.1
181.943	-65.54
182.163	73.73
182.383	24.58
182.602	67.58
182.822	4.1
183.042	-24.58
183.262	10.24
183.482	22.53
183.701	-32.77
183.921	18.43
184.141	-51.2
184.361	45.06
184.58	51.2
184.8	-86.01
185.02	-73.73
185.239	-24.58
185.459	-40.96
185.679	-30.72
185.898	-22.53
186.118	-43.01
186.338	-8.19
186.557	104.45
186.777	45.06
186.997	-4.1
187.216	4.1
187.436	26.62
187.655	36.86
187.875	4.1
188.095	-10.24
188.314	59.39
188.534	69.63
188.753	30.72
188.973	30.72
189.192	24.58
189.412	20.48
189.631	45.06
189.851	4.1
190.07	18.43
190.29	38.91
190.509	61.44
190.729	8.19
190.948	-32.77
191.168	49.15
191.387	45.06
191.607	-6.14
191.826	65.53
192.045	6.14
192.265	20.48
192.484	63.49
192.704	55.3
192.923	32.77
193.142	-12.29
193.362	-18.43
193.581	77.82
193.8	20.48
194.02	24.58
194.239	-30.72
194.458	12.29
194.678	75.77
194.897	-43.01
195.116	28.67
195.335	-24.58
195.555	49.15
195.774	94.21
195.993	-12.29
196.212	-8.19
196.432	32.77
196.651	4.1
196.87	47.1
197.089	55.3
197.308	-43.01
197.528	88.06
197.747	-94.21
197.966	6.14
198.185	49.15
198.404	-0
198.623	57.34
198.842	6.14
199.062	38.91
199.281	57.34
199.5	4.1
199.719	53.25
199.938	-12.29
200.157	8.19
200.376	-14.34
200.595	12.29
200.814	86.01
201.033	51.2
201.252	61.44
201.471	24.58
201.69	-18.43
201.909	57.34
202.128	12.29
202.347	57.34
202.566	55.3
202.785	8.19
203.004	-0
203.223	30.72
203.442	67.58
203.661	-24.58
203.879	69.63
204.098	75.77
204.317	30.72
204.536	55.3
204.755	45.06
204.974	10.24
205.193	43.01
205.411	51.2
205.63	32.77
205.849	47.1
206.068	26.62
206.287	24.58
206.505	16.38
206.724	-0
206.943	2.05
207.162	18.43
207.381	51.2
207.599	61.44
207.818	-36.86
208.037	18.43
208.255	45.06
208.474	-2.05
208.693	49.15
208.911	-30.72
209.13	14.34
209.349	69.63
209.567	4.1
209.786	53.25
210.005	30.72
210.223	-16.38
210.442	-30.72
210.661	71.68
210.879	79.87
211.098	38.91
211.316	83.97
211.535	36.86
211.753	10.24
211.972	55.3
212.191	114.69
212.409	24.58
212.628	59.39
212.846	45.06
213.065	30.72
213.283	-14.34
213.502	67.58
213.72	-12.29
213.938	6.14
214.157	77.82
214.375	12.29
214.594	43.01
214.812	-26.62
215.031	-12.29
215.249	16.38
215.467	16.38
215.686	24.58
215.904	-4.1
216.122	2.05
216.341	22.53
216.559	-12.29
216.778	-4.1
216.996	73.73
217.214	-24.58
217.432	104.45
217.651	8.19
217.869	63.49
218.087	43.01
218.306	53.25
218.524	69.63
218.742	59.39
218.96	-24.58
219.179	-34.82
219.397	-30.72
219.615	92.16
219.833	79.87
220.051	18.43
220.27	114.69
220.488	16.38
220.706	24.58
220.924	-24.58
221.142	69.63
221.36	26.62
221.578	61.44
221.796	40.96
222.015	88.06
222.233	-8.19
222.451	77.82
222.669	-16.38
222.887	83.97
223.105	-20.48
223.323	-34.82
223.541	-30.72
223.759	45.06
223.977	26.62
224.195	-16.38
224.413	20.48
224.631	172.03
224.849	32.77
225.067	53.25
225.285	18.43
225.503	-28.67
225.721	8.19
225.939	-16.38
226.157	10.24
226.375	32.77
226.592	-36.86
226.81	-90.11
227.028	8.19
227.246	6.14
227.464	-47.1
227.682	34.82
227.9	94.21
228.117	14.34
228.335	16.38
228.553	88.06
228.771	-22.53
228.989	30.72
229.206	120.83
229.424	40.96
229.642	-10.24
229.86	104.45
230.077	57.34
230.295	20.48
230.513	55.3
230.731	43.01
230.948	30.72
231.166	24.58
231.384	-16.38
231.601	61.44
231.819	53.25
232.037	-12.29
232.254	59.39
232.472	49.15
232.689	-57.34
232.907	24.58
233.125	32.77
233.342	30.72
233.56	30.72
233.777	38.91
233.995	73.73
234.213	30.72
234.43	32.77
234.648	-16.38
234.865	28.67
235.083	73.73
235.3	24.58
235.518	104.45
235.735	22.53
235.953	-26.62
236.17	18.43
236.388	32.77
236.605	-8.19
236.822	94.21
237.04	32.77
237.257	2.05
237.475	47.1
237.692	67.58
237.909	51.2
238.127	-59.39
238.344	14.34
238.562	10.24
238.779	28.67
238.996	-14.34
239.214	12.29
239.431	79.87
239.648	-83.97
239.865	69.63
240.083	28.67
240.3	-55.3
240.517	10.24
240.735	12.29
240.952	20.48
241.169	18.43
241.386	61.44
241.603	-20.48
241.821	36.86
242.038	63.49
242.255	57.34
242.472	34.82
242.689	47.1
242.907	-2.05
243.124	94.21
243.341	-16.38
243.558	-2.05
243.775	-24.58
243.992	47.1
244.209	55.3
244.426	110.59
244.643	6.14
244.86	12.29
245.078	28.67
245.295	38.91
245.512	22.53
245.729	45.06
245.946	10.24
246.163	18.43
246.38	4.1
246.597	8.19
246.814	34.82
247.031	-32.77
247.248	77.82
247.464	-53.25
247.681	28.67
247.898	-24.58
248.115	96.25
248.332	110.59
248.549	106.49
248.766	65.53
248.983	-14.34
249.2	36.86
249.417	69.63
249.633	51.2
249.85	61.44
250.067	55.3
250.284	30.72
250.501	-38.91
250.717	71.68
250.934	81.92
251.151	47.1
251.368	-12.29
251.585	77.82
251.801	26.62
252.018	-38.91
252.235	-8.19
252.451	6.14
252.668	-4.1
252.885	71.68
253.102	-8.19
253.318	24.58
253.535	45.06
253.752	-6.14
253.968	77.82
254.185	-0
254.401	-0
254.618	106.49
254.835	36.86
255.051	67.58
255.268	-18.43
255.484	53.25
255.701	57.34
255.917	26.62
256.134	12.29
256.351	-18.43
256.567	-18.43
256.784	55.3
257	-6.14
257.217	-16.38
257.433	6.14
257.65	36.86
257.866	45.06
258.082	45.06
258.299	8.19
258.515	10.24
258.732	61.44
258.948	57.34
259.165	51.2
259.381	-28.67
259.597	45.06
259.814	-8.19
260.03	-40.96
260.246	-2.05
260.463	86.01
260.679	98.3
260.895	-43.01
261.112	53.25
261.328	57.34
261.544	28.67
261.761	6.14
261.977	16.38
262.193	-69.63
262.409	-36.86
262.626	40.96
262.842	-20.48
263.058	43.01
263.274	40.96
263.49	18.43
263.707	73.73
263.923	49.15
264.139	40.96
264.355	26.62
264.571	116.73
264.787	-28.67
265.004	10.24
265.22	30.72
265.436	-8.19
265.652	-4.1
265.868	-0
266.084	57.34
266.3	61.44
266.516	-12.29
266.732	65.53
266.948	14.34
267.164	26.62
267.38	69.63
267.596	90.11
267.812	75.77
268.028	22.53
268.244	30.72
268.46	24.58
268.676	-8.19
268.892	73.73
269.108	43.01
269.324	8.19
269.54	4.1
269.756	-0
269.972	-6.14
270.188	63.49
270.403	28.67
270.619	55.3
270.835	36.86
271.051	10.24
271.267	20.48
271.483	6.14
271.698	75.77
271.914	90.11
272.13	-24.58
272.346	79.87
272.562	36.86
272.777	-18.43
272.993	10.24
273.209	24.58
273.425	10.24
273.64	43.01
273.856	63.49
274.072	-51.2
274.287	81.92
274.503	28.67
274.719	69.63
274.934	45.06
275.15	61.44
275.366	-45.06
275.581	-4.1
275.797	81.92
276.012	53.25
276.228	79.87
276.444	-47.1
276.659	53.25
276.875	12.29
277.09	14.34
277.306	34.82
277.521	26.62
277.737	-16.38
277.952	71.68
278.168	22.53
278.383	40.96
278.599	75.77
278.814	43.01
279.03	-12.29
279.245	51.2
279.461	16.38
279.676	30.72
279.892	-45.06
280.107	45.06
280.322	-14.34
280.538	-18.43
280.753	8.19
280.969	69.63
281.184	55.3
281.399	73.73
281.615	-49.15
281.83	38.91
282.045	38.91
282.26	53.25
282.476	-30.72
282.691	71.68
282.906	38.91
283.122	12.29
283.337	106.49
283.552	94.21
283.767	-2.05
283.983	-4.1
284.198	32.77
284.413	20.48
284.628	30.72
284.843	10.24
285.058	24.58
285.274	8.19
285.489	16.38
285.704	-32.77
285.919	-4.1
286.134	36.86
286.349	18.43
286.564	61.44
286.779	61.44
286.995	16.38
287.21	32.77
287.425	-20.48
287.64	30.72
287.855	16.38
288.07	32.77
288.285	22.53
288.5	26.62
288.715	28.67
288.93	49.15
289.145	59.39
289.36	61.44
289.575	49.15
289.79	12.29
290.004	22.53
290.219	51.2
290.434	75.77
290.649	59.39
290.864	71.68
291.079	77.82
291.294	45.06
291.509	59.39
291.724	63.49
291.938	20.48
292.153	-24.58
292.368	28.67
292.583	-2.05
292.798	77.82
293.012	36.86
293.227	18.43
293.442	-18.43
293.657	32.77
293.871	12.29
294.086	24.58
294.301	-16.38
294.516	79.87
294.73	55.3
294.945	-12.29
295.16	22.53
295.374	63.49
295.589	114.69
295.804	38.91
296.018	-28.67
296.233	53.25
296.447	8.19
296.662	-55.3
296.877	83.97
297.091	40.96
297.306	26.62
297.52	-61.44
297.735	51.2
297.949	73.73
298.164	12.29
298.378	32.77
298.593	-38.91
298.807	28.67
299.022	57.34
299.236	47.1
299.451	38.91
299.665	18.43
299.88	69.63
300.094	10.24
300.309	24.58
300.523	79.87
300.737	-4.1
300.952	57.34
301.166	47.1
301.381	30.72
301.595	38.91
301.809	53.25
302.024	45.06
302.238	-12.29
302.452	-0
302.667	26.62
302.881	24.58
303.095	71.68
303.309	-10.24
303.524	-0
303.738	28.67
303.952	24.58
304.166	106.49
304.381	26.62
304.595	43.01
304.809	12.29
305.023	47.1
305.237	26.62
305.452	69.63
305.666	8.19
305.88	2.05
306.094	110.59
306.308	63.49
306.522	53.25
306.736	45.06
306.95	61.44
307.164	36.86
307.379	47.1
307.593	63.49
307.807	20.48
308.021	34.82
308.235	49.15
308.449	45.06
308.663	4.1
308.877	59.39
309.091	57.34
309.305	59.39
309.519	67.58
309.733	36.86
309.947	-18.43
310.161	88.06
310.374	55.3
310.588	61.44
310.802	65.53
311.016	-30.72
311.23	55.3
311.444	45.06
311.658	34.82
311.872	106.49
312.085	-8.19
312.299	94.21
312.513	22.53
312.727	6.14
312.941	-10.24
313.154	-20.48
313.368	51.2
313.582	55.3
313.796	45.06
314.009	-20.48
314.223	45.06
314.437	59.39
314.651	43.01
314.864	28.67
315.078	18.43
315.292	75.77
315.505	-26.62
315.719	40.96
315.933	45.06
316.146	100.35
316.36	43.01
316.573	43.01
316.787	18.43
317.001	61.44
317.214	10.24
317.428	55.3
317.641	36.86
317.855	79.87
318.068	102.4
318.282	71.68
318.495	120.83
318.709	45.06
318.922	65.53
319.136	108.54
319.349	40.96
319.563	-2.05
319.776	34.82
319.99	-49.15
320.203	10.24
320.417	-16.38
320.63	141.31
320.843	28.67
321.057	-36.86
321.27	96.25
321.483	73.73
321.697	18.43
321.91	-16.38
322.124	96.25
322.337	30.72
322.55	43.01
322.763	57.34
322.977	-4.1
323.19	18.43
323.403	4.1
323.617	22.53
323.83	45.06
324.043	-34.82
324.256	59.39
324.469	26.62
324.683	20.48
324.896	32.77
325.109	14.34
325.322	32.77
325.535	61.44
325.748	79.87
325.962	30.72
326.175	98.3
326.388	10.24
326.601	47.1
326.814	69.63
327.027	36.86
327.24	124.93
327.453	36.86
327.666	-8.19
327.879	96.25
328.092	63.49
328.305	-0
328.518	28.67
328.731	67.58
328.944	69.63
329.157	45.06
329.37	71.68
329.583	51.2
329.796	32.77
330.009	61.44
330.222	-12.29
330.435	-6.14
330.648	75.77
330.861	53.25
331.073	20.48
331.286	96.25
331.499	28.67
331.712	34.82
331.925	71.68
332.138	-26.62
332.35	104.45
332.563	81.92
332.776	-20.48
332.989	43.01
333.202	102.4
333.414	114.69
333.627	51.2
333.84	4.1
334.053	61.44
334.265	96.25
334.478	61.44
334.691	-6.14
334.903	88.06
335.116	81.92
335.329	30.72
335.541	69.63
335.754	122.88
335.966	32.77
336.179	38.91
336.392	32.77
336.604	88.06
336.817	81.92
337.029	-20.48
337.242	-0
337.454	-8.19
337.667	8.19
337.88	81.92
338.092	12.29
338.305	40.96
338.517	-2.05
338.729	159.74
338.942	65.53
339.154	24.58
339.367	34.82
339.579	47.1
339.792	-2.05
340.004	83.97
340.217	57.34
340.429	98.3
340.641	-34.82
340.854	63.49
341.066	71.68
341.278	38.91
341.491	118.78
341.703	8.19
341.915	57.34
342.128	38.91
342.34	28.67
342.552	63.49
342.764	73.73
342.977	94.21
343.189	2.05
343.401	30.72
343.613	-30.72
343.826	-38.91
344.038	43.01
344.25	90.11
344.462	34.82
344.674	12.29
344.886	18.43
345.099	47.1
345.311	51.2
345.523	38.91
345.735	28.67
345.947	100.35
346.159	30.72
346.371	6.14
346.583	47.1
346.795	47.1
347.007	112.64
347.219	51.2
347.431	65.53
347.643	77.82
347.855	73.73
348.067	96.25
348.279	49.15
348.491	32.77
348.703	69.63
348.915	22.53
349.127	38.91
349.339	45.06
349.551	88.06
349.763	65.53
349.975	110.59
350.187	55.3
350.399	43.01
350.61	24.58
350.822	16.38
351.034	51.2
351.246	49.15
351.458	63.49
351.669	110.59
351.881	-6.14
352.093	122.88
352.305	75.77
352.517	24.58
352.728	65.53
352.94	59.39
353.152	38.91
353.363	-14.34
353.575	90.11
353.787	67.58
353.999	16.38
354.21	61.44
354.422	34.82
354.633	69.63
354.845	106.49
355.057	24.58
355.268	40.96
355.48	45.06
355.692	-0
355.903	96.25
356.115	55.3
356.326	47.1
356.538	75.77
356.749	-26.62
356.961	102.4
357.172	49.15
357.384	67.58
357.595	88.06
357.807	16.38
358.018	10.24
358.23	12.29
358.441	67.58
358.653	59.39
358.864	-20.48
359.075	90.11
359.287	24.58
359.498	129.02
359.709	104.45
359.921	61.44
360.132	24.58
360.344	-4.1
360.555	-12.29
360.766	26.62
360.977	34.82
361.189	61.44
361.4	81.92
361.611	83.97
361.823	34.82
362.034	32.77
362.245	24.58
362.456	65.53
362.667	36.86
362.879	92.16
363.09	96.25
363.301	-4.1
363.512	38.91
363.723	81.92
363.935	40.96
364.146	98.3
364.357	-10.24
364.568	94.21
364.779	45.06
364.99	6.14
365.201	28.67
365.412	106.49
365.623	36.86
365.834	81.92
366.045	-18.43
366.256	43.01
366.467	69.63
366.678	28.67
366.889	79.87
367.1	30.72
367.311	49.15
367.522	57.34
367.733	26.62
367.944	81.92
368.155	65.53
368.366	49.15
368.577	2.05
368.788	20.48
368.999	38.91
369.209	90.11
369.42	102.4
369.631	100.35
369.842	53.25
370.053	61.44
370.264	32.77
370.474	45.06
370.685	71.68
370.896	100.35
371.107	96.25
371.317	24.58
371.528	61.44
371.739	77.82
371.95	51.2
372.16	40.96
372.371	69.63
372.582	96.25
372.792	63.49
373.003	-26.62
373.214	71.68
373.424	83.97
373.635	-4.1
373.846	24.58
374.056	110.59
374.267	81.92
374.477	69.63
374.688	63.49
374.898	102.4
375.109	-63.49
375.319	55.3
375.53	102.4
375.74	65.53
375.951	6.14
376.161	20.48
376.372	129.02
376.582	20.48
376.793	81.92
377.003	53.25
377.214	90.11
377.424	69.63
377.635	118.78
377.845	94.21
378.055	100.35
378.266	2.05
378.476	10.24
378.686	10.24
378.897	34.82
379.107	53.25
379.317	83.97
379.528	83.97
379.738	4.1
379.948	61.44
380.158	75.77
380.369	61.44
380.579	51.2
380.789	83.97
380.999	120.83
381.21	104.45
381.42	40.96
381.63	69.63
381.84	59.39
382.05	36.86
382.261	102.4
382.471	49.15
382.681	141.31
382.891	32.77
383.101	133.12
383.311	20.48
383.521	106.49
383.731	30.72
383.941	79.87
384.151	100.35
384.361	81.92
384.571	90.11
384.781	86.01
384.991	100.35
385.201	159.74
385.411	49.15
385.621	45.06
385.831	71.68
386.041	86.01
386.251	71.68
386.461	51.2
386.671	63.49
386.881	69.63
387.091	94.21
387.301	110.59
387.511	98.3
387.72	131.07
387.93	-14.34
388.14	79.87
388.35	43.01
388.56	71.68
388.769	45.06
388.979	28.67
389.189	-53.25
389.399	75.77
389.609	139.26
389.818	112.64
390.028	86.01
390.238	61.44
390.447	65.53
390.657	24.58
390.867	71.68
391.076	88.06
391.286	53.25
391.496	114.69
391.705	73.73
391.915	98.3
392.125	135.17
392.334	8.19
392.544	172.03
392.753	22.53
392.963	24.58
393.172	124.93
393.382	108.54
393.591	118.78
393.801	131.07
394.01	112.64
394.22	36.86
394.429	110.59
394.639	63.49
394.848	143.36
395.058	59.39
395.267	133.12
395.477	77.82
395.686	118.78
395.895	163.84
396.105	61.44
396.314	102.4
396.524	49.15
396.733	116.73
396.942	192.51
397.152	151.55
397.361	122.88
397.57	114.69
397.78	114.69
397.989	102.4
398.198	63.49
398.407	100.35
398.617	106.49
398.826	71.68
399.035	118.78
399.244	106.49
399.453	122.88
399.663	126.97
399.872	180.22
400.081	200.7
400.29	149.5
400.499	24.58
400.708	194.56
400.917	90.11
401.127	147.45
401.336	106.49
401.545	169.98
401.754	131.07
401.963	118.78
402.172	139.26
402.381	122.88
402.59	98.3
402.799	151.55
403.008	120.83
403.217	163.84
403.426	212.99
403.635	94.21
403.844	241.66
404.053	204.8
404.262	172.03
404.471	180.22
404.68	165.89
404.888	192.51
405.097	165.89
405.306	198.65
405.515	167.93
405.724	149.5
405.933	210.94
406.142	247.8
406.35	307.2
406.559	241.66
406.768	176.13
406.977	217.08
407.185	235.52
407.394	245.76
407.603	239.61
407.812	296.96
408.02	299
408.229	258.04
408.438	229.37
408.646	219.13
408.855	270.33
409.064	262.14
409.272	329.72
409.481	362.49
409.69	360.44
409.898	389.11
410.107	434.17
410.315	352.25
410.524	405.5
410.733	514.04
410.941	413.69
411.15	471.03
411.358	487.42
411.567	473.08
411.775	546.81
411.984	493.56
412.192	587.77
412.401	524.28
412.609	614.39
412.818	686.07
413.026	624.63
413.234	598.01
413.443	643.06
413.651	704.5
413.86	786.42
414.068	778.23
414.276	784.37
414.485	712.69
414.693	845.81
414.901	806.9
415.11	950.26
415.318	880.63
415.526	925.68
415.734	1028.08
415.943	1003.5
416.151	1107.95
416.359	1048.56
416.567	1177.58
416.776	1118.19
416.984	1183.73
417.192	1288.17
417.4	1294.32
417.608	1247.21
417.817	1376.23
418.025	1382.38
418.233	1495.02
418.441	1478.63
418.649	1607.66
418.857	1662.95
419.065	1646.57
419.273	1650.66
419.481	1710.05
419.689	1847.27
419.897	2041.82
420.105	2043.87
420.313	2009.06
420.521	2170.85
420.729	2195.42
420.937	2136.03
421.145	2369.5
421.353	2498.52
421.561	2615.26
421.769	2584.54
421.977	2799.57
422.185	2576.34
422.393	2650.07
422.601	3063.76
422.809	3092.43
423.017	3010.51
423.224	3215.31
423.432	3334.09
423.64	3235.79
423.848	3450.83
424.056	3600.33
424.263	3737.54
424.471	3680.2
424.679	3876.8
424.887	3956.68
425.094	4206.53
425.302	4181.95
425.51	4360.13
425.718	4538.3
425.925	4562.87
426.133	4673.46
426.341	4978.61
426.548	5197.74
426.756	5230.51
426.964	5234.61
427.171	5539.76
427.379	5844.9
427.586	5842.85
427.794	5996.45
428.001	6231.97
428.209	6541.21
428.417	6432.67
428.624	6926.23
428.832	6764.44
429.039	6915.99
429.247	6811.54
429.454	7600.01
429.662	8066.95
429.869	7567.24
430.076	7985.03
430.284	7710.6
430.491	8071.04
430.699	8640.38
430.906	8613.76
431.114	8656.76
431.321	9019.25
431.528	9133.94
431.736	9824.11
431.943	10096.49
432.15	9975.66
432.358	10184.55
432.565	10590.05
432.772	10573.66
432.979	11171.67
433.187	11382.61
433.394	11460.43
433.601	12136.26
433.808	12134.21
434.016	11960.14
434.223	12787.52
434.43	13494.07
434.637	13213.49
434.844	14079.79
435.052	14452.52
435.259	14047.02
435.466	14139.18
435.673	14323.49
435.88	15179.54
436.087	15931.15
436.294	15824.65
436.501	15394.58
436.708	15734.54
436.915	16449.28
437.122	17239.8
437.329	16856.83
437.537	17665.78
437.743	17856.24
437.95	17702.64
438.157	18538.21
438.364	19175.13
438.571	18943.71
438.778	19257.05
438.985	21042.88
439.192	20475.59
439.399	20858.56
439.606	20397.77
439.813	21526.2
440.02	23027.36
440.227	22415.02
440.433	22343.34
440.64	23039.65
440.847	22603.43
441.054	23344.8
441.261	24807.05
441.467	24440.46
441.674	25001.6
441.881	26130.03
442.088	25941.62
442.294	26011.25
442.501	26455.66
442.708	27055.72
442.914	28272.21
443.121	29091.4
443.328	28259.92
443.534	30471.73
443.741	29707.83
443.948	29312.58
444.154	31606.3
444.361	31043.11
444.568	31376.93
444.774	31743.52
444.981	31729.18
445.187	32677.39
445.394	34217.46
445.6	33668.61
445.807	36722.13
446.013	35151.34
446.22	35974.62
446.426	37281.22
446.633	37119.43
446.839	38942.13
447.046	37189.06
447.252	39183.79
447.459	39024.04
447.665	38974.89
447.871	40934.8
448.078	42689.91
448.284	39943.58
448.491	41631.11
448.697	43068.78
448.903	43398.51
449.11	43971.94
449.316	42859.89
449.522	43480.42
449.728	45172.05
449.935	45217.1
450.141	45090.13
450.347	46218.56
450.553	44438.87
450.76	44877.14
450.966	46791.99
451.172	46302.53
451.378	46964.02
451.584	46605.62
451.791	47396.14
451.997	47134
452.203	47592.75
452.409	48031.01
452.615	47740.2
452.821	45962.56
453.027	45483.34
453.233	48198.94
453.44	45978.95
453.646	46636.34
453.852	46841.14
454.058	47777.06
454.264	45712.71
454.47	46933.3
454.676	45483.34
454.882	47293.74
455.088	43154.8
455.294	43894.11
455.5	44158.3
455.705	44283.23
455.911	42712.44
456.117	42210.68
456.323	41840
456.529	39425.45
456.735	40848.78
456.941	39718.31
457.147	39511.46
457.352	38002.11
457.558	37602.75
457.764	37707.2
457.97	36959.69
458.176	36107.74
458.381	36427.22
458.587	34495.99
458.793	34145.78
458.999	32675.34
459.204	35024.36
459.41	34078.2
459.616	31766.04
459.821	31753.76
460.027	31778.33
460.233	31077.93
460.438	29611.58
460.644	29967.93
460.85	28399.18
461.055	28182.1
461.261	27758.17
461.466	25865.85
461.672	25216.64
461.878	27106.91
462.083	25343.61
462.289	24817.29
462.494	24426.12
462.7	23590.55
462.905	22783.65
463.111	23791.25
463.316	23869.08
463.522	23279.26
463.727	23355.04
463.932	23232.16
464.138	23168.67
464.343	22994.59
464.549	22503.08
464.754	23223.97
464.959	22972.07
465.165	22902.43
465.37	21982.9
465.575	21712.56
465.781	22242.99
465.986	22281.9
466.191	21575.35
466.397	20993.73
466.602	20205.26
466.807	20823.75
467.012	20670.15
467.218	20942.53
467.423	20643.52
