Data from USB4F104151__44__11-05-29-710.txt Node

Date: Wed Mar 12 11:05:29 EDT 2025
User: louis
Spectrometer: USB4F10415
Trigger mode: 4
Integration Time (sec): 2.000000E-2
Scans to average: 1
Electric dark correction enabled: true
Nonlinearity correction enabled: false
Boxcar width: 0
XAxis mode: Wavelengths
Number of Pixels in Spectrum: 3648
>>>>>Begin Spectral Data<<<<<
178.204	-115.2
178.424	-115.2
178.644	-115.2
178.864	-43.52
179.084	-80.38
179.304	-4.61
179.524	26.11
179.744	9.73
179.964	34.3
180.184	-0.51
180.404	38.4
180.624	9.73
180.844	9.73
181.064	-43.52
181.283	-14.85
181.503	-25.09
181.723	-39.42
181.943	69.12
182.163	36.35
182.383	-43.52
182.602	32.26
182.822	54.78
183.042	73.21
183.262	13.82
183.482	105.98
183.701	30.21
183.921	69.12
184.141	-10.75
184.361	50.69
184.58	-0.51
184.8	3.58
185.02	75.26
185.239	-10.75
185.459	-4.61
185.679	50.69
185.898	9.73
186.118	44.54
186.338	3.58
186.557	24.06
186.777	-29.18
186.997	65.02
187.216	28.16
187.436	89.6
187.655	60.93
187.875	52.74
188.095	48.64
188.314	124.41
188.534	48.64
188.753	24.06
188.973	32.26
189.192	17.92
189.412	79.36
189.631	-23.04
189.851	60.93
190.07	87.55
190.29	-31.23
190.509	22.02
190.729	19.97
190.948	30.21
191.168	134.65
191.387	69.12
191.607	11.78
191.826	36.35
192.045	24.06
192.265	9.73
192.484	67.07
192.704	-8.7
192.923	69.12
193.142	48.64
193.362	13.82
193.581	34.3
193.8	48.64
194.02	15.87
194.239	-27.14
194.458	28.16
194.678	38.4
194.897	11.78
195.116	62.98
195.335	48.64
195.555	44.54
195.774	-18.94
195.993	40.45
196.212	-16.9
196.432	-16.9
196.651	50.69
196.87	22.02
197.089	118.27
197.308	17.92
197.528	83.45
197.747	-68.09
197.966	44.54
198.185	62.98
198.404	42.5
198.623	77.31
198.842	75.26
199.062	-10.75
199.281	-6.66
199.5	83.45
199.719	-8.7
199.938	79.36
200.157	54.78
200.376	79.36
200.595	46.59
200.814	81.41
201.033	-8.7
201.252	-14.85
201.471	44.54
201.69	-2.56
201.909	71.17
202.128	11.78
202.347	19.97
202.566	-0.51
202.785	9.73
203.004	22.02
203.223	65.02
203.442	58.88
203.661	-12.8
203.879	65.02
204.098	110.08
204.317	32.26
204.536	60.93
204.755	15.87
204.974	69.12
205.193	24.06
205.411	32.26
205.63	60.93
205.849	77.31
206.068	32.26
206.287	28.16
206.505	19.97
206.724	3.58
206.943	26.11
207.162	19.97
207.381	-0.51
207.599	36.35
207.818	24.06
208.037	7.68
208.255	42.5
208.474	67.07
208.693	52.74
208.911	26.11
209.13	-57.86
209.349	67.07
209.567	65.02
209.786	110.08
210.005	-10.75
210.223	36.35
210.442	-27.14
210.661	-70.14
210.879	-0.51
211.098	71.17
211.316	71.17
211.535	44.54
211.753	62.98
211.972	15.87
212.191	26.11
212.409	44.54
212.628	89.6
212.846	40.45
213.065	50.69
213.283	56.83
213.502	22.02
213.72	24.06
213.938	62.98
214.157	1.54
214.375	52.74
214.594	28.16
214.812	11.78
215.031	38.4
215.249	-37.38
215.467	30.21
215.686	7.68
215.904	87.55
216.122	95.74
216.341	56.83
216.559	46.59
216.778	28.16
216.996	3.58
217.214	-0.51
217.432	1.54
217.651	-10.75
217.869	-35.33
218.087	44.54
218.306	77.31
218.524	126.46
218.742	26.11
218.96	-8.7
219.179	-25.09
219.397	62.98
219.615	42.5
219.833	89.6
220.051	44.54
220.27	42.5
220.488	60.93
220.706	36.35
220.924	42.5
221.142	19.97
221.36	-8.7
221.578	71.17
221.796	83.45
222.015	32.26
222.233	-25.09
222.451	97.79
222.669	81.41
222.887	62.98
223.105	-12.8
223.323	44.54
223.541	54.78
223.759	60.93
223.977	-12.8
224.195	110.08
224.413	-23.04
224.631	62.98
224.849	77.31
225.067	11.78
225.285	46.59
225.503	50.69
225.721	22.02
225.939	17.92
226.157	93.69
226.375	54.78
226.592	32.26
226.81	-41.47
227.028	28.16
227.246	122.37
227.464	-39.42
227.682	40.45
227.9	22.02
228.117	56.83
228.335	38.4
228.553	52.74
228.771	19.97
228.989	30.21
229.206	24.06
229.424	28.16
229.642	-47.62
229.86	11.78
230.077	26.11
230.295	11.78
230.513	38.4
230.731	7.68
230.948	83.45
231.166	89.6
231.384	67.07
231.601	65.02
231.819	9.73
232.037	42.5
232.254	38.4
232.472	-31.23
232.689	5.63
232.907	77.31
233.125	52.74
233.342	60.93
233.56	44.54
233.777	-27.14
233.995	58.88
234.213	77.31
234.43	15.87
234.648	22.02
234.865	40.45
235.083	30.21
235.3	38.4
235.518	91.65
235.735	81.41
235.953	85.5
236.17	71.17
236.388	24.06
236.605	32.26
236.822	38.4
237.04	22.02
237.257	38.4
237.475	19.97
237.692	36.35
237.909	65.02
238.127	24.06
238.344	30.21
238.562	-31.23
238.779	7.68
238.996	-0.51
239.214	73.21
239.431	85.5
239.648	3.58
239.865	9.73
240.083	15.87
240.3	-14.85
240.517	-53.76
240.735	-4.61
240.952	69.12
241.169	9.73
241.386	65.02
241.603	67.07
241.821	69.12
242.038	11.78
242.255	46.59
242.472	-39.42
242.689	42.5
242.907	56.83
243.124	15.87
243.341	56.83
243.558	103.93
243.775	73.21
243.992	36.35
244.209	-18.94
244.426	110.08
244.643	65.02
244.86	-41.47
245.078	5.63
245.295	-49.66
245.512	-4.61
245.729	40.45
245.946	-6.66
246.163	91.65
246.38	71.17
246.597	-0.51
246.814	36.35
247.031	38.4
247.248	-82.43
247.464	138.75
247.681	1.54
247.898	11.78
248.115	34.3
248.332	-25.09
248.549	118.27
248.766	38.4
248.983	99.84
249.2	-27.14
249.417	99.84
249.633	54.78
249.85	52.74
250.067	-18.94
250.284	65.02
250.501	71.17
250.717	40.45
250.934	17.92
251.151	38.4
251.368	19.97
251.585	32.26
251.801	-6.66
252.018	40.45
252.235	34.3
252.451	38.4
252.668	7.68
252.885	26.11
253.102	30.21
253.318	40.45
253.535	85.5
253.752	7.68
253.968	151.04
254.185	-18.94
254.401	26.11
254.618	65.02
254.835	-16.9
255.051	-6.66
255.268	75.26
255.484	19.97
255.701	36.35
255.917	110.08
256.134	58.88
256.351	110.08
256.567	38.4
256.784	-0.51
257	-37.38
257.217	58.88
257.433	103.93
257.65	130.56
257.866	26.11
258.082	34.3
258.299	17.92
258.515	9.73
258.732	1.54
258.948	36.35
259.165	48.64
259.381	60.93
259.597	30.21
259.814	-4.61
260.03	79.36
260.246	24.06
260.463	75.26
260.679	95.74
260.895	22.02
261.112	83.45
261.328	77.31
261.544	5.63
261.761	130.56
261.977	-41.47
262.193	34.3
262.409	56.83
262.626	3.58
262.842	-0.51
263.058	-39.42
263.274	60.93
263.49	-8.7
263.707	50.69
263.923	60.93
264.139	105.98
264.355	13.82
264.571	42.5
264.787	13.82
265.004	144.89
265.22	-20.99
265.436	65.02
265.652	-10.75
265.868	13.82
266.084	54.78
266.3	30.21
266.516	11.78
266.732	54.78
266.948	60.93
267.164	28.16
267.38	15.87
267.596	54.78
267.812	28.16
268.028	17.92
268.244	36.35
268.46	56.83
268.676	65.02
268.892	38.4
269.108	1.54
269.324	-20.99
269.54	7.68
269.756	28.16
269.972	42.5
270.188	81.41
270.403	-25.09
270.619	93.69
270.835	97.79
271.051	67.07
271.267	7.68
271.483	-10.75
271.698	89.6
271.914	26.11
272.13	15.87
272.346	-51.71
272.562	50.69
272.777	48.64
272.993	79.36
273.209	13.82
273.425	-8.7
273.64	40.45
273.856	93.69
274.072	44.54
274.287	62.98
274.503	77.31
274.719	3.58
274.934	-0.51
275.15	22.02
275.366	52.74
275.581	-74.24
275.797	81.41
276.012	54.78
276.228	-8.7
276.444	11.78
276.659	62.98
276.875	40.45
277.09	89.6
277.306	110.08
277.521	30.21
277.737	40.45
277.952	71.17
278.168	13.82
278.383	83.45
278.599	30.21
278.814	97.79
279.03	108.03
279.245	15.87
279.461	26.11
279.676	36.35
279.892	7.68
280.107	24.06
280.322	101.89
280.538	54.78
280.753	40.45
280.969	93.69
281.184	28.16
281.399	130.56
281.615	36.35
281.83	36.35
282.045	87.55
282.26	52.74
282.476	-37.38
282.691	15.87
282.906	-39.42
283.122	81.41
283.337	124.41
283.552	28.16
283.767	32.26
283.983	116.22
284.198	56.83
284.413	79.36
284.628	24.06
284.843	40.45
285.058	56.83
285.274	50.69
285.489	38.4
285.704	11.78
285.919	52.74
286.134	60.93
286.349	71.17
286.564	101.89
286.779	15.87
286.995	19.97
287.21	11.78
287.425	50.69
287.64	19.97
287.855	108.03
288.07	9.73
288.285	73.21
288.5	77.31
288.715	1.54
288.93	24.06
289.145	126.46
289.36	11.78
289.575	-33.28
289.79	83.45
290.004	-10.75
290.219	42.5
290.434	15.87
290.649	-29.18
290.864	3.58
291.079	65.02
291.294	22.02
291.509	-4.61
291.724	73.21
291.938	28.16
292.153	62.98
292.368	7.68
292.583	77.31
292.798	77.31
293.012	54.78
293.227	-14.85
293.442	93.69
293.657	77.31
293.871	81.41
294.086	85.5
294.301	65.02
294.516	81.41
294.73	108.03
294.945	22.02
295.16	79.36
295.374	34.3
295.589	67.07
295.804	-35.33
296.018	19.97
296.233	65.02
296.447	93.69
296.662	13.82
296.877	110.08
297.091	62.98
297.306	9.73
297.52	56.83
297.735	114.17
297.949	19.97
298.164	40.45
298.378	40.45
298.593	-4.61
298.807	40.45
299.022	71.17
299.236	73.21
299.451	52.74
299.665	32.26
299.88	3.58
300.094	128.51
300.309	13.82
300.523	-0.51
300.737	46.59
300.952	50.69
301.166	-39.42
301.381	34.3
301.595	-14.85
301.809	36.35
302.024	11.78
302.238	19.97
302.452	58.88
302.667	65.02
302.881	83.45
303.095	32.26
303.309	62.98
303.524	7.68
303.738	71.17
303.952	24.06
304.166	44.54
304.381	69.12
304.595	69.12
304.809	40.45
305.023	79.36
305.237	-25.09
305.452	77.31
305.666	3.58
305.88	163.33
306.094	3.58
306.308	52.74
306.522	7.68
306.736	56.83
306.95	46.59
307.164	54.78
307.379	-41.47
307.593	-35.33
307.807	89.6
308.021	48.64
308.235	89.6
308.449	3.58
308.663	56.83
308.877	40.45
309.091	36.35
309.305	24.06
309.519	-23.04
309.733	81.41
309.947	-0.51
310.161	99.84
310.374	24.06
310.588	28.16
310.802	52.74
311.016	93.69
311.23	24.06
311.444	11.78
311.658	38.4
311.872	91.65
312.085	52.74
312.299	69.12
312.513	-2.56
312.727	15.87
312.941	54.78
313.154	85.5
313.368	79.36
313.582	91.65
313.796	34.3
314.009	77.31
314.223	13.82
314.437	48.64
314.651	136.7
314.864	15.87
315.078	17.92
315.292	1.54
315.505	32.26
315.719	73.21
315.933	-23.04
316.146	9.73
316.36	36.35
316.573	-39.42
316.787	5.63
317.001	171.52
317.214	62.98
317.428	44.54
317.641	-25.09
317.855	60.93
318.068	19.97
318.282	-4.61
318.495	32.26
318.709	93.69
318.922	13.82
319.136	142.85
319.349	69.12
319.563	79.36
319.776	91.65
319.99	60.93
320.203	40.45
320.417	46.59
320.63	17.92
320.843	69.12
321.057	81.41
321.27	56.83
321.483	44.54
321.697	81.41
321.91	89.6
322.124	75.26
322.337	9.73
322.55	-14.85
322.763	85.5
322.977	9.73
323.19	60.93
323.403	110.08
323.617	83.45
323.83	79.36
324.043	5.63
324.256	77.31
324.469	75.26
324.683	36.35
324.896	87.55
325.109	7.68
325.322	60.93
325.535	38.4
325.748	32.26
325.962	30.21
326.175	40.45
326.388	1.54
326.601	153.09
326.814	81.41
327.027	24.06
327.24	103.93
327.453	-10.75
327.666	15.87
327.879	97.79
328.092	60.93
328.305	36.35
328.518	52.74
328.731	60.93
328.944	-20.99
329.157	87.55
329.37	22.02
329.583	144.89
329.796	60.93
330.009	11.78
330.222	56.83
330.435	56.83
330.648	22.02
330.861	34.3
331.073	-0.51
331.286	24.06
331.499	60.93
331.712	-29.18
331.925	60.93
332.138	87.55
332.35	144.89
332.563	40.45
332.776	5.63
332.989	13.82
333.202	32.26
333.414	60.93
333.627	-6.66
333.84	24.06
334.053	-18.94
334.265	52.74
334.478	32.26
334.691	52.74
334.903	28.16
335.116	36.35
335.329	69.12
335.541	105.98
335.754	46.59
335.966	22.02
336.179	97.79
336.392	83.45
336.604	93.69
336.817	85.5
337.029	-20.99
337.242	-43.52
337.454	105.98
337.667	97.79
337.88	97.79
338.092	30.21
338.305	65.02
338.517	5.63
338.729	5.63
338.942	-18.94
339.154	93.69
339.367	11.78
339.579	28.16
339.792	-16.9
340.004	50.69
340.217	62.98
340.429	69.12
340.641	71.17
340.854	26.11
341.066	146.94
341.278	75.26
341.491	105.98
341.703	62.98
341.915	42.5
342.128	79.36
342.34	-12.8
342.552	42.5
342.764	54.78
342.977	-10.75
343.189	-8.7
343.401	50.69
343.613	34.3
343.826	91.65
344.038	22.02
344.25	67.07
344.462	32.26
344.674	11.78
344.886	1.54
345.099	83.45
345.311	13.82
345.523	56.83
345.735	32.26
345.947	24.06
346.159	85.5
346.371	28.16
346.583	69.12
346.795	44.54
347.007	32.26
347.219	44.54
347.431	95.74
347.643	15.87
347.855	-6.66
348.067	24.06
348.279	56.83
348.491	15.87
348.703	65.02
348.915	7.68
349.127	7.68
349.339	83.45
349.551	-78.33
349.763	116.22
349.975	56.83
350.187	44.54
350.399	36.35
350.61	71.17
350.822	38.4
351.034	89.6
351.246	42.5
351.458	42.5
351.669	65.02
351.881	73.21
352.093	32.26
352.305	22.02
352.517	54.78
352.728	81.41
352.94	91.65
353.152	-4.61
353.363	11.78
353.575	48.64
353.787	60.93
353.999	65.02
354.21	58.88
354.422	42.5
354.633	52.74
354.845	89.6
355.057	9.73
355.268	24.06
355.48	52.74
355.692	42.5
355.903	79.36
356.115	-14.85
356.326	-6.66
356.538	181.76
356.749	60.93
356.961	93.69
357.172	3.58
357.384	24.06
357.595	52.74
357.807	44.54
358.018	48.64
358.23	15.87
358.441	52.74
358.653	42.5
358.864	126.46
359.075	24.06
359.287	34.3
359.498	54.78
359.709	46.59
359.921	79.36
360.132	71.17
360.344	44.54
360.555	69.12
360.766	93.69
360.977	-18.94
361.189	95.74
361.4	28.16
361.611	50.69
361.823	114.17
362.034	42.5
362.245	-20.99
362.456	48.64
362.667	46.59
362.879	-4.61
363.09	36.35
363.301	67.07
363.512	36.35
363.723	-14.85
363.935	58.88
364.146	42.5
364.357	58.88
364.568	87.55
364.779	32.26
364.99	42.5
365.201	60.93
365.412	56.83
365.623	22.02
365.834	73.21
366.045	56.83
366.256	36.35
366.467	28.16
366.678	19.97
366.889	34.3
367.1	30.21
367.311	89.6
367.522	11.78
367.733	36.35
367.944	103.93
368.155	9.73
368.366	54.78
368.577	36.35
368.788	11.78
368.999	40.45
369.209	3.58
369.42	69.12
369.631	81.41
369.842	50.69
370.053	65.02
370.264	22.02
370.474	101.89
370.685	7.68
370.896	26.11
371.107	26.11
371.317	103.93
371.528	79.36
371.739	32.26
371.95	44.54
372.16	77.31
372.371	56.83
372.582	69.12
372.792	44.54
373.003	42.5
373.214	22.02
373.424	120.32
373.635	65.02
373.846	30.21
374.056	48.64
374.267	75.26
374.477	93.69
374.688	105.98
374.898	50.69
375.109	105.98
375.319	32.26
375.53	132.61
375.74	81.41
375.951	30.21
376.161	136.7
376.372	85.5
376.582	52.74
376.793	-29.18
377.003	89.6
377.214	34.3
377.424	30.21
377.635	65.02
377.845	151.04
378.055	81.41
378.266	110.08
378.476	-12.8
378.686	73.21
378.897	34.3
379.107	91.65
379.317	46.59
379.528	44.54
379.738	15.87
379.948	-61.95
380.158	52.74
380.369	-6.66
380.579	95.74
380.789	58.88
380.999	108.03
381.21	52.74
381.42	56.83
381.63	30.21
381.84	65.02
382.05	89.6
382.261	118.27
382.471	99.84
382.681	40.45
382.891	116.22
383.101	26.11
383.311	58.88
383.521	48.64
383.731	32.26
383.941	5.63
384.151	114.17
384.361	30.21
384.571	44.54
384.781	24.06
384.991	118.27
385.201	105.98
385.411	58.88
385.621	136.7
385.831	77.31
386.041	73.21
386.251	65.02
386.461	71.17
386.671	32.26
386.881	60.93
387.091	99.84
387.301	73.21
387.511	36.35
387.72	87.55
387.93	93.69
388.14	7.68
388.35	3.58
388.56	50.69
388.769	124.41
388.979	75.26
389.189	17.92
389.399	108.03
389.609	79.36
389.818	101.89
390.028	7.68
390.238	124.41
390.447	128.51
390.657	122.37
390.867	71.17
391.076	99.84
391.286	36.35
391.496	71.17
391.705	44.54
391.915	95.74
392.125	122.37
392.334	169.47
392.544	93.69
392.753	77.31
392.963	130.56
393.172	126.46
393.382	79.36
393.591	206.33
393.801	22.02
394.01	38.4
394.22	73.21
394.429	26.11
394.639	108.03
394.848	81.41
395.058	116.22
395.267	28.16
395.477	132.61
395.686	101.89
395.895	118.27
396.105	93.69
396.314	69.12
396.524	85.5
396.733	89.6
396.942	81.41
397.152	110.08
397.361	54.78
397.57	87.55
397.78	46.59
397.989	124.41
398.198	194.05
398.407	36.35
398.617	69.12
398.826	52.74
399.035	148.99
399.244	126.46
399.453	132.61
399.663	58.88
399.872	134.65
400.081	42.5
400.29	128.51
400.499	71.17
400.708	128.51
400.917	140.8
401.127	134.65
401.336	79.36
401.545	153.09
401.754	87.55
401.963	175.61
402.172	169.47
402.381	136.7
402.59	167.42
402.799	69.12
403.008	130.56
403.217	32.26
403.426	132.61
403.635	134.65
403.844	155.13
404.053	36.35
404.262	130.56
404.471	169.47
404.68	146.94
404.888	218.62
405.097	163.33
405.306	167.42
405.515	118.27
405.724	83.45
405.933	83.45
406.142	179.71
406.35	169.47
406.559	206.33
406.768	153.09
406.977	128.51
407.185	226.81
407.394	206.33
407.603	179.71
407.812	185.85
408.02	173.57
408.229	185.85
408.438	177.66
408.646	210.43
408.855	237.05
409.064	267.77
409.272	181.76
409.481	222.72
409.69	247.29
409.898	241.15
410.107	290.3
410.315	239.1
410.524	255.48
410.733	288.25
410.941	284.16
411.15	253.44
411.358	411.13
411.567	339.45
411.775	306.68
411.984	351.74
412.192	364.03
412.401	402.94
412.609	470.52
412.818	404.99
413.026	368.12
413.234	460.28
413.443	427.51
413.651	476.66
413.86	505.34
414.068	607.73
414.276	552.44
414.485	536.06
414.693	583.16
414.901	558.58
415.11	620.02
415.318	601.59
415.526	658.93
415.734	671.22
415.943	765.43
416.151	663.03
416.359	767.48
416.567	755.19
416.776	806.39
416.984	876.02
417.192	802.29
417.4	837.11
417.608	810.48
417.817	912.88
418.025	923.12
418.233	972.27
418.441	902.64
418.649	957.94
418.857	1129.97
419.065	1121.77
419.273	1183.21
419.481	1138.16
419.689	1279.47
419.897	1334.76
420.105	1351.15
420.313	1287.66
420.521	1435.11
420.729	1469.93
420.937	1476.07
421.145	1562.09
421.353	1670.63
421.561	1598.95
421.769	1744.36
421.977	1791.46
422.185	1813.99
422.393	1848.8
422.601	1990.11
422.809	1945.06
423.017	1920.48
423.224	1965.54
423.432	2151.9
423.64	2215.39
423.848	2391.52
424.056	2256.35
424.263	2473.43
424.471	2467.29
424.679	2553.31
424.887	2684.38
425.094	2674.14
425.302	2794.97
425.51	2895.32
425.718	2913.75
425.925	2977.23
426.133	3184.08
426.341	3300.81
426.548	3298.77
426.756	3495.37
426.964	3478.99
427.171	3644.87
427.379	3739.08
427.586	3900.87
427.794	3894.72
428.001	4220.35
428.209	4163.01
428.417	4150.72
428.624	4586.94
428.832	4494.78
429.039	4427.2
429.247	4365.76
429.454	4939.19
429.662	5291.44
429.869	4980.15
430.076	5227.95
430.284	5244.34
430.491	5348.78
430.699	5621.16
430.906	5598.63
431.114	5479.85
431.321	6000.04
431.528	6100.39
431.736	6409.63
431.943	6737.31
432.15	6587.8
432.358	6462.88
432.565	7011.73
432.772	6882.71
432.979	7335.31
433.187	7404.94
433.394	7474.57
433.601	8043.91
433.808	8138.12
434.016	8131.97
434.223	8285.57
434.43	8859
434.637	8807.8
434.844	9176.44
435.052	9260.4
435.259	9086.33
435.466	9420.14
435.673	9256.31
435.88	9936.23
436.087	10329.44
436.294	10622.3
436.501	10177.89
436.708	10407.27
436.915	10526.05
437.122	11423.06
437.329	11201.88
437.537	11500.88
437.743	11828.56
437.95	11734.35
438.157	12232.01
438.364	12723.52
438.571	12541.25
438.778	12827.96
438.985	14007.59
439.192	13503.79
439.399	13880.62
439.606	13608.24
439.813	14345.51
440.02	15140.12
440.227	14722.34
440.433	14638.37
440.64	15256.86
440.847	15113.5
441.054	15197.46
441.261	16669.95
441.467	16389.38
441.674	16471.3
441.881	17270.01
442.088	17118.46
442.294	17120.51
442.501	17325.3
442.708	17990.89
442.914	18547.94
443.121	19113.18
443.328	19061.98
443.534	20135.12
443.741	19291.35
443.948	19371.22
444.154	20526.28
444.361	20628.68
444.568	20780.23
444.774	20757.7
444.981	21144.77
445.187	21890.23
445.394	22459.56
445.6	22373.55
445.807	24358.03
446.013	23530.65
446.22	23788.69
446.426	24806.53
446.633	24652.94
446.839	25922.68
447.046	24571.02
447.252	25834.61
447.459	25971.83
447.665	25857.14
447.871	27223.14
448.078	27978.84
448.284	26901.61
448.491	27479.13
448.697	28812.36
448.903	29158.47
449.11	29049.92
449.316	28494.93
449.522	28906.57
449.728	29770.81
449.935	29869.11
450.141	30127.16
450.347	30977.06
450.553	29754.43
450.76	30258.23
450.966	30940.2
451.172	30745.64
451.378	31661.08
451.584	30845.99
451.791	31665.18
451.997	31368.23
452.203	31943.7
452.409	31978.52
452.615	31540.25
452.821	30237.75
453.027	30092.34
453.233	31482.91
453.44	30180.4
453.646	30620.72
453.852	30749.74
454.058	31292.45
454.264	30145.59
454.47	31028.26
454.676	30407.73
454.882	30940.2
455.088	28255.31
455.294	28912.71
455.5	29299.78
455.705	29334.59
455.911	28142.67
456.117	27923.54
456.323	27094.11
456.529	25973.88
456.735	27098.21
456.941	25879.67
457.147	25730.17
457.352	25126.02
457.558	24802.44
457.764	24718.47
457.97	24323.21
458.176	23741.59
458.381	23649.43
458.587	22260.91
458.793	22578.34
458.999	21413.05
459.204	22686.89
459.41	21988.53
459.616	20843.71
459.821	20802.75
460.027	20219.08
460.233	20092.11
460.438	19004.64
460.644	19322.07
460.85	18433.25
461.055	18105.58
461.261	18253.03
461.466	16817.41
461.672	16502.02
461.878	17632.5
462.083	16354.57
462.289	15838.48
462.494	15889.68
462.7	15197.46
462.905	14650.66
463.111	15639.83
463.316	15111.45
463.522	15019.29
463.727	14906.65
463.932	15263
464.138	14841.12
464.343	14871.84
464.549	14609.7
464.754	14837.02
464.959	14798.11
465.165	14595.36
465.37	14282.02
465.575	14095.66
465.781	14400.8
465.986	14386.47
466.191	14140.71
466.397	13659.44
466.602	13020.47
466.807	13681.97
467.012	13364.53
467.218	13581.62
467.423	13276.47
467.628	13374.77
467.833	14159.14
468.038	13294.9
