Data from USB4F104151__177__11-09-25-264.txt Node

Date: Wed Mar 12 11:09:25 EDT 2025
User: louis
Spectrometer: USB4F10415
Trigger mode: 4
Integration Time (sec): 2.000000E-2
Scans to average: 1
Electric dark correction enabled: true
Nonlinearity correction enabled: false
Boxcar width: 0
XAxis mode: Wavelengths
Number of Pixels in Spectrum: 3648
>>>>>Begin Spectral Data<<<<<
178.204	-105.3
178.424	-105.3
178.644	-105.3
178.864	-125.78
179.084	-21.33
179.304	-35.67
179.524	-2.9
179.744	-11.09
179.964	11.43
180.184	-29.52
180.404	-7
180.624	17.58
180.844	-7
181.064	50.35
181.283	-0.85
181.503	-29.52
181.723	44.2
181.943	-9.05
182.163	-29.52
182.383	-0.85
182.602	-62.29
182.822	7.34
183.042	-13.14
183.262	-15.19
183.482	-27.48
183.701	17.58
183.921	64.68
184.141	-4.95
184.361	62.63
184.58	-4.95
184.8	46.25
185.02	58.54
185.239	91.31
185.459	-25.43
185.679	44.2
185.898	44.2
186.118	95.4
186.338	-0.85
186.557	76.97
186.777	38.06
186.997	-9.05
187.216	-35.67
187.436	62.63
187.655	64.68
187.875	38.06
188.095	-23.38
188.314	85.16
188.534	11.43
188.753	-0.85
188.973	64.68
189.192	72.87
189.412	15.53
189.631	23.72
189.851	33.96
190.07	44.2
190.29	42.15
190.509	36.01
190.729	19.63
190.948	74.92
191.168	46.25
191.387	46.25
191.607	60.59
191.826	50.35
192.045	21.67
192.265	23.72
192.484	31.91
192.704	21.67
192.923	11.43
193.142	50.35
193.362	1.19
193.581	97.45
193.8	107.69
194.02	62.63
194.239	46.25
194.458	66.73
194.678	40.11
194.897	56.49
195.116	25.77
195.335	-25.43
195.555	134.31
195.774	70.83
195.993	62.63
196.212	11.43
196.432	44.2
196.651	58.54
196.87	-15.19
197.089	52.39
197.308	-2.9
197.528	27.82
197.747	31.91
197.966	42.15
198.185	27.82
198.404	99.5
198.623	11.43
198.842	72.87
199.062	13.48
199.281	5.29
199.5	68.78
199.719	48.3
199.938	-23.38
200.157	29.87
200.376	1.19
200.595	54.44
200.814	58.54
201.033	40.11
201.252	54.44
201.471	31.91
201.69	46.25
201.909	27.82
202.128	58.54
202.347	31.91
202.566	-4.95
202.785	64.68
203.004	66.73
203.223	72.87
203.442	27.82
203.661	46.25
203.879	72.87
204.098	50.35
204.317	25.77
204.536	72.87
204.755	-21.33
204.974	48.3
205.193	-9.05
205.411	50.35
205.63	19.63
205.849	48.3
206.068	54.44
206.287	33.96
206.505	29.87
206.724	21.67
206.943	1.19
207.162	-35.67
207.381	5.29
207.599	60.59
207.818	5.29
208.037	72.87
208.255	31.91
208.474	19.63
208.693	29.87
208.911	83.11
209.13	-2.9
209.349	76.97
209.567	42.15
209.786	-45.91
210.005	-19.29
210.223	105.64
210.442	19.63
210.661	13.48
210.879	44.2
211.098	-45.91
211.316	7.34
211.535	36.01
211.753	27.82
211.972	-19.29
212.191	11.43
212.409	17.58
212.628	31.91
212.846	76.97
213.065	3.24
213.283	89.26
213.502	3.24
213.72	81.07
213.938	25.77
214.157	-31.57
214.375	48.3
214.594	17.58
214.812	50.35
215.031	52.39
215.249	27.82
215.467	27.82
215.686	95.4
215.904	58.54
216.122	17.58
216.341	74.92
216.559	52.39
216.778	68.78
216.996	54.44
217.214	46.25
217.432	-23.38
217.651	99.5
217.869	15.53
218.087	27.82
218.306	29.87
218.524	101.55
218.742	54.44
218.96	-25.43
219.179	64.68
219.397	17.58
219.615	-4.95
219.833	54.44
220.051	66.73
220.27	62.63
220.488	-25.43
220.706	-2.9
220.924	-4.95
221.142	29.87
221.36	23.72
221.578	13.48
221.796	27.82
222.015	58.54
222.233	66.73
222.451	48.3
222.669	54.44
222.887	21.67
223.105	38.06
223.323	52.39
223.541	-31.57
223.759	-9.05
223.977	-0.85
224.195	19.63
224.413	58.54
224.631	27.82
224.849	-58.2
225.067	-7
225.285	9.39
225.503	7.34
225.721	-19.29
225.939	17.58
226.157	17.58
226.375	44.2
226.592	23.72
226.81	50.35
227.028	13.48
227.246	48.3
227.464	44.2
227.682	58.54
227.9	-62.29
228.117	27.82
228.335	40.11
228.553	27.82
228.771	56.49
228.989	74.92
229.206	25.77
229.424	68.78
229.642	44.2
229.86	-4.95
230.077	27.82
230.295	60.59
230.513	93.35
230.731	56.49
230.948	5.29
231.166	9.39
231.384	58.54
231.601	25.77
231.819	19.63
232.037	27.82
232.254	64.68
232.472	60.59
232.689	-9.05
232.907	124.07
233.125	64.68
233.342	36.01
233.56	13.48
233.777	91.31
233.995	17.58
234.213	103.59
234.43	58.54
234.648	64.68
234.865	3.24
235.083	48.3
235.3	23.72
235.518	3.24
235.735	-4.95
235.953	44.2
236.17	56.49
236.388	-2.9
236.605	62.63
236.822	-17.24
237.04	99.5
237.257	70.83
237.475	-15.19
237.692	44.2
237.909	83.11
238.127	-15.19
238.344	54.44
238.562	25.77
238.779	70.83
238.996	-33.62
239.214	17.58
239.431	27.82
239.648	64.68
239.865	23.72
240.083	42.15
240.3	64.68
240.517	9.39
240.735	52.39
240.952	83.11
241.169	60.59
241.386	44.2
241.603	-35.67
241.821	7.34
242.038	115.88
242.255	29.87
242.472	54.44
242.689	60.59
242.907	72.87
243.124	-4.95
243.341	7.34
243.558	48.3
243.775	64.68
243.992	44.2
244.209	70.83
244.426	87.21
244.643	83.11
244.86	23.72
245.078	-23.38
245.295	-2.9
245.512	83.11
245.729	7.34
245.946	115.88
246.163	46.25
246.38	-17.24
246.597	29.87
246.814	54.44
247.031	36.01
247.248	13.48
247.464	31.91
247.681	-0.85
247.898	-0.85
248.115	154.79
248.332	56.49
248.549	36.01
248.766	23.72
248.983	-39.76
249.2	70.83
249.417	23.72
249.633	23.72
249.85	36.01
250.067	13.48
250.284	1.19
250.501	117.93
250.717	44.2
250.934	23.72
251.151	38.06
251.368	-19.29
251.585	109.74
251.801	97.45
252.018	15.53
252.235	31.91
252.451	15.53
252.668	31.91
252.885	50.35
253.102	23.72
253.318	76.97
253.535	-31.57
253.752	72.87
253.968	62.63
254.185	29.87
254.401	25.77
254.618	-2.9
254.835	23.72
255.051	3.24
255.268	93.35
255.484	15.53
255.701	54.44
255.917	38.06
256.134	-21.33
256.351	105.64
256.567	-13.14
256.784	99.5
257	5.29
257.217	17.58
257.433	74.92
257.65	91.31
257.866	52.39
258.082	62.63
258.299	15.53
258.515	66.73
258.732	13.48
258.948	-9.05
259.165	-25.43
259.381	36.01
259.597	17.58
259.814	-9.05
260.03	76.97
260.246	81.07
260.463	17.58
260.679	50.35
260.895	60.59
261.112	103.59
261.328	31.91
261.544	-29.52
261.761	83.11
261.977	62.63
262.193	-27.48
262.409	17.58
262.626	40.11
262.842	25.77
263.058	72.87
263.274	15.53
263.49	68.78
263.707	134.31
263.923	48.3
264.139	-11.09
264.355	64.68
264.571	103.59
264.787	44.2
265.004	-29.52
265.22	-9.05
265.436	62.63
265.652	76.97
265.868	134.31
266.084	-37.72
266.3	31.91
266.516	46.25
266.732	-17.24
266.948	89.26
267.164	21.67
267.38	1.19
267.596	46.25
267.812	87.21
268.028	56.49
268.244	31.91
268.46	11.43
268.676	17.58
268.892	3.24
269.108	52.39
269.324	91.31
269.54	21.67
269.756	66.73
269.972	33.96
270.188	103.59
270.403	7.34
270.619	11.43
270.835	42.15
271.051	97.45
271.267	3.24
271.483	119.98
271.698	83.11
271.914	-37.72
272.13	25.77
272.346	-7
272.562	7.34
272.777	81.07
272.993	-17.24
273.209	25.77
273.425	19.63
273.64	-25.43
273.856	91.31
274.072	15.53
274.287	87.21
274.503	76.97
274.719	23.72
274.934	23.72
275.15	-35.67
275.366	5.29
275.581	27.82
275.797	-33.62
276.012	-39.76
276.228	-17.24
276.444	33.96
276.659	25.77
276.875	54.44
277.09	74.92
277.306	85.16
277.521	-39.76
277.737	66.73
277.952	-7
278.168	7.34
278.383	17.58
278.599	21.67
278.814	29.87
279.03	76.97
279.245	33.96
279.461	52.39
279.676	-0.85
279.892	29.87
280.107	-70.48
280.322	42.15
280.538	40.11
280.753	31.91
280.969	19.63
281.184	15.53
281.399	50.35
281.615	115.88
281.83	31.91
282.045	29.87
282.26	9.39
282.476	33.96
282.691	36.01
282.906	7.34
283.122	50.35
283.337	-4.95
283.552	70.83
283.767	27.82
283.983	76.97
284.198	52.39
284.413	21.67
284.628	70.83
284.843	91.31
285.058	81.07
285.274	87.21
285.489	-52.05
285.704	-13.14
285.919	-9.05
286.134	-13.14
286.349	-0.85
286.564	-0.85
286.779	72.87
286.995	36.01
287.21	-9.05
287.425	-2.9
287.64	31.91
287.855	-19.29
288.07	-39.76
288.285	56.49
288.5	64.68
288.715	91.31
288.93	23.72
289.145	15.53
289.36	44.2
289.575	9.39
289.79	42.15
290.004	74.92
290.219	58.54
290.434	21.67
290.649	19.63
290.864	76.97
291.079	13.48
291.294	-2.9
291.509	11.43
291.724	15.53
291.938	-2.9
292.153	29.87
292.368	31.91
292.583	87.21
292.798	-7
293.012	29.87
293.227	60.59
293.442	46.25
293.657	-7
293.871	70.83
294.086	-9.05
294.301	58.54
294.516	-21.33
294.73	-27.48
294.945	-0.85
295.16	21.67
295.374	23.72
295.589	64.68
295.804	-64.34
296.018	62.63
296.233	46.25
296.447	-9.05
296.662	17.58
296.877	33.96
297.091	58.54
297.306	83.11
297.52	81.07
297.735	-13.14
297.949	72.87
298.164	50.35
298.378	117.93
298.593	64.68
298.807	36.01
299.022	117.93
299.236	48.3
299.451	31.91
299.665	54.44
299.88	-50
300.094	60.59
300.309	54.44
300.523	29.87
300.737	68.78
300.952	97.45
301.166	44.2
301.381	-29.52
301.595	56.49
301.809	130.22
302.024	9.39
302.238	52.39
302.452	58.54
302.667	36.01
302.881	85.16
303.095	42.15
303.309	-17.24
303.524	-7
303.738	29.87
303.952	-60.24
304.166	40.11
304.381	-11.09
304.595	-9.05
304.809	42.15
305.023	52.39
305.237	70.83
305.452	9.39
305.666	33.96
305.88	109.74
306.094	85.16
306.308	40.11
306.522	7.34
306.736	17.58
306.95	85.16
307.164	25.77
307.379	50.35
307.593	33.96
307.807	76.97
308.021	81.07
308.235	52.39
308.449	50.35
308.663	58.54
308.877	107.69
309.091	-15.19
309.305	-17.24
309.519	17.58
309.733	33.96
309.947	-23.38
310.161	74.92
310.374	38.06
310.588	17.58
310.802	-15.19
311.016	138.41
311.23	40.11
311.444	81.07
311.658	74.92
311.872	52.39
312.085	113.83
312.299	81.07
312.513	50.35
312.727	54.44
312.941	46.25
313.154	64.68
313.368	58.54
313.582	72.87
313.796	-9.05
314.009	46.25
314.223	52.39
314.437	31.91
314.651	9.39
314.864	62.63
315.078	36.01
315.292	48.3
315.505	19.63
315.719	76.97
315.933	27.82
316.146	89.26
316.36	25.77
316.573	66.73
316.787	27.82
317.001	1.19
317.214	31.91
317.428	42.15
317.641	19.63
317.855	64.68
318.068	-17.24
318.282	52.39
318.495	54.44
318.709	40.11
318.922	52.39
319.136	117.93
319.349	107.69
319.563	85.16
319.776	-2.9
319.99	62.63
320.203	117.93
320.417	119.98
320.63	46.25
320.843	15.53
321.057	72.87
321.27	9.39
321.483	79.02
321.697	66.73
321.91	-4.95
322.124	109.74
322.337	68.78
322.55	5.29
322.763	36.01
322.977	-31.57
323.19	-15.19
323.403	-0.85
323.617	52.39
323.83	66.73
324.043	23.72
324.256	60.59
324.469	-4.95
324.683	29.87
324.896	1.19
325.109	105.64
325.322	36.01
325.535	1.19
325.748	36.01
325.962	21.67
326.175	62.63
326.388	29.87
326.601	68.78
326.814	36.01
327.027	11.43
327.24	46.25
327.453	-17.24
327.666	44.2
327.879	17.58
328.092	52.39
328.305	33.96
328.518	52.39
328.731	31.91
328.944	122.02
329.157	27.82
329.37	76.97
329.583	76.97
329.796	40.11
330.009	-43.86
330.222	81.07
330.435	-33.62
330.648	74.92
330.861	64.68
331.073	48.3
331.286	79.02
331.499	-37.72
331.712	-17.24
331.925	44.2
332.138	1.19
332.35	48.3
332.563	60.59
332.776	38.06
332.989	9.39
333.202	19.63
333.414	107.69
333.627	40.11
333.84	-60.24
334.053	60.59
334.265	42.15
334.478	126.12
334.691	7.34
334.903	68.78
335.116	5.29
335.329	54.44
335.541	-2.9
335.754	19.63
335.966	-7
336.179	74.92
336.392	42.15
336.604	21.67
336.817	70.83
337.029	74.92
337.242	5.29
337.454	70.83
337.667	97.45
337.88	132.26
338.092	76.97
338.305	19.63
338.517	62.63
338.729	56.49
338.942	40.11
339.154	40.11
339.367	-4.95
339.579	3.24
339.792	52.39
340.004	19.63
340.217	46.25
340.429	74.92
340.641	17.58
340.854	33.96
341.066	36.01
341.278	31.91
341.491	9.39
341.703	101.55
341.915	-9.05
342.128	44.2
342.34	36.01
342.552	68.78
342.764	19.63
342.977	70.83
343.189	95.4
343.401	68.78
343.613	-33.62
343.826	85.16
344.038	-4.95
344.25	27.82
344.462	74.92
344.674	33.96
344.886	19.63
345.099	76.97
345.311	29.87
345.523	3.24
345.735	56.49
345.947	31.91
346.159	-23.38
346.371	44.2
346.583	-4.95
346.795	64.68
347.007	9.39
347.219	13.48
347.431	36.01
347.643	115.88
347.855	17.58
348.067	74.92
348.279	21.67
348.491	93.35
348.703	62.63
348.915	93.35
349.127	76.97
349.339	46.25
349.551	29.87
349.763	72.87
349.975	-2.9
350.187	60.59
350.399	64.68
350.61	54.44
350.822	56.49
351.034	31.91
351.246	31.91
351.458	31.91
351.669	44.2
351.881	117.93
352.093	19.63
352.305	93.35
352.517	13.48
352.728	15.53
352.94	3.24
353.152	48.3
353.363	-88.92
353.575	99.5
353.787	54.44
353.999	91.31
354.21	64.68
354.422	79.02
354.633	11.43
354.845	42.15
355.057	27.82
355.268	89.26
355.48	38.06
355.692	58.54
355.903	-7
356.115	119.98
356.326	-29.52
356.538	60.59
356.749	-7
356.961	85.16
357.172	29.87
357.384	36.01
357.595	105.64
357.807	40.11
358.018	31.91
358.23	36.01
358.441	91.31
358.653	54.44
358.864	38.06
359.075	76.97
359.287	46.25
359.498	36.01
359.709	52.39
359.921	81.07
360.132	11.43
360.344	38.06
360.555	7.34
360.766	81.07
360.977	66.73
361.189	111.78
361.4	50.35
361.611	83.11
361.823	70.83
362.034	60.59
362.245	7.34
362.456	66.73
362.667	31.91
362.879	46.25
363.09	27.82
363.301	52.39
363.512	56.49
363.723	-4.95
363.935	-0.85
364.146	19.63
364.357	50.35
364.568	21.67
364.779	52.39
364.99	99.5
365.201	25.77
365.412	48.3
365.623	19.63
365.834	-4.95
366.045	31.91
366.256	38.06
366.467	66.73
366.678	42.15
366.889	-23.38
367.1	-9.05
367.311	58.54
367.522	76.97
367.733	33.96
367.944	17.58
368.155	40.11
368.366	87.21
368.577	89.26
368.788	85.16
368.999	27.82
369.209	19.63
369.42	124.07
369.631	76.97
369.842	60.59
370.053	66.73
370.264	3.24
370.474	-13.14
370.685	-4.95
370.896	21.67
371.107	74.92
371.317	46.25
371.528	66.73
371.739	119.98
371.95	70.83
372.16	-9.05
372.371	40.11
372.582	70.83
372.792	7.34
373.003	105.64
373.214	87.21
373.424	115.88
373.635	83.11
373.846	89.26
374.056	17.58
374.267	58.54
374.477	42.15
374.688	89.26
374.898	27.82
375.109	60.59
375.319	25.77
375.53	76.97
375.74	130.22
375.951	29.87
376.161	7.34
376.372	52.39
376.582	74.92
376.793	33.96
377.003	31.91
377.214	25.77
377.424	99.5
377.635	13.48
377.845	17.58
378.055	40.11
378.266	56.49
378.476	56.49
378.686	-17.24
378.897	38.06
379.107	66.73
379.317	72.87
379.528	42.15
379.738	38.06
379.948	66.73
380.158	68.78
380.369	21.67
380.579	54.44
380.789	33.96
380.999	89.26
381.21	130.22
381.42	95.4
381.63	31.91
381.84	13.48
382.05	66.73
382.261	54.44
382.471	17.58
382.681	62.63
382.891	105.64
383.101	68.78
383.311	-52.05
383.521	93.35
383.731	54.44
383.941	48.3
384.151	-19.29
384.361	68.78
384.571	68.78
384.781	42.15
384.991	62.63
385.201	15.53
385.411	107.69
385.621	48.3
385.831	40.11
386.041	70.83
386.251	60.59
386.461	74.92
386.671	76.97
386.881	31.91
387.091	5.29
387.301	142.5
387.511	19.63
387.72	68.78
387.93	58.54
388.14	-13.14
388.35	109.74
388.56	87.21
388.769	132.26
388.979	79.02
389.189	56.49
389.399	23.72
389.609	109.74
389.818	87.21
390.028	91.31
390.238	42.15
390.447	7.34
390.657	95.4
390.867	62.63
391.076	58.54
391.286	36.01
391.496	40.11
391.705	-43.86
391.915	89.26
392.125	85.16
392.334	122.02
392.544	60.59
392.753	58.54
392.963	60.59
393.172	44.2
393.382	58.54
393.591	115.88
393.801	74.92
394.01	146.6
394.22	58.54
394.429	36.01
394.639	76.97
394.848	11.43
395.058	44.2
395.267	87.21
395.477	64.68
395.686	21.67
395.895	117.93
396.105	70.83
396.314	103.59
396.524	122.02
396.733	109.74
396.942	70.83
397.152	126.12
397.361	89.26
397.57	89.26
397.78	72.87
397.989	83.11
398.198	128.17
398.407	27.82
398.617	122.02
398.826	128.17
399.035	103.59
399.244	74.92
399.453	38.06
399.663	76.97
399.872	62.63
400.081	60.59
400.29	111.78
400.499	144.55
400.708	179.37
400.917	126.12
401.127	68.78
401.336	29.87
401.545	208.04
401.754	97.45
401.963	54.44
402.172	-9.05
402.381	87.21
402.59	70.83
402.799	89.26
403.008	33.96
403.217	58.54
403.426	117.93
403.635	56.49
403.844	130.22
404.053	156.84
404.262	126.12
404.471	115.88
404.68	50.35
404.888	160.94
405.097	60.59
405.306	109.74
405.515	140.46
405.724	150.7
405.933	134.31
406.142	70.83
406.35	134.31
406.559	122.02
406.768	138.41
406.977	150.7
407.185	111.78
407.394	189.61
407.603	162.98
407.812	144.55
408.02	218.28
408.229	179.37
408.438	177.32
408.646	146.6
408.855	193.7
409.064	249
409.272	185.51
409.481	240.81
409.69	208.04
409.898	185.51
410.107	199.85
410.315	277.67
410.524	318.63
410.733	261.29
410.941	328.87
411.15	273.57
411.358	244.9
411.567	349.35
411.775	236.71
411.984	330.92
412.192	324.77
412.401	392.36
412.609	375.97
412.818	394.4
413.026	378.02
413.234	414.88
413.443	410.79
413.651	421.03
413.86	363.69
414.068	443.56
414.276	480.42
414.485	451.75
414.693	414.88
414.901	550.05
415.11	515.23
415.318	500.9
415.526	486.56
415.734	601.25
415.943	494.76
416.151	638.11
416.359	617.63
416.567	611.49
416.776	666.78
416.984	726.18
417.192	730.27
417.4	732.32
417.608	646.3
417.817	808.09
418.025	787.61
418.233	900.25
418.441	877.73
418.649	869.53
418.857	885.92
419.065	1004.7
419.273	930.97
419.481	986.27
419.689	1141.91
419.897	1127.58
420.105	1090.71
420.313	1150.11
420.521	1137.82
420.729	1281.18
420.937	1301.65
421.145	1236.12
421.353	1350.81
421.561	1412.25
421.769	1442.96
421.977	1485.97
422.185	1516.69
422.393	1610.9
422.601	1633.43
422.809	1574.03
423.017	1694.86
423.224	1840.27
423.432	1893.52
423.64	1944.72
423.848	2012.3
424.056	1993.87
424.263	2133.13
424.471	2180.23
424.679	2079.88
424.887	2204.81
425.094	2362.5
425.302	2348.17
425.51	2440.33
425.718	2503.81
425.925	2616.45
426.133	2569.35
426.341	2706.56
426.548	2911.36
426.756	2929.79
426.964	2915.45
427.171	3099.77
427.379	3089.53
427.586	3267.7
427.794	3247.23
428.001	3517.56
428.209	3585.14
428.417	3552.37
428.624	3953.77
428.832	3908.72
429.039	3906.67
429.247	3791.98
429.454	4062.32
429.662	4209.77
429.869	4213.87
430.076	4308.07
430.284	4480.1
430.491	4465.77
430.699	4713.57
430.906	4766.82
431.114	4746.34
431.321	4990.05
431.528	5047.39
431.736	5346.39
431.943	5592.15
432.15	5530.71
432.358	5557.33
432.565	5784.66
432.772	5731.41
432.979	6136.91
433.187	6224.97
433.394	6108.24
433.601	6483.02
433.808	6706.24
434.016	6714.44
434.223	6839.36
434.43	7298.11
434.637	7126.08
434.844	7537.72
435.052	7871.54
435.259	7545.91
435.466	7855.15
435.673	7644.21
435.88	8250.41
436.087	8743.97
436.294	8516.65
436.501	8436.78
436.708	8522.79
436.915	8803.36
437.122	9436.19
437.329	9182.24
437.537	9559.06
437.743	9763.86
437.95	9837.59
438.157	9991.19
438.364	10351.63
438.571	10357.77
438.778	10523.66
438.985	11441.15
439.192	11064.32
439.399	11457.53
439.606	11162.62
439.813	11922.42
440.02	12418.03
440.227	12428.27
440.433	12284.91
440.64	12731.37
440.847	12628.97
441.054	12801
441.261	13564.89
441.467	13630.43
441.674	13861.85
441.881	14089.17
442.088	13925.33
442.294	13992.92
442.501	14562.25
442.708	14752.71
442.914	15408.06
443.121	15973.3
443.328	15657.92
443.534	16393.14
443.741	16165.81
443.948	15856.57
444.154	17087.4
444.361	16982.95
444.568	17271.72
444.774	17179.56
444.981	17208.23
445.187	17716.12
445.394	18457.49
445.6	18205.59
445.807	19833.72
446.013	18996.1
446.22	19198.85
446.426	20108.15
446.633	20464.5
446.839	20976.49
447.046	20267.89
447.252	21246.82
447.459	21425
447.665	21123.94
447.871	22258.52
448.078	22934.35
448.284	22121.31
448.491	22825.81
448.697	23472.96
448.903	24042.3
449.11	24202.04
449.316	23536.45
449.522	23991.1
449.728	24838.96
449.935	25228.07
450.141	24750.9
450.347	25305.9
450.553	24873.78
450.76	24812.34
450.966	25457.45
451.172	25203.5
451.378	25944.86
451.584	25471.78
451.791	25940.77
451.997	26254.11
452.203	26417.94
452.409	26145.56
452.615	26530.58
452.821	25172.78
453.027	25058.09
453.233	26493.72
453.44	25254.7
453.646	25840.42
453.852	25615.14
454.058	25905.95
454.264	25029.42
454.47	25649.96
454.676	25183.02
454.882	26067.74
455.088	23565.12
455.294	24021.82
455.5	24355.64
455.705	24830.77
455.911	23745.34
456.117	23313.22
456.323	22956.88
456.529	21500.77
456.735	22516.56
456.941	21994.33
457.147	21795.68
457.352	21136.23
457.558	20706.16
457.764	20808.56
457.97	20652.91
458.176	19932.03
458.381	19665.79
458.587	19108.74
458.793	19164.04
458.999	17972.12
459.204	19485.57
459.41	18617.23
459.616	17585.05
459.821	17779.61
460.027	17519.52
460.233	17208.23
460.438	16343.99
460.644	16571.31
460.85	15776.7
461.055	15596.48
461.261	15473.6
461.466	14240.72
461.672	13812.7
461.878	14867.4
462.083	13867.99
462.289	13620.19
462.494	13505.5
462.7	12897.25
462.905	12694.5
463.111	12889.06
463.316	13075.43
463.522	12614.63
463.727	12850.15
463.932	12833.77
464.138	12538.86
464.343	12760.04
464.549	12241.9
464.754	12844.01
464.959	12704.74
465.165	12471.28
465.37	11977.72
465.575	11695.1
465.781	12125.17
465.986	12176.37
466.191	11783.16
466.397	11441.15
466.602	10986.5
466.807	11271.17
467.012	11269.12
467.218	11443.2
467.423	11301.89
467.628	11267.07
467.833	11525.11
468.038	11453.44
468.244	11183.1
468.449	11095.04
