Data from USB4F104151__120__11-07-25-977.txt Node

Date: Wed Mar 12 11:07:25 EDT 2025
User: louis
Spectrometer: USB4F10415
Trigger mode: 4
Integration Time (sec): 2.000000E-2
Scans to average: 1
Electric dark correction enabled: true
Nonlinearity correction enabled: false
Boxcar width: 0
XAxis mode: Wavelengths
Number of Pixels in Spectrum: 3648
>>>>>Begin Spectral Data<<<<<
178.204	-1.37
178.424	-1.37
178.644	-1.37
178.864	-81.24
179.084	-64.85
179.304	58.03
179.524	-50.52
179.744	-27.99
179.964	12.97
180.184	-1.37
180.404	-17.75
180.624	51.88
180.844	23.21
181.064	12.97
181.283	-5.46
181.503	-19.8
181.723	-36.18
181.943	-11.61
182.163	45.74
182.383	-13.65
182.602	58.03
182.822	-46.42
183.042	72.36
183.262	-15.7
183.482	64.17
183.701	49.83
183.921	-34.13
184.141	39.59
184.361	-27.99
184.58	10.92
184.8	-11.61
185.02	70.31
185.239	-9.56
185.459	45.74
185.679	53.93
185.898	-3.41
186.118	47.79
186.338	111.27
186.557	25.26
186.777	-36.18
186.997	-5.46
187.216	41.64
187.436	64.17
187.655	53.93
187.875	-36.18
188.095	4.78
188.314	43.69
188.534	58.03
188.753	15.02
188.973	-9.56
189.192	62.12
189.412	-32.08
189.631	76.46
189.851	41.64
190.07	70.31
190.29	39.59
190.509	72.36
190.729	17.07
190.948	51.88
191.168	111.27
191.387	68.27
191.607	-36.18
191.826	45.74
192.045	-3.41
192.265	-27.99
192.484	12.97
192.704	4.78
192.923	-32.08
193.142	19.11
193.362	12.97
193.581	76.46
193.8	64.17
194.02	127.66
194.239	80.55
194.458	103.08
194.678	35.5
194.897	4.78
195.116	-32.08
195.335	-5.46
195.555	45.74
195.774	88.75
195.993	12.97
196.212	51.88
196.432	0.68
196.651	103.08
196.87	-46.42
197.089	111.27
197.308	10.92
197.528	70.31
197.747	60.07
197.966	76.46
198.185	37.55
198.404	103.08
198.623	29.35
198.842	31.4
199.062	-66.9
199.281	96.94
199.5	-9.56
199.719	17.07
199.938	29.35
200.157	64.17
200.376	58.03
200.595	72.36
200.814	23.21
201.033	80.55
201.252	72.36
201.471	10.92
201.69	10.92
201.909	23.21
202.128	12.97
202.347	55.98
202.566	15.02
202.785	90.79
203.004	4.78
203.223	101.03
203.442	45.74
203.661	4.78
203.879	125.61
204.098	-21.84
204.317	2.73
204.536	68.27
204.755	-54.61
204.974	55.98
205.193	21.16
205.411	47.79
205.63	96.94
205.849	41.64
206.068	58.03
206.287	12.97
206.505	66.22
206.724	19.11
206.943	-79.19
207.162	21.16
207.381	2.73
207.599	6.83
207.818	6.83
208.037	12.97
208.255	64.17
208.474	53.93
208.693	-1.37
208.911	64.17
209.13	55.98
209.349	90.79
209.567	41.64
209.786	98.99
210.005	55.98
210.223	-42.32
210.442	-1.37
210.661	15.02
210.879	17.07
211.098	101.03
211.316	45.74
211.535	80.55
211.753	0.68
211.972	111.27
212.191	-27.99
212.409	60.07
212.628	74.41
212.846	-46.42
213.065	53.93
213.283	101.03
213.502	-60.76
213.72	-46.42
213.938	68.27
214.157	84.65
214.375	12.97
214.594	23.21
214.812	47.79
215.031	29.35
215.249	-34.13
215.467	29.35
215.686	82.6
215.904	68.27
216.122	86.7
216.341	-7.51
216.559	-11.61
216.778	-3.41
216.996	-13.65
217.214	29.35
217.432	-30.04
217.651	-15.7
217.869	15.02
218.087	45.74
218.306	19.11
218.524	70.31
218.742	64.17
218.96	15.02
219.179	53.93
219.397	64.17
219.615	64.17
219.833	-25.94
220.051	25.26
220.27	60.07
220.488	64.17
220.706	78.51
220.924	2.73
221.142	39.59
221.36	15.02
221.578	25.26
221.796	62.12
222.015	12.97
222.233	82.6
222.451	98.99
222.669	8.87
222.887	62.12
223.105	-19.8
223.323	66.22
223.541	-5.46
223.759	15.02
223.977	39.59
224.195	64.17
224.413	60.07
224.631	-11.61
224.849	84.65
225.067	17.07
225.285	2.73
225.503	45.74
225.721	31.4
225.939	-5.46
226.157	43.69
226.375	127.66
226.592	-34.13
226.81	66.22
227.028	49.83
227.246	129.7
227.464	17.07
227.682	60.07
227.9	21.16
228.117	105.13
228.335	45.74
228.553	84.65
228.771	51.88
228.989	49.83
229.206	119.46
229.424	29.35
229.642	25.26
229.86	21.16
230.077	58.03
230.295	12.97
230.513	53.93
230.731	10.92
230.948	86.7
231.166	51.88
231.384	-13.65
231.601	10.92
231.819	105.13
232.037	33.45
232.254	53.93
232.472	76.46
232.689	45.74
232.907	0.68
233.125	-36.18
233.342	80.55
233.56	43.69
233.777	33.45
233.995	27.31
234.213	80.55
234.43	45.74
234.648	31.4
234.865	-25.94
235.083	12.97
235.3	19.11
235.518	47.79
235.735	53.93
235.953	53.93
236.17	139.94
236.388	66.22
236.605	60.07
236.822	39.59
237.04	-1.37
237.257	45.74
237.475	-17.75
237.692	17.07
237.909	53.93
238.127	33.45
238.344	45.74
238.562	17.07
238.779	33.45
238.996	4.78
239.214	107.18
239.431	78.51
239.648	-1.37
239.865	29.35
240.083	35.5
240.3	58.03
240.517	41.64
240.735	43.69
240.952	88.75
241.169	80.55
241.386	72.36
241.603	60.07
241.821	21.16
242.038	96.94
242.255	-11.61
242.472	35.5
242.689	19.11
242.907	49.83
243.124	64.17
243.341	25.26
243.558	-27.99
243.775	-11.61
243.992	72.36
244.209	60.07
244.426	49.83
244.643	51.88
244.86	43.69
245.078	62.12
245.295	96.94
245.512	39.59
245.729	43.69
245.946	72.36
246.163	29.35
246.38	35.5
246.597	86.7
246.814	152.23
247.031	55.98
247.248	45.74
247.464	47.79
247.681	31.4
247.898	64.17
248.115	70.31
248.332	-1.37
248.549	23.21
248.766	29.35
248.983	4.78
249.2	82.6
249.417	-3.41
249.633	55.98
249.85	66.22
250.067	55.98
250.284	33.45
250.501	98.99
250.717	15.02
250.934	-9.56
251.151	88.75
251.368	72.36
251.585	68.27
251.801	41.64
252.018	55.98
252.235	25.26
252.451	25.26
252.668	-17.75
252.885	29.35
253.102	6.83
253.318	47.79
253.535	47.79
253.752	41.64
253.968	92.84
254.185	15.02
254.401	72.36
254.618	41.64
254.835	70.31
255.051	176.81
255.268	68.27
255.484	80.55
255.701	47.79
255.917	152.23
256.134	-66.9
256.351	33.45
256.567	-5.46
256.784	60.07
257	35.5
257.217	64.17
257.433	23.21
257.65	35.5
257.866	113.32
258.082	35.5
258.299	62.12
258.515	10.92
258.732	23.21
258.948	4.78
259.165	39.59
259.381	-23.89
259.597	-52.56
259.814	-3.41
260.03	23.21
260.246	4.78
260.463	55.98
260.679	84.65
260.895	37.55
261.112	62.12
261.328	23.21
261.544	47.79
261.761	72.36
261.977	25.26
262.193	47.79
262.409	45.74
262.626	58.03
262.842	101.03
263.058	0.68
263.274	23.21
263.49	39.59
263.707	62.12
263.923	68.27
264.139	117.42
264.355	-7.51
264.571	107.18
264.787	29.35
265.004	23.21
265.22	6.83
265.436	-3.41
265.652	105.13
265.868	115.37
266.084	6.83
266.3	17.07
266.516	-23.89
266.732	131.75
266.948	10.92
267.164	53.93
267.38	109.23
267.596	62.12
267.812	103.08
268.028	37.55
268.244	49.83
268.46	109.23
268.676	21.16
268.892	49.83
269.108	72.36
269.324	23.21
269.54	49.83
269.756	31.4
269.972	80.55
270.188	78.51
270.403	29.35
270.619	-44.37
270.835	72.36
271.051	55.98
271.267	29.35
271.483	2.73
271.698	-13.65
271.914	123.56
272.13	47.79
272.346	35.5
272.562	55.98
272.777	0.68
272.993	31.4
273.209	-11.61
273.425	55.98
273.64	-1.37
273.856	68.27
274.072	4.78
274.287	47.79
274.503	72.36
274.719	27.31
274.934	80.55
275.15	68.27
275.366	58.03
275.581	109.23
275.797	0.68
276.012	10.92
276.228	23.21
276.444	96.94
276.659	53.93
276.875	90.79
277.09	76.46
277.306	86.7
277.521	68.27
277.737	-1.37
277.952	55.98
278.168	80.55
278.383	94.89
278.599	60.07
278.814	150.18
279.03	64.17
279.245	88.75
279.461	64.17
279.676	0.68
279.892	55.98
280.107	19.11
280.322	2.73
280.538	125.61
280.753	-1.37
280.969	72.36
281.184	-1.37
281.399	37.55
281.615	39.59
281.83	84.65
282.045	47.79
282.26	31.4
282.476	29.35
282.691	31.4
282.906	39.59
283.122	51.88
283.337	41.64
283.552	39.59
283.767	33.45
283.983	86.7
284.198	58.03
284.413	103.08
284.628	68.27
284.843	39.59
285.058	119.46
285.274	53.93
285.489	31.4
285.704	78.51
285.919	23.21
286.134	47.79
286.349	17.07
286.564	33.45
286.779	-1.37
286.995	96.94
287.21	35.5
287.425	66.22
287.64	-17.75
287.855	76.46
288.07	-5.46
288.285	64.17
288.5	62.12
288.715	72.36
288.93	15.02
289.145	8.87
289.36	10.92
289.575	70.31
289.79	53.93
290.004	-17.75
290.219	82.6
290.434	-3.41
290.649	74.41
290.864	82.6
291.079	-17.75
291.294	68.27
291.509	92.84
291.724	49.83
291.938	47.79
292.153	68.27
292.368	82.6
292.583	86.7
292.798	72.36
293.012	84.65
293.227	45.74
293.442	-42.32
293.657	101.03
293.871	17.07
294.086	47.79
294.301	98.99
294.516	2.73
294.73	31.4
294.945	27.31
295.16	-5.46
295.374	31.4
295.589	72.36
295.804	12.97
296.018	68.27
296.233	96.94
296.447	8.87
296.662	2.73
296.877	8.87
297.091	39.59
297.306	78.51
297.52	6.83
297.735	92.84
297.949	19.11
298.164	-13.65
298.378	43.69
298.593	33.45
298.807	27.31
299.022	72.36
299.236	96.94
299.451	-21.84
299.665	-9.56
299.88	-7.51
300.094	82.6
300.309	74.41
300.523	68.27
300.737	8.87
300.952	31.4
301.166	12.97
301.381	35.5
301.595	105.13
301.809	33.45
302.024	76.46
302.238	88.75
302.452	92.84
302.667	31.4
302.881	82.6
303.095	37.55
303.309	68.27
303.524	82.6
303.738	96.94
303.952	10.92
304.166	-3.41
304.381	27.31
304.595	107.18
304.809	39.59
305.023	94.89
305.237	58.03
305.452	127.66
305.666	-5.46
305.88	78.51
306.094	64.17
306.308	41.64
306.522	43.69
306.736	21.16
306.95	43.69
307.164	78.51
307.379	-17.75
307.593	86.7
307.807	45.74
308.021	12.97
308.235	60.07
308.449	-5.46
308.663	72.36
308.877	96.94
309.091	10.92
309.305	60.07
309.519	105.13
309.733	37.55
309.947	12.97
310.161	62.12
310.374	19.11
310.588	51.88
310.802	19.11
311.016	94.89
311.23	29.35
311.444	21.16
311.658	166.57
311.872	92.84
312.085	31.4
312.299	49.83
312.513	55.98
312.727	64.17
312.941	43.69
313.154	27.31
313.368	23.21
313.582	96.94
313.796	115.37
314.009	29.35
314.223	43.69
314.437	88.75
314.651	105.13
314.864	12.97
315.078	-3.41
315.292	-9.56
315.505	92.84
315.719	90.79
315.933	-1.37
316.146	47.79
316.36	76.46
316.573	43.69
316.787	70.31
317.001	8.87
317.214	55.98
317.428	76.46
317.641	37.55
317.855	80.55
318.068	88.75
318.282	72.36
318.495	55.98
318.709	74.41
318.922	58.03
319.136	150.18
319.349	51.88
319.563	12.97
319.776	119.46
319.99	17.07
320.203	107.18
320.417	2.73
320.63	80.55
320.843	64.17
321.057	113.32
321.27	-1.37
321.483	60.07
321.697	78.51
321.91	51.88
322.124	49.83
322.337	49.83
322.55	101.03
322.763	76.46
322.977	82.6
323.19	92.84
323.403	68.27
323.617	74.41
323.83	25.26
324.043	19.11
324.256	55.98
324.469	6.83
324.683	47.79
324.896	8.87
325.109	31.4
325.322	2.73
325.535	103.08
325.748	37.55
325.962	115.37
326.175	135.85
326.388	15.02
326.601	80.55
326.814	94.89
327.027	49.83
327.24	47.79
327.453	80.55
327.666	23.21
327.879	92.84
328.092	41.64
328.305	90.79
328.518	82.6
328.731	19.11
328.944	43.69
329.157	-11.61
329.37	8.87
329.583	39.59
329.796	127.66
330.009	17.07
330.222	82.6
330.435	2.73
330.648	98.99
330.861	27.31
331.073	115.37
331.286	23.21
331.499	90.79
331.712	37.55
331.925	74.41
332.138	-1.37
332.35	84.65
332.563	31.4
332.776	47.79
332.989	55.98
333.202	72.36
333.414	33.45
333.627	60.07
333.84	17.07
334.053	101.03
334.265	45.74
334.478	29.35
334.691	78.51
334.903	60.07
335.116	70.31
335.329	31.4
335.541	72.36
335.754	86.7
335.966	94.89
336.179	17.07
336.392	60.07
336.604	17.07
336.817	39.59
337.029	146.09
337.242	-11.61
337.454	191.14
337.667	127.66
337.88	105.13
338.092	55.98
338.305	158.38
338.517	19.11
338.729	80.55
338.942	80.55
339.154	15.02
339.367	43.69
339.579	82.6
339.792	90.79
340.004	133.8
340.217	84.65
340.429	47.79
340.641	66.22
340.854	21.16
341.066	-25.94
341.278	21.16
341.491	80.55
341.703	45.74
341.915	55.98
342.128	37.55
342.34	41.64
342.552	88.75
342.764	41.64
342.977	74.41
343.189	62.12
343.401	47.79
343.613	21.16
343.826	55.98
344.038	70.31
344.25	80.55
344.462	68.27
344.674	72.36
344.886	29.35
345.099	29.35
345.311	88.75
345.523	12.97
345.735	23.21
345.947	6.83
346.159	62.12
346.371	168.62
346.583	45.74
346.795	58.03
347.007	96.94
347.219	107.18
347.431	-21.84
347.643	158.38
347.855	23.21
348.067	86.7
348.279	29.35
348.491	70.31
348.703	45.74
348.915	84.65
349.127	64.17
349.339	8.87
349.551	98.99
349.763	55.98
349.975	62.12
350.187	45.74
350.399	111.27
350.61	49.83
350.822	55.98
351.034	74.41
351.246	64.17
351.458	72.36
351.669	60.07
351.881	137.9
352.093	60.07
352.305	109.23
352.517	117.42
352.728	107.18
352.94	70.31
353.152	60.07
353.363	37.55
353.575	144.04
353.787	27.31
353.999	84.65
354.21	133.8
354.422	53.93
354.633	23.21
354.845	45.74
355.057	-52.56
355.268	27.31
355.48	12.97
355.692	103.08
355.903	90.79
356.115	72.36
356.326	-44.37
356.538	27.31
356.749	78.51
356.961	45.74
357.172	96.94
357.384	86.7
357.595	139.94
357.807	53.93
358.018	127.66
358.23	64.17
358.441	35.5
358.653	78.51
358.864	139.94
359.075	94.89
359.287	121.51
359.498	39.59
359.709	164.52
359.921	101.03
360.132	-7.51
360.344	96.94
360.555	60.07
360.766	41.64
360.977	49.83
361.189	90.79
361.4	92.84
361.611	119.46
361.823	47.79
362.034	64.17
362.245	113.32
362.456	101.03
362.667	101.03
362.879	66.22
363.09	76.46
363.301	96.94
363.512	35.5
363.723	31.4
363.935	-54.61
364.146	117.42
364.357	60.07
364.568	82.6
364.779	25.26
364.99	80.55
365.201	60.07
365.412	144.04
365.623	94.89
365.834	21.16
366.045	129.7
366.256	109.23
366.467	15.02
366.678	107.18
366.889	82.6
367.1	55.98
367.311	162.47
367.522	103.08
367.733	23.21
367.944	80.55
368.155	6.83
368.366	55.98
368.577	84.65
368.788	150.18
368.999	47.79
369.209	80.55
369.42	123.56
369.631	51.88
369.842	39.59
370.053	103.08
370.264	111.27
370.474	62.12
370.685	21.16
370.896	80.55
371.107	103.08
371.317	88.75
371.528	51.88
371.739	98.99
371.95	92.84
372.16	2.73
372.371	29.35
372.582	51.88
372.792	27.31
373.003	101.03
373.214	-27.99
373.424	58.03
373.635	127.66
373.846	211.62
374.056	84.65
374.267	19.11
374.477	31.4
374.688	90.79
374.898	86.7
375.109	51.88
375.319	127.66
375.53	84.65
375.74	64.17
375.951	64.17
376.161	88.75
376.372	111.27
376.582	72.36
376.793	109.23
377.003	111.27
377.214	31.4
377.424	88.75
377.635	49.83
377.845	82.6
378.055	25.26
378.266	96.94
378.476	-5.46
378.686	21.16
378.897	15.02
379.107	6.83
379.317	47.79
379.528	31.4
379.738	109.23
379.948	121.51
380.158	109.23
380.369	105.13
380.579	94.89
380.789	58.03
380.999	123.56
381.21	117.42
381.42	160.42
381.63	68.27
381.84	86.7
382.05	51.88
382.261	111.27
382.471	39.59
382.681	29.35
382.891	76.46
383.101	141.99
383.311	45.74
383.521	119.46
383.731	74.41
383.941	82.6
384.151	60.07
384.361	64.17
384.571	94.89
384.781	94.89
384.991	94.89
385.201	133.8
385.411	51.88
385.621	64.17
385.831	29.35
386.041	51.88
386.251	80.55
386.461	111.27
386.671	88.75
386.881	113.32
387.091	115.37
387.301	94.89
387.511	58.03
387.72	88.75
387.93	70.31
388.14	82.6
388.35	88.75
388.56	156.33
388.769	82.6
388.979	82.6
389.189	19.11
389.399	70.31
389.609	105.13
389.818	98.99
390.028	98.99
390.238	94.89
390.447	96.94
390.657	49.83
390.867	62.12
391.076	139.94
391.286	31.4
391.496	62.12
391.705	92.84
391.915	109.23
392.125	101.03
392.334	115.37
392.544	162.47
392.753	103.08
392.963	176.81
393.172	148.14
393.382	8.87
393.591	101.03
393.801	129.7
394.01	139.94
394.22	96.94
394.429	29.35
394.639	101.03
394.848	166.57
395.058	152.23
395.267	88.75
395.477	148.14
395.686	119.46
395.895	182.95
396.105	185
396.314	74.41
396.524	135.85
396.733	64.17
396.942	211.62
397.152	127.66
397.361	185
397.57	144.04
397.78	199.34
397.989	158.38
398.198	185
398.407	205.48
398.617	113.32
398.826	139.94
399.035	137.9
399.244	156.33
399.453	156.33
399.663	156.33
399.872	174.76
400.081	96.94
400.29	205.48
400.499	158.38
400.708	209.58
400.917	168.62
401.127	174.76
401.336	164.52
401.545	182.95
401.754	209.58
401.963	172.71
402.172	166.57
402.381	221.86
402.59	137.9
402.799	215.72
403.008	189.1
403.217	201.38
403.426	187.05
403.635	174.76
403.844	174.76
404.053	156.33
404.262	182.95
404.471	172.71
404.68	178.86
404.888	199.34
405.097	193.19
405.306	180.9
405.515	322.21
405.724	174.76
405.933	244.39
406.142	264.87
406.35	307.88
406.559	275.11
406.768	232.1
406.977	346.79
407.185	289.45
407.394	322.21
407.603	248.49
407.812	373.41
408.02	297.64
408.229	309.93
408.438	365.22
408.646	361.13
408.855	324.26
409.064	397.99
409.272	397.99
409.481	441
409.69	438.95
409.898	309.93
410.107	529.06
410.315	506.53
410.524	471.72
410.733	449.19
410.941	522.91
411.15	500.39
411.358	572.07
411.567	514.72
411.775	592.55
411.984	527.01
412.192	705.18
412.401	651.94
412.609	742.05
412.818	740
413.026	688.8
413.234	789.15
413.443	795.29
413.651	815.77
413.86	787.1
414.068	901.79
414.276	889.5
414.485	948.89
414.693	950.94
414.901	957.08
415.11	1067.67
415.318	973.47
415.526	1077.91
415.734	1100.44
415.943	1149.59
416.151	1290.9
416.359	1192.6
416.567	1247.9
416.776	1413.78
416.984	1460.88
417.192	1446.55
417.4	1424.02
417.608	1475.22
417.817	1583.76
418.025	1618.58
418.233	1663.63
418.441	1755.79
418.649	1804.94
418.857	1907.34
419.065	1974.92
419.273	1897.1
419.481	2011.79
419.689	2230.92
419.897	2228.87
420.105	2222.73
420.313	2415.24
420.521	2351.75
420.729	2452.1
420.937	2566.79
421.145	2570.88
421.353	2718.34
421.561	2810.5
421.769	2910.85
421.977	2984.57
422.185	3005.05
422.393	3236.47
422.601	3390.07
422.809	3424.89
423.017	3461.75
423.224	3607.16
423.432	3734.13
423.64	3689.07
423.848	4076.14
424.056	4061.8
424.263	4188.78
424.471	4256.36
424.679	4325.99
424.887	4641.38
425.094	4696.68
425.302	4713.06
425.51	5010.01
425.718	5005.92
425.925	5204.57
426.133	5270.11
426.341	5737.04
426.548	5894.74
426.756	6013.52
426.964	6040.14
427.171	6439.5
427.379	6509.13
427.586	6675.01
427.794	6761.03
428.001	7121.47
428.209	7494.2
428.417	7305.79
428.624	7725.62
428.832	7762.48
429.039	7754.29
429.247	7838.26
429.454	8524.33
429.662	9067.04
429.869	8493.61
430.076	9114.14
430.284	8743.46
430.491	9210.4
430.699	9808.41
430.906	9800.21
431.114	10058.26
431.321	10127.89
431.528	10523.15
431.736	11108.87
431.943	11844.09
432.15	11239.94
432.358	11448.83
432.565	12075.51
432.772	11782.65
432.979	12650.99
433.187	12810.73
433.394	12870.12
433.601	13726.17
433.808	13687.26
434.016	13822.42
434.223	14320.08
434.43	15094.21
434.637	14684.62
434.844	15888.82
435.052	16214.45
435.259	15915.45
435.466	16173.49
435.673	16034.23
435.88	17291.68
436.087	17877.4
436.294	18084.25
436.501	17645.98
436.708	18114.97
436.915	18608.53
437.122	19417.47
437.329	19464.58
437.537	19843.45
437.743	20273.53
437.95	20085.11
438.157	21498.21
438.364	21926.24
438.571	21907.8
438.778	22045.02
438.985	23775.55
439.192	23146.83
439.399	23630.15
439.606	23200.07
439.813	24559.92
440.02	26032.41
440.227	25477.41
440.433	25489.7
440.64	26284.31
440.847	26114.33
441.054	26882.32
441.261	28678.39
441.467	28117.25
441.674	28799.22
441.881	29509.86
442.088	29753.57
442.294	29178.09
442.501	30367.96
442.708	30798.04
442.914	32282.81
443.121	33292.46
443.328	32329.92
443.534	34826.39
443.741	33915.05
443.948	33300.65
444.154	36235.39
444.361	35143.83
444.568	36104.32
444.774	35811.46
444.981	36356.22
445.187	37118.07
445.394	38838.36
445.6	38297.7
445.807	41846.83
446.013	39731.28
446.22	40828.99
446.426	42401.83
446.633	42536.99
446.839	43923.47
447.046	41883.69
447.252	44279.81
447.459	44707.84
447.665	44197.9
447.871	46301.16
448.078	48109.52
448.284	45797.36
448.491	46970.85
448.697	48316.36
448.903	49698.74
449.11	49272.76
449.316	48963.52
449.522	49514.42
449.728	50696.1
449.935	51503
450.141	51001.25
450.347	52117.39
450.553	50763.68
450.76	51294.11
450.966	52555.66
451.172	52305.8
451.378	53479.29
451.584	52506.51
451.791	53606.26
451.997	53239.68
452.203	54378.35
452.409	54157.17
452.615	53933.94
452.821	52230.03
453.027	51748.76
453.233	53888.88
453.44	51568.54
453.646	52092.82
453.852	52617.1
454.058	53831.54
454.264	51371.93
454.47	52948.87
454.676	51533.72
454.882	53200.77
455.088	48488.39
455.294	49002.43
455.5	50102.19
455.705	50405.29
455.911	48771.01
456.117	47783.89
456.323	47175.64
456.529	44431.36
456.735	45981.68
456.941	45475.83
457.147	44427.27
457.352	42924.06
457.558	42278.95
457.764	42557.47
457.97	41787.44
458.176	40874.04
458.381	41146.42
458.587	38496.35
458.793	38772.83
458.999	36675.71
459.204	39909.45
459.41	38297.7
459.616	36128.9
459.821	35979.4
460.027	36038.79
460.233	35014.8
460.438	33265.84
460.644	33573.03
460.85	32268.48
461.055	31858.88
461.261	31715.53
461.466	29198.57
461.672	28629.24
461.878	30607.58
462.083	28606.71
462.289	28010.75
462.494	28154.11
462.7	26497.3
462.905	25852.19
463.111	26546.45
463.316	26915.09
463.522	26554.65
463.727	26284.31
463.932	26151.2
464.138	26018.08
464.343	26134.81
464.549	25284.9
464.754	26335.51
464.959	26075.42
465.165	25631.01
465.37	24744.24
465.575	24269.11
465.781	25157.93
465.986	25446.69
466.191	24283.45
466.397	23984.44
466.602	22491.48
