Data from USB4F104151__21__11-05-02-952.txt Node

Date: Wed Mar 12 11:05:02 EDT 2025
User: louis
Spectrometer: USB4F10415
Trigger mode: 4
Integration Time (sec): 2.000000E-2
Scans to average: 1
Electric dark correction enabled: true
Nonlinearity correction enabled: false
Boxcar width: 0
XAxis mode: Wavelengths
Number of Pixels in Spectrum: 3648
>>>>>Begin Spectral Data<<<<<
178.204	-74.92
178.424	-74.92
178.644	-74.92
178.864	-66.73
179.084	-40.11
179.304	-15.53
179.524	-15.53
179.744	0.85
179.964	2.9
180.184	21.33
180.404	-19.63
180.624	70.48
180.844	21.33
181.064	-15.53
181.283	-25.77
181.503	-21.67
181.723	-3.24
181.943	-23.72
182.163	43.86
182.383	-62.63
182.602	37.72
182.822	31.57
183.042	-11.43
183.262	-11.43
183.482	41.81
183.701	19.29
183.921	37.72
184.141	-19.63
184.361	15.19
184.58	37.72
184.8	43.86
185.02	-42.15
185.239	-7.34
185.459	39.76
185.679	13.14
185.898	-27.82
186.118	113.49
186.338	74.58
186.557	-29.87
186.777	2.9
186.997	-13.48
187.216	31.57
187.436	29.52
187.655	60.24
187.875	33.62
188.095	62.29
188.314	33.62
188.534	76.63
188.753	-99.5
188.973	17.24
189.192	23.38
189.412	68.44
189.631	37.72
189.851	29.52
190.07	-1.19
190.29	25.43
190.509	-11.43
190.729	7
190.948	25.43
191.168	4.95
191.387	19.29
191.607	-9.39
191.826	33.62
192.045	-31.91
192.265	0.85
192.484	-23.72
192.704	-42.15
192.923	-15.53
193.142	-1.19
193.362	78.68
193.581	54.1
193.8	19.29
194.02	-21.67
194.239	-21.67
194.458	64.34
194.678	4.95
194.897	56.15
195.116	-27.82
195.335	-27.82
195.555	13.14
195.774	21.33
195.993	50
196.212	19.29
196.432	2.9
196.651	23.38
196.87	64.34
197.089	29.52
197.308	25.43
197.528	39.76
197.747	-42.15
197.966	7
198.185	15.19
198.404	35.67
198.623	-48.3
198.842	11.09
199.062	-36.01
199.281	84.82
199.5	-3.24
199.719	-60.59
199.938	74.58
200.157	-27.82
200.376	33.62
200.595	-31.91
200.814	11.09
201.033	19.29
201.252	117.59
201.471	-1.19
201.69	35.67
201.909	25.43
202.128	4.95
202.347	31.57
202.566	66.39
202.785	-42.15
203.004	-7.34
203.223	62.29
203.442	21.33
203.661	-7.34
203.879	58.2
204.098	-13.48
204.317	17.24
204.536	23.38
204.755	-17.58
204.974	37.72
205.193	29.52
205.411	41.81
205.63	21.33
205.849	-13.48
206.068	-23.72
206.287	-31.91
206.505	39.76
206.724	25.43
206.943	107.35
207.162	45.91
207.381	78.68
207.599	17.24
207.818	70.48
208.037	-27.82
208.255	4.95
208.474	33.62
208.693	-3.24
208.911	9.05
209.13	27.48
209.349	4.95
209.567	-7.34
209.786	21.33
210.005	41.81
210.223	-5.29
210.442	-74.92
210.661	-40.11
210.879	47.96
211.098	4.95
211.316	-7.34
211.535	31.57
211.753	45.91
211.972	-3.24
212.191	11.09
212.409	31.57
212.628	15.19
212.846	64.34
213.065	-7.34
213.283	56.15
213.502	15.19
213.72	33.62
213.938	-15.53
214.157	41.81
214.375	86.87
214.594	52.05
214.812	0.85
215.031	113.49
215.249	-19.63
215.467	97.11
215.686	21.33
215.904	50
216.122	-3.24
216.341	103.25
216.559	25.43
216.778	45.91
216.996	17.24
217.214	29.52
217.432	11.09
217.651	-17.58
217.869	-48.3
218.087	11.09
218.306	35.67
218.524	50
218.742	-81.07
218.96	90.96
219.179	45.91
219.397	-46.25
219.615	93.01
219.833	-17.58
220.051	17.24
220.27	72.53
220.488	29.52
220.706	41.81
220.924	25.43
221.142	29.52
221.36	7
221.578	39.76
221.796	-58.54
222.015	52.05
222.233	31.57
222.451	54.1
222.669	-7.34
222.887	-56.49
223.105	31.57
223.323	25.43
223.541	-54.44
223.759	58.2
223.977	15.19
224.195	88.92
224.413	21.33
224.631	-13.48
224.849	-44.2
225.067	80.72
225.285	58.2
225.503	35.67
225.721	84.82
225.939	50
226.157	-42.15
226.375	41.81
226.592	-15.53
226.81	-15.53
227.028	45.91
227.246	37.72
227.464	50
227.682	21.33
227.9	11.09
228.117	25.43
228.335	-15.53
228.553	64.34
228.771	27.48
228.989	58.2
229.206	25.43
229.424	25.43
229.642	17.24
229.86	-23.72
230.077	-54.44
230.295	33.62
230.513	-5.29
230.731	72.53
230.948	50
231.166	70.48
231.384	47.96
231.601	58.2
231.819	2.9
232.037	-36.01
232.254	17.24
232.472	-21.67
232.689	-23.72
232.907	9.05
233.125	62.29
233.342	0.85
233.56	21.33
233.777	-27.82
233.995	50
234.213	21.33
234.43	60.24
234.648	19.29
234.865	13.14
235.083	33.62
235.3	-15.53
235.518	-25.77
235.735	60.24
235.953	35.67
236.17	21.33
236.388	25.43
236.605	80.72
236.822	29.52
237.04	37.72
237.257	-36.01
237.475	56.15
237.692	13.14
237.909	-3.24
238.127	35.67
238.344	58.2
238.562	74.58
238.779	-3.24
238.996	15.19
239.214	-1.19
239.431	43.86
239.648	123.73
239.865	56.15
240.083	58.2
240.3	56.15
240.517	-17.58
240.735	21.33
240.952	7
241.169	68.44
241.386	39.76
241.603	13.14
241.821	37.72
242.038	41.81
242.255	21.33
242.472	-54.44
242.689	43.86
242.907	-9.39
243.124	33.62
243.341	-48.3
243.558	-60.59
243.775	-50.35
243.992	-48.3
244.209	0.85
244.426	62.29
244.643	41.81
244.86	41.81
245.078	74.58
245.295	25.43
245.512	78.68
245.729	31.57
245.946	68.44
246.163	15.19
246.38	9.05
246.597	56.15
246.814	7
247.031	-23.72
247.248	76.63
247.464	70.48
247.681	54.1
247.898	-11.43
248.115	21.33
248.332	47.96
248.549	88.92
248.766	-3.24
248.983	11.09
249.2	25.43
249.417	54.1
249.633	-3.24
249.85	29.52
250.067	66.39
250.284	88.92
250.501	41.81
250.717	78.68
250.934	-25.77
251.151	-52.39
251.368	-31.91
251.585	72.53
251.801	21.33
252.018	41.81
252.235	66.39
252.451	62.29
252.668	-175.27
252.885	54.1
253.102	13.14
253.318	-33.96
253.535	9.05
253.752	11.09
253.968	-40.11
254.185	23.38
254.401	-17.58
254.618	58.2
254.835	17.24
255.051	148.31
255.268	29.52
255.484	95.06
255.701	-48.3
255.917	29.52
256.134	-1.19
256.351	121.68
256.567	-25.77
256.784	86.87
257	0.85
257.217	11.09
257.433	47.96
257.65	39.76
257.866	76.63
258.082	-25.77
258.299	70.48
258.515	-33.96
258.732	37.72
258.948	95.06
259.165	76.63
259.381	52.05
259.597	-23.72
259.814	17.24
260.03	78.68
260.246	-1.19
260.463	17.24
260.679	31.57
260.895	-83.11
261.112	-52.39
261.328	-60.59
261.544	9.05
261.761	-3.24
261.977	54.1
262.193	15.19
262.409	13.14
262.626	37.72
262.842	78.68
263.058	-48.3
263.274	60.24
263.49	0.85
263.707	72.53
263.923	33.62
264.139	50
264.355	2.9
264.571	37.72
264.787	37.72
265.004	25.43
265.22	0.85
265.436	56.15
265.652	31.57
265.868	62.29
266.084	17.24
266.3	-56.49
266.516	15.19
266.732	35.67
266.948	0.85
267.164	58.2
267.38	99.16
267.596	27.48
267.812	39.76
268.028	-42.15
268.244	47.96
268.46	45.91
268.676	15.19
268.892	86.87
269.108	17.24
269.324	4.95
269.54	-9.39
269.756	47.96
269.972	62.29
270.188	45.91
270.403	-40.11
270.619	-7.34
270.835	15.19
271.051	62.29
271.267	25.43
271.483	107.35
271.698	54.1
271.914	19.29
272.13	11.09
272.346	109.4
272.562	41.81
272.777	90.96
272.993	17.24
273.209	23.38
273.425	50
273.64	54.1
273.856	17.24
274.072	25.43
274.287	27.48
274.503	21.33
274.719	7
274.934	-72.87
275.15	11.09
275.366	-25.77
275.581	90.96
275.797	45.91
276.012	-19.63
276.228	52.05
276.444	13.14
276.659	43.86
276.875	-50.35
277.09	25.43
277.306	45.91
277.521	29.52
277.737	25.43
277.952	-31.91
278.168	-66.73
278.383	29.52
278.599	68.44
278.814	0.85
279.03	-5.29
279.245	54.1
279.461	74.58
279.676	82.77
279.892	-70.83
280.107	88.92
280.322	105.3
280.538	25.43
280.753	-5.29
280.969	35.67
281.184	-15.53
281.399	-1.19
281.615	50
281.83	-13.48
282.045	-68.78
282.26	19.29
282.476	31.57
282.691	35.67
282.906	62.29
283.122	-46.25
283.337	-64.68
283.552	33.62
283.767	-19.63
283.983	78.68
284.198	62.29
284.413	56.15
284.628	31.57
284.843	15.19
285.058	-3.24
285.274	13.14
285.489	-13.48
285.704	66.39
285.919	21.33
286.134	4.95
286.349	-3.24
286.564	-3.24
286.779	58.2
286.995	39.76
287.21	-33.96
287.425	27.48
287.64	82.77
287.855	52.05
288.07	-9.39
288.285	62.29
288.5	80.72
288.715	58.2
288.93	-66.73
289.145	4.95
289.36	54.1
289.575	62.29
289.79	-17.58
290.004	90.96
290.219	17.24
290.434	45.91
290.649	-66.73
290.864	43.86
291.079	-36.01
291.294	39.76
291.509	0.85
291.724	-70.83
291.938	-27.82
292.153	-1.19
292.368	9.05
292.583	60.24
292.798	31.57
293.012	50
293.227	-27.82
293.442	31.57
293.657	58.2
293.871	54.1
294.086	66.39
294.301	54.1
294.516	74.58
294.73	7
294.945	11.09
295.16	-17.58
295.374	31.57
295.589	-52.39
295.804	15.19
296.018	58.2
296.233	62.29
296.447	13.14
296.662	-11.43
296.877	35.67
297.091	-7.34
297.306	21.33
297.52	4.95
297.735	0.85
297.949	56.15
298.164	95.06
298.378	13.14
298.593	-17.58
298.807	56.15
299.022	47.96
299.236	88.92
299.451	9.05
299.665	19.29
299.88	39.76
300.094	31.57
300.309	39.76
300.523	11.09
300.737	39.76
300.952	41.81
301.166	7
301.381	17.24
301.595	35.67
301.809	54.1
302.024	62.29
302.238	33.62
302.452	4.95
302.667	19.29
302.881	105.3
303.095	15.19
303.309	7
303.524	-11.43
303.738	-13.48
303.952	74.58
304.166	76.63
304.381	-52.39
304.595	76.63
304.809	-15.53
305.023	99.16
305.237	47.96
305.452	101.2
305.666	60.24
305.88	58.2
306.094	72.53
306.308	-15.53
306.522	82.77
306.736	54.1
306.95	23.38
307.164	0.85
307.379	-5.29
307.593	7
307.807	27.48
308.021	-25.77
308.235	0.85
308.449	21.33
308.663	7
308.877	103.25
309.091	39.76
309.305	70.48
309.519	41.81
309.733	113.49
309.947	-1.19
310.161	-19.63
310.374	39.76
310.588	80.72
310.802	-7.34
311.016	13.14
311.23	-21.67
311.444	19.29
311.658	-17.58
311.872	74.58
312.085	-1.19
312.299	13.14
312.513	27.48
312.727	56.15
312.941	0.85
313.154	9.05
313.368	17.24
313.582	88.92
313.796	2.9
314.009	35.67
314.223	76.63
314.437	0.85
314.651	-11.43
314.864	9.05
315.078	15.19
315.292	0.85
315.505	58.2
315.719	56.15
315.933	9.05
316.146	-25.77
316.36	13.14
316.573	25.43
316.787	80.72
317.001	0.85
317.214	4.95
317.428	23.38
317.641	58.2
317.855	-38.06
318.068	45.91
318.282	33.62
318.495	43.86
318.709	31.57
318.922	19.29
319.136	27.48
319.349	0.85
319.563	41.81
319.776	74.58
319.99	2.9
320.203	41.81
320.417	76.63
320.63	58.2
320.843	29.52
321.057	11.09
321.27	-1.19
321.483	52.05
321.697	11.09
321.91	-9.39
322.124	35.67
322.337	23.38
322.55	-25.77
322.763	35.67
322.977	72.53
323.19	27.48
323.403	52.05
323.617	54.1
323.83	78.68
324.043	39.76
324.256	93.01
324.469	-25.77
324.683	43.86
324.896	27.48
325.109	-9.39
325.322	19.29
325.535	70.48
325.748	56.15
325.962	80.72
326.175	33.62
326.388	23.38
326.601	7
326.814	33.62
327.027	11.09
327.24	88.92
327.453	54.1
327.666	-31.91
327.879	25.43
328.092	64.34
328.305	70.48
328.518	-72.87
328.731	-5.29
328.944	90.96
329.157	90.96
329.37	35.67
329.583	35.67
329.796	-7.34
330.009	21.33
330.222	56.15
330.435	4.95
330.648	74.58
330.861	19.29
331.073	0.85
331.286	70.48
331.499	47.96
331.712	43.86
331.925	37.72
332.138	50
332.35	76.63
332.563	86.87
332.776	43.86
332.989	52.05
333.202	15.19
333.414	66.39
333.627	60.24
333.84	33.62
334.053	84.82
334.265	74.58
334.478	-23.72
334.691	84.82
334.903	82.77
335.116	11.09
335.329	99.16
335.541	33.62
335.754	66.39
335.966	23.38
336.179	11.09
336.392	25.43
336.604	-3.24
336.817	45.91
337.029	25.43
337.242	9.05
337.454	95.06
337.667	-3.24
337.88	-17.58
338.092	146.26
338.305	86.87
338.517	-48.3
338.729	68.44
338.942	29.52
339.154	86.87
339.367	2.9
339.579	11.09
339.792	45.91
340.004	19.29
340.217	21.33
340.429	62.29
340.641	-29.87
340.854	43.86
341.066	62.29
341.278	50
341.491	23.38
341.703	56.15
341.915	7
342.128	66.39
342.34	39.76
342.552	4.95
342.764	52.05
342.977	33.62
343.189	62.29
343.401	21.33
343.613	4.95
343.826	7
344.038	4.95
344.25	35.67
344.462	41.81
344.674	88.92
344.886	86.87
345.099	47.96
345.311	52.05
345.523	58.2
345.735	37.72
345.947	23.38
346.159	-11.43
346.371	101.2
346.583	0.85
346.795	29.52
347.007	0.85
347.219	35.67
347.431	17.24
347.643	95.06
347.855	72.53
348.067	29.52
348.279	41.81
348.491	17.24
348.703	9.05
348.915	19.29
349.127	9.05
349.339	58.2
349.551	17.24
349.763	64.34
349.975	-31.91
350.187	21.33
350.399	-7.34
350.61	45.91
350.822	47.96
351.034	56.15
351.246	84.82
351.458	21.33
351.669	45.91
351.881	62.29
352.093	56.15
352.305	90.96
352.517	33.62
352.728	43.86
352.94	43.86
353.152	101.2
353.363	25.43
353.575	54.1
353.787	52.05
353.999	13.14
354.21	7
354.422	50
354.633	-15.53
354.845	29.52
355.057	39.76
355.268	2.9
355.48	37.72
355.692	109.4
355.903	68.44
356.115	68.44
356.326	23.38
356.538	0.85
356.749	29.52
356.961	58.2
357.172	82.77
357.384	47.96
357.595	47.96
357.807	52.05
358.018	4.95
358.23	13.14
358.441	123.73
358.653	-25.77
358.864	37.72
359.075	7
359.287	17.24
359.498	50
359.709	-42.15
359.921	76.63
360.132	21.33
360.344	19.29
360.555	-33.96
360.766	80.72
360.977	-25.77
361.189	152.4
361.4	33.62
361.611	2.9
361.823	58.2
362.034	15.19
362.245	9.05
362.456	56.15
362.667	43.86
362.879	13.14
363.09	50
363.301	-17.58
363.512	25.43
363.723	68.44
363.935	66.39
364.146	103.25
364.357	-15.53
364.568	60.24
364.779	47.96
364.99	95.06
365.201	29.52
365.412	95.06
365.623	11.09
365.834	66.39
366.045	7
366.256	93.01
366.467	31.57
366.678	54.1
366.889	64.34
367.1	39.76
367.311	41.81
367.522	35.67
367.733	41.81
367.944	29.52
368.155	-50.35
368.366	50
368.577	54.1
368.788	-3.24
368.999	17.24
369.209	70.48
369.42	86.87
369.631	68.44
369.842	123.73
370.053	78.68
370.264	95.06
370.474	62.29
370.685	27.48
370.896	4.95
371.107	101.2
371.317	7
371.528	78.68
371.739	27.48
371.95	4.95
372.16	9.05
372.371	-5.29
372.582	58.2
372.792	74.58
373.003	103.25
373.214	52.05
373.424	27.48
373.635	-3.24
373.846	133.97
374.056	-17.58
374.267	29.52
374.477	17.24
374.688	19.29
374.898	84.82
375.109	58.2
375.319	66.39
375.53	60.24
375.74	17.24
375.951	50
376.161	37.72
376.372	21.33
376.582	-19.63
376.793	72.53
377.003	7
377.214	66.39
377.424	15.19
377.635	25.43
377.845	17.24
378.055	2.9
378.266	88.92
378.476	-25.77
378.686	-13.48
378.897	103.25
379.107	9.05
379.317	70.48
379.528	25.43
379.738	41.81
379.948	7
380.158	74.58
380.369	54.1
380.579	19.29
380.789	45.91
380.999	15.19
381.21	23.38
381.42	54.1
381.63	27.48
381.84	90.96
382.05	64.34
382.261	4.95
382.471	-19.63
382.681	29.52
382.891	31.57
383.101	52.05
383.311	41.81
383.521	13.14
383.731	2.9
383.941	11.09
384.151	17.24
384.361	9.05
384.571	23.38
384.781	84.82
384.991	115.54
385.201	90.96
385.411	76.63
385.621	21.33
385.831	50
386.041	25.43
386.251	25.43
386.461	78.68
386.671	33.62
386.881	78.68
387.091	99.16
387.301	105.3
387.511	7
387.72	50
387.93	47.96
388.14	29.52
388.35	-13.48
388.56	0.85
388.769	54.1
388.979	54.1
389.189	-29.87
389.399	78.68
389.609	33.62
389.818	37.72
390.028	78.68
390.238	7
390.447	80.72
390.657	76.63
390.867	45.91
391.076	2.9
391.286	54.1
391.496	-3.24
391.705	29.52
391.915	15.19
392.125	29.52
392.334	41.81
392.544	33.62
392.753	50
392.963	93.01
393.172	7
393.382	-1.19
393.591	52.05
393.801	136.02
394.01	52.05
394.22	7
394.429	66.39
394.639	103.25
394.848	82.77
395.058	35.67
395.267	39.76
395.477	78.68
395.686	113.49
395.895	47.96
396.105	76.63
396.314	41.81
396.524	-19.63
396.733	31.57
396.942	121.68
397.152	58.2
397.361	37.72
397.57	125.78
397.78	97.11
397.989	54.1
398.198	101.2
398.407	97.11
398.617	60.24
398.826	176.98
399.035	47.96
399.244	107.35
399.453	111.44
399.663	62.29
399.872	105.3
400.081	62.29
400.29	185.17
400.499	29.52
400.708	131.92
400.917	107.35
401.127	119.64
401.336	113.49
401.545	154.45
401.754	121.68
401.963	148.31
402.172	103.25
402.381	107.35
402.59	164.69
402.799	29.52
403.008	113.49
403.217	80.72
403.426	125.78
403.635	117.59
403.844	62.29
404.053	136.02
404.262	29.52
404.471	191.31
404.68	123.73
404.888	74.58
405.097	131.92
405.306	164.69
405.515	76.63
405.724	121.68
405.933	150.36
406.142	105.3
406.35	199.51
406.559	146.26
406.768	127.83
406.977	160.59
407.185	209.75
407.394	113.49
407.603	228.18
407.812	222.03
408.02	211.79
408.229	187.22
408.438	176.98
408.646	232.27
408.855	195.41
409.064	267.09
409.272	238.42
409.481	234.32
409.69	267.09
409.898	246.61
410.107	246.61
410.315	308.05
410.524	293.71
410.733	299.86
410.941	281.43
411.15	353.1
411.358	355.15
411.567	303.95
411.775	367.44
411.984	445.26
412.192	236.37
412.401	432.97
412.609	369.49
412.818	432.97
413.026	373.58
413.234	475.98
413.443	432.97
413.651	410.45
413.86	467.79
414.068	484.17
414.276	588.62
414.485	484.17
414.693	469.84
414.901	641.87
415.11	656.2
415.318	574.28
415.526	660.3
415.734	637.77
415.943	658.25
416.151	676.68
416.359	750.41
416.567	873.29
416.776	803.66
416.984	809.8
417.192	803.66
417.4	850.76
417.608	856.9
417.817	904.01
418.025	922.44
418.233	1049.41
418.441	1030.98
418.649	1069.89
418.857	1194.82
419.065	1141.57
419.273	1151.81
419.481	1260.35
419.689	1182.53
419.897	1282.88
420.105	1362.75
420.313	1395.52
420.521	1383.23
420.729	1389.38
420.937	1530.69
421.145	1520.45
421.353	1692.48
421.561	1631.04
421.769	1688.38
421.977	1788.73
422.185	1737.53
422.393	1962.81
422.601	2011.96
422.809	1971
423.017	2005.81
423.224	2079.54
423.432	2083.64
423.64	2265.91
423.848	2433.84
424.056	2331.44
424.263	2503.47
424.471	2503.47
424.679	2644.78
424.887	2663.21
425.094	2732.84
425.302	2878.25
425.51	2915.11
425.718	3072.81
425.925	3138.34
426.133	3052.33
426.341	3287.84
426.548	3539.74
426.756	3412.77
426.964	3547.94
427.171	3711.77
427.379	3799.84
427.586	3873.56
427.794	3963.67
428.001	4201.24
428.209	4354.83
428.417	4150.04
428.624	4561.68
428.832	4551.44
429.039	4623.12
429.247	4475.67
429.454	4924.17
429.662	5323.52
429.869	5012.23
430.076	5411.59
430.284	5262.09
430.491	5448.45
430.699	5739.26
430.906	5616.38
431.114	5761.79
431.321	6058.74
431.528	6175.48
431.736	6550.26
431.943	6675.18
432.15	6484.72
432.358	6634.22
432.565	7037.67
432.772	6992.62
432.979	7588.58
433.187	7324.39
433.394	7590.63
433.601	8219.35
433.808	8049.37
434.016	8147.67
434.223	8282.84
434.43	8956.62
434.637	8768.21
434.844	9192.14
435.052	9366.21
435.259	9382.6
435.466	9384.65
435.673	9220.81
435.88	9956.03
436.087	10586.8
436.294	10556.08
436.501	10156.73
436.708	10650.29
436.915	10937.01
437.122	11387.56
437.329	11223.72
437.537	11600.55
437.743	11956.89
437.95	11809.44
438.157	12559
438.364	12884.62
438.571	12804.75
438.778	12798.61
438.985	13961.86
439.192	13261.45
439.399	14056.06
439.606	13683.33
439.813	14418.55
440.02	15301.23
440.227	14834.29
440.433	14787.19
440.64	15223.41
440.847	15305.32
441.054	15725.16
441.261	16677.46
441.467	16454.23
441.674	16970.32
441.881	17631.82
442.088	17379.92
442.294	17121.87
442.501	17750.6
442.708	18113.09
442.914	18782.77
443.121	19360.3
443.328	19018.29
443.534	20599.32
443.741	19886.63
443.948	19268.14
444.154	21142.03
444.361	20806.17
444.568	20994.58
444.774	21064.21
444.981	21230.1
445.187	22178.31
445.394	23056.89
445.6	22184.45
445.807	24857.05
446.013	23665.13
446.22	23882.22
446.426	25131.48
446.633	25330.13
446.839	25995.72
447.046	24830.43
447.252	26436.03
447.459	26429.89
447.665	26014.15
447.871	27158.97
448.078	28512.67
448.284	27109.82
448.491	27922.86
448.697	29094.3
448.903	29675.92
449.11	29426.07
449.316	28926.36
449.522	29235.61
449.728	30271.88
449.935	30402.95
450.141	30425.48
450.347	31263.1
450.553	29948.3
450.76	30101.9
450.966	31115.64
451.172	30873.98
451.378	31576.44
451.584	31259
451.791	31922.54
451.997	31627.63
452.203	32369
452.409	31969.65
452.615	31725.94
452.821	30656.9
453.027	30189.96
453.233	31701.36
453.44	30534.02
453.646	30636.42
453.852	30824.83
454.058	31787.38
454.264	30290.31
454.47	30769.54
454.676	30044.55
454.882	31140.22
455.088	28240.29
455.294	28854.69
455.5	29477.27
455.705	29911.44
455.911	28365.22
456.117	27468.21
456.323	27091.38
456.529	25805.26
456.735	26716.61
456.941	26284.48
457.147	25600.46
457.352	24869.34
457.558	24715.74
457.764	24429.02
457.97	24089.06
458.176	23581.17
458.381	23902.7
458.587	21985.8
458.793	22405.63
458.999	21559.82
459.204	22862.33
459.41	22022.66
459.616	20720.15
459.821	20584.99
460.027	20726.3
460.233	20128.29
460.438	19233.33
460.644	19307.05
460.85	18600.51
461.055	18483.77
461.261	18377.28
461.466	16661.08
461.672	16073.31
461.878	17435.21
462.083	16144.99
462.289	15940.19
462.494	16024.16
462.7	15112.81
462.905	14625.4
463.111	15213.17
463.316	15387.24
463.522	14928.5
463.727	15293.04
463.932	15219.31
464.138	14707.32
464.343	14619.25
464.549	14568.06
464.754	15051.38
464.959	14971.5
465.165	14815.86
465.37	14310.01
465.575	13841.03
465.781	14523
465.986	14482.04
466.191	13998.72
466.397	13595.27
466.602	13187.72
466.807	13298.31
467.012	13288.07
467.218	13326.99
467.423	13521.54
467.628	13427.34
467.833	13929.09
468.038	13238.92
468.244	12712.6
468.449	13558.41
468.654	13097.61
468.859	12944.02
469.064	12571.29
469.269	12364.44
469.474	12616.34
469.679	12718.74
