Data from USB4F104151__34__11-05-15-971.txt Node

Date: Wed Mar 12 11:05:15 EDT 2025
User: louis
Spectrometer: USB4F10415
Trigger mode: 4
Integration Time (sec): 2.000000E-2
Scans to average: 1
Electric dark correction enabled: true
Nonlinearity correction enabled: false
Boxcar width: 0
XAxis mode: Wavelengths
Number of Pixels in Spectrum: 3648
>>>>>Begin Spectral Data<<<<<
178.204	-40.45
178.424	-40.45
178.644	-40.45
178.864	-118.27
179.084	-91.65
179.304	-34.3
179.524	6.66
179.744	-34.3
179.964	12.8
180.184	14.85
180.404	25.09
180.624	20.99
180.844	-48.64
181.064	0.51
181.283	57.86
181.503	-11.78
181.723	-9.73
181.943	-9.73
182.163	6.66
182.383	-3.58
182.602	25.09
182.822	0.51
183.042	45.57
183.262	-69.12
183.482	-13.82
183.701	14.85
183.921	-5.63
184.141	25.09
184.361	96.77
184.58	-1.54
184.8	-5.63
185.02	4.61
185.239	12.8
185.459	8.7
185.679	68.09
185.898	-48.64
186.118	25.09
186.338	18.94
186.557	-5.63
186.777	-9.73
186.997	14.85
187.216	35.33
187.436	-40.45
187.655	47.62
187.875	-9.73
188.095	37.38
188.314	33.28
188.534	53.76
188.753	14.85
188.973	51.71
189.192	18.94
189.412	-13.82
189.631	-30.21
189.851	61.95
190.07	20.99
190.29	18.94
190.509	-13.82
190.729	10.75
190.948	41.47
191.168	49.66
191.387	-13.82
191.607	-52.74
191.826	29.18
192.045	-65.02
192.265	47.62
192.484	-15.87
192.704	37.38
192.923	-24.06
193.142	23.04
193.362	41.47
193.581	82.43
193.8	12.8
194.02	31.23
194.239	6.66
194.458	90.62
194.678	-62.98
194.897	41.47
195.116	12.8
195.335	-30.21
195.555	-1.54
195.774	-65.02
195.993	10.75
196.212	20.99
196.432	49.66
196.651	-5.63
196.87	-32.26
197.089	100.86
197.308	4.61
197.528	-7.68
197.747	47.62
197.966	-114.17
198.185	8.7
198.404	25.09
198.623	6.66
198.842	-38.4
199.062	-1.54
199.281	-32.26
199.5	20.99
199.719	27.14
199.938	55.81
200.157	86.53
200.376	8.7
200.595	14.85
200.814	-5.63
201.033	12.8
201.252	66.05
201.471	43.52
201.69	0.51
201.909	74.24
202.128	2.56
202.347	-13.82
202.566	4.61
202.785	-15.87
203.004	-42.5
203.223	117.25
203.442	-42.5
203.661	-7.68
203.879	68.09
204.098	12.8
204.317	-5.63
204.536	-9.73
204.755	-46.59
204.974	59.9
205.193	39.42
205.411	59.9
205.63	-52.74
205.849	-32.26
206.068	23.04
206.287	72.19
206.505	-44.54
206.724	-26.11
206.943	-34.3
207.162	-17.92
207.381	-65.02
207.599	-9.73
207.818	-50.69
208.037	-5.63
208.255	72.19
208.474	20.99
208.693	64
208.911	14.85
209.13	25.09
209.349	33.28
209.567	-48.64
209.786	-9.73
210.005	-1.54
210.223	6.66
210.442	14.85
210.661	90.62
210.879	0.51
211.098	-5.63
211.316	96.77
211.535	92.67
211.753	-13.82
211.972	-15.87
212.191	-19.97
212.409	92.67
212.628	-26.11
212.846	-19.97
213.065	41.47
213.283	57.86
213.502	33.28
213.72	2.56
213.938	-54.78
214.157	-13.82
214.375	14.85
214.594	53.76
214.812	88.57
215.031	4.61
215.249	37.38
215.467	33.28
215.686	6.66
215.904	-1.54
216.122	39.42
216.341	94.72
216.559	27.14
216.778	33.28
216.996	51.71
217.214	-1.54
217.432	49.66
217.651	43.52
217.869	-30.21
218.087	4.61
218.306	-24.06
218.524	-1.54
218.742	6.66
218.96	-9.73
219.179	39.42
219.397	-3.58
219.615	43.52
219.833	-9.73
220.051	29.18
220.27	55.81
220.488	18.94
220.706	-52.74
220.924	-22.02
221.142	2.56
221.36	-15.87
221.578	35.33
221.796	-11.78
222.015	49.66
222.233	-30.21
222.451	53.76
222.669	47.62
222.887	31.23
223.105	127.49
223.323	-3.58
223.541	-5.63
223.759	-26.11
223.977	-24.06
224.195	20.99
224.413	-26.11
224.631	-9.73
224.849	23.04
225.067	64
225.285	-17.92
225.503	96.77
225.721	27.14
225.939	43.52
226.157	84.48
226.375	129.53
226.592	23.04
226.81	-34.3
227.028	14.85
227.246	59.9
227.464	64
227.682	29.18
227.9	33.28
228.117	33.28
228.335	76.29
228.553	-9.73
228.771	-46.59
228.989	27.14
229.206	39.42
229.424	10.75
229.642	16.9
229.86	-42.5
230.077	20.99
230.295	20.99
230.513	45.57
230.731	-9.73
230.948	14.85
231.166	4.61
231.384	-17.92
231.601	37.38
231.819	33.28
232.037	0.51
232.254	16.9
232.472	12.8
232.689	27.14
232.907	86.53
233.125	59.9
233.342	39.42
233.56	18.94
233.777	-19.97
233.995	16.9
234.213	10.75
234.43	33.28
234.648	47.62
234.865	43.52
235.083	12.8
235.3	2.56
235.518	49.66
235.735	109.05
235.953	115.2
236.17	-36.35
236.388	14.85
236.605	-17.92
236.822	82.43
237.04	39.42
237.257	92.67
237.475	23.04
237.692	-1.54
237.909	47.62
238.127	47.62
238.344	25.09
238.562	-17.92
238.779	-40.45
238.996	-46.59
239.214	-17.92
239.431	-9.73
239.648	-13.82
239.865	64
240.083	-3.58
240.3	14.85
240.517	8.7
240.735	59.9
240.952	74.24
241.169	-11.78
241.386	31.23
241.603	68.09
241.821	90.62
242.038	16.9
242.255	10.75
242.472	-13.82
242.689	6.66
242.907	0.51
243.124	2.56
243.341	29.18
243.558	-24.06
243.775	55.81
243.992	-58.88
244.209	14.85
244.426	10.75
244.643	-11.78
244.86	78.33
245.078	-32.26
245.295	78.33
245.512	51.71
245.729	49.66
245.946	37.38
246.163	59.9
246.38	18.94
246.597	-46.59
246.814	0.51
247.031	14.85
247.248	-17.92
247.464	-9.73
247.681	43.52
247.898	10.75
248.115	0.51
248.332	18.94
248.549	16.9
248.766	39.42
248.983	23.04
249.2	16.9
249.417	55.81
249.633	55.81
249.85	14.85
250.067	25.09
250.284	6.66
250.501	-13.82
250.717	29.18
250.934	-54.78
251.151	33.28
251.368	4.61
251.585	47.62
251.801	-7.68
252.018	27.14
252.235	45.57
252.451	-34.3
252.668	6.66
252.885	29.18
253.102	84.48
253.318	72.19
253.535	6.66
253.752	10.75
253.968	-81.41
254.185	-9.73
254.401	-11.78
254.618	53.76
254.835	-3.58
255.051	49.66
255.268	-11.78
255.484	0.51
255.701	-17.92
255.917	41.47
256.134	23.04
256.351	-13.82
256.567	-56.83
256.784	14.85
257	-22.02
257.217	68.09
257.433	-60.93
257.65	-13.82
257.866	35.33
258.082	-42.5
258.299	45.57
258.515	31.23
258.732	-3.58
258.948	-28.16
259.165	0.51
259.381	10.75
259.597	18.94
259.814	70.14
260.03	-50.69
260.246	-22.02
260.463	27.14
260.679	33.28
260.895	14.85
261.112	66.05
261.328	-38.4
261.544	-11.78
261.761	27.14
261.977	-7.68
262.193	23.04
262.409	2.56
262.626	74.24
262.842	41.47
263.058	47.62
263.274	47.62
263.49	14.85
263.707	37.38
263.923	12.8
264.139	20.99
264.355	-34.3
264.571	117.25
264.787	18.94
265.004	37.38
265.22	49.66
265.436	-38.4
265.652	6.66
265.868	92.67
266.084	-11.78
266.3	86.53
266.516	-24.06
266.732	45.57
266.948	27.14
267.164	23.04
267.38	-54.78
267.596	27.14
267.812	18.94
268.028	68.09
268.244	31.23
268.46	-30.21
268.676	8.7
268.892	39.42
269.108	-5.63
269.324	-48.64
269.54	-1.54
269.756	64
269.972	-13.82
270.188	-1.54
270.403	43.52
270.619	43.52
270.835	45.57
271.051	6.66
271.267	-32.26
271.483	98.81
271.698	72.19
271.914	72.19
272.13	18.94
272.346	55.81
272.562	-5.63
272.777	-32.26
272.993	39.42
273.209	35.33
273.425	27.14
273.64	37.38
273.856	-24.06
274.072	-32.26
274.287	-34.3
274.503	2.56
274.719	12.8
274.934	-3.58
275.15	-40.45
275.366	20.99
275.581	-34.3
275.797	4.61
276.012	-3.58
276.228	4.61
276.444	45.57
276.659	53.76
276.875	41.47
277.09	-22.02
277.306	-22.02
277.521	35.33
277.737	31.23
277.952	6.66
278.168	0.51
278.383	12.8
278.599	-17.92
278.814	57.86
279.03	16.9
279.245	41.47
279.461	31.23
279.676	102.91
279.892	-60.93
280.107	-1.54
280.322	18.94
280.538	59.9
280.753	4.61
280.969	8.7
281.184	33.28
281.399	39.42
281.615	-7.68
281.83	45.57
282.045	14.85
282.26	-24.06
282.476	20.99
282.691	74.24
282.906	76.29
283.122	88.57
283.337	-17.92
283.552	-9.73
283.767	-22.02
283.983	35.33
284.198	-13.82
284.413	43.52
284.628	64
284.843	8.7
285.058	12.8
285.274	-26.11
285.489	2.56
285.704	27.14
285.919	-24.06
286.134	-15.87
286.349	-13.82
286.564	25.09
286.779	43.52
286.995	43.52
287.21	6.66
287.425	-30.21
287.64	-17.92
287.855	80.38
288.07	-40.45
288.285	55.81
288.5	61.95
288.715	33.28
288.93	88.57
289.145	68.09
289.36	68.09
289.575	-30.21
289.79	14.85
290.004	76.29
290.219	72.19
290.434	-19.97
290.649	2.56
290.864	39.42
291.079	27.14
291.294	4.61
291.509	0.51
291.724	-34.3
291.938	72.19
292.153	55.81
292.368	43.52
292.583	-1.54
292.798	41.47
293.012	29.18
293.227	-9.73
293.442	35.33
293.657	20.99
293.871	45.57
294.086	-32.26
294.301	39.42
294.516	-34.3
294.73	57.86
294.945	-73.21
295.16	16.9
295.374	76.29
295.589	23.04
295.804	0.51
296.018	39.42
296.233	18.94
296.447	0.51
296.662	-24.06
296.877	64
297.091	76.29
297.306	4.61
297.52	29.18
297.735	98.81
297.949	16.9
298.164	25.09
298.378	20.99
298.593	35.33
298.807	2.56
299.022	14.85
299.236	18.94
299.451	55.81
299.665	-9.73
299.88	-15.87
300.094	6.66
300.309	84.48
300.523	64
300.737	16.9
300.952	-13.82
301.166	2.56
301.381	-15.87
301.595	-24.06
301.809	4.61
302.024	8.7
302.238	55.81
302.452	113.15
302.667	14.85
302.881	31.23
303.095	47.62
303.309	43.52
303.524	31.23
303.738	-9.73
303.952	-1.54
304.166	82.43
304.381	-32.26
304.595	8.7
304.809	25.09
305.023	12.8
305.237	-9.73
305.452	6.66
305.666	37.38
305.88	-36.35
306.094	27.14
306.308	-32.26
306.522	-9.73
306.736	-46.59
306.95	23.04
307.164	-32.26
307.379	-24.06
307.593	4.61
307.807	-28.16
308.021	102.91
308.235	76.29
308.449	12.8
308.663	18.94
308.877	68.09
309.091	-3.58
309.305	18.94
309.519	-44.54
309.733	-11.78
309.947	35.33
310.161	123.39
310.374	43.52
310.588	49.66
310.802	57.86
311.016	82.43
311.23	78.33
311.444	10.75
311.658	-7.68
311.872	-22.02
312.085	53.76
312.299	8.7
312.513	20.99
312.727	47.62
312.941	2.56
313.154	14.85
313.368	72.19
313.582	29.18
313.796	0.51
314.009	12.8
314.223	27.14
314.437	53.76
314.651	-42.5
314.864	-38.4
315.078	-28.16
315.292	68.09
315.505	29.18
315.719	53.76
315.933	20.99
316.146	-13.82
316.36	-17.92
316.573	10.75
316.787	43.52
317.001	98.81
317.214	-24.06
317.428	20.99
317.641	-1.54
317.855	39.42
318.068	4.61
318.282	37.38
318.495	98.81
318.709	82.43
318.922	20.99
319.136	86.53
319.349	84.48
319.563	39.42
319.776	-9.73
319.99	55.81
320.203	100.86
320.417	27.14
320.63	-54.78
320.843	41.47
321.057	-9.73
321.27	18.94
321.483	-3.58
321.697	88.57
321.91	-11.78
322.124	109.05
322.337	-5.63
322.55	-1.54
322.763	33.28
322.977	33.28
323.19	-42.5
323.403	6.66
323.617	47.62
323.83	12.8
324.043	16.9
324.256	25.09
324.469	-13.82
324.683	-38.4
324.896	6.66
325.109	4.61
325.322	-34.3
325.535	53.76
325.748	39.42
325.962	-26.11
326.175	55.81
326.388	-19.97
326.601	-15.87
326.814	23.04
327.027	41.47
327.24	117.25
327.453	10.75
327.666	-11.78
327.879	12.8
328.092	100.86
328.305	-9.73
328.518	59.9
328.731	86.53
328.944	47.62
329.157	41.47
329.37	49.66
329.583	-9.73
329.796	16.9
330.009	14.85
330.222	66.05
330.435	64
330.648	41.47
330.861	-24.06
331.073	64
331.286	25.09
331.499	8.7
331.712	27.14
331.925	64
332.138	43.52
332.35	2.56
332.563	55.81
332.776	12.8
332.989	47.62
333.202	51.71
333.414	45.57
333.627	33.28
333.84	-9.73
334.053	16.9
334.265	-15.87
334.478	20.99
334.691	-3.58
334.903	64
335.116	-9.73
335.329	18.94
335.541	8.7
335.754	92.67
335.966	-19.97
336.179	27.14
336.392	-3.58
336.604	84.48
336.817	35.33
337.029	-7.68
337.242	18.94
337.454	33.28
337.667	-26.11
337.88	92.67
338.092	51.71
338.305	-32.26
338.517	47.62
338.729	-1.54
338.942	-3.58
339.154	61.95
339.367	8.7
339.579	61.95
339.792	-34.3
340.004	-69.12
340.217	29.18
340.429	4.61
340.641	37.38
340.854	59.9
341.066	-30.21
341.278	94.72
341.491	23.04
341.703	-26.11
341.915	68.09
342.128	33.28
342.34	35.33
342.552	39.42
342.764	29.18
342.977	0.51
343.189	23.04
343.401	57.86
343.613	-3.58
343.826	57.86
344.038	29.18
344.25	41.47
344.462	14.85
344.674	66.05
344.886	64
345.099	41.47
345.311	68.09
345.523	29.18
345.735	-22.02
345.947	12.8
346.159	51.71
346.371	-5.63
346.583	18.94
346.795	43.52
347.007	-17.92
347.219	27.14
347.431	4.61
347.643	68.09
347.855	39.42
348.067	-3.58
348.279	18.94
348.491	-9.73
348.703	72.19
348.915	35.33
349.127	14.85
349.339	12.8
349.551	14.85
349.763	61.95
349.975	12.8
350.187	23.04
350.399	27.14
350.61	23.04
350.822	-13.82
351.034	70.14
351.246	4.61
351.458	29.18
351.669	84.48
351.881	23.04
352.093	51.71
352.305	10.75
352.517	61.95
352.728	61.95
352.94	-36.35
353.152	72.19
353.363	-46.59
353.575	0.51
353.787	55.81
353.999	27.14
354.21	55.81
354.422	80.38
354.633	-15.87
354.845	84.48
355.057	55.81
355.268	72.19
355.48	10.75
355.692	-11.78
355.903	100.86
356.115	72.19
356.326	25.09
356.538	0.51
356.749	47.62
356.961	47.62
357.172	68.09
357.384	14.85
357.595	16.9
357.807	55.81
358.018	-67.07
358.23	70.14
358.441	117.25
358.653	-24.06
358.864	-1.54
359.075	35.33
359.287	-3.58
359.498	98.81
359.709	35.33
359.921	88.57
360.132	47.62
360.344	104.96
360.555	4.61
360.766	8.7
360.977	-56.83
361.189	53.76
361.4	27.14
361.611	8.7
361.823	51.71
362.034	23.04
362.245	12.8
362.456	10.75
362.667	37.38
362.879	74.24
363.09	74.24
363.301	39.42
363.512	39.42
363.723	25.09
363.935	35.33
364.146	100.86
364.357	66.05
364.568	33.28
364.779	23.04
364.99	39.42
365.201	8.7
365.412	51.71
365.623	27.14
365.834	43.52
366.045	-34.3
366.256	49.66
366.467	33.28
366.678	23.04
366.889	74.24
367.1	-1.54
367.311	23.04
367.522	33.28
367.733	-5.63
367.944	72.19
368.155	47.62
368.366	70.14
368.577	84.48
368.788	119.29
368.999	-17.92
369.209	-54.78
369.42	37.38
369.631	68.09
369.842	49.66
370.053	49.66
370.264	45.57
370.474	29.18
370.685	6.66
370.896	35.33
371.107	94.72
371.317	115.2
371.528	2.56
371.739	-52.74
371.95	45.57
372.16	-15.87
372.371	14.85
372.582	-62.98
372.792	8.7
373.003	78.33
373.214	-3.58
373.424	113.15
373.635	-5.63
373.846	86.53
374.056	10.75
374.267	39.42
374.477	6.66
374.688	-7.68
374.898	12.8
375.109	31.23
375.319	55.81
375.53	47.62
375.74	86.53
375.951	-19.97
376.161	88.57
376.372	145.92
376.582	35.33
376.793	41.47
377.003	-15.87
377.214	59.9
377.424	111.1
377.635	10.75
377.845	35.33
378.055	45.57
378.266	76.29
378.476	39.42
378.686	88.57
378.897	43.52
379.107	98.81
379.317	53.76
379.528	-5.63
379.738	47.62
379.948	47.62
380.158	94.72
380.369	14.85
380.579	55.81
380.789	-30.21
380.999	47.62
381.21	59.9
381.42	16.9
381.63	31.23
381.84	72.19
382.05	82.43
382.261	41.47
382.471	16.9
382.681	27.14
382.891	49.66
383.101	-22.02
383.311	-24.06
383.521	20.99
383.731	72.19
383.941	-26.11
384.151	43.52
384.361	23.04
384.571	47.62
384.781	49.66
384.991	131.58
385.201	43.52
385.411	127.49
385.621	14.85
385.831	-5.63
386.041	16.9
386.251	61.95
386.461	39.42
386.671	-26.11
386.881	31.23
387.091	-46.59
387.301	64
387.511	39.42
387.72	43.52
387.93	31.23
388.14	-5.63
388.35	70.14
388.56	6.66
388.769	76.29
388.979	43.52
389.189	33.28
389.399	-5.63
389.609	64
389.818	43.52
390.028	39.42
390.238	37.38
390.447	45.57
390.657	88.57
390.867	37.38
391.076	37.38
391.286	16.9
391.496	39.42
391.705	23.04
391.915	2.56
392.125	-15.87
392.334	2.56
392.544	61.95
392.753	88.57
392.963	6.66
393.172	64
393.382	86.53
393.591	-28.16
393.801	168.45
394.01	72.19
394.22	78.33
394.429	123.39
394.639	6.66
394.848	178.69
395.058	80.38
395.267	61.95
395.477	102.91
395.686	131.58
395.895	84.48
396.105	72.19
396.314	49.66
396.524	45.57
396.733	25.09
396.942	117.25
397.152	49.66
397.361	100.86
397.57	102.91
397.78	66.05
397.989	74.24
398.198	170.49
398.407	27.14
398.617	39.42
398.826	94.72
399.035	18.94
399.244	72.19
399.453	80.38
399.663	-5.63
399.872	43.52
400.081	6.66
400.29	55.81
400.499	100.86
400.708	88.57
400.917	23.04
401.127	47.62
401.336	76.29
401.545	135.68
401.754	90.62
401.963	113.15
402.172	80.38
402.381	107.01
402.59	133.63
402.799	45.57
403.008	39.42
403.217	102.91
403.426	84.48
403.635	162.3
403.844	86.53
404.053	51.71
404.262	78.33
404.471	233.98
404.68	70.14
404.888	143.87
405.097	94.72
405.306	154.11
405.515	172.54
405.724	150.01
405.933	156.16
406.142	137.73
406.35	172.54
406.559	205.31
406.768	117.25
406.977	158.21
407.185	164.35
407.394	102.91
407.603	102.91
407.812	145.92
408.02	205.31
408.229	215.55
408.438	182.78
408.646	174.59
408.855	166.4
409.064	182.78
409.272	150.01
409.481	215.55
409.69	203.26
409.898	213.5
410.107	207.36
410.315	227.84
410.524	209.4
410.733	274.94
410.941	223.74
411.15	301.56
411.358	289.28
411.567	344.57
411.775	236.03
411.984	266.75
412.192	307.71
412.401	391.67
412.609	375.29
412.818	328.19
413.026	377.34
413.234	350.71
413.443	344.57
413.651	416.25
413.86	406.01
414.068	494.07
414.276	473.59
414.485	432.63
414.693	416.25
414.901	557.56
415.11	498.17
415.318	559.61
415.526	510.46
415.734	631.29
415.943	590.33
416.151	680.44
416.359	651.77
416.567	637.43
416.776	729.59
416.984	752.12
417.192	748.02
417.4	803.32
417.608	786.93
417.817	827.89
418.025	852.47
418.233	852.47
418.441	954.87
418.649	786.93
418.857	1018.35
419.065	1018.35
419.273	967.15
419.481	1004.02
419.689	1114.61
419.897	1227.25
420.105	1180.14
420.313	1251.82
420.521	1147.37
420.729	1204.72
420.937	1358.32
421.145	1251.82
421.353	1386.99
421.561	1583.59
421.769	1612.26
421.977	1638.89
422.185	1522.15
422.393	1706.47
422.601	1776.1
422.809	1677.8
423.017	1827.3
423.224	1933.79
423.432	1993.19
423.64	1968.61
423.848	2116.06
424.056	2066.91
424.263	2157.02
424.471	2191.84
424.679	2216.41
424.887	2419.16
425.094	2466.27
425.302	2423.26
425.51	2539.99
425.718	2648.54
425.925	2732.5
426.133	2685.4
426.341	2851.28
426.548	2994.64
426.756	3109.33
426.964	3045.84
427.171	3158.48
427.379	3394
427.586	3426.76
427.794	3400.14
428.001	3514.83
428.209	3699.14
428.417	3672.52
428.624	3971.52
428.832	4061.63
429.039	3979.72
429.247	4157.89
429.454	4452.8
429.662	4721.08
429.869	4313.53
430.076	4721.08
430.284	4630.97
430.491	4747.7
430.699	5030.32
430.906	5073.33
431.114	5118.39
431.321	5329.33
431.528	5312.94
431.736	5687.72
431.943	6164.9
432.15	5865.89
432.358	5861.8
432.565	6144.42
432.772	6347.17
432.979	6263.2
433.187	6611.36
433.394	6597.02
433.601	7152.02
433.808	7254.42
434.016	7045.52
434.223	7467.41
434.43	7987.59
434.637	7659.92
434.844	8126.85
435.052	8411.52
435.259	8341.89
435.466	8130.95
435.673	8266.11
435.88	8747.39
436.087	9169.27
436.294	9202.04
436.501	8991.09
436.708	9210.23
436.915	9576.81
437.122	10076.52
437.329	10230.12
437.537	10297.7
437.743	10352.99
437.95	10221.92
438.157	11149.65
438.364	11288.92
438.571	11086.17
438.778	11317.59
438.985	12403.01
439.192	11639.12
439.399	12067.14
439.606	12104.01
439.813	12507.46
440.02	13107.51
440.227	12923.19
440.433	13037.88
440.64	13336.88
440.847	13574.45
441.054	13701.42
441.261	14747.93
441.467	14561.57
441.674	14805.28
441.881	15059.23
442.088	15038.75
442.294	15075.61
442.501	15780.11
442.708	16091.4
442.914	16529.67
443.121	17168.63
443.328	16724.22
443.534	18096.36
443.741	17469.69
443.948	17230.07
444.154	18442.47
444.361	18254.06
444.568	18522.34
444.774	18555.11
444.981	18735.33
445.187	19333.34
445.394	20111.57
445.6	19675.35
445.807	21723.32
446.013	20771.01
446.22	21145.79
446.426	21854.39
446.633	22132.91
446.839	22825.12
447.046	21807.28
447.252	22991.01
447.459	23283.87
447.665	22712.49
447.871	24027.28
448.078	24770.69
448.284	23732.37
448.491	24676.49
448.697	25108.61
448.903	26179.7
449.11	26124.4
449.316	25372.8
449.522	26091.63
449.728	26413.16
449.935	26753.13
450.141	26658.92
450.347	27291.74
450.553	26259.57
450.76	26695.78
450.966	27625.56
451.172	27189.35
451.378	27621.47
451.584	26933.35
451.791	27875.41
451.997	27893.85
452.203	28360.78
452.409	28248.14
452.615	28020.82
452.821	27011.17
453.027	26538.09
453.233	27943
453.44	26853.48
453.646	27600.99
453.852	27119.71
454.058	27990.1
454.264	26554.47
454.47	27603.03
454.676	26830.95
454.882	27363.42
455.088	25110.66
455.294	25497.72
455.5	25585.79
455.705	26015.86
455.911	25315.45
456.117	24492.17
456.323	24232.08
456.529	22847.65
456.735	23928.98
456.941	23099.55
457.147	22845.6
457.352	21987.5
457.558	21676.21
457.764	21856.43
457.97	21143.74
458.176	20973.76
458.381	21053.63
458.587	19939.54
458.793	19814.61
458.999	18761.95
459.204	20025.55
459.41	19505.37
459.616	18258.15
459.821	18276.59
460.027	17975.53
460.233	17979.63
460.438	16967.93
460.644	17012.99
460.85	16388.36
461.055	16269.58
461.261	16019.72
461.466	14821.66
461.672	14524.71
461.878	15520.02
462.083	14508.32
462.289	14149.93
462.494	13908.27
462.7	13285.69
462.905	13050.17
463.111	13637.94
463.316	13617.46
463.522	13365.56
463.727	13263.16
463.932	13144.38
464.138	13201.72
464.343	13021.5
464.549	12636.48
464.754	13283.64
464.959	13015.35
465.165	12998.97
465.37	12472.64
465.575	12446.02
465.781	12673.34
465.986	12669.25
466.191	12394.82
466.397	11886.92
466.602	11309.4
466.807	12036.42
467.012	11954.51
467.218	11833.68
467.423	11673.93
467.628	11759.95
467.833	12280.13
468.038	11725.13
468.244	11489.62
468.449	11819.34
