Data from USB4F104151__259__11-11-50-208.txt Node

Date: Wed Mar 12 11:11:50 EDT 2025
User: louis
Spectrometer: USB4F10415
Trigger mode: 4
Integration Time (sec): 2.000000E-2
Scans to average: 1
Electric dark correction enabled: true
Nonlinearity correction enabled: false
Boxcar width: 0
XAxis mode: Wavelengths
Number of Pixels in Spectrum: 3648
>>>>>Begin Spectral Data<<<<<
178.204	-38.06
178.424	-38.06
178.644	-38.06
178.864	-83.11
179.084	-87.21
179.304	66.39
179.524	23.38
179.744	-74.92
179.964	-38.06
180.184	68.44
180.404	37.72
180.624	-33.96
180.844	15.19
181.064	72.53
181.283	-81.07
181.503	0.85
181.723	-56.49
181.943	-38.06
182.163	-11.43
182.383	13.14
182.602	4.95
182.822	-7.34
183.042	-40.11
183.262	41.81
183.482	17.24
183.701	-40.11
183.921	88.92
184.141	-15.53
184.361	37.72
184.58	11.09
184.8	17.24
185.02	-50.35
185.239	29.52
185.459	29.52
185.679	-38.06
185.898	-9.39
186.118	74.58
186.338	56.15
186.557	21.33
186.777	-60.59
186.997	-7.34
187.216	25.43
187.436	7
187.655	-44.2
187.875	109.4
188.095	107.35
188.314	21.33
188.534	33.62
188.753	29.52
188.973	7
189.192	60.24
189.412	125.78
189.631	23.38
189.851	-19.63
190.07	54.1
190.29	-74.92
190.509	-7.34
190.729	-9.39
190.948	25.43
191.168	80.72
191.387	62.29
191.607	-23.72
191.826	13.14
192.045	-11.43
192.265	-36.01
192.484	13.14
192.704	17.24
192.923	-5.29
193.142	-1.19
193.362	45.91
193.581	-23.72
193.8	-13.48
194.02	66.39
194.239	7
194.458	37.72
194.678	-54.44
194.897	62.29
195.116	35.67
195.335	25.43
195.555	50
195.774	-11.43
195.993	21.33
196.212	39.76
196.432	2.9
196.651	-54.44
196.87	13.14
197.089	4.95
197.308	45.91
197.528	99.16
197.747	2.9
197.966	0.85
198.185	66.39
198.404	-38.06
198.623	41.81
198.842	86.87
199.062	-29.87
199.281	93.01
199.5	15.19
199.719	29.52
199.938	62.29
200.157	56.15
200.376	25.43
200.595	76.63
200.814	13.14
201.033	9.05
201.252	41.81
201.471	7
201.69	29.52
201.909	97.11
202.128	13.14
202.347	82.77
202.566	25.43
202.785	-27.82
203.004	52.05
203.223	-15.53
203.442	45.91
203.661	-25.77
203.879	68.44
204.098	7
204.317	17.24
204.536	93.01
204.755	62.29
204.974	17.24
205.193	45.91
205.411	76.63
205.63	-5.29
205.849	103.25
206.068	17.24
206.287	33.62
206.505	70.48
206.724	66.39
206.943	25.43
207.162	-42.15
207.381	-13.48
207.599	115.54
207.818	43.86
208.037	31.57
208.255	13.14
208.474	-15.53
208.693	-13.48
208.911	56.15
209.13	43.86
209.349	-11.43
209.567	76.63
209.786	45.91
210.005	29.52
210.223	-42.15
210.442	-40.11
210.661	23.38
210.879	21.33
211.098	31.57
211.316	25.43
211.535	7
211.753	4.95
211.972	7
212.191	-42.15
212.409	21.33
212.628	58.2
212.846	33.62
213.065	11.09
213.283	74.58
213.502	2.9
213.72	35.67
213.938	-40.11
214.157	29.52
214.375	56.15
214.594	-40.11
214.812	43.86
215.031	113.49
215.249	-1.19
215.467	101.2
215.686	17.24
215.904	60.24
216.122	-36.01
216.341	97.11
216.559	-5.29
216.778	70.48
216.996	-1.19
217.214	82.77
217.432	21.33
217.651	60.24
217.869	2.9
218.087	15.19
218.306	84.82
218.524	21.33
218.742	21.33
218.96	80.72
219.179	4.95
219.397	7
219.615	-13.48
219.833	2.9
220.051	17.24
220.27	115.54
220.488	-29.87
220.706	62.29
220.924	7
221.142	23.38
221.36	4.95
221.578	50
221.796	-64.68
222.015	62.29
222.233	35.67
222.451	37.72
222.669	0.85
222.887	25.43
223.105	-19.63
223.323	-3.24
223.541	-3.24
223.759	13.14
223.977	62.29
224.195	-3.24
224.413	58.2
224.631	17.24
224.849	105.3
225.067	70.48
225.285	21.33
225.503	70.48
225.721	31.57
225.939	-42.15
226.157	43.86
226.375	82.77
226.592	13.14
226.81	17.24
227.028	121.68
227.246	11.09
227.464	-15.53
227.682	23.38
227.9	47.96
228.117	54.1
228.335	-31.91
228.553	50
228.771	2.9
228.989	107.35
229.206	-1.19
229.424	-29.87
229.642	99.16
229.86	4.95
230.077	29.52
230.295	142.16
230.513	43.86
230.731	47.96
230.948	39.76
231.166	70.48
231.384	2.9
231.601	17.24
231.819	9.05
232.037	41.81
232.254	21.33
232.472	31.57
232.689	4.95
232.907	19.29
233.125	90.96
233.342	78.68
233.56	-56.49
233.777	-11.43
233.995	35.67
234.213	64.34
234.43	11.09
234.648	29.52
234.865	-19.63
235.083	68.44
235.3	19.29
235.518	19.29
235.735	19.29
235.953	76.63
236.17	9.05
236.388	47.96
236.605	11.09
236.822	39.76
237.04	17.24
237.257	52.05
237.475	-48.3
237.692	115.54
237.909	58.2
238.127	88.92
238.344	17.24
238.562	47.96
238.779	27.48
238.996	43.86
239.214	0.85
239.431	-3.24
239.648	11.09
239.865	15.19
240.083	31.57
240.3	68.44
240.517	-11.43
240.735	-74.92
240.952	70.48
241.169	4.95
241.386	-9.39
241.603	-23.72
241.821	29.52
242.038	33.62
242.255	33.62
242.472	13.14
242.689	62.29
242.907	80.72
243.124	37.72
243.341	25.43
243.558	9.05
243.775	29.52
243.992	64.34
244.209	21.33
244.426	56.15
244.643	25.43
244.86	29.52
245.078	19.29
245.295	-76.97
245.512	-7.34
245.729	9.05
245.946	74.58
246.163	19.29
246.38	-36.01
246.597	50
246.814	4.95
247.031	-48.3
247.248	64.34
247.464	15.19
247.681	45.91
247.898	0.85
248.115	66.39
248.332	33.62
248.549	19.29
248.766	95.06
248.983	29.52
249.2	-62.63
249.417	25.43
249.633	-48.3
249.85	78.68
250.067	50
250.284	29.52
250.501	37.72
250.717	105.3
250.934	25.43
251.151	60.24
251.368	105.3
251.585	9.05
251.801	13.14
252.018	21.33
252.235	60.24
252.451	-42.15
252.668	21.33
252.885	-5.29
253.102	35.67
253.318	29.52
253.535	-62.63
253.752	43.86
253.968	29.52
254.185	45.91
254.401	-15.53
254.618	78.68
254.835	-19.63
255.051	76.63
255.268	43.86
255.484	70.48
255.701	29.52
255.917	29.52
256.134	-25.77
256.351	33.62
256.567	7
256.784	-11.43
257	25.43
257.217	-21.67
257.433	-11.43
257.65	103.25
257.866	76.63
258.082	33.62
258.299	27.48
258.515	27.48
258.732	64.34
258.948	60.24
259.165	99.16
259.381	70.48
259.597	33.62
259.814	-42.15
260.03	-117.93
260.246	19.29
260.463	86.87
260.679	39.76
260.895	-42.15
261.112	-52.39
261.328	11.09
261.544	0.85
261.761	2.9
261.977	-13.48
262.193	11.09
262.409	-46.25
262.626	80.72
262.842	-36.01
263.058	9.05
263.274	33.62
263.49	13.14
263.707	39.76
263.923	60.24
264.139	64.34
264.355	-7.34
264.571	86.87
264.787	-60.59
265.004	0.85
265.22	27.48
265.436	66.39
265.652	-3.24
265.868	158.55
266.084	78.68
266.3	-42.15
266.516	-13.48
266.732	-19.63
266.948	54.1
267.164	41.81
267.38	76.63
267.596	7
267.812	74.58
268.028	23.38
268.244	4.95
268.46	62.29
268.676	0.85
268.892	9.05
269.108	4.95
269.324	7
269.54	2.9
269.756	54.1
269.972	-21.67
270.188	7
270.403	54.1
270.619	56.15
270.835	21.33
271.051	25.43
271.267	-15.53
271.483	54.1
271.698	-11.43
271.914	27.48
272.13	52.05
272.346	41.81
272.562	-3.24
272.777	31.57
272.993	29.52
273.209	25.43
273.425	43.86
273.64	-58.54
273.856	41.81
274.072	0.85
274.287	7
274.503	88.92
274.719	60.24
274.934	88.92
275.15	-19.63
275.366	15.19
275.581	7
275.797	82.77
276.012	17.24
276.228	-3.24
276.444	52.05
276.659	72.53
276.875	-19.63
277.09	68.44
277.306	43.86
277.521	15.19
277.737	9.05
277.952	41.81
278.168	72.53
278.383	31.57
278.599	90.96
278.814	45.91
279.03	27.48
279.245	82.77
279.461	-23.72
279.676	41.81
279.892	-64.68
280.107	2.9
280.322	25.43
280.538	11.09
280.753	-46.25
280.969	13.14
281.184	31.57
281.399	15.19
281.615	9.05
281.83	-31.91
282.045	41.81
282.26	17.24
282.476	41.81
282.691	97.11
282.906	21.33
283.122	-11.43
283.337	17.24
283.552	17.24
283.767	-15.53
283.983	37.72
284.198	-5.29
284.413	41.81
284.628	-9.39
284.843	9.05
285.058	50
285.274	-58.54
285.489	125.78
285.704	80.72
285.919	97.11
286.134	-15.53
286.349	37.72
286.564	19.29
286.779	66.39
286.995	33.62
287.21	50
287.425	31.57
287.64	-74.92
287.855	-17.58
288.07	-83.11
288.285	50
288.5	13.14
288.715	107.35
288.93	-42.15
289.145	0.85
289.36	7
289.575	21.33
289.79	25.43
290.004	74.58
290.219	-3.24
290.434	-3.24
290.649	-11.43
290.864	39.76
291.079	11.09
291.294	43.86
291.509	29.52
291.724	-3.24
291.938	-66.73
292.153	78.68
292.368	23.38
292.583	47.96
292.798	52.05
293.012	7
293.227	-15.53
293.442	-5.29
293.657	88.92
293.871	62.29
294.086	70.48
294.301	33.62
294.516	4.95
294.73	15.19
294.945	-79.02
295.16	35.67
295.374	88.92
295.589	72.53
295.804	39.76
296.018	33.62
296.233	101.2
296.447	39.76
296.662	152.4
296.877	-9.39
297.091	52.05
297.306	45.91
297.52	25.43
297.735	13.14
297.949	11.09
298.164	-23.72
298.378	35.67
298.593	70.48
298.807	-11.43
299.022	17.24
299.236	9.05
299.451	31.57
299.665	-11.43
299.88	35.67
300.094	-11.43
300.309	25.43
300.523	33.62
300.737	80.72
300.952	15.19
301.166	45.91
301.381	29.52
301.595	45.91
301.809	29.52
302.024	15.19
302.238	-15.53
302.452	76.63
302.667	4.95
302.881	35.67
303.095	58.2
303.309	56.15
303.524	21.33
303.738	13.14
303.952	-48.3
304.166	47.96
304.381	76.63
304.595	37.72
304.809	11.09
305.023	25.43
305.237	-15.53
305.452	56.15
305.666	86.87
305.88	62.29
306.094	95.06
306.308	35.67
306.522	111.44
306.736	39.76
306.95	-3.24
307.164	9.05
307.379	-42.15
307.593	17.24
307.807	58.2
308.021	11.09
308.235	27.48
308.449	17.24
308.663	-25.77
308.877	15.19
309.091	19.29
309.305	4.95
309.519	4.95
309.733	62.29
309.947	45.91
310.161	13.14
310.374	33.62
310.588	62.29
310.802	9.05
311.016	-1.19
311.23	39.76
311.444	4.95
311.658	113.49
311.872	105.3
312.085	-3.24
312.299	33.62
312.513	21.33
312.727	109.4
312.941	-40.11
313.154	72.53
313.368	29.52
313.582	-3.24
313.796	41.81
314.009	109.4
314.223	15.19
314.437	74.58
314.651	37.72
314.864	-38.06
315.078	45.91
315.292	72.53
315.505	-7.34
315.719	70.48
315.933	37.72
316.146	-58.54
316.36	33.62
316.573	76.63
316.787	107.35
317.001	19.29
317.214	54.1
317.428	-31.91
317.641	-48.3
317.855	-15.53
318.068	4.95
318.282	27.48
318.495	70.48
318.709	52.05
318.922	70.48
319.136	2.9
319.349	60.24
319.563	39.76
319.776	111.44
319.99	54.1
320.203	58.2
320.417	4.95
320.63	62.29
320.843	23.38
321.057	19.29
321.27	123.73
321.483	86.87
321.697	-15.53
321.91	17.24
322.124	25.43
322.337	105.3
322.55	66.39
322.763	76.63
322.977	21.33
323.19	-21.67
323.403	25.43
323.617	50
323.83	76.63
324.043	-7.34
324.256	29.52
324.469	7
324.683	27.48
324.896	-29.87
325.109	95.06
325.322	-36.01
325.535	78.68
325.748	62.29
325.962	74.58
326.175	-40.11
326.388	58.2
326.601	4.95
326.814	78.68
327.027	121.68
327.24	58.2
327.453	25.43
327.666	103.25
327.879	41.81
328.092	29.52
328.305	-7.34
328.518	-1.19
328.731	-23.72
328.944	80.72
329.157	21.33
329.37	-3.24
329.583	76.63
329.796	140.12
330.009	-29.87
330.222	9.05
330.435	33.62
330.648	74.58
330.861	97.11
331.073	88.92
331.286	62.29
331.499	50
331.712	13.14
331.925	15.19
332.138	47.96
332.35	29.52
332.563	19.29
332.776	115.54
332.989	-1.19
333.202	66.39
333.414	41.81
333.627	50
333.84	13.14
334.053	54.1
334.265	29.52
334.478	-11.43
334.691	-23.72
334.903	41.81
335.116	113.49
335.329	90.96
335.541	43.86
335.754	15.19
335.966	29.52
336.179	64.34
336.392	35.67
336.604	58.2
336.817	62.29
337.029	19.29
337.242	66.39
337.454	123.73
337.667	41.81
337.88	-19.63
338.092	21.33
338.305	41.81
338.517	23.38
338.729	29.52
338.942	27.48
339.154	-1.19
339.367	-17.58
339.579	-7.34
339.792	-17.58
340.004	70.48
340.217	11.09
340.429	25.43
340.641	-13.48
340.854	29.52
341.066	0.85
341.278	60.24
341.491	58.2
341.703	74.58
341.915	-42.15
342.128	-17.58
342.34	39.76
342.552	21.33
342.764	41.81
342.977	95.06
343.189	19.29
343.401	39.76
343.613	19.29
343.826	23.38
344.038	-7.34
344.25	31.57
344.462	-21.67
344.674	33.62
344.886	33.62
345.099	74.58
345.311	-7.34
345.523	56.15
345.735	33.62
345.947	41.81
346.159	45.91
346.371	27.48
346.583	68.44
346.795	50
347.007	11.09
347.219	62.29
347.431	9.05
347.643	64.34
347.855	33.62
348.067	74.58
348.279	21.33
348.491	-38.06
348.703	45.91
348.915	47.96
349.127	-1.19
349.339	29.52
349.551	19.29
349.763	72.53
349.975	15.19
350.187	60.24
350.399	-25.77
350.61	19.29
350.822	21.33
351.034	78.68
351.246	84.82
351.458	4.95
351.669	19.29
351.881	66.39
352.093	17.24
352.305	88.92
352.517	52.05
352.728	27.48
352.94	66.39
353.152	-13.48
353.363	-9.39
353.575	105.3
353.787	13.14
353.999	142.16
354.21	142.16
354.422	-1.19
354.633	52.05
354.845	74.58
355.057	62.29
355.268	-5.29
355.48	-9.39
355.692	-9.39
355.903	72.53
356.115	33.62
356.326	17.24
356.538	80.72
356.749	-11.43
356.961	50
357.172	27.48
357.384	52.05
357.595	74.58
357.807	72.53
358.018	-36.01
358.23	60.24
358.441	78.68
358.653	33.62
358.864	-7.34
359.075	35.67
359.287	-17.58
359.498	29.52
359.709	99.16
359.921	41.81
360.132	31.57
360.344	17.24
360.555	7
360.766	117.59
360.977	13.14
361.189	62.29
361.4	60.24
361.611	50
361.823	72.53
362.034	150.36
362.245	31.57
362.456	-7.34
362.667	19.29
362.879	50
363.09	29.52
363.301	29.52
363.512	35.67
363.723	11.09
363.935	47.96
364.146	35.67
364.357	17.24
364.568	29.52
364.779	-44.2
364.99	80.72
365.201	56.15
365.412	-15.53
365.623	-27.82
365.834	43.86
366.045	41.81
366.256	15.19
366.467	13.14
366.678	35.67
366.889	62.29
367.1	76.63
367.311	33.62
367.522	58.2
367.733	23.38
367.944	72.53
368.155	103.25
368.366	52.05
368.577	-21.67
368.788	78.68
368.999	-70.83
369.209	25.43
369.42	25.43
369.631	41.81
369.842	-25.77
370.053	78.68
370.264	-7.34
370.474	17.24
370.685	47.96
370.896	70.48
371.107	88.92
371.317	56.15
371.528	-5.29
371.739	99.16
371.95	101.2
372.16	-5.29
372.371	-5.29
372.582	23.38
372.792	74.58
373.003	47.96
373.214	17.24
373.424	33.62
373.635	70.48
373.846	78.68
374.056	86.87
374.267	64.34
374.477	-54.44
374.688	68.44
374.898	13.14
375.109	-3.24
375.319	70.48
375.53	115.54
375.74	-5.29
375.951	4.95
376.161	17.24
376.372	105.3
376.582	78.68
376.793	-17.58
377.003	58.2
377.214	109.4
377.424	31.57
377.635	47.96
377.845	47.96
378.055	99.16
378.266	47.96
378.476	70.48
378.686	29.52
378.897	25.43
379.107	82.77
379.317	93.01
379.528	7
379.738	93.01
379.948	29.52
380.158	99.16
380.369	43.86
380.579	23.38
380.789	-17.58
380.999	103.25
381.21	47.96
381.42	35.67
381.63	17.24
381.84	47.96
382.05	11.09
382.261	9.05
382.471	-17.58
382.681	-21.67
382.891	78.68
383.101	80.72
383.311	70.48
383.521	64.34
383.731	82.77
383.941	78.68
384.151	62.29
384.361	29.52
384.571	-17.58
384.781	41.81
384.991	37.72
385.201	140.12
385.411	47.96
385.621	80.72
385.831	43.86
386.041	72.53
386.251	80.72
386.461	105.3
386.671	0.85
386.881	43.86
387.091	58.2
387.301	97.11
387.511	-44.2
387.72	2.9
387.93	72.53
388.14	15.19
388.35	9.05
388.56	45.91
388.769	121.68
388.979	47.96
389.189	56.15
389.399	60.24
389.609	86.87
389.818	50
390.028	97.11
390.238	29.52
390.447	31.57
390.657	56.15
390.867	70.48
391.076	23.38
391.286	50
391.496	62.29
391.705	9.05
391.915	70.48
392.125	0.85
392.334	105.3
392.544	52.05
392.753	80.72
392.963	-50.35
393.172	158.55
393.382	41.81
393.591	37.72
393.801	56.15
394.01	50
394.22	86.87
394.429	25.43
394.639	62.29
394.848	45.91
395.058	68.44
395.267	80.72
395.477	80.72
395.686	115.54
395.895	37.72
396.105	45.91
396.314	103.25
396.524	4.95
396.733	58.2
396.942	158.55
397.152	88.92
397.361	156.5
397.57	82.77
397.78	4.95
397.989	123.73
398.198	170.83
398.407	-1.19
398.617	84.82
398.826	31.57
399.035	113.49
399.244	90.96
399.453	119.64
399.663	136.02
399.872	82.77
400.081	72.53
400.29	95.06
400.499	179.03
400.708	146.26
400.917	107.35
401.127	66.39
401.336	156.5
401.545	111.44
401.754	99.16
401.963	95.06
402.172	95.06
402.381	-5.29
402.59	66.39
402.799	86.87
403.008	168.79
403.217	95.06
403.426	88.92
403.635	45.91
403.844	66.39
404.053	66.39
404.262	136.02
404.471	129.88
404.68	162.64
404.888	64.34
405.097	80.72
405.306	97.11
405.515	86.87
405.724	97.11
405.933	37.72
406.142	148.31
406.35	105.3
406.559	168.79
406.768	127.83
406.977	148.31
407.185	197.46
407.394	179.03
407.603	140.12
407.812	131.92
408.02	131.92
408.229	181.07
408.438	160.59
408.646	207.7
408.855	205.65
409.064	191.31
409.272	279.38
409.481	242.51
409.69	191.31
409.898	201.55
410.107	246.61
410.315	287.57
410.524	228.18
410.733	211.79
410.941	187.22
411.15	256.85
411.358	242.51
411.567	271.19
411.775	301.9
411.984	299.86
412.192	332.62
412.401	271.19
412.609	361.3
412.818	426.83
413.026	369.49
413.234	383.82
413.443	353.1
413.651	281.43
413.86	383.82
414.068	404.3
414.276	443.21
414.485	389.97
414.693	527.18
414.901	574.28
415.11	471.89
415.318	469.84
415.526	494.41
415.734	586.57
415.943	580.43
416.151	547.66
416.359	664.4
416.567	566.09
416.776	521.04
416.984	654.16
417.192	658.25
417.4	670.54
417.608	758.6
417.817	801.61
418.025	746.31
418.233	863.05
418.441	777.03
418.649	854.86
418.857	920.39
419.065	865.1
419.273	873.29
419.481	918.34
419.689	1037.13
419.897	1151.81
420.105	1073.99
420.313	1168.2
420.521	1123.14
420.729	1096.52
420.937	1084.23
421.145	1297.22
421.353	1270.59
421.561	1356.61
421.769	1436.48
421.977	1399.62
422.185	1442.62
422.393	1489.73
422.601	1508.16
422.809	1551.17
423.017	1637.18
423.224	1663.8
423.432	1780.54
423.64	1721.15
423.848	1897.27
424.056	1884.98
424.263	1981.24
424.471	2054.97
424.679	2081.59
424.887	2163.51
425.094	2296.63
425.302	2186.04
425.51	2339.63
425.718	2362.16
425.925	2470.7
426.133	2476.85
426.341	2650.92
426.548	2775.85
426.756	2708.27
426.964	2657.07
427.171	2831.15
427.379	3029.8
427.586	3023.66
427.794	3105.57
428.001	3248.93
428.209	3359.52
428.417	3398.43
428.624	3588.89
428.832	3715.87
429.039	3660.57
429.247	3586.85
429.454	3986.2
429.662	4160.28
429.869	4051.74
430.076	4111.13
430.284	4086.55
430.491	4354.83
430.699	4453.14
430.906	4537.1
431.114	4481.81
431.321	4780.81
431.528	4817.68
431.736	5214.98
431.943	5470.98
432.15	5255.94
432.358	5131.02
432.565	5466.88
432.772	5505.79
432.979	5745.41
433.187	5921.53
433.394	5968.63
433.601	6345.46
433.808	6433.52
434.016	6374.13
434.223	6628.08
434.43	7166.7
434.637	6941.42
434.844	7332.58
435.052	7369.44
435.259	7287.53
435.466	7441.12
435.673	7295.72
435.88	7961.31
436.087	7953.12
436.294	8311.51
436.501	8141.53
436.708	8334.04
436.915	8387.29
437.122	8846.03
437.329	8852.17
437.537	9175.75
437.743	9337.54
437.95	9243.34
438.157	9448.13
438.364	9982.65
438.571	10091.2
438.778	10056.38
438.985	10916.53
439.192	10539.7
439.399	10846.9
439.606	10558.13
439.813	11217.58
440.02	11799.2
440.227	11567.78
440.433	11713.19
440.64	12010.14
440.847	12008.09
441.054	12200.6
441.261	13005.45
441.467	12821.14
441.674	12929.68
441.881	13329.03
442.088	13757.06
442.294	13488.78
442.501	13857.41
442.708	13984.38
442.914	14471.8
443.121	15159.92
443.328	14715.51
443.534	15700.58
443.741	15315.56
443.948	14955.12
444.154	16427.61
444.361	16208.48
444.568	16349.79
444.774	16198.24
444.981	16630.36
445.187	16951.89
445.394	17646.15
445.6	17228.37
445.807	19167.79
446.013	18162.24
446.22	18674.23
446.426	19352.11
446.633	19388.97
446.839	20285.98
447.046	19118.64
447.252	20435.49
447.459	20273.7
447.665	20228.64
447.871	20906.52
448.078	22057.48
448.284	20701.72
448.491	21725.71
448.697	22129.16
448.903	22665.72
449.11	22737.4
449.316	22659.58
449.522	22987.25
449.728	23380.46
449.935	23478.77
450.141	23335.41
450.347	24037.86
450.553	22934.01
450.76	23638.51
450.966	24340.96
451.172	23779.82
451.378	24805.85
451.584	24400.35
451.791	24605.15
451.997	24488.42
452.203	24689.12
452.409	24908.25
452.615	24723.93
452.821	24070.63
453.027	23681.52
453.233	24816.09
453.44	23914.98
453.646	24226.28
453.852	24248.8
454.058	24570.33
454.264	23763.43
454.47	24205.8
454.676	23509.49
454.882	24474.08
455.088	22467.07
455.294	22708.73
455.5	22979.06
455.705	23298.55
455.911	22247.94
456.117	21885.45
456.323	21674.51
456.529	20513.31
456.735	21062.16
456.941	20521.5
457.147	20349.47
457.352	19784.23
457.558	19546.67
457.764	19288.62
457.97	19137.07
458.176	18747.96
458.381	18489.92
458.587	17844.81
458.793	17830.47
458.999	16753.24
459.204	18094.66
459.41	17783.37
459.616	16380.51
459.821	16618.07
460.027	16314.97
460.233	15968.87
460.438	15080.05
460.644	15493.74
460.85	14551.67
461.055	14643.83
461.261	14258.81
461.466	13523.59
461.672	13040.27
461.878	13841.03
462.083	12964.5
462.289	12739.22
462.494	12458.65
462.7	12157.6
462.905	11801.25
463.111	12233.37
463.316	12296.86
463.522	11952.8
463.727	11973.28
463.932	11797.15
464.138	11917.98
464.343	11776.67
464.549	11469.48
464.754	11842.21
464.959	11764.39
465.165	11758.24
465.37	11405.99
465.575	10975.92
465.781	11575.97
465.986	11268.78
466.191	11059.88
466.397	10836.66
466.602	10216.12
466.807	10609.33
467.012	10635.96
467.218	10670.77
467.423	10623.67
467.628	10592.95
467.833	11010.73
468.038	10607.28
468.244	10330.81
468.449	10676.91
468.654	10164.92
468.859	10353.34
469.064	10252.98
