Data from USB4F104151__105__11-07-08-639.txt Node

Date: Wed Mar 12 11:07:08 EDT 2025
User: louis
Spectrometer: USB4F10415
Trigger mode: 4
Integration Time (sec): 2.000000E-2
Scans to average: 1
Electric dark correction enabled: true
Nonlinearity correction enabled: false
Boxcar width: 0
XAxis mode: Wavelengths
Number of Pixels in Spectrum: 3648
>>>>>Begin Spectral Data<<<<<
178.204	-60.42
178.424	-60.42
178.644	-60.42
178.864	-70.65
179.084	-33.79
179.304	-44.03
179.524	13.31
179.744	35.84
179.964	-7.17
180.184	7.17
180.404	27.65
180.624	-9.22
180.844	-41.98
181.064	3.07
181.283	7.17
181.503	-70.65
181.723	78.85
181.943	-13.31
182.163	23.55
182.383	29.7
182.602	80.89
182.822	9.22
183.042	35.84
183.262	21.5
183.482	-13.31
183.701	25.6
183.921	66.56
184.141	-31.74
184.361	93.18
184.58	54.27
184.8	17.41
185.02	-17.41
185.239	78.85
185.459	56.32
185.679	35.84
185.898	5.12
186.118	48.13
186.338	74.75
186.557	64.51
186.777	-48.13
186.997	7.17
187.216	11.26
187.436	44.03
187.655	37.89
187.875	136.19
188.095	19.46
188.314	62.46
188.534	89.09
188.753	15.36
188.973	93.18
189.192	50.18
189.412	52.22
189.631	144.38
189.851	44.03
190.07	56.32
190.29	-7.17
190.509	23.55
190.729	48.13
190.948	74.75
191.168	138.24
191.387	80.89
191.607	70.65
191.826	29.7
192.045	50.18
192.265	-37.89
192.484	113.66
192.704	33.79
192.923	91.13
193.142	97.28
193.362	82.94
193.581	97.28
193.8	23.55
194.02	91.13
194.239	84.99
194.458	48.13
194.678	44.03
194.897	97.28
195.116	7.17
195.335	66.56
195.555	-1.02
195.774	72.7
195.993	152.57
196.212	58.37
196.432	-27.65
196.651	46.08
196.87	13.31
197.089	111.61
197.308	78.85
197.528	70.65
197.747	66.56
197.966	72.7
198.185	107.52
198.404	41.98
198.623	17.41
198.842	125.95
199.062	37.89
199.281	113.66
199.5	17.41
199.719	-3.07
199.938	-15.36
200.157	82.94
200.376	-5.12
200.595	52.22
200.814	62.46
201.033	93.18
201.252	17.41
201.471	72.7
201.69	89.09
201.909	70.65
202.128	15.36
202.347	5.12
202.566	31.74
202.785	50.18
203.004	-25.6
203.223	56.32
203.442	48.13
203.661	56.32
203.879	-17.41
204.098	115.71
204.317	11.26
204.536	74.75
204.755	39.94
204.974	33.79
205.193	9.22
205.411	91.13
205.63	74.75
205.849	35.84
206.068	9.22
206.287	5.12
206.505	60.42
206.724	60.42
206.943	29.7
207.162	-9.22
207.381	80.89
207.599	54.27
207.818	76.8
208.037	48.13
208.255	25.6
208.474	5.12
208.693	46.08
208.911	25.6
209.13	46.08
209.349	46.08
209.567	31.74
209.786	111.61
210.005	54.27
210.223	89.09
210.442	15.36
210.661	33.79
210.879	72.7
211.098	29.7
211.316	52.22
211.535	-5.12
211.753	-15.36
211.972	78.85
212.191	64.51
212.409	84.99
212.628	50.18
212.846	-5.12
213.065	74.75
213.283	66.56
213.502	11.26
213.72	9.22
213.938	29.7
214.157	-3.07
214.375	31.74
214.594	-7.17
214.812	33.79
215.031	54.27
215.249	-9.22
215.467	-27.65
215.686	87.04
215.904	76.8
216.122	21.5
216.341	48.13
216.559	89.09
216.778	5.12
216.996	103.42
217.214	21.5
217.432	62.46
217.651	95.23
217.869	-7.17
218.087	70.65
218.306	68.61
218.524	39.94
218.742	1.02
218.96	37.89
219.179	21.5
219.397	31.74
219.615	15.36
219.833	78.85
220.051	74.75
220.27	60.42
220.488	107.52
220.706	35.84
220.924	-23.55
221.142	21.5
221.36	91.13
221.578	60.42
221.796	72.7
222.015	5.12
222.233	13.31
222.451	41.98
222.669	52.22
222.887	54.27
223.105	48.13
223.323	-19.46
223.541	37.89
223.759	76.8
223.977	1.02
224.195	64.51
224.413	119.81
224.631	29.7
224.849	58.37
225.067	123.9
225.285	-25.6
225.503	54.27
225.721	-17.41
225.939	3.07
226.157	-29.7
226.375	115.71
226.592	44.03
226.81	-15.36
227.028	76.8
227.246	87.04
227.464	-31.74
227.682	80.89
227.9	52.22
228.117	9.22
228.335	99.33
228.553	74.75
228.771	72.7
228.989	109.57
229.206	39.94
229.424	95.23
229.642	44.03
229.86	54.27
230.077	97.28
230.295	29.7
230.513	21.5
230.731	109.57
230.948	33.79
231.166	56.32
231.384	105.47
231.601	107.52
231.819	-7.17
232.037	1.02
232.254	-56.32
232.472	1.02
232.689	23.55
232.907	50.18
233.125	48.13
233.342	7.17
233.56	27.65
233.777	48.13
233.995	62.46
234.213	84.99
234.43	82.94
234.648	84.99
234.865	54.27
235.083	78.85
235.3	91.13
235.518	78.85
235.735	60.42
235.953	113.66
236.17	35.84
236.388	91.13
236.605	9.22
236.822	95.23
237.04	140.29
237.257	15.36
237.475	31.74
237.692	41.98
237.909	80.89
238.127	48.13
238.344	-44.03
238.562	29.7
238.779	48.13
238.996	-3.07
239.214	-3.07
239.431	41.98
239.648	50.18
239.865	1.02
240.083	33.79
240.3	91.13
240.517	50.18
240.735	60.42
240.952	66.56
241.169	29.7
241.386	84.99
241.603	29.7
241.821	25.6
242.038	105.47
242.255	21.5
242.472	-50.18
242.689	72.7
242.907	54.27
243.124	21.5
243.341	74.75
243.558	84.99
243.775	54.27
243.992	-21.5
244.209	-13.31
244.426	37.89
244.643	87.04
244.86	60.42
245.078	7.17
245.295	50.18
245.512	-3.07
245.729	-31.74
245.946	23.55
246.163	52.22
246.38	101.37
246.597	93.18
246.814	13.31
247.031	46.08
247.248	19.46
247.464	25.6
247.681	46.08
247.898	39.94
248.115	44.03
248.332	7.17
248.549	48.13
248.766	54.27
248.983	70.65
249.2	50.18
249.417	70.65
249.633	91.13
249.85	70.65
250.067	-19.46
250.284	150.53
250.501	58.37
250.717	37.89
250.934	-3.07
251.151	91.13
251.368	60.42
251.585	70.65
251.801	-46.08
252.018	68.61
252.235	19.46
252.451	33.79
252.668	152.57
252.885	101.37
253.102	52.22
253.318	54.27
253.535	76.8
253.752	-11.26
253.968	70.65
254.185	41.98
254.401	41.98
254.618	56.32
254.835	35.84
255.051	125.95
255.268	56.32
255.484	50.18
255.701	17.41
255.917	142.33
256.134	60.42
256.351	76.8
256.567	29.7
256.784	101.37
257	80.89
257.217	44.03
257.433	56.32
257.65	48.13
257.866	91.13
258.082	97.28
258.299	50.18
258.515	35.84
258.732	41.98
258.948	103.42
259.165	9.22
259.381	-21.5
259.597	58.37
259.814	15.36
260.03	78.85
260.246	101.37
260.463	56.32
260.679	68.61
260.895	37.89
261.112	119.81
261.328	41.98
261.544	23.55
261.761	39.94
261.977	35.84
262.193	72.7
262.409	44.03
262.626	37.89
262.842	39.94
263.058	-39.94
263.274	111.61
263.49	44.03
263.707	164.86
263.923	33.79
264.139	21.5
264.355	17.41
264.571	58.37
264.787	44.03
265.004	13.31
265.22	48.13
265.436	107.52
265.652	60.42
265.868	33.79
266.084	3.07
266.3	58.37
266.516	1.02
266.732	66.56
266.948	66.56
267.164	68.61
267.38	99.33
267.596	99.33
267.812	46.08
268.028	74.75
268.244	76.8
268.46	44.03
268.676	-58.37
268.892	113.66
269.108	54.27
269.324	21.5
269.54	23.55
269.756	50.18
269.972	11.26
270.188	103.42
270.403	-7.17
270.619	37.89
270.835	-33.79
271.051	17.41
271.267	-33.79
271.483	25.6
271.698	-13.31
271.914	-31.74
272.13	50.18
272.346	68.61
272.562	11.26
272.777	66.56
272.993	-9.22
273.209	21.5
273.425	48.13
273.64	64.51
273.856	111.61
274.072	5.12
274.287	99.33
274.503	15.36
274.719	62.46
274.934	87.04
275.15	-5.12
275.366	68.61
275.581	-17.41
275.797	80.89
276.012	44.03
276.228	54.27
276.444	95.23
276.659	117.76
276.875	35.84
277.09	103.42
277.306	46.08
277.521	-15.36
277.737	-54.27
277.952	66.56
278.168	54.27
278.383	31.74
278.599	72.7
278.814	72.7
279.03	31.74
279.245	-15.36
279.461	64.51
279.676	58.37
279.892	9.22
280.107	91.13
280.322	-23.55
280.538	41.98
280.753	23.55
280.969	72.7
281.184	19.46
281.399	91.13
281.615	-9.22
281.83	117.76
282.045	89.09
282.26	17.41
282.476	52.22
282.691	9.22
282.906	113.66
283.122	46.08
283.337	-37.89
283.552	95.23
283.767	62.46
283.983	99.33
284.198	74.75
284.413	56.32
284.628	25.6
284.843	56.32
285.058	33.79
285.274	76.8
285.489	25.6
285.704	82.94
285.919	11.26
286.134	48.13
286.349	101.37
286.564	68.61
286.779	-25.6
286.995	70.65
287.21	19.46
287.425	93.18
287.64	25.6
287.855	48.13
288.07	58.37
288.285	89.09
288.5	58.37
288.715	44.03
288.93	44.03
289.145	9.22
289.36	58.37
289.575	-1.02
289.79	101.37
290.004	91.13
290.219	-3.07
290.434	21.5
290.649	66.56
290.864	72.7
291.079	9.22
291.294	101.37
291.509	82.94
291.724	113.66
291.938	21.5
292.153	101.37
292.368	56.32
292.583	3.07
292.798	70.65
293.012	56.32
293.227	9.22
293.442	76.8
293.657	80.89
293.871	5.12
294.086	68.61
294.301	107.52
294.516	44.03
294.73	33.79
294.945	-15.36
295.16	31.74
295.374	56.32
295.589	91.13
295.804	-13.31
296.018	39.94
296.233	130.05
296.447	70.65
296.662	89.09
296.877	97.28
297.091	33.79
297.306	74.75
297.52	50.18
297.735	33.79
297.949	60.42
298.164	134.14
298.378	23.55
298.593	-5.12
298.807	23.55
299.022	48.13
299.236	5.12
299.451	119.81
299.665	-15.36
299.88	87.04
300.094	33.79
300.309	31.74
300.523	60.42
300.737	29.7
300.952	58.37
301.166	70.65
301.381	82.94
301.595	46.08
301.809	89.09
302.024	74.75
302.238	39.94
302.452	119.81
302.667	41.98
302.881	-3.07
303.095	50.18
303.309	1.02
303.524	84.99
303.738	54.27
303.952	87.04
304.166	132.09
304.381	-27.65
304.595	130.05
304.809	3.07
305.023	74.75
305.237	11.26
305.452	50.18
305.666	17.41
305.88	76.8
306.094	29.7
306.308	62.46
306.522	-7.17
306.736	82.94
306.95	21.5
307.164	87.04
307.379	78.85
307.593	78.85
307.807	29.7
308.021	27.65
308.235	58.37
308.449	50.18
308.663	-21.5
308.877	64.51
309.091	74.75
309.305	62.46
309.519	39.94
309.733	62.46
309.947	31.74
310.161	72.7
310.374	93.18
310.588	33.79
310.802	66.56
311.016	105.47
311.23	60.42
311.444	82.94
311.658	62.46
311.872	70.65
312.085	95.23
312.299	74.75
312.513	99.33
312.727	11.26
312.941	5.12
313.154	107.52
313.368	50.18
313.582	72.7
313.796	74.75
314.009	60.42
314.223	89.09
314.437	82.94
314.651	113.66
314.864	15.36
315.078	84.99
315.292	39.94
315.505	-1.02
315.719	82.94
315.933	-13.31
316.146	64.51
316.36	33.79
316.573	41.98
316.787	17.41
317.001	58.37
317.214	33.79
317.428	74.75
317.641	52.22
317.855	82.94
318.068	148.48
318.282	33.79
318.495	64.51
318.709	66.56
318.922	52.22
319.136	70.65
319.349	58.37
319.563	74.75
319.776	103.42
319.99	23.55
320.203	-7.17
320.417	27.65
320.63	66.56
320.843	80.89
321.057	99.33
321.27	56.32
321.483	58.37
321.697	113.66
321.91	80.89
322.124	101.37
322.337	111.61
322.55	23.55
322.763	9.22
322.977	52.22
323.19	-29.7
323.403	105.47
323.617	23.55
323.83	87.04
324.043	33.79
324.256	62.46
324.469	107.52
324.683	115.71
324.896	-15.36
325.109	87.04
325.322	29.7
325.535	58.37
325.748	66.56
325.962	9.22
326.175	39.94
326.388	46.08
326.601	46.08
326.814	50.18
327.027	41.98
327.24	52.22
327.453	107.52
327.666	134.14
327.879	60.42
328.092	70.65
328.305	101.37
328.518	82.94
328.731	1.02
328.944	56.32
329.157	78.85
329.37	62.46
329.583	111.61
329.796	111.61
330.009	25.6
330.222	-5.12
330.435	3.07
330.648	-1.02
330.861	39.94
331.073	17.41
331.286	87.04
331.499	19.46
331.712	5.12
331.925	-7.17
332.138	44.03
332.35	103.42
332.563	-7.17
332.776	41.98
332.989	33.79
333.202	107.52
333.414	29.7
333.627	11.26
333.84	107.52
334.053	154.62
334.265	-15.36
334.478	-37.89
334.691	89.09
334.903	48.13
335.116	25.6
335.329	101.37
335.541	72.7
335.754	68.61
335.966	72.7
336.179	82.94
336.392	78.85
336.604	109.57
336.817	146.43
337.029	56.32
337.242	62.46
337.454	103.42
337.667	97.28
337.88	82.94
338.092	56.32
338.305	-9.22
338.517	-5.12
338.729	21.5
338.942	99.33
339.154	19.46
339.367	17.41
339.579	107.52
339.792	35.84
340.004	166.91
340.217	76.8
340.429	97.28
340.641	5.12
340.854	25.6
341.066	68.61
341.278	52.22
341.491	13.31
341.703	82.94
341.915	-1.02
342.128	82.94
342.34	58.37
342.552	39.94
342.764	80.89
342.977	64.51
343.189	41.98
343.401	35.84
343.613	50.18
343.826	89.09
344.038	74.75
344.25	33.79
344.462	41.98
344.674	1.02
344.886	130.05
345.099	95.23
345.311	54.27
345.523	33.79
345.735	33.79
345.947	37.89
346.159	66.56
346.371	121.85
346.583	60.42
346.795	25.6
347.007	64.51
347.219	142.33
347.431	76.8
347.643	103.42
347.855	37.89
348.067	105.47
348.279	21.5
348.491	37.89
348.703	-3.07
348.915	62.46
349.127	68.61
349.339	68.61
349.551	68.61
349.763	60.42
349.975	113.66
350.187	117.76
350.399	109.57
350.61	76.8
350.822	84.99
351.034	41.98
351.246	58.37
351.458	62.46
351.669	11.26
351.881	97.28
352.093	107.52
352.305	46.08
352.517	82.94
352.728	56.32
352.94	27.65
353.152	27.65
353.363	78.85
353.575	91.13
353.787	9.22
353.999	50.18
354.21	68.61
354.422	150.53
354.633	46.08
354.845	3.07
355.057	25.6
355.268	50.18
355.48	-7.17
355.692	99.33
355.903	66.56
356.115	21.5
356.326	21.5
356.538	66.56
356.749	97.28
356.961	62.46
357.172	5.12
357.384	72.7
357.595	23.55
357.807	64.51
358.018	23.55
358.23	101.37
358.441	111.61
358.653	109.57
358.864	35.84
359.075	44.03
359.287	72.7
359.498	80.89
359.709	33.79
359.921	119.81
360.132	5.12
360.344	54.27
360.555	74.75
360.766	41.98
360.977	82.94
361.189	84.99
361.4	46.08
361.611	119.81
361.823	72.7
362.034	109.57
362.245	-7.17
362.456	21.5
362.667	128
362.879	15.36
363.09	27.65
363.301	70.65
363.512	5.12
363.723	119.81
363.935	107.52
364.146	70.65
364.357	9.22
364.568	41.98
364.779	-9.22
364.99	56.32
365.201	21.5
365.412	97.28
365.623	17.41
365.834	54.27
366.045	46.08
366.256	66.56
366.467	91.13
366.678	54.27
366.889	33.79
367.1	80.89
367.311	58.37
367.522	25.6
367.733	54.27
367.944	93.18
368.155	3.07
368.366	89.09
368.577	33.79
368.788	103.42
368.999	1.02
369.209	130.05
369.42	23.55
369.631	91.13
369.842	41.98
370.053	-52.22
370.264	39.94
370.474	44.03
370.685	78.85
370.896	11.26
371.107	33.79
371.317	62.46
371.528	82.94
371.739	66.56
371.95	66.56
372.16	101.37
372.371	23.55
372.582	78.85
372.792	76.8
373.003	46.08
373.214	25.6
373.424	115.71
373.635	70.65
373.846	60.42
374.056	121.85
374.267	15.36
374.477	70.65
374.688	19.46
374.898	58.37
375.109	74.75
375.319	89.09
375.53	123.9
375.74	74.75
375.951	70.65
376.161	84.99
376.372	99.33
376.582	37.89
376.793	152.57
377.003	142.33
377.214	72.7
377.424	37.89
377.635	46.08
377.845	-27.65
378.055	82.94
378.266	5.12
378.476	-11.26
378.686	173.05
378.897	87.04
379.107	58.37
379.317	80.89
379.528	76.8
379.738	162.81
379.948	41.98
380.158	105.47
380.369	41.98
380.579	119.81
380.789	-9.22
380.999	33.79
381.21	31.74
381.42	17.41
381.63	5.12
381.84	66.56
382.05	76.8
382.261	21.5
382.471	76.8
382.681	74.75
382.891	68.61
383.101	78.85
383.311	41.98
383.521	48.13
383.731	107.52
383.941	130.05
384.151	80.89
384.361	25.6
384.571	195.58
384.781	97.28
384.991	142.33
385.201	82.94
385.411	54.27
385.621	70.65
385.831	48.13
386.041	64.51
386.251	136.19
386.461	37.89
386.671	13.31
386.881	107.52
387.091	72.7
387.301	52.22
387.511	31.74
387.72	58.37
387.93	78.85
388.14	48.13
388.35	13.31
388.56	95.23
388.769	107.52
388.979	35.84
389.189	48.13
389.399	93.18
389.609	27.65
389.818	33.79
390.028	56.32
390.238	95.23
390.447	48.13
390.657	68.61
390.867	-29.7
391.076	35.84
391.286	119.81
391.496	144.38
391.705	103.42
391.915	19.46
392.125	107.52
392.334	84.99
392.544	136.19
392.753	68.61
392.963	50.18
393.172	97.28
393.382	60.42
393.591	52.22
393.801	46.08
394.01	117.76
394.22	87.04
394.429	89.09
394.639	101.37
394.848	148.48
395.058	78.85
395.267	72.7
395.477	113.66
395.686	134.14
395.895	107.52
396.105	123.9
396.314	128
396.524	119.81
396.733	105.47
396.942	21.5
397.152	132.09
397.361	117.76
397.57	101.37
397.78	185.34
397.989	117.76
398.198	97.28
398.407	103.42
398.617	74.75
398.826	87.04
399.035	103.42
399.244	144.38
399.453	82.94
399.663	144.38
399.872	187.39
400.081	171.01
400.29	128
400.499	99.33
400.708	54.27
400.917	80.89
401.127	185.34
401.336	76.8
401.545	171.01
401.754	125.95
401.963	199.68
402.172	95.23
402.381	121.85
402.59	101.37
402.799	148.48
403.008	132.09
403.217	201.72
403.426	134.14
403.635	185.34
403.844	107.52
404.053	146.43
404.262	93.18
404.471	162.81
404.68	207.87
404.888	111.61
405.097	144.38
405.306	193.53
405.515	111.61
405.724	177.15
405.933	193.53
406.142	171.01
406.35	158.72
406.559	142.33
406.768	179.2
406.977	168.96
407.185	185.34
407.394	111.61
407.603	175.1
407.812	189.44
408.02	205.82
408.229	222.2
408.438	166.91
408.646	218.11
408.855	310.27
409.064	226.3
409.272	263.16
409.481	185.34
409.69	250.88
409.898	289.79
410.107	320.51
410.315	302.08
410.524	293.88
410.733	267.26
410.941	271.36
411.15	277.5
411.358	279.55
411.567	347.13
411.775	310.27
411.984	310.27
412.192	386.04
412.401	261.12
412.609	361.47
412.818	431.1
413.026	357.37
413.234	431.1
413.443	484.34
413.651	445.43
413.86	488.44
414.068	457.72
414.276	535.54
414.485	517.11
414.693	553.98
414.901	607.22
415.11	541.69
415.318	531.45
415.526	570.36
415.734	592.89
415.943	578.55
416.151	613.37
416.359	648.18
416.567	664.57
416.776	719.86
416.984	801.78
417.192	789.49
417.4	697.33
417.608	746.48
417.817	769.01
418.025	873.46
418.233	1082.35
418.441	938.99
418.649	965.62
418.857	1020.91
419.065	992.24
419.273	1016.82
419.481	1063.92
419.689	1149.93
419.897	1088.5
420.105	1180.65
420.313	1182.7
420.521	1272.81
420.729	1305.58
420.937	1262.57
421.145	1319.92
421.353	1407.98
421.561	1481.71
421.769	1491.95
421.977	1635.3
422.185	1514.47
422.393	1653.73
422.601	1747.94
422.809	1749.99
423.017	1778.66
423.224	1836
423.432	2003.94
423.64	1928.16
423.848	1987.55
424.056	2139.1
424.263	2231.26
424.471	2274.27
424.679	2239.45
424.887	2321.37
425.094	2274.27
425.302	2376.67
425.51	2524.12
425.718	2552.79
425.925	2687.96
426.133	2847.7
426.341	2903
426.548	2927.57
426.756	2896.85
426.964	3044.31
427.171	3134.42
427.379	3083.22
427.586	3355.6
427.794	3488.71
428.001	3619.78
428.209	3623.88
428.417	3630.02
428.624	3947.46
428.832	4076.48
429.039	3834.82
429.247	4037.57
429.454	4221.89
429.662	4684.73
429.869	4287.42
430.076	4651.96
430.284	4567.99
430.491	4674.49
430.699	4969.4
430.906	4875.19
431.114	4950.96
431.321	5075.89
431.528	5333.93
431.736	5616.55
431.943	5917.61
432.15	5684.14
432.358	5776.3
432.565	6151.07
432.772	5989.28
432.979	6237.09
433.187	6564.76
433.394	6464.41
433.601	6761.37
433.808	7095.19
434.016	6906.77
434.223	7209.87
434.43	7707.53
434.637	7414.67
434.844	7932.81
435.052	8229.76
435.259	8006.53
435.466	7957.38
435.673	7981.96
435.88	8672.12
436.087	9163.64
436.294	9130.87
436.501	8795
436.708	8987.51
436.915	9347.95
437.122	9505.65
437.329	9628.53
437.537	9948.01
437.743	10265.44
437.95	9943.91
438.157	10570.59
438.364	11004.76
438.571	10986.33
438.778	11101.01
438.985	12274.5
439.192	11479.89
439.399	12004.17
439.606	11717.45
439.813	12168.01
440.02	12991.29
440.227	12849.98
440.433	12653.37
440.64	13028.15
440.847	13247.29
441.054	13394.74
441.261	14330.66
441.467	13992.75
441.674	14422.82
441.881	15004.44
442.088	14986.01
442.294	14730.02
442.501	14983.96
442.708	15420.18
442.914	16182.03
443.121	16587.52
443.328	16053
443.534	17505.01
443.741	16970.49
443.948	16734.98
444.154	18129.64
444.361	17855.22
444.568	18010.86
444.774	18191.08
444.981	18180.84
445.187	18631.4
445.394	19323.61
445.6	19036.89
445.807	21099.2
446.013	20107.98
446.22	20456.14
446.426	21363.39
446.633	21390.01
446.839	22117.04
447.046	21359.29
447.252	22311.6
447.459	22682.28
447.665	22500.01
447.871	23179.93
448.078	24267.41
448.284	23126.69
448.491	23515.8
448.697	24656.52
448.903	25250.43
449.11	25232
449.316	24750.73
449.522	25057.92
449.728	25940.6
449.935	26129.01
450.141	26024.56
450.347	26686.06
450.553	25909.88
450.76	25954.93
450.966	27152.99
451.172	26595.95
451.378	27181.67
451.584	26772.07
451.791	27791.96
451.997	27454.05
452.203	27732.57
452.409	28058.2
452.615	27667.03
452.821	26737.26
453.027	26352.24
453.233	27761.24
453.44	26636.91
453.646	26817.13
453.852	27175.52
454.058	27603.55
454.264	26290.8
454.47	26915.43
454.676	26342
454.882	27642.46
455.088	25141.89
455.294	25381.5
455.5	25899.64
455.705	25999.99
455.911	24908.42
456.117	24537.74
456.323	24306.32
456.529	22878.88
456.735	23796.37
456.941	23206.56
457.147	23012
457.352	22606.5
457.558	21750.45
457.764	21979.82
457.97	21668.53
458.176	21412.54
458.381	21283.52
458.587	20034.25
458.793	19776.21
458.999	19159.77
459.204	20591.3
459.41	19770.07
459.616	18289.38
459.821	18442.98
460.027	18301.67
460.233	18080.49
460.438	16974.59
460.644	17257.21
460.85	16648.96
461.055	16466.69
461.261	16454.4
461.466	15239.96
461.672	14662.43
461.878	15590.16
462.083	14811.93
462.289	14668.58
462.494	14177.06
462.7	13679.41
462.905	13128.5
463.111	13912.88
463.316	13986.6
463.522	13550.39
463.727	13536.05
463.932	13591.34
464.138	13255.48
464.343	13503.28
464.549	13062.97
464.754	13447.99
464.959	13488.95
465.165	13333.3
465.37	12841.79
465.575	12434.24
465.781	12911.42
465.986	13009.72
466.191	12426.05
466.397	12200.77
466.602	11639.63
466.807	12125
467.012	11948.87
467.218	11948.87
467.423	11692.88
467.628	11998.02
467.833	12409.67
468.038	11952.97
