Data from USB4F104151__233__11-11-14-672.txt Node

Date: Wed Mar 12 11:11:14 EDT 2025
User: louis
Spectrometer: USB4F10415
Trigger mode: 4
Integration Time (sec): 2.000000E-2
Scans to average: 1
Electric dark correction enabled: true
Nonlinearity correction enabled: false
Boxcar width: 0
XAxis mode: Wavelengths
Number of Pixels in Spectrum: 3648
>>>>>Begin Spectral Data<<<<<
178.204	-51.88
178.424	-51.88
178.644	-51.88
178.864	-115.37
179.084	-55.98
179.304	-15.02
179.524	36.18
179.744	5.46
179.964	15.7
180.184	-53.93
180.404	48.47
180.624	-53.93
180.844	13.65
181.064	58.71
181.283	1.37
181.503	-53.93
181.723	-2.73
181.943	38.23
182.163	97.62
182.383	23.89
182.602	13.65
182.822	48.47
183.042	13.65
183.262	1.37
183.482	34.13
183.701	-10.92
183.921	-12.97
184.141	-29.35
184.361	91.48
184.58	15.7
184.8	-10.92
185.02	23.89
185.239	-4.78
185.459	42.32
185.679	66.9
185.898	-53.93
186.118	-51.88
186.338	-47.79
186.557	30.04
186.777	17.75
186.997	34.13
187.216	-72.36
187.436	68.95
187.655	-19.11
187.875	11.61
188.095	-15.02
188.314	11.61
188.534	-0.68
188.753	5.46
188.973	11.61
189.192	48.47
189.412	46.42
189.631	7.51
189.851	21.85
190.07	68.95
190.29	-41.64
190.509	32.08
190.729	7.51
190.948	32.08
191.168	122.2
191.387	48.47
191.607	7.51
191.826	68.95
192.045	9.56
192.265	17.75
192.484	-6.83
192.704	13.65
192.923	1.37
193.142	64.85
193.362	13.65
193.581	62.8
193.8	64.85
194.02	40.28
194.239	-47.79
194.458	36.18
194.678	-62.12
194.897	38.23
195.116	-12.97
195.335	64.85
195.555	7.51
195.774	13.65
195.993	19.8
196.212	-19.11
196.432	27.99
196.651	-33.45
196.87	79.19
197.089	40.28
197.308	68.95
197.528	77.14
197.747	42.32
197.966	60.76
198.185	30.04
198.404	-8.87
198.623	1.37
198.842	58.71
199.062	42.32
199.281	79.19
199.5	-25.26
199.719	56.66
199.938	64.85
200.157	71
200.376	62.8
200.595	52.56
200.814	-2.73
201.033	32.08
201.252	7.51
201.471	107.86
201.69	1.37
201.909	-37.55
202.128	-15.02
202.347	-4.78
202.566	5.46
202.785	9.56
203.004	-10.92
203.223	19.8
203.442	11.61
203.661	38.23
203.879	-15.02
204.098	11.61
204.317	71
204.536	128.34
204.755	19.8
204.974	71
205.193	-31.4
205.411	15.7
205.63	23.89
205.849	-15.02
206.068	-55.98
206.287	36.18
206.505	27.99
206.724	107.86
206.943	-19.11
207.162	-6.83
207.381	21.85
207.599	-4.78
207.818	-17.07
208.037	1.37
208.255	-0.68
208.474	36.18
208.693	83.28
208.911	77.14
209.13	17.75
209.349	15.7
209.567	32.08
209.786	27.99
210.005	30.04
210.223	-4.78
210.442	-21.16
210.661	-29.35
210.879	79.19
211.098	34.13
211.316	3.41
211.535	21.85
211.753	21.85
211.972	-2.73
212.191	42.32
212.409	-10.92
212.628	75.09
212.846	38.23
213.065	-19.11
213.283	11.61
213.502	5.46
213.72	-49.83
213.938	11.61
214.157	-6.83
214.375	50.52
214.594	-68.27
214.812	50.52
215.031	54.61
215.249	-43.69
215.467	-8.87
215.686	-6.83
215.904	30.04
216.122	-15.02
216.341	52.56
216.559	-6.83
216.778	15.7
216.996	-8.87
217.214	1.37
217.432	58.71
217.651	3.41
217.869	81.24
218.087	95.57
218.306	42.32
218.524	60.76
218.742	23.89
218.96	54.61
219.179	-33.45
219.397	3.41
219.615	52.56
219.833	56.66
220.051	87.38
220.27	89.43
220.488	-35.5
220.706	30.04
220.924	-27.31
221.142	-8.87
221.36	19.8
221.578	17.75
221.796	-4.78
222.015	9.56
222.233	-51.88
222.451	62.8
222.669	-31.4
222.887	71
223.105	50.52
223.323	62.8
223.541	-31.4
223.759	27.99
223.977	54.61
224.195	50.52
224.413	81.24
224.631	32.08
224.849	40.28
225.067	62.8
225.285	71
225.503	23.89
225.721	-41.64
225.939	36.18
226.157	44.37
226.375	9.56
226.592	-47.79
226.81	7.51
227.028	11.61
227.246	134.48
227.464	62.8
227.682	101.72
227.9	73.04
228.117	-33.45
228.335	-2.73
228.553	60.76
228.771	-15.02
228.989	64.85
229.206	-21.16
229.424	27.99
229.642	-82.6
229.86	9.56
230.077	25.94
230.295	3.41
230.513	9.56
230.731	58.71
230.948	32.08
231.166	44.37
231.384	-31.4
231.601	9.56
231.819	46.42
232.037	44.37
232.254	-31.4
232.472	87.38
232.689	46.42
232.907	25.94
233.125	89.43
233.342	42.32
233.56	13.65
233.777	1.37
233.995	-12.97
234.213	124.24
234.43	-39.59
234.648	9.56
234.865	-12.97
235.083	17.75
235.3	42.32
235.518	-6.83
235.735	42.32
235.953	71
236.17	-35.5
236.388	-19.11
236.605	79.19
236.822	-19.11
237.04	107.86
237.257	-31.4
237.475	42.32
237.692	103.76
237.909	32.08
238.127	34.13
238.344	-25.26
238.562	-15.02
238.779	11.61
238.996	46.42
239.214	56.66
239.431	56.66
239.648	-29.35
239.865	13.65
240.083	-12.97
240.3	-31.4
240.517	-33.45
240.735	48.47
240.952	30.04
241.169	9.56
241.386	38.23
241.603	17.75
241.821	40.28
242.038	56.66
242.255	-19.11
242.472	-17.07
242.689	17.75
242.907	46.42
243.124	-2.73
243.341	23.89
243.558	50.52
243.775	25.94
243.992	-17.07
244.209	23.89
244.426	79.19
244.643	-39.59
244.86	-19.11
245.078	40.28
245.295	87.38
245.512	46.42
245.729	9.56
245.946	40.28
246.163	-6.83
246.38	-25.26
246.597	7.51
246.814	27.99
247.031	62.8
247.248	30.04
247.464	-41.64
247.681	38.23
247.898	25.94
248.115	25.94
248.332	-33.45
248.549	9.56
248.766	85.33
248.983	66.9
249.2	40.28
249.417	-0.68
249.633	40.28
249.85	91.48
250.067	-49.83
250.284	40.28
250.501	77.14
250.717	13.65
250.934	-27.31
251.151	-33.45
251.368	50.52
251.585	-35.5
251.801	-6.83
252.018	-25.26
252.235	-2.73
252.451	-64.17
252.668	-33.45
252.885	48.47
253.102	-12.97
253.318	54.61
253.535	-0.68
253.752	-19.11
253.968	23.89
254.185	-2.73
254.401	-60.07
254.618	-19.11
254.835	-15.02
255.051	56.66
255.268	38.23
255.484	114
255.701	42.32
255.917	-4.78
256.134	-37.55
256.351	17.75
256.567	-21.16
256.784	-8.87
257	-80.55
257.217	56.66
257.433	1.37
257.65	19.8
257.866	34.13
258.082	-4.78
258.299	-29.35
258.515	75.09
258.732	-55.98
258.948	60.76
259.165	-60.07
259.381	-53.93
259.597	34.13
259.814	54.61
260.03	5.46
260.246	48.47
260.463	46.42
260.679	68.95
260.895	-37.55
261.112	25.94
261.328	126.29
261.544	17.75
261.761	89.43
261.977	11.61
262.193	34.13
262.409	60.76
262.626	36.18
262.842	68.95
263.058	-21.16
263.274	13.65
263.49	-19.11
263.707	1.37
263.923	79.19
264.139	30.04
264.355	107.86
264.571	30.04
264.787	9.56
265.004	3.41
265.22	-6.83
265.436	1.37
265.652	23.89
265.868	30.04
266.084	81.24
266.3	19.8
266.516	-35.5
266.732	75.09
266.948	9.56
267.164	17.75
267.38	-15.02
267.596	11.61
267.812	23.89
268.028	44.37
268.244	-21.16
268.46	38.23
268.676	-29.35
268.892	-19.11
269.108	-41.64
269.324	23.89
269.54	1.37
269.756	25.94
269.972	-6.83
270.188	38.23
270.403	71
270.619	5.46
270.835	19.8
271.051	-2.73
271.267	-2.73
271.483	48.47
271.698	48.47
271.914	58.71
272.13	1.37
272.346	13.65
272.562	-21.16
272.777	17.75
272.993	-10.92
273.209	58.71
273.425	48.47
273.64	34.13
273.856	34.13
274.072	-2.73
274.287	-17.07
274.503	103.76
274.719	38.23
274.934	56.66
275.15	9.56
275.366	87.38
275.581	-8.87
275.797	50.52
276.012	99.67
276.228	15.7
276.444	23.89
276.659	5.46
276.875	-21.16
277.09	46.42
277.306	-23.21
277.521	71
277.737	11.61
277.952	-15.02
278.168	42.32
278.383	19.8
278.599	38.23
278.814	-58.03
279.03	-27.31
279.245	66.9
279.461	66.9
279.676	40.28
279.892	-15.02
280.107	19.8
280.322	-23.21
280.538	15.7
280.753	46.42
280.969	38.23
281.184	79.19
281.399	62.8
281.615	93.52
281.83	19.8
282.045	-27.31
282.26	42.32
282.476	34.13
282.691	64.85
282.906	23.89
283.122	-51.88
283.337	9.56
283.552	103.76
283.767	-23.21
283.983	48.47
284.198	-8.87
284.413	34.13
284.628	5.46
284.843	27.99
285.058	87.38
285.274	46.42
285.489	44.37
285.704	13.65
285.919	9.56
286.134	62.8
286.349	66.9
286.564	-4.78
286.779	13.65
286.995	60.76
287.21	36.18
287.425	1.37
287.64	-43.69
287.855	91.48
288.07	-74.41
288.285	62.8
288.5	116.05
288.715	19.8
288.93	-23.21
289.145	-21.16
289.36	32.08
289.575	42.32
289.79	-2.73
290.004	19.8
290.219	-29.35
290.434	3.41
290.649	40.28
290.864	81.24
291.079	-2.73
291.294	-2.73
291.509	9.56
291.724	-2.73
291.938	27.99
292.153	23.89
292.368	5.46
292.583	23.89
292.798	-21.16
293.012	27.99
293.227	34.13
293.442	17.75
293.657	-6.83
293.871	60.76
294.086	-2.73
294.301	36.18
294.516	30.04
294.73	91.48
294.945	38.23
295.16	-0.68
295.374	66.9
295.589	11.61
295.804	-47.79
296.018	19.8
296.233	91.48
296.447	56.66
296.662	-29.35
296.877	68.95
297.091	13.65
297.306	62.8
297.52	-25.26
297.735	75.09
297.949	50.52
298.164	87.38
298.378	54.61
298.593	15.7
298.807	62.8
299.022	75.09
299.236	32.08
299.451	99.67
299.665	75.09
299.88	21.85
300.094	50.52
300.309	73.04
300.523	77.14
300.737	27.99
300.952	52.56
301.166	23.89
301.381	25.94
301.595	-2.73
301.809	62.8
302.024	-35.5
302.238	-43.69
302.452	93.52
302.667	32.08
302.881	23.89
303.095	93.52
303.309	101.72
303.524	11.61
303.738	73.04
303.952	30.04
304.166	75.09
304.381	-33.45
304.595	62.8
304.809	-80.55
305.023	54.61
305.237	-33.45
305.452	17.75
305.666	42.32
305.88	-2.73
306.094	97.62
306.308	95.57
306.522	25.94
306.736	42.32
306.95	46.42
307.164	32.08
307.379	17.75
307.593	40.28
307.807	23.89
308.021	34.13
308.235	66.9
308.449	1.37
308.663	17.75
308.877	77.14
309.091	-8.87
309.305	54.61
309.519	-8.87
309.733	5.46
309.947	68.95
310.161	77.14
310.374	-33.45
310.588	71
310.802	36.18
311.016	23.89
311.23	81.24
311.444	17.75
311.658	-0.68
311.872	79.19
312.085	17.75
312.299	17.75
312.513	75.09
312.727	52.56
312.941	15.7
313.154	13.65
313.368	-29.35
313.582	40.28
313.796	21.85
314.009	1.37
314.223	52.56
314.437	46.42
314.651	-29.35
314.864	11.61
315.078	40.28
315.292	-6.83
315.505	64.85
315.719	30.04
315.933	83.28
316.146	9.56
316.36	64.85
316.573	32.08
316.787	66.9
317.001	50.52
317.214	46.42
317.428	60.76
317.641	71
317.855	66.9
318.068	30.04
318.282	54.61
318.495	42.32
318.709	52.56
318.922	56.66
319.136	38.23
319.349	50.52
319.563	-23.21
319.776	-37.55
319.99	15.7
320.203	27.99
320.417	25.94
320.63	-49.83
320.843	99.67
321.057	-29.35
321.27	-12.97
321.483	34.13
321.697	89.43
321.91	58.71
322.124	42.32
322.337	-15.02
322.55	-12.97
322.763	-49.83
322.977	11.61
323.19	-6.83
323.403	-17.07
323.617	50.52
323.83	15.7
324.043	-37.55
324.256	19.8
324.469	15.7
324.683	-10.92
324.896	27.99
325.109	62.8
325.322	-45.74
325.535	79.19
325.748	13.65
325.962	32.08
326.175	1.37
326.388	71
326.601	46.42
326.814	66.9
327.027	25.94
327.24	95.57
327.453	9.56
327.666	27.99
327.879	13.65
328.092	-12.97
328.305	17.75
328.518	38.23
328.731	-47.79
328.944	50.52
329.157	34.13
329.37	-35.5
329.583	5.46
329.796	30.04
330.009	-51.88
330.222	71
330.435	-23.21
330.648	27.99
330.861	-39.59
331.073	15.7
331.286	19.8
331.499	3.41
331.712	-2.73
331.925	44.37
332.138	-0.68
332.35	32.08
332.563	13.65
332.776	89.43
332.989	71
333.202	-12.97
333.414	23.89
333.627	15.7
333.84	21.85
334.053	83.28
334.265	-6.83
334.478	91.48
334.691	-21.16
334.903	46.42
335.116	7.51
335.329	17.75
335.541	19.8
335.754	75.09
335.966	64.85
336.179	111.96
336.392	48.47
336.604	38.23
336.817	44.37
337.029	46.42
337.242	23.89
337.454	64.85
337.667	38.23
337.88	111.96
338.092	27.99
338.305	-12.97
338.517	58.71
338.729	38.23
338.942	40.28
339.154	-4.78
339.367	99.67
339.579	122.2
339.792	-6.83
340.004	15.7
340.217	52.56
340.429	27.99
340.641	60.76
340.854	42.32
341.066	15.7
341.278	7.51
341.491	73.04
341.703	13.65
341.915	38.23
342.128	-4.78
342.34	15.7
342.552	40.28
342.764	17.75
342.977	46.42
343.189	34.13
343.401	-17.07
343.613	-47.79
343.826	21.85
344.038	-15.02
344.25	36.18
344.462	17.75
344.674	77.14
344.886	77.14
345.099	50.52
345.311	25.94
345.523	-6.83
345.735	21.85
345.947	85.33
346.159	30.04
346.371	25.94
346.583	-6.83
346.795	-37.55
347.007	17.75
347.219	5.46
347.431	-8.87
347.643	64.85
347.855	-4.78
348.067	42.32
348.279	-8.87
348.491	38.23
348.703	15.7
348.915	13.65
349.127	58.71
349.339	68.95
349.551	-15.02
349.763	25.94
349.975	15.7
350.187	-12.97
350.399	83.28
350.61	97.62
350.822	-15.02
351.034	30.04
351.246	46.42
351.458	64.85
351.669	54.61
351.881	19.8
352.093	15.7
352.305	34.13
352.517	38.23
352.728	58.71
352.94	64.85
353.152	81.24
353.363	-8.87
353.575	58.71
353.787	-0.68
353.999	62.8
354.21	52.56
354.422	17.75
354.633	3.41
354.845	1.37
355.057	50.52
355.268	58.71
355.48	62.8
355.692	42.32
355.903	-10.92
356.115	42.32
356.326	75.09
356.538	97.62
356.749	120.15
356.961	19.8
357.172	-31.4
357.384	-43.69
357.595	73.04
357.807	17.75
358.018	-47.79
358.23	71
358.441	32.08
358.653	25.94
358.864	-21.16
359.075	1.37
359.287	1.37
359.498	-25.26
359.709	44.37
359.921	77.14
360.132	5.46
360.344	87.38
360.555	7.51
360.766	13.65
360.977	21.85
361.189	-0.68
361.4	42.32
361.611	54.61
361.823	48.47
362.034	116.05
362.245	-2.73
362.456	103.76
362.667	13.65
362.879	54.61
363.09	23.89
363.301	-4.78
363.512	79.19
363.723	40.28
363.935	7.51
364.146	23.89
364.357	-2.73
364.568	116.05
364.779	11.61
364.99	101.72
365.201	111.96
365.412	79.19
365.623	17.75
365.834	91.48
366.045	83.28
366.256	60.76
366.467	38.23
366.678	-12.97
366.889	-37.55
367.1	1.37
367.311	25.94
367.522	46.42
367.733	-23.21
367.944	36.18
368.155	52.56
368.366	34.13
368.577	19.8
368.788	40.28
368.999	13.65
369.209	30.04
369.42	79.19
369.631	68.95
369.842	91.48
370.053	15.7
370.264	101.72
370.474	-58.03
370.685	1.37
370.896	-10.92
371.107	36.18
371.317	56.66
371.528	13.65
371.739	97.62
371.95	52.56
372.16	46.42
372.371	15.7
372.582	23.89
372.792	17.75
373.003	13.65
373.214	91.48
373.424	120.15
373.635	52.56
373.846	85.33
374.056	46.42
374.267	111.96
374.477	71
374.688	21.85
374.898	58.71
375.109	87.38
375.319	11.61
375.53	75.09
375.74	13.65
375.951	15.7
376.161	42.32
376.372	130.39
376.582	7.51
376.793	25.94
377.003	79.19
377.214	50.52
377.424	-21.16
377.635	11.61
377.845	17.75
378.055	23.89
378.266	-12.97
378.476	48.47
378.686	46.42
378.897	-31.4
379.107	118.1
379.317	46.42
379.528	44.37
379.738	97.62
379.948	68.95
380.158	89.43
380.369	68.95
380.579	36.18
380.789	11.61
380.999	99.67
381.21	85.33
381.42	89.43
381.63	-23.21
381.84	58.71
382.05	85.33
382.261	46.42
382.471	25.94
382.681	54.61
382.891	27.99
383.101	99.67
383.311	42.32
383.521	34.13
383.731	62.8
383.941	5.46
384.151	15.7
384.361	107.86
384.571	-19.11
384.781	85.33
384.991	50.52
385.201	68.95
385.411	66.9
385.621	81.24
385.831	30.04
386.041	17.75
386.251	-27.31
386.461	62.8
386.671	161.11
386.881	50.52
387.091	19.8
387.301	120.15
387.511	107.86
387.72	17.75
387.93	64.85
388.14	124.24
388.35	79.19
388.56	9.56
388.769	97.62
388.979	75.09
389.189	40.28
389.399	46.42
389.609	34.13
389.818	101.72
390.028	60.76
390.238	107.86
390.447	15.7
390.657	-15.02
390.867	40.28
391.076	9.56
391.286	56.66
391.496	1.37
391.705	42.32
391.915	99.67
392.125	15.7
392.334	85.33
392.544	5.46
392.753	56.66
392.963	-55.98
393.172	11.61
393.382	-6.83
393.591	93.52
393.801	36.18
394.01	114
394.22	89.43
394.429	17.75
394.639	27.99
394.848	111.96
395.058	13.65
395.267	91.48
395.477	66.9
395.686	36.18
395.895	68.95
396.105	77.14
396.314	77.14
396.524	95.57
396.733	81.24
396.942	163.15
397.152	71
397.361	44.37
397.57	30.04
397.78	-4.78
397.989	91.48
398.198	107.86
398.407	48.47
398.617	107.86
398.826	130.39
399.035	58.71
399.244	144.72
399.453	122.2
399.663	66.9
399.872	95.57
400.081	-21.16
400.29	120.15
400.499	30.04
400.708	103.76
400.917	68.95
401.127	79.19
401.336	19.8
401.545	114
401.754	126.29
401.963	124.24
402.172	111.96
402.381	114
402.59	85.33
402.799	97.62
403.008	75.09
403.217	122.2
403.426	97.62
403.635	79.19
403.844	87.38
404.053	66.9
404.262	183.63
404.471	124.24
404.68	138.58
404.888	101.72
405.097	75.09
405.306	89.43
405.515	64.85
405.724	73.04
405.933	157.01
406.142	200.02
406.35	187.73
406.559	120.15
406.768	169.3
406.977	202.07
407.185	134.48
407.394	183.63
407.603	111.96
407.812	136.53
408.02	185.68
408.229	122.2
408.438	187.73
408.646	183.63
408.855	75.09
409.064	177.49
409.272	218.45
409.481	263.51
409.69	128.34
409.898	152.92
410.107	265.55
410.315	226.64
410.524	230.74
410.733	279.89
410.941	142.68
411.15	200.02
411.358	267.6
411.567	247.12
411.775	304.46
411.984	372.05
412.192	255.31
412.401	294.22
412.609	357.71
412.818	372.05
413.026	374.1
413.234	365.9
413.443	376.14
413.651	398.67
413.86	445.77
414.068	484.69
414.276	449.87
414.485	460.11
414.693	492.88
414.901	515.41
415.11	509.26
415.318	568.65
415.526	513.36
415.734	560.46
415.943	568.65
416.151	605.52
416.359	605.52
416.567	607.56
416.776	695.63
416.984	836.94
417.192	695.63
417.4	763.21
417.608	734.54
417.817	814.41
418.025	783.69
418.233	847.18
418.441	804.17
418.649	906.57
418.857	1015.11
419.065	982.34
419.273	859.46
419.481	1054.02
419.689	1080.64
419.897	1127.75
420.105	1105.22
420.313	1133.89
420.521	1232.19
420.729	1213.76
420.937	1242.43
421.145	1303.87
421.353	1318.21
421.561	1441.09
421.769	1455.42
421.977	1500.48
422.185	1432.9
422.393	1668.41
422.601	1750.33
422.809	1617.21
423.017	1645.88
423.224	1897.78
423.432	1846.59
423.64	1971.51
423.848	2110.77
424.056	2000.18
424.263	2155.83
424.471	2235.7
424.679	2166.07
424.887	2342.19
425.094	2368.82
425.302	2368.82
425.51	2532.65
425.718	2510.13
425.925	2497.84
426.133	2590
426.341	2807.08
426.548	2903.34
426.756	2891.05
426.964	2954.54
427.171	3149.09
427.379	3259.68
427.586	3368.23
427.794	3347.75
428.001	3503.39
428.209	3800.35
428.417	3595.55
428.624	3947.8
428.832	3970.33
429.039	3874.07
429.247	4001.05
429.454	4138.26
429.662	4529.42
429.869	4134.17
430.076	4515.09
430.284	4369.68
430.491	4510.99
430.699	4941.07
430.906	4988.17
431.114	4912.39
431.321	5063.94
431.528	5223.69
431.736	5483.78
431.943	5797.12
432.15	5670.14
432.358	5573.89
432.565	6032.63
432.772	6008.06
432.979	6231.29
433.187	6358.26
433.394	6622.45
433.601	6835.44
433.808	6728.94
434.016	6821.1
434.223	7226.6
434.43	7539.94
434.637	7365.86
434.844	7902.43
435.052	8066.27
435.259	7845.09
435.466	7970.01
435.673	7994.59
435.88	8459.48
436.087	8875.21
436.294	8959.18
436.501	8625.36
436.708	8877.26
436.915	9274.57
437.122	9845.95
437.329	9534.66
437.537	9784.51
437.743	9862.33
437.95	9909.44
438.157	10466.49
438.364	10757.3
438.571	10933.42
438.778	10781.87
438.985	12000.41
439.192	11351.21
439.399	11922.59
439.606	11431.08
439.813	12186.78
440.02	12788.88
440.227	12727.44
440.433	12811.41
440.64	12915.86
440.847	13155.47
441.054	13120.65
441.261	14029.95
441.467	13499.53
441.674	14171.26
441.881	14759.03
442.088	14574.71
442.294	14505.08
442.501	14654.58
442.708	15207.53
442.914	15733.86
443.121	16149.6
443.328	15666.28
443.534	17128.53
443.741	16835.67
443.948	16311.39
444.154	17411.15
444.361	17531.98
444.568	17423.44
444.774	17341.52
444.981	17726.53
445.187	18152.51
445.394	19065.91
445.6	18689.08
445.807	20642.84
446.013	20108.32
446.22	20474.91
446.426	20743.19
446.633	20775.96
446.839	21699.59
447.046	20796.44
447.252	22033.41
447.459	22187.01
447.665	21914.63
447.871	23010.29
448.078	23815.15
448.284	22481.92
448.491	23337.97
448.697	24122.34
448.903	24886.23
449.11	24470.5
449.316	24140.77
449.522	24542.17
449.728	25234.39
449.935	25400.27
450.141	25447.38
450.347	26047.43
450.553	24933.34
450.76	25226.2
450.966	26192.84
451.172	25916.36
451.378	26686.4
451.584	26080.2
451.791	26655.68
451.997	26989.5
452.203	26934.2
452.409	26551.23
452.615	26395.59
452.821	25910.22
453.027	25842.63
453.233	26903.48
453.44	25781.2
453.646	26080.2
453.852	26221.51
454.058	26624.96
454.264	25461.71
454.47	26112.97
454.676	25584.59
454.882	26440.64
455.088	23991.27
455.294	24347.62
455.5	24583.13
455.705	25150.42
455.911	23956.46
456.117	23319.54
456.323	23133.17
456.529	22078.47
456.735	22811.64
456.941	22506.49
457.147	22064.13
457.352	21300.24
457.558	20773.91
457.764	21306.38
457.97	20483.1
458.176	20225.06
458.381	20040.74
458.587	19151.92
458.793	19319.85
458.999	17994.82
459.204	19622.95
459.41	18820.15
459.616	17587.27
459.821	17763.4
460.027	17548.36
460.233	17370.19
460.438	16331.87
460.644	16551
460.85	15787.11
461.055	15512.68
461.261	15551.59
461.466	14464.12
461.672	14193.79
461.878	14900.34
462.083	13911.17
462.289	13579.4
462.494	13511.82
462.7	12936.34
462.905	12672.15
463.111	13040.78
463.316	13110.41
463.522	12844.18
463.727	12848.27
463.932	12922
464.138	12674.2
464.343	12723.35
464.549	12422.3
464.754	13225.1
464.959	12563.61
465.165	12657.81
465.37	12065.95
465.575	11756.71
465.781	12272.79
465.986	12387.48
466.191	11846.82
466.397	11775.14
466.602	11142.32
466.807	11371.69
467.012	11545.77
467.218	11515.05
467.423	11318.44
467.628	11500.71
467.833	12035.23
468.038	11547.81
468.244	11029.68
468.449	11572.39
468.654	10990.77
