Data from USB4F104151__193__11-09-51-521.txt Node

Date: Wed Mar 12 11:09:51 EDT 2025
User: louis
Spectrometer: USB4F10415
Trigger mode: 4
Integration Time (sec): 2.000000E-2
Scans to average: 1
Electric dark correction enabled: true
Nonlinearity correction enabled: false
Boxcar width: 0
XAxis mode: Wavelengths
Number of Pixels in Spectrum: 3648
>>>>>Begin Spectral Data<<<<<
178.204	-40.62
178.424	-40.62
178.644	-40.62
178.864	-48.81
179.084	-65.19
179.304	-11.95
179.524	-11.95
179.744	-48.81
179.964	14.68
180.184	31.06
180.404	-16.04
180.624	-3.75
180.844	-13.99
181.064	10.58
181.283	41.3
181.503	33.11
181.723	-24.23
181.943	-1.71
182.163	63.83
182.383	22.87
182.602	69.97
182.822	-9.9
183.042	57.68
183.262	6.49
183.482	-5.8
183.701	22.87
183.921	-13.99
184.141	-26.28
184.361	-3.75
184.58	39.25
184.8	51.54
185.02	39.25
185.239	88.4
185.459	24.92
185.679	98.64
185.898	24.92
186.118	41.3
186.338	8.53
186.557	69.97
186.777	-40.62
186.997	-24.23
187.216	-7.85
187.436	86.36
187.655	78.16
187.875	-48.81
188.095	45.4
188.314	80.21
188.534	-38.57
188.753	31.06
188.973	49.49
189.192	110.93
189.412	-11.95
189.631	16.73
189.851	29.01
190.07	-30.38
190.29	-93.87
190.509	39.25
190.729	43.35
190.948	72.02
191.168	139.6
191.387	22.87
191.607	22.87
191.826	14.68
192.045	22.87
192.265	43.35
192.484	35.16
192.704	-34.47
192.923	12.63
193.142	-11.95
193.362	37.2
193.581	74.07
193.8	92.5
194.02	65.88
194.239	-1.71
194.458	100.69
194.678	-13.99
194.897	26.96
195.116	31.06
195.335	10.58
195.555	22.87
195.774	39.25
195.993	74.07
196.212	49.49
196.432	-20.14
196.651	22.87
196.87	12.63
197.089	37.2
197.308	-3.75
197.528	31.06
197.747	-18.09
197.966	6.49
198.185	-20.14
198.404	51.54
198.623	35.16
198.842	84.31
199.062	-9.9
199.281	16.73
199.5	53.59
199.719	72.02
199.938	-28.33
200.157	51.54
200.376	61.78
200.595	100.69
200.814	-48.81
201.033	-54.95
201.252	26.96
201.471	63.83
201.69	110.93
201.909	-7.85
202.128	49.49
202.347	74.07
202.566	16.73
202.785	-30.38
203.004	-20.14
203.223	55.64
203.442	39.25
203.661	10.58
203.879	-83.63
204.098	-3.75
204.317	-40.62
204.536	76.12
204.755	-13.99
204.974	29.01
205.193	2.39
205.411	155.99
205.63	29.01
205.849	-24.23
206.068	2.39
206.287	-5.8
206.505	135.51
206.724	0.34
206.943	-63.15
207.162	-5.8
207.381	6.49
207.599	26.96
207.818	-22.19
208.037	-1.71
208.255	22.87
208.474	-7.85
208.693	4.44
208.911	16.73
209.13	-9.9
209.349	0.34
209.567	-36.52
209.786	78.16
210.005	-24.23
210.223	37.2
210.442	10.58
210.661	31.06
210.879	96.6
211.098	53.59
211.316	45.4
211.535	20.82
211.753	22.87
211.972	0.34
212.191	16.73
212.409	16.73
212.628	20.82
212.846	6.49
213.065	39.25
213.283	29.01
213.502	2.39
213.72	57.68
213.938	6.49
214.157	80.21
214.375	57.68
214.594	-16.04
214.812	29.01
215.031	12.63
215.249	-22.19
215.467	0.34
215.686	59.73
215.904	6.49
216.122	-34.47
216.341	6.49
216.559	-46.76
216.778	35.16
216.996	10.58
217.214	41.3
217.432	-16.04
217.651	-59.05
217.869	22.87
218.087	84.31
218.306	4.44
218.524	6.49
218.742	-30.38
218.96	37.2
219.179	78.16
219.397	110.93
219.615	94.55
219.833	86.36
220.051	10.58
220.27	84.31
220.488	49.49
220.706	16.73
220.924	-38.57
221.142	55.64
221.36	69.97
221.578	117.08
221.796	-9.9
222.015	69.97
222.233	20.82
222.451	45.4
222.669	8.53
222.887	10.58
223.105	6.49
223.323	59.73
223.541	2.39
223.759	69.97
223.977	12.63
224.195	41.3
224.413	78.16
224.631	49.49
224.849	24.92
225.067	-24.23
225.285	-18.09
225.503	20.82
225.721	18.77
225.939	43.35
226.157	-5.8
226.375	92.5
226.592	-36.52
226.81	39.25
227.028	-9.9
227.246	31.06
227.464	16.73
227.682	80.21
227.9	4.44
228.117	45.4
228.335	31.06
228.553	-5.8
228.771	49.49
228.989	33.11
229.206	53.59
229.424	94.55
229.642	-46.76
229.86	51.54
230.077	90.45
230.295	4.44
230.513	55.64
230.731	-26.28
230.948	84.31
231.166	63.83
231.384	16.73
231.601	24.92
231.819	69.97
232.037	-5.8
232.254	-20.14
232.472	-32.43
232.689	-22.19
232.907	-3.75
233.125	20.82
233.342	37.2
233.56	-11.95
233.777	-18.09
233.995	61.78
234.213	90.45
234.43	0.34
234.648	14.68
234.865	26.96
235.083	139.6
235.3	41.3
235.518	-9.9
235.735	72.02
235.953	59.73
236.17	29.01
236.388	129.36
236.605	35.16
236.822	-36.52
237.04	78.16
237.257	61.78
237.475	-3.75
237.692	57.68
237.909	53.59
238.127	43.35
238.344	-44.71
238.562	33.11
238.779	14.68
238.996	-61.1
239.214	33.11
239.431	26.96
239.648	-30.38
239.865	110.93
240.083	102.74
240.3	53.59
240.517	-16.04
240.735	16.73
240.952	45.4
241.169	33.11
241.386	63.83
241.603	61.78
241.821	-28.33
242.038	-20.14
242.255	115.03
242.472	14.68
242.689	59.73
242.907	31.06
243.124	29.01
243.341	6.49
243.558	35.16
243.775	-48.81
243.992	-50.86
244.209	49.49
244.426	65.88
244.643	10.58
244.86	-9.9
245.078	94.55
245.295	20.82
245.512	92.5
245.729	33.11
245.946	65.88
246.163	43.35
246.38	65.88
246.597	-36.52
246.814	-18.09
247.031	-22.19
247.248	78.16
247.464	-3.75
247.681	10.58
247.898	-5.8
248.115	8.53
248.332	29.01
248.549	102.74
248.766	76.12
248.983	35.16
249.2	67.92
249.417	82.26
249.633	-104.11
249.85	57.68
250.067	35.16
250.284	123.22
250.501	16.73
250.717	53.59
250.934	37.2
251.151	-3.75
251.368	80.21
251.585	14.68
251.801	47.44
252.018	45.4
252.235	31.06
252.451	31.06
252.668	8.53
252.885	31.06
253.102	33.11
253.318	31.06
253.535	4.44
253.752	-32.43
253.968	-3.75
254.185	-54.95
254.401	8.53
254.618	72.02
254.835	-5.8
255.051	14.68
255.268	-7.85
255.484	12.63
255.701	-13.99
255.917	37.2
256.134	22.87
256.351	63.83
256.567	-48.81
256.784	24.92
257	39.25
257.217	22.87
257.433	-30.38
257.65	59.73
257.866	16.73
258.082	43.35
258.299	12.63
258.515	-40.62
258.732	-61.1
258.948	39.25
259.165	61.78
259.381	57.68
259.597	-9.9
259.814	35.16
260.03	-1.71
260.246	6.49
260.463	90.45
260.679	45.4
260.895	-7.85
261.112	14.68
261.328	53.59
261.544	37.2
261.761	108.88
261.977	-13.99
262.193	-9.9
262.409	12.63
262.626	59.73
262.842	57.68
263.058	-20.14
263.274	57.68
263.49	-40.62
263.707	20.82
263.923	24.92
264.139	10.58
264.355	39.25
264.571	14.68
264.787	4.44
265.004	16.73
265.22	61.78
265.436	51.54
265.652	20.82
265.868	37.2
266.084	29.01
266.3	26.96
266.516	2.39
266.732	67.92
266.948	4.44
267.164	2.39
267.38	51.54
267.596	6.49
267.812	37.2
268.028	49.49
268.244	29.01
268.46	-5.8
268.676	-24.23
268.892	31.06
269.108	33.11
269.324	39.25
269.54	-26.28
269.756	18.77
269.972	-30.38
270.188	29.01
270.403	-34.47
270.619	-11.95
270.835	53.59
271.051	20.82
271.267	41.3
271.483	20.82
271.698	55.64
271.914	-9.9
272.13	-3.75
272.346	12.63
272.562	65.88
272.777	80.21
272.993	-32.43
273.209	-44.71
273.425	-13.99
273.64	18.77
273.856	33.11
274.072	53.59
274.287	-22.19
274.503	94.55
274.719	51.54
274.934	-34.47
275.15	-42.67
275.366	-1.71
275.581	24.92
275.797	45.4
276.012	45.4
276.228	33.11
276.444	61.78
276.659	72.02
276.875	-44.71
277.09	35.16
277.306	8.53
277.521	12.63
277.737	59.73
277.952	-30.38
278.168	-9.9
278.383	51.54
278.599	41.3
278.814	-9.9
279.03	67.92
279.245	33.11
279.461	-5.8
279.676	4.44
279.892	47.44
280.107	65.88
280.322	16.73
280.538	57.68
280.753	-24.23
280.969	-38.57
281.184	41.3
281.399	37.2
281.615	20.82
281.83	59.73
282.045	-9.9
282.26	-18.09
282.476	2.39
282.691	16.73
282.906	-3.75
283.122	24.92
283.337	16.73
283.552	49.49
283.767	53.59
283.983	74.07
284.198	67.92
284.413	43.35
284.628	10.58
284.843	43.35
285.058	20.82
285.274	-13.99
285.489	43.35
285.704	16.73
285.919	-65.19
286.134	26.96
286.349	-16.04
286.564	57.68
286.779	86.36
286.995	57.68
287.21	2.39
287.425	41.3
287.64	12.63
287.855	24.92
288.07	37.2
288.285	98.64
288.5	20.82
288.715	29.01
288.93	65.88
289.145	86.36
289.36	4.44
289.575	24.92
289.79	-34.47
290.004	-32.43
290.219	18.77
290.434	72.02
290.649	-5.8
290.864	47.44
291.079	-20.14
291.294	84.31
291.509	0.34
291.724	94.55
291.938	-11.95
292.153	-57
292.368	18.77
292.583	41.3
292.798	67.92
293.012	-5.8
293.227	0.34
293.442	8.53
293.657	67.92
293.871	74.07
294.086	43.35
294.301	24.92
294.516	8.53
294.73	-26.28
294.945	24.92
295.16	6.49
295.374	-16.04
295.589	29.01
295.804	-9.9
296.018	24.92
296.233	0.34
296.447	78.16
296.662	35.16
296.877	49.49
297.091	74.07
297.306	26.96
297.52	24.92
297.735	67.92
297.949	10.58
298.164	26.96
298.378	61.78
298.593	-11.95
298.807	-5.8
299.022	-22.19
299.236	82.26
299.451	-40.62
299.665	12.63
299.88	-1.71
300.094	4.44
300.309	41.3
300.523	12.63
300.737	-30.38
300.952	49.49
301.166	59.73
301.381	106.84
301.595	33.11
301.809	31.06
302.024	-81.58
302.238	-18.09
302.452	86.36
302.667	-13.99
302.881	43.35
303.095	78.16
303.309	86.36
303.524	6.49
303.738	33.11
303.952	72.02
304.166	37.2
304.381	-22.19
304.595	6.49
304.809	-9.9
305.023	33.11
305.237	55.64
305.452	39.25
305.666	20.82
305.88	69.97
306.094	12.63
306.308	-1.71
306.522	59.73
306.736	45.4
306.95	-16.04
307.164	39.25
307.379	8.53
307.593	108.88
307.807	14.68
308.021	37.2
308.235	147.8
308.449	-67.24
308.663	43.35
308.877	72.02
309.091	82.26
309.305	53.59
309.519	-22.19
309.733	100.69
309.947	-30.38
310.161	0.34
310.374	29.01
310.588	22.87
310.802	53.59
311.016	47.44
311.23	-3.75
311.444	26.96
311.658	-5.8
311.872	31.06
312.085	94.55
312.299	26.96
312.513	26.96
312.727	-5.8
312.941	-1.71
313.154	22.87
313.368	24.92
313.582	57.68
313.796	74.07
314.009	-22.19
314.223	-3.75
314.437	-3.75
314.651	-28.33
314.864	39.25
315.078	63.83
315.292	-7.85
315.505	49.49
315.719	-30.38
315.933	4.44
316.146	0.34
316.36	-36.52
316.573	-24.23
316.787	33.11
317.001	69.97
317.214	51.54
317.428	53.59
317.641	-5.8
317.855	37.2
318.068	61.78
318.282	29.01
318.495	22.87
318.709	65.88
318.922	-3.75
319.136	59.73
319.349	-13.99
319.563	20.82
319.776	18.77
319.99	-28.33
320.203	47.44
320.417	10.58
320.63	4.44
320.843	57.68
321.057	29.01
321.27	43.35
321.483	14.68
321.697	43.35
321.91	0.34
322.124	74.07
322.337	29.01
322.55	26.96
322.763	2.39
322.977	-18.09
323.19	31.06
323.403	-5.8
323.617	-20.14
323.83	4.44
324.043	16.73
324.256	10.58
324.469	24.92
324.683	106.84
324.896	45.4
325.109	-67.24
325.322	78.16
325.535	80.21
325.748	-7.85
325.962	-36.52
326.175	33.11
326.388	55.64
326.601	-16.04
326.814	20.82
327.027	-9.9
327.24	39.25
327.453	-9.9
327.666	59.73
327.879	18.77
328.092	18.77
328.305	51.54
328.518	8.53
328.731	35.16
328.944	-3.75
329.157	4.44
329.37	-9.9
329.583	100.69
329.796	143.7
330.009	37.2
330.222	-7.85
330.435	4.44
330.648	33.11
330.861	20.82
331.073	24.92
331.286	45.4
331.499	-3.75
331.712	41.3
331.925	47.44
332.138	-11.95
332.35	4.44
332.563	-1.71
332.776	43.35
332.989	4.44
333.202	-57
333.414	16.73
333.627	-3.75
333.84	24.92
334.053	94.55
334.265	22.87
334.478	0.34
334.691	78.16
334.903	31.06
335.116	-11.95
335.329	69.97
335.541	39.25
335.754	20.82
335.966	35.16
336.179	33.11
336.392	43.35
336.604	-11.95
336.817	-24.23
337.029	88.4
337.242	-7.85
337.454	24.92
337.667	24.92
337.88	98.64
338.092	12.63
338.305	43.35
338.517	12.63
338.729	88.4
338.942	51.54
339.154	92.5
339.367	33.11
339.579	112.98
339.792	-20.14
340.004	-22.19
340.217	-46.76
340.429	6.49
340.641	76.12
340.854	-61.1
341.066	16.73
341.278	-5.8
341.491	41.3
341.703	0.34
341.915	-11.95
342.128	102.74
342.34	-52.91
342.552	10.58
342.764	67.92
342.977	29.01
343.189	45.4
343.401	72.02
343.613	49.49
343.826	65.88
344.038	-5.8
344.25	37.2
344.462	39.25
344.674	49.49
344.886	29.01
345.099	137.56
345.311	78.16
345.523	51.54
345.735	-3.75
345.947	29.01
346.159	82.26
346.371	2.39
346.583	8.53
346.795	115.03
347.007	-26.28
347.219	94.55
347.431	8.53
347.643	127.32
347.855	10.58
348.067	78.16
348.279	8.53
348.491	4.44
348.703	53.59
348.915	35.16
349.127	12.63
349.339	67.92
349.551	49.49
349.763	29.01
349.975	33.11
350.187	31.06
350.399	61.78
350.61	37.2
350.822	-5.8
351.034	39.25
351.246	31.06
351.458	51.54
351.669	10.58
351.881	88.4
352.093	24.92
352.305	65.88
352.517	4.44
352.728	45.4
352.94	65.88
353.152	8.53
353.363	-20.14
353.575	92.5
353.787	100.69
353.999	72.02
354.21	31.06
354.422	4.44
354.633	-30.38
354.845	10.58
355.057	29.01
355.268	6.49
355.48	31.06
355.692	4.44
355.903	65.88
356.115	6.49
356.326	-32.43
356.538	57.68
356.749	53.59
356.961	53.59
357.172	-3.75
357.384	20.82
357.595	24.92
357.807	20.82
358.018	-26.28
358.23	98.64
358.441	29.01
358.653	80.21
358.864	14.68
359.075	49.49
359.287	41.3
359.498	24.92
359.709	-5.8
359.921	-52.91
360.132	61.78
360.344	69.97
360.555	-83.63
360.766	31.06
360.977	-24.23
361.189	22.87
361.4	33.11
361.611	18.77
361.823	22.87
362.034	78.16
362.245	49.49
362.456	10.58
362.667	72.02
362.879	-9.9
363.09	14.68
363.301	74.07
363.512	65.88
363.723	0.34
363.935	-5.8
364.146	59.73
364.357	16.73
364.568	63.83
364.779	88.4
364.99	-24.23
365.201	82.26
365.412	65.88
365.623	-73.39
365.834	123.22
366.045	-16.04
366.256	29.01
366.467	-5.8
366.678	-5.8
366.889	14.68
367.1	2.39
367.311	59.73
367.522	4.44
367.733	41.3
367.944	41.3
368.155	10.58
368.366	26.96
368.577	12.63
368.788	61.78
368.999	0.34
369.209	49.49
369.42	61.78
369.631	94.55
369.842	-22.19
370.053	-7.85
370.264	41.3
370.474	31.06
370.685	0.34
370.896	26.96
371.107	51.54
371.317	20.82
371.528	35.16
371.739	84.31
371.95	10.58
372.16	-1.71
372.371	51.54
372.582	16.73
372.792	0.34
373.003	72.02
373.214	69.97
373.424	78.16
373.635	26.96
373.846	90.45
374.056	-18.09
374.267	-28.33
374.477	67.92
374.688	51.54
374.898	22.87
375.109	22.87
375.319	-11.95
375.53	26.96
375.74	0.34
375.951	10.58
376.161	-34.47
376.372	82.26
376.582	35.16
376.793	76.12
377.003	53.59
377.214	55.64
377.424	61.78
377.635	86.36
377.845	-13.99
378.055	63.83
378.266	12.63
378.476	4.44
378.686	53.59
378.897	20.82
379.107	33.11
379.317	-1.71
379.528	24.92
379.738	110.93
379.948	22.87
380.158	63.83
380.369	-40.62
380.579	92.5
380.789	47.44
380.999	-3.75
381.21	0.34
381.42	55.64
381.63	20.82
381.84	18.77
382.05	24.92
382.261	-26.28
382.471	4.44
382.681	8.53
382.891	88.4
383.101	59.73
383.311	-9.9
383.521	-28.33
383.731	104.79
383.941	72.02
384.151	39.25
384.361	53.59
384.571	41.3
384.781	-9.9
384.991	115.03
385.201	86.36
385.411	110.93
385.621	41.3
385.831	104.79
386.041	47.44
386.251	67.92
386.461	22.87
386.671	6.49
386.881	10.58
387.091	45.4
387.301	96.6
387.511	108.88
387.72	98.64
387.93	51.54
388.14	-5.8
388.35	31.06
388.56	45.4
388.769	16.73
388.979	61.78
389.189	-5.8
389.399	61.78
389.609	33.11
389.818	141.65
390.028	29.01
390.238	33.11
390.447	26.96
390.657	80.21
390.867	69.97
391.076	-26.28
391.286	67.92
391.496	115.03
391.705	59.73
391.915	4.44
392.125	59.73
392.334	61.78
392.544	119.12
392.753	59.73
392.963	74.07
393.172	96.6
393.382	63.83
393.591	84.31
393.801	110.93
394.01	2.39
394.22	82.26
394.429	76.12
394.639	33.11
394.848	-1.71
395.058	80.21
395.267	0.34
395.477	100.69
395.686	12.63
395.895	55.64
396.105	102.74
396.314	82.26
396.524	63.83
396.733	18.77
396.942	82.26
397.152	37.2
397.361	108.88
397.57	129.36
397.78	112.98
397.989	69.97
398.198	100.69
398.407	59.73
398.617	121.17
398.826	33.11
399.035	55.64
399.244	-5.8
399.453	76.12
399.663	145.75
399.872	121.17
400.081	63.83
400.29	145.75
400.499	55.64
400.708	59.73
400.917	63.83
401.127	100.69
401.336	26.96
401.545	129.36
401.754	16.73
401.963	82.26
402.172	55.64
402.381	20.82
402.59	100.69
402.799	100.69
403.008	59.73
403.217	72.02
403.426	49.49
403.635	47.44
403.844	74.07
404.053	98.64
404.262	47.44
404.471	135.51
404.68	80.21
404.888	162.13
405.097	82.26
405.306	141.65
405.515	57.68
405.724	115.03
405.933	123.22
406.142	80.21
406.35	149.84
406.559	135.51
406.768	110.93
406.977	76.12
407.185	84.31
407.394	155.99
407.603	121.17
407.812	178.51
408.02	123.22
408.229	162.13
408.438	127.32
408.646	135.51
408.855	67.92
409.064	108.88
409.272	172.37
409.481	139.6
409.69	203.09
409.898	160.08
410.107	201.04
410.315	108.88
410.524	205.14
410.733	203.09
410.941	176.47
411.15	192.85
411.358	186.71
411.567	280.91
411.775	160.08
411.984	311.63
412.192	203.09
412.401	278.87
412.609	311.63
412.818	291.15
413.026	317.78
413.234	323.92
413.443	272.72
413.651	229.71
413.86	291.15
414.068	414.03
414.276	336.21
414.485	358.74
414.693	442.7
414.901	391.5
415.11	409.94
415.318	430.41
415.526	409.94
415.734	414.03
415.943	520.53
416.151	508.24
416.359	442.7
416.567	489.81
416.776	512.33
416.984	512.33
417.192	504.14
417.4	559.44
417.608	590.16
417.817	567.63
418.025	678.22
418.233	737.61
418.441	627.02
418.649	643.4
418.857	749.9
419.065	698.7
419.273	766.28
419.481	762.19
419.689	868.68
419.897	887.11
420.105	797
420.313	880.97
420.521	917.83
420.729	872.78
420.937	932.17
421.145	948.55
421.353	1007.94
421.561	1098.05
421.769	1089.86
421.977	1159.49
422.185	1175.88
422.393	1149.25
422.601	1222.98
422.809	1288.51
423.017	1270.08
423.224	1337.66
423.432	1349.95
423.64	1323.33
423.848	1556.8
424.056	1421.63
424.263	1599.8
424.471	1612.09
424.679	1538.37
424.887	1771.83
425.094	1698.11
425.302	1763.64
425.51	1808.7
425.718	1933.62
425.925	1818.94
426.133	1982.78
426.341	2031.93
426.548	2228.53
426.756	2298.16
426.964	2289.97
427.171	2330.93
427.379	2412.85
427.586	2457.9
427.794	2554.16
428.001	2570.54
428.209	2666.8
428.417	2718
428.624	2832.68
428.832	2906.41
429.039	2847.02
429.247	2703.66
429.454	3229.99
429.662	3397.92
429.869	3049.77
430.076	3318.05
430.284	3252.52
430.491	3416.35
430.699	3551.52
430.906	3490.08
431.114	3598.62
431.321	3764.51
431.528	3784.99
431.736	4063.51
431.943	4170.01
432.15	4266.26
432.358	4151.57
432.565	4489.49
432.772	4358.42
432.979	4489.49
433.187	4841.74
433.394	4731.15
433.601	4952.33
433.808	4989.19
434.016	5091.59
434.223	5132.55
434.43	5634.3
434.637	5396.74
434.844	5859.58
435.052	5890.3
435.259	5722.37
435.466	5888.25
435.673	5845.24
435.88	6095.1
436.087	6525.17
436.294	6529.27
436.501	6301.94
436.708	6557.94
436.915	6639.86
437.122	6975.72
437.329	6934.76
437.537	7198.95
437.743	7413.99
437.95	7129.32
438.157	7665.89
438.364	8106.2
438.571	8044.76
438.778	7987.42
438.985	8583.38
439.192	8429.78
439.399	8388.82
439.606	8505.56
439.813	8923.34
440.02	9191.63
440.227	9013.45
440.433	9146.57
440.64	9267.4
440.847	9312.46
441.054	9603.27
441.261	10193.08
441.467	10035.39
441.674	10389.69
441.881	10645.68
442.088	10350.78
442.294	10655.92
442.501	10950.83
442.708	11157.68
442.914	11440.29
443.121	11985.05
443.328	11663.52
443.534	12429.46
443.741	12066.97
443.948	11825.31
444.154	12738.71
444.361	12716.18
444.568	12664.98
444.774	12918.93
444.981	12851.35
445.187	13242.51
445.394	14020.74
445.6	13523.08
445.807	14905.46
446.013	14368.89
446.22	14489.72
446.426	15192.17
446.633	15329.39
446.839	15691.88
447.046	14989.42
447.252	15984.74
447.459	16119.9
447.665	16005.22
447.871	16437.34
448.078	17219.66
448.284	16466.01
448.491	17045.59
448.697	17496.14
448.903	18010.18
449.11	17840.2
449.316	17670.22
449.522	17901.64
449.728	18401.34
449.935	18577.47
450.141	18681.91
450.347	18970.68
450.553	18227.26
450.76	18591.8
450.966	19138.61
451.172	18927.67
451.378	19251.25
451.584	19036.21
451.791	19181.62
451.997	19677.23
452.203	19595.31
452.409	19615.79
452.615	19349.55
452.821	18853.94
453.027	18360.38
453.233	19683.37
453.44	18649.14
453.646	18931.76
453.852	19183.66
454.058	19554.35
454.264	18622.52
454.47	19173.42
454.676	18681.91
454.882	19251.25
455.088	17823.81
455.294	17717.32
455.5	18190.4
455.705	18389.05
455.911	17522.76
456.117	17365.07
456.323	16799.83
456.529	16009.31
456.735	16691.29
456.941	16287.84
457.147	16076.9
457.352	15689.83
457.558	15530.09
457.764	15415.4
457.97	15200.37
458.176	14731.38
458.381	14655.61
458.587	14065.79
458.793	13817.99
458.999	13197.45
459.204	14372.99
459.41	13908.1
459.616	12785.81
459.821	12861.59
460.027	12886.16
460.233	12570.77
460.438	11989.15
460.644	12089.5
460.85	11554.98
461.055	11464.87
461.261	11507.88
461.466	10617.01
461.672	10121.4
461.878	10897.58
462.083	10289.34
462.289	10031.29
462.494	9830.59
462.7	9482.44
462.905	9457.86
463.111	9584.84
463.316	9642.18
463.522	9418.95
463.727	9380.04
463.932	9425.09
464.138	9322.7
464.343	9146.57
464.549	9287.88
464.754	9322.7
464.959	9605.31
465.165	9365.7
465.37	8980.68
465.575	8712.4
465.781	8937.68
465.986	9070.79
466.191	8554.71
466.397	8634.58
466.602	8020.19
466.807	8540.37
467.012	8351.96
467.218	8351.96
467.423	8169.69
467.628	8263.9
467.833	8638.67
468.038	8401.11
468.244	8143.07
468.449	8523.99
468.654	8179.93
468.859	8102.11
469.064	7995.61
469.269	7758.05
469.474	7782.62
