Data from USB4F104151__38__11-05-22-670.txt Node

Date: Wed Mar 12 11:05:22 EDT 2025
User: louis
Spectrometer: USB4F10415
Trigger mode: 4
Integration Time (sec): 2.000000E-2
Scans to average: 1
Electric dark correction enabled: true
Nonlinearity correction enabled: false
Boxcar width: 0
XAxis mode: Wavelengths
Number of Pixels in Spectrum: 3648
>>>>>Begin Spectral Data<<<<<
178.204	-89.09
178.424	-89.09
178.644	-89.09
178.864	-89.09
179.084	-82.94
179.304	-11.26
179.524	-19.46
179.744	1.02
179.964	-3.07
180.184	-27.65
180.404	29.7
180.624	-15.36
180.844	41.98
181.064	-9.22
181.283	35.84
181.503	-3.07
181.723	-19.46
181.943	39.94
182.163	52.22
182.383	5.12
182.602	93.18
182.822	9.22
183.042	70.65
183.262	52.22
183.482	64.51
183.701	41.98
183.921	50.18
184.141	-3.07
184.361	93.18
184.58	54.27
184.8	44.03
185.02	-23.55
185.239	5.12
185.459	-9.22
185.679	46.08
185.898	-3.07
186.118	-7.17
186.338	-76.8
186.557	89.09
186.777	-11.26
186.997	-7.17
187.216	50.18
187.436	87.04
187.655	82.94
187.875	29.7
188.095	-44.03
188.314	87.04
188.534	54.27
188.753	-15.36
188.973	-11.26
189.192	58.37
189.412	19.46
189.631	50.18
189.851	72.7
190.07	66.56
190.29	-80.89
190.509	5.12
190.729	-5.12
190.948	21.5
191.168	31.74
191.387	80.89
191.607	50.18
191.826	3.07
192.045	13.31
192.265	80.89
192.484	52.22
192.704	68.61
192.923	76.8
193.142	82.94
193.362	58.37
193.581	52.22
193.8	19.46
194.02	-19.46
194.239	62.46
194.458	19.46
194.678	37.89
194.897	23.55
195.116	31.74
195.335	56.32
195.555	44.03
195.774	-19.46
195.993	60.42
196.212	19.46
196.432	-9.22
196.651	62.46
196.87	33.79
197.089	48.13
197.308	50.18
197.528	80.89
197.747	56.32
197.966	33.79
198.185	64.51
198.404	19.46
198.623	103.42
198.842	-23.55
199.062	66.56
199.281	41.98
199.5	-41.98
199.719	17.41
199.938	46.08
200.157	68.61
200.376	101.37
200.595	162.81
200.814	29.7
201.033	35.84
201.252	-35.84
201.471	41.98
201.69	82.94
201.909	-35.84
202.128	7.17
202.347	-29.7
202.566	48.13
202.785	52.22
203.004	19.46
203.223	64.51
203.442	15.36
203.661	64.51
203.879	52.22
204.098	68.61
204.317	9.22
204.536	-17.41
204.755	101.37
204.974	46.08
205.193	80.89
205.411	60.42
205.63	78.85
205.849	25.6
206.068	56.32
206.287	46.08
206.505	17.41
206.724	46.08
206.943	44.03
207.162	23.55
207.381	41.98
207.599	15.36
207.818	-15.36
208.037	35.84
208.255	37.89
208.474	31.74
208.693	99.33
208.911	33.79
209.13	-1.02
209.349	27.65
209.567	9.22
209.786	23.55
210.005	64.51
210.223	15.36
210.442	11.26
210.661	41.98
210.879	-52.22
211.098	66.56
211.316	17.41
211.535	3.07
211.753	62.46
211.972	68.61
212.191	74.75
212.409	35.84
212.628	33.79
212.846	66.56
213.065	39.94
213.283	91.13
213.502	41.98
213.72	19.46
213.938	39.94
214.157	23.55
214.375	72.7
214.594	5.12
214.812	35.84
215.031	99.33
215.249	3.07
215.467	97.28
215.686	35.84
215.904	11.26
216.122	1.02
216.341	56.32
216.559	-9.22
216.778	52.22
216.996	97.28
217.214	44.03
217.432	-31.74
217.651	11.26
217.869	80.89
218.087	15.36
218.306	46.08
218.524	82.94
218.742	44.03
218.96	31.74
219.179	17.41
219.397	3.07
219.615	125.95
219.833	52.22
220.051	-15.36
220.27	35.84
220.488	74.75
220.706	-17.41
220.924	33.79
221.142	19.46
221.36	-17.41
221.578	-31.74
221.796	9.22
222.015	74.75
222.233	3.07
222.451	44.03
222.669	52.22
222.887	54.27
223.105	-23.55
223.323	76.8
223.541	39.94
223.759	25.6
223.977	31.74
224.195	64.51
224.413	70.65
224.631	58.37
224.849	50.18
225.067	23.55
225.285	78.85
225.503	33.79
225.721	7.17
225.939	66.56
226.157	37.89
226.375	150.53
226.592	35.84
226.81	17.41
227.028	99.33
227.246	105.47
227.464	21.5
227.682	54.27
227.9	60.42
228.117	29.7
228.335	39.94
228.553	72.7
228.771	54.27
228.989	80.89
229.206	-3.07
229.424	41.98
229.642	1.02
229.86	-1.02
230.077	70.65
230.295	46.08
230.513	91.13
230.731	58.37
230.948	103.42
231.166	-5.12
231.384	-1.02
231.601	13.31
231.819	33.79
232.037	23.55
232.254	31.74
232.472	99.33
232.689	7.17
232.907	70.65
233.125	37.89
233.342	-15.36
233.56	27.65
233.777	21.5
233.995	54.27
234.213	-17.41
234.43	19.46
234.648	37.89
234.865	66.56
235.083	91.13
235.3	-5.12
235.518	44.03
235.735	107.52
235.953	99.33
236.17	-5.12
236.388	21.5
236.605	60.42
236.822	87.04
237.04	66.56
237.257	31.74
237.475	17.41
237.692	64.51
237.909	17.41
238.127	37.89
238.344	54.27
238.562	54.27
238.779	60.42
238.996	25.6
239.214	97.28
239.431	56.32
239.648	-11.26
239.865	101.37
240.083	19.46
240.3	25.6
240.517	-27.65
240.735	60.42
240.952	58.37
241.169	17.41
241.386	60.42
241.603	80.89
241.821	17.41
242.038	19.46
242.255	39.94
242.472	99.33
242.689	95.23
242.907	1.02
243.124	50.18
243.341	82.94
243.558	-3.07
243.775	52.22
243.992	72.7
244.209	50.18
244.426	37.89
244.643	80.89
244.86	-17.41
245.078	60.42
245.295	107.52
245.512	48.13
245.729	95.23
245.946	21.5
246.163	17.41
246.38	13.31
246.597	9.22
246.814	46.08
247.031	-1.02
247.248	66.56
247.464	17.41
247.681	27.65
247.898	31.74
248.115	17.41
248.332	50.18
248.549	56.32
248.766	140.29
248.983	78.85
249.2	58.37
249.417	74.75
249.633	9.22
249.85	87.04
250.067	39.94
250.284	7.17
250.501	31.74
250.717	140.29
250.934	7.17
251.151	11.26
251.368	23.55
251.585	29.7
251.801	48.13
252.018	39.94
252.235	58.37
252.451	13.31
252.668	-27.65
252.885	52.22
253.102	29.7
253.318	33.79
253.535	58.37
253.752	70.65
253.968	23.55
254.185	-46.08
254.401	99.33
254.618	72.7
254.835	27.65
255.051	87.04
255.268	23.55
255.484	31.74
255.701	9.22
255.917	44.03
256.134	-19.46
256.351	50.18
256.567	1.02
256.784	37.89
257	21.5
257.217	44.03
257.433	46.08
257.65	66.56
257.866	7.17
258.082	66.56
258.299	31.74
258.515	128
258.732	54.27
258.948	-17.41
259.165	70.65
259.381	64.51
259.597	41.98
259.814	48.13
260.03	-31.74
260.246	68.61
260.463	74.75
260.679	39.94
260.895	21.5
261.112	-9.22
261.328	76.8
261.544	62.46
261.761	138.24
261.977	72.7
262.193	70.65
262.409	97.28
262.626	58.37
262.842	68.61
263.058	33.79
263.274	15.36
263.49	62.46
263.707	33.79
263.923	1.02
264.139	-33.79
264.355	21.5
264.571	152.57
264.787	31.74
265.004	91.13
265.22	25.6
265.436	23.55
265.652	17.41
265.868	-3.07
266.084	31.74
266.3	13.31
266.516	25.6
266.732	48.13
266.948	60.42
267.164	29.7
267.38	44.03
267.596	115.71
267.812	41.98
268.028	56.32
268.244	9.22
268.46	140.29
268.676	68.61
268.892	74.75
269.108	76.8
269.324	78.85
269.54	41.98
269.756	52.22
269.972	9.22
270.188	21.5
270.403	11.26
270.619	25.6
270.835	7.17
271.051	44.03
271.267	44.03
271.483	54.27
271.698	39.94
271.914	146.43
272.13	56.32
272.346	17.41
272.562	9.22
272.777	50.18
272.993	60.42
273.209	7.17
273.425	9.22
273.64	56.32
273.856	62.46
274.072	-64.51
274.287	72.7
274.503	58.37
274.719	111.61
274.934	7.17
275.15	-37.89
275.366	29.7
275.581	80.89
275.797	27.65
276.012	31.74
276.228	17.41
276.444	48.13
276.659	128
276.875	46.08
277.09	21.5
277.306	50.18
277.521	87.04
277.737	-3.07
277.952	111.61
278.168	-46.08
278.383	33.79
278.599	58.37
278.814	21.5
279.03	33.79
279.245	58.37
279.461	113.66
279.676	64.51
279.892	-1.02
280.107	-1.02
280.322	52.22
280.538	15.36
280.753	21.5
280.969	37.89
281.184	5.12
281.399	41.98
281.615	50.18
281.83	105.47
282.045	50.18
282.26	52.22
282.476	121.85
282.691	93.18
282.906	82.94
283.122	44.03
283.337	27.65
283.552	39.94
283.767	-5.12
283.983	89.09
284.198	-1.02
284.413	123.9
284.628	82.94
284.843	41.98
285.058	62.46
285.274	31.74
285.489	-7.17
285.704	105.47
285.919	62.46
286.134	74.75
286.349	33.79
286.564	119.81
286.779	54.27
286.995	19.46
287.21	50.18
287.425	76.8
287.64	29.7
287.855	89.09
288.07	17.41
288.285	64.51
288.5	-3.07
288.715	58.37
288.93	-5.12
289.145	62.46
289.36	60.42
289.575	70.65
289.79	109.57
290.004	138.24
290.219	54.27
290.434	44.03
290.649	125.95
290.864	44.03
291.079	78.85
291.294	66.56
291.509	91.13
291.724	89.09
291.938	33.79
292.153	29.7
292.368	5.12
292.583	72.7
292.798	148.48
293.012	-7.17
293.227	-7.17
293.442	103.42
293.657	66.56
293.871	113.66
294.086	46.08
294.301	101.37
294.516	3.07
294.73	89.09
294.945	1.02
295.16	50.18
295.374	46.08
295.589	128
295.804	29.7
296.018	-1.02
296.233	105.47
296.447	41.98
296.662	1.02
296.877	50.18
297.091	52.22
297.306	-37.89
297.52	46.08
297.735	13.31
297.949	60.42
298.164	142.33
298.378	87.04
298.593	9.22
298.807	33.79
299.022	31.74
299.236	84.99
299.451	56.32
299.665	44.03
299.88	72.7
300.094	29.7
300.309	46.08
300.523	5.12
300.737	132.09
300.952	23.55
301.166	130.05
301.381	-1.02
301.595	89.09
301.809	70.65
302.024	70.65
302.238	33.79
302.452	128
302.667	1.02
302.881	87.04
303.095	23.55
303.309	72.7
303.524	48.13
303.738	80.89
303.952	50.18
304.166	46.08
304.381	-9.22
304.595	80.89
304.809	33.79
305.023	80.89
305.237	66.56
305.452	37.89
305.666	62.46
305.88	105.47
306.094	5.12
306.308	52.22
306.522	25.6
306.736	21.5
306.95	54.27
307.164	136.19
307.379	101.37
307.593	46.08
307.807	54.27
308.021	23.55
308.235	58.37
308.449	11.26
308.663	80.89
308.877	119.81
309.091	93.18
309.305	29.7
309.519	-25.6
309.733	1.02
309.947	-5.12
310.161	31.74
310.374	39.94
310.588	62.46
310.802	7.17
311.016	29.7
311.23	33.79
311.444	84.99
311.658	-33.79
311.872	119.81
312.085	60.42
312.299	54.27
312.513	74.75
312.727	95.23
312.941	-7.17
313.154	72.7
313.368	3.07
313.582	78.85
313.796	54.27
314.009	72.7
314.223	91.13
314.437	33.79
314.651	-27.65
314.864	-31.74
315.078	48.13
315.292	-1.02
315.505	39.94
315.719	97.28
315.933	80.89
316.146	35.84
316.36	17.41
316.573	54.27
316.787	52.22
317.001	48.13
317.214	44.03
317.428	46.08
317.641	11.26
317.855	21.5
318.068	15.36
318.282	119.81
318.495	54.27
318.709	78.85
318.922	19.46
319.136	39.94
319.349	50.18
319.563	111.61
319.776	13.31
319.99	29.7
320.203	23.55
320.417	62.46
320.63	78.85
320.843	46.08
321.057	-33.79
321.27	48.13
321.483	60.42
321.697	87.04
321.91	80.89
322.124	37.89
322.337	97.28
322.55	64.51
322.763	121.85
322.977	91.13
323.19	23.55
323.403	70.65
323.617	13.31
323.83	1.02
324.043	52.22
324.256	78.85
324.469	50.18
324.683	103.42
324.896	58.37
325.109	115.71
325.322	13.31
325.535	52.22
325.748	-37.89
325.962	80.89
326.175	107.52
326.388	99.33
326.601	82.94
326.814	25.6
327.027	29.7
327.24	74.75
327.453	-23.55
327.666	109.57
327.879	117.76
328.092	39.94
328.305	56.32
328.518	39.94
328.731	17.41
328.944	37.89
329.157	82.94
329.37	39.94
329.583	97.28
329.796	136.19
330.009	99.33
330.222	99.33
330.435	-9.22
330.648	105.47
330.861	52.22
331.073	23.55
331.286	37.89
331.499	41.98
331.712	62.46
331.925	82.94
332.138	37.89
332.35	62.46
332.563	111.61
332.776	66.56
332.989	-19.46
333.202	58.37
333.414	19.46
333.627	-17.41
333.84	115.71
334.053	17.41
334.265	103.42
334.478	48.13
334.691	19.46
334.903	74.75
335.116	50.18
335.329	25.6
335.541	5.12
335.754	107.52
335.966	84.99
336.179	44.03
336.392	74.75
336.604	78.85
336.817	72.7
337.029	44.03
337.242	107.52
337.454	37.89
337.667	132.09
337.88	23.55
338.092	74.75
338.305	52.22
338.517	95.23
338.729	121.85
338.942	74.75
339.154	99.33
339.367	15.36
339.579	113.66
339.792	60.42
340.004	82.94
340.217	-15.36
340.429	-13.31
340.641	37.89
340.854	-11.26
341.066	70.65
341.278	44.03
341.491	70.65
341.703	68.61
341.915	87.04
342.128	74.75
342.34	64.51
342.552	80.89
342.764	-3.07
342.977	19.46
343.189	76.8
343.401	84.99
343.613	-17.41
343.826	76.8
344.038	72.7
344.25	109.57
344.462	58.37
344.674	54.27
344.886	54.27
345.099	41.98
345.311	80.89
345.523	80.89
345.735	74.75
345.947	70.65
346.159	-1.02
346.371	107.52
346.583	44.03
346.795	80.89
347.007	105.47
347.219	109.57
347.431	84.99
347.643	48.13
347.855	31.74
348.067	97.28
348.279	11.26
348.491	64.51
348.703	132.09
348.915	-1.02
349.127	-7.17
349.339	80.89
349.551	56.32
349.763	21.5
349.975	101.37
350.187	54.27
350.399	130.05
350.61	60.42
350.822	101.37
351.034	70.65
351.246	46.08
351.458	84.99
351.669	58.37
351.881	64.51
352.093	146.43
352.305	99.33
352.517	66.56
352.728	107.52
352.94	21.5
353.152	68.61
353.363	-11.26
353.575	-1.02
353.787	17.41
353.999	123.9
354.21	46.08
354.422	21.5
354.633	31.74
354.845	87.04
355.057	78.85
355.268	82.94
355.48	33.79
355.692	60.42
355.903	50.18
356.115	111.61
356.326	121.85
356.538	66.56
356.749	19.46
356.961	48.13
357.172	70.65
357.384	33.79
357.595	105.47
357.807	136.19
358.018	78.85
358.23	56.32
358.441	119.81
358.653	68.61
358.864	-35.84
359.075	68.61
359.287	-9.22
359.498	74.75
359.709	105.47
359.921	17.41
360.132	52.22
360.344	37.89
360.555	54.27
360.766	146.43
360.977	115.71
361.189	39.94
361.4	41.98
361.611	56.32
361.823	60.42
362.034	70.65
362.245	62.46
362.456	39.94
362.667	84.99
362.879	50.18
363.09	97.28
363.301	82.94
363.512	15.36
363.723	101.37
363.935	97.28
364.146	87.04
364.357	87.04
364.568	46.08
364.779	50.18
364.99	19.46
365.201	39.94
365.412	87.04
365.623	48.13
365.834	17.41
366.045	78.85
366.256	62.46
366.467	72.7
366.678	105.47
366.889	99.33
367.1	56.32
367.311	66.56
367.522	76.8
367.733	70.65
367.944	150.53
368.155	70.65
368.366	119.81
368.577	66.56
368.788	95.23
368.999	1.02
369.209	9.22
369.42	84.99
369.631	54.27
369.842	41.98
370.053	76.8
370.264	150.53
370.474	52.22
370.685	31.74
370.896	48.13
371.107	62.46
371.317	156.67
371.528	74.75
371.739	17.41
371.95	68.61
372.16	164.86
372.371	19.46
372.582	52.22
372.792	82.94
373.003	103.42
373.214	29.7
373.424	37.89
373.635	93.18
373.846	76.8
374.056	111.61
374.267	46.08
374.477	82.94
374.688	46.08
374.898	50.18
375.109	80.89
375.319	82.94
375.53	93.18
375.74	64.51
375.951	68.61
376.161	78.85
376.372	109.57
376.582	111.61
376.793	44.03
377.003	3.07
377.214	95.23
377.424	39.94
377.635	74.75
377.845	-23.55
378.055	5.12
378.266	-33.79
378.476	66.56
378.686	21.5
378.897	44.03
379.107	72.7
379.317	109.57
379.528	66.56
379.738	113.66
379.948	5.12
380.158	128
380.369	74.75
380.579	95.23
380.789	91.13
380.999	105.47
381.21	140.29
381.42	158.72
381.63	50.18
381.84	109.57
382.05	64.51
382.261	105.47
382.471	113.66
382.681	11.26
382.891	46.08
383.101	89.09
383.311	-9.22
383.521	31.74
383.731	58.37
383.941	119.81
384.151	-1.02
384.361	54.27
384.571	48.13
384.781	115.71
384.991	66.56
385.201	115.71
385.411	87.04
385.621	99.33
385.831	138.24
386.041	144.38
386.251	-13.31
386.461	117.76
386.671	72.7
386.881	62.46
387.091	87.04
387.301	72.7
387.511	80.89
387.72	125.95
387.93	142.33
388.14	60.42
388.35	64.51
388.56	5.12
388.769	93.18
388.979	19.46
389.189	64.51
389.399	58.37
389.609	48.13
389.818	103.42
390.028	68.61
390.238	179.2
390.447	101.37
390.657	70.65
390.867	64.51
391.076	72.7
391.286	64.51
391.496	56.32
391.705	33.79
391.915	62.46
392.125	17.41
392.334	78.85
392.544	113.66
392.753	62.46
392.963	160.77
393.172	111.61
393.382	-3.07
393.591	181.25
393.801	78.85
394.01	185.34
394.22	89.09
394.429	68.61
394.639	54.27
394.848	37.89
395.058	93.18
395.267	54.27
395.477	66.56
395.686	91.13
395.895	123.9
396.105	105.47
396.314	99.33
396.524	50.18
396.733	103.42
396.942	109.57
397.152	21.5
397.361	105.47
397.57	72.7
397.78	107.52
397.989	82.94
398.198	171.01
398.407	44.03
398.617	50.18
398.826	50.18
399.035	128
399.244	99.33
399.453	146.43
399.663	105.47
399.872	99.33
400.081	80.89
400.29	142.33
400.499	105.47
400.708	130.05
400.917	82.94
401.127	177.15
401.336	35.84
401.545	123.9
401.754	156.67
401.963	140.29
402.172	185.34
402.381	132.09
402.59	113.66
402.799	144.38
403.008	138.24
403.217	220.16
403.426	177.15
403.635	72.7
403.844	119.81
404.053	216.06
404.262	82.94
404.471	76.8
404.68	162.81
404.888	177.15
405.097	134.14
405.306	164.86
405.515	115.71
405.724	140.29
405.933	220.16
406.142	136.19
406.35	158.72
406.559	183.29
406.768	162.81
406.977	185.34
407.185	99.33
407.394	177.15
407.603	160.77
407.812	166.91
408.02	230.4
408.229	203.77
408.438	197.63
408.646	228.35
408.855	205.82
409.064	275.45
409.272	199.68
409.481	283.64
409.69	281.6
409.898	242.68
410.107	279.55
410.315	302.08
410.524	304.12
410.733	355.32
410.941	338.94
411.15	357.37
411.358	312.32
411.567	351.23
411.775	392.19
411.984	375.8
412.192	369.66
412.401	414.71
412.609	377.85
412.818	463.86
413.026	467.96
413.234	478.2
413.443	492.54
413.651	451.58
413.86	490.49
414.068	607.22
414.276	609.27
414.485	558.07
414.693	631.8
414.901	605.17
415.11	596.98
415.318	588.79
415.526	635.89
415.734	697.33
415.943	648.18
416.151	742.39
416.359	678.9
416.567	740.34
416.776	820.21
416.984	873.46
417.192	756.72
417.4	855.03
417.608	828.4
417.817	887.79
418.025	984.05
418.233	957.43
418.441	1020.91
418.649	1020.91
418.857	1065.97
419.065	1149.93
419.273	1174.51
419.481	1194.99
419.689	1350.64
419.897	1364.97
420.105	1338.35
420.313	1401.83
420.521	1414.12
420.729	1457.13
420.937	1506.28
421.145	1633.26
421.353	1618.92
421.561	1629.16
421.769	1768.42
421.977	1799.14
422.185	1901.54
422.393	1887.2
422.601	2114.53
422.809	2051.04
423.017	2003.94
423.224	2040.8
423.432	2135.01
423.64	2190.3
423.848	2391
424.056	2343.9
424.263	2540.51
424.471	2536.41
424.679	2610.14
424.887	2690.01
425.094	2743.25
425.302	2769.88
425.51	3021.78
425.718	3077.07
425.925	2966.48
426.133	3118.03
426.341	3292.11
426.548	3347.4
426.756	3402.7
426.964	3441.61
427.171	3720.14
427.379	3834.82
427.586	3853.25
427.794	3945.41
428.001	4146.11
428.209	4326.33
428.417	4211.65
428.624	4606.91
428.832	4529.08
429.039	4385.73
429.247	4455.36
429.454	5061.55
429.662	5307.31
429.869	5051.31
430.076	5184.43
430.284	5026.74
430.491	5329.84
430.699	5626.79
430.906	5653.42
431.114	5706.66
431.321	5845.93
431.528	6241.18
431.736	6407.07
431.943	6595.48
432.15	6695.83
432.358	6744.99
432.565	6869.91
432.772	7117.72
432.979	7338.9
433.187	7383.95
433.394	7664.52
433.601	8065.92
433.808	8049.54
434.016	7889.8
434.223	8295.3
434.43	8838.01
434.637	8741.75
434.844	9161.59
435.052	9487.22
435.259	9286.51
435.466	9323.38
435.673	9376.62
435.88	9864.04
436.087	10455.9
436.294	10244.96
436.501	10275.68
436.708	10396.51
436.915	10582.88
437.122	11303.76
437.329	11113.3
437.537	11553.62
437.743	11608.91
437.95	11688.78
438.157	12456.77
438.364	12616.51
438.571	12643.14
438.778	12591.94
438.985	13910.83
439.192	13202.23
439.399	13955.88
439.606	13464.37
439.813	14103.34
440.02	15115.03
440.227	14641.95
440.433	14879.52
440.64	15274.77
440.847	14816.03
441.054	15569.68
441.261	16538.37
441.467	16231.18
441.674	16442.12
441.881	17146.62
442.088	17017.6
442.294	17046.27
442.501	17562.36
442.708	17930.99
442.914	18555.62
443.121	19075.8
443.328	18885.34
443.534	19851.99
443.741	19643.09
443.948	19114.72
444.154	20579.01
444.361	20400.84
444.568	20624.07
444.774	20673.22
444.981	20867.78
445.187	21494.46
445.394	22522.54
445.6	22123.18
445.807	24550.03
446.013	23046.82
446.22	23610.01
446.426	24621.7
446.633	25115.26
446.839	25651.83
447.046	24814.21
447.252	26026.61
447.459	26059.38
447.665	26065.52
447.871	26784.36
448.078	27914.84
448.284	26831.46
448.491	27564.64
448.697	28541.52
448.903	28936.77
449.11	28914.25
449.316	28336.72
449.522	28899.91
449.728	29882.94
449.935	30259.76
450.141	30001.72
450.347	30544.43
450.553	30034.49
450.76	29864.5
450.966	30849.58
451.172	30847.53
451.378	31203.88
451.584	30900.78
451.791	31736.35
451.997	31328.8
452.203	31404.58
452.409	31730.2
452.615	31601.18
452.821	30173.75
453.027	29991.48
453.233	31175.2
453.44	30171.7
453.646	30429.74
453.852	30569.01
454.058	31128.1
454.264	29966.9
454.47	30781.99
454.676	30186.04
454.882	31216.16
455.088	28346.96
455.294	28439.12
455.5	29092.42
455.705	29035.08
455.911	28213.84
456.117	27511.39
456.323	26802.79
456.529	25514.62
456.735	26833.51
456.941	25936.5
457.147	25563.77
457.352	24732.29
457.558	24402.57
457.764	24570.51
457.97	23943.83
458.176	23188.13
458.381	23564.95
458.587	22194.86
458.793	22088.37
458.999	21242.56
459.204	22721.19
459.41	22219.44
459.616	20638.41
459.821	20482.76
460.027	20353.74
460.233	19899.09
460.438	19165.92
460.644	19485.4
460.85	18428.65
461.055	18217.71
461.261	18225.9
461.466	16849.66
461.672	16233.22
461.878	17269.5
462.083	16134.92
462.289	16016.14
462.494	15807.25
462.7	15330.07
462.905	14707.49
463.111	15217.43
463.316	15268.63
463.522	14924.57
463.727	15051.55
463.932	14633.76
464.138	14766.88
464.343	14689.06
464.549	14422.82
464.754	14928.67
464.959	14662.43
465.165	14676.77
465.37	14150.44
465.575	13902.64
465.781	14363.43
465.986	14453.54
466.191	13765.42
466.397	13609.78
466.602	13042.49
466.807	13460.27
467.012	13376.31
467.218	13204.28
467.423	13151.03
467.628	13343.54
467.833	13763.37
