Data from USB4F104151__254__11-11-45-268.txt Node

Date: Wed Mar 12 11:11:45 EDT 2025
User: louis
Spectrometer: USB4F10415
Trigger mode: 4
Integration Time (sec): 2.000000E-2
Scans to average: 1
Electric dark correction enabled: true
Nonlinearity correction enabled: false
Boxcar width: 0
XAxis mode: Wavelengths
Number of Pixels in Spectrum: 3648
>>>>>Begin Spectral Data<<<<<
178.204	-87.38
178.424	-87.38
178.644	-87.38
178.864	-107.86
179.084	-81.24
179.304	-34.13
179.524	19.11
179.744	12.97
179.964	4.78
180.184	27.31
180.404	21.16
180.624	12.97
180.844	2.73
181.064	-38.23
181.283	2.73
181.503	-46.42
181.723	15.02
181.943	-1.37
182.163	84.65
182.383	-13.65
182.602	43.69
182.822	19.11
183.042	43.69
183.262	39.59
183.482	15.02
183.701	60.07
183.921	43.69
184.141	76.46
184.361	70.31
184.58	-25.94
184.8	0.68
185.02	27.31
185.239	17.07
185.459	33.45
185.679	66.22
185.898	10.92
186.118	31.4
186.338	78.51
186.557	39.59
186.777	29.35
186.997	96.94
187.216	43.69
187.436	31.4
187.655	12.97
187.875	0.68
188.095	0.68
188.314	37.55
188.534	88.75
188.753	-21.85
188.973	47.79
189.192	60.07
189.412	0.68
189.631	62.12
189.851	82.6
190.07	76.46
190.29	-46.42
190.509	45.74
190.729	-54.61
190.948	47.79
191.168	98.99
191.387	33.45
191.607	35.5
191.826	-9.56
192.045	25.26
192.265	-3.41
192.484	49.83
192.704	58.03
192.923	23.21
193.142	74.41
193.362	6.83
193.581	10.92
193.8	-9.56
194.02	-17.75
194.239	53.93
194.458	33.45
194.678	45.74
194.897	10.92
195.116	78.51
195.335	31.4
195.555	72.36
195.774	-11.61
195.993	170.66
196.212	80.55
196.432	35.5
196.651	96.94
196.87	35.5
197.089	33.45
197.308	-3.41
197.528	6.83
197.747	15.02
197.966	39.59
198.185	43.69
198.404	82.6
198.623	78.51
198.842	0.68
199.062	80.55
199.281	4.78
199.5	-25.94
199.719	-34.13
199.938	-30.04
200.157	55.98
200.376	80.55
200.595	15.02
200.814	78.51
201.033	51.88
201.252	49.83
201.471	-25.94
201.69	60.07
201.909	53.93
202.128	49.83
202.347	0.68
202.566	55.98
202.785	-7.51
203.004	-17.75
203.223	113.32
203.442	37.55
203.661	-3.41
203.879	17.07
204.098	72.36
204.317	84.65
204.536	2.73
204.755	23.21
204.974	72.36
205.193	15.02
205.411	125.61
205.63	133.8
205.849	51.88
206.068	-30.04
206.287	-50.52
206.505	45.74
206.724	19.11
206.943	-3.41
207.162	-1.37
207.381	68.27
207.599	12.97
207.818	6.83
208.037	31.4
208.255	4.78
208.474	94.89
208.693	78.51
208.911	131.75
209.13	39.59
209.349	109.22
209.567	8.87
209.786	23.21
210.005	53.93
210.223	2.73
210.442	-38.23
210.661	76.46
210.879	41.64
211.098	15.02
211.316	62.12
211.535	10.92
211.753	62.12
211.972	23.21
212.191	41.64
212.409	-5.46
212.628	51.88
212.846	70.31
213.065	21.16
213.283	66.22
213.502	-3.41
213.72	84.65
213.938	19.11
214.157	47.79
214.375	68.27
214.594	68.27
214.812	35.5
215.031	8.87
215.249	12.97
215.467	49.83
215.686	119.46
215.904	19.11
216.122	12.97
216.341	19.11
216.559	47.79
216.778	19.11
216.996	135.85
217.214	6.83
217.432	29.35
217.651	4.78
217.869	-48.47
218.087	25.26
218.306	58.03
218.524	43.69
218.742	-1.37
218.96	51.88
219.179	92.84
219.397	6.83
219.615	60.07
219.833	49.83
220.051	27.31
220.27	43.69
220.488	35.5
220.706	51.88
220.924	-87.38
221.142	58.03
221.36	70.31
221.578	-19.8
221.796	-15.7
222.015	-9.56
222.233	-40.28
222.451	62.12
222.669	21.16
222.887	43.69
223.105	49.83
223.323	43.69
223.541	-1.37
223.759	-1.37
223.977	111.27
224.195	123.56
224.413	60.07
224.631	49.83
224.849	60.07
225.067	23.21
225.285	10.92
225.503	78.51
225.721	21.16
225.939	19.11
226.157	113.32
226.375	96.94
226.592	-25.94
226.81	64.17
227.028	2.73
227.246	82.6
227.464	21.16
227.682	10.92
227.9	-5.46
228.117	-23.89
228.335	27.31
228.553	27.31
228.771	-34.13
228.989	78.51
229.206	-15.7
229.424	-9.56
229.642	94.89
229.86	12.97
230.077	39.59
230.295	23.21
230.513	47.79
230.731	19.11
230.948	64.17
231.166	8.87
231.384	78.51
231.601	-11.61
231.819	80.55
232.037	53.93
232.254	15.02
232.472	78.51
232.689	21.16
232.907	84.65
233.125	53.93
233.342	51.88
233.56	53.93
233.777	39.59
233.995	80.55
234.213	-21.85
234.43	31.4
234.648	88.75
234.865	29.35
235.083	2.73
235.3	41.64
235.518	78.51
235.735	123.56
235.953	68.27
236.17	105.13
236.388	0.68
236.605	17.07
236.822	-9.56
237.04	80.55
237.257	23.21
237.475	27.31
237.692	4.78
237.909	-3.41
238.127	49.83
238.344	39.59
238.562	12.97
238.779	8.87
238.996	37.55
239.214	17.07
239.431	-9.56
239.648	55.98
239.865	41.64
240.083	101.03
240.3	31.4
240.517	43.69
240.735	23.21
240.952	19.11
241.169	-7.51
241.386	51.88
241.603	-68.95
241.821	68.27
242.038	78.51
242.255	-1.37
242.472	25.26
242.689	72.36
242.907	15.02
243.124	45.74
243.341	29.35
243.558	45.74
243.775	-17.75
243.992	12.97
244.209	-3.41
244.426	-17.75
244.643	98.99
244.86	-15.7
245.078	103.08
245.295	-5.46
245.512	21.16
245.729	-38.23
245.946	6.83
246.163	35.5
246.38	90.79
246.597	49.83
246.814	23.21
247.031	-38.23
247.248	103.08
247.464	47.79
247.681	29.35
247.898	10.92
248.115	0.68
248.332	25.26
248.549	60.07
248.766	76.46
248.983	10.92
249.2	-9.56
249.417	111.27
249.633	109.22
249.85	21.16
250.067	58.03
250.284	-7.51
250.501	160.42
250.717	-30.04
250.934	-3.41
251.151	53.93
251.368	0.68
251.585	107.18
251.801	-56.66
252.018	-23.89
252.235	72.36
252.451	80.55
252.668	27.31
252.885	72.36
253.102	64.17
253.318	60.07
253.535	-11.61
253.752	47.79
253.968	21.16
254.185	33.45
254.401	49.83
254.618	43.69
254.835	35.5
255.051	109.22
255.268	37.55
255.484	-1.37
255.701	37.55
255.917	137.9
256.134	84.65
256.351	66.22
256.567	60.07
256.784	35.5
257	17.07
257.217	-5.46
257.433	60.07
257.65	51.88
257.866	55.98
258.082	-1.37
258.299	66.22
258.515	-46.42
258.732	27.31
258.948	-3.41
259.165	84.65
259.381	43.69
259.597	33.45
259.814	103.08
260.03	25.26
260.246	37.55
260.463	51.88
260.679	68.27
260.895	33.45
261.112	12.97
261.328	70.31
261.544	66.22
261.761	-1.37
261.977	-23.89
262.193	45.74
262.409	23.21
262.626	21.16
262.842	41.64
263.058	4.78
263.274	27.31
263.49	27.31
263.707	41.64
263.923	4.78
264.139	29.35
264.355	92.84
264.571	70.31
264.787	12.97
265.004	31.4
265.22	58.03
265.436	-34.13
265.652	23.21
265.868	29.35
266.084	8.87
266.3	27.31
266.516	-17.75
266.732	92.84
266.948	84.65
267.164	78.51
267.38	21.16
267.596	41.64
267.812	66.22
268.028	43.69
268.244	27.31
268.46	10.92
268.676	39.59
268.892	45.74
269.108	19.11
269.324	-32.08
269.54	-30.04
269.756	64.17
269.972	12.97
270.188	58.03
270.403	-27.99
270.619	84.65
270.835	37.55
271.051	47.79
271.267	41.64
271.483	31.4
271.698	64.17
271.914	51.88
272.13	78.51
272.346	111.27
272.562	-1.37
272.777	58.03
272.993	47.79
273.209	-42.32
273.425	10.92
273.64	25.26
273.856	84.65
274.072	-25.94
274.287	-3.41
274.503	94.89
274.719	10.92
274.934	76.46
275.15	25.26
275.366	84.65
275.581	-11.61
275.797	-13.65
276.012	-1.37
276.228	84.65
276.444	27.31
276.659	-1.37
276.875	37.55
277.09	17.07
277.306	72.36
277.521	0.68
277.737	74.41
277.952	51.88
278.168	55.98
278.383	-30.04
278.599	-7.51
278.814	101.03
279.03	35.5
279.245	29.35
279.461	35.5
279.676	33.45
279.892	21.16
280.107	8.87
280.322	23.21
280.538	72.36
280.753	33.45
280.969	115.37
281.184	66.22
281.399	96.94
281.615	60.07
281.83	68.27
282.045	37.55
282.26	27.31
282.476	107.18
282.691	94.89
282.906	41.64
283.122	98.99
283.337	-1.37
283.552	74.41
283.767	43.69
283.983	51.88
284.198	-9.56
284.413	-7.51
284.628	-9.56
284.843	8.87
285.058	21.16
285.274	4.78
285.489	-17.75
285.704	49.83
285.919	-1.37
286.134	70.31
286.349	62.12
286.564	-3.41
286.779	51.88
286.995	70.31
287.21	23.21
287.425	10.92
287.64	-1.37
287.855	-11.61
288.07	10.92
288.285	53.93
288.5	29.35
288.715	10.92
288.93	35.5
289.145	31.4
289.36	60.07
289.575	23.21
289.79	64.17
290.004	-3.41
290.219	-34.13
290.434	45.74
290.649	45.74
290.864	53.93
291.079	-21.85
291.294	-7.51
291.509	-1.37
291.724	74.41
291.938	4.78
292.153	27.31
292.368	-17.75
292.583	55.98
292.798	21.16
293.012	21.16
293.227	94.89
293.442	27.31
293.657	-5.46
293.871	8.87
294.086	21.16
294.301	141.99
294.516	33.45
294.73	58.03
294.945	-21.85
295.16	60.07
295.374	45.74
295.589	43.69
295.804	4.78
296.018	96.94
296.233	121.51
296.447	29.35
296.662	58.03
296.877	74.41
297.091	35.5
297.306	10.92
297.52	23.21
297.735	29.35
297.949	23.21
298.164	25.26
298.378	88.75
298.593	70.31
298.807	31.4
299.022	-11.61
299.236	105.13
299.451	-15.7
299.665	39.59
299.88	19.11
300.094	101.03
300.309	70.31
300.523	51.88
300.737	51.88
300.952	60.07
301.166	43.69
301.381	25.26
301.595	2.73
301.809	-1.37
302.024	-81.24
302.238	8.87
302.452	8.87
302.667	58.03
302.881	0.68
303.095	109.22
303.309	12.97
303.524	17.07
303.738	27.31
303.952	-11.61
304.166	23.21
304.381	-3.41
304.595	70.31
304.809	25.26
305.023	113.32
305.237	53.93
305.452	31.4
305.666	74.41
305.88	82.6
306.094	72.36
306.308	53.93
306.522	21.16
306.736	51.88
306.95	64.17
307.164	-5.46
307.379	19.11
307.593	37.55
307.807	72.36
308.021	127.66
308.235	76.46
308.449	37.55
308.663	33.45
308.877	49.83
309.091	29.35
309.305	129.7
309.519	39.59
309.733	98.99
309.947	-21.85
310.161	-21.85
310.374	31.4
310.588	35.5
310.802	33.45
311.016	10.92
311.23	84.65
311.444	-32.08
311.658	31.4
311.872	49.83
312.085	19.11
312.299	105.13
312.513	21.16
312.727	15.02
312.941	64.17
313.154	96.94
313.368	-17.75
313.582	60.07
313.796	70.31
314.009	10.92
314.223	70.31
314.437	43.69
314.651	31.4
314.864	23.21
315.078	31.4
315.292	37.55
315.505	21.16
315.719	70.31
315.933	-1.37
316.146	10.92
316.36	35.5
316.573	-23.89
316.787	76.46
317.001	47.79
317.214	-85.33
317.428	68.27
317.641	27.31
317.855	29.35
318.068	39.59
318.282	21.16
318.495	74.41
318.709	19.11
318.922	6.83
319.136	68.27
319.349	58.03
319.563	78.51
319.776	43.69
319.99	105.13
320.203	-7.51
320.417	10.92
320.63	39.59
320.843	111.27
321.057	62.12
321.27	43.69
321.483	43.69
321.697	12.97
321.91	17.07
322.124	41.64
322.337	10.92
322.55	92.84
322.763	37.55
322.977	82.6
323.19	12.97
323.403	82.6
323.617	29.35
323.83	45.74
324.043	92.84
324.256	96.94
324.469	-9.56
324.683	60.07
324.896	12.97
325.109	15.02
325.322	-46.42
325.535	78.51
325.748	68.27
325.962	64.17
326.175	45.74
326.388	76.46
326.601	12.97
326.814	72.36
327.027	31.4
327.24	62.12
327.453	-11.61
327.666	90.79
327.879	37.55
328.092	64.17
328.305	105.13
328.518	53.93
328.731	39.59
328.944	47.79
329.157	76.46
329.37	29.35
329.583	37.55
329.796	37.55
330.009	27.31
330.222	72.36
330.435	86.7
330.648	-19.8
330.861	51.88
331.073	62.12
331.286	31.4
331.499	78.51
331.712	27.31
331.925	58.03
332.138	33.45
332.35	17.07
332.563	37.55
332.776	88.75
332.989	74.41
333.202	-1.37
333.414	125.61
333.627	33.45
333.84	53.93
334.053	31.4
334.265	15.02
334.478	58.03
334.691	-73.04
334.903	101.03
335.116	-9.56
335.329	2.73
335.541	88.75
335.754	121.51
335.966	39.59
336.179	12.97
336.392	76.46
336.604	0.68
336.817	0.68
337.029	53.93
337.242	-1.37
337.454	31.4
337.667	51.88
337.88	47.79
338.092	55.98
338.305	47.79
338.517	23.21
338.729	47.79
338.942	68.27
339.154	35.5
339.367	27.31
339.579	115.37
339.792	64.17
340.004	98.99
340.217	-17.75
340.429	53.93
340.641	60.07
340.854	25.26
341.066	23.21
341.278	84.65
341.491	62.12
341.703	-25.94
341.915	-13.65
342.128	107.18
342.34	25.26
342.552	15.02
342.764	62.12
342.977	88.75
343.189	29.35
343.401	47.79
343.613	4.78
343.826	80.55
344.038	0.68
344.25	121.51
344.462	-11.61
344.674	-3.41
344.886	47.79
345.099	6.83
345.311	70.31
345.523	72.36
345.735	-1.37
345.947	55.98
346.159	21.16
346.371	92.84
346.583	35.5
346.795	117.42
347.007	-9.56
347.219	111.27
347.431	98.99
347.643	31.4
347.855	27.31
348.067	19.11
348.279	23.21
348.491	41.64
348.703	-1.37
348.915	-7.51
349.127	51.88
349.339	39.59
349.551	27.31
349.763	53.93
349.975	96.94
350.187	17.07
350.399	92.84
350.61	92.84
350.822	-13.65
351.034	45.74
351.246	35.5
351.458	8.87
351.669	-27.99
351.881	107.18
352.093	80.55
352.305	-15.7
352.517	53.93
352.728	55.98
352.94	58.03
353.152	96.94
353.363	45.74
353.575	80.55
353.787	66.22
353.999	64.17
354.21	70.31
354.422	53.93
354.633	98.99
354.845	-17.75
355.057	109.22
355.268	-7.51
355.48	60.07
355.692	0.68
355.903	35.5
356.115	25.26
356.326	10.92
356.538	74.41
356.749	33.45
356.961	123.56
357.172	10.92
357.384	35.5
357.595	47.79
357.807	47.79
358.018	98.99
358.23	23.21
358.441	53.93
358.653	4.78
358.864	-5.46
359.075	12.97
359.287	60.07
359.498	58.03
359.709	-19.8
359.921	35.5
360.132	64.17
360.344	12.97
360.555	72.36
360.766	21.16
360.977	-1.37
361.189	98.99
361.4	43.69
361.611	133.8
361.823	117.42
362.034	74.41
362.245	47.79
362.456	68.27
362.667	74.41
362.879	8.87
363.09	92.84
363.301	-17.75
363.512	-3.41
363.723	-30.04
363.935	43.69
364.146	121.51
364.357	-15.7
364.568	19.11
364.779	0.68
364.99	35.5
365.201	98.99
365.412	84.65
365.623	49.83
365.834	62.12
366.045	51.88
366.256	17.07
366.467	-25.94
366.678	29.35
366.889	37.55
367.1	64.17
367.311	72.36
367.522	4.78
367.733	8.87
367.944	45.74
368.155	45.74
368.366	37.55
368.577	51.88
368.788	101.03
368.999	12.97
369.209	37.55
369.42	6.83
369.631	49.83
369.842	21.16
370.053	55.98
370.264	43.69
370.474	-11.61
370.685	17.07
370.896	148.14
371.107	53.93
371.317	68.27
371.528	-30.04
371.739	37.55
371.95	70.31
372.16	51.88
372.371	92.84
372.582	25.26
372.792	72.36
373.003	80.55
373.214	49.83
373.424	51.88
373.635	12.97
373.846	129.7
374.056	96.94
374.267	64.17
374.477	33.45
374.688	51.88
374.898	31.4
375.109	74.41
375.319	29.35
375.53	47.79
375.74	31.4
375.951	68.27
376.161	64.17
376.372	51.88
376.582	35.5
376.793	-1.37
377.003	58.03
377.214	17.07
377.424	133.8
377.635	84.65
377.845	39.59
378.055	94.89
378.266	-25.94
378.476	60.07
378.686	25.26
378.897	103.08
379.107	72.36
379.317	19.11
379.528	58.03
379.738	4.78
379.948	-19.8
380.158	80.55
380.369	133.8
380.579	60.07
380.789	47.79
380.999	17.07
381.21	33.45
381.42	2.73
381.63	12.97
381.84	4.78
382.05	41.64
382.261	49.83
382.471	123.56
382.681	96.94
382.891	21.16
383.101	64.17
383.311	23.21
383.521	62.12
383.731	90.79
383.941	10.92
384.151	47.79
384.361	78.51
384.571	6.83
384.781	31.4
384.991	80.55
385.201	62.12
385.411	21.16
385.621	64.17
385.831	-32.08
386.041	66.22
386.251	-1.37
386.461	12.97
386.671	12.97
386.881	23.21
387.091	2.73
387.301	66.22
387.511	55.98
387.72	47.79
387.93	35.5
388.14	51.88
388.35	-30.04
388.56	92.84
388.769	-3.41
388.979	96.94
389.189	6.83
389.399	23.21
389.609	39.59
389.818	41.64
390.028	55.98
390.238	66.22
390.447	53.93
390.657	62.12
390.867	-1.37
391.076	-27.99
391.286	86.7
391.496	53.93
391.705	35.5
391.915	15.02
392.125	66.22
392.334	76.46
392.544	82.6
392.753	70.31
392.963	45.74
393.172	121.51
393.382	-1.37
393.591	117.42
393.801	92.84
394.01	94.89
394.22	92.84
394.429	152.23
394.639	-3.41
394.848	103.08
395.058	47.79
395.267	90.79
395.477	43.69
395.686	49.83
395.895	43.69
396.105	64.17
396.314	66.22
396.524	74.41
396.733	4.78
396.942	17.07
397.152	72.36
397.361	39.59
397.57	35.5
397.78	96.94
397.989	80.55
398.198	55.98
398.407	29.35
398.617	58.03
398.826	29.35
399.035	115.37
399.244	53.93
399.453	37.55
399.663	51.88
399.872	141.99
400.081	35.5
400.29	64.17
400.499	33.45
400.708	68.27
400.917	-13.65
401.127	60.07
401.336	76.46
401.545	105.13
401.754	76.46
401.963	119.46
402.172	80.55
402.381	60.07
402.59	37.55
402.799	53.93
403.008	90.79
403.217	58.03
403.426	33.45
403.635	86.7
403.844	19.11
404.053	66.22
404.262	51.88
404.471	94.89
404.68	148.14
404.888	185
405.097	113.32
405.306	119.46
405.515	109.22
405.724	109.22
405.933	51.88
406.142	127.66
406.35	98.99
406.559	129.7
406.768	96.94
406.977	55.98
407.185	158.38
407.394	127.66
407.603	60.07
407.812	133.8
408.02	129.7
408.229	76.46
408.438	80.55
408.646	111.27
408.855	154.28
409.064	135.85
409.272	141.99
409.481	215.72
409.69	168.62
409.898	141.99
410.107	125.61
410.315	129.7
410.524	154.28
410.733	244.39
410.941	189.1
411.15	203.43
411.358	197.29
411.567	205.48
411.775	168.62
411.984	156.33
412.192	230.06
412.401	250.53
412.609	289.45
412.818	250.53
413.026	301.73
413.234	236.2
413.443	273.06
413.651	144.04
413.86	303.78
414.068	303.78
414.276	285.35
414.485	336.55
414.693	334.5
414.901	445.09
415.11	359.08
415.318	395.94
415.526	369.32
415.734	420.52
415.943	379.56
416.151	445.09
416.359	463.52
416.567	426.66
416.776	479.91
416.984	559.78
417.192	465.57
417.4	533.15
417.608	496.29
417.817	527.01
418.025	656.03
418.233	649.89
418.441	586.4
418.649	688.8
418.857	666.27
419.065	705.18
419.273	602.79
419.481	707.23
419.689	815.77
419.897	875.17
420.105	848.54
420.313	871.07
420.521	866.97
420.729	944.8
420.937	973.47
421.145	922.27
421.353	942.75
421.561	1061.53
421.769	1008.28
421.977	1082.01
422.185	1176.22
422.393	1141.4
422.601	1153.69
422.809	1225.37
423.017	1198.74
423.224	1338.01
423.432	1333.91
423.64	1317.53
423.848	1458.84
424.056	1387.16
424.263	1491.6
424.471	1514.13
424.679	1589.91
424.887	1639.06
425.094	1665.68
425.302	1706.64
425.51	1833.61
425.718	1753.74
425.925	1725.07
426.133	1936.01
426.341	2120.33
426.548	2067.08
426.756	2099.85
426.964	2179.72
427.171	2151.05
427.379	2284.17
427.586	2308.74
427.794	2333.32
428.001	2558.6
428.209	2579.08
428.417	2519.68
428.624	2636.42
428.832	2724.48
429.039	2652.8
429.247	2683.52
429.454	2906.75
429.662	3101.31
429.869	2873.98
430.076	3117.69
430.284	3074.68
430.491	3156.6
430.699	3408.5
430.906	3422.84
431.114	3443.32
431.321	3551.86
431.528	3744.37
431.736	3844.72
431.943	4096.62
432.15	3840.62
432.358	3920.49
432.565	4192.87
432.772	4045.42
432.979	4325.99
433.187	4360.81
433.394	4461.16
433.601	4766.31
433.808	4909.66
434.016	4764.26
434.223	5016.16
434.43	5196.38
434.637	5093.98
434.844	5284.44
435.052	5681.75
435.259	5532.25
435.466	5536.34
435.673	5358.17
435.88	5880.4
436.087	6023.76
436.294	6193.74
436.501	6060.62
436.708	6136.4
436.915	6244.94
437.122	6617.67
437.329	6666.82
437.537	6806.08
437.743	6947.39
437.95	6894.15
438.157	7254.59
438.364	7471.67
438.571	7447.1
438.778	7619.13
438.985	8235.56
439.192	7821.88
439.399	8120.88
439.606	7969.33
439.813	8518.18
440.02	8890.91
440.227	8710.69
440.433	8626.73
440.64	9026.08
440.847	8882.72
441.054	9136.67
441.261	9689.62
441.467	9681.43
441.674	9650.71
441.881	10148.37
442.088	10279.44
442.294	9986.58
442.501	10082.83
442.708	10412.56
442.914	10850.82
443.121	11256.32
443.328	10971.65
443.534	11762.17
443.741	11360.77
443.948	11379.2
444.154	12206.58
444.361	12063.22
444.568	12138.99
444.774	12190.19
444.981	12364.27
445.187	12556.78
445.394	13365.73
445.6	12986.85
445.807	14168.53
446.013	13330.91
446.22	14027.22
446.426	14434.77
446.633	14348.75
446.839	14875.08
447.046	14488.01
447.252	15081.92
447.459	15245.76
447.665	15202.75
447.871	15638.97
448.078	16425.39
448.284	15696.32
448.491	16136.63
448.697	16640.43
448.903	17133.99
449.11	16974.25
449.316	16896.42
449.522	16943.53
449.728	17543.58
449.935	17811.87
450.141	17938.84
450.347	17942.94
450.553	17666.46
450.76	17838.49
450.966	18293.14
451.172	18074.01
451.378	18733.45
451.584	18098.58
451.791	18514.32
451.997	18530.7
452.203	18887.05
452.409	18542.99
452.615	18633.1
452.821	17883.55
453.027	17809.82
453.233	18743.69
453.44	17990.04
453.646	18200.98
453.852	18094.49
454.058	18626.96
454.264	17861.02
454.47	18297.24
454.676	17971.61
454.882	18307.48
455.088	16945.58
455.294	17103.27
455.5	17512.86
455.705	17572.25
455.911	16937.38
456.117	16726.44
456.323	16441.78
456.529	15681.98
456.735	16320.95
456.941	15679.93
457.147	15432.13
457.352	15040.97
457.558	14911.94
457.764	14930.37
457.97	14721.48
458.176	14336.46
458.381	14336.46
458.587	13648.35
458.793	13744.6
458.999	12909.03
459.204	13920.73
459.41	13132.26
459.616	12345.84
459.821	12517.87
460.027	12554.73
460.233	12214.77
460.438	11497.98
460.644	11700.73
460.85	11280.89
461.055	11115.01
461.261	11080.19
461.466	10193.42
461.672	9966.1
461.878	10605.06
462.083	9867.8
462.289	9581.08
462.494	9663
462.7	9189.92
462.905	9015.84
463.111	9382.43
463.316	9423.39
463.522	9224.73
463.727	9079.33
463.932	8950.31
464.138	8837.67
464.343	8923.68
464.549	8786.47
464.754	9058.85
464.959	9026.08
465.165	8895.01
465.37	8526.38
465.575	8305.2
465.781	8806.95
465.986	8811.04
466.191	8313.39
466.397	8309.29
466.602	7785.01
466.807	8059.44
467.012	7959.09
467.218	7862.83
467.423	7932.47
467.628	7926.32
467.833	8333.87
468.038	8106.54
468.244	7973.43
468.449	8081.97
468.654	7928.37
468.859	7877.17
469.064	7811.64
