Data from USB4F104151__284__11-12-55-021.txt Node

Date: Wed Mar 12 11:12:55 EDT 2025
User: louis
Spectrometer: USB4F10415
Trigger mode: 4
Integration Time (sec): 2.000000E-2
Scans to average: 1
Electric dark correction enabled: true
Nonlinearity correction enabled: false
Boxcar width: 0
XAxis mode: Wavelengths
Number of Pixels in Spectrum: 3648
>>>>>Begin Spectral Data<<<<<
178.204	-101.03
178.424	-101.03
178.644	-101.03
178.864	-131.75
179.084	-55.98
179.304	-47.79
179.524	-58.03
179.744	-15.02
179.964	-17.07
180.184	-10.92
180.404	105.81
180.624	56.66
180.844	-51.88
181.064	-47.79
181.283	62.8
181.503	-31.4
181.723	54.61
181.943	-12.97
182.163	62.8
182.383	-10.92
182.602	11.61
182.822	32.08
183.042	-70.31
183.262	-43.69
183.482	-17.07
183.701	1.37
183.921	-8.87
184.141	-53.93
184.361	30.04
184.58	23.89
184.8	-49.83
185.02	-19.11
185.239	77.14
185.459	-105.13
185.679	-37.55
185.898	-29.35
186.118	54.61
186.338	21.84
186.557	-43.69
186.777	-35.5
186.997	17.75
187.216	32.08
187.436	83.28
187.655	-2.73
187.875	54.61
188.095	15.7
188.314	-6.83
188.534	15.7
188.753	-17.07
188.973	-15.02
189.192	75.09
189.412	17.75
189.631	-2.73
189.851	46.42
190.07	87.38
190.29	-31.4
190.509	-39.59
190.729	-19.11
190.948	40.28
191.168	138.58
191.387	-21.16
191.607	-15.02
191.826	-53.93
192.045	-12.97
192.265	-12.97
192.484	-35.5
192.704	71
192.923	-39.59
193.142	27.99
193.362	13.65
193.581	83.28
193.8	13.65
194.02	-12.97
194.239	-0.68
194.458	13.65
194.678	-6.83
194.897	25.94
195.116	-15.02
195.335	27.99
195.555	103.76
195.774	-10.92
195.993	-19.11
196.212	-23.21
196.432	85.33
196.651	-12.97
196.87	-55.98
197.089	77.14
197.308	-60.07
197.528	-15.02
197.747	25.94
197.966	32.08
198.185	-62.12
198.404	19.8
198.623	-39.59
198.842	109.91
199.062	-15.02
199.281	40.28
199.5	-31.4
199.719	25.94
199.938	5.46
200.157	23.89
200.376	13.65
200.595	-45.74
200.814	-8.87
201.033	-12.97
201.252	62.8
201.471	-8.87
201.69	19.8
201.909	71
202.128	-23.21
202.347	-45.74
202.566	19.8
202.785	-10.92
203.004	17.75
203.223	56.66
203.442	7.51
203.661	9.56
203.879	30.04
204.098	62.8
204.317	-23.21
204.536	-39.59
204.755	58.71
204.974	23.89
205.193	34.13
205.411	-10.92
205.63	11.61
205.849	-0.68
206.068	-31.4
206.287	23.89
206.505	-72.36
206.724	-39.59
206.943	3.41
207.162	62.8
207.381	-6.83
207.599	40.28
207.818	-8.87
208.037	11.61
208.255	1.37
208.474	-8.87
208.693	13.65
208.911	-19.11
209.13	83.28
209.349	54.61
209.567	99.67
209.786	50.52
210.005	-0.68
210.223	40.28
210.442	-66.22
210.661	1.37
210.879	32.08
211.098	-51.88
211.316	-4.78
211.535	48.47
211.753	-23.21
211.972	-0.68
212.191	-35.5
212.409	50.52
212.628	7.51
212.846	-35.5
213.065	5.46
213.283	60.76
213.502	-8.87
213.72	-27.31
213.938	5.46
214.157	-4.78
214.375	-2.73
214.594	-49.83
214.812	9.56
215.031	19.8
215.249	-35.5
215.467	54.61
215.686	17.75
215.904	9.56
216.122	9.56
216.341	-23.21
216.559	13.65
216.778	-35.5
216.996	3.41
217.214	11.61
217.432	-10.92
217.651	46.42
217.869	32.08
218.087	-2.73
218.306	66.9
218.524	3.41
218.742	36.18
218.96	-29.35
219.179	-27.31
219.397	-25.26
219.615	48.47
219.833	60.76
220.051	-19.11
220.27	30.04
220.488	-19.11
220.706	13.65
220.924	25.94
221.142	-64.17
221.36	-15.02
221.578	30.04
221.796	-2.73
222.015	64.85
222.233	9.56
222.451	34.13
222.669	-17.07
222.887	42.32
223.105	-15.02
223.323	52.56
223.541	-55.98
223.759	38.23
223.977	-2.73
224.195	-23.21
224.413	-2.73
224.631	60.76
224.849	5.46
225.067	7.51
225.285	58.71
225.503	-21.16
225.721	-53.93
225.939	27.99
226.157	-31.4
226.375	25.94
226.592	-53.93
226.81	21.84
227.028	1.37
227.246	17.75
227.464	71
227.682	42.32
227.9	-88.75
228.117	3.41
228.335	-0.68
228.553	23.89
228.771	25.94
228.989	1.37
229.206	17.75
229.424	44.37
229.642	9.56
229.86	-33.45
230.077	91.48
230.295	54.61
230.513	89.43
230.731	40.28
230.948	58.71
231.166	83.28
231.384	17.75
231.601	-45.74
231.819	73.04
232.037	-35.5
232.254	-62.12
232.472	36.18
232.689	-39.59
232.907	-19.11
233.125	-31.4
233.342	58.71
233.56	-90.79
233.777	-41.64
233.995	-41.64
234.213	71
234.43	-6.83
234.648	9.56
234.865	48.47
235.083	56.66
235.3	-19.11
235.518	11.61
235.735	13.65
235.953	103.76
236.17	-45.74
236.388	21.84
236.605	-6.83
236.822	-49.83
237.04	-0.68
237.257	91.48
237.475	-15.02
237.692	13.65
237.909	-47.79
238.127	-31.4
238.344	21.84
238.562	-0.68
238.779	-0.68
238.996	32.08
239.214	79.19
239.431	50.52
239.648	9.56
239.865	46.42
240.083	50.52
240.3	46.42
240.517	7.51
240.735	11.61
240.952	-0.68
241.169	91.48
241.386	-17.07
241.603	34.13
241.821	7.51
242.038	-21.16
242.255	-25.26
242.472	-0.68
242.689	17.75
242.907	60.76
243.124	17.75
243.341	13.65
243.558	64.85
243.775	-35.5
243.992	46.42
244.209	3.41
244.426	60.76
244.643	36.18
244.86	48.47
245.078	50.52
245.295	-8.87
245.512	19.8
245.729	-39.59
245.946	58.71
246.163	-39.59
246.38	3.41
246.597	25.94
246.814	5.46
247.031	21.84
247.248	38.23
247.464	58.71
247.681	34.13
247.898	62.8
248.115	73.04
248.332	-23.21
248.549	-68.27
248.766	46.42
248.983	13.65
249.2	-4.78
249.417	40.28
249.633	-4.78
249.85	66.9
250.067	7.51
250.284	79.19
250.501	95.57
250.717	13.65
250.934	56.66
251.151	-19.11
251.368	7.51
251.585	-45.74
251.801	-8.87
252.018	-17.07
252.235	23.89
252.451	-15.02
252.668	5.46
252.885	-35.5
253.102	32.08
253.318	-0.68
253.535	-10.92
253.752	1.37
253.968	-45.74
254.185	40.28
254.401	17.75
254.618	36.18
254.835	-37.55
255.051	89.43
255.268	68.95
255.484	27.99
255.701	-19.11
255.917	1.37
256.134	46.42
256.351	-2.73
256.567	23.89
256.784	-84.65
257	1.37
257.217	-6.83
257.433	36.18
257.65	-74.41
257.866	79.19
258.082	30.04
258.299	-23.21
258.515	21.84
258.732	50.52
258.948	83.28
259.165	25.94
259.381	56.66
259.597	66.9
259.814	48.47
260.03	54.61
260.246	-23.21
260.463	40.28
260.679	68.95
260.895	17.75
261.112	95.57
261.328	21.84
261.544	66.9
261.761	89.43
261.977	-23.21
262.193	-19.11
262.409	38.23
262.626	40.28
262.842	17.75
263.058	-33.45
263.274	73.04
263.49	-23.21
263.707	15.7
263.923	-10.92
264.139	9.56
264.355	-72.36
264.571	30.04
264.787	30.04
265.004	32.08
265.22	21.84
265.436	-10.92
265.652	13.65
265.868	54.61
266.084	9.56
266.3	85.33
266.516	-31.4
266.732	11.61
266.948	23.89
267.164	17.75
267.38	-8.87
267.596	19.8
267.812	32.08
268.028	7.51
268.244	-43.69
268.46	-6.83
268.676	-47.79
268.892	17.75
269.108	-15.02
269.324	30.04
269.54	42.32
269.756	32.08
269.972	23.89
270.188	48.47
270.403	5.46
270.619	34.13
270.835	9.56
271.051	1.37
271.267	-2.73
271.483	-0.68
271.698	48.47
271.914	75.09
272.13	38.23
272.346	21.84
272.562	62.8
272.777	7.51
272.993	3.41
273.209	42.32
273.425	9.56
273.64	-23.21
273.856	44.37
274.072	64.85
274.287	15.7
274.503	50.52
274.719	-0.68
274.934	38.23
275.15	9.56
275.366	-6.83
275.581	7.51
275.797	9.56
276.012	3.41
276.228	66.9
276.444	1.37
276.659	40.28
276.875	-92.84
277.09	48.47
277.306	23.89
277.521	40.28
277.737	77.14
277.952	-27.31
278.168	25.94
278.383	36.18
278.599	77.14
278.814	11.61
279.03	-4.78
279.245	34.13
279.461	9.56
279.676	-2.73
279.892	30.04
280.107	-76.46
280.322	-74.41
280.538	27.99
280.753	34.13
280.969	30.04
281.184	48.47
281.399	21.84
281.615	-27.31
281.83	-10.92
282.045	-23.21
282.26	-17.07
282.476	73.04
282.691	21.84
282.906	11.61
283.122	-58.03
283.337	-19.11
283.552	-2.73
283.767	17.75
283.983	17.75
284.198	-41.64
284.413	17.75
284.628	23.89
284.843	-33.45
285.058	48.47
285.274	-8.87
285.489	25.94
285.704	27.99
285.919	36.18
286.134	77.14
286.349	13.65
286.564	7.51
286.779	25.94
286.995	32.08
287.21	-0.68
287.425	27.99
287.64	42.32
287.855	62.8
288.07	-62.12
288.285	30.04
288.5	-15.02
288.715	-2.73
288.93	-6.83
289.145	17.75
289.36	58.71
289.575	-31.4
289.79	44.37
290.004	-6.83
290.219	54.61
290.434	66.9
290.649	54.61
290.864	19.8
291.079	42.32
291.294	23.89
291.509	-10.92
291.724	42.32
291.938	56.66
292.153	11.61
292.368	13.65
292.583	-66.22
292.798	30.04
293.012	64.85
293.227	-23.21
293.442	75.09
293.657	-4.78
293.871	75.09
294.086	93.52
294.301	36.18
294.516	21.84
294.73	21.84
294.945	-19.11
295.16	19.8
295.374	11.61
295.589	103.76
295.804	-8.87
296.018	52.56
296.233	-17.07
296.447	21.84
296.662	7.51
296.877	42.32
297.091	-33.45
297.306	13.65
297.52	-35.5
297.735	15.7
297.949	23.89
298.164	50.52
298.378	-49.83
298.593	-21.16
298.807	3.41
299.022	-51.88
299.236	46.42
299.451	34.13
299.665	36.18
299.88	-15.02
300.094	62.8
300.309	54.61
300.523	30.04
300.737	23.89
300.952	30.04
301.166	46.42
301.381	5.46
301.595	7.51
301.809	-2.73
302.024	-58.03
302.238	-2.73
302.452	3.41
302.667	50.52
302.881	-43.69
303.095	7.51
303.309	54.61
303.524	5.46
303.738	27.99
303.952	-17.07
304.166	71
304.381	-25.26
304.595	77.14
304.809	-31.4
305.023	-19.11
305.237	21.84
305.452	5.46
305.666	9.56
305.88	68.95
306.094	21.84
306.308	77.14
306.522	25.94
306.736	75.09
306.95	75.09
307.164	5.46
307.379	60.76
307.593	-23.21
307.807	11.61
308.021	21.84
308.235	44.37
308.449	56.66
308.663	87.38
308.877	7.51
309.091	-2.73
309.305	48.47
309.519	30.04
309.733	7.51
309.947	17.75
310.161	19.8
310.374	95.57
310.588	54.61
310.802	-27.31
311.016	11.61
311.23	68.95
311.444	-19.11
311.658	111.96
311.872	58.71
312.085	52.56
312.299	71
312.513	-12.97
312.727	58.71
312.941	58.71
313.154	13.65
313.368	-0.68
313.582	79.19
313.796	44.37
314.009	44.37
314.223	66.9
314.437	3.41
314.651	38.23
314.864	-15.02
315.078	-8.87
315.292	5.46
315.505	25.94
315.719	-0.68
315.933	17.75
316.146	-64.17
316.36	-15.02
316.573	21.84
316.787	30.04
317.001	25.94
317.214	21.84
317.428	15.7
317.641	56.66
317.855	-55.98
318.068	30.04
318.282	3.41
318.495	120.15
318.709	17.75
318.922	17.75
319.136	101.72
319.349	64.85
319.563	-39.59
319.776	75.09
319.99	-15.02
320.203	7.51
320.417	73.04
320.63	50.52
320.843	77.14
321.057	11.61
321.27	111.96
321.483	15.7
321.697	85.33
321.91	-4.78
322.124	-15.02
322.337	42.32
322.55	52.56
322.763	27.99
322.977	-17.07
323.19	-53.93
323.403	15.7
323.617	46.42
323.83	27.99
324.043	-4.78
324.256	9.56
324.469	-0.68
324.683	17.75
324.896	-4.78
325.109	58.71
325.322	15.7
325.535	-2.73
325.748	23.89
325.962	62.8
326.175	60.76
326.388	34.13
326.601	44.37
326.814	34.13
327.027	-21.16
327.24	32.08
327.453	-0.68
327.666	13.65
327.879	48.47
328.092	48.47
328.305	17.75
328.518	-6.83
328.731	-41.64
328.944	-19.11
329.157	66.9
329.37	-6.83
329.583	30.04
329.796	79.19
330.009	7.51
330.222	25.94
330.435	7.51
330.648	38.23
330.861	36.18
331.073	30.04
331.286	17.75
331.499	25.94
331.712	-31.4
331.925	23.89
332.138	21.84
332.35	128.34
332.563	-21.16
332.776	66.9
332.989	9.56
333.202	21.84
333.414	52.56
333.627	52.56
333.84	-27.31
334.053	32.08
334.265	52.56
334.478	38.23
334.691	7.51
334.903	7.51
335.116	40.28
335.329	40.28
335.541	30.04
335.754	-2.73
335.966	5.46
336.179	30.04
336.392	42.32
336.604	91.48
336.817	36.18
337.029	30.04
337.242	-10.92
337.454	27.99
337.667	36.18
337.88	68.95
338.092	19.8
338.305	42.32
338.517	11.61
338.729	79.19
338.942	73.04
339.154	30.04
339.367	50.52
339.579	118.1
339.792	58.71
340.004	91.48
340.217	-23.21
340.429	52.56
340.641	-31.4
340.854	11.61
341.066	23.89
341.278	-23.21
341.491	50.52
341.703	77.14
341.915	42.32
342.128	9.56
342.34	5.46
342.552	9.56
342.764	97.62
342.977	-35.5
343.189	38.23
343.401	-12.97
343.613	62.8
343.826	11.61
344.038	-4.78
344.25	-35.5
344.462	42.32
344.674	-51.88
344.886	25.94
345.099	46.42
345.311	64.85
345.523	25.94
345.735	21.84
345.947	3.41
346.159	-33.45
346.371	9.56
346.583	1.37
346.795	13.65
347.007	13.65
347.219	34.13
347.431	30.04
347.643	46.42
347.855	19.8
348.067	50.52
348.279	-21.16
348.491	54.61
348.703	-43.69
348.915	-2.73
349.127	-17.07
349.339	40.28
349.551	23.89
349.763	17.75
349.975	83.28
350.187	126.29
350.399	32.08
350.61	-4.78
350.822	-43.69
351.034	42.32
351.246	30.04
351.458	11.61
351.669	9.56
351.881	64.85
352.093	21.84
352.305	5.46
352.517	30.04
352.728	36.18
352.94	34.13
353.152	1.37
353.363	34.13
353.575	13.65
353.787	83.28
353.999	85.33
354.21	44.37
354.422	-29.35
354.633	9.56
354.845	13.65
355.057	38.23
355.268	15.7
355.48	-17.07
355.692	81.24
355.903	50.52
356.115	23.89
356.326	-19.11
356.538	46.42
356.749	11.61
356.961	87.38
357.172	7.51
357.384	48.47
357.595	83.28
357.807	-10.92
358.018	1.37
358.23	13.65
358.441	62.8
358.653	95.57
358.864	-10.92
359.075	-15.02
359.287	9.56
359.498	66.9
359.709	-64.17
359.921	46.42
360.132	27.99
360.344	1.37
360.555	46.42
360.766	120.15
360.977	107.86
361.189	42.32
361.4	13.65
361.611	-6.83
361.823	105.81
362.034	17.75
362.245	36.18
362.456	-37.55
362.667	-23.21
362.879	85.33
363.09	95.57
363.301	54.61
363.512	-70.31
363.723	42.32
363.935	-0.68
364.146	60.76
364.357	89.43
364.568	95.57
364.779	46.42
364.99	30.04
365.201	52.56
365.412	83.28
365.623	60.76
365.834	60.76
366.045	71
366.256	-37.55
366.467	36.18
366.678	13.65
366.889	-33.45
367.1	85.33
367.311	56.66
367.522	13.65
367.733	40.28
367.944	42.32
368.155	17.75
368.366	89.43
368.577	15.7
368.788	97.62
368.999	30.04
369.209	73.04
369.42	73.04
369.631	132.44
369.842	54.61
370.053	44.37
370.264	56.66
370.474	44.37
370.685	15.7
370.896	13.65
371.107	56.66
371.317	38.23
371.528	46.42
371.739	30.04
371.95	58.71
372.16	27.99
372.371	3.41
372.582	40.28
372.792	95.57
373.003	-2.73
373.214	71
373.424	60.76
373.635	3.41
373.846	50.52
374.056	30.04
374.267	79.19
374.477	40.28
374.688	19.8
374.898	58.71
375.109	44.37
375.319	71
375.53	25.94
375.74	38.23
375.951	-10.92
376.161	79.19
376.372	27.99
376.582	-6.83
376.793	34.13
377.003	40.28
377.214	30.04
377.424	3.41
377.635	-21.16
377.845	71
378.055	52.56
378.266	54.61
378.476	-29.35
378.686	21.84
378.897	38.23
379.107	42.32
379.317	42.32
379.528	79.19
379.738	56.66
379.948	17.75
380.158	42.32
380.369	-19.11
380.579	85.33
380.789	42.32
380.999	77.14
381.21	38.23
381.42	27.99
381.63	3.41
381.84	93.52
382.05	56.66
382.261	50.52
382.471	97.62
382.681	17.75
382.891	56.66
383.101	32.08
383.311	-8.87
383.521	9.56
383.731	25.94
383.941	101.72
384.151	89.43
384.361	36.18
384.571	44.37
384.781	-55.98
384.991	-8.87
385.201	73.04
385.411	3.41
385.621	50.52
385.831	91.48
386.041	27.99
386.251	66.9
386.461	23.89
386.671	-6.83
386.881	99.67
387.091	66.9
387.301	97.62
387.511	42.32
387.72	58.71
387.93	105.81
388.14	58.71
388.35	56.66
388.56	60.76
388.769	30.04
388.979	77.14
389.189	32.08
389.399	99.67
389.609	27.99
389.818	111.96
390.028	64.85
390.238	75.09
390.447	71
390.657	58.71
390.867	48.47
391.076	17.75
391.286	5.46
391.496	52.56
391.705	38.23
391.915	40.28
392.125	99.67
392.334	97.62
392.544	66.9
392.753	52.56
392.963	36.18
393.172	91.48
393.382	75.09
393.591	60.76
393.801	95.57
394.01	97.62
394.22	103.76
394.429	75.09
394.639	46.42
394.848	83.28
395.058	77.14
395.267	52.56
395.477	126.29
395.686	32.08
395.895	105.81
396.105	44.37
396.314	62.8
396.524	144.72
396.733	1.37
396.942	130.39
397.152	21.84
397.361	99.67
397.57	116.05
397.78	142.68
397.989	89.43
398.198	99.67
398.407	46.42
398.617	179.54
398.826	71
399.035	154.96
399.244	132.44
399.453	150.87
399.663	128.34
399.872	99.67
400.081	148.82
400.29	146.77
400.499	75.09
400.708	128.34
400.917	107.86
401.127	197.97
401.336	91.48
401.545	118.1
401.754	66.9
401.963	120.15
402.172	142.68
402.381	150.87
402.59	177.49
402.799	99.67
403.008	154.96
403.217	210.26
403.426	128.34
403.635	136.53
403.844	142.68
404.053	173.39
404.262	122.2
404.471	189.78
404.68	140.63
404.888	142.68
405.097	107.86
405.306	224.59
405.515	214.35
405.724	154.96
405.933	210.26
406.142	255.31
406.35	181.59
406.559	185.68
406.768	226.64
406.977	224.59
407.185	253.27
407.394	216.4
407.603	173.39
407.812	226.64
408.02	363.86
408.229	238.93
408.438	226.64
408.646	320.85
408.855	288.08
409.064	296.27
409.272	353.62
409.481	333.14
409.69	374.1
409.898	267.6
410.107	410.96
410.315	355.66
410.524	243.03
410.733	363.86
410.941	410.96
411.15	472.4
411.358	408.91
411.567	453.97
411.775	464.21
411.984	509.26
412.192	533.84
412.401	507.21
412.609	628.04
412.818	560.46
413.026	560.46
413.234	615.76
413.443	648.52
413.651	603.47
413.86	675.15
414.068	675.15
414.276	718.15
414.485	701.77
414.693	793.93
414.901	875.85
415.11	820.55
415.318	830.79
415.526	896.33
415.734	888.14
415.943	902.47
416.151	963.91
416.359	982.34
416.567	1017.16
416.776	1119.56
416.984	1121.6
417.192	1078.6
417.4	1144.13
417.608	1164.61
417.817	1187.14
418.025	1226.05
418.233	1396.03
418.441	1365.31
418.649	1422.66
418.857	1594.68
419.065	1518.91
419.273	1520.96
419.481	1611.07
419.689	1738.04
419.897	1799.48
420.105	1697.08
420.313	1881.4
420.521	2018.61
420.729	1887.54
420.937	2018.61
421.145	2147.64
421.353	2151.73
421.561	2334
421.769	2401.58
421.977	2491.7
422.185	2575.66
422.393	2628.91
422.601	2678.06
422.809	2727.21
423.017	2790.7
423.224	2753.84
423.432	3020.07
423.64	2938.15
423.848	3351.84
424.056	3208.48
424.263	3444
424.471	3501.34
424.679	3472.67
424.887	3646.75
425.094	3847.45
425.302	3722.52
425.51	4019.48
425.718	4123.93
425.925	4142.36
426.133	4175.13
426.341	4447.51
426.548	4746.51
426.756	4642.06
426.964	4789.52
427.171	5096.71
427.379	5113.1
427.586	5287.17
427.794	5457.15
428.001	5811.45
428.209	5922.04
428.417	5975.29
428.624	6227.19
428.832	6249.72
429.039	6227.19
429.247	6208.76
429.454	6810.86
429.662	7247.08
429.869	6763.76
430.076	7365.86
430.284	6939.88
430.491	7355.62
430.699	7732.45
430.906	7802.08
431.114	7937.24
431.321	8312.02
431.528	8398.04
431.736	8871.12
431.943	9344.2
432.15	9098.44
432.358	9084.11
432.565	9659.59
432.772	9495.75
432.979	10249.4
433.187	10368.18
433.394	10085.56
433.601	11052.2
433.808	10939.57
434.016	11033.77
434.223	11345.06
434.43	11998.37
434.637	11922.59
434.844	12448.92
435.052	12960.91
435.259	12733.59
435.466	13026.45
435.673	12870.8
435.88	13587.59
436.087	14179.45
436.294	14251.13
436.501	14122.11
436.708	14201.98
436.915	14937.2
437.122	15311.98
437.329	15279.21
437.537	15752.29
437.743	15977.57
437.95	15967.33
438.157	16778.33
438.364	17357.9
438.571	17345.61
438.778	17482.83
438.985	19125.3
439.192	18302.01
439.399	19086.39
439.606	18443.32
439.813	19702.82
440.02	20812.82
440.227	20263.97
440.433	19866.66
440.64	20978.71
440.847	20636.7
441.054	21251.09
441.261	22948.86
441.467	22137.86
441.674	22731.77
441.881	23321.59
442.088	23600.11
442.294	23499.76
442.501	23800.81
442.708	24439.78
442.914	25377.75
443.121	26258.37
443.328	25838.54
443.534	27642.8
443.741	26559.42
443.948	26569.66
444.154	28341.16
444.361	28107.69
444.568	27952.04
444.774	28113.83
444.981	28853.15
445.187	29225.88
445.394	30583.68
445.6	30649.22
445.807	33084.25
446.013	31742.83
446.22	32435.05
446.426	32963.42
446.633	33903.44
446.839	34822.98
447.046	33375.06
447.252	35558.2
447.459	35101.5
447.665	35531.58
447.871	36872.99
448.078	38335.24
448.284	36498.22
448.491	37702.42
448.697	39101.18
448.903	39594.75
449.11	39607.03
449.316	39103.23
449.522	39873.27
449.728	40717.03
449.935	40995.56
450.141	40864.49
450.347	41628.38
450.553	40346.35
450.76	41186.02
450.966	42224.34
451.172	41573.08
451.378	42908.36
451.584	41691.87
451.791	43162.31
451.997	42724.04
452.203	43506.37
452.409	43436.73
452.615	43000.52
452.821	41781.98
453.027	41368.29
453.233	43285.18
453.44	41851.61
453.646	42169.04
453.852	42199.76
454.058	42928.84
454.264	41423.58
454.47	42375.89
454.676	41339.61
454.882	42846.92
455.088	38976.26
455.294	39705.34
455.5	40143.6
455.705	40684.26
455.911	38963.97
456.117	38787.85
456.323	38112.02
456.529	36055.86
456.735	37571.35
456.941	36381.48
457.147	36039.47
457.352	34921.28
457.558	34394.95
457.764	34493.26
457.97	33653.59
458.176	33313.62
458.381	33270.62
458.587	31626.1
458.793	31546.23
458.999	30247.82
459.204	31974.25
459.41	31224.7
459.616	29111.19
459.821	29211.54
460.027	28928.92
460.233	28398.5
460.438	27315.12
460.644	27245.49
460.85	26151.88
461.055	25873.35
461.261	25662.41
461.466	23454.7
461.672	23344.11
461.878	24996.82
462.083	23016.44
462.289	22723.58
462.494	22469.63
462.7	21267.47
462.905	20763.67
463.111	21599.24
463.316	21459.98
463.522	21138.45
463.727	21187.6
463.932	21279.76
464.138	21130.26
464.343	21027.86
464.549	20263.97
464.754	21195.79
464.959	21163.03
465.165	20585.5
465.37	20091.94
465.575	19493.93
465.781	20306.98
465.986	20376.61
466.191	19430.44
466.397	19270.7
466.602	18367.55
466.807	18910.26
467.012	18816.05
467.218	19090.48
