Data from USB4F104151__186__11-09-41-302.txt Node

Date: Wed Mar 12 11:09:41 EDT 2025
User: louis
Spectrometer: USB4F10415
Trigger mode: 4
Integration Time (sec): 2.000000E-2
Scans to average: 1
Electric dark correction enabled: true
Nonlinearity correction enabled: false
Boxcar width: 0
XAxis mode: Wavelengths
Number of Pixels in Spectrum: 3648
>>>>>Begin Spectral Data<<<<<
178.204	-79.7
178.424	-79.7
178.644	-79.7
178.864	-116.56
179.084	-42.84
179.304	-10.07
179.524	22.7
179.744	6.31
179.964	-61.27
180.184	43.18
180.404	6.31
180.624	-61.27
180.844	32.94
181.064	45.23
181.283	-20.31
181.503	22.7
181.723	-26.45
181.943	18.6
182.163	47.27
182.383	8.36
182.602	51.37
182.822	10.41
183.042	-1.88
183.262	-42.84
183.482	-36.69
183.701	0.17
183.921	55.47
184.141	-22.36
184.361	14.51
184.58	-8.02
184.8	-12.12
185.02	0.17
185.239	39.08
185.459	43.18
185.679	65.71
185.898	14.51
186.118	71.85
186.338	61.61
186.557	67.75
186.777	-77.65
186.997	20.65
187.216	12.46
187.436	6.31
187.655	45.23
187.875	4.27
188.095	-5.97
188.314	-26.45
188.534	69.8
188.753	2.22
188.973	63.66
189.192	102.57
189.412	90.28
189.631	37.03
189.851	4.27
190.07	53.42
190.29	37.03
190.509	0.17
190.729	12.46
190.948	-34.64
191.168	39.08
191.387	61.61
191.607	-38.74
191.826	10.41
192.045	-51.03
192.265	26.79
192.484	-14.17
192.704	10.41
192.923	-42.84
193.142	61.61
193.362	47.27
193.581	4.27
193.8	63.66
194.02	-3.93
194.239	8.36
194.458	37.03
194.678	-51.03
194.897	69.8
195.116	0.17
195.335	61.61
195.555	-20.31
195.774	39.08
195.993	24.75
196.212	0.17
196.432	12.46
196.651	32.94
196.87	32.94
197.089	47.27
197.308	-14.17
197.528	-22.36
197.747	-28.5
197.966	-1.88
198.185	77.99
198.404	14.51
198.623	-73.56
198.842	-22.36
199.062	-36.69
199.281	-8.02
199.5	-24.4
199.719	84.14
199.938	24.75
200.157	53.42
200.376	65.71
200.595	20.65
200.814	28.84
201.033	39.08
201.252	-8.02
201.471	51.37
201.69	84.14
201.909	22.7
202.128	12.46
202.347	2.22
202.566	-36.69
202.785	20.65
203.004	14.51
203.223	98.47
203.442	28.84
203.661	-28.5
203.879	12.46
204.098	16.55
204.317	47.27
204.536	28.84
204.755	55.47
204.974	-1.88
205.193	-20.31
205.411	18.6
205.63	0.17
205.849	-10.07
206.068	34.99
206.287	55.47
206.505	55.47
206.724	28.84
206.943	22.7
207.162	92.33
207.381	65.71
207.599	-63.32
207.818	86.19
208.037	75.95
208.255	2.22
208.474	-36.69
208.693	22.7
208.911	49.32
209.13	-5.97
209.349	37.03
209.567	77.99
209.786	22.7
210.005	34.99
210.223	-40.79
210.442	-59.22
210.661	-40.79
210.879	22.7
211.098	47.27
211.316	8.36
211.535	32.94
211.753	26.79
211.972	49.32
212.191	16.55
212.409	43.18
212.628	51.37
212.846	32.94
213.065	61.61
213.283	14.51
213.502	37.03
213.72	43.18
213.938	12.46
214.157	12.46
214.375	45.23
214.594	47.27
214.812	69.8
215.031	26.79
215.249	12.46
215.467	-1.88
215.686	34.99
215.904	51.37
216.122	-28.5
216.341	51.37
216.559	8.36
216.778	-5.97
216.996	151.72
217.214	6.31
217.432	45.23
217.651	43.18
217.869	75.95
218.087	67.75
218.306	49.32
218.524	77.99
218.742	98.47
218.96	92.33
219.179	-53.08
219.397	110.76
219.615	0.17
219.833	18.6
220.051	4.27
220.27	2.22
220.488	92.33
220.706	47.27
220.924	-42.84
221.142	43.18
221.36	-71.51
221.578	10.41
221.796	16.55
222.015	-46.93
222.233	24.75
222.451	47.27
222.669	-36.69
222.887	32.94
223.105	2.22
223.323	53.42
223.541	-22.36
223.759	20.65
223.977	-63.32
224.195	73.9
224.413	22.7
224.631	14.51
224.849	-3.93
225.067	84.14
225.285	-42.84
225.503	2.22
225.721	-59.22
225.939	-38.74
226.157	-28.5
226.375	67.75
226.592	-10.07
226.81	-1.88
227.028	12.46
227.246	57.51
227.464	-20.31
227.682	28.84
227.9	75.95
228.117	41.13
228.335	51.37
228.553	47.27
228.771	-14.17
228.989	14.51
229.206	-18.26
229.424	-12.12
229.642	-67.41
229.86	16.55
230.077	43.18
230.295	-26.45
230.513	34.99
230.731	10.41
230.948	2.22
231.166	90.28
231.384	-1.88
231.601	45.23
231.819	-5.97
232.037	6.31
232.254	-34.64
232.472	69.8
232.689	10.41
232.907	34.99
233.125	10.41
233.342	-18.26
233.56	4.27
233.777	49.32
233.995	-53.08
234.213	-10.07
234.43	-3.93
234.648	-22.36
234.865	43.18
235.083	98.47
235.3	28.84
235.518	53.42
235.735	47.27
235.953	41.13
236.17	6.31
236.388	20.65
236.605	22.7
236.822	-5.97
237.04	12.46
237.257	47.27
237.475	0.17
237.692	-10.07
237.909	-1.88
238.127	-61.27
238.344	45.23
238.562	10.41
238.779	-16.21
238.996	-5.97
239.214	10.41
239.431	18.6
239.648	-34.64
239.865	6.31
240.083	12.46
240.3	26.79
240.517	28.84
240.735	16.55
240.952	10.41
241.169	-18.26
241.386	30.89
241.603	39.08
241.821	-12.12
242.038	6.31
242.255	18.6
242.472	49.32
242.689	10.41
242.907	-16.21
243.124	-53.08
243.341	-14.17
243.558	-24.4
243.775	20.65
243.992	-12.12
244.209	26.79
244.426	14.51
244.643	-24.4
244.86	-20.31
245.078	12.46
245.295	32.94
245.512	-36.69
245.729	-20.31
245.946	37.03
246.163	10.41
246.38	20.65
246.597	-5.97
246.814	65.71
247.031	92.33
247.248	-14.17
247.464	59.56
247.681	18.6
247.898	47.27
248.115	69.8
248.332	-46.93
248.549	24.75
248.766	75.95
248.983	10.41
249.2	49.32
249.417	37.03
249.633	-22.36
249.85	-10.07
250.067	55.47
250.284	37.03
250.501	32.94
250.717	4.27
250.934	8.36
251.151	-48.98
251.368	24.75
251.585	47.27
251.801	43.18
252.018	4.27
252.235	41.13
252.451	-28.5
252.668	-18.26
252.885	-10.07
253.102	2.22
253.318	129.19
253.535	16.55
253.752	-24.4
253.968	8.36
254.185	-18.26
254.401	-63.32
254.618	49.32
254.835	14.51
255.051	45.23
255.268	14.51
255.484	10.41
255.701	4.27
255.917	45.23
256.134	-16.21
256.351	49.32
256.567	53.42
256.784	-32.6
257	-32.6
257.217	86.19
257.433	-30.55
257.65	-26.45
257.866	6.31
258.082	0.17
258.299	-26.45
258.515	57.51
258.732	32.94
258.948	-42.84
259.165	26.79
259.381	4.27
259.597	37.03
259.814	75.95
260.03	30.89
260.246	26.79
260.463	30.89
260.679	108.71
260.895	20.65
261.112	24.75
261.328	20.65
261.544	14.51
261.761	71.85
261.977	-87.89
262.193	39.08
262.409	-1.88
262.626	-22.36
262.842	67.75
263.058	-18.26
263.274	53.42
263.49	53.42
263.707	-1.88
263.923	26.79
264.139	-1.88
264.355	-3.93
264.571	32.94
264.787	43.18
265.004	108.71
265.22	-59.22
265.436	6.31
265.652	-3.93
265.868	6.31
266.084	-30.55
266.3	-65.36
266.516	14.51
266.732	37.03
266.948	-26.45
267.164	20.65
267.38	22.7
267.596	63.66
267.812	30.89
268.028	67.75
268.244	55.47
268.46	10.41
268.676	14.51
268.892	-40.79
269.108	10.41
269.324	-8.02
269.54	-46.93
269.756	69.8
269.972	32.94
270.188	34.99
270.403	-24.4
270.619	-57.17
270.835	55.47
271.051	14.51
271.267	4.27
271.483	14.51
271.698	18.6
271.914	2.22
272.13	6.31
272.346	-18.26
272.562	-36.69
272.777	24.75
272.993	-10.07
273.209	-69.46
273.425	61.61
273.64	16.55
273.856	-28.5
274.072	22.7
274.287	-36.69
274.503	-22.36
274.719	51.37
274.934	63.66
275.15	-40.79
275.366	14.51
275.581	-18.26
275.797	53.42
276.012	-18.26
276.228	41.13
276.444	34.99
276.659	51.37
276.875	-48.98
277.09	22.7
277.306	-20.31
277.521	118.95
277.737	-12.12
277.952	-14.17
278.168	4.27
278.383	-30.55
278.599	-12.12
278.814	82.09
279.03	-30.55
279.245	80.04
279.461	8.36
279.676	45.23
279.892	6.31
280.107	47.27
280.322	-87.89
280.538	57.51
280.753	-5.97
280.969	-10.07
281.184	37.03
281.399	34.99
281.615	12.46
281.83	6.31
282.045	41.13
282.26	16.55
282.476	-24.4
282.691	63.66
282.906	12.46
283.122	-10.07
283.337	0.17
283.552	69.8
283.767	-34.64
283.983	82.09
284.198	-42.84
284.413	65.71
284.628	-55.12
284.843	-22.36
285.058	59.56
285.274	20.65
285.489	30.89
285.704	47.27
285.919	30.89
286.134	30.89
286.349	-22.36
286.564	16.55
286.779	-12.12
286.995	0.17
287.21	16.55
287.425	-14.17
287.64	-5.97
287.855	80.04
288.07	-10.07
288.285	45.23
288.5	-5.97
288.715	51.37
288.93	-42.84
289.145	4.27
289.36	8.36
289.575	104.62
289.79	51.37
290.004	12.46
290.219	-12.12
290.434	30.89
290.649	-34.64
290.864	22.7
291.079	47.27
291.294	-91.99
291.509	-10.07
291.724	18.6
291.938	41.13
292.153	59.56
292.368	24.75
292.583	0.17
292.798	92.33
293.012	30.89
293.227	43.18
293.442	0.17
293.657	92.33
293.871	94.38
294.086	82.09
294.301	77.99
294.516	75.95
294.73	75.95
294.945	-12.12
295.16	10.41
295.374	47.27
295.589	94.38
295.804	-67.41
296.018	30.89
296.233	88.23
296.447	18.6
296.662	-63.32
296.877	-10.07
297.091	-16.21
297.306	-18.26
297.52	-14.17
297.735	49.32
297.949	8.36
298.164	-24.4
298.378	-3.93
298.593	-26.45
298.807	-3.93
299.022	77.99
299.236	30.89
299.451	-3.93
299.665	57.51
299.88	-1.88
300.094	32.94
300.309	-12.12
300.523	28.84
300.737	34.99
300.952	39.08
301.166	-28.5
301.381	-1.88
301.595	-32.6
301.809	77.99
302.024	-18.26
302.238	-22.36
302.452	6.31
302.667	16.55
302.881	10.41
303.095	92.33
303.309	69.8
303.524	-26.45
303.738	16.55
303.952	-38.74
304.166	28.84
304.381	-44.88
304.595	45.23
304.809	0.17
305.023	73.9
305.237	-26.45
305.452	-51.03
305.666	8.36
305.88	96.43
306.094	26.79
306.308	12.46
306.522	73.9
306.736	2.22
306.95	69.8
307.164	51.37
307.379	-1.88
307.593	12.46
307.807	-1.88
308.021	41.13
308.235	26.79
308.449	-34.64
308.663	-46.93
308.877	10.41
309.091	6.31
309.305	51.37
309.519	0.17
309.733	30.89
309.947	28.84
310.161	41.13
310.374	-1.88
310.588	59.56
310.802	0.17
311.016	55.47
311.23	34.99
311.444	57.51
311.658	59.56
311.872	73.9
312.085	12.46
312.299	108.71
312.513	20.65
312.727	-12.12
312.941	26.79
313.154	75.95
313.368	55.47
313.582	67.75
313.796	-36.69
314.009	34.99
314.223	45.23
314.437	135.34
314.651	37.03
314.864	65.71
315.078	-12.12
315.292	73.9
315.505	28.84
315.719	59.56
315.933	0.17
316.146	10.41
316.36	-20.31
316.573	-3.93
316.787	59.56
317.001	24.75
317.214	16.55
317.428	-3.93
317.641	-55.12
317.855	39.08
318.068	-16.21
318.282	8.36
318.495	32.94
318.709	37.03
318.922	-18.26
319.136	84.14
319.349	28.84
319.563	14.51
319.776	104.62
319.99	12.46
320.203	26.79
320.417	61.61
320.63	-1.88
320.843	37.03
321.057	30.89
321.27	34.99
321.483	-100.18
321.697	-1.88
321.91	16.55
322.124	53.42
322.337	55.47
322.55	-34.64
322.763	-3.93
322.977	-14.17
323.19	-34.64
323.403	108.71
323.617	30.89
323.83	2.22
324.043	34.99
324.256	71.85
324.469	6.31
324.683	-12.12
324.896	24.75
325.109	39.08
325.322	-10.07
325.535	18.6
325.748	-3.93
325.962	43.18
326.175	4.27
326.388	100.52
326.601	88.23
326.814	55.47
327.027	49.32
327.24	96.43
327.453	-32.6
327.666	26.79
327.879	104.62
328.092	75.95
328.305	2.22
328.518	41.13
328.731	47.27
328.944	86.19
329.157	6.31
329.37	43.18
329.583	-18.26
329.796	14.51
330.009	4.27
330.222	47.27
330.435	4.27
330.648	75.95
330.861	59.56
331.073	8.36
331.286	55.47
331.499	67.75
331.712	10.41
331.925	-44.88
332.138	59.56
332.35	22.7
332.563	-24.4
332.776	-10.07
332.989	47.27
333.202	-30.55
333.414	-5.97
333.627	47.27
333.84	12.46
334.053	43.18
334.265	14.51
334.478	-20.31
334.691	-5.97
334.903	-26.45
335.116	22.7
335.329	30.89
335.541	24.75
335.754	12.46
335.966	18.6
336.179	114.86
336.392	34.99
336.604	100.52
336.817	32.94
337.029	6.31
337.242	28.84
337.454	-1.88
337.667	37.03
337.88	39.08
338.092	45.23
338.305	2.22
338.517	4.27
338.729	-24.4
338.942	-55.12
339.154	-3.93
339.367	-5.97
339.579	26.79
339.792	20.65
340.004	47.27
340.217	22.7
340.429	47.27
340.641	69.8
340.854	39.08
341.066	12.46
341.278	61.61
341.491	-1.88
341.703	129.19
341.915	51.37
342.128	88.23
342.34	2.22
342.552	65.71
342.764	39.08
342.977	14.51
343.189	8.36
343.401	4.27
343.613	-32.6
343.826	-38.74
344.038	20.65
344.25	22.7
344.462	-24.4
344.674	39.08
344.886	49.32
345.099	14.51
345.311	69.8
345.523	4.27
345.735	55.47
345.947	16.55
346.159	41.13
346.371	-1.88
346.583	30.89
346.795	4.27
347.007	47.27
347.219	6.31
347.431	-42.84
347.643	-10.07
347.855	80.04
348.067	-18.26
348.279	-1.88
348.491	49.32
348.703	75.95
348.915	-5.97
349.127	-40.79
349.339	57.51
349.551	108.71
349.763	2.22
349.975	4.27
350.187	106.67
350.399	20.65
350.61	8.36
350.822	39.08
351.034	53.42
351.246	28.84
351.458	43.18
351.669	6.31
351.881	92.33
352.093	22.7
352.305	-36.69
352.517	43.18
352.728	75.95
352.94	65.71
353.152	-5.97
353.363	-5.97
353.575	71.85
353.787	69.8
353.999	6.31
354.21	8.36
354.422	-16.21
354.633	65.71
354.845	20.65
355.057	0.17
355.268	41.13
355.48	34.99
355.692	12.46
355.903	34.99
356.115	-28.5
356.326	-36.69
356.538	51.37
356.749	88.23
356.961	34.99
357.172	-5.97
357.384	-1.88
357.595	-10.07
357.807	71.85
358.018	-12.12
358.23	12.46
358.441	59.56
358.653	37.03
358.864	39.08
359.075	-3.93
359.287	0.17
359.498	94.38
359.709	-34.64
359.921	-18.26
360.132	-55.12
360.344	6.31
360.555	55.47
360.766	39.08
360.977	-24.4
361.189	125.1
361.4	6.31
361.611	57.51
361.823	-8.02
362.034	82.09
362.245	-16.21
362.456	-3.93
362.667	75.95
362.879	-3.93
363.09	80.04
363.301	-10.07
363.512	22.7
363.723	41.13
363.935	-73.56
364.146	41.13
364.357	39.08
364.568	0.17
364.779	-40.79
364.99	80.04
365.201	14.51
365.412	-16.21
365.623	24.75
365.834	-44.88
366.045	-3.93
366.256	32.94
366.467	45.23
366.678	55.47
366.889	-8.02
367.1	80.04
367.311	-10.07
367.522	88.23
367.733	67.75
367.944	86.19
368.155	8.36
368.366	98.47
368.577	-10.07
368.788	-12.12
368.999	18.6
369.209	47.27
369.42	51.37
369.631	129.19
369.842	77.99
370.053	28.84
370.264	51.37
370.474	-24.4
370.685	65.71
370.896	-22.36
371.107	30.89
371.317	-38.74
371.528	43.18
371.739	6.31
371.95	61.61
372.16	63.66
372.371	-32.6
372.582	-24.4
372.792	32.94
373.003	18.6
373.214	0.17
373.424	45.23
373.635	69.8
373.846	73.9
374.056	59.56
374.267	116.9
374.477	47.27
374.688	55.47
374.898	-59.22
375.109	57.51
375.319	-18.26
375.53	-1.88
375.74	55.47
375.951	41.13
376.161	30.89
376.372	-5.97
376.582	43.18
376.793	43.18
377.003	30.89
377.214	-1.88
377.424	26.79
377.635	-18.26
377.845	-5.97
378.055	2.22
378.266	53.42
378.476	43.18
378.686	22.7
378.897	30.89
379.107	59.56
379.317	92.33
379.528	24.75
379.738	-3.93
379.948	8.36
380.158	-22.36
380.369	22.7
380.579	18.6
380.789	-10.07
380.999	37.03
381.21	98.47
381.42	88.23
381.63	22.7
381.84	94.38
382.05	41.13
382.261	67.75
382.471	96.43
382.681	-22.36
382.891	18.6
383.101	67.75
383.311	-32.6
383.521	-12.12
383.731	0.17
383.941	30.89
384.151	-1.88
384.361	30.89
384.571	-38.74
384.781	28.84
384.991	94.38
385.201	34.99
385.411	-28.5
385.621	18.6
385.831	28.84
386.041	53.42
386.251	-26.45
386.461	55.47
386.671	-28.5
386.881	14.51
387.091	-3.93
387.301	24.75
387.511	55.47
387.72	-46.93
387.93	102.57
388.14	73.9
388.35	53.42
388.56	24.75
388.769	39.08
388.979	32.94
389.189	18.6
389.399	-16.21
389.609	73.9
389.818	24.75
390.028	-10.07
390.238	8.36
390.447	114.86
390.657	22.7
390.867	57.51
391.076	-14.17
391.286	47.27
391.496	10.41
391.705	-22.36
391.915	32.94
392.125	-20.31
392.334	34.99
392.544	80.04
392.753	51.37
392.963	-26.45
393.172	94.38
393.382	16.55
393.591	30.89
393.801	-3.93
394.01	75.95
394.22	28.84
394.429	6.31
394.639	80.04
394.848	51.37
395.058	110.76
395.267	51.37
395.477	75.95
395.686	94.38
395.895	61.61
396.105	80.04
396.314	104.62
396.524	24.75
396.733	32.94
396.942	84.14
397.152	71.85
397.361	88.23
397.57	30.89
397.78	69.8
397.989	90.28
398.198	121
398.407	-5.97
398.617	0.17
398.826	14.51
399.035	69.8
399.244	26.79
399.453	26.79
399.663	104.62
399.872	30.89
400.081	63.66
400.29	26.79
400.499	71.85
400.708	116.9
400.917	67.75
401.127	125.1
401.336	4.27
401.545	141.48
401.754	69.8
401.963	100.52
402.172	92.33
402.381	131.24
402.59	133.29
402.799	137.38
403.008	67.75
403.217	114.86
403.426	149.67
403.635	-16.21
403.844	75.95
404.053	100.52
404.262	84.14
404.471	149.67
404.68	43.18
404.888	69.8
405.097	80.04
405.306	77.99
405.515	94.38
405.724	106.67
405.933	59.56
406.142	71.85
406.35	123.05
406.559	92.33
406.768	141.48
406.977	202.92
407.185	135.34
407.394	121
407.603	94.38
407.812	164.01
408.02	266.41
408.229	182.44
408.438	155.82
408.646	82.09
408.855	178.34
409.064	100.52
409.272	161.96
409.481	164.01
409.69	159.91
409.898	141.48
410.107	190.63
410.315	174.25
410.524	164.01
410.733	211.11
410.941	196.78
411.15	237.74
411.358	190.63
411.567	307.37
411.775	213.16
411.984	284.84
412.192	252.07
412.401	243.88
412.609	340.13
412.818	229.54
413.026	374.95
413.234	286.89
413.443	266.41
413.651	331.94
413.86	315.56
414.068	374.95
414.276	340.13
414.485	325.8
414.693	379.04
414.901	411.81
415.11	465.06
415.318	393.38
415.526	415.91
415.734	497.83
415.943	460.96
416.151	516.26
416.359	458.92
416.567	522.4
416.776	522.4
416.984	557.22
417.192	538.79
417.4	508.07
417.608	555.17
417.817	555.17
418.025	622.75
418.233	692.38
418.441	655.52
418.649	692.38
418.857	688.29
419.065	719.01
419.273	749.73
419.481	780.45
419.689	841.89
419.897	809.12
420.105	837.79
420.313	907.42
420.521	985.24
420.729	987.29
420.937	936.09
421.145	1044.63
421.353	1097.88
421.561	1130.65
421.769	1192.09
421.977	1210.52
422.185	1087.64
422.393	1210.52
422.601	1190.04
422.809	1335.45
423.017	1290.39
423.224	1384.6
423.432	1394.84
423.64	1521.81
423.848	1554.58
424.056	1489.04
424.263	1609.87
424.471	1562.77
424.679	1591.44
424.887	1738.9
425.094	1714.32
425.302	1790.1
425.51	1917.07
425.718	1960.08
425.925	2023.56
426.133	2035.85
426.341	2140.3
426.548	2195.59
426.756	2257.03
426.964	2234.5
427.171	2381.96
427.379	2345.09
427.586	2457.73
427.794	2568.32
428.001	2580.61
428.209	2789.5
428.417	2773.12
428.624	2912.38
428.832	3068.03
429.039	2953.34
429.247	2820.22
429.454	3158.14
429.662	3381.37
429.869	3197.05
430.076	3444.85
430.284	3506.29
430.491	3463.29
430.699	3729.52
430.906	3696.75
431.114	3674.23
431.321	3833.97
431.528	3846.26
431.736	4221.03
431.943	4368.49
432.15	4214.89
432.358	4417.64
432.565	4528.23
432.772	4423.78
432.979	4892.77
433.187	4886.62
433.394	4712.55
433.601	5081.18
433.808	5275.74
434.016	5134.43
434.223	5445.72
434.43	5634.13
434.637	5621.84
434.844	5845.07
435.052	5982.29
435.259	6039.63
435.466	6015.05
435.673	6031.44
435.88	6307.91
436.087	6750.28
436.294	6643.78
436.501	6651.97
436.708	6662.21
436.915	6899.78
437.122	7198.78
437.329	7276.6
437.537	7376.95
437.743	7653.43
437.95	7489.59
438.157	7880.75
438.364	8206.38
438.571	8278.06
438.778	8132.65
438.985	8816.68
439.192	8624.17
439.399	8820.77
439.606	8656.93
439.813	8996.9
440.02	9517.08
440.227	9437.21
440.433	9465.88
440.64	9818.13
440.847	9760.79
441.054	10029.07
441.261	10545.16
441.467	10625.03
441.674	10498.06
441.881	10977.28
442.088	10983.43
442.294	10696.71
442.501	11102.21
442.708	11356.16
442.914	12029.94
443.121	12255.22
443.328	12021.75
443.534	12799.98
443.741	12228.59
443.948	12466.16
444.154	13281.25
444.361	12980.2
444.568	13289.44
444.774	13246.43
444.981	13293.54
445.187	13602.78
445.394	14235.6
445.6	13998.04
445.807	15658.94
446.013	14919.62
446.22	15028.17
446.426	15669.18
446.633	15779.77
446.839	16263.09
447.046	15525.82
447.252	16390.06
447.459	16531.37
447.665	16558
447.871	16766.89
448.078	17917.85
448.284	17031.08
448.491	17430.43
448.697	18266
448.903	18421.65
449.11	18528.14
449.316	18360.21
449.522	18704.27
449.728	19007.37
449.935	19074.95
450.141	19183.49
450.347	19244.93
450.553	18804.62
450.76	19167.11
450.966	19615.62
451.172	19636.1
451.378	20043.64
451.584	19394.43
451.791	19986.3
451.997	19787.64
452.203	20266.87
452.409	20103.03
452.615	20393.84
452.821	19451.78
453.027	19588.99
453.233	20143.99
453.44	19390.34
453.646	19554.18
453.852	19869.56
454.058	20346.74
454.264	19287.94
454.47	19482.5
454.676	19255.17
454.882	19812.22
455.088	18241.43
455.294	18712.46
455.5	18608.01
455.705	18812.81
455.911	18251.67
456.117	17768.35
456.323	17330.08
456.529	16641.96
456.735	17219.49
456.941	16678.83
457.147	16533.42
457.352	16297.91
457.558	15867.83
457.764	16134.07
457.97	15452.09
458.176	15138.76
458.381	15400.9
458.587	14655.44
458.793	14602.19
458.999	13608.92
459.204	14741.45
459.41	14385.1
459.616	13393.89
459.821	13324.26
460.027	13563.87
460.233	12929
460.438	12396.53
460.644	12709.86
460.85	11958.26
461.055	11917.3
461.261	11610.11
461.466	10872.84
461.672	10596.36
461.878	11403.26
462.083	10713.1
462.289	10416.14
462.494	10039.31
462.7	9844.76
462.905	9666.58
463.111	10012.69
463.316	10059.79
463.522	9732.12
463.727	9873.43
463.932	9685.01
464.138	9582.62
464.343	9545.75
464.549	9386.01
464.754	9734.17
464.959	9629.72
465.165	9625.62
465.37	9320.48
465.575	8861.73
465.781	9173.02
465.986	9394.2
466.191	8892.45
466.397	8753.19
466.602	8341.55
466.807	8773.67
467.012	8738.85
467.218	8599.59
467.423	8523.82
467.628	8710.18
467.833	8876.07
468.038	8681.51
468.244	8321.07
468.449	8560.68
