Data from USB4F104151__31__11-05-14-331.txt Node

Date: Wed Mar 12 11:05:14 EDT 2025
User: louis
Spectrometer: USB4F10415
Trigger mode: 4
Integration Time (sec): 2.000000E-2
Scans to average: 1
Electric dark correction enabled: true
Nonlinearity correction enabled: false
Boxcar width: 0
XAxis mode: Wavelengths
Number of Pixels in Spectrum: 3648
>>>>>Begin Spectral Data<<<<<
178.204	-36.86
178.424	-36.86
178.644	-36.86
178.864	-126.97
179.084	-65.53
179.304	2.05
179.524	32.77
179.744	53.25
179.964	2.05
180.184	34.82
180.404	-51.2
180.624	-4.1
180.844	-16.38
181.064	6.14
181.283	-49.15
181.503	49.15
181.723	-59.39
181.943	-73.73
182.163	43.01
182.383	-12.29
182.602	20.48
182.822	51.2
183.042	61.44
183.262	-30.72
183.482	24.58
183.701	4.1
183.921	0
184.141	-32.77
184.361	12.29
184.58	12.29
184.8	18.43
185.02	22.53
185.239	88.06
185.459	40.96
185.679	45.06
185.898	-59.39
186.118	67.58
186.338	20.48
186.557	14.34
186.777	-8.19
186.997	-8.19
187.216	38.91
187.436	10.24
187.655	53.25
187.875	26.62
188.095	73.73
188.314	40.96
188.534	83.97
188.753	12.29
188.973	14.34
189.192	53.25
189.412	-18.43
189.631	-53.25
189.851	51.2
190.07	88.06
190.29	-43.01
190.509	-26.62
190.729	67.58
190.948	-16.38
191.168	26.62
191.387	32.77
191.607	-18.43
191.826	-47.1
192.045	65.54
192.265	-40.96
192.484	-49.15
192.704	34.82
192.923	16.38
193.142	45.06
193.362	51.2
193.581	22.53
193.8	14.34
194.02	-16.38
194.239	47.1
194.458	81.92
194.678	-53.25
194.897	32.77
195.116	26.62
195.335	-16.38
195.555	45.06
195.774	51.2
195.993	6.14
196.212	14.34
196.432	-16.38
196.651	2.05
196.87	30.72
197.089	96.25
197.308	67.58
197.528	-12.29
197.747	51.2
197.966	24.58
198.185	65.54
198.404	-6.14
198.623	-22.53
198.842	63.49
199.062	4.1
199.281	12.29
199.5	-77.82
199.719	0
199.938	-45.06
200.157	-8.19
200.376	-4.1
200.595	14.34
200.814	47.1
201.033	2.05
201.252	79.87
201.471	18.43
201.69	26.62
201.909	77.82
202.128	0
202.347	18.43
202.566	51.2
202.785	51.2
203.004	6.14
203.223	63.49
203.442	-8.19
203.661	63.49
203.879	-38.91
204.098	112.64
204.317	12.29
204.536	14.34
204.755	8.19
204.974	49.15
205.193	-71.68
205.411	16.38
205.63	2.05
205.849	65.54
206.068	-63.49
206.287	-2.05
206.505	-18.43
206.724	14.34
206.943	-59.39
207.162	40.96
207.381	4.1
207.599	79.87
207.818	-12.29
208.037	40.96
208.255	18.43
208.474	-63.49
208.693	57.34
208.911	8.19
209.13	69.63
209.349	71.68
209.567	18.43
209.786	47.1
210.005	-26.62
210.223	26.62
210.442	-16.38
210.661	-73.73
210.879	-18.43
211.098	10.24
211.316	-20.48
211.535	81.92
211.753	34.82
211.972	45.06
212.191	-8.19
212.409	20.48
212.628	32.77
212.846	63.49
213.065	30.72
213.283	45.06
213.502	61.44
213.72	2.05
213.938	-4.1
214.157	-10.24
214.375	-10.24
214.594	-32.77
214.812	22.53
215.031	4.1
215.249	-2.05
215.467	14.34
215.686	-4.1
215.904	55.3
216.122	45.06
216.341	12.29
216.559	-32.77
216.778	98.3
216.996	-4.1
217.214	20.48
217.432	34.82
217.651	49.15
217.869	4.1
218.087	14.34
218.306	53.25
218.524	30.72
218.742	-38.91
218.96	-24.58
219.179	-24.58
219.397	-47.1
219.615	-47.1
219.833	-14.34
220.051	-6.14
220.27	24.58
220.488	2.05
220.706	65.54
220.924	-22.53
221.142	-16.38
221.36	34.82
221.578	26.62
221.796	20.48
222.015	12.29
222.233	-59.39
222.451	30.72
222.669	0
222.887	-32.77
223.105	16.38
223.323	59.39
223.541	65.54
223.759	51.2
223.977	-10.24
224.195	77.82
224.413	30.72
224.631	4.1
224.849	65.54
225.067	106.49
225.285	14.34
225.503	-14.34
225.721	16.38
225.939	26.62
226.157	71.68
226.375	92.16
226.592	69.63
226.81	-12.29
227.028	14.34
227.246	81.92
227.464	-20.48
227.682	51.2
227.9	63.49
228.117	45.06
228.335	-16.38
228.553	-24.58
228.771	-26.62
228.989	86.01
229.206	4.1
229.424	-14.34
229.642	55.3
229.86	-67.58
230.077	-4.1
230.295	30.72
230.513	43.01
230.731	45.06
230.948	36.86
231.166	49.15
231.384	63.49
231.601	18.43
231.819	43.01
232.037	-14.34
232.254	16.38
232.472	38.91
232.689	2.05
232.907	86.01
233.125	65.54
233.342	71.68
233.56	30.72
233.777	18.43
233.995	8.19
234.213	55.3
234.43	18.43
234.648	-6.14
234.865	86.01
235.083	57.34
235.3	-34.82
235.518	45.06
235.735	69.63
235.953	57.34
236.17	4.1
236.388	18.43
236.605	2.05
236.822	18.43
237.04	-2.05
237.257	0
237.475	-34.82
237.692	24.58
237.909	-26.62
238.127	-28.67
238.344	-43.01
238.562	24.58
238.779	6.14
238.996	88.06
239.214	-20.48
239.431	20.48
239.648	-34.82
239.865	32.77
240.083	-49.15
240.3	49.15
240.517	16.38
240.735	63.49
240.952	30.72
241.169	10.24
241.386	-4.1
241.603	-16.38
241.821	-18.43
242.038	98.3
242.255	22.53
242.472	79.87
242.689	38.91
242.907	28.67
243.124	-34.82
243.341	51.2
243.558	26.62
243.775	22.53
243.992	61.44
244.209	51.2
244.426	34.82
244.643	69.63
244.86	38.91
245.078	67.58
245.295	22.53
245.512	40.96
245.729	40.96
245.946	-38.91
246.163	98.3
246.38	120.83
246.597	106.49
246.814	59.39
247.031	45.06
247.248	65.54
247.464	43.01
247.681	65.54
247.898	53.25
248.115	-6.14
248.332	-4.1
248.549	-8.19
248.766	65.54
248.983	49.15
249.2	-40.96
249.417	8.19
249.633	28.67
249.85	12.29
250.067	-30.72
250.284	-38.91
250.501	49.15
250.717	110.59
250.934	-2.05
251.151	63.49
251.368	55.3
251.585	57.34
251.801	63.49
252.018	4.1
252.235	47.1
252.451	-12.29
252.668	-10.24
252.885	77.82
253.102	77.82
253.318	98.3
253.535	2.05
253.752	-36.86
253.968	59.39
254.185	45.06
254.401	-8.19
254.618	18.43
254.835	-34.82
255.051	-2.05
255.268	16.38
255.484	10.24
255.701	4.1
255.917	36.86
256.134	-8.19
256.351	18.43
256.567	-30.72
256.784	-6.14
257	-53.25
257.217	71.68
257.433	-20.48
257.65	55.3
257.866	88.06
258.082	69.63
258.299	-43.01
258.515	-24.58
258.732	-4.1
258.948	94.21
259.165	6.14
259.381	86.01
259.597	30.72
259.814	-2.05
260.03	26.62
260.246	10.24
260.463	79.87
260.679	-2.05
260.895	38.91
261.112	108.54
261.328	71.68
261.544	32.77
261.761	30.72
261.977	57.34
262.193	-59.39
262.409	61.44
262.626	-18.43
262.842	6.14
263.058	-38.91
263.274	14.34
263.49	63.49
263.707	43.01
263.923	59.39
264.139	4.1
264.355	28.67
264.571	30.72
264.787	22.53
265.004	47.1
265.22	83.97
265.436	45.06
265.652	47.1
265.868	75.77
266.084	-36.86
266.3	-22.53
266.516	-28.67
266.732	55.3
266.948	22.53
267.164	2.05
267.38	53.25
267.596	108.54
267.812	116.73
268.028	47.1
268.244	10.24
268.46	18.43
268.676	28.67
268.892	83.97
269.108	26.62
269.324	-10.24
269.54	-16.38
269.756	106.49
269.972	-63.49
270.188	10.24
270.403	30.72
270.619	83.97
270.835	24.58
271.051	53.25
271.267	43.01
271.483	55.3
271.698	14.34
271.914	16.38
272.13	-10.24
272.346	96.25
272.562	-18.43
272.777	26.62
272.993	73.73
273.209	30.72
273.425	-14.34
273.64	-49.15
273.856	36.86
274.072	-40.96
274.287	-51.2
274.503	40.96
274.719	49.15
274.934	8.19
275.15	51.2
275.366	47.1
275.581	-57.34
275.797	43.01
276.012	43.01
276.228	-28.67
276.444	59.39
276.659	34.82
276.875	49.15
277.09	6.14
277.306	4.1
277.521	30.72
277.737	0
277.952	16.38
278.168	10.24
278.383	57.34
278.599	24.58
278.814	55.3
279.03	24.58
279.245	49.15
279.461	12.29
279.676	57.34
279.892	12.29
280.107	-10.24
280.322	-36.86
280.538	38.91
280.753	14.34
280.969	24.58
281.184	10.24
281.399	16.38
281.615	-18.43
281.83	83.97
282.045	-36.86
282.26	-36.86
282.476	73.73
282.691	102.4
282.906	-20.48
283.122	153.6
283.337	55.3
283.552	-12.29
283.767	-34.82
283.983	75.77
284.198	6.14
284.413	16.38
284.628	51.2
284.843	55.3
285.058	77.82
285.274	79.87
285.489	38.91
285.704	-14.34
285.919	6.14
286.134	-12.29
286.349	53.25
286.564	43.01
286.779	-6.14
286.995	57.34
287.21	-18.43
287.425	-18.43
287.64	12.29
287.855	6.14
288.07	-18.43
288.285	57.34
288.5	12.29
288.715	116.73
288.93	24.58
289.145	-38.91
289.36	51.2
289.575	43.01
289.79	114.69
290.004	40.96
290.219	61.44
290.434	-38.91
290.649	18.43
290.864	55.3
291.079	61.44
291.294	-22.53
291.509	-10.24
291.724	47.1
291.938	8.19
292.153	-63.49
292.368	22.53
292.583	-8.19
292.798	14.34
293.012	-26.62
293.227	71.68
293.442	14.34
293.657	104.45
293.871	59.39
294.086	71.68
294.301	96.25
294.516	65.54
294.73	-43.01
294.945	-34.82
295.16	8.19
295.374	71.68
295.589	40.96
295.804	4.1
296.018	45.06
296.233	40.96
296.447	59.39
296.662	34.82
296.877	-10.24
297.091	26.62
297.306	47.1
297.52	10.24
297.735	40.96
297.949	90.11
298.164	-2.05
298.378	71.68
298.593	-36.86
298.807	57.34
299.022	-4.1
299.236	81.92
299.451	32.77
299.665	61.44
299.88	90.11
300.094	51.2
300.309	-12.29
300.523	-88.06
300.737	38.91
300.952	57.34
301.166	40.96
301.381	36.86
301.595	49.15
301.809	24.58
302.024	-24.58
302.238	-14.34
302.452	2.05
302.667	0
302.881	112.64
303.095	10.24
303.309	28.67
303.524	32.77
303.738	4.1
303.952	-34.82
304.166	-40.96
304.381	-59.39
304.595	38.91
304.809	36.86
305.023	108.54
305.237	71.68
305.452	163.84
305.666	-12.29
305.88	53.25
306.094	30.72
306.308	26.62
306.522	4.1
306.736	88.06
306.95	6.14
307.164	0
307.379	14.34
307.593	100.35
307.807	106.49
308.021	36.86
308.235	4.1
308.449	-49.15
308.663	94.21
308.877	65.54
309.091	69.63
309.305	96.25
309.519	-86.01
309.733	45.06
309.947	90.11
310.161	88.06
310.374	24.58
310.588	71.68
310.802	4.1
311.016	14.34
311.23	12.29
311.444	-28.67
311.658	57.34
311.872	57.34
312.085	30.72
312.299	51.2
312.513	61.44
312.727	55.3
312.941	2.05
313.154	14.34
313.368	57.34
313.582	110.59
313.796	6.14
314.009	67.58
314.223	20.48
314.437	26.62
314.651	-2.05
314.864	22.53
315.078	-10.24
315.292	-38.91
315.505	6.14
315.719	79.87
315.933	57.34
316.146	18.43
316.36	26.62
316.573	59.39
316.787	71.68
317.001	-16.38
317.214	-10.24
317.428	73.73
317.641	-40.96
317.855	30.72
318.068	12.29
318.282	88.06
318.495	34.82
318.709	67.58
318.922	-12.29
319.136	61.44
319.349	16.38
319.563	22.53
319.776	10.24
319.99	-40.96
320.203	-2.05
320.417	53.25
320.63	12.29
320.843	77.82
321.057	-18.43
321.27	53.25
321.483	28.67
321.697	45.06
321.91	28.67
322.124	-28.67
322.337	30.72
322.55	24.58
322.763	79.87
322.977	40.96
323.19	79.87
323.403	53.25
323.617	-4.1
323.83	96.25
324.043	49.15
324.256	22.53
324.469	61.44
324.683	81.92
324.896	14.34
325.109	8.19
325.322	40.96
325.535	-20.48
325.748	40.96
325.962	4.1
326.175	10.24
326.388	2.05
326.601	36.86
326.814	63.49
327.027	-14.34
327.24	20.48
327.453	24.58
327.666	90.11
327.879	45.06
328.092	30.72
328.305	55.3
328.518	24.58
328.731	77.82
328.944	-32.77
329.157	-4.1
329.37	34.82
329.583	26.62
329.796	53.25
330.009	40.96
330.222	-4.1
330.435	63.49
330.648	96.25
330.861	12.29
331.073	24.58
331.286	22.53
331.499	16.38
331.712	45.06
331.925	12.29
332.138	83.97
332.35	77.82
332.563	77.82
332.776	51.2
332.989	-16.38
333.202	90.11
333.414	38.91
333.627	38.91
333.84	-14.34
334.053	32.77
334.265	-20.48
334.478	108.54
334.691	-43.01
334.903	-4.1
335.116	38.91
335.329	22.53
335.541	-20.48
335.754	108.54
335.966	43.01
336.179	45.06
336.392	43.01
336.604	77.82
336.817	49.15
337.029	55.3
337.242	32.77
337.454	83.97
337.667	86.01
337.88	59.39
338.092	79.87
338.305	94.21
338.517	26.62
338.729	45.06
338.942	51.2
339.154	14.34
339.367	69.63
339.579	36.86
339.792	6.14
340.004	73.73
340.217	6.14
340.429	126.97
340.641	8.19
340.854	4.1
341.066	79.87
341.278	118.78
341.491	96.25
341.703	83.97
341.915	14.34
342.128	65.54
342.34	14.34
342.552	43.01
342.764	65.54
342.977	40.96
343.189	26.62
343.401	38.91
343.613	49.15
343.826	20.48
344.038	-30.72
344.25	40.96
344.462	8.19
344.674	0
344.886	-4.1
345.099	18.43
345.311	47.1
345.523	34.82
345.735	-10.24
345.947	34.82
346.159	92.16
346.371	96.25
346.583	0
346.795	51.2
347.007	-8.19
347.219	-28.67
347.431	-12.29
347.643	55.3
347.855	75.77
348.067	94.21
348.279	53.25
348.491	6.14
348.703	-6.14
348.915	34.82
349.127	51.2
349.339	-2.05
349.551	47.1
349.763	92.16
349.975	40.96
350.187	55.3
350.399	32.77
350.61	45.06
350.822	14.34
351.034	36.86
351.246	2.05
351.458	20.48
351.669	-30.72
351.881	-12.29
352.093	26.62
352.305	22.53
352.517	34.82
352.728	180.22
352.94	67.58
353.152	32.77
353.363	55.3
353.575	63.49
353.787	6.14
353.999	38.91
354.21	90.11
354.422	-14.34
354.633	79.87
354.845	36.86
355.057	86.01
355.268	8.19
355.48	98.3
355.692	34.82
355.903	102.4
356.115	-22.53
356.326	-18.43
356.538	36.86
356.749	49.15
356.961	59.39
357.172	67.58
357.384	-16.38
357.595	65.54
357.807	49.15
358.018	47.1
358.23	73.73
358.441	53.25
358.653	36.86
358.864	40.96
359.075	38.91
359.287	22.53
359.498	73.73
359.709	71.68
359.921	55.3
360.132	32.77
360.344	75.77
360.555	47.1
360.766	153.6
360.977	112.64
361.189	118.78
361.4	-14.34
361.611	43.01
361.823	61.44
362.034	47.1
362.245	-43.01
362.456	26.62
362.667	45.06
362.879	124.93
363.09	28.67
363.301	92.16
363.512	36.86
363.723	51.2
363.935	71.68
364.146	-6.14
364.357	53.25
364.568	2.05
364.779	-28.67
364.99	8.19
365.201	20.48
365.412	45.06
365.623	-38.91
365.834	47.1
366.045	6.14
366.256	36.86
366.467	49.15
366.678	16.38
366.889	-16.38
367.1	34.82
367.311	126.97
367.522	57.34
367.733	65.54
367.944	57.34
368.155	59.39
368.366	65.54
368.577	79.87
368.788	43.01
368.999	47.1
369.209	45.06
369.42	96.25
369.631	81.92
369.842	40.96
370.053	83.97
370.264	24.58
370.474	30.72
370.685	-22.53
370.896	53.25
371.107	77.82
371.317	114.69
371.528	63.49
371.739	53.25
371.95	-16.38
372.16	75.77
372.371	30.72
372.582	53.25
372.792	30.72
373.003	90.11
373.214	-14.34
373.424	-14.34
373.635	2.05
373.846	100.35
374.056	34.82
374.267	51.2
374.477	14.34
374.688	24.58
374.898	40.96
375.109	61.44
375.319	30.72
375.53	61.44
375.74	83.97
375.951	16.38
376.161	20.48
376.372	34.82
376.582	-43.01
376.793	104.45
377.003	0
377.214	22.53
377.424	22.53
377.635	81.92
377.845	53.25
378.055	47.1
378.266	34.82
378.476	43.01
378.686	55.3
378.897	10.24
379.107	-4.1
379.317	61.44
379.528	73.73
379.738	77.82
379.948	14.34
380.158	49.15
380.369	12.29
380.579	94.21
380.789	-18.43
380.999	67.58
381.21	30.72
381.42	100.35
381.63	59.39
381.84	83.97
382.05	110.59
382.261	47.1
382.471	45.06
382.681	24.58
382.891	114.69
383.101	55.3
383.311	100.35
383.521	22.53
383.731	-10.24
383.941	38.91
384.151	90.11
384.361	116.73
384.571	-12.29
384.781	30.72
384.991	96.25
385.201	-24.58
385.411	2.05
385.621	34.82
385.831	26.62
386.041	18.43
386.251	-2.05
386.461	18.43
386.671	55.3
386.881	81.92
387.091	55.3
387.301	57.34
387.511	67.58
387.72	45.06
387.93	69.63
388.14	14.34
388.35	65.54
388.56	98.3
388.769	55.3
388.979	63.49
389.189	75.77
389.399	10.24
389.609	2.05
389.818	86.01
390.028	86.01
390.238	90.11
390.447	12.29
390.657	75.77
390.867	28.67
391.076	43.01
391.286	71.68
391.496	55.3
391.705	4.1
391.915	-32.77
392.125	40.96
392.334	43.01
392.544	49.15
392.753	22.53
392.963	88.06
393.172	124.93
393.382	24.58
393.591	90.11
393.801	110.59
394.01	71.68
394.22	40.96
394.429	79.87
394.639	120.83
394.848	86.01
395.058	110.59
395.267	36.86
395.477	120.83
395.686	83.97
395.895	69.63
396.105	102.4
396.314	96.25
396.524	110.59
396.733	108.54
396.942	118.78
397.152	83.97
397.361	81.92
397.57	90.11
397.78	53.25
397.989	83.97
398.198	100.35
398.407	100.35
398.617	83.97
398.826	73.73
399.035	100.35
399.244	96.25
399.453	102.4
399.663	67.58
399.872	26.62
400.081	65.54
400.29	61.44
400.499	-26.62
400.708	65.54
400.917	108.54
401.127	55.3
401.336	18.43
401.545	135.17
401.754	81.92
401.963	73.73
402.172	4.1
402.381	57.34
402.59	63.49
402.799	100.35
403.008	120.83
403.217	100.35
403.426	139.26
403.635	77.82
403.844	155.65
404.053	124.93
404.262	108.54
404.471	161.79
404.68	139.26
404.888	100.35
405.097	151.55
405.306	192.51
405.515	129.02
405.724	116.73
405.933	94.21
406.142	174.08
406.35	180.22
406.559	129.02
406.768	77.82
406.977	184.32
407.185	251.9
407.394	163.84
407.603	122.88
407.812	204.8
408.02	194.56
408.229	208.89
408.438	180.22
408.646	165.89
408.855	126.97
409.064	180.22
409.272	157.69
409.481	210.94
409.69	239.61
409.898	256
410.107	243.71
410.315	225.28
410.524	262.14
410.733	290.81
410.941	212.99
411.15	301.05
411.358	284.67
411.567	290.81
411.775	309.24
411.984	301.05
412.192	372.73
412.401	411.64
412.609	358.39
412.818	434.17
413.026	393.21
413.234	329.72
413.443	405.5
413.651	428.03
413.86	413.69
414.068	544.76
414.276	462.84
414.485	475.13
414.693	514.04
414.901	507.9
415.11	548.86
415.318	579.58
415.526	503.8
415.734	655.35
415.943	602.1
416.151	643.06
416.359	643.06
416.567	634.87
416.776	675.83
416.984	753.65
417.192	772.08
417.4	772.08
417.608	720.89
417.817	784.37
418.025	811
418.233	870.39
418.441	923.63
418.649	974.83
418.857	923.63
419.065	1023.98
419.273	1001.46
419.481	1044.46
419.689	1081.33
419.897	1097.71
420.105	1230.83
420.313	1183.73
420.521	1189.87
420.729	1390.57
420.937	1353.71
421.145	1253.36
421.353	1392.62
421.561	1376.24
421.769	1503.21
421.977	1464.3
422.185	1515.5
422.393	1693.67
422.601	1791.97
422.809	1894.37
423.017	1732.58
423.224	1888.23
423.432	1900.52
423.64	1929.19
423.848	2025.44
424.056	2099.17
424.263	2148.32
424.471	2187.23
424.679	2215.9
424.887	2404.32
425.094	2514.91
425.302	2500.57
425.51	2701.27
425.718	2615.26
425.925	2738.13
426.133	2703.32
426.341	2953.17
426.548	3055.57
426.756	2996.18
426.964	2971.6
427.171	3229.65
427.379	3274.7
427.586	3397.58
427.794	3571.66
428.001	3571.66
428.209	3938.24
428.417	3751.88
428.624	4040.64
428.832	4087.75
429.039	3985.35
429.247	3917.76
429.454	4235.2
429.662	4462.52
429.869	4345.79
430.076	4597.69
430.284	4519.87
430.491	4884.41
430.699	4954.04
430.906	5087.15
431.114	5085.11
431.321	5320.62
431.528	5429.17
431.736	5787.56
431.943	6070.18
432.15	5867.43
432.358	5683.11
432.565	6217.63
432.772	6145.95
432.979	6557.6
433.187	6614.94
433.394	6750.11
433.601	7028.63
433.808	7155.6
434.016	6905.75
434.223	7409.55
434.43	7888.78
434.637	7557
434.844	8144.77
435.052	8439.68
435.259	8228.74
435.466	8103.81
435.673	8339.33
435.88	8761.21
436.087	9242.48
436.294	9181.04
436.501	9037.69
436.708	9127.8
436.915	9441.14
437.122	9863.02
437.329	9944.94
437.537	10452.83
437.743	10202.98
437.95	10207.08
438.157	10895.19
438.364	11286.36
438.571	11269.97
438.778	11380.56
438.985	12365.64
439.192	11986.76
439.399	12431.17
439.606	11976.52
439.813	12406.59
440.02	13571.89
440.227	13037.37
440.433	12945.21
440.64	13500.21
440.847	13438.77
441.054	13766.45
441.261	14642.98
441.467	14294.82
441.674	14835.49
441.881	15222.55
442.088	15339.29
442.294	15163.16
442.501	15474.45
442.708	16019.21
442.914	16609.03
443.121	17190.65
443.328	16668.42
443.534	18050.8
443.741	17225.47
443.948	17164.03
444.154	18462.44
444.361	18380.52
444.568	18521.83
444.774	18239.21
444.981	18591.46
445.187	19390.17
445.394	20006.61
445.6	19545.81
445.807	21513.91
446.013	20713.16
446.22	21280.44
446.426	21909.17
446.633	22021.81
446.839	22636.2
447.046	22073.01
447.252	22990.5
447.459	22750.88
447.665	23201.44
447.871	23838.36
448.078	24876.68
448.284	23832.21
448.491	24688.26
448.697	25329.28
448.903	25757.3
449.11	25839.22
449.316	25425.53
449.522	26001.01
449.728	26318.45
449.935	26908.26
450.141	26513
450.347	27405.92
450.553	26572.39
450.76	26379.89
450.966	27283.04
451.172	27115.11
451.378	27954.77
451.584	27262.56
451.791	27973.21
451.997	27586.14
452.203	28335.7
452.409	28337.74
452.615	28194.39
452.821	26607.21
453.027	26908.26
453.233	28098.13
453.44	26732.14
453.646	27156.07
453.852	27141.73
454.058	27541.08
454.264	26351.21
454.47	26971.75
454.676	26754.66
454.882	27610.71
455.088	25011.84
455.294	25120.38
455.5	25613.95
455.705	25857.65
455.911	25050.75
456.117	24362.64
456.323	24051.35
456.529	22761.12
456.735	23766.68
456.941	22937.25
457.147	22658.73
457.352	21982.9
457.558	21778.1
457.764	21767.86
457.97	21343.93
458.176	20741.83
458.381	20817.6
458.587	19613.4
458.793	19877.58
458.999	18853.6
459.204	20080.33
459.41	19773.14
459.616	18278.12
459.821	18517.73
460.027	17952.49
460.233	17954.54
460.438	16881.41
460.644	17002.24
460.85	16520.96
461.055	16004.88
461.261	16115.47
461.466	14905.12
461.672	14501.67
461.878	15376.15
462.083	14282.53
462.289	14159.66
462.494	13981.48
462.7	13399.86
462.905	12924.73
463.111	13541.17
463.316	13655.86
463.522	13172.53
463.727	13319.99
463.932	13231.93
464.138	13098.81
464.343	13164.34
464.549	12595.01
464.754	13381.43
464.959	13276.98
465.165	13096.76
465.37	12433.22
465.575	12099.4
465.781	12736.32
465.986	12650.3
466.191	12109.64
466.397	11822.92
466.602	11464.53
466.807	12040.01
467.012	11958.09
467.218	11673.42
467.423	11679.57
467.628	11700.05
467.833	12056.39
468.038	11888.46
468.244	11237.2
468.449	11837.26
