Data from USB4F104151__27__11-05-08-972.txt Node

Date: Wed Mar 12 11:05:08 EDT 2025
User: louis
Spectrometer: USB4F10415
Trigger mode: 4
Integration Time (sec): 2.000000E-2
Scans to average: 1
Electric dark correction enabled: true
Nonlinearity correction enabled: false
Boxcar width: 0
XAxis mode: Wavelengths
Number of Pixels in Spectrum: 3648
>>>>>Begin Spectral Data<<<<<
178.204	-119.81
178.424	-119.81
178.644	-119.81
178.864	-80.89
179.084	-99.33
179.304	15.36
179.524	9.22
179.744	-62.46
179.964	91.13
180.184	-3.07
180.404	-5.12
180.624	29.7
180.844	-78.85
181.064	-1.02
181.283	11.26
181.503	3.07
181.723	-9.22
181.943	-64.51
182.163	39.94
182.383	3.07
182.602	105.47
182.822	46.08
183.042	76.8
183.262	35.84
183.482	-21.5
183.701	60.42
183.921	-11.26
184.141	13.31
184.361	11.26
184.58	31.74
184.8	3.07
185.02	60.42
185.239	-13.31
185.459	44.03
185.679	103.42
185.898	3.07
186.118	9.22
186.338	13.31
186.557	25.6
186.777	-58.37
186.997	-21.5
187.216	-1.02
187.436	19.46
187.655	-1.02
187.875	9.22
188.095	19.46
188.314	52.22
188.534	35.84
188.753	19.46
188.973	23.55
189.192	44.03
189.412	76.8
189.631	11.26
189.851	27.65
190.07	-3.07
190.29	46.08
190.509	37.89
190.729	-11.26
190.948	21.5
191.168	132.09
191.387	54.27
191.607	-13.31
191.826	-37.89
192.045	25.6
192.265	-21.5
192.484	-21.5
192.704	13.31
192.923	27.65
193.142	21.5
193.362	66.56
193.581	23.55
193.8	119.81
194.02	21.5
194.239	19.46
194.458	-17.41
194.678	41.98
194.897	27.65
195.116	84.99
195.335	3.07
195.555	21.5
195.774	21.5
195.993	17.41
196.212	50.18
196.432	1.02
196.651	-9.22
196.87	44.03
197.089	56.32
197.308	33.79
197.528	56.32
197.747	37.89
197.966	-35.84
198.185	13.31
198.404	-41.98
198.623	13.31
198.842	58.37
199.062	107.52
199.281	78.85
199.5	-21.5
199.719	56.32
199.938	5.12
200.157	-17.41
200.376	64.51
200.595	29.7
200.814	-17.41
201.033	29.7
201.252	68.61
201.471	25.6
201.69	25.6
201.909	7.17
202.128	-17.41
202.347	13.31
202.566	-21.5
202.785	41.98
203.004	52.22
203.223	31.74
203.442	17.41
203.661	-17.41
203.879	-31.74
204.098	17.41
204.317	-5.12
204.536	37.89
204.755	-46.08
204.974	33.79
205.193	-13.31
205.411	-35.84
205.63	13.31
205.849	13.31
206.068	37.89
206.287	11.26
206.505	9.22
206.724	64.51
206.943	1.02
207.162	-25.6
207.381	101.37
207.599	72.7
207.818	1.02
208.037	64.51
208.255	-27.65
208.474	-3.07
208.693	56.32
208.911	17.41
209.13	-9.22
209.349	15.36
209.567	17.41
209.786	76.8
210.005	-39.94
210.223	-54.27
210.442	-1.02
210.661	-29.7
210.879	31.74
211.098	60.42
211.316	60.42
211.535	72.7
211.753	60.42
211.972	52.22
212.191	35.84
212.409	78.85
212.628	99.33
212.846	25.6
213.065	52.22
213.283	162.81
213.502	78.85
213.72	44.03
213.938	19.46
214.157	46.08
214.375	76.8
214.594	31.74
214.812	-7.17
215.031	-23.55
215.249	-60.42
215.467	29.7
215.686	9.22
215.904	60.42
216.122	21.5
216.341	107.52
216.559	37.89
216.778	31.74
216.996	-9.22
217.214	-76.8
217.432	33.79
217.651	-1.02
217.869	7.17
218.087	27.65
218.306	25.6
218.524	68.61
218.742	21.5
218.96	23.55
219.179	-11.26
219.397	-13.31
219.615	52.22
219.833	-7.17
220.051	66.56
220.27	101.37
220.488	70.65
220.706	-7.17
220.924	-15.36
221.142	56.32
221.36	37.89
221.578	-27.65
221.796	39.94
222.015	21.5
222.233	87.04
222.451	25.6
222.669	-15.36
222.887	17.41
223.105	-39.94
223.323	58.37
223.541	-7.17
223.759	29.7
223.977	35.84
224.195	39.94
224.413	80.89
224.631	3.07
224.849	-64.51
225.067	68.61
225.285	27.65
225.503	29.7
225.721	-33.79
225.939	23.55
226.157	68.61
226.375	31.74
226.592	-17.41
226.81	-1.02
227.028	105.47
227.246	93.18
227.464	72.7
227.682	44.03
227.9	52.22
228.117	15.36
228.335	29.7
228.553	72.7
228.771	9.22
228.989	64.51
229.206	44.03
229.424	29.7
229.642	-19.46
229.86	-19.46
230.077	91.13
230.295	48.13
230.513	80.89
230.731	-23.55
230.948	7.17
231.166	87.04
231.384	13.31
231.601	7.17
231.819	25.6
232.037	9.22
232.254	9.22
232.472	21.5
232.689	3.07
232.907	80.89
233.125	44.03
233.342	-9.22
233.56	-1.02
233.777	97.28
233.995	44.03
234.213	41.98
234.43	23.55
234.648	11.26
234.865	25.6
235.083	84.99
235.3	70.65
235.518	56.32
235.735	80.89
235.953	41.98
236.17	115.71
236.388	-23.55
236.605	19.46
236.822	74.75
237.04	60.42
237.257	27.65
237.475	-64.51
237.692	17.41
237.909	-5.12
238.127	-7.17
238.344	17.41
238.562	17.41
238.779	46.08
238.996	56.32
239.214	46.08
239.431	105.47
239.648	-27.65
239.865	17.41
240.083	19.46
240.3	1.02
240.517	-46.08
240.735	66.56
240.952	-13.31
241.169	84.99
241.386	17.41
241.603	-9.22
241.821	-25.6
242.038	78.85
242.255	84.99
242.472	-15.36
242.689	60.42
242.907	-17.41
243.124	11.26
243.341	23.55
243.558	-7.17
243.775	41.98
243.992	-70.65
244.209	19.46
244.426	95.23
244.643	119.81
244.86	23.55
245.078	74.75
245.295	11.26
245.512	70.65
245.729	48.13
245.946	33.79
246.163	-60.42
246.38	64.51
246.597	39.94
246.814	37.89
247.031	56.32
247.248	60.42
247.464	-15.36
247.681	27.65
247.898	15.36
248.115	58.37
248.332	46.08
248.549	-17.41
248.766	23.55
248.983	56.32
249.2	29.7
249.417	31.74
249.633	29.7
249.85	17.41
250.067	25.6
250.284	78.85
250.501	-23.55
250.717	68.61
250.934	-35.84
251.151	-48.13
251.368	-7.17
251.585	1.02
251.801	-3.07
252.018	11.26
252.235	60.42
252.451	44.03
252.668	56.32
252.885	15.36
253.102	9.22
253.318	31.74
253.535	74.75
253.752	-13.31
253.968	-54.27
254.185	-17.41
254.401	-11.26
254.618	-13.31
254.835	128
255.051	76.8
255.268	-15.36
255.484	-3.07
255.701	-9.22
255.917	13.31
256.134	13.31
256.351	37.89
256.567	39.94
256.784	3.07
257	-15.36
257.217	78.85
257.433	23.55
257.65	35.84
257.866	99.33
258.082	117.76
258.299	66.56
258.515	-29.7
258.732	-1.02
258.948	-5.12
259.165	66.56
259.381	9.22
259.597	17.41
259.814	-1.02
260.03	-5.12
260.246	-17.41
260.463	17.41
260.679	19.46
260.895	-21.5
261.112	5.12
261.328	11.26
261.544	39.94
261.761	97.28
261.977	31.74
262.193	-11.26
262.409	29.7
262.626	13.31
262.842	39.94
263.058	3.07
263.274	-3.07
263.49	35.84
263.707	27.65
263.923	3.07
264.139	46.08
264.355	-11.26
264.571	19.46
264.787	5.12
265.004	25.6
265.22	-3.07
265.436	54.27
265.652	17.41
265.868	9.22
266.084	-52.22
266.3	74.75
266.516	27.65
266.732	13.31
266.948	44.03
267.164	5.12
267.38	-19.46
267.596	54.27
267.812	33.79
268.028	31.74
268.244	-15.36
268.46	76.8
268.676	5.12
268.892	46.08
269.108	13.31
269.324	-27.65
269.54	70.65
269.756	13.31
269.972	-80.89
270.188	-1.02
270.403	-35.84
270.619	-64.51
270.835	11.26
271.051	64.51
271.267	-27.65
271.483	78.85
271.698	78.85
271.914	44.03
272.13	21.5
272.346	-23.55
272.562	-33.79
272.777	76.8
272.993	39.94
273.209	101.37
273.425	62.46
273.64	87.04
273.856	97.28
274.072	-9.22
274.287	-3.07
274.503	25.6
274.719	-9.22
274.934	44.03
275.15	93.18
275.366	48.13
275.581	13.31
275.797	-1.02
276.012	-3.07
276.228	29.7
276.444	23.55
276.659	44.03
276.875	19.46
277.09	48.13
277.306	9.22
277.521	11.26
277.737	-19.46
277.952	66.56
278.168	5.12
278.383	33.79
278.599	-9.22
278.814	-23.55
279.03	97.28
279.245	66.56
279.461	7.17
279.676	105.47
279.892	5.12
280.107	21.5
280.322	15.36
280.538	-107.52
280.753	9.22
280.969	9.22
281.184	74.75
281.399	44.03
281.615	-58.37
281.83	56.32
282.045	23.55
282.26	-21.5
282.476	-60.42
282.691	33.79
282.906	17.41
283.122	23.55
283.337	58.37
283.552	64.51
283.767	-80.89
283.983	31.74
284.198	25.6
284.413	27.65
284.628	74.75
284.843	1.02
285.058	54.27
285.274	93.18
285.489	31.74
285.704	17.41
285.919	-46.08
286.134	-46.08
286.349	101.37
286.564	-5.12
286.779	48.13
286.995	62.46
287.21	-41.98
287.425	37.89
287.64	27.65
287.855	66.56
288.07	-15.36
288.285	33.79
288.5	70.65
288.715	64.51
288.93	-5.12
289.145	21.5
289.36	-5.12
289.575	89.09
289.79	-74.75
290.004	41.98
290.219	54.27
290.434	-1.02
290.649	-7.17
290.864	21.5
291.079	68.61
291.294	52.22
291.509	44.03
291.724	93.18
291.938	25.6
292.153	-9.22
292.368	11.26
292.583	121.85
292.798	7.17
293.012	39.94
293.227	48.13
293.442	25.6
293.657	46.08
293.871	-39.94
294.086	7.17
294.301	-3.07
294.516	31.74
294.73	46.08
294.945	-56.32
295.16	3.07
295.374	39.94
295.589	25.6
295.804	76.8
296.018	-15.36
296.233	82.94
296.447	33.79
296.662	44.03
296.877	70.65
297.091	68.61
297.306	-13.31
297.52	-13.31
297.735	84.99
297.949	-21.5
298.164	44.03
298.378	-46.08
298.593	-3.07
298.807	44.03
299.022	87.04
299.236	29.7
299.451	52.22
299.665	-3.07
299.88	-23.55
300.094	-23.55
300.309	50.18
300.523	-3.07
300.737	-1.02
300.952	87.04
301.166	48.13
301.381	-19.46
301.595	54.27
301.809	37.89
302.024	119.81
302.238	-11.26
302.452	-5.12
302.667	11.26
302.881	-7.17
303.095	44.03
303.309	101.37
303.524	-9.22
303.738	-29.7
303.952	-1.02
304.166	3.07
304.381	-31.74
304.595	29.7
304.809	44.03
305.023	68.61
305.237	9.22
305.452	35.84
305.666	23.55
305.88	25.6
306.094	21.5
306.308	33.79
306.522	56.32
306.736	41.98
306.95	35.84
307.164	46.08
307.379	64.51
307.593	50.18
307.807	52.22
308.021	3.07
308.235	76.8
308.449	78.85
308.663	35.84
308.877	97.28
309.091	-11.26
309.305	35.84
309.519	-3.07
309.733	27.65
309.947	54.27
310.161	7.17
310.374	-37.89
310.588	52.22
310.802	17.41
311.016	-25.6
311.23	39.94
311.444	74.75
311.658	1.02
311.872	23.55
312.085	64.51
312.299	54.27
312.513	37.89
312.727	46.08
312.941	7.17
313.154	15.36
313.368	-41.98
313.582	37.89
313.796	58.37
314.009	-11.26
314.223	7.17
314.437	82.94
314.651	41.98
314.864	66.56
315.078	58.37
315.292	31.74
315.505	1.02
315.719	35.84
315.933	82.94
316.146	80.89
316.36	3.07
316.573	31.74
316.787	66.56
317.001	39.94
317.214	-29.7
317.428	74.75
317.641	-19.46
317.855	21.5
318.068	50.18
318.282	9.22
318.495	134.14
318.709	93.18
318.922	35.84
319.136	68.61
319.349	87.04
319.563	-29.7
319.776	21.5
319.99	27.65
320.203	3.07
320.417	-1.02
320.63	44.03
320.843	56.32
321.057	31.74
321.27	78.85
321.483	-3.07
321.697	44.03
321.91	41.98
322.124	7.17
322.337	56.32
322.55	-3.07
322.763	-19.46
322.977	37.89
323.19	9.22
323.403	41.98
323.617	50.18
323.83	37.89
324.043	48.13
324.256	19.46
324.469	35.84
324.683	17.41
324.896	87.04
325.109	39.94
325.322	-17.41
325.535	44.03
325.748	17.41
325.962	31.74
326.175	25.6
326.388	29.7
326.601	23.55
326.814	-1.02
327.027	72.7
327.24	99.33
327.453	-17.41
327.666	29.7
327.879	58.37
328.092	89.09
328.305	-29.7
328.518	35.84
328.731	21.5
328.944	23.55
329.157	-37.89
329.37	15.36
329.583	84.99
329.796	-9.22
330.009	9.22
330.222	56.32
330.435	27.65
330.648	19.46
330.861	-25.6
331.073	27.65
331.286	-7.17
331.499	37.89
331.712	-25.6
331.925	68.61
332.138	23.55
332.35	76.8
332.563	31.74
332.776	48.13
332.989	13.31
333.202	29.7
333.414	82.94
333.627	93.18
333.84	33.79
334.053	9.22
334.265	103.42
334.478	3.07
334.691	17.41
334.903	48.13
335.116	41.98
335.329	93.18
335.541	46.08
335.754	37.89
335.966	44.03
336.179	35.84
336.392	56.32
336.604	44.03
336.817	-19.46
337.029	58.37
337.242	72.7
337.454	-23.55
337.667	-33.79
337.88	44.03
338.092	-82.94
338.305	29.7
338.517	19.46
338.729	21.5
338.942	-1.02
339.154	-1.02
339.367	29.7
339.579	27.65
339.792	50.18
340.004	-33.79
340.217	-17.41
340.429	46.08
340.641	52.22
340.854	93.18
341.066	19.46
341.278	31.74
341.491	35.84
341.703	7.17
341.915	58.37
342.128	107.52
342.34	82.94
342.552	15.36
342.764	48.13
342.977	44.03
343.189	27.65
343.401	1.02
343.613	21.5
343.826	5.12
344.038	50.18
344.25	17.41
344.462	-11.26
344.674	44.03
344.886	52.22
345.099	9.22
345.311	23.55
345.523	31.74
345.735	-70.65
345.947	64.51
346.159	123.9
346.371	37.89
346.583	19.46
346.795	5.12
347.007	27.65
347.219	-1.02
347.431	-41.98
347.643	58.37
347.855	-5.12
348.067	70.65
348.279	-21.5
348.491	48.13
348.703	1.02
348.915	44.03
349.127	89.09
349.339	60.42
349.551	-21.5
349.763	37.89
349.975	48.13
350.187	52.22
350.399	33.79
350.61	17.41
350.822	5.12
351.034	89.09
351.246	31.74
351.458	64.51
351.669	52.22
351.881	54.27
352.093	115.71
352.305	113.66
352.517	93.18
352.728	11.26
352.94	7.17
353.152	60.42
353.363	3.07
353.575	72.7
353.787	56.32
353.999	97.28
354.21	74.75
354.422	-27.65
354.633	-5.12
354.845	66.56
355.057	125.95
355.268	37.89
355.48	29.7
355.692	60.42
355.903	11.26
356.115	-46.08
356.326	-52.22
356.538	97.28
356.749	101.37
356.961	33.79
357.172	58.37
357.384	37.89
357.595	76.8
357.807	37.89
358.018	-11.26
358.23	25.6
358.441	-7.17
358.653	54.27
358.864	48.13
359.075	31.74
359.287	15.36
359.498	62.46
359.709	68.61
359.921	25.6
360.132	72.7
360.344	-3.07
360.555	74.75
360.766	78.85
360.977	41.98
361.189	50.18
361.4	54.27
361.611	3.07
361.823	103.42
362.034	66.56
362.245	27.65
362.456	56.32
362.667	9.22
362.879	1.02
363.09	5.12
363.301	-31.74
363.512	33.79
363.723	-11.26
363.935	-54.27
364.146	70.65
364.357	41.98
364.568	60.42
364.779	13.31
364.99	70.65
365.201	1.02
365.412	84.99
365.623	7.17
365.834	27.65
366.045	27.65
366.256	68.61
366.467	35.84
366.678	35.84
366.889	-9.22
367.1	56.32
367.311	46.08
367.522	54.27
367.733	29.7
367.944	84.99
368.155	-1.02
368.366	21.5
368.577	58.37
368.788	142.33
368.999	46.08
369.209	13.31
369.42	64.51
369.631	64.51
369.842	74.75
370.053	-17.41
370.264	-15.36
370.474	121.85
370.685	37.89
370.896	52.22
371.107	115.71
371.317	80.89
371.528	41.98
371.739	31.74
371.95	39.94
372.16	62.46
372.371	82.94
372.582	54.27
372.792	72.7
373.003	64.51
373.214	76.8
373.424	33.79
373.635	52.22
373.846	128
374.056	31.74
374.267	80.89
374.477	23.55
374.688	-17.41
374.898	41.98
375.109	54.27
375.319	89.09
375.53	35.84
375.74	5.12
375.951	99.33
376.161	113.66
376.372	74.75
376.582	64.51
376.793	46.08
377.003	-1.02
377.214	7.17
377.424	54.27
377.635	60.42
377.845	-17.41
378.055	70.65
378.266	113.66
378.476	97.28
378.686	58.37
378.897	48.13
379.107	-5.12
379.317	82.94
379.528	84.99
379.738	62.46
379.948	64.51
380.158	-19.46
380.369	101.37
380.579	101.37
380.789	84.99
380.999	35.84
381.21	52.22
381.42	78.85
381.63	29.7
381.84	93.18
382.05	39.94
382.261	35.84
382.471	19.46
382.681	64.51
382.891	134.14
383.101	48.13
383.311	103.42
383.521	-21.5
383.731	66.56
383.941	46.08
384.151	-25.6
384.361	82.94
384.571	39.94
384.781	39.94
384.991	41.98
385.201	109.57
385.411	66.56
385.621	15.36
385.831	-9.22
386.041	80.89
386.251	117.76
386.461	109.57
386.671	78.85
386.881	31.74
387.091	39.94
387.301	91.13
387.511	54.27
387.72	99.33
387.93	84.99
388.14	15.36
388.35	74.75
388.56	87.04
388.769	66.56
388.979	50.18
389.189	54.27
389.399	23.55
389.609	39.94
389.818	156.67
390.028	-17.41
390.238	54.27
390.447	41.98
390.657	25.6
390.867	29.7
391.076	52.22
391.286	46.08
391.496	107.52
391.705	9.22
391.915	56.32
392.125	39.94
392.334	58.37
392.544	64.51
392.753	19.46
392.963	23.55
393.172	33.79
393.382	44.03
393.591	136.19
393.801	44.03
394.01	109.57
394.22	9.22
394.429	113.66
394.639	54.27
394.848	76.8
395.058	82.94
395.267	64.51
395.477	148.48
395.686	140.29
395.895	87.04
396.105	121.85
396.314	93.18
396.524	52.22
396.733	58.37
396.942	46.08
397.152	70.65
397.361	113.66
397.57	91.13
397.78	115.71
397.989	95.23
398.198	109.57
398.407	66.56
398.617	91.13
398.826	91.13
399.035	68.61
399.244	80.89
399.453	62.46
399.663	72.7
399.872	80.89
400.081	87.04
400.29	44.03
400.499	99.33
400.708	132.09
400.917	35.84
401.127	70.65
401.336	84.99
401.545	82.94
401.754	156.67
401.963	128
402.172	93.18
402.381	35.84
402.59	140.29
402.799	80.89
403.008	97.28
403.217	113.66
403.426	107.52
403.635	119.81
403.844	113.66
404.053	140.29
404.262	171.01
404.471	189.44
404.68	107.52
404.888	113.66
405.097	160.77
405.306	164.86
405.515	181.25
405.724	80.89
405.933	171.01
406.142	183.29
406.35	158.72
406.559	109.57
406.768	166.91
406.977	218.11
407.185	166.91
407.394	207.87
407.603	183.29
407.812	93.18
408.02	187.39
408.229	236.54
408.438	207.87
408.646	152.57
408.855	197.63
409.064	183.29
409.272	232.44
409.481	250.88
409.69	195.58
409.898	199.68
410.107	304.12
410.315	295.93
410.524	226.3
410.733	336.89
410.941	281.6
411.15	386.04
411.358	269.31
411.567	330.75
411.775	318.46
411.984	359.42
412.192	377.85
412.401	410.62
412.609	418.81
412.818	437.24
413.026	525.3
413.234	545.78
413.443	420.86
413.651	433.15
413.86	521.21
414.068	527.35
414.276	510.97
414.485	533.5
414.693	560.12
414.901	648.18
415.11	611.32
415.318	728.05
415.526	621.56
415.734	607.22
415.943	723.96
416.151	736.24
416.359	744.44
416.567	875.51
416.776	805.88
416.984	842.74
417.192	932.85
417.4	902.13
417.608	936.95
417.817	951.28
418.025	973.81
418.233	1000.43
418.441	1047.54
418.649	1094.64
418.857	1188.85
419.065	1217.52
419.273	1182.7
419.481	1201.13
419.689	1326.06
419.897	1518.57
420.105	1371.12
420.313	1405.93
420.521	1475.56
420.729	1526.76
420.937	1614.82
421.145	1674.21
421.353	1729.51
421.561	1643.49
421.769	1756.13
421.977	1821.67
422.185	1862.63
422.393	1876.96
422.601	2030.56
422.809	1989.6
423.017	2157.54
423.224	2188.25
423.432	2184.16
423.64	2288.61
423.848	2452.44
424.056	2479.07
424.263	2651.1
424.471	2497.5
424.679	2661.34
424.887	2843.6
425.094	2948.05
425.302	2794.45
425.51	3036.11
425.718	3124.18
425.925	3152.85
426.133	3363.79
426.341	3560.39
426.548	3376.08
426.756	3621.83
426.964	3634.12
427.171	3894.21
427.379	3953.6
427.586	3955.65
427.794	4123.59
428.001	4332.48
428.209	4561.85
428.417	4479.93
428.624	4617.15
428.832	4770.74
429.039	4705.21
429.247	4742.07
429.454	5301.17
429.662	5491.63
429.869	5233.58
430.076	5520.3
430.284	5370.8
430.491	5540.78
430.699	5987.24
430.906	6052.77
431.114	6046.63
431.321	6335.39
431.528	6429.6
431.736	6720.41
431.943	7056.28
432.15	6904.73
432.358	6970.26
432.565	7431.05
432.772	7291.79
432.979	7658.38
433.187	7920.52
433.394	7758.73
433.601	8371.07
433.808	8266.63
434.016	8418.18
434.223	8719.23
434.43	9300.85
434.637	9116.53
434.844	9663.34
435.052	9718.64
435.259	9784.17
435.466	9843.56
435.673	9786.22
435.88	10543.97
436.087	11053.91
436.294	10978.14
436.501	10632.03
436.708	11037.53
436.915	11275.09
437.122	12026.7
437.329	11752.27
437.537	12262.21
437.743	12350.28
437.95	12303.17
438.157	12987.19
438.364	13306.68
438.571	13198.13
438.778	13507.38
438.985	14809.89
439.192	14150.44
439.399	14322.47
439.606	14168.87
439.813	15115.03
440.02	15766.29
440.227	15719.18
440.433	15381.27
440.64	15825.68
440.847	15868.69
441.054	16302.86
441.261	17429.24
441.467	17122.04
441.674	17732.34
441.881	18252.52
442.088	18236.14
442.294	17787.63
442.501	18289.38
442.708	18862.82
442.914	19706.58
443.121	20564.68
443.328	19749.59
443.534	21461.69
443.741	20671.17
443.948	20329.16
444.154	21799.6
444.361	21865.14
444.568	21684.92
444.774	22065.84
444.981	22375.08
445.187	22807.2
445.394	23753.37
445.6	23429.79
445.807	25563.77
446.013	24732.29
446.22	24789.64
446.426	26008.18
446.633	26270.32
446.839	27495
447.046	26133.11
447.252	27282.02
447.459	27495
447.665	27476.57
447.871	28514.89
448.078	29573.69
448.284	28371.54
448.491	29104.71
448.697	30388.78
448.903	30497.33
449.11	30880.3
449.316	30392.88
449.522	30497.33
449.728	31341.09
449.935	31967.77
450.141	31838.75
450.347	32133.65
450.553	31549.98
450.76	31935
450.966	32625.17
451.172	32522.77
451.378	33513.98
451.584	32424.47
451.791	33282.56
451.997	32938.51
452.203	33630.72
452.409	33335.81
452.615	33509.89
452.821	32166.42
453.027	31838.75
453.233	33450.5
453.44	32094.74
453.646	32315.92
453.852	32514.58
454.058	32903.69
454.264	31707.68
454.47	32471.57
454.676	31664.67
454.882	32598.54
455.088	29747.77
455.294	30255.67
455.5	30399.02
455.705	31169.06
455.911	29704.76
456.117	29237.83
456.323	28635.72
456.529	27009.64
456.735	28148.31
456.941	27370.08
457.147	27046.5
457.352	26215.02
457.558	25866.87
457.764	25916.02
457.97	25399.93
458.176	24824.45
458.381	24609.42
458.587	23556.76
458.793	23415.45
458.999	22391.47
459.204	23736.98
459.41	23141.02
459.616	21611.19
459.821	22114.99
460.027	21658.29
460.233	20990.66
460.438	20157.13
460.644	20257.48
460.85	19538.65
461.055	19172.06
461.261	19045.09
461.466	17693.43
461.672	17054.46
461.878	18371.3
462.083	17136.38
462.289	16589.57
462.494	16460.55
462.7	15958.8
462.905	15573.78
463.111	15870.73
463.316	16079.63
463.522	15624.98
463.727	15747.86
463.932	15536.91
464.138	15768.34
464.343	15485.72
464.549	15285.01
464.754	15661.84
464.959	15790.86
465.165	15379.22
465.37	14691.1
465.575	14693.15
465.781	15037.21
465.986	15022.87
466.191	14355.24
466.397	14236.45
466.602	13499.19
466.807	14117.67
467.012	14060.33
467.218	14123.82
467.423	13857.58
467.628	13957.93
467.833	14598.95
468.038	14023.47
