Data from USB4F104151__41__11-05-27-669.txt Node

Date: Wed Mar 12 11:05:27 EDT 2025
User: louis
Spectrometer: USB4F10415
Trigger mode: 4
Integration Time (sec): 2.000000E-2
Scans to average: 1
Electric dark correction enabled: true
Nonlinearity correction enabled: false
Boxcar width: 0
XAxis mode: Wavelengths
Number of Pixels in Spectrum: 3648
>>>>>Begin Spectral Data<<<<<
178.204	-56.49
178.424	-56.49
178.644	-56.49
178.864	-27.82
179.084	-36.01
179.304	-29.87
179.524	-1.19
179.744	-15.53
179.964	-19.63
180.184	23.38
180.404	-9.39
180.624	25.43
180.844	-11.43
181.064	-48.3
181.283	56.15
181.503	2.9
181.723	27.48
181.943	-54.44
182.163	68.44
182.383	11.09
182.602	90.96
182.822	60.24
183.042	-25.77
183.262	-11.43
183.482	-48.3
183.701	39.76
183.921	54.1
184.141	-36.01
184.361	29.52
184.58	74.58
184.8	-19.63
185.02	-13.48
185.239	37.72
185.459	-40.11
185.679	101.2
185.898	21.33
186.118	7
186.338	15.19
186.557	50
186.777	15.19
186.997	37.72
187.216	7
187.436	21.33
187.655	-11.43
187.875	41.81
188.095	4.95
188.314	17.24
188.534	33.62
188.753	62.29
188.973	52.05
189.192	31.57
189.412	70.48
189.631	15.19
189.851	-36.01
190.07	45.91
190.29	11.09
190.509	11.09
190.729	90.96
190.948	41.81
191.168	82.77
191.387	50
191.607	4.95
191.826	90.96
192.045	-1.19
192.265	-46.25
192.484	50
192.704	113.49
192.923	-1.19
193.142	35.67
193.362	45.91
193.581	47.96
193.8	19.29
194.02	74.58
194.239	58.2
194.458	37.72
194.678	-13.48
194.897	-7.34
195.116	19.29
195.335	19.29
195.555	-29.87
195.774	-27.82
195.993	33.62
196.212	13.14
196.432	-29.87
196.651	84.82
196.87	31.57
197.089	31.57
197.308	-7.34
197.528	56.15
197.747	-27.82
197.966	-9.39
198.185	-25.77
198.404	9.05
198.623	-3.24
198.842	78.68
199.062	95.06
199.281	64.34
199.5	21.33
199.719	21.33
199.938	33.62
200.157	-9.39
200.376	76.63
200.595	31.57
200.814	27.48
201.033	-60.59
201.252	-17.58
201.471	66.39
201.69	-1.19
201.909	52.05
202.128	-42.15
202.347	45.91
202.566	-23.72
202.785	50
203.004	7
203.223	39.76
203.442	-11.43
203.661	43.86
203.879	37.72
204.098	2.9
204.317	11.09
204.536	115.54
204.755	56.15
204.974	9.05
205.193	-19.63
205.411	68.44
205.63	84.82
205.849	82.77
206.068	9.05
206.287	29.52
206.505	66.39
206.724	7
206.943	-1.19
207.162	50
207.381	54.1
207.599	84.82
207.818	-19.63
208.037	31.57
208.255	-5.29
208.474	90.96
208.693	4.95
208.911	119.64
209.13	66.39
209.349	13.14
209.567	62.29
209.786	58.2
210.005	7
210.223	31.57
210.442	-33.96
210.661	17.24
210.879	90.96
211.098	50
211.316	88.92
211.535	72.53
211.753	39.76
211.972	13.14
212.191	19.29
212.409	-72.87
212.628	29.52
212.846	25.43
213.065	84.82
213.283	74.58
213.502	35.67
213.72	41.81
213.938	72.53
214.157	86.87
214.375	-3.24
214.594	9.05
214.812	11.09
215.031	43.86
215.249	27.48
215.467	41.81
215.686	47.96
215.904	19.29
216.122	-27.82
216.341	60.24
216.559	7
216.778	-1.19
216.996	19.29
217.214	27.48
217.432	15.19
217.651	33.62
217.869	47.96
218.087	7
218.306	45.91
218.524	93.01
218.742	21.33
218.96	41.81
219.179	-50.35
219.397	74.58
219.615	7
219.833	19.29
220.051	25.43
220.27	37.72
220.488	15.19
220.706	43.86
220.924	35.67
221.142	25.43
221.36	4.95
221.578	58.2
221.796	60.24
222.015	29.52
222.233	66.39
222.451	29.52
222.669	-13.48
222.887	15.19
223.105	-7.34
223.323	29.52
223.541	43.86
223.759	52.05
223.977	11.09
224.195	41.81
224.413	62.29
224.631	113.49
224.849	-36.01
225.067	58.2
225.285	-56.49
225.503	43.86
225.721	47.96
225.939	80.72
226.157	19.29
226.375	58.2
226.592	-7.34
226.81	-27.82
227.028	62.29
227.246	88.92
227.464	27.48
227.682	72.53
227.9	4.95
228.117	39.76
228.335	15.19
228.553	23.38
228.771	29.52
228.989	76.63
229.206	47.96
229.424	82.77
229.642	74.58
229.86	-1.19
230.077	37.72
230.295	90.96
230.513	27.48
230.731	35.67
230.948	82.77
231.166	13.14
231.384	15.19
231.601	2.9
231.819	23.38
232.037	-33.96
232.254	-21.67
232.472	17.24
232.689	7
232.907	45.91
233.125	11.09
233.342	37.72
233.56	17.24
233.777	7
233.995	23.38
234.213	17.24
234.43	29.52
234.648	52.05
234.865	62.29
235.083	45.91
235.3	33.62
235.518	27.48
235.735	74.58
235.953	47.96
236.17	-27.82
236.388	41.81
236.605	-33.96
236.822	60.24
237.04	41.81
237.257	-3.24
237.475	17.24
237.692	37.72
237.909	62.29
238.127	27.48
238.344	7
238.562	17.24
238.779	-76.97
238.996	45.91
239.214	90.96
239.431	13.14
239.648	56.15
239.865	54.1
240.083	23.38
240.3	123.73
240.517	-46.25
240.735	101.2
240.952	-19.63
241.169	109.4
241.386	39.76
241.603	29.52
241.821	-3.24
242.038	60.24
242.255	45.91
242.472	39.76
242.689	-27.82
242.907	60.24
243.124	78.68
243.341	17.24
243.558	-9.39
243.775	41.81
243.992	45.91
244.209	7
244.426	60.24
244.643	35.67
244.86	11.09
245.078	27.48
245.295	11.09
245.512	76.63
245.729	50
245.946	17.24
246.163	84.82
246.38	25.43
246.597	-17.58
246.814	-40.11
247.031	45.91
247.248	86.87
247.464	4.95
247.681	54.1
247.898	47.96
248.115	33.62
248.332	47.96
248.549	7
248.766	-7.34
248.983	9.05
249.2	68.44
249.417	33.62
249.633	4.95
249.85	80.72
250.067	-25.77
250.284	-25.77
250.501	33.62
250.717	43.86
250.934	52.05
251.151	0.85
251.368	23.38
251.585	56.15
251.801	25.43
252.018	60.24
252.235	29.52
252.451	21.33
252.668	-13.48
252.885	21.33
253.102	50
253.318	-42.15
253.535	31.57
253.752	2.9
253.968	-23.72
254.185	2.9
254.401	13.14
254.618	19.29
254.835	70.48
255.051	31.57
255.268	-27.82
255.484	29.52
255.701	56.15
255.917	52.05
256.134	13.14
256.351	123.73
256.567	66.39
256.784	-36.01
257	45.91
257.217	17.24
257.433	15.19
257.65	11.09
257.866	35.67
258.082	88.92
258.299	60.24
258.515	17.24
258.732	2.9
258.948	4.95
259.165	50
259.381	35.67
259.597	50
259.814	68.44
260.03	19.29
260.246	45.91
260.463	-13.48
260.679	113.49
260.895	13.14
261.112	23.38
261.328	56.15
261.544	41.81
261.761	121.68
261.977	29.52
262.193	50
262.409	107.35
262.626	19.29
262.842	45.91
263.058	-40.11
263.274	13.14
263.49	54.1
263.707	78.68
263.923	47.96
264.139	80.72
264.355	-54.44
264.571	70.48
264.787	88.92
265.004	60.24
265.22	41.81
265.436	64.34
265.652	-11.43
265.868	45.91
266.084	35.67
266.3	41.81
266.516	7
266.732	45.91
266.948	21.33
267.164	2.9
267.38	68.44
267.596	76.63
267.812	33.62
268.028	78.68
268.244	-3.24
268.46	52.05
268.676	27.48
268.892	35.67
269.108	29.52
269.324	23.38
269.54	37.72
269.756	-48.3
269.972	-23.72
270.188	50
270.403	62.29
270.619	-27.82
270.835	43.86
271.051	21.33
271.267	37.72
271.483	66.39
271.698	-5.29
271.914	7
272.13	39.76
272.346	39.76
272.562	41.81
272.777	45.91
272.993	-7.34
273.209	58.2
273.425	17.24
273.64	0.85
273.856	15.19
274.072	-1.19
274.287	2.9
274.503	97.11
274.719	82.77
274.934	41.81
275.15	35.67
275.366	17.24
275.581	35.67
275.797	19.29
276.012	-38.06
276.228	60.24
276.444	17.24
276.659	74.58
276.875	31.57
277.09	84.82
277.306	52.05
277.521	54.1
277.737	35.67
277.952	78.68
278.168	70.48
278.383	72.53
278.599	25.43
278.814	56.15
279.03	17.24
279.245	58.2
279.461	-11.43
279.676	31.57
279.892	2.9
280.107	43.86
280.322	-62.63
280.538	50
280.753	-7.34
280.969	45.91
281.184	76.63
281.399	13.14
281.615	70.48
281.83	-23.72
282.045	109.4
282.26	13.14
282.476	29.52
282.691	43.86
282.906	33.62
283.122	123.73
283.337	-17.58
283.552	31.57
283.767	60.24
283.983	41.81
284.198	39.76
284.413	31.57
284.628	25.43
284.843	25.43
285.058	80.72
285.274	45.91
285.489	7
285.704	39.76
285.919	78.68
286.134	-3.24
286.349	88.92
286.564	7
286.779	84.82
286.995	99.16
287.21	0.85
287.425	99.16
287.64	72.53
287.855	82.77
288.07	45.91
288.285	29.52
288.5	90.96
288.715	45.91
288.93	45.91
289.145	82.77
289.36	66.39
289.575	13.14
289.79	-11.43
290.004	-11.43
290.219	45.91
290.434	21.33
290.649	80.72
290.864	-1.19
291.079	11.09
291.294	70.48
291.509	2.9
291.724	58.2
291.938	43.86
292.153	0.85
292.368	52.05
292.583	33.62
292.798	45.91
293.012	37.72
293.227	97.11
293.442	70.48
293.657	56.15
293.871	125.78
294.086	35.67
294.301	50
294.516	93.01
294.73	90.96
294.945	7
295.16	95.06
295.374	125.78
295.589	84.82
295.804	45.91
296.018	2.9
296.233	47.96
296.447	72.53
296.662	4.95
296.877	21.33
297.091	15.19
297.306	123.73
297.52	29.52
297.735	29.52
297.949	19.29
298.164	9.05
298.378	2.9
298.593	78.68
298.807	70.48
299.022	43.86
299.236	50
299.451	62.29
299.665	-9.39
299.88	52.05
300.094	76.63
300.309	74.58
300.523	31.57
300.737	78.68
300.952	45.91
301.166	52.05
301.381	52.05
301.595	-40.11
301.809	-15.53
302.024	56.15
302.238	29.52
302.452	84.82
302.667	78.68
302.881	0.85
303.095	-7.34
303.309	41.81
303.524	68.44
303.738	-3.24
303.952	-15.53
304.166	52.05
304.381	-31.91
304.595	123.73
304.809	23.38
305.023	80.72
305.237	52.05
305.452	-29.87
305.666	60.24
305.88	21.33
306.094	0.85
306.308	43.86
306.522	62.29
306.736	70.48
306.95	-36.01
307.164	43.86
307.379	45.91
307.593	54.1
307.807	82.77
308.021	68.44
308.235	103.25
308.449	-7.34
308.663	-21.67
308.877	54.1
309.091	72.53
309.305	27.48
309.519	86.87
309.733	27.48
309.947	2.9
310.161	74.58
310.374	78.68
310.588	70.48
310.802	-3.24
311.016	9.05
311.23	4.95
311.444	9.05
311.658	41.81
311.872	123.73
312.085	56.15
312.299	88.92
312.513	27.48
312.727	2.9
312.941	56.15
313.154	19.29
313.368	68.44
313.582	41.81
313.796	-5.29
314.009	19.29
314.223	52.05
314.437	-13.48
314.651	17.24
314.864	-27.82
315.078	111.44
315.292	29.52
315.505	39.76
315.719	88.92
315.933	54.1
316.146	54.1
316.36	-52.39
316.573	68.44
316.787	41.81
317.001	90.96
317.214	43.86
317.428	74.58
317.641	39.76
317.855	-5.29
318.068	72.53
318.282	-9.39
318.495	68.44
318.709	68.44
318.922	19.29
319.136	76.63
319.349	76.63
319.563	27.48
319.776	17.24
319.99	17.24
320.203	64.34
320.417	15.19
320.63	39.76
320.843	43.86
321.057	41.81
321.27	-9.39
321.483	9.05
321.697	95.06
321.91	66.39
322.124	68.44
322.337	97.11
322.55	78.68
322.763	64.34
322.977	113.49
323.19	-48.3
323.403	97.11
323.617	-33.96
323.83	82.77
324.043	74.58
324.256	50
324.469	80.72
324.683	31.57
324.896	62.29
325.109	27.48
325.322	31.57
325.535	-9.39
325.748	33.62
325.962	17.24
326.175	27.48
326.388	19.29
326.601	41.81
326.814	23.38
327.027	97.11
327.24	144.21
327.453	-3.24
327.666	29.52
327.879	82.77
328.092	74.58
328.305	23.38
328.518	-3.24
328.731	19.29
328.944	80.72
329.157	93.01
329.37	45.91
329.583	123.73
329.796	2.9
330.009	-7.34
330.222	90.96
330.435	70.48
330.648	121.68
330.861	-19.63
331.073	113.49
331.286	31.57
331.499	105.3
331.712	9.05
331.925	25.43
332.138	41.81
332.35	111.44
332.563	13.14
332.776	84.82
332.989	62.29
333.202	41.81
333.414	39.76
333.627	33.62
333.84	62.29
334.053	78.68
334.265	37.72
334.478	60.24
334.691	58.2
334.903	-3.24
335.116	-7.34
335.329	58.2
335.541	54.1
335.754	97.11
335.966	4.95
336.179	39.76
336.392	-38.06
336.604	27.48
336.817	72.53
337.029	29.52
337.242	56.15
337.454	33.62
337.667	90.96
337.88	64.34
338.092	29.52
338.305	13.14
338.517	2.9
338.729	-27.82
338.942	146.26
339.154	64.34
339.367	11.09
339.579	-48.3
339.792	17.24
340.004	86.87
340.217	47.96
340.429	103.25
340.641	119.64
340.854	25.43
341.066	33.62
341.278	90.96
341.491	4.95
341.703	74.58
341.915	66.39
342.128	41.81
342.34	27.48
342.552	0.85
342.764	90.96
342.977	66.39
343.189	43.86
343.401	35.67
343.613	-15.53
343.826	29.52
344.038	-40.11
344.25	50
344.462	27.48
344.674	97.11
344.886	27.48
345.099	-17.58
345.311	60.24
345.523	84.82
345.735	47.96
345.947	80.72
346.159	72.53
346.371	45.91
346.583	86.87
346.795	76.63
347.007	17.24
347.219	54.1
347.431	90.96
347.643	45.91
347.855	19.29
348.067	-19.63
348.279	19.29
348.491	-7.34
348.703	4.95
348.915	119.64
349.127	-11.43
349.339	52.05
349.551	9.05
349.763	58.2
349.975	-27.82
350.187	31.57
350.399	60.24
350.61	54.1
350.822	21.33
351.034	54.1
351.246	84.82
351.458	35.67
351.669	90.96
351.881	72.53
352.093	-31.91
352.305	2.9
352.517	19.29
352.728	-21.67
352.94	45.91
353.152	68.44
353.363	43.86
353.575	93.01
353.787	74.58
353.999	66.39
354.21	58.2
354.422	27.48
354.633	19.29
354.845	82.77
355.057	50
355.268	80.72
355.48	95.06
355.692	113.49
355.903	93.01
356.115	54.1
356.326	-27.82
356.538	86.87
356.749	13.14
356.961	113.49
357.172	37.72
357.384	37.72
357.595	58.2
357.807	76.63
358.018	17.24
358.23	33.62
358.441	21.33
358.653	58.2
358.864	25.43
359.075	-3.24
359.287	109.4
359.498	82.77
359.709	27.48
359.921	60.24
360.132	78.68
360.344	11.09
360.555	19.29
360.766	86.87
360.977	15.19
361.189	121.68
361.4	29.52
361.611	76.63
361.823	109.4
362.034	33.62
362.245	39.76
362.456	37.72
362.667	25.43
362.879	78.68
363.09	64.34
363.301	82.77
363.512	11.09
363.723	90.96
363.935	-40.11
364.146	82.77
364.357	-27.82
364.568	140.12
364.779	31.57
364.99	80.72
365.201	80.72
365.412	45.91
365.623	39.76
365.834	88.92
366.045	101.2
366.256	50
366.467	56.15
366.678	4.95
366.889	90.96
367.1	74.58
367.311	47.96
367.522	-21.67
367.733	43.86
367.944	82.77
368.155	72.53
368.366	64.34
368.577	80.72
368.788	95.06
368.999	37.72
369.209	64.34
369.42	11.09
369.631	107.35
369.842	68.44
370.053	25.43
370.264	17.24
370.474	52.05
370.685	-9.39
370.896	31.57
371.107	2.9
371.317	21.33
371.528	31.57
371.739	56.15
371.95	9.05
372.16	111.44
372.371	19.29
372.582	70.48
372.792	-3.24
373.003	47.96
373.214	33.62
373.424	66.39
373.635	-3.24
373.846	54.1
374.056	0.85
374.267	70.48
374.477	129.88
374.688	2.9
374.898	-42.15
375.109	76.63
375.319	125.78
375.53	37.72
375.74	52.05
375.951	19.29
376.161	144.21
376.372	72.53
376.582	62.29
376.793	93.01
377.003	84.82
377.214	33.62
377.424	103.25
377.635	47.96
377.845	19.29
378.055	86.87
378.266	86.87
378.476	99.16
378.686	21.33
378.897	76.63
379.107	25.43
379.317	68.44
379.528	62.29
379.738	70.48
379.948	25.43
380.158	78.68
380.369	86.87
380.579	19.29
380.789	70.48
380.999	-1.19
381.21	90.96
381.42	39.76
381.63	0.85
381.84	88.92
382.05	62.29
382.261	72.53
382.471	41.81
382.681	41.81
382.891	127.83
383.101	78.68
383.311	90.96
383.521	-3.24
383.731	119.64
383.941	95.06
384.151	62.29
384.361	33.62
384.571	29.52
384.781	58.2
384.991	11.09
385.201	68.44
385.411	84.82
385.621	29.52
385.831	105.3
386.041	-29.87
386.251	97.11
386.461	82.77
386.671	60.24
386.881	23.38
387.091	29.52
387.301	107.35
387.511	15.19
387.72	99.16
387.93	84.82
388.14	31.57
388.35	101.2
388.56	74.58
388.769	27.48
388.979	95.06
389.189	95.06
389.399	39.76
389.609	54.1
389.818	90.96
390.028	103.25
390.238	66.39
390.447	45.91
390.657	119.64
390.867	39.76
391.076	17.24
391.286	17.24
391.496	174.93
391.705	80.72
391.915	131.92
392.125	101.2
392.334	7
392.544	-29.87
392.753	47.96
392.963	35.67
393.172	111.44
393.382	37.72
393.591	103.25
393.801	68.44
394.01	142.16
394.22	41.81
394.429	76.63
394.639	15.19
394.848	56.15
395.058	97.11
395.267	115.54
395.477	86.87
395.686	86.87
395.895	93.01
396.105	115.54
396.314	37.72
396.524	105.3
396.733	62.29
396.942	88.92
397.152	154.45
397.361	41.81
397.57	164.69
397.78	142.16
397.989	115.54
398.198	146.26
398.407	150.36
398.617	76.63
398.826	82.77
399.035	52.05
399.244	148.31
399.453	58.2
399.663	17.24
399.872	117.59
400.081	39.76
400.29	117.59
400.499	54.1
400.708	111.44
400.917	56.15
401.127	64.34
401.336	74.58
401.545	115.54
401.754	140.12
401.963	117.59
402.172	117.59
402.381	35.67
402.59	52.05
402.799	150.36
403.008	144.21
403.217	140.12
403.426	52.05
403.635	207.7
403.844	107.35
404.053	162.64
404.262	144.21
404.471	191.31
404.68	168.79
404.888	158.55
405.097	152.4
405.306	158.55
405.515	183.12
405.724	140.12
405.933	109.4
406.142	181.07
406.35	166.74
406.559	123.73
406.768	189.27
406.977	217.94
407.185	123.73
407.394	125.78
407.603	72.53
407.812	189.27
408.02	183.12
408.229	238.42
408.438	207.7
408.646	187.22
408.855	269.14
409.064	299.86
409.272	267.09
409.481	293.71
409.69	279.38
409.898	222.03
410.107	191.31
410.315	281.43
410.524	238.42
410.733	256.85
410.941	279.38
411.15	306
411.358	299.86
411.567	394.06
411.775	334.67
411.984	342.86
412.192	318.29
412.401	355.15
412.609	430.93
412.818	383.82
413.026	410.45
413.234	486.22
413.443	473.93
413.651	488.27
413.86	533.33
414.068	500.56
414.276	545.61
414.485	596.81
414.693	572.24
414.901	623.44
415.11	615.24
415.318	570.19
415.526	572.24
415.734	613.2
415.943	715.59
416.151	633.68
416.359	611.15
416.567	756.55
416.776	817.99
416.984	809.8
417.192	836.42
417.4	854.86
417.608	852.81
417.817	977.73
418.025	848.71
418.233	1059.65
418.441	963.4
418.649	1069.89
418.857	1049.41
419.065	1141.57
419.273	1106.76
419.481	1141.57
419.689	1254.21
419.897	1286.98
420.105	1289.03
420.313	1207.11
420.521	1375.04
420.729	1393.47
420.937	1461.06
421.145	1520.45
421.353	1528.64
421.561	1598.27
421.769	1659.71
421.977	1727.29
422.185	1669.95
422.393	1821.5
422.601	1907.51
422.809	1911.61
423.017	1991.48
423.224	2067.25
423.432	2216.76
423.64	2143.03
423.848	2452.27
424.056	2288.43
424.263	2349.87
424.471	2458.42
424.679	2470.7
424.887	2655.02
425.094	2769.71
425.302	2769.71
425.51	2800.43
425.718	2851.63
425.925	2904.87
426.133	2984.74
426.341	3259.17
426.548	3304.23
426.756	3341.09
426.964	3466.02
427.171	3570.46
427.379	3715.87
427.586	3826.46
427.794	3791.64
428.001	3994.39
428.209	4315.92
428.417	4158.23
428.624	4416.27
428.832	4502.29
429.039	4479.76
429.247	4479.76
429.454	4883.21
429.662	5155.59
429.869	4813.58
430.076	5124.87
430.284	4926.22
430.491	5141.25
430.699	5516.03
430.906	5546.75
431.114	5755.65
431.321	5985.02
431.528	5819.13
431.736	6404.85
431.943	6501.11
432.15	6245.11
432.358	6685.42
432.565	6992.62
432.772	6804.21
432.979	7342.82
433.187	7355.11
433.394	7326.44
433.601	8045.27
433.808	7764.7
434.016	7889.63
434.223	8182.49
434.43	8798.93
434.637	8418
434.844	9095.88
435.052	9290.44
435.259	9083.59
435.466	9300.68
435.673	9104.07
435.88	9605.83
436.087	9915.07
436.294	10275.51
436.501	10228.41
436.708	10363.58
436.915	10543.8
437.122	10947.25
437.329	11002.54
437.537	11375.27
437.743	11649.7
437.95	11537.06
438.157	12161.69
438.364	12446.36
438.571	12343.96
438.778	12636.82
438.985	13605.51
439.192	13320.84
439.399	13417.1
439.606	13322.89
439.813	14236.28
440.02	14869.11
440.227	14750.32
440.433	14549.62
440.64	14918.26
440.847	15092.34
441.054	15247.98
441.261	16081.5
441.467	16106.08
441.674	16405.08
441.881	16833.11
442.088	17177.17
442.294	16716.37
442.501	17508.94
442.708	17676.87
442.914	18577.98
443.121	19202.61
443.328	18543.16
443.534	19755.56
443.741	19323.44
443.948	19049.01
444.154	20609.56
444.361	20236.83
444.568	20793.88
444.774	20840.98
444.981	20812.31
445.187	21533.2
445.394	22362.62
445.6	21776.91
445.807	23980.52
446.013	23036.41
446.22	23339.51
446.426	24345.06
446.633	24728.03
446.839	25424.34
447.046	24234.47
447.252	25801.16
447.459	25702.86
447.665	25326.03
447.871	26763.71
448.078	27806.13
448.284	26347.97
448.491	27161.01
448.697	28316.07
448.903	28479.91
449.11	28672.42
449.316	28279.21
449.522	28871.07
449.728	29696.4
449.935	29856.14
450.141	29532.56
450.347	30157.19
450.553	29653.39
450.76	29661.58
450.966	30759.3
451.172	30273.93
451.378	31168.89
451.584	30366.09
451.791	31220.09
451.997	31037.82
452.203	31605.11
452.409	31336.82
452.615	31476.09
452.821	30220.68
453.027	29733.26
453.233	31021.44
453.44	29895.05
453.646	30087.56
453.852	30466.44
454.058	30837.12
454.264	29858.19
454.47	30632.32
454.676	29550.99
454.882	30837.12
455.088	28172.71
455.294	28494.24
455.5	28678.56
455.705	28803.49
455.911	27953.58
456.117	27484.59
456.323	26745.28
456.529	25586.13
456.735	26483.14
456.941	25713.1
457.147	25410
457.352	24629.73
457.558	24406.5
457.764	24367.59
457.97	24027.62
458.176	23271.92
458.381	23433.71
458.587	22362.62
458.793	21973.51
458.999	20828.7
459.204	22682.11
459.41	21907.98
459.616	20455.97
459.821	20513.31
460.027	20544.03
460.233	19958.31
460.438	18790.97
460.644	18895.41
460.85	18082.37
461.055	17961.54
461.261	18178.62
461.466	16601.69
461.672	16347.74
461.878	17156.69
462.083	15956.58
462.289	15702.63
462.494	15667.81
462.7	14940.79
462.905	14635.64
463.111	15174.25
463.316	15334
463.522	14848.63
463.727	14991.98
463.932	14717.56
464.138	14914.16
464.343	14735.99
464.549	14453.37
464.754	14991.98
464.959	14899.83
465.165	14596.73
465.37	14054.01
465.575	13589.13
465.781	14094.97
465.986	14346.87
466.191	13765.25
466.397	13496.97
466.602	13040.27
466.807	13380.23
467.012	13468.3
467.218	13343.37
467.423	12966.54
467.628	13339.27
467.833	13705.86
468.038	13308.55
468.244	12870.29
468.449	13265.55
468.654	13070.99
468.859	12984.98
469.064	12479.13
469.269	12270.23
