Data from USB4F104151__113__11-07-19-278.txt Node

Date: Wed Mar 12 11:07:19 EDT 2025
User: louis
Spectrometer: USB4F10415
Trigger mode: 4
Integration Time (sec): 2.000000E-2
Scans to average: 1
Electric dark correction enabled: true
Nonlinearity correction enabled: false
Boxcar width: 0
XAxis mode: Wavelengths
Number of Pixels in Spectrum: 3648
>>>>>Begin Spectral Data<<<<<
178.204	39.08
178.424	39.08
178.644	39.08
178.864	-128.85
179.084	-67.41
179.304	-63.32
179.524	24.75
179.744	43.18
179.964	-5.97
180.184	-51.03
180.404	-10.07
180.624	-59.22
180.844	32.94
181.064	24.75
181.283	51.37
181.503	-8.02
181.723	20.65
181.943	-24.4
182.163	45.23
182.383	22.7
182.602	-10.07
182.822	22.7
183.042	18.6
183.262	8.36
183.482	98.47
183.701	4.27
183.921	10.41
184.141	-10.07
184.361	30.89
184.58	49.32
184.8	59.56
185.02	32.94
185.239	-5.97
185.459	14.51
185.679	22.7
185.898	53.42
186.118	45.23
186.338	28.84
186.557	67.75
186.777	30.89
186.997	-8.02
187.216	37.03
187.436	45.23
187.655	30.89
187.875	55.47
188.095	18.6
188.314	67.75
188.534	55.47
188.753	41.13
188.973	47.27
189.192	51.37
189.412	4.27
189.631	43.18
189.851	34.99
190.07	96.43
190.29	37.03
190.509	6.31
190.729	39.08
190.948	-10.07
191.168	39.08
191.387	73.9
191.607	16.55
191.826	26.79
192.045	26.79
192.265	65.71
192.484	51.37
192.704	26.79
192.923	-18.26
193.142	88.23
193.362	100.52
193.581	32.94
193.8	41.13
194.02	-8.02
194.239	49.32
194.458	45.23
194.678	73.9
194.897	10.41
195.116	8.36
195.335	63.66
195.555	30.89
195.774	39.08
195.993	53.42
196.212	18.6
196.432	14.51
196.651	34.99
196.87	43.18
197.089	127.14
197.308	39.08
197.528	51.37
197.747	-8.02
197.966	63.66
198.185	2.22
198.404	59.56
198.623	6.31
198.842	121
199.062	12.46
199.281	49.32
199.5	94.38
199.719	53.42
199.938	30.89
200.157	-10.07
200.376	-10.07
200.595	73.9
200.814	16.55
201.033	12.46
201.252	28.84
201.471	63.66
201.69	125.1
201.909	-18.26
202.128	49.32
202.347	65.71
202.566	-5.97
202.785	14.51
203.004	14.51
203.223	71.85
203.442	12.46
203.661	80.04
203.879	94.38
204.098	39.08
204.317	94.38
204.536	41.13
204.755	-30.55
204.974	84.14
205.193	-18.26
205.411	43.18
205.63	104.62
205.849	-26.45
206.068	26.79
206.287	-18.26
206.505	75.95
206.724	59.56
206.943	14.51
207.162	26.79
207.381	125.1
207.599	22.7
207.818	75.95
208.037	96.43
208.255	-5.97
208.474	-34.64
208.693	92.33
208.911	104.62
209.13	61.61
209.349	55.47
209.567	34.99
209.786	-16.21
210.005	106.67
210.223	47.27
210.442	-91.99
210.661	-48.98
210.879	75.95
211.098	8.36
211.316	55.47
211.535	55.47
211.753	63.66
211.972	12.46
212.191	10.41
212.409	26.79
212.628	135.34
212.846	30.89
213.065	-40.79
213.283	123.05
213.502	10.41
213.72	10.41
213.938	71.85
214.157	37.03
214.375	49.32
214.594	45.23
214.812	0.17
215.031	45.23
215.249	47.27
215.467	-10.07
215.686	-8.02
215.904	47.27
216.122	43.18
216.341	22.7
216.559	69.8
216.778	100.52
216.996	-10.07
217.214	47.27
217.432	28.84
217.651	47.27
217.869	6.31
218.087	4.27
218.306	45.23
218.524	45.23
218.742	98.47
218.96	67.75
219.179	37.03
219.397	47.27
219.615	51.37
219.833	47.27
220.051	-32.6
220.27	47.27
220.488	39.08
220.706	51.37
220.924	59.56
221.142	77.99
221.36	2.22
221.578	47.27
221.796	20.65
222.015	55.47
222.233	59.56
222.451	4.27
222.669	34.99
222.887	2.22
223.105	-40.79
223.323	39.08
223.541	6.31
223.759	22.7
223.977	28.84
224.195	55.47
224.413	39.08
224.631	6.31
224.849	94.38
225.067	106.67
225.285	51.37
225.503	65.71
225.721	-57.17
225.939	6.31
226.157	47.27
226.375	82.09
226.592	10.41
226.81	37.03
227.028	69.8
227.246	63.66
227.464	80.04
227.682	51.37
227.9	63.66
228.117	20.65
228.335	14.51
228.553	53.42
228.771	-10.07
228.989	4.27
229.206	34.99
229.424	20.65
229.642	-12.12
229.86	75.95
230.077	108.71
230.295	43.18
230.513	20.65
230.731	94.38
230.948	0.17
231.166	6.31
231.384	-5.97
231.601	4.27
231.819	104.62
232.037	-10.07
232.254	-3.93
232.472	61.61
232.689	47.27
232.907	51.37
233.125	10.41
233.342	55.47
233.56	-24.4
233.777	57.51
233.995	39.08
234.213	102.57
234.43	75.95
234.648	45.23
234.865	34.99
235.083	63.66
235.3	20.65
235.518	65.71
235.735	43.18
235.953	63.66
236.17	32.94
236.388	73.9
236.605	28.84
236.822	100.52
237.04	77.99
237.257	39.08
237.475	-5.97
237.692	49.32
237.909	43.18
238.127	55.47
238.344	45.23
238.562	16.55
238.779	30.89
238.996	65.71
239.214	-46.93
239.431	84.14
239.648	24.75
239.865	88.23
240.083	102.57
240.3	69.8
240.517	-8.02
240.735	55.47
240.952	16.55
241.169	125.1
241.386	49.32
241.603	24.75
241.821	6.31
242.038	104.62
242.255	0.17
242.472	59.56
242.689	-20.31
242.907	10.41
243.124	18.6
243.341	-12.12
243.558	-5.97
243.775	18.6
243.992	77.99
244.209	41.13
244.426	61.61
244.643	80.04
244.86	18.6
245.078	98.47
245.295	43.18
245.512	49.32
245.729	-12.12
245.946	43.18
246.163	45.23
246.38	14.51
246.597	41.13
246.814	51.37
247.031	18.6
247.248	118.95
247.464	-5.97
247.681	59.56
247.898	14.51
248.115	10.41
248.332	88.23
248.549	-63.32
248.766	116.9
248.983	43.18
249.2	84.14
249.417	-10.07
249.633	14.51
249.85	28.84
250.067	45.23
250.284	69.8
250.501	10.41
250.717	-26.45
250.934	51.37
251.151	-3.93
251.368	12.46
251.585	67.75
251.801	-12.12
252.018	92.33
252.235	57.51
252.451	-5.97
252.668	37.03
252.885	63.66
253.102	8.36
253.318	8.36
253.535	45.23
253.752	-8.02
253.968	8.36
254.185	-20.31
254.401	63.66
254.618	32.94
254.835	16.55
255.051	14.51
255.268	22.7
255.484	2.22
255.701	8.36
255.917	53.42
256.134	6.31
256.351	-10.07
256.567	-10.07
256.784	57.51
257	0.17
257.217	59.56
257.433	30.89
257.65	67.75
257.866	2.22
258.082	65.71
258.299	-12.12
258.515	77.99
258.732	12.46
258.948	80.04
259.165	-16.21
259.381	-40.79
259.597	71.85
259.814	94.38
260.03	16.55
260.246	18.6
260.463	32.94
260.679	37.03
260.895	-24.4
261.112	-22.36
261.328	10.41
261.544	65.71
261.761	32.94
261.977	10.41
262.193	4.27
262.409	-22.36
262.626	-3.93
262.842	-8.02
263.058	45.23
263.274	86.19
263.49	39.08
263.707	34.99
263.923	2.22
264.139	28.84
264.355	69.8
264.571	65.71
264.787	30.89
265.004	45.23
265.22	49.32
265.436	47.27
265.652	14.51
265.868	49.32
266.084	4.27
266.3	88.23
266.516	10.41
266.732	57.51
266.948	106.67
267.164	-8.02
267.38	94.38
267.596	37.03
267.812	127.14
268.028	106.67
268.244	63.66
268.46	104.62
268.676	63.66
268.892	39.08
269.108	32.94
269.324	-3.93
269.54	12.46
269.756	67.75
269.972	-34.64
270.188	45.23
270.403	-3.93
270.619	80.04
270.835	18.6
271.051	80.04
271.267	45.23
271.483	26.79
271.698	2.22
271.914	-8.02
272.13	67.75
272.346	45.23
272.562	55.47
272.777	67.75
272.993	110.76
273.209	47.27
273.425	75.95
273.64	39.08
273.856	53.42
274.072	51.37
274.287	2.22
274.503	55.47
274.719	39.08
274.934	-18.26
275.15	-38.74
275.366	71.85
275.581	61.61
275.797	133.29
276.012	10.41
276.228	26.79
276.444	84.14
276.659	20.65
276.875	51.37
277.09	30.89
277.306	30.89
277.521	94.38
277.737	-3.93
277.952	125.1
278.168	47.27
278.383	55.47
278.599	-5.97
278.814	43.18
279.03	8.36
279.245	51.37
279.461	2.22
279.676	57.51
279.892	49.32
280.107	47.27
280.322	-10.07
280.538	53.42
280.753	75.95
280.969	94.38
281.184	-10.07
281.399	110.76
281.615	80.04
281.83	57.51
282.045	-28.5
282.26	26.79
282.476	-38.74
282.691	-34.64
282.906	43.18
283.122	-51.03
283.337	-26.45
283.552	32.94
283.767	51.37
283.983	69.8
284.198	18.6
284.413	-32.6
284.628	37.03
284.843	-3.93
285.058	77.99
285.274	90.28
285.489	18.6
285.704	63.66
285.919	102.57
286.134	20.65
286.349	4.27
286.564	-26.45
286.779	-28.5
286.995	10.41
287.21	84.14
287.425	43.18
287.64	73.9
287.855	59.56
288.07	-10.07
288.285	49.32
288.5	-14.17
288.715	53.42
288.93	88.23
289.145	104.62
289.36	34.99
289.575	47.27
289.79	6.31
290.004	-38.74
290.219	51.37
290.434	0.17
290.649	32.94
290.864	14.51
291.079	63.66
291.294	53.42
291.509	63.66
291.724	20.65
291.938	123.05
292.153	43.18
292.368	34.99
292.583	63.66
292.798	47.27
293.012	-1.88
293.227	94.38
293.442	14.51
293.657	75.95
293.871	82.09
294.086	28.84
294.301	32.94
294.516	0.17
294.73	94.38
294.945	-8.02
295.16	49.32
295.374	100.52
295.589	94.38
295.804	61.61
296.018	73.9
296.233	53.42
296.447	-12.12
296.662	82.09
296.877	137.38
297.091	100.52
297.306	94.38
297.52	6.31
297.735	49.32
297.949	45.23
298.164	71.85
298.378	-14.17
298.593	14.51
298.807	6.31
299.022	47.27
299.236	49.32
299.451	80.04
299.665	6.31
299.88	92.33
300.094	45.23
300.309	65.71
300.523	34.99
300.737	34.99
300.952	37.03
301.166	18.6
301.381	22.7
301.595	-20.31
301.809	96.43
302.024	20.65
302.238	2.22
302.452	80.04
302.667	49.32
302.881	47.27
303.095	51.37
303.309	-16.21
303.524	4.27
303.738	18.6
303.952	-30.55
304.166	37.03
304.381	-30.55
304.595	151.72
304.809	0.17
305.023	4.27
305.237	-10.07
305.452	96.43
305.666	26.79
305.88	12.46
306.094	20.65
306.308	47.27
306.522	0.17
306.736	51.37
306.95	98.47
307.164	24.75
307.379	-22.36
307.593	84.14
307.807	55.47
308.021	20.65
308.235	82.09
308.449	6.31
308.663	10.41
308.877	65.71
309.091	2.22
309.305	47.27
309.519	-10.07
309.733	43.18
309.947	16.55
310.161	14.51
310.374	67.75
310.588	121
310.802	6.31
311.016	69.8
311.23	57.51
311.444	49.32
311.658	8.36
311.872	47.27
312.085	22.7
312.299	114.86
312.513	104.62
312.727	69.8
312.941	92.33
313.154	75.95
313.368	63.66
313.582	51.37
313.796	39.08
314.009	75.95
314.223	104.62
314.437	59.56
314.651	41.13
314.864	-28.5
315.078	30.89
315.292	10.41
315.505	-28.5
315.719	2.22
315.933	6.31
316.146	24.75
316.36	28.84
316.573	84.14
316.787	18.6
317.001	63.66
317.214	-22.36
317.428	84.14
317.641	4.27
317.855	51.37
318.068	-30.55
318.282	24.75
318.495	24.75
318.709	88.23
318.922	12.46
319.136	43.18
319.349	-24.4
319.563	18.6
319.776	22.7
319.99	16.55
320.203	67.75
320.417	10.41
320.63	8.36
320.843	53.42
321.057	41.13
321.27	39.08
321.483	121
321.697	104.62
321.91	88.23
322.124	26.79
322.337	22.7
322.55	24.75
322.763	43.18
322.977	69.8
323.19	102.57
323.403	0.17
323.617	100.52
323.83	77.99
324.043	61.61
324.256	-42.84
324.469	24.75
324.683	45.23
324.896	6.31
325.109	55.47
325.322	34.99
325.535	82.09
325.748	71.85
325.962	-14.17
326.175	37.03
326.388	61.61
326.601	28.84
326.814	92.33
327.027	104.62
327.24	112.81
327.453	14.51
327.666	55.47
327.879	100.52
328.092	69.8
328.305	59.56
328.518	12.46
328.731	-5.97
328.944	96.43
329.157	43.18
329.37	51.37
329.583	73.9
329.796	86.19
330.009	116.9
330.222	47.27
330.435	-14.17
330.648	88.23
330.861	102.57
331.073	30.89
331.286	94.38
331.499	8.36
331.712	14.51
331.925	49.32
332.138	73.9
332.35	45.23
332.563	32.94
332.776	61.61
332.989	49.32
333.202	30.89
333.414	24.75
333.627	2.22
333.84	94.38
334.053	8.36
334.265	75.95
334.478	67.75
334.691	100.52
334.903	71.85
335.116	114.86
335.329	71.85
335.541	63.66
335.754	41.13
335.966	84.14
336.179	22.7
336.392	88.23
336.604	47.27
336.817	34.99
337.029	6.31
337.242	2.22
337.454	28.84
337.667	39.08
337.88	75.95
338.092	39.08
338.305	61.61
338.517	-22.36
338.729	77.99
338.942	84.14
339.154	4.27
339.367	86.19
339.579	47.27
339.792	67.75
340.004	43.18
340.217	61.61
340.429	110.76
340.641	-12.12
340.854	43.18
341.066	63.66
341.278	143.53
341.491	90.28
341.703	77.99
341.915	41.13
342.128	-18.26
342.34	-8.02
342.552	-10.07
342.764	14.51
342.977	82.09
343.189	59.56
343.401	59.56
343.613	24.75
343.826	43.18
344.038	10.41
344.25	20.65
344.462	88.23
344.674	-28.5
344.886	65.71
345.099	92.33
345.311	65.71
345.523	-10.07
345.735	55.47
345.947	86.19
346.159	69.8
346.371	53.42
346.583	47.27
346.795	39.08
347.007	30.89
347.219	37.03
347.431	-12.12
347.643	96.43
347.855	20.65
348.067	100.52
348.279	57.51
348.491	-10.07
348.703	63.66
348.915	51.37
349.127	2.22
349.339	43.18
349.551	34.99
349.763	30.89
349.975	51.37
350.187	24.75
350.399	57.51
350.61	0.17
350.822	39.08
351.034	123.05
351.246	32.94
351.458	55.47
351.669	24.75
351.881	98.47
352.093	2.22
352.305	80.04
352.517	51.37
352.728	121
352.94	61.61
353.152	100.52
353.363	-53.08
353.575	34.99
353.787	77.99
353.999	20.65
354.21	49.32
354.422	61.61
354.633	32.94
354.845	59.56
355.057	26.79
355.268	45.23
355.48	37.03
355.692	0.17
355.903	53.42
356.115	-34.64
356.326	6.31
356.538	55.47
356.749	86.19
356.961	59.56
357.172	22.7
357.384	37.03
357.595	63.66
357.807	47.27
358.018	47.27
358.23	104.62
358.441	96.43
358.653	137.38
358.864	88.23
359.075	24.75
359.287	71.85
359.498	55.47
359.709	67.75
359.921	88.23
360.132	26.79
360.344	45.23
360.555	37.03
360.766	59.56
360.977	82.09
361.189	14.51
361.4	30.89
361.611	67.75
361.823	98.47
362.034	86.19
362.245	43.18
362.456	61.61
362.667	55.47
362.879	41.13
363.09	-22.36
363.301	164.01
363.512	-5.97
363.723	143.53
363.935	61.61
364.146	47.27
364.357	80.04
364.568	67.75
364.779	51.37
364.99	184.49
365.201	-20.31
365.412	49.32
365.623	39.08
365.834	63.66
366.045	96.43
366.256	14.51
366.467	94.38
366.678	88.23
366.889	34.99
367.1	8.36
367.311	63.66
367.522	55.47
367.733	28.84
367.944	-8.02
368.155	47.27
368.366	65.71
368.577	26.79
368.788	106.67
368.999	39.08
369.209	67.75
369.42	71.85
369.631	77.99
369.842	80.04
370.053	125.1
370.264	45.23
370.474	110.76
370.685	65.71
370.896	92.33
371.107	80.04
371.317	30.89
371.528	8.36
371.739	67.75
371.95	73.9
372.16	104.62
372.371	73.9
372.582	63.66
372.792	100.52
373.003	37.03
373.214	43.18
373.424	53.42
373.635	-28.5
373.846	39.08
374.056	57.51
374.267	6.31
374.477	43.18
374.688	-51.03
374.898	67.75
375.109	37.03
375.319	82.09
375.53	28.84
375.74	49.32
375.951	108.71
376.161	47.27
376.372	94.38
376.582	55.47
376.793	55.47
377.003	73.9
377.214	-5.97
377.424	51.37
377.635	30.89
377.845	22.7
378.055	84.14
378.266	61.61
378.476	59.56
378.686	28.84
378.897	6.31
379.107	63.66
379.317	41.13
379.528	51.37
379.738	22.7
379.948	139.43
380.158	100.52
380.369	-24.4
380.579	14.51
380.789	137.38
380.999	71.85
381.21	6.31
381.42	125.1
381.63	-30.55
381.84	75.95
382.05	63.66
382.261	69.8
382.471	51.37
382.681	20.65
382.891	80.04
383.101	112.81
383.311	22.7
383.521	51.37
383.731	39.08
383.941	131.24
384.151	26.79
384.361	80.04
384.571	45.23
384.781	92.33
384.991	39.08
385.201	84.14
385.411	102.57
385.621	112.81
385.831	43.18
386.041	12.46
386.251	69.8
386.461	149.67
386.671	80.04
386.881	69.8
387.091	-26.45
387.301	69.8
387.511	100.52
387.72	67.75
387.93	14.51
388.14	63.66
388.35	43.18
388.56	69.8
388.769	65.71
388.979	82.09
389.189	147.62
389.399	182.44
389.609	59.56
389.818	71.85
390.028	94.38
390.238	92.33
390.447	51.37
390.657	100.52
390.867	143.53
391.076	39.08
391.286	96.43
391.496	47.27
391.705	80.04
391.915	108.71
392.125	71.85
392.334	94.38
392.544	100.52
392.753	65.71
392.963	69.8
393.172	59.56
393.382	73.9
393.591	43.18
393.801	80.04
394.01	53.42
394.22	145.58
394.429	77.99
394.639	20.65
394.848	129.19
395.058	110.76
395.267	133.29
395.477	151.72
395.686	28.84
395.895	96.43
396.105	133.29
396.314	49.32
396.524	98.47
396.733	10.41
396.942	20.65
397.152	77.99
397.361	196.78
397.57	131.24
397.78	155.82
397.989	92.33
398.198	110.76
398.407	57.51
398.617	125.1
398.826	129.19
399.035	118.95
399.244	116.9
399.453	137.38
399.663	112.81
399.872	121
400.081	88.23
400.29	75.95
400.499	114.86
400.708	151.72
400.917	75.95
401.127	129.19
401.336	26.79
401.545	137.38
401.754	116.9
401.963	151.72
402.172	84.14
402.381	94.38
402.59	161.96
402.799	114.86
403.008	123.05
403.217	139.43
403.426	98.47
403.635	129.19
403.844	123.05
404.053	141.48
404.262	106.67
404.471	104.62
404.68	98.47
404.888	137.38
405.097	215.21
405.306	182.44
405.515	139.43
405.724	127.14
405.933	209.06
406.142	211.11
406.35	155.82
406.559	176.3
406.768	164.01
406.977	192.68
407.185	204.97
407.394	166.06
407.603	237.74
407.812	268.45
408.02	256.17
408.229	219.3
408.438	227.5
408.646	243.88
408.855	270.5
409.064	247.97
409.272	207.02
409.481	323.75
409.69	252.07
409.898	290.98
410.107	354.47
410.315	258.21
410.524	286.89
410.733	387.24
410.941	323.75
411.15	385.19
411.358	346.28
411.567	356.52
411.775	413.86
411.984	442.53
412.192	407.72
412.401	420
412.609	497.83
412.818	530.59
413.026	469.16
413.234	405.67
413.443	467.11
413.651	499.88
413.86	581.79
414.068	647.33
414.276	585.89
414.485	526.5
414.693	585.89
414.901	723.1
415.11	626.85
415.318	655.52
415.526	747.68
415.734	704.67
415.943	772.25
416.151	780.45
416.359	805.02
416.567	835.74
416.776	817.31
416.984	891.04
417.192	985.24
417.4	948.38
417.608	923.8
417.817	1026.2
418.025	987.29
418.233	1050.78
418.441	1067.16
418.649	1179.8
418.857	1231
419.065	1267.86
419.273	1167.51
419.481	1204.38
419.689	1353.88
419.897	1480.85
420.105	1413.27
420.313	1476.76
420.521	1546.39
420.729	1484.95
420.937	1575.06
421.145	1634.45
421.353	1722.51
421.561	1851.53
421.769	1888.4
421.977	1910.93
422.185	1908.88
422.393	1943.69
422.601	2121.87
422.809	2201.74
423.017	2232.46
423.224	2211.98
423.432	2384.01
423.64	2332.81
423.848	2508.93
424.056	2484.36
424.263	2674.82
424.471	2689.15
424.679	2642.05
424.887	2945.15
425.094	2953.34
425.302	3074.17
425.51	3145.85
425.718	3043.45
425.925	3174.52
426.133	3309.69
426.341	3391.61
426.548	3637.36
426.756	3586.16
426.964	3711.09
427.171	4057.2
427.379	3915.89
427.586	4030.57
427.794	4124.78
428.001	4358.25
428.209	4573.28
428.417	4649.06
428.624	4755.55
428.832	4868.19
429.039	4864.1
429.247	4884.58
429.454	5402.71
429.662	5800.02
429.869	5371.99
430.076	5736.53
430.284	5453.91
430.491	5869.65
430.699	5953.62
430.906	6010.96
431.114	6064.21
431.321	6469.7
431.528	6461.51
431.736	6918.21
431.943	7055.42
432.15	6852.67
432.358	6987.84
432.565	7491.64
432.772	7405.63
432.979	7743.54
433.187	8011.82
433.394	8058.93
433.601	8685.61
433.808	8493.1
434.016	8489
434.223	8970.27
434.43	9504.79
434.637	9494.55
434.844	9822.23
435.052	10117.14
435.259	9852.95
435.466	9922.58
435.673	9889.81
435.88	10637.32
436.087	11145.22
436.294	11225.09
436.501	10913.8
436.708	11188.22
436.915	11560.95
437.122	11905.01
437.329	12242.93
437.537	12333.04
437.743	12711.91
437.95	12621.8
438.157	13184.99
438.364	13760.47
438.571	13514.72
438.778	13727.71
438.985	14979.01
439.192	14536.65
439.399	14806.98
439.606	14254.03
439.813	15439.81
440.02	16084.92
440.227	15966.14
440.433	15691.71
440.64	16144.31
440.847	15962.04
441.054	16469.94
441.261	17944.47
441.467	17475.49
441.674	17932.19
441.881	18794.38
442.088	18466.7
442.294	18120.6
442.501	18812.81
442.708	19027.85
442.914	19826.56
443.121	20674.42
443.328	20162.42
443.534	21589.86
443.741	21073.77
443.948	20612.98
444.154	22443.86
444.361	21960.54
444.568	22138.71
444.774	22212.44
444.981	22531.92
445.187	23078.73
445.394	24151.87
445.6	23465.8
445.807	26326.81
446.013	24870.7
446.22	25431.85
446.426	26156.83
446.633	26181.4
446.839	27543.3
447.046	26396.44
447.252	27709.19
447.459	27883.27
447.665	27764.48
447.871	29052.66
448.078	30025.44
448.284	28829.43
448.491	29677.29
448.697	30478.04
448.903	31305.42
449.11	31325.9
449.316	30824.15
449.522	31424.2
449.728	32007.87
449.935	32026.31
450.141	32169.66
450.347	32874.17
450.553	31715.01
450.76	32292.54
450.966	33124.02
451.172	33121.97
451.378	34186.91
451.584	33044.15
451.791	33984.16
451.997	33609.39
452.203	34236.06
452.409	34528.92
452.615	34303.65
452.821	32839.35
453.027	32609.98
453.233	34117.28
453.44	32597.69
453.646	33066.67
453.852	33631.91
454.058	33767.08
454.264	32657.08
454.47	33365.68
454.676	32853.69
454.882	33805.99
455.088	30742.23
455.294	31403.72
455.5	31620.81
455.705	31944.39
455.911	31071.95
456.117	30086.88
456.323	29404.91
456.529	28350.2
456.735	29609.7
456.941	28845.81
457.147	28389.11
457.352	27553.54
457.558	27086.61
457.764	26943.25
457.97	26699.54
458.176	26173.21
458.381	26105.63
458.587	24639.28
458.793	24864.56
458.999	23201.61
459.204	24958.77
459.41	24491.83
459.616	22896.46
459.821	22871.89
460.027	22783.82
460.233	22460.24
460.438	21094.25
460.644	21438.31
460.85	20369.27
461.055	20316.02
461.261	20109.18
461.466	18691.98
461.672	18118.55
461.878	19244.93
462.083	18067.35
462.289	17631.13
462.494	17731.48
462.7	16826.28
462.905	16347.06
463.111	16967.59
463.316	17053.61
463.522	16824.23
463.727	16910.25
463.932	16701.36
464.138	16488.37
464.343	16523.18
464.549	15994.81
464.754	16383.92
464.959	16558
465.165	16500.65
465.37	15599.55
465.575	15538.11
465.781	15742.91
465.986	15976.37
466.191	15294.4
466.397	15089.6
466.602	14243.79
466.807	14741.45
467.012	15030.21
467.218	14946.25
467.423	14825.42
467.628	14995.4
467.833	15654.84
