Data from USB4F104151__158__11-08-33-209.txt Node

Date: Wed Mar 12 11:08:33 EDT 2025
User: louis
Spectrometer: USB4F10415
Trigger mode: 4
Integration Time (sec): 2.000000E-2
Scans to average: 1
Electric dark correction enabled: true
Nonlinearity correction enabled: false
Boxcar width: 0
XAxis mode: Wavelengths
Number of Pixels in Spectrum: 3648
>>>>>Begin Spectral Data<<<<<
178.204	-108.54
178.424	-108.54
178.644	-108.54
178.864	-135.17
179.084	-118.78
179.304	-53.25
179.524	-47.1
179.744	51.2
179.964	38.91
180.184	-12.29
180.404	8.19
180.624	4.1
180.844	43.01
181.064	-16.38
181.283	-2.05
181.503	16.38
181.723	-30.72
181.943	-102.4
182.163	65.54
182.383	0
182.602	28.67
182.822	47.1
183.042	63.49
183.262	16.38
183.482	-40.96
183.701	10.24
183.921	-32.77
184.141	45.06
184.361	67.58
184.58	92.16
184.8	38.91
185.02	6.14
185.239	38.91
185.459	4.1
185.679	28.67
185.898	-16.38
186.118	24.58
186.338	-47.1
186.557	28.67
186.777	36.86
186.997	28.67
187.216	-49.15
187.436	16.38
187.655	6.14
187.875	-4.1
188.095	53.25
188.314	49.15
188.534	92.16
188.753	34.82
188.973	12.29
189.192	38.91
189.412	8.19
189.631	-61.44
189.851	30.72
190.07	-51.2
190.29	30.72
190.509	-12.29
190.729	24.58
190.948	69.63
191.168	133.12
191.387	20.48
191.607	-43.01
191.826	75.77
192.045	-20.48
192.265	45.06
192.484	-45.06
192.704	10.24
192.923	-2.05
193.142	22.53
193.362	8.19
193.581	18.43
193.8	-51.2
194.02	8.19
194.239	2.05
194.458	20.48
194.678	-53.25
194.897	75.77
195.116	-24.58
195.335	26.62
195.555	8.19
195.774	20.48
195.993	-6.14
196.212	53.25
196.432	-36.86
196.651	-32.77
196.87	77.82
197.089	43.01
197.308	-2.05
197.528	69.63
197.747	-47.1
197.966	65.54
198.185	92.16
198.404	-12.29
198.623	16.38
198.842	6.14
199.062	20.48
199.281	22.53
199.5	59.39
199.719	-24.58
199.938	-47.1
200.157	69.63
200.376	-4.1
200.595	40.96
200.814	34.82
201.033	-20.48
201.252	30.72
201.471	-63.49
201.69	43.01
201.909	8.19
202.128	-20.48
202.347	6.14
202.566	-2.05
202.785	4.1
203.004	-61.44
203.223	67.58
203.442	14.34
203.661	-28.67
203.879	-49.15
204.098	32.77
204.317	20.48
204.536	-2.05
204.755	-6.14
204.974	59.39
205.193	65.54
205.411	94.21
205.63	24.58
205.849	24.58
206.068	4.1
206.287	-8.19
206.505	20.48
206.724	14.34
206.943	-28.67
207.162	69.63
207.381	-30.72
207.599	20.48
207.818	38.91
208.037	-18.43
208.255	-53.25
208.474	16.38
208.693	77.82
208.911	-10.24
209.13	22.53
209.349	65.54
209.567	-32.77
209.786	-6.14
210.005	12.29
210.223	26.62
210.442	38.91
210.661	86.01
210.879	71.68
211.098	63.49
211.316	61.44
211.535	-8.19
211.753	-12.29
211.972	8.19
212.191	-28.67
212.409	18.43
212.628	34.82
212.846	-26.62
213.065	24.58
213.283	-18.43
213.502	16.38
213.72	71.68
213.938	-4.1
214.157	38.91
214.375	-43.01
214.594	30.72
214.812	-6.14
215.031	12.29
215.249	16.38
215.467	28.67
215.686	-20.48
215.904	-12.29
216.122	-4.1
216.341	4.1
216.559	-12.29
216.778	65.54
216.996	4.1
217.214	-98.3
217.432	-53.25
217.651	43.01
217.869	-14.34
218.087	20.48
218.306	2.05
218.524	14.34
218.742	16.38
218.96	112.64
219.179	-12.29
219.397	-47.1
219.615	65.54
219.833	32.77
220.051	-16.38
220.27	-2.05
220.488	-22.53
220.706	77.82
220.924	40.96
221.142	65.54
221.36	30.72
221.578	-26.62
221.796	20.48
222.015	-34.82
222.233	18.43
222.451	22.53
222.669	8.19
222.887	-47.1
223.105	24.58
223.323	10.24
223.541	-36.86
223.759	-2.05
223.977	-24.58
224.195	-6.14
224.413	-57.34
224.631	98.3
224.849	-36.86
225.067	6.14
225.285	-4.1
225.503	79.87
225.721	-28.67
225.939	-22.53
226.157	-22.53
226.375	51.2
226.592	8.19
226.81	10.24
227.028	-8.19
227.246	124.93
227.464	4.1
227.682	14.34
227.9	2.05
228.117	51.2
228.335	18.43
228.553	57.34
228.771	18.43
228.989	22.53
229.206	49.15
229.424	51.2
229.642	-51.2
229.86	-61.44
230.077	-26.62
230.295	32.77
230.513	61.44
230.731	49.15
230.948	-22.53
231.166	-6.14
231.384	20.48
231.601	12.29
231.819	110.59
232.037	-28.67
232.254	8.19
232.472	57.34
232.689	-4.1
232.907	4.1
233.125	-86.01
233.342	-20.48
233.56	-32.77
233.777	6.14
233.995	28.67
234.213	36.86
234.43	-8.19
234.648	-16.38
234.865	45.06
235.083	40.96
235.3	-6.14
235.518	14.34
235.735	75.77
235.953	40.96
236.17	-18.43
236.388	49.15
236.605	49.15
236.822	30.72
237.04	4.1
237.257	96.25
237.475	-40.96
237.692	-12.29
237.909	47.1
238.127	-32.77
238.344	-45.06
238.562	67.58
238.779	8.19
238.996	65.54
239.214	22.53
239.431	-14.34
239.648	8.19
239.865	8.19
240.083	-26.62
240.3	40.96
240.517	-12.29
240.735	2.05
240.952	16.38
241.169	-8.19
241.386	26.62
241.603	-12.29
241.821	38.91
242.038	34.82
242.255	14.34
242.472	-12.29
242.689	47.1
242.907	73.73
243.124	2.05
243.341	-16.38
243.558	30.72
243.775	-12.29
243.992	-20.48
244.209	2.05
244.426	22.53
244.643	69.63
244.86	43.01
245.078	73.73
245.295	18.43
245.512	90.11
245.729	8.19
245.946	120.83
246.163	40.96
246.38	-18.43
246.597	-16.38
246.814	12.29
247.031	4.1
247.248	71.68
247.464	55.3
247.681	-6.14
247.898	20.48
248.115	69.63
248.332	8.19
248.549	36.86
248.766	59.39
248.983	2.05
249.2	4.1
249.417	6.14
249.633	18.43
249.85	61.44
250.067	12.29
250.284	-12.29
250.501	18.43
250.717	51.2
250.934	-36.86
251.151	-16.38
251.368	18.43
251.585	47.1
251.801	4.1
252.018	-47.1
252.235	36.86
252.451	18.43
252.668	16.38
252.885	38.91
253.102	2.05
253.318	-6.14
253.535	-53.25
253.752	8.19
253.968	65.54
254.185	32.77
254.401	4.1
254.618	22.53
254.835	43.01
255.051	102.4
255.268	18.43
255.484	59.39
255.701	-24.58
255.917	57.34
256.134	2.05
256.351	16.38
256.567	6.14
256.784	100.35
257	30.72
257.217	-8.19
257.433	18.43
257.65	59.39
257.866	8.19
258.082	6.14
258.299	-40.96
258.515	8.19
258.732	12.29
258.948	34.82
259.165	67.58
259.381	61.44
259.597	57.34
259.814	98.3
260.03	20.48
260.246	51.2
260.463	49.15
260.679	88.06
260.895	26.62
261.112	2.05
261.328	-14.34
261.544	22.53
261.761	114.69
261.977	45.06
262.193	-6.14
262.409	8.19
262.626	22.53
262.842	22.53
263.058	22.53
263.274	30.72
263.49	106.49
263.707	28.67
263.923	-6.14
264.139	51.2
264.355	83.97
264.571	65.54
264.787	83.97
265.004	77.82
265.22	14.34
265.436	-24.58
265.652	28.67
265.868	65.54
266.084	38.91
266.3	47.1
266.516	-45.06
266.732	34.82
266.948	0
267.164	53.25
267.38	43.01
267.596	-34.82
267.812	24.58
268.028	16.38
268.244	10.24
268.46	24.58
268.676	6.14
268.892	18.43
269.108	47.1
269.324	30.72
269.54	0
269.756	65.54
269.972	14.34
270.188	32.77
270.403	-45.06
270.619	10.24
270.835	22.53
271.051	-71.68
271.267	8.19
271.483	26.62
271.698	26.62
271.914	73.73
272.13	63.49
272.346	67.58
272.562	43.01
272.777	153.6
272.993	-2.05
273.209	30.72
273.425	4.1
273.64	55.3
273.856	0
274.072	4.1
274.287	-6.14
274.503	-12.29
274.719	63.49
274.934	43.01
275.15	-26.62
275.366	20.48
275.581	94.21
275.797	40.96
276.012	20.48
276.228	24.58
276.444	4.1
276.659	71.68
276.875	8.19
277.09	-45.06
277.306	24.58
277.521	12.29
277.737	34.82
277.952	-36.86
278.168	65.54
278.383	-6.14
278.599	61.44
278.814	38.91
279.03	-6.14
279.245	18.43
279.461	63.49
279.676	24.58
279.892	-8.19
280.107	43.01
280.322	-10.24
280.538	57.34
280.753	32.77
280.969	-6.14
281.184	20.48
281.399	30.72
281.615	47.1
281.83	0
282.045	-18.43
282.26	-65.53
282.476	10.24
282.691	49.15
282.906	-16.38
283.122	71.68
283.337	-34.82
283.552	120.83
283.767	-12.29
283.983	-4.1
284.198	-8.19
284.413	28.67
284.628	-32.77
284.843	-12.29
285.058	32.77
285.274	-38.91
285.489	100.35
285.704	-32.77
285.919	30.72
286.134	28.67
286.349	36.86
286.564	-16.38
286.779	51.2
286.995	-26.62
287.21	30.72
287.425	14.34
287.64	67.58
287.855	51.2
288.07	38.91
288.285	77.82
288.5	6.14
288.715	-14.34
288.93	22.53
289.145	4.1
289.36	-28.67
289.575	-32.77
289.79	-12.29
290.004	106.49
290.219	49.15
290.434	-28.67
290.649	0
290.864	71.68
291.079	-75.77
291.294	79.87
291.509	59.39
291.724	-16.38
291.938	-59.39
292.153	4.1
292.368	22.53
292.583	10.24
292.798	45.06
293.012	47.1
293.227	24.58
293.442	18.43
293.657	20.48
293.871	79.87
294.086	67.58
294.301	0
294.516	59.39
294.73	-6.14
294.945	-79.87
295.16	18.43
295.374	65.54
295.589	61.44
295.804	-36.86
296.018	71.68
296.233	86.01
296.447	12.29
296.662	-63.49
296.877	-20.48
297.091	57.34
297.306	45.06
297.52	-81.92
297.735	88.06
297.949	83.97
298.164	71.68
298.378	108.54
298.593	18.43
298.807	45.06
299.022	45.06
299.236	0
299.451	8.19
299.665	45.06
299.88	-12.29
300.094	-55.3
300.309	26.62
300.523	83.97
300.737	75.77
300.952	-28.67
301.166	34.82
301.381	59.39
301.595	51.2
301.809	38.91
302.024	20.48
302.238	55.3
302.452	45.06
302.667	8.19
302.881	34.82
303.095	32.77
303.309	47.1
303.524	30.72
303.738	-59.39
303.952	18.43
304.166	-32.77
304.381	18.43
304.595	22.53
304.809	-30.72
305.023	36.86
305.237	114.69
305.452	-16.38
305.666	43.01
305.88	114.69
306.094	53.25
306.308	30.72
306.522	24.58
306.736	77.82
306.95	8.19
307.164	90.11
307.379	26.62
307.593	45.06
307.807	92.16
308.021	120.83
308.235	47.1
308.449	71.68
308.663	63.49
308.877	55.3
309.091	-28.67
309.305	24.58
309.519	4.1
309.733	63.49
309.947	22.53
310.161	90.11
310.374	4.1
310.588	65.54
310.802	92.16
311.016	135.17
311.23	34.82
311.444	-16.38
311.658	-2.05
311.872	-55.3
312.085	43.01
312.299	81.92
312.513	110.59
312.727	20.48
312.941	32.77
313.154	16.38
313.368	43.01
313.582	10.24
313.796	18.43
314.009	36.86
314.223	59.39
314.437	4.1
314.651	12.29
314.864	47.1
315.078	-45.06
315.292	47.1
315.505	-8.19
315.719	67.58
315.933	92.16
316.146	-10.24
316.36	-45.06
316.573	-16.38
316.787	116.73
317.001	36.86
317.214	34.82
317.428	112.64
317.641	61.44
317.855	51.2
318.068	-32.77
318.282	53.25
318.495	51.2
318.709	-6.14
318.922	-4.1
319.136	75.77
319.349	92.16
319.563	8.19
319.776	16.38
319.99	4.1
320.203	75.77
320.417	-20.48
320.63	90.11
320.843	16.38
321.057	55.3
321.27	-28.67
321.483	40.96
321.697	38.91
321.91	86.01
322.124	81.92
322.337	-10.24
322.55	26.62
322.763	47.1
322.977	36.86
323.19	34.82
323.403	71.68
323.617	18.43
323.83	20.48
324.043	-12.29
324.256	49.15
324.469	-12.29
324.683	69.63
324.896	12.29
325.109	6.14
325.322	-32.77
325.535	28.67
325.748	61.44
325.962	12.29
326.175	-36.86
326.388	28.67
326.601	20.48
326.814	59.39
327.027	-10.24
327.24	67.58
327.453	22.53
327.666	57.34
327.879	2.05
328.092	18.43
328.305	12.29
328.518	67.58
328.731	47.1
328.944	59.39
329.157	-32.77
329.37	2.05
329.583	0
329.796	57.34
330.009	0
330.222	51.2
330.435	22.53
330.648	73.73
330.861	14.34
331.073	24.58
331.286	24.58
331.499	88.06
331.712	47.1
331.925	86.01
332.138	26.62
332.35	8.19
332.563	12.29
332.776	65.54
332.989	-4.1
333.202	61.44
333.414	24.58
333.627	65.54
333.84	12.29
334.053	118.78
334.265	36.86
334.478	61.44
334.691	34.82
334.903	77.82
335.116	-6.14
335.329	2.05
335.541	10.24
335.754	69.63
335.966	-12.29
336.179	-26.62
336.392	-14.34
336.604	4.1
336.817	38.91
337.029	59.39
337.242	57.34
337.454	-6.14
337.667	28.67
337.88	86.01
338.092	57.34
338.305	51.2
338.517	65.54
338.729	20.48
338.942	86.01
339.154	-20.48
339.367	0
339.579	-8.19
339.792	47.1
340.004	45.06
340.217	63.49
340.429	30.72
340.641	-4.1
340.854	-2.05
341.066	-49.15
341.278	28.67
341.491	-12.29
341.703	14.34
341.915	61.44
342.128	4.1
342.34	102.4
342.552	63.49
342.764	30.72
342.977	-45.06
343.189	0
343.401	53.25
343.613	28.67
343.826	53.25
344.038	18.43
344.25	30.72
344.462	88.06
344.674	40.96
344.886	-26.62
345.099	30.72
345.311	98.3
345.523	38.91
345.735	-28.67
345.947	71.68
346.159	-24.58
346.371	102.4
346.583	32.77
346.795	79.87
347.007	-28.67
347.219	-14.34
347.431	45.06
347.643	53.25
347.855	65.54
348.067	32.77
348.279	10.24
348.491	49.15
348.703	55.3
348.915	18.43
349.127	24.58
349.339	34.82
349.551	36.86
349.763	69.63
349.975	77.82
350.187	77.82
350.399	61.44
350.61	79.87
350.822	61.44
351.034	18.43
351.246	53.25
351.458	10.24
351.669	-12.29
351.881	-24.58
352.093	73.73
352.305	-8.19
352.517	38.91
352.728	75.77
352.94	16.38
353.152	79.87
353.363	-12.29
353.575	43.01
353.787	36.86
353.999	16.38
354.21	45.06
354.422	75.77
354.633	-12.29
354.845	59.39
355.057	-20.48
355.268	81.92
355.48	10.24
355.692	14.34
355.903	14.34
356.115	90.11
356.326	-2.05
356.538	57.34
356.749	73.73
356.961	63.49
357.172	28.67
357.384	-10.24
357.595	92.16
357.807	30.72
358.018	-10.24
358.23	-4.1
358.441	26.62
358.653	26.62
358.864	69.63
359.075	28.67
359.287	59.39
359.498	94.21
359.709	98.3
359.921	-16.38
360.132	49.15
360.344	67.58
360.555	79.87
360.766	110.59
360.977	28.67
361.189	90.11
361.4	-4.1
361.611	47.1
361.823	133.12
362.034	0
362.245	-14.34
362.456	28.67
362.667	-79.87
362.879	36.86
363.09	65.54
363.301	69.63
363.512	67.58
363.723	69.63
363.935	100.35
364.146	63.49
364.357	28.67
364.568	20.48
364.779	28.67
364.99	32.77
365.201	55.3
365.412	49.15
365.623	51.2
365.834	124.93
366.045	0
366.256	22.53
366.467	61.44
366.678	4.1
366.889	28.67
367.1	34.82
367.311	2.05
367.522	63.49
367.733	75.77
367.944	75.77
368.155	24.58
368.366	112.64
368.577	12.29
368.788	61.44
368.999	26.62
369.209	-2.05
369.42	98.3
369.631	36.86
369.842	22.53
370.053	-8.19
370.264	38.91
370.474	49.15
370.685	100.35
370.896	57.34
371.107	34.82
371.317	-40.96
371.528	53.25
371.739	67.58
371.95	86.01
372.16	36.86
372.371	49.15
372.582	47.1
372.792	86.01
373.003	0
373.214	53.25
373.424	-4.1
373.635	86.01
373.846	120.83
374.056	86.01
374.267	94.21
374.477	55.3
374.688	22.53
374.898	32.77
375.109	38.91
375.319	26.62
375.53	2.05
375.74	20.48
375.951	-10.24
376.161	73.73
376.372	51.2
376.582	51.2
376.793	143.36
377.003	-8.19
377.214	-10.24
377.424	43.01
377.635	61.44
377.845	47.1
378.055	108.54
378.266	32.77
378.476	86.01
378.686	34.82
378.897	49.15
379.107	8.19
379.317	86.01
379.528	32.77
379.738	14.34
379.948	53.25
380.158	71.68
380.369	-18.43
380.579	6.14
380.789	20.48
380.999	12.29
381.21	2.05
381.42	94.21
381.63	49.15
381.84	110.59
382.05	-20.48
382.261	32.77
382.471	73.73
382.681	-10.24
382.891	49.15
383.101	141.31
383.311	-12.29
383.521	57.34
383.731	116.73
383.941	100.35
384.151	49.15
384.361	57.34
384.571	69.63
384.781	108.54
384.991	147.45
385.201	75.77
385.411	59.39
385.621	77.82
385.831	36.86
386.041	18.43
386.251	16.38
386.461	36.86
386.671	30.72
386.881	120.83
387.091	67.58
387.301	79.87
387.511	4.1
387.72	2.05
387.93	59.39
388.14	75.77
388.35	36.86
388.56	65.54
388.769	40.96
388.979	36.86
389.189	-4.1
389.399	45.06
389.609	88.06
389.818	4.1
390.028	81.92
390.238	102.4
390.447	-26.62
390.657	94.21
390.867	118.78
391.076	61.44
391.286	32.77
391.496	38.91
391.705	47.1
391.915	20.48
392.125	20.48
392.334	43.01
392.544	126.97
392.753	69.63
392.963	57.34
393.172	135.17
393.382	43.01
393.591	43.01
393.801	77.82
394.01	77.82
394.22	90.11
394.429	49.15
394.639	137.21
394.848	96.25
395.058	26.62
395.267	63.49
395.477	90.11
395.686	143.36
395.895	98.3
396.105	174.08
396.314	112.64
396.524	106.49
396.733	100.35
396.942	16.38
397.152	65.54
397.361	141.31
397.57	100.35
397.78	45.06
397.989	86.01
398.198	106.49
398.407	139.26
398.617	108.54
398.826	155.65
399.035	67.58
399.244	116.73
399.453	90.11
399.663	98.3
399.872	139.26
400.081	73.73
400.29	106.49
400.499	43.01
400.708	163.84
400.917	112.64
401.127	67.58
401.336	135.17
401.545	129.02
401.754	118.78
401.963	116.73
402.172	51.2
402.381	116.73
402.59	145.41
402.799	83.97
403.008	153.6
403.217	149.5
403.426	233.47
403.635	143.36
403.844	184.32
404.053	155.65
404.262	206.84
404.471	192.51
404.68	45.06
404.888	151.55
405.097	149.5
405.306	118.78
405.515	186.37
405.724	233.47
405.933	221.18
406.142	219.13
406.35	237.56
406.559	241.66
406.768	223.23
406.977	278.52
407.185	249.85
407.394	206.84
407.603	161.79
407.812	268.28
408.02	274.43
408.229	258.04
408.438	270.33
408.646	282.62
408.855	327.68
409.064	294.91
409.272	329.72
409.481	362.49
409.69	299
409.898	256
410.107	389.11
410.315	264.19
410.524	292.86
410.733	364.54
410.941	360.44
411.15	317.44
411.358	454.65
411.567	507.9
411.775	436.22
411.984	450.55
412.192	503.8
412.401	524.28
412.609	569.34
412.818	536.57
413.026	641.01
413.234	591.86
413.443	591.86
413.651	555
413.86	581.62
414.068	659.45
414.276	694.26
414.485	704.5
414.693	829.43
414.901	794.61
415.11	817.14
415.318	786.42
415.526	835.57
415.734	985.07
415.943	985.07
416.151	933.87
416.359	1023.98
416.567	999.41
416.776	1060.85
416.984	1052.66
417.192	1118.19
417.4	1185.77
417.608	1189.87
417.817	1198.06
418.025	1380.33
418.233	1431.53
418.441	1372.14
418.649	1409
418.857	1495.02
419.065	1445.87
419.273	1482.73
419.481	1568.74
419.689	1722.34
419.897	1789.92
420.105	1777.64
420.313	1884.13
420.521	1916.9
420.729	1814.5
420.937	1978.34
421.145	2090.98
421.353	2181.09
421.561	2308.06
421.769	2367.45
421.977	2387.93
422.185	2396.12
422.393	2635.74
422.601	2695.13
422.809	2711.51
423.017	2699.22
423.224	2904.02
423.432	3022.8
423.64	3067.86
423.848	3278.8
424.056	3180.5
424.263	3452.88
424.471	3395.53
424.679	3534.79
424.887	3497.93
425.094	3813.32
425.302	3839.94
425.51	3903.43
425.718	4079.55
425.925	4112.32
426.133	4134.85
426.341	4442.04
426.548	4644.79
426.756	4749.24
426.964	4669.37
427.171	4986.8
427.379	5052.34
427.586	5119.92
427.794	5459.88
428.001	5724.07
428.209	5973.92
428.417	5826.47
428.624	6324.13
428.832	6133.67
429.039	6262.69
429.247	6283.17
429.454	6772.63
429.662	7024.53
429.869	6913.94
430.076	7204.75
430.284	7034.77
430.491	7448.46
430.699	7831.43
430.906	7931.78
431.114	7956.36
431.321	8187.78
431.528	8265.6
431.736	9015.16
431.943	9176.95
432.15	9023.35
432.358	9015.16
432.565	9611.12
432.772	9551.73
432.979	10012.52
433.187	10395.49
433.394	10233.7
433.601	11145.05
433.808	10932.06
434.016	11122.52
434.223	11229.01
434.43	12158.79
434.637	11872.07
434.844	12615.49
435.052	13002.55
435.259	12752.7
435.466	12965.69
435.673	12597.06
435.88	13672.24
436.087	14368.55
436.294	14352.16
436.501	14004.01
436.708	14309.16
436.915	14851.87
437.122	15281.94
437.329	15294.23
437.537	15752.98
437.743	15947.53
437.95	15841.04
438.157	16807.68
438.364	17383.16
438.571	17260.28
438.778	17041.15
438.985	18972.38
439.192	18587.36
439.399	18863.84
439.606	18556.64
439.813	19437.27
440.02	20520.65
440.227	20381.38
440.433	19777.23
440.64	20614.85
440.847	20711.11
441.054	21188.28
441.261	22240.94
441.467	21986.99
441.674	22605.48
441.881	23449.24
442.088	23309.98
442.294	23383.71
442.501	24059.54
442.708	24223.37
442.914	25292.41
443.121	25982.58
443.328	25697.91
443.534	27133.54
443.741	26556.01
443.948	26328.69
444.154	28382.8
444.361	27948.63
444.568	28237.39
444.774	28556.88
444.981	28726.86
445.187	29222.47
445.394	30834.22
445.6	29992.5
445.807	33388.03
446.013	31620.64
446.22	32179.73
446.426	33713.66
446.633	33560.06
446.839	34598.38
447.046	33566.21
447.252	35190.25
447.459	35190.25
447.665	34760.17
447.871	36511.19
448.078	37795.26
448.284	36398.55
448.491	37393.86
448.697	38862.25
448.903	39249.32
449.11	39353.77
449.316	38516.15
449.522	39550.37
449.728	40250.78
449.935	40293.79
450.141	40639.89
450.347	41692.55
450.553	39980.45
450.76	40527.25
450.966	41530.76
451.172	41489.8
451.378	42100.09
451.584	41457.03
451.791	42382.71
451.997	42108.29
452.203	42759.54
452.409	42943.86
452.615	42659.19
452.821	41092.49
453.027	41006.48
453.233	42847.6
453.44	40756.63
453.646	41299.34
453.852	41196.94
454.058	42116.48
454.264	40496.53
454.47	41581.96
454.676	40865.17
454.882	41739.65
455.088	38393.27
455.294	39105.96
455.5	39488.93
455.705	39919.01
455.911	37977.53
456.117	37238.22
456.323	36845.01
456.529	34657.78
456.735	36173.27
456.941	35438.05
457.147	34723.31
457.352	33826.3
457.558	33162.76
457.764	33668.61
457.97	32368.15
458.176	32187.92
458.381	32005.66
458.587	30398
458.793	30488.11
458.999	28802.63
459.204	30846.51
459.41	30137.91
459.616	28145.23
459.821	28096.08
460.027	27956.82
460.233	27350.62
460.438	26121.84
460.644	26474.09
460.85	25257.6
461.055	25038.47
461.261	24755.85
461.466	22902.43
461.672	22347.43
461.878	23889.56
462.083	22435.5
462.289	21997.23
462.494	21649.08
462.7	20647.62
462.905	19914.45
463.111	21049.02
463.316	21089.98
463.522	20440.78
463.727	20432.58
463.932	20399.82
464.138	20276.94
464.343	20285.13
464.549	19891.92
464.754	20430.54
464.959	20334.28
465.165	20201.16
465.37	19369.69
465.575	18755.3
465.781	19429.08
465.986	19666.64
466.191	18661.09
466.397	18560.74
466.602	17833.71
466.807	18466.53
467.012	18355.94
467.218	18222.83
467.423	18212.59
467.628	18138.86
467.833	19125.98
468.038	18487.01
