Data from USB4F104151__15__11-04-48-954.txt Node

Date: Wed Mar 12 11:04:48 EDT 2025
User: louis
Spectrometer: USB4F10415
Trigger mode: 4
Integration Time (sec): 2.000000E-2
Scans to average: 1
Electric dark correction enabled: true
Nonlinearity correction enabled: false
Boxcar width: 0
XAxis mode: Wavelengths
Number of Pixels in Spectrum: 3648
>>>>>Begin Spectral Data<<<<<
178.204	-61.95
178.424	-61.95
178.644	-61.95
178.864	-35.33
179.084	-59.9
179.304	7.68
179.524	-53.76
179.744	-45.57
179.964	65.02
180.184	28.16
180.404	71.17
180.624	-29.18
180.844	42.5
181.064	-45.57
181.283	-14.85
181.503	-33.28
181.723	7.68
181.943	1.54
182.163	54.78
182.383	-43.52
182.602	52.74
182.822	54.78
183.042	42.5
183.262	-16.9
183.482	-16.9
183.701	-25.09
183.921	-43.52
184.141	-10.75
184.361	32.26
184.58	38.4
184.8	-27.14
185.02	83.45
185.239	34.3
185.459	5.63
185.679	85.5
185.898	17.92
186.118	-29.18
186.338	36.35
186.557	69.12
186.777	-41.47
186.997	9.73
187.216	46.59
187.436	-41.47
187.655	28.16
187.875	3.58
188.095	-23.04
188.314	38.4
188.534	89.6
188.753	60.93
188.973	46.59
189.192	75.26
189.412	15.87
189.631	-86.53
189.851	-18.94
190.07	89.6
190.29	48.64
190.509	54.78
190.729	17.92
190.948	1.54
191.168	85.5
191.387	67.07
191.607	-4.61
191.826	89.6
192.045	7.68
192.265	69.12
192.484	7.68
192.704	-18.94
192.923	-16.9
193.142	40.45
193.362	11.78
193.581	67.07
193.8	69.12
194.02	50.69
194.239	50.69
194.458	17.92
194.678	-2.56
194.897	7.68
195.116	-16.9
195.335	13.82
195.555	3.58
195.774	13.82
195.993	15.87
196.212	46.59
196.432	-6.66
196.651	85.5
196.87	-6.66
197.089	79.36
197.308	-2.56
197.528	46.59
197.747	44.54
197.966	36.35
198.185	-25.09
198.404	-4.61
198.623	3.58
198.842	54.78
199.062	95.74
199.281	48.64
199.5	-2.56
199.719	28.16
199.938	50.69
200.157	13.82
200.376	67.07
200.595	73.21
200.814	-31.23
201.033	83.45
201.252	-18.94
201.471	58.88
201.69	9.73
201.909	75.26
202.128	50.69
202.347	40.45
202.566	19.97
202.785	32.26
203.004	22.02
203.223	28.16
203.442	52.74
203.661	-29.18
203.879	42.5
204.098	34.3
204.317	62.98
204.536	7.68
204.755	32.26
204.974	3.58
205.193	-23.04
205.411	34.3
205.63	13.82
205.849	-6.66
206.068	22.02
206.287	77.31
206.505	24.06
206.724	26.11
206.943	-31.23
207.162	-18.94
207.381	52.74
207.599	13.82
207.818	91.65
208.037	-37.38
208.255	32.26
208.474	77.31
208.693	-18.94
208.911	44.54
209.13	22.02
209.349	13.82
209.567	11.78
209.786	83.45
210.005	9.73
210.223	-49.66
210.442	-12.8
210.661	-51.71
210.879	24.06
211.098	65.02
211.316	-6.66
211.535	-2.56
211.753	-0.51
211.972	-59.9
212.191	7.68
212.409	-4.61
212.628	40.45
212.846	93.69
213.065	42.5
213.283	26.11
213.502	-0.51
213.72	36.35
213.938	-25.09
214.157	17.92
214.375	24.06
214.594	-16.9
214.812	-10.75
215.031	26.11
215.249	28.16
215.467	11.78
215.686	-12.8
215.904	110.08
216.122	17.92
216.341	11.78
216.559	87.55
216.778	26.11
216.996	77.31
217.214	42.5
217.432	36.35
217.651	99.84
217.869	-35.33
218.087	54.78
218.306	-25.09
218.524	56.83
218.742	-14.85
218.96	60.93
219.179	7.68
219.397	46.59
219.615	15.87
219.833	7.68
220.051	-6.66
220.27	32.26
220.488	3.58
220.706	56.83
220.924	-0.51
221.142	-78.33
221.36	40.45
221.578	71.17
221.796	-31.23
222.015	32.26
222.233	32.26
222.451	46.59
222.669	62.98
222.887	7.68
223.105	-4.61
223.323	60.93
223.541	-25.09
223.759	34.3
223.977	-2.56
224.195	13.82
224.413	48.64
224.631	19.97
224.849	24.06
225.067	79.36
225.285	5.63
225.503	34.3
225.721	-6.66
225.939	38.4
226.157	15.87
226.375	60.93
226.592	1.54
226.81	15.87
227.028	34.3
227.246	46.59
227.464	17.92
227.682	26.11
227.9	-45.57
228.117	91.65
228.335	28.16
228.553	85.5
228.771	42.5
228.989	36.35
229.206	93.69
229.424	73.21
229.642	-14.85
229.86	40.45
230.077	3.58
230.295	44.54
230.513	42.5
230.731	62.98
230.948	13.82
231.166	30.21
231.384	-43.52
231.601	-14.85
231.819	50.69
232.037	11.78
232.254	-29.18
232.472	89.6
232.689	-31.23
232.907	-25.09
233.125	105.98
233.342	26.11
233.56	40.45
233.777	46.59
233.995	7.68
234.213	26.11
234.43	40.45
234.648	24.06
234.865	83.45
235.083	50.69
235.3	9.73
235.518	77.31
235.735	24.06
235.953	-8.7
236.17	40.45
236.388	7.68
236.605	-25.09
236.822	1.54
237.04	85.5
237.257	-12.8
237.475	110.08
237.692	13.82
237.909	-43.52
238.127	-29.18
238.344	-18.94
238.562	101.89
238.779	1.54
238.996	28.16
239.214	36.35
239.431	22.02
239.648	24.06
239.865	-0.51
240.083	30.21
240.3	40.45
240.517	13.82
240.735	28.16
240.952	15.87
241.169	73.21
241.386	91.65
241.603	79.36
241.821	28.16
242.038	30.21
242.255	-29.18
242.472	13.82
242.689	36.35
242.907	38.4
243.124	11.78
243.341	-31.23
243.558	56.83
243.775	-35.33
243.992	36.35
244.209	79.36
244.426	65.02
244.643	105.98
244.86	19.97
245.078	-43.52
245.295	30.21
245.512	38.4
245.729	5.63
245.946	19.97
246.163	-25.09
246.38	-43.52
246.597	30.21
246.814	-39.42
247.031	9.73
247.248	58.88
247.464	50.69
247.681	-14.85
247.898	22.02
248.115	58.88
248.332	-43.52
248.549	71.17
248.766	122.37
248.983	15.87
249.2	-31.23
249.417	52.74
249.633	15.87
249.85	24.06
250.067	9.73
250.284	32.26
250.501	28.16
250.717	30.21
250.934	-18.94
251.151	11.78
251.368	19.97
251.585	17.92
251.801	52.74
252.018	7.68
252.235	44.54
252.451	-20.99
252.668	42.5
252.885	17.92
253.102	-70.14
253.318	22.02
253.535	11.78
253.752	26.11
253.968	7.68
254.185	38.4
254.401	42.5
254.618	71.17
254.835	-16.9
255.051	69.12
255.268	36.35
255.484	38.4
255.701	48.64
255.917	-4.61
256.134	17.92
256.351	112.13
256.567	5.63
256.784	38.4
257	22.02
257.217	24.06
257.433	101.89
257.65	62.98
257.866	79.36
258.082	32.26
258.299	36.35
258.515	69.12
258.732	-35.33
258.948	38.4
259.165	3.58
259.381	32.26
259.597	9.73
259.814	13.82
260.03	36.35
260.246	52.74
260.463	56.83
260.679	30.21
260.895	44.54
261.112	85.5
261.328	-27.14
261.544	62.98
261.761	126.46
261.977	83.45
262.193	48.64
262.409	146.94
262.626	48.64
262.842	-12.8
263.058	56.83
263.274	38.4
263.49	9.73
263.707	46.59
263.923	22.02
264.139	34.3
264.355	-14.85
264.571	13.82
264.787	13.82
265.004	69.12
265.22	54.78
265.436	13.82
265.652	5.63
265.868	11.78
266.084	17.92
266.3	15.87
266.516	13.82
266.732	65.02
266.948	99.84
267.164	-20.99
267.38	5.63
267.596	36.35
267.812	136.7
268.028	91.65
268.244	-20.99
268.46	9.73
268.676	26.11
268.892	85.5
269.108	-2.56
269.324	-35.33
269.54	22.02
269.756	32.26
269.972	24.06
270.188	32.26
270.403	13.82
270.619	79.36
270.835	62.98
271.051	24.06
271.267	60.93
271.483	60.93
271.698	28.16
271.914	30.21
272.13	-2.56
272.346	17.92
272.562	56.83
272.777	-8.7
272.993	3.58
273.209	-10.75
273.425	32.26
273.64	60.93
273.856	71.17
274.072	36.35
274.287	-55.81
274.503	101.89
274.719	48.64
274.934	38.4
275.15	-51.71
275.366	-8.7
275.581	19.97
275.797	-4.61
276.012	28.16
276.228	-29.18
276.444	56.83
276.659	36.35
276.875	67.07
277.09	19.97
277.306	32.26
277.521	97.79
277.737	-6.66
277.952	-33.28
278.168	46.59
278.383	38.4
278.599	95.74
278.814	69.12
279.03	97.79
279.245	22.02
279.461	52.74
279.676	46.59
279.892	40.45
280.107	32.26
280.322	7.68
280.538	75.26
280.753	36.35
280.969	44.54
281.184	-31.23
281.399	89.6
281.615	-14.85
281.83	15.87
282.045	-16.9
282.26	110.08
282.476	3.58
282.691	-2.56
282.906	36.35
283.122	81.41
283.337	46.59
283.552	69.12
283.767	50.69
283.983	19.97
284.198	-25.09
284.413	13.82
284.628	-35.33
284.843	87.55
285.058	52.74
285.274	5.63
285.489	-0.51
285.704	48.64
285.919	7.68
286.134	65.02
286.349	-2.56
286.564	19.97
286.779	99.84
286.995	44.54
287.21	-29.18
287.425	44.54
287.64	11.78
287.855	-2.56
288.07	-57.86
288.285	44.54
288.5	-31.23
288.715	-14.85
288.93	58.88
289.145	15.87
289.36	108.03
289.575	-33.28
289.79	46.59
290.004	-53.76
290.219	22.02
290.434	34.3
290.649	28.16
290.864	46.59
291.079	60.93
291.294	69.12
291.509	-102.91
291.724	48.64
291.938	65.02
292.153	1.54
292.368	17.92
292.583	46.59
292.798	52.74
293.012	-14.85
293.227	3.58
293.442	69.12
293.657	75.26
293.871	75.26
294.086	22.02
294.301	60.93
294.516	5.63
294.73	-18.94
294.945	15.87
295.16	40.45
295.374	-16.9
295.589	3.58
295.804	28.16
296.018	28.16
296.233	77.31
296.447	50.69
296.662	17.92
296.877	65.02
297.091	3.58
297.306	-18.94
297.52	36.35
297.735	-20.99
297.949	71.17
298.164	85.5
298.378	40.45
298.593	-20.99
298.807	97.79
299.022	13.82
299.236	-25.09
299.451	19.97
299.665	-6.66
299.88	48.64
300.094	28.16
300.309	40.45
300.523	7.68
300.737	34.3
300.952	73.21
301.166	24.06
301.381	7.68
301.595	19.97
301.809	89.6
302.024	-0.51
302.238	65.02
302.452	56.83
302.667	-4.61
302.881	67.07
303.095	60.93
303.309	19.97
303.524	28.16
303.738	-82.43
303.952	42.5
304.166	75.26
304.381	36.35
304.595	-8.7
304.809	46.59
305.023	-8.7
305.237	58.88
305.452	24.06
305.666	1.54
305.88	56.83
306.094	-4.61
306.308	87.55
306.522	19.97
306.736	79.36
306.95	13.82
307.164	60.93
307.379	36.35
307.593	26.11
307.807	34.3
308.021	50.69
308.235	85.5
308.449	81.41
308.663	42.5
308.877	93.69
309.091	-8.7
309.305	126.46
309.519	32.26
309.733	-16.9
309.947	-45.57
310.161	54.78
310.374	-2.56
310.588	28.16
310.802	9.73
311.016	44.54
311.23	32.26
311.444	7.68
311.658	-4.61
311.872	3.58
312.085	118.27
312.299	81.41
312.513	9.73
312.727	56.83
312.941	-18.94
313.154	-64
313.368	-51.71
313.582	60.93
313.796	-0.51
314.009	-20.99
314.223	-16.9
314.437	17.92
314.651	44.54
314.864	-16.9
315.078	79.36
315.292	-0.51
315.505	13.82
315.719	67.07
315.933	26.11
316.146	19.97
316.36	-37.38
316.573	36.35
316.787	13.82
317.001	11.78
317.214	77.31
317.428	15.87
317.641	5.63
317.855	40.45
318.068	-8.7
318.282	28.16
318.495	101.89
318.709	91.65
318.922	13.82
319.136	87.55
319.349	3.58
319.563	148.99
319.776	42.5
319.99	13.82
320.203	26.11
320.417	87.55
320.63	89.6
320.843	-4.61
321.057	38.4
321.27	-8.7
321.483	65.02
321.697	126.46
321.91	46.59
322.124	52.74
322.337	36.35
322.55	-31.23
322.763	19.97
322.977	-4.61
323.19	69.12
323.403	83.45
323.617	42.5
323.83	48.64
324.043	3.58
324.256	83.45
324.469	34.3
324.683	36.35
324.896	-12.8
325.109	103.93
325.322	-12.8
325.535	19.97
325.748	87.55
325.962	-23.04
326.175	17.92
326.388	-8.7
326.601	-10.75
326.814	69.12
327.027	-18.94
327.24	52.74
327.453	-45.57
327.666	69.12
327.879	-39.42
328.092	38.4
328.305	50.69
328.518	24.06
328.731	13.82
328.944	-84.48
329.157	3.58
329.37	89.6
329.583	17.92
329.796	103.93
330.009	24.06
330.222	24.06
330.435	56.83
330.648	36.35
330.861	56.83
331.073	15.87
331.286	-4.61
331.499	30.21
331.712	22.02
331.925	38.4
332.138	48.64
332.35	79.36
332.563	36.35
332.776	48.64
332.989	-59.9
333.202	103.93
333.414	87.55
333.627	44.54
333.84	73.21
334.053	54.78
334.265	46.59
334.478	-10.75
334.691	9.73
334.903	46.59
335.116	-43.52
335.329	-35.33
335.541	3.58
335.754	62.98
335.966	42.5
336.179	3.58
336.392	9.73
336.604	7.68
336.817	46.59
337.029	1.54
337.242	11.78
337.454	75.26
337.667	-16.9
337.88	58.88
338.092	36.35
338.305	38.4
338.517	153.09
338.729	26.11
338.942	36.35
339.154	62.98
339.367	36.35
339.579	132.61
339.792	13.82
340.004	40.45
340.217	-64
340.429	69.12
340.641	44.54
340.854	54.78
341.066	24.06
341.278	-0.51
341.491	50.69
341.703	36.35
341.915	-2.56
342.128	101.89
342.34	24.06
342.552	60.93
342.764	42.5
342.977	24.06
343.189	136.7
343.401	7.68
343.613	24.06
343.826	112.13
344.038	19.97
344.25	69.12
344.462	-45.57
344.674	-6.66
344.886	15.87
345.099	69.12
345.311	28.16
345.523	38.4
345.735	24.06
345.947	56.83
346.159	36.35
346.371	7.68
346.583	17.92
346.795	42.5
347.007	19.97
347.219	44.54
347.431	32.26
347.643	15.87
347.855	11.78
348.067	-6.66
348.279	5.63
348.491	89.6
348.703	60.93
348.915	-4.61
349.127	22.02
349.339	-4.61
349.551	26.11
349.763	-8.7
349.975	46.59
350.187	79.36
350.399	24.06
350.61	9.73
350.822	44.54
351.034	42.5
351.246	30.21
351.458	89.6
351.669	3.58
351.881	52.74
352.093	60.93
352.305	56.83
352.517	24.06
352.728	120.32
352.94	-27.14
353.152	28.16
353.363	24.06
353.575	71.17
353.787	38.4
353.999	-25.09
354.21	-29.18
354.422	7.68
354.633	85.5
354.845	44.54
355.057	19.97
355.268	116.22
355.48	56.83
355.692	3.58
355.903	-2.56
356.115	15.87
356.326	-14.85
356.538	65.02
356.749	-64
356.961	122.37
357.172	40.45
357.384	-4.61
357.595	44.54
357.807	24.06
358.018	30.21
358.23	26.11
358.441	65.02
358.653	81.41
358.864	79.36
359.075	22.02
359.287	26.11
359.498	26.11
359.709	26.11
359.921	9.73
360.132	-6.66
360.344	42.5
360.555	26.11
360.766	75.26
360.977	48.64
361.189	81.41
361.4	54.78
361.611	79.36
361.823	48.64
362.034	50.69
362.245	11.78
362.456	48.64
362.667	30.21
362.879	22.02
363.09	24.06
363.301	87.55
363.512	-8.7
363.723	65.02
363.935	-4.61
364.146	30.21
364.357	42.5
364.568	-27.14
364.779	36.35
364.99	60.93
365.201	77.31
365.412	50.69
365.623	73.21
365.834	24.06
366.045	19.97
366.256	56.83
366.467	24.06
366.678	44.54
366.889	34.3
367.1	38.4
367.311	48.64
367.522	30.21
367.733	103.93
367.944	108.03
368.155	30.21
368.366	11.78
368.577	69.12
368.788	13.82
368.999	67.07
369.209	11.78
369.42	120.32
369.631	56.83
369.842	40.45
370.053	28.16
370.264	75.26
370.474	-35.33
370.685	-6.66
370.896	60.93
371.107	32.26
371.317	65.02
371.528	19.97
371.739	75.26
371.95	11.78
372.16	91.65
372.371	-64
372.582	48.64
372.792	9.73
373.003	91.65
373.214	13.82
373.424	-57.86
373.635	1.54
373.846	48.64
374.056	28.16
374.267	46.59
374.477	54.78
374.688	7.68
374.898	19.97
375.109	9.73
375.319	-0.51
375.53	15.87
375.74	110.08
375.951	-29.18
376.161	56.83
376.372	42.5
376.582	-61.95
376.793	60.93
377.003	58.88
377.214	52.74
377.424	71.17
377.635	79.36
377.845	60.93
378.055	5.63
378.266	-8.7
378.476	85.5
378.686	28.16
378.897	60.93
379.107	7.68
379.317	11.78
379.528	3.58
379.738	56.83
379.948	-10.75
380.158	103.93
380.369	36.35
380.579	-18.94
380.789	-41.47
380.999	-29.18
381.21	48.64
381.42	108.03
381.63	91.65
381.84	105.98
382.05	65.02
382.261	73.21
382.471	79.36
382.681	-20.99
382.891	44.54
383.101	30.21
383.311	-6.66
383.521	26.11
383.731	30.21
383.941	67.07
384.151	-25.09
384.361	7.68
384.571	69.12
384.781	24.06
384.991	9.73
385.201	97.79
385.411	32.26
385.621	19.97
385.831	-14.85
386.041	85.5
386.251	-0.51
386.461	5.63
386.671	9.73
386.881	62.98
387.091	48.64
387.301	34.3
387.511	-29.18
387.72	-18.94
387.93	-27.14
388.14	-8.7
388.35	99.84
388.56	9.73
388.769	34.3
388.979	26.11
389.189	-45.57
389.399	48.64
389.609	32.26
389.818	46.59
390.028	114.17
390.238	103.93
390.447	103.93
390.657	83.45
390.867	65.02
391.076	32.26
391.286	3.58
391.496	65.02
391.705	71.17
391.915	101.89
392.125	-53.76
392.334	36.35
392.544	110.08
392.753	52.74
392.963	62.98
393.172	99.84
393.382	32.26
393.591	13.82
393.801	36.35
394.01	26.11
394.22	79.36
394.429	71.17
394.639	15.87
394.848	60.93
395.058	67.07
395.267	69.12
395.477	91.65
395.686	130.56
395.895	85.5
396.105	93.69
396.314	136.7
396.524	99.84
396.733	56.83
396.942	85.5
397.152	60.93
397.361	62.98
397.57	-23.04
397.78	132.61
397.989	85.5
398.198	87.55
398.407	81.41
398.617	79.36
398.826	97.79
399.035	56.83
399.244	85.5
399.453	138.75
399.663	108.03
399.872	85.5
400.081	-2.56
400.29	130.56
400.499	22.02
400.708	101.89
400.917	50.69
401.127	126.46
401.336	62.98
401.545	138.75
401.754	130.56
401.963	183.81
402.172	85.5
402.381	114.17
402.59	60.93
402.799	124.41
403.008	153.09
403.217	81.41
403.426	79.36
403.635	103.93
403.844	124.41
404.053	130.56
404.262	48.64
404.471	52.74
404.68	58.88
404.888	22.02
405.097	93.69
405.306	36.35
405.515	124.41
405.724	116.22
405.933	157.18
406.142	83.45
406.35	114.17
406.559	46.59
406.768	105.98
406.977	220.67
407.185	132.61
407.394	110.08
407.603	108.03
407.812	210.43
408.02	169.47
408.229	181.76
408.438	140.8
408.646	161.28
408.855	91.65
409.064	157.18
409.272	161.28
409.481	198.14
409.69	171.52
409.898	128.51
410.107	200.19
410.315	185.85
410.524	239.1
410.733	325.12
410.941	192
411.15	245.24
411.358	257.53
411.567	259.58
411.775	257.53
411.984	339.45
412.192	357.88
412.401	212.48
412.609	364.03
412.818	364.03
413.026	286.2
413.234	265.72
413.443	325.12
413.651	341.5
413.86	331.26
414.068	374.27
414.276	437.75
414.485	384.51
414.693	441.85
414.901	566.78
415.11	499.19
415.318	450.04
415.526	466.42
415.734	497.14
415.943	564.73
416.151	495.1
416.359	542.2
416.567	581.11
416.776	527.86
416.984	605.69
417.192	732.66
417.4	656.89
417.608	658.93
417.817	671.22
418.025	681.46
418.233	783.86
418.441	736.76
418.649	835.06
418.857	863.73
419.065	857.59
419.273	884.21
419.481	861.68
419.689	1005.04
419.897	1060.34
420.105	937.46
420.313	1099.25
420.521	1086.96
420.729	1197.55
420.937	1215.98
421.145	1170.93
421.353	1308.14
421.561	1236.46
421.769	1314.28
421.977	1314.28
422.185	1263.08
422.393	1390.06
422.601	1498.6
422.809	1510.89
423.017	1478.12
423.224	1656.29
423.432	1693.16
423.64	1715.69
423.848	1770.98
424.056	1723.88
424.263	1891.81
424.471	1895.91
424.679	2016.74
424.887	2012.64
425.094	2170.33
425.302	2094.56
425.51	2287.07
425.718	2270.69
425.925	2352.6
426.133	2334.17
426.341	2541.02
426.548	2624.98
426.756	2674.14
426.964	2758.1
427.171	2837.97
427.379	2868.69
427.586	2874.84
427.794	3069.39
428.001	3204.56
428.209	3302.86
428.417	3218.89
428.624	3538.38
428.832	3507.66
429.039	3370.44
429.247	3591.63
429.454	3763.65
429.662	3896.77
429.869	3814.85
430.076	4021.7
430.284	3972.55
430.491	4124.1
430.699	4330.94
430.906	4451.77
431.114	4521.4
431.321	4605.37
431.528	4701.62
431.736	4965.81
431.943	5238.19
432.15	5100.98
432.358	5109.17
432.565	5547.44
432.772	5445.04
432.979	5629.35
433.187	5674.41
433.394	5746.09
433.601	6237.6
433.808	6215.07
434.016	6180.26
434.223	6370.72
434.43	6903.19
434.637	6743.45
434.844	7118.23
435.052	7087.51
435.259	7148.95
435.466	7296.4
435.673	7116.18
435.88	7576.97
436.087	7961.99
436.294	7863.69
436.501	7947.65
436.708	8146.31
436.915	8275.33
437.122	8875.38
437.329	8625.53
437.537	8963.45
437.743	8990.07
437.95	9094.52
438.157	9497.97
438.364	9631.09
438.571	9870.7
438.778	9821.55
438.985	10825.05
439.192	10429.79
439.399	10843.48
439.606	10403.17
439.813	10872.15
440.02	11588.94
440.227	11492.69
440.433	11304.28
440.64	11650.38
440.847	11715.92
441.054	12000.58
441.261	12889.4
441.467	12680.51
441.674	12864.83
441.881	13315.38
442.088	13309.24
442.294	13282.61
442.501	13598
442.708	13995.31
442.914	14538.02
443.121	14859.55
443.328	14570.79
443.534	15422.74
443.741	15334.68
443.948	15142.17
444.154	16379.14
444.361	16045.32
444.568	15934.73
444.774	16147.72
444.981	16166.15
445.187	16909.57
445.394	17394.93
445.6	17212.67
445.807	18908.38
446.013	18334.95
446.22	18189.55
446.426	19219.67
446.633	19137.76
446.839	20059.34
447.046	19113.18
447.252	19983.57
447.459	20098.25
447.665	20065.49
447.871	21140.67
448.078	21939.38
448.284	20741.32
448.491	21478.58
448.697	22105.26
448.903	22613.16
449.11	22668.45
449.316	22123.69
449.522	22625.45
449.728	23073.95
449.935	23213.21
450.141	23184.54
450.347	23805.08
450.553	23270.56
450.76	23303.32
450.966	23780.5
451.172	23608.47
451.378	24274.06
451.584	23997.59
451.791	24310.93
451.997	24458.38
452.203	24691.85
452.409	24736.9
452.615	24714.37
452.821	23680.15
453.027	23458.97
453.233	24433.8
453.44	23215.26
453.646	23561.37
453.852	23905.43
454.058	24196.24
454.264	23358.62
454.47	23981.2
454.676	23133.34
454.882	24515.72
455.088	21724.34
455.294	22357.16
455.5	22381.74
455.705	22758.56
455.911	21902.51
456.117	21388.47
456.323	20909.25
456.529	20032.72
456.735	20630.73
456.941	19950.8
457.147	19459.29
457.352	19221.72
457.558	19117.28
457.764	19064.03
457.97	18539.75
458.176	18195.69
458.381	18195.69
458.587	17329.4
458.793	17052.92
458.999	16420.1
459.204	17767.66
459.41	16809.22
459.616	15873.29
459.821	15885.58
460.027	15633.68
460.233	15576.34
460.438	14714.14
460.644	14757.15
460.85	14187.82
461.055	13864.24
461.261	14056.75
461.466	12999.99
461.672	12449.09
461.878	13423.92
462.083	12510.53
462.289	12299.59
462.494	12184.9
462.7	11412.82
462.905	11312.47
463.111	11654.48
463.316	11873.61
463.522	11507.02
463.727	11384.15
463.932	11535.7
464.138	11484.5
464.343	11412.82
464.549	11191.64
464.754	11674.96
464.959	11453.78
465.165	11349.33
465.37	10757.47
465.575	10614.11
465.781	11027.8
465.986	10945.88
466.191	10665.31
466.397	10476.9
466.602	9938.28
466.807	10292.58
467.012	10298.72
467.218	10081.64
467.423	10247.52
467.628	10399.07
467.833	10655.07
468.038	10241.38
468.244	10104.17
468.449	10349.92
468.654	9907.56
468.859	9946.47
