Data from USB4F104151__77__11-06-24-383.txt Node

Date: Wed Mar 12 11:06:24 EDT 2025
User: louis
Spectrometer: USB4F10415
Trigger mode: 4
Integration Time (sec): 2.000000E-2
Scans to average: 1
Electric dark correction enabled: true
Nonlinearity correction enabled: false
Boxcar width: 0
XAxis mode: Wavelengths
Number of Pixels in Spectrum: 3648
>>>>>Begin Spectral Data<<<<<
178.204	-86.01
178.424	-86.01
178.644	-86.01
178.864	-59.39
179.084	-94.21
179.304	-45.06
179.524	53.25
179.744	14.34
179.964	2.05
180.184	4.1
180.404	8.19
180.624	28.67
180.844	-26.62
181.064	-63.49
181.283	73.73
181.503	-30.72
181.723	-18.43
181.943	-47.1
182.163	100.35
182.383	51.2
182.602	88.06
182.822	14.34
183.042	8.19
183.262	22.53
183.482	43.01
183.701	22.53
183.921	24.58
184.141	28.67
184.361	79.87
184.58	-18.43
184.8	63.49
185.02	43.01
185.239	30.72
185.459	26.62
185.679	53.25
185.898	-18.43
186.118	51.2
186.338	16.38
186.557	43.01
186.777	34.82
186.997	0
187.216	6.14
187.436	69.63
187.655	10.24
187.875	73.73
188.095	38.91
188.314	4.1
188.534	-30.72
188.753	53.25
188.973	-6.14
189.192	28.67
189.412	47.1
189.631	-26.62
189.851	53.25
190.07	14.34
190.29	55.3
190.509	6.14
190.729	-4.1
190.948	71.68
191.168	104.45
191.387	18.43
191.607	57.34
191.826	8.19
192.045	6.14
192.265	65.54
192.484	100.35
192.704	18.43
192.923	-18.43
193.142	55.3
193.362	43.01
193.581	30.72
193.8	77.82
194.02	55.3
194.239	-10.24
194.458	32.77
194.678	79.87
194.897	49.15
195.116	63.49
195.335	-2.05
195.555	77.82
195.774	75.77
195.993	45.06
196.212	28.67
196.432	65.54
196.651	34.82
196.87	43.01
197.089	86.01
197.308	45.06
197.528	57.34
197.747	-30.72
197.966	100.35
198.185	12.29
198.404	12.29
198.623	-28.67
198.842	38.91
199.062	59.39
199.281	51.2
199.5	69.63
199.719	67.58
199.938	135.17
200.157	100.35
200.376	40.96
200.595	32.77
200.814	55.3
201.033	14.34
201.252	47.1
201.471	51.2
201.69	92.16
201.909	2.05
202.128	86.01
202.347	45.06
202.566	49.15
202.785	67.58
203.004	63.49
203.223	88.06
203.442	77.82
203.661	26.62
203.879	22.53
204.098	83.97
204.317	38.91
204.536	47.1
204.755	81.92
204.974	-6.14
205.193	55.3
205.411	63.49
205.63	40.96
205.849	88.06
206.068	-30.72
206.287	-49.15
206.505	73.73
206.724	69.63
206.943	0
207.162	18.43
207.381	155.65
207.599	45.06
207.818	53.25
208.037	10.24
208.255	55.3
208.474	-28.67
208.693	36.86
208.911	-6.14
209.13	77.82
209.349	63.49
209.567	-10.24
209.786	137.21
210.005	32.77
210.223	57.34
210.442	-12.29
210.661	28.67
210.879	30.72
211.098	28.67
211.316	-10.24
211.535	20.48
211.753	16.38
211.972	12.29
212.191	-75.77
212.409	77.82
212.628	-22.53
212.846	-20.48
213.065	38.91
213.283	-14.34
213.502	59.39
213.72	-26.62
213.938	49.15
214.157	-6.14
214.375	63.49
214.594	-8.19
214.812	22.53
215.031	24.58
215.249	59.39
215.467	86.01
215.686	26.62
215.904	2.05
216.122	12.29
216.341	14.34
216.559	-59.39
216.778	47.1
216.996	-8.19
217.214	14.34
217.432	53.25
217.651	24.58
217.869	36.86
218.087	47.1
218.306	51.2
218.524	110.59
218.742	-6.14
218.96	-32.77
219.179	43.01
219.397	45.06
219.615	59.39
219.833	71.68
220.051	96.25
220.27	100.35
220.488	71.68
220.706	6.14
220.924	16.38
221.142	26.62
221.36	18.43
221.578	47.1
221.796	0
222.015	38.91
222.233	47.1
222.451	86.01
222.669	43.01
222.887	81.92
223.105	2.05
223.323	-47.1
223.541	22.53
223.759	106.49
223.977	57.34
224.195	65.54
224.413	47.1
224.631	22.53
224.849	83.97
225.067	53.25
225.285	-4.1
225.503	77.82
225.721	2.05
225.939	-2.05
226.157	83.97
226.375	108.54
226.592	-59.39
226.81	14.34
227.028	61.44
227.246	69.63
227.464	28.67
227.682	55.3
227.9	36.86
228.117	63.49
228.335	81.92
228.553	69.63
228.771	77.82
228.989	61.44
229.206	83.97
229.424	16.38
229.642	14.34
229.86	51.2
230.077	81.92
230.295	63.49
230.513	-14.34
230.731	63.49
230.948	137.21
231.166	34.82
231.384	24.58
231.601	116.73
231.819	149.5
232.037	36.86
232.254	75.77
232.472	-67.58
232.689	-26.62
232.907	24.58
233.125	0
233.342	104.45
233.56	32.77
233.777	65.54
233.995	55.3
234.213	133.12
234.43	24.58
234.648	67.58
234.865	24.58
235.083	55.3
235.3	59.39
235.518	18.43
235.735	55.3
235.953	67.58
236.17	6.14
236.388	-32.77
236.605	88.06
236.822	-12.29
237.04	22.53
237.257	141.31
237.475	-55.3
237.692	133.12
237.909	118.78
238.127	-4.1
238.344	-6.14
238.562	108.54
238.779	4.1
238.996	16.38
239.214	-30.72
239.431	71.68
239.648	18.43
239.865	20.48
240.083	88.06
240.3	51.2
240.517	81.92
240.735	-55.3
240.952	98.3
241.169	55.3
241.386	83.97
241.603	-30.72
241.821	133.12
242.038	20.48
242.255	100.35
242.472	32.77
242.689	8.19
242.907	43.01
243.124	32.77
243.341	69.63
243.558	71.68
243.775	38.91
243.992	51.2
244.209	55.3
244.426	96.25
244.643	65.54
244.86	90.11
245.078	90.11
245.295	-10.24
245.512	59.39
245.729	12.29
245.946	24.58
246.163	63.49
246.38	79.87
246.597	22.53
246.814	2.05
247.031	-8.19
247.248	38.91
247.464	-6.14
247.681	77.82
247.898	104.45
248.115	34.82
248.332	-10.24
248.549	40.96
248.766	22.53
248.983	75.77
249.2	53.25
249.417	83.97
249.633	34.82
249.85	69.63
250.067	-6.14
250.284	69.63
250.501	-6.14
250.717	12.29
250.934	-34.82
251.151	53.25
251.368	47.1
251.585	43.01
251.801	30.72
252.018	102.4
252.235	83.97
252.451	34.82
252.668	-18.43
252.885	69.63
253.102	30.72
253.318	79.87
253.535	86.01
253.752	36.86
253.968	20.48
254.185	20.48
254.401	65.54
254.618	34.82
254.835	-2.05
255.051	110.59
255.268	51.2
255.484	18.43
255.701	55.3
255.917	86.01
256.134	71.68
256.351	-14.34
256.567	-49.15
256.784	-30.72
257	49.15
257.217	10.24
257.433	28.67
257.65	-10.24
257.866	83.97
258.082	43.01
258.299	51.2
258.515	20.48
258.732	40.96
258.948	28.67
259.165	81.92
259.381	16.38
259.597	129.02
259.814	71.68
260.03	61.44
260.246	26.62
260.463	32.77
260.679	38.91
260.895	67.58
261.112	43.01
261.328	47.1
261.544	55.3
261.761	116.73
261.977	88.06
262.193	43.01
262.409	-36.86
262.626	75.77
262.842	102.4
263.058	51.2
263.274	47.1
263.49	65.54
263.707	53.25
263.923	83.97
264.139	14.34
264.355	40.96
264.571	55.3
264.787	38.91
265.004	49.15
265.22	36.86
265.436	32.77
265.652	6.14
265.868	49.15
266.084	51.2
266.3	20.48
266.516	-45.06
266.732	-4.1
266.948	57.34
267.164	73.73
267.38	141.31
267.596	43.01
267.812	110.59
268.028	20.48
268.244	49.15
268.46	24.58
268.676	43.01
268.892	-4.1
269.108	32.77
269.324	32.77
269.54	38.91
269.756	43.01
269.972	69.63
270.188	-36.86
270.403	-24.58
270.619	10.24
270.835	53.25
271.051	81.92
271.267	-14.34
271.483	45.06
271.698	65.54
271.914	59.39
272.13	14.34
272.346	51.2
272.562	6.14
272.777	26.62
272.993	2.05
273.209	57.34
273.425	92.16
273.64	63.49
273.856	98.3
274.072	-40.96
274.287	26.62
274.503	43.01
274.719	86.01
274.934	0
275.15	4.1
275.366	79.87
275.581	-10.24
275.797	116.73
276.012	45.06
276.228	57.34
276.444	145.41
276.659	36.86
276.875	28.67
277.09	81.92
277.306	20.48
277.521	86.01
277.737	-18.43
277.952	98.3
278.168	45.06
278.383	102.4
278.599	-28.67
278.814	32.77
279.03	18.43
279.245	34.82
279.461	47.1
279.676	47.1
279.892	4.1
280.107	47.1
280.322	2.05
280.538	38.91
280.753	79.87
280.969	30.72
281.184	6.14
281.399	30.72
281.615	22.53
281.83	22.53
282.045	65.54
282.26	92.16
282.476	26.62
282.691	43.01
282.906	30.72
283.122	30.72
283.337	26.62
283.552	20.48
283.767	77.82
283.983	59.39
284.198	55.3
284.413	36.86
284.628	26.62
284.843	106.49
285.058	88.06
285.274	118.78
285.489	61.44
285.704	75.77
285.919	20.48
286.134	16.38
286.349	55.3
286.564	36.86
286.779	67.58
286.995	114.69
287.21	43.01
287.425	34.82
287.64	32.77
287.855	63.49
288.07	14.34
288.285	-2.05
288.5	43.01
288.715	90.11
288.93	77.82
289.145	-38.91
289.36	14.34
289.575	94.21
289.79	55.3
290.004	-20.48
290.219	43.01
290.434	55.3
290.649	43.01
290.864	-18.43
291.079	20.48
291.294	59.39
291.509	59.39
291.724	61.44
291.938	6.14
292.153	94.21
292.368	-12.29
292.583	-2.05
292.798	104.45
293.012	-12.29
293.227	61.44
293.442	24.58
293.657	100.35
293.871	124.93
294.086	100.35
294.301	75.77
294.516	38.91
294.73	10.24
294.945	32.77
295.16	12.29
295.374	79.87
295.589	112.64
295.804	53.25
296.018	-12.29
296.233	-63.49
296.447	86.01
296.662	55.3
296.877	34.82
297.091	79.87
297.306	40.96
297.52	45.06
297.735	12.29
297.949	38.91
298.164	69.63
298.378	43.01
298.593	45.06
298.807	47.1
299.022	108.54
299.236	114.69
299.451	18.43
299.665	34.82
299.88	75.77
300.094	61.44
300.309	-4.1
300.523	26.62
300.737	43.01
300.952	73.73
301.166	135.17
301.381	22.53
301.595	26.62
301.809	67.58
302.024	16.38
302.238	67.58
302.452	83.97
302.667	10.24
302.881	92.16
303.095	63.49
303.309	53.25
303.524	75.77
303.738	30.72
303.952	36.86
304.166	106.49
304.381	-24.58
304.595	63.49
304.809	47.1
305.023	71.68
305.237	88.06
305.452	14.34
305.666	90.11
305.88	104.45
306.094	63.49
306.308	69.63
306.522	57.34
306.736	92.16
306.95	63.49
307.164	26.62
307.379	34.82
307.593	59.39
307.807	92.16
308.021	6.14
308.235	-4.1
308.449	57.34
308.663	43.01
308.877	86.01
309.091	122.88
309.305	135.17
309.519	26.62
309.733	57.34
309.947	53.25
310.161	102.4
310.374	40.96
310.588	61.44
310.802	55.3
311.016	57.34
311.23	18.43
311.444	24.58
311.658	47.1
311.872	57.34
312.085	53.25
312.299	32.77
312.513	98.3
312.727	59.39
312.941	8.19
313.154	26.62
313.368	61.44
313.582	124.93
313.796	-6.14
314.009	75.77
314.223	28.67
314.437	24.58
314.651	6.14
314.864	28.67
315.078	71.68
315.292	75.77
315.505	51.2
315.719	81.92
315.933	34.82
316.146	16.38
316.36	90.11
316.573	88.06
316.787	65.54
317.001	49.15
317.214	22.53
317.428	88.06
317.641	57.34
317.855	139.26
318.068	69.63
318.282	-16.38
318.495	81.92
318.709	94.21
318.922	47.1
319.136	16.38
319.349	75.77
319.563	0
319.776	69.63
319.99	61.44
320.203	-2.05
320.417	61.44
320.63	4.1
320.843	30.72
321.057	77.82
321.27	61.44
321.483	73.73
321.697	32.77
321.91	96.25
322.124	30.72
322.337	14.34
322.55	-36.86
322.763	98.3
322.977	28.67
323.19	-4.1
323.403	104.45
323.617	4.1
323.83	92.16
324.043	20.48
324.256	51.2
324.469	-10.24
324.683	114.69
324.896	55.3
325.109	-12.29
325.322	47.1
325.535	102.4
325.748	6.14
325.962	55.3
326.175	45.06
326.388	63.49
326.601	88.06
326.814	122.88
327.027	-2.05
327.24	94.21
327.453	63.49
327.666	104.45
327.879	102.4
328.092	79.87
328.305	51.2
328.518	65.54
328.731	79.87
328.944	20.48
329.157	61.44
329.37	116.73
329.583	88.06
329.796	55.3
330.009	10.24
330.222	22.53
330.435	24.58
330.648	59.39
330.861	124.93
331.073	73.73
331.286	45.06
331.499	4.1
331.712	-8.19
331.925	22.53
332.138	55.3
332.35	114.69
332.563	10.24
332.776	55.3
332.989	63.49
333.202	63.49
333.414	67.58
333.627	26.62
333.84	47.1
334.053	-51.2
334.265	71.68
334.478	143.36
334.691	63.49
334.903	100.35
335.116	45.06
335.329	86.01
335.541	118.78
335.754	47.1
335.966	65.54
336.179	86.01
336.392	18.43
336.604	36.86
336.817	32.77
337.029	108.54
337.242	108.54
337.454	59.39
337.667	100.35
337.88	71.68
338.092	28.67
338.305	81.92
338.517	110.59
338.729	81.92
338.942	43.01
339.154	53.25
339.367	26.62
339.579	61.44
339.792	26.62
340.004	141.31
340.217	120.83
340.429	57.34
340.641	14.34
340.854	75.77
341.066	36.86
341.278	51.2
341.491	71.68
341.703	32.77
341.915	2.05
342.128	83.97
342.34	36.86
342.552	36.86
342.764	45.06
342.977	22.53
343.189	45.06
343.401	24.58
343.613	-6.14
343.826	63.49
344.038	-2.05
344.25	-28.67
344.462	104.45
344.674	51.2
344.886	71.68
345.099	18.43
345.311	112.64
345.523	77.82
345.735	-22.53
345.947	100.35
346.159	65.54
346.371	92.16
346.583	18.43
346.795	83.97
347.007	22.53
347.219	22.53
347.431	10.24
347.643	88.06
347.855	12.29
348.067	122.88
348.279	57.34
348.491	75.77
348.703	75.77
348.915	22.53
349.127	26.62
349.339	14.34
349.551	38.91
349.763	43.01
349.975	110.59
350.187	61.44
350.399	81.92
350.61	38.91
350.822	100.35
351.034	67.58
351.246	38.91
351.458	28.67
351.669	83.97
351.881	141.31
352.093	141.31
352.305	26.62
352.517	47.1
352.728	26.62
352.94	30.72
353.152	18.43
353.363	75.77
353.575	47.1
353.787	94.21
353.999	129.02
354.21	34.82
354.422	120.83
354.633	47.1
354.845	51.2
355.057	96.25
355.268	30.72
355.48	106.49
355.692	116.73
355.903	63.49
356.115	57.34
356.326	38.91
356.538	96.25
356.749	104.45
356.961	20.48
357.172	112.64
357.384	55.3
357.595	100.35
357.807	-24.58
358.018	18.43
358.23	36.86
358.441	75.77
358.653	51.2
358.864	53.25
359.075	32.77
359.287	-16.38
359.498	131.07
359.709	43.01
359.921	45.06
360.132	-4.1
360.344	100.35
360.555	49.15
360.766	126.97
360.977	153.6
361.189	71.68
361.4	18.43
361.611	53.25
361.823	129.02
362.034	108.54
362.245	75.77
362.456	67.58
362.667	10.24
362.879	83.97
363.09	28.67
363.301	67.58
363.512	30.72
363.723	108.54
363.935	-16.38
364.146	16.38
364.357	100.35
364.568	43.01
364.779	102.4
364.99	63.49
365.201	2.05
365.412	22.53
365.623	59.39
365.834	6.14
366.045	81.92
366.256	69.63
366.467	28.67
366.678	102.4
366.889	75.77
367.1	18.43
367.311	34.82
367.522	79.87
367.733	112.64
367.944	98.3
368.155	20.48
368.366	112.64
368.577	126.97
368.788	135.17
368.999	122.88
369.209	79.87
369.42	81.92
369.631	141.31
369.842	98.3
370.053	67.58
370.264	-40.96
370.474	100.35
370.685	49.15
370.896	77.82
371.107	120.83
371.317	51.2
371.528	4.1
371.739	59.39
371.95	45.06
372.16	92.16
372.371	63.49
372.582	63.49
372.792	186.37
373.003	59.39
373.214	49.15
373.424	36.86
373.635	88.06
373.846	86.01
374.056	49.15
374.267	108.54
374.477	16.38
374.688	36.86
374.898	51.2
375.109	43.01
375.319	120.83
375.53	38.91
375.74	43.01
375.951	18.43
376.161	40.96
376.372	108.54
376.582	75.77
376.793	83.97
377.003	59.39
377.214	67.58
377.424	67.58
377.635	20.48
377.845	26.62
378.055	100.35
378.266	38.91
378.476	94.21
378.686	129.02
378.897	40.96
379.107	102.4
379.317	47.1
379.528	59.39
379.738	83.97
379.948	28.67
380.158	79.87
380.369	110.59
380.579	102.4
380.789	2.05
380.999	112.64
381.21	96.25
381.42	79.87
381.63	94.21
381.84	124.93
382.05	2.05
382.261	98.3
382.471	100.35
382.681	112.64
382.891	110.59
383.101	96.25
383.311	8.19
383.521	30.72
383.731	43.01
383.941	112.64
384.151	86.01
384.361	71.68
384.571	94.21
384.781	45.06
384.991	26.62
385.201	122.88
385.411	45.06
385.621	102.4
385.831	83.97
386.041	30.72
386.251	53.25
386.461	104.45
386.671	86.01
386.881	131.07
387.091	47.1
387.301	92.16
387.511	55.3
387.72	157.69
387.93	67.58
388.14	120.83
388.35	88.06
388.56	69.63
388.769	83.97
388.979	45.06
389.189	-4.1
389.399	22.53
389.609	26.62
389.818	77.82
390.028	100.35
390.238	73.73
390.447	104.45
390.657	98.3
390.867	22.53
391.076	32.77
391.286	71.68
391.496	59.39
391.705	63.49
391.915	79.87
392.125	110.59
392.334	151.55
392.544	92.16
392.753	90.11
392.963	124.93
393.172	67.58
393.382	114.69
393.591	133.12
393.801	79.87
394.01	40.96
394.22	104.45
394.429	116.73
394.639	53.25
394.848	57.34
395.058	126.97
395.267	114.69
395.477	137.21
395.686	83.97
395.895	108.54
396.105	61.44
396.314	108.54
396.524	118.78
396.733	98.3
396.942	108.54
397.152	79.87
397.361	172.03
397.57	75.77
397.78	104.45
397.989	104.45
398.198	161.79
398.407	157.69
398.617	202.75
398.826	165.89
399.035	149.5
399.244	98.3
399.453	145.41
399.663	122.88
399.872	163.84
400.081	-6.14
400.29	131.07
400.499	110.59
400.708	106.49
400.917	161.79
401.127	114.69
401.336	126.97
401.545	169.98
401.754	169.98
401.963	143.36
402.172	161.79
402.381	188.41
402.59	104.45
402.799	110.59
403.008	262.14
403.217	112.64
403.426	147.45
403.635	83.97
403.844	133.12
404.053	192.51
404.262	206.84
404.471	135.17
404.68	149.5
404.888	200.7
405.097	145.41
405.306	212.99
405.515	178.17
405.724	129.02
405.933	233.47
406.142	212.99
406.35	178.17
406.559	215.04
406.768	167.93
406.977	227.32
407.185	251.9
407.394	243.71
407.603	190.46
407.812	309.24
408.02	219.13
408.229	245.76
408.438	247.8
408.646	251.9
408.855	305.15
409.064	239.61
409.272	313.34
409.481	272.38
409.69	303.1
409.898	286.72
410.107	339.96
410.315	403.45
410.524	309.24
410.733	405.5
410.941	419.83
411.15	333.82
411.358	409.59
411.567	454.65
411.775	362.49
411.984	452.6
412.192	425.98
412.401	503.8
412.609	505.85
412.818	505.85
413.026	544.76
413.234	552.95
413.443	604.15
413.651	544.76
413.86	546.81
414.068	647.16
414.276	643.06
414.485	671.73
414.693	679.93
414.901	757.75
415.11	755.7
415.318	628.73
415.526	774.13
415.734	808.95
415.943	876.53
416.151	847.86
416.359	888.82
416.567	849.91
416.776	944.11
416.984	1032.18
417.192	1030.13
417.4	1069.04
417.608	1028.08
417.817	1052.66
418.025	1058.8
418.233	1214.45
418.441	1124.33
418.649	1257.45
418.857	1308.65
419.065	1322.99
419.273	1308.65
419.481	1388.52
419.689	1476.59
419.897	1511.4
420.105	1566.7
420.313	1646.57
420.521	1607.66
420.729	1718.25
420.937	1779.68
421.145	1773.54
421.353	1888.23
421.561	2017.25
421.769	2090.98
421.977	2082.78
422.185	2070.5
422.393	2176.99
422.601	2459.61
422.809	2306.01
423.017	2394.08
423.224	2443.23
423.432	2643.93
423.64	2572.25
423.848	2865.11
424.056	2648.02
424.263	2959.31
424.471	3127.25
424.679	3014.61
424.887	3270.61
425.094	3350.48
425.302	3301.33
425.51	3416.01
425.718	3536.84
425.925	3438.54
426.133	3743.69
426.341	4005.83
426.548	4247.49
426.756	4083.65
426.964	4155.33
427.171	4409.28
427.379	4493.24
427.586	4544.44
427.794	4730.81
428.001	4958.13
428.209	5224.37
428.417	5023.67
428.624	5545.9
428.832	5449.64
429.039	5461.93
429.247	5498.8
429.454	6092.71
429.662	6207.39
429.869	5849
430.076	6295.46
430.284	6166.43
430.491	6582.17
430.699	6940.57
430.906	6932.37
431.114	6991.77
431.321	7124.88
431.528	7317.39
431.736	7835.53
431.943	8320.9
432.15	8040.33
432.358	7915.4
432.565	8499.07
432.772	8349.57
432.979	8800.12
433.187	8851.32
433.394	9199.48
433.601	9699.18
433.808	9754.48
434.016	9535.34
434.223	10168.16
434.43	10667.87
434.637	10303.33
434.844	11116.37
435.052	11335.51
435.259	11286.36
435.466	11530.06
435.673	11212.63
435.88	11962.19
436.087	12803.9
436.294	12595.01
436.501	12361.54
436.708	12629.82
436.915	13000.51
437.122	13551.41
437.329	13618.99
437.537	14079.79
437.743	14126.89
437.95	14122.79
438.157	14860.06
438.364	15480.6
438.571	15286.04
438.778	15554.32
438.985	17135.35
439.192	16240.39
439.399	16750.34
439.606	16330.5
439.813	17256.18
440.02	18251.5
440.227	17862.38
440.433	18179.82
440.64	18394.86
440.847	18280.17
441.054	18984.67
441.261	19953.36
441.467	19914.45
441.674	20195.02
441.881	21069.5
442.088	20870.85
442.294	20393.67
442.501	21345.98
442.708	21749.43
442.914	22451.88
443.121	23420.57
443.328	22914.72
443.534	24764.04
443.741	23510.68
443.948	23301.79
444.154	25212.54
444.361	24931.97
444.568	25566.84
444.774	25349.76
444.981	25683.58
445.187	26345.07
445.394	27395.68
445.6	27164.26
445.807	29599.29
446.013	28522.06
446.22	29034.05
446.426	30094.9
446.633	30092.85
446.839	31116.84
447.046	30117.43
447.252	31772.19
447.459	31426.08
447.665	31735.32
447.871	33099.27
448.078	34237.94
448.284	32765.45
448.491	33371.65
448.697	34856.43
448.903	35614.18
449.11	35405.28
449.316	34686.45
449.522	35171.82
449.728	36503
449.935	37045.71
450.141	36789.71
450.347	37744.06
450.553	36195.8
450.76	37098.95
450.966	38202.81
451.172	37701.06
451.378	38245.82
451.584	37422.53
451.791	38458.81
451.997	38389.17
452.203	38886.83
452.409	38944.17
452.615	38612.4
452.821	37383.62
453.027	36980.17
453.233	38489.52
453.44	37242.31
453.646	37834.17
453.852	37641.67
454.058	38161.85
454.264	37086.67
454.47	37920.19
454.676	37139.91
454.882	38278.58
455.088	34913.77
455.294	35028.46
455.5	35929.56
455.705	35859.93
455.911	34930.15
456.117	34127.35
456.323	33553.92
456.529	31843.87
456.735	33177.09
456.941	32607.76
457.147	31479.33
457.352	30961.19
457.558	30432.82
457.764	30475.82
457.97	30006.84
458.176	29326.91
458.381	29421.12
458.587	27694.68
458.793	28040.79
458.999	26470
459.204	28276.3
459.41	27819.61
459.616	25650.81
459.821	25953.91
460.027	25751.16
460.233	25026.18
460.438	23772.82
460.644	24090.26
460.85	23174.81
461.055	22630.05
461.261	22464.17
461.466	21028.54
461.672	20356.81
461.878	21978.8
462.083	20496.07
462.289	20197.07
462.494	19914.45
462.7	19091.16
462.905	18425.57
463.111	19183.32
463.316	19234.52
463.522	18925.28
463.727	18960.09
463.932	18806.5
464.138	18534.12
464.343	18790.11
464.549	18134.76
464.754	18671.33
464.959	18814.69
465.165	18704.1
465.37	17946.35
465.575	17528.56
465.781	18138.86
465.986	18331.37
466.191	17383.16
466.397	17002.24
466.602	16121.61
466.807	17137.4
467.012	17071.87
467.218	17006.33
467.423	16705.28
