Data from USB4F104151__239__11-11-22-971.txt Node

Date: Wed Mar 12 11:11:22 EDT 2025
User: louis
Spectrometer: USB4F10415
Trigger mode: 4
Integration Time (sec): 2.000000E-2
Scans to average: 1
Electric dark correction enabled: true
Nonlinearity correction enabled: false
Boxcar width: 0
XAxis mode: Wavelengths
Number of Pixels in Spectrum: 3648
>>>>>Begin Spectral Data<<<<<
178.204	-44.88
178.424	-44.88
178.644	-44.88
178.864	-81.75
179.084	-106.32
179.304	49.32
179.524	-61.27
179.744	32.94
179.964	49.32
180.184	6.31
180.404	-30.55
180.624	-3.93
180.844	32.94
181.064	16.55
181.283	-67.41
181.503	-24.4
181.723	0.17
181.943	-3.93
182.163	147.62
182.383	28.84
182.602	125.1
182.822	77.99
183.042	18.6
183.262	10.41
183.482	10.41
183.701	30.89
183.921	43.18
184.141	-3.93
184.361	47.27
184.58	16.55
184.8	37.03
185.02	18.6
185.239	57.51
185.459	77.99
185.679	4.27
185.898	22.7
186.118	47.27
186.338	41.13
186.557	16.55
186.777	14.51
186.997	73.9
187.216	-10.07
187.436	96.43
187.655	104.62
187.875	59.56
188.095	-14.17
188.314	20.65
188.534	102.57
188.753	118.95
188.973	-16.21
189.192	39.08
189.412	-38.74
189.631	51.37
189.851	-3.93
190.07	106.67
190.29	-10.07
190.509	0.17
190.729	88.23
190.948	51.37
191.168	67.75
191.387	61.61
191.607	22.7
191.826	24.75
192.045	57.51
192.265	22.7
192.484	59.56
192.704	-12.12
192.923	-10.07
193.142	39.08
193.362	16.55
193.581	28.84
193.8	8.36
194.02	41.13
194.239	43.18
194.458	26.79
194.678	86.19
194.897	28.84
195.116	-18.26
195.335	43.18
195.555	77.99
195.774	55.47
195.993	39.08
196.212	-20.31
196.432	-34.64
196.651	0.17
196.87	69.8
197.089	53.42
197.308	24.75
197.528	49.32
197.747	0.17
197.966	51.37
198.185	71.85
198.404	-71.51
198.623	118.95
198.842	67.75
199.062	41.13
199.281	45.23
199.5	-3.93
199.719	73.9
199.938	18.6
200.157	39.08
200.376	57.51
200.595	71.85
200.814	53.42
201.033	-48.98
201.252	0.17
201.471	28.84
201.69	116.9
201.909	49.32
202.128	114.86
202.347	55.47
202.566	45.23
202.785	55.47
203.004	28.84
203.223	0.17
203.442	65.71
203.661	37.03
203.879	12.46
204.098	28.84
204.317	10.41
204.536	-22.36
204.755	84.14
204.974	63.66
205.193	24.75
205.411	-3.93
205.63	12.46
205.849	43.18
206.068	67.75
206.287	39.08
206.505	102.57
206.724	28.84
206.943	114.86
207.162	53.42
207.381	-16.21
207.599	57.51
207.818	6.31
208.037	30.89
208.255	26.79
208.474	4.27
208.693	57.51
208.911	-1.88
209.13	47.27
209.349	-22.36
209.567	41.13
209.786	12.46
210.005	67.75
210.223	18.6
210.442	47.27
210.661	6.31
210.879	-28.5
211.098	12.46
211.316	22.7
211.535	86.19
211.753	69.8
211.972	12.46
212.191	12.46
212.409	-34.64
212.628	34.99
212.846	34.99
213.065	-10.07
213.283	39.08
213.502	-5.97
213.72	65.71
213.938	10.41
214.157	12.46
214.375	41.13
214.594	-28.5
214.812	77.99
215.031	63.66
215.249	20.65
215.467	-20.31
215.686	59.56
215.904	24.75
216.122	-3.93
216.341	6.31
216.559	-20.31
216.778	63.66
216.996	-10.07
217.214	63.66
217.432	86.19
217.651	20.65
217.869	16.55
218.087	28.84
218.306	34.99
218.524	75.95
218.742	71.85
218.96	-16.21
219.179	18.6
219.397	30.89
219.615	26.79
219.833	12.46
220.051	26.79
220.27	84.14
220.488	55.47
220.706	8.36
220.924	47.27
221.142	14.51
221.36	-16.21
221.578	45.23
221.796	-24.4
222.015	53.42
222.233	-32.6
222.451	49.32
222.669	-18.26
222.887	32.94
223.105	-10.07
223.323	18.6
223.541	-42.84
223.759	12.46
223.977	45.23
224.195	16.55
224.413	110.76
224.631	28.84
224.849	59.56
225.067	59.56
225.285	-1.88
225.503	8.36
225.721	-12.12
225.939	106.67
226.157	39.08
226.375	-10.07
226.592	57.51
226.81	8.36
227.028	18.6
227.246	24.75
227.464	-16.21
227.682	-28.5
227.9	53.42
228.117	53.42
228.335	-16.21
228.553	8.36
228.771	2.22
228.989	86.19
229.206	69.8
229.424	2.22
229.642	41.13
229.86	-12.12
230.077	49.32
230.295	18.6
230.513	53.42
230.731	92.33
230.948	69.8
231.166	49.32
231.384	59.56
231.601	-1.88
231.819	94.38
232.037	65.71
232.254	49.32
232.472	26.79
232.689	18.6
232.907	20.65
233.125	-5.97
233.342	-30.55
233.56	-14.17
233.777	0.17
233.995	57.51
234.213	37.03
234.43	82.09
234.648	65.71
234.865	69.8
235.083	77.99
235.3	-44.88
235.518	10.41
235.735	34.99
235.953	30.89
236.17	43.18
236.388	34.99
236.605	37.03
236.822	47.27
237.04	16.55
237.257	34.99
237.475	-10.07
237.692	34.99
237.909	51.37
238.127	30.89
238.344	88.23
238.562	30.89
238.779	-51.03
238.996	53.42
239.214	77.99
239.431	49.32
239.648	77.99
239.865	39.08
240.083	57.51
240.3	45.23
240.517	34.99
240.735	86.19
240.952	37.03
241.169	30.89
241.386	24.75
241.603	80.04
241.821	-26.45
242.038	16.55
242.255	0.17
242.472	-28.5
242.689	123.05
242.907	20.65
243.124	12.46
243.341	45.23
243.558	-34.64
243.775	20.65
243.992	12.46
244.209	45.23
244.426	61.61
244.643	34.99
244.86	39.08
245.078	96.43
245.295	49.32
245.512	45.23
245.729	24.75
245.946	14.51
246.163	49.32
246.38	-16.21
246.597	30.89
246.814	63.66
247.031	53.42
247.248	106.67
247.464	112.81
247.681	94.38
247.898	49.32
248.115	43.18
248.332	-20.31
248.549	61.61
248.766	80.04
248.983	86.19
249.2	57.51
249.417	82.09
249.633	88.23
249.85	-10.07
250.067	24.75
250.284	82.09
250.501	32.94
250.717	106.67
250.934	-75.6
251.151	30.89
251.368	-51.03
251.585	28.84
251.801	-24.4
252.018	6.31
252.235	22.7
252.451	-1.88
252.668	57.51
252.885	43.18
253.102	24.75
253.318	67.75
253.535	16.55
253.752	22.7
253.968	49.32
254.185	-46.93
254.401	-18.26
254.618	57.51
254.835	20.65
255.051	57.51
255.268	20.65
255.484	12.46
255.701	43.18
255.917	43.18
256.134	14.51
256.351	71.85
256.567	53.42
256.784	90.28
257	-18.26
257.217	51.37
257.433	51.37
257.65	-51.03
257.866	63.66
258.082	32.94
258.299	55.47
258.515	24.75
258.732	-34.64
258.948	6.31
259.165	80.04
259.381	47.27
259.597	57.51
259.814	51.37
260.03	43.18
260.246	82.09
260.463	69.8
260.679	75.95
260.895	-57.17
261.112	8.36
261.328	49.32
261.544	24.75
261.761	112.81
261.977	28.84
262.193	10.41
262.409	61.61
262.626	41.13
262.842	59.56
263.058	80.04
263.274	69.8
263.49	14.51
263.707	100.52
263.923	63.66
264.139	32.94
264.355	20.65
264.571	57.51
264.787	22.7
265.004	2.22
265.22	-16.21
265.436	63.66
265.652	18.6
265.868	71.85
266.084	4.27
266.3	18.6
266.516	-79.7
266.732	20.65
266.948	-22.36
267.164	45.23
267.38	26.79
267.596	131.24
267.812	121
268.028	98.47
268.244	55.47
268.46	45.23
268.676	-18.26
268.892	2.22
269.108	-1.88
269.324	6.31
269.54	39.08
269.756	53.42
269.972	-51.03
270.188	123.05
270.403	45.23
270.619	24.75
270.835	49.32
271.051	0.17
271.267	84.14
271.483	34.99
271.698	53.42
271.914	59.56
272.13	-22.36
272.346	-14.17
272.562	24.75
272.777	14.51
272.993	-14.17
273.209	65.71
273.425	10.41
273.64	55.47
273.856	10.41
274.072	41.13
274.287	57.51
274.503	84.14
274.719	57.51
274.934	157.86
275.15	-10.07
275.366	28.84
275.581	77.99
275.797	6.31
276.012	22.7
276.228	47.27
276.444	69.8
276.659	45.23
276.875	32.94
277.09	49.32
277.306	-1.88
277.521	53.42
277.737	28.84
277.952	59.56
278.168	92.33
278.383	102.57
278.599	41.13
278.814	22.7
279.03	-12.12
279.245	94.38
279.461	67.75
279.676	84.14
279.892	30.89
280.107	6.31
280.322	16.55
280.538	26.79
280.753	53.42
280.969	30.89
281.184	18.6
281.399	65.71
281.615	24.75
281.83	37.03
282.045	0.17
282.26	-44.88
282.476	4.27
282.691	102.57
282.906	98.47
283.122	67.75
283.337	143.53
283.552	37.03
283.767	73.9
283.983	92.33
284.198	34.99
284.413	-3.93
284.628	84.14
284.843	77.99
285.058	43.18
285.274	14.51
285.489	16.55
285.704	69.8
285.919	57.51
286.134	53.42
286.349	20.65
286.564	4.27
286.779	145.58
286.995	43.18
287.21	-46.93
287.425	8.36
287.64	90.28
287.855	55.47
288.07	55.47
288.285	88.23
288.5	55.47
288.715	51.37
288.93	24.75
289.145	32.94
289.36	-12.12
289.575	63.66
289.79	24.75
290.004	37.03
290.219	157.86
290.434	63.66
290.649	37.03
290.864	14.51
291.079	-24.4
291.294	84.14
291.509	20.65
291.724	82.09
291.938	49.32
292.153	22.7
292.368	28.84
292.583	147.62
292.798	51.37
293.012	69.8
293.227	53.42
293.442	14.51
293.657	-20.31
293.871	75.95
294.086	53.42
294.301	82.09
294.516	59.56
294.73	43.18
294.945	14.51
295.16	63.66
295.374	22.7
295.589	59.56
295.804	34.99
296.018	-24.4
296.233	47.27
296.447	49.32
296.662	-10.07
296.877	75.95
297.091	86.19
297.306	39.08
297.52	123.05
297.735	86.19
297.949	71.85
298.164	47.27
298.378	14.51
298.593	-24.4
298.807	96.43
299.022	55.47
299.236	88.23
299.451	98.47
299.665	41.13
299.88	51.37
300.094	47.27
300.309	59.56
300.523	153.77
300.737	84.14
300.952	73.9
301.166	12.46
301.381	18.6
301.595	37.03
301.809	18.6
302.024	63.66
302.238	98.47
302.452	116.9
302.667	37.03
302.881	59.56
303.095	53.42
303.309	8.36
303.524	47.27
303.738	71.85
303.952	69.8
304.166	53.42
304.381	86.19
304.595	59.56
304.809	-20.31
305.023	65.71
305.237	14.51
305.452	49.32
305.666	63.66
305.88	69.8
306.094	96.43
306.308	73.9
306.522	-1.88
306.736	69.8
306.95	80.04
307.164	53.42
307.379	47.27
307.593	112.81
307.807	75.95
308.021	16.55
308.235	80.04
308.449	-22.36
308.663	80.04
308.877	49.32
309.091	-5.97
309.305	6.31
309.519	-3.93
309.733	86.19
309.947	45.23
310.161	63.66
310.374	65.71
310.588	8.36
310.802	69.8
311.016	-106.32
311.23	84.14
311.444	37.03
311.658	71.85
311.872	71.85
312.085	84.14
312.299	84.14
312.513	37.03
312.727	82.09
312.941	-18.26
313.154	51.37
313.368	57.51
313.582	86.19
313.796	49.32
314.009	61.61
314.223	84.14
314.437	86.19
314.651	30.89
314.864	12.46
315.078	-20.31
315.292	71.85
315.505	61.61
315.719	-26.45
315.933	92.33
316.146	22.7
316.36	34.99
316.573	53.42
316.787	77.99
317.001	69.8
317.214	-24.4
317.428	75.95
317.641	28.84
317.855	10.41
318.068	41.13
318.282	28.84
318.495	88.23
318.709	65.71
318.922	10.41
319.136	84.14
319.349	145.58
319.563	14.51
319.776	47.27
319.99	6.31
320.203	39.08
320.417	-8.02
320.63	59.56
320.843	57.51
321.057	80.04
321.27	55.47
321.483	32.94
321.697	186.54
321.91	49.32
322.124	53.42
322.337	28.84
322.55	118.95
322.763	69.8
322.977	118.95
323.19	37.03
323.403	45.23
323.617	24.75
323.83	59.56
324.043	-24.4
324.256	65.71
324.469	-51.03
324.683	37.03
324.896	8.36
325.109	32.94
325.322	10.41
325.535	96.43
325.748	30.89
325.962	49.32
326.175	67.75
326.388	65.71
326.601	30.89
326.814	20.65
327.027	49.32
327.24	139.43
327.453	98.47
327.666	22.7
327.879	88.23
328.092	59.56
328.305	-34.64
328.518	24.75
328.731	-18.26
328.944	39.08
329.157	32.94
329.37	106.67
329.583	6.31
329.796	-5.97
330.009	10.41
330.222	53.42
330.435	98.47
330.648	10.41
330.861	75.95
331.073	41.13
331.286	61.61
331.499	32.94
331.712	-10.07
331.925	100.52
332.138	53.42
332.35	51.37
332.563	-44.88
332.776	67.75
332.989	-24.4
333.202	63.66
333.414	10.41
333.627	86.19
333.84	39.08
334.053	24.75
334.265	22.7
334.478	80.04
334.691	-16.21
334.903	86.19
335.116	69.8
335.329	71.85
335.541	86.19
335.754	127.14
335.966	28.84
336.179	41.13
336.392	43.18
336.604	69.8
336.817	94.38
337.029	34.99
337.242	49.32
337.454	131.24
337.667	43.18
337.88	114.86
338.092	28.84
338.305	53.42
338.517	37.03
338.729	57.51
338.942	73.9
339.154	20.65
339.367	77.99
339.579	82.09
339.792	47.27
340.004	112.81
340.217	49.32
340.429	80.04
340.641	37.03
340.854	69.8
341.066	28.84
341.278	20.65
341.491	69.8
341.703	41.13
341.915	118.95
342.128	32.94
342.34	10.41
342.552	41.13
342.764	73.9
342.977	2.22
343.189	61.61
343.401	77.99
343.613	106.67
343.826	16.55
344.038	127.14
344.25	77.99
344.462	59.56
344.674	147.62
344.886	32.94
345.099	63.66
345.311	24.75
345.523	71.85
345.735	-12.12
345.947	121
346.159	-48.98
346.371	20.65
346.583	28.84
346.795	53.42
347.007	-40.79
347.219	10.41
347.431	-44.88
347.643	73.9
347.855	26.79
348.067	37.03
348.279	10.41
348.491	75.95
348.703	49.32
348.915	75.95
349.127	92.33
349.339	73.9
349.551	45.23
349.763	61.61
349.975	37.03
350.187	110.76
350.399	65.71
350.61	63.66
350.822	51.37
351.034	14.51
351.246	77.99
351.458	53.42
351.669	77.99
351.881	39.08
352.093	155.82
352.305	131.24
352.517	47.27
352.728	112.81
352.94	45.23
353.152	108.71
353.363	80.04
353.575	49.32
353.787	30.89
353.999	24.75
354.21	94.38
354.422	77.99
354.633	24.75
354.845	24.75
355.057	71.85
355.268	49.32
355.48	77.99
355.692	24.75
355.903	73.9
356.115	24.75
356.326	39.08
356.538	67.75
356.749	47.27
356.961	69.8
357.172	65.71
357.384	-16.21
357.595	65.71
357.807	22.7
358.018	45.23
358.23	39.08
358.441	80.04
358.653	41.13
358.864	26.79
359.075	20.65
359.287	16.55
359.498	96.43
359.709	2.22
359.921	170.15
360.132	59.56
360.344	88.23
360.555	43.18
360.766	53.42
360.977	14.51
361.189	114.86
361.4	30.89
361.611	59.56
361.823	96.43
362.034	-3.93
362.245	34.99
362.456	82.09
362.667	98.47
362.879	69.8
363.09	-51.03
363.301	34.99
363.512	88.23
363.723	88.23
363.935	53.42
364.146	61.61
364.357	84.14
364.568	106.67
364.779	100.52
364.99	69.8
365.201	59.56
365.412	100.52
365.623	16.55
365.834	37.03
366.045	92.33
366.256	53.42
366.467	80.04
366.678	14.51
366.889	110.76
367.1	90.28
367.311	127.14
367.522	37.03
367.733	32.94
367.944	114.86
368.155	69.8
368.366	75.95
368.577	65.71
368.788	20.65
368.999	14.51
369.209	39.08
369.42	92.33
369.631	118.95
369.842	-5.97
370.053	32.94
370.264	82.09
370.474	49.32
370.685	2.22
370.896	100.52
371.107	67.75
371.317	71.85
371.528	59.56
371.739	73.9
371.95	82.09
372.16	22.7
372.371	43.18
372.582	49.32
372.792	18.6
373.003	47.27
373.214	90.28
373.424	67.75
373.635	-20.31
373.846	88.23
374.056	12.46
374.267	69.8
374.477	69.8
374.688	67.75
374.898	20.65
375.109	71.85
375.319	82.09
375.53	102.57
375.74	18.6
375.951	80.04
376.161	63.66
376.372	77.99
376.582	-18.26
376.793	127.14
377.003	45.23
377.214	86.19
377.424	55.47
377.635	10.41
377.845	39.08
378.055	55.47
378.266	67.75
378.476	51.37
378.686	67.75
378.897	75.95
379.107	102.57
379.317	61.61
379.528	57.51
379.738	108.71
379.948	61.61
380.158	96.43
380.369	73.9
380.579	90.28
380.789	65.71
380.999	143.53
381.21	51.37
381.42	102.57
381.63	108.71
381.84	-1.88
382.05	26.79
382.261	155.82
382.471	145.58
382.681	86.19
382.891	75.95
383.101	-3.93
383.311	53.42
383.521	69.8
383.731	110.76
383.941	102.57
384.151	57.51
384.361	57.51
384.571	49.32
384.781	65.71
384.991	102.57
385.201	41.13
385.411	63.66
385.621	65.71
385.831	82.09
386.041	135.34
386.251	63.66
386.461	80.04
386.671	104.62
386.881	43.18
387.091	49.32
387.301	59.56
387.511	75.95
387.72	104.62
387.93	88.23
388.14	88.23
388.35	45.23
388.56	116.9
388.769	30.89
388.979	0.17
389.189	51.37
389.399	121
389.609	67.75
389.818	118.95
390.028	88.23
390.238	133.29
390.447	80.04
390.657	90.28
390.867	57.51
391.076	49.32
391.286	59.56
391.496	104.62
391.705	127.14
391.915	92.33
392.125	88.23
392.334	73.9
392.544	176.3
392.753	104.62
392.963	92.33
393.172	49.32
393.382	108.71
393.591	151.72
393.801	153.77
394.01	100.52
394.22	94.38
394.429	14.51
394.639	24.75
394.848	133.29
395.058	53.42
395.267	135.34
395.477	67.75
395.686	145.58
395.895	133.29
396.105	178.34
396.314	170.15
396.524	123.05
396.733	84.14
396.942	65.71
397.152	125.1
397.361	118.95
397.57	69.8
397.78	86.19
397.989	170.15
398.198	159.91
398.407	147.62
398.617	106.67
398.826	102.57
399.035	92.33
399.244	108.71
399.453	116.9
399.663	172.2
399.872	73.9
400.081	28.84
400.29	51.37
400.499	94.38
400.708	135.34
400.917	139.43
401.127	137.38
401.336	73.9
401.545	147.62
401.754	125.1
401.963	73.9
402.172	118.95
402.381	192.68
402.59	159.91
402.799	233.64
403.008	155.82
403.217	135.34
403.426	180.39
403.635	41.13
403.844	143.53
404.053	221.35
404.262	139.43
404.471	219.3
404.68	194.73
404.888	121
405.097	166.06
405.306	174.25
405.515	166.06
405.724	278.69
405.933	239.78
406.142	256.17
406.35	229.54
406.559	180.39
406.768	211.11
406.977	256.17
407.185	204.97
407.394	274.6
407.603	198.82
407.812	245.93
408.02	276.65
408.229	270.5
408.438	225.45
408.646	241.83
408.855	311.46
409.064	299.17
409.272	311.46
409.481	325.8
409.69	286.89
409.898	393.38
410.107	311.46
410.315	354.47
410.524	374.95
410.733	364.71
410.941	370.85
411.15	495.78
411.358	434.34
411.567	544.93
411.775	475.3
411.984	458.92
412.192	516.26
412.401	436.39
412.609	542.88
412.818	592.03
413.026	463.01
413.234	592.03
413.443	649.38
413.651	606.37
413.86	626.85
414.068	657.57
414.276	688.29
414.485	753.82
414.693	676
414.901	755.87
415.11	850.08
415.318	858.27
415.526	860.32
415.734	917.66
415.943	878.75
416.151	921.76
416.359	917.66
416.567	968.86
416.776	1030.3
416.984	1067.16
417.192	1153.18
417.4	1079.45
417.608	1101.98
417.817	1220.76
418.025	1169.56
418.233	1317.01
418.441	1390.74
418.649	1382.55
418.857	1460.37
419.065	1448.08
419.273	1360.02
419.481	1497.24
419.689	1714.32
419.897	1742.99
420.105	1728.66
420.313	1857.68
420.521	1786
420.729	1880.21
420.937	1984.65
421.145	1982.6
421.353	2070.67
421.561	2207.88
421.769	2246.79
421.977	2381.96
422.185	2248.84
422.393	2443.4
422.601	2642.05
422.809	2783.36
423.017	2586.76
423.224	2699.39
423.432	2900.09
423.64	2916.48
423.848	3129.47
424.056	3025.02
424.263	3162.23
424.471	3299.45
424.679	3418.23
424.887	3657.84
425.094	3721.33
425.302	3661.94
425.51	3819.63
425.718	3850.35
425.925	3829.87
426.133	4073.58
426.341	4255.85
426.548	4581.48
426.756	4481.13
426.964	4581.48
427.171	4778.08
427.379	4862.05
427.586	4966.49
427.794	5062.75
428.001	5447.77
428.209	5695.57
428.417	5427.29
428.624	5931.09
428.832	5922.9
429.039	5754.96
429.247	5892.18
429.454	6334.54
429.662	6789.19
429.869	6430.79
430.076	6819.91
430.284	6645.83
430.491	7032.9
430.699	7422.01
430.906	7411.77
431.114	7499.83
431.321	7733.3
431.528	7944.24
431.736	8276.01
431.943	8654.89
432.15	8437.8
432.358	8548.39
432.565	9035.81
432.772	8972.32
432.979	9527.32
433.187	9648.15
433.394	9764.89
433.601	10467.34
433.808	10385.42
434.016	10416.14
434.223	10809.35
434.43	11278.33
434.637	11153.41
434.844	11833.33
435.052	12128.24
435.259	12013.56
435.466	12165.11
435.673	11972.6
435.88	12877.8
436.087	13371.36
436.294	13434.85
436.501	13156.32
436.708	13565.92
436.915	13907.93
437.122	14534.6
437.329	14460.88
437.537	14788.55
437.743	15302.59
437.95	14759.88
438.157	15845.3
438.364	16412.59
438.571	16240.56
438.778	16302
438.985	17624.99
439.192	17022.89
439.399	17880.99
439.606	17409.95
439.813	18399.12
440.02	19486.59
440.227	18864.01
440.433	18741.13
440.64	19734.4
440.847	19414.91
441.054	19967.87
441.261	21192.55
441.467	21446.5
441.674	21596
441.881	22120.28
442.088	21903.2
442.294	21622.62
442.501	22562.64
442.708	22908.75
442.914	23762.75
443.121	24475.45
443.328	24319.8
443.534	26017.57
443.741	25259.82
443.948	24729.39
444.154	26578.71
444.361	26335
444.568	26621.72
444.774	26435.35
444.981	26900.24
445.187	27883.27
445.394	28921.59
445.6	28292.86
445.807	31026.9
446.013	29732.58
446.22	30416.6
446.426	31356.62
446.633	31794.89
446.839	32820.92
447.046	31307.47
447.252	33005.24
447.459	33216.18
447.665	32972.47
447.871	34209.44
448.078	35890.82
448.284	33887.91
448.491	35212.95
448.697	36497.02
448.903	36804.22
449.11	36808.31
449.316	36345.47
449.522	36884.09
449.728	38198.88
449.935	38534.75
450.141	38143.59
450.347	39046.74
450.553	37901.93
450.76	38198.88
450.966	39267.92
451.172	39284.31
451.378	39986.76
451.584	39235.16
451.791	40279.62
451.997	39784.01
452.203	40977.98
452.409	40347.2
452.615	40543.81
452.821	38964.82
453.027	38618.72
453.233	40447.55
453.44	39069.27
453.646	39192.15
453.852	39462.48
454.058	40119.88
454.264	38753.88
454.47	39657.04
454.676	38860.38
454.882	39880.27
455.088	36515.45
455.294	36961.91
455.5	37236.34
455.705	37803.63
455.911	36560.51
456.117	35759.75
456.323	34981.52
456.529	33158.83
456.735	34748.06
456.941	33738.41
457.147	33085.11
457.352	32179.9
457.558	31755.97
457.764	31874.76
457.97	31452.87
458.176	30682.84
458.381	30672.6
458.587	29255.4
458.793	29234.92
458.999	27580.17
459.204	29662.95
459.41	29163.25
459.616	27057.93
459.821	27035.41
460.027	26771.22
460.233	26228.51
460.438	24811.31
460.644	25413.41
460.85	23949.12
461.055	23856.96
461.261	23910.21
461.466	22003.55
461.672	21260.13
461.878	22839.12
462.083	21389.16
462.289	21174.12
462.494	20731.76
462.7	19875.71
462.905	19251.08
463.111	20043.64
463.316	20260.73
463.522	19457.92
463.727	19814.27
463.932	19701.63
464.138	19445.63
464.343	19507.07
464.549	19062.66
464.754	19699.58
464.959	19412.87
465.165	19148.68
465.37	18673.55
465.575	17960.86
465.781	18724.75
465.986	19152.77
466.191	18249.62
466.397	17862.55
466.602	16971.69
466.807	17561.5
467.012	17602.46
467.218	17651.61
467.423	17330.08
