Data from USB4F104151__103__11-07-07-519.txt Node

Date: Wed Mar 12 11:07:07 EDT 2025
User: louis
Spectrometer: USB4F10415
Trigger mode: 4
Integration Time (sec): 2.000000E-2
Scans to average: 1
Electric dark correction enabled: true
Nonlinearity correction enabled: false
Boxcar width: 0
XAxis mode: Wavelengths
Number of Pixels in Spectrum: 3648
>>>>>Begin Spectral Data<<<<<
178.204	-113.66
178.424	-113.66
178.644	-113.66
178.864	-134.14
179.084	-111.61
179.304	13.31
179.524	-19.46
179.744	-5.12
179.964	41.98
180.184	-46.08
180.404	41.98
180.624	-39.94
180.844	-7.17
181.064	-11.26
181.283	-37.89
181.503	35.84
181.723	33.79
181.943	-76.8
182.163	19.46
182.383	23.55
182.602	99.33
182.822	-74.75
183.042	-31.74
183.262	-62.46
183.482	111.61
183.701	9.22
183.921	-31.74
184.141	37.89
184.361	-56.32
184.58	35.84
184.8	5.12
185.02	-64.51
185.239	56.32
185.459	13.31
185.679	-11.26
185.898	-39.94
186.118	-52.22
186.338	9.22
186.557	15.36
186.777	-3.07
186.997	1.02
187.216	15.36
187.436	15.36
187.655	-1.02
187.875	117.76
188.095	13.31
188.314	-58.37
188.534	33.79
188.753	27.65
188.973	23.55
189.192	27.65
189.412	5.12
189.631	27.65
189.851	-23.55
190.07	-15.36
190.29	-17.41
190.509	44.03
190.729	-5.12
190.948	3.07
191.168	136.19
191.387	17.41
191.607	5.12
191.826	9.22
192.045	-21.5
192.265	35.84
192.484	54.27
192.704	7.17
192.923	-62.46
193.142	52.22
193.362	-3.07
193.581	9.22
193.8	-3.07
194.02	56.32
194.239	-3.07
194.458	66.56
194.678	23.55
194.897	31.74
195.116	-29.7
195.335	11.26
195.555	-23.55
195.774	13.31
195.993	7.17
196.212	54.27
196.432	-1.02
196.651	33.79
196.87	-23.55
197.089	48.13
197.308	-7.17
197.528	-15.36
197.747	9.22
197.966	-13.31
198.185	56.32
198.404	-15.36
198.623	21.5
198.842	27.65
199.062	17.41
199.281	44.03
199.5	-1.02
199.719	-52.22
199.938	-74.75
200.157	82.94
200.376	-23.55
200.595	60.42
200.814	17.41
201.033	3.07
201.252	-5.12
201.471	-33.79
201.69	5.12
201.909	72.7
202.128	13.31
202.347	101.37
202.566	87.04
202.785	15.36
203.004	37.89
203.223	-21.5
203.442	-13.31
203.661	-54.27
203.879	-5.12
204.098	15.36
204.317	1.02
204.536	-33.79
204.755	-23.55
204.974	21.5
205.193	25.6
205.411	48.13
205.63	3.07
205.849	15.36
206.068	58.37
206.287	82.94
206.505	-1.02
206.724	46.08
206.943	-23.55
207.162	3.07
207.381	52.22
207.599	15.36
207.818	-27.65
208.037	-7.17
208.255	27.65
208.474	-11.26
208.693	-33.79
208.911	-15.36
209.13	21.5
209.349	48.13
209.567	-21.5
209.786	-21.5
210.005	37.89
210.223	54.27
210.442	-17.41
210.661	-41.98
210.879	58.37
211.098	-5.12
211.316	-1.02
211.535	39.94
211.753	3.07
211.972	15.36
212.191	15.36
212.409	33.79
212.628	-21.5
212.846	54.27
213.065	46.08
213.283	70.65
213.502	13.31
213.72	58.37
213.938	48.13
214.157	-7.17
214.375	13.31
214.594	44.03
214.812	-54.27
215.031	-17.41
215.249	-13.31
215.467	-15.36
215.686	-1.02
215.904	25.6
216.122	19.46
216.341	7.17
216.559	64.51
216.778	17.41
216.996	-25.6
217.214	54.27
217.432	25.6
217.651	-3.07
217.869	-25.6
218.087	-19.46
218.306	-25.6
218.524	-11.26
218.742	15.36
218.96	23.55
219.179	13.31
219.397	-23.55
219.615	21.5
219.833	-19.46
220.051	5.12
220.27	33.79
220.488	-7.17
220.706	35.84
220.924	-29.7
221.142	9.22
221.36	37.89
221.578	58.37
221.796	-7.17
222.015	95.23
222.233	13.31
222.451	37.89
222.669	-46.08
222.887	62.46
223.105	-21.5
223.323	-15.36
223.541	-35.84
223.759	35.84
223.977	-19.46
224.195	82.94
224.413	-35.84
224.631	64.51
224.849	78.85
225.067	84.99
225.285	-1.02
225.503	19.46
225.721	-31.74
225.939	48.13
226.157	-60.42
226.375	87.04
226.592	-13.31
226.81	31.74
227.028	23.55
227.246	29.7
227.464	-29.7
227.682	19.46
227.9	3.07
228.117	107.52
228.335	-25.6
228.553	41.98
228.771	93.18
228.989	35.84
229.206	13.31
229.424	-33.79
229.642	5.12
229.86	82.94
230.077	29.7
230.295	27.65
230.513	91.13
230.731	35.84
230.948	58.37
231.166	68.61
231.384	-27.65
231.601	33.79
231.819	60.42
232.037	-21.5
232.254	-56.32
232.472	-7.17
232.689	-52.22
232.907	-3.07
233.125	5.12
233.342	5.12
233.56	-1.02
233.777	-11.26
233.995	84.99
234.213	54.27
234.43	50.18
234.648	-1.02
234.865	44.03
235.083	-3.07
235.3	-41.98
235.518	-7.17
235.735	-5.12
235.953	-15.36
236.17	72.7
236.388	-15.36
236.605	-1.02
236.822	7.17
237.04	29.7
237.257	17.41
237.475	-27.65
237.692	-72.7
237.909	17.41
238.127	21.5
238.344	35.84
238.562	-27.65
238.779	68.61
238.996	-23.55
239.214	48.13
239.431	64.51
239.648	-19.46
239.865	99.33
240.083	80.89
240.3	91.13
240.517	9.22
240.735	-21.5
240.952	-9.22
241.169	103.42
241.386	80.89
241.603	5.12
241.821	62.46
242.038	72.7
242.255	35.84
242.472	29.7
242.689	60.42
242.907	25.6
243.124	27.65
243.341	-33.79
243.558	-25.6
243.775	23.55
243.992	-101.37
244.209	23.55
244.426	99.33
244.643	54.27
244.86	37.89
245.078	56.32
245.295	-15.36
245.512	66.56
245.729	15.36
245.946	-35.84
246.163	-1.02
246.38	46.08
246.597	-39.94
246.814	80.89
247.031	62.46
247.248	44.03
247.464	33.79
247.681	-68.61
247.898	39.94
248.115	87.04
248.332	-1.02
248.549	66.56
248.766	7.17
248.983	13.31
249.2	-29.7
249.417	-9.22
249.633	37.89
249.85	31.74
250.067	-39.94
250.284	-7.17
250.501	-41.98
250.717	70.65
250.934	-50.18
251.151	-46.08
251.368	27.65
251.585	-1.02
251.801	-11.26
252.018	74.75
252.235	11.26
252.451	-37.89
252.668	-19.46
252.885	17.41
253.102	70.65
253.318	-11.26
253.535	33.79
253.752	-1.02
253.968	52.22
254.185	-23.55
254.401	-19.46
254.618	33.79
254.835	17.41
255.051	44.03
255.268	52.22
255.484	13.31
255.701	68.61
255.917	68.61
256.134	1.02
256.351	17.41
256.567	33.79
256.784	11.26
257	74.75
257.217	-31.74
257.433	33.79
257.65	33.79
257.866	15.36
258.082	-27.65
258.299	25.6
258.515	-54.27
258.732	-3.07
258.948	72.7
259.165	54.27
259.381	35.84
259.597	-5.12
259.814	-48.13
260.03	70.65
260.246	11.26
260.463	-9.22
260.679	1.02
260.895	21.5
261.112	-7.17
261.328	19.46
261.544	-3.07
261.761	68.61
261.977	-35.84
262.193	-23.55
262.409	78.85
262.626	-13.31
262.842	80.89
263.058	-5.12
263.274	9.22
263.49	11.26
263.707	35.84
263.923	-3.07
264.139	-25.6
264.355	13.31
264.571	33.79
264.787	91.13
265.004	-7.17
265.22	60.42
265.436	41.98
265.652	-48.13
265.868	-9.22
266.084	-37.89
266.3	-13.31
266.516	-23.55
266.732	-21.5
266.948	78.85
267.164	17.41
267.38	37.89
267.596	41.98
267.812	60.42
268.028	-66.56
268.244	107.52
268.46	29.7
268.676	-7.17
268.892	50.18
269.108	15.36
269.324	41.98
269.54	-1.02
269.756	50.18
269.972	-35.84
270.188	-56.32
270.403	41.98
270.619	7.17
270.835	41.98
271.051	33.79
271.267	50.18
271.483	-11.26
271.698	-17.41
271.914	7.17
272.13	66.56
272.346	37.89
272.562	21.5
272.777	68.61
272.993	39.94
273.209	-35.84
273.425	-19.46
273.64	-13.31
273.856	74.75
274.072	-7.17
274.287	-11.26
274.503	54.27
274.719	17.41
274.934	3.07
275.15	7.17
275.366	-15.36
275.581	17.41
275.797	9.22
276.012	27.65
276.228	41.98
276.444	74.75
276.659	33.79
276.875	13.31
277.09	19.46
277.306	-25.6
277.521	1.02
277.737	46.08
277.952	46.08
278.168	13.31
278.383	7.17
278.599	58.37
278.814	60.42
279.03	-5.12
279.245	97.28
279.461	-7.17
279.676	1.02
279.892	-23.55
280.107	1.02
280.322	-27.65
280.538	31.74
280.753	-21.5
280.969	-5.12
281.184	27.65
281.399	37.89
281.615	44.03
281.83	134.14
282.045	5.12
282.26	48.13
282.476	11.26
282.691	93.18
282.906	29.7
283.122	-17.41
283.337	17.41
283.552	33.79
283.767	33.79
283.983	-52.22
284.198	-9.22
284.413	37.89
284.628	-27.65
284.843	-19.46
285.058	41.98
285.274	78.85
285.489	25.6
285.704	-19.46
285.919	7.17
286.134	11.26
286.349	-5.12
286.564	-27.65
286.779	54.27
286.995	52.22
287.21	-1.02
287.425	11.26
287.64	33.79
287.855	-1.02
288.07	-7.17
288.285	3.07
288.5	29.7
288.715	15.36
288.93	-15.36
289.145	-52.22
289.36	-19.46
289.575	21.5
289.79	5.12
290.004	66.56
290.219	52.22
290.434	3.07
290.649	-23.55
290.864	39.94
291.079	-15.36
291.294	-33.79
291.509	15.36
291.724	27.65
291.938	-1.02
292.153	-50.18
292.368	19.46
292.583	13.31
292.798	-21.5
293.012	56.32
293.227	84.99
293.442	5.12
293.657	17.41
293.871	37.89
294.086	-89.09
294.301	46.08
294.516	-31.74
294.73	-1.02
294.945	19.46
295.16	-44.03
295.374	35.84
295.589	95.23
295.804	33.79
296.018	25.6
296.233	15.36
296.447	-21.5
296.662	3.07
296.877	19.46
297.091	46.08
297.306	-9.22
297.52	5.12
297.735	-35.84
297.949	7.17
298.164	9.22
298.378	35.84
298.593	29.7
298.807	27.65
299.022	58.37
299.236	31.74
299.451	64.51
299.665	15.36
299.88	5.12
300.094	37.89
300.309	-1.02
300.523	11.26
300.737	37.89
300.952	-7.17
301.166	64.51
301.381	21.5
301.595	7.17
301.809	15.36
302.024	39.94
302.238	56.32
302.452	-70.65
302.667	23.55
302.881	46.08
303.095	1.02
303.309	76.8
303.524	-17.41
303.738	-5.12
303.952	21.5
304.166	72.7
304.381	7.17
304.595	-9.22
304.809	21.5
305.023	78.85
305.237	-1.02
305.452	-39.94
305.666	-35.84
305.88	99.33
306.094	89.09
306.308	48.13
306.522	17.41
306.736	3.07
306.95	41.98
307.164	29.7
307.379	-39.94
307.593	56.32
307.807	52.22
308.021	31.74
308.235	78.85
308.449	-82.94
308.663	-39.94
308.877	35.84
309.091	-15.36
309.305	33.79
309.519	25.6
309.733	50.18
309.947	23.55
310.161	23.55
310.374	-13.31
310.588	17.41
310.802	17.41
311.016	60.42
311.23	-7.17
311.444	66.56
311.658	39.94
311.872	7.17
312.085	25.6
312.299	46.08
312.513	-17.41
312.727	-15.36
312.941	-15.36
313.154	-29.7
313.368	23.55
313.582	35.84
313.796	-3.07
314.009	15.36
314.223	9.22
314.437	17.41
314.651	56.32
314.864	19.46
315.078	-5.12
315.292	17.41
315.505	27.65
315.719	72.7
315.933	37.89
316.146	19.46
316.36	41.98
316.573	-15.36
316.787	-1.02
317.001	-37.89
317.214	-56.32
317.428	54.27
317.641	-21.5
317.855	35.84
318.068	33.79
318.282	39.94
318.495	25.6
318.709	52.22
318.922	50.18
319.136	5.12
319.349	66.56
319.563	11.26
319.776	-9.22
319.99	111.61
320.203	21.5
320.417	56.32
320.63	21.5
320.843	54.27
321.057	37.89
321.27	-21.5
321.483	11.26
321.697	113.66
321.91	-25.6
322.124	78.85
322.337	52.22
322.55	27.65
322.763	-48.13
322.977	74.75
323.19	-46.08
323.403	-44.03
323.617	13.31
323.83	29.7
324.043	58.37
324.256	27.65
324.469	-3.07
324.683	58.37
324.896	29.7
325.109	-29.7
325.322	-7.17
325.535	54.27
325.748	-15.36
325.962	23.55
326.175	48.13
326.388	48.13
326.601	19.46
326.814	1.02
327.027	13.31
327.24	-48.13
327.453	-7.17
327.666	46.08
327.879	-66.56
328.092	56.32
328.305	5.12
328.518	13.31
328.731	29.7
328.944	19.46
329.157	25.6
329.37	-19.46
329.583	5.12
329.796	109.57
330.009	-5.12
330.222	29.7
330.435	3.07
330.648	-27.65
330.861	44.03
331.073	5.12
331.286	-11.26
331.499	29.7
331.712	50.18
331.925	44.03
332.138	74.75
332.35	-3.07
332.563	-5.12
332.776	-15.36
332.989	41.98
333.202	-3.07
333.414	50.18
333.627	27.65
333.84	7.17
334.053	21.5
334.265	-62.46
334.478	19.46
334.691	1.02
334.903	23.55
335.116	46.08
335.329	21.5
335.541	50.18
335.754	54.27
335.966	9.22
336.179	-1.02
336.392	74.75
336.604	80.89
336.817	105.47
337.029	66.56
337.242	-13.31
337.454	25.6
337.667	13.31
337.88	17.41
338.092	-17.41
338.305	91.13
338.517	-15.36
338.729	-11.26
338.942	60.42
339.154	-5.12
339.367	-27.65
339.579	66.56
339.792	-50.18
340.004	3.07
340.217	-9.22
340.429	7.17
340.641	-19.46
340.854	3.07
341.066	-9.22
341.278	56.32
341.491	-3.07
341.703	15.36
341.915	31.74
342.128	11.26
342.34	3.07
342.552	11.26
342.764	5.12
342.977	89.09
343.189	25.6
343.401	35.84
343.613	-56.32
343.826	97.28
344.038	54.27
344.25	31.74
344.462	-17.41
344.674	66.56
344.886	29.7
345.099	17.41
345.311	17.41
345.523	11.26
345.735	68.61
345.947	50.18
346.159	29.7
346.371	-21.5
346.583	-27.65
346.795	-1.02
347.007	-15.36
347.219	-17.41
347.431	29.7
347.643	99.33
347.855	140.29
348.067	87.04
348.279	-11.26
348.491	17.41
348.703	80.89
348.915	27.65
349.127	-68.61
349.339	121.85
349.551	31.74
349.763	52.22
349.975	-48.13
350.187	29.7
350.399	7.17
350.61	78.85
350.822	7.17
351.034	82.94
351.246	95.23
351.458	21.5
351.669	54.27
351.881	60.42
352.093	76.8
352.305	60.42
352.517	25.6
352.728	5.12
352.94	19.46
353.152	7.17
353.363	-39.94
353.575	5.12
353.787	50.18
353.999	29.7
354.21	72.7
354.422	-3.07
354.633	25.6
354.845	37.89
355.057	-1.02
355.268	19.46
355.48	1.02
355.692	-9.22
355.903	5.12
356.115	5.12
356.326	19.46
356.538	76.8
356.749	35.84
356.961	37.89
357.172	11.26
357.384	46.08
357.595	68.61
357.807	13.31
358.018	15.36
358.23	50.18
358.441	33.79
358.653	-5.12
358.864	25.6
359.075	76.8
359.287	-27.65
359.498	66.56
359.709	25.6
359.921	68.61
360.132	41.98
360.344	130.05
360.555	41.98
360.766	44.03
360.977	-19.46
361.189	97.28
361.4	9.22
361.611	3.07
361.823	48.13
362.034	27.65
362.245	46.08
362.456	64.51
362.667	3.07
362.879	72.7
363.09	1.02
363.301	82.94
363.512	-7.17
363.723	52.22
363.935	7.17
364.146	-21.5
364.357	52.22
364.568	44.03
364.779	89.09
364.99	21.5
365.201	-33.79
365.412	25.6
365.623	1.02
365.834	46.08
366.045	-17.41
366.256	76.8
366.467	66.56
366.678	50.18
366.889	-15.36
367.1	29.7
367.311	52.22
367.522	37.89
367.733	70.65
367.944	91.13
368.155	-1.02
368.366	80.89
368.577	23.55
368.788	31.74
368.999	21.5
369.209	62.46
369.42	82.94
369.631	44.03
369.842	87.04
370.053	-27.65
370.264	15.36
370.474	46.08
370.685	78.85
370.896	17.41
371.107	-13.31
371.317	50.18
371.528	74.75
371.739	66.56
371.95	5.12
372.16	66.56
372.371	7.17
372.582	39.94
372.792	62.46
373.003	113.66
373.214	5.12
373.424	134.14
373.635	70.65
373.846	105.47
374.056	23.55
374.267	31.74
374.477	54.27
374.688	-15.36
374.898	128
375.109	68.61
375.319	15.36
375.53	72.7
375.74	-1.02
375.951	15.36
376.161	44.03
376.372	56.32
376.582	25.6
376.793	35.84
377.003	-1.02
377.214	15.36
377.424	-39.94
377.635	33.79
377.845	78.85
378.055	1.02
378.266	54.27
378.476	48.13
378.686	103.42
378.897	19.46
379.107	-1.02
379.317	27.65
379.528	15.36
379.738	-1.02
379.948	-31.74
380.158	35.84
380.369	-25.6
380.579	25.6
380.789	37.89
380.999	50.18
381.21	76.8
381.42	64.51
381.63	62.46
381.84	41.98
382.05	84.99
382.261	78.85
382.471	29.7
382.681	62.46
382.891	39.94
383.101	62.46
383.311	70.65
383.521	99.33
383.731	72.7
383.941	21.5
384.151	64.51
384.361	29.7
384.571	35.84
384.781	68.61
384.991	82.94
385.201	181.25
385.411	25.6
385.621	97.28
385.831	54.27
386.041	52.22
386.251	68.61
386.461	109.57
386.671	17.41
386.881	80.89
387.091	29.7
387.301	27.65
387.511	13.31
387.72	74.75
387.93	60.42
388.14	58.37
388.35	58.37
388.56	60.42
388.769	37.89
388.979	33.79
389.189	-7.17
389.399	11.26
389.609	39.94
389.818	54.27
390.028	29.7
390.238	-15.36
390.447	41.98
390.657	74.75
390.867	19.46
391.076	46.08
391.286	60.42
391.496	15.36
391.705	9.22
391.915	80.89
392.125	66.56
392.334	64.51
392.544	60.42
392.753	52.22
392.963	3.07
393.172	46.08
393.382	-11.26
393.591	76.8
393.801	70.65
394.01	74.75
394.22	41.98
394.429	70.65
394.639	21.5
394.848	58.37
395.058	37.89
395.267	-31.74
395.477	150.53
395.686	97.28
395.895	101.37
396.105	99.33
396.314	64.51
396.524	119.81
396.733	-13.31
396.942	50.18
397.152	99.33
397.361	44.03
397.57	128
397.78	39.94
397.989	54.27
398.198	93.18
398.407	152.57
398.617	111.61
398.826	95.23
399.035	31.74
399.244	82.94
399.453	119.81
399.663	97.28
399.872	58.37
400.081	74.75
400.29	119.81
400.499	58.37
400.708	160.77
400.917	80.89
401.127	128
401.336	74.75
401.545	164.86
401.754	87.04
401.963	164.86
402.172	103.42
402.381	128
402.59	101.37
402.799	64.51
403.008	44.03
403.217	142.33
403.426	130.05
403.635	119.81
403.844	144.38
404.053	128
404.262	35.84
404.471	185.34
404.68	117.76
404.888	52.22
405.097	152.57
405.306	74.75
405.515	168.96
405.724	132.09
405.933	168.96
406.142	160.77
406.35	181.25
406.559	107.52
406.768	109.57
406.977	203.77
407.185	160.77
407.394	189.44
407.603	111.61
407.812	158.72
408.02	248.83
408.229	193.53
408.438	150.53
408.646	164.86
408.855	230.4
409.064	287.74
409.272	248.83
409.481	275.45
409.69	189.44
409.898	224.25
410.107	291.84
410.315	285.69
410.524	281.6
410.733	263.16
410.941	312.32
411.15	340.99
411.358	277.5
411.567	336.89
411.775	357.37
411.984	345.08
412.192	377.85
412.401	383.99
412.609	361.47
412.818	455.67
413.026	498.68
413.234	383.99
413.443	414.71
413.651	443.39
413.86	480.25
414.068	568.31
414.276	519.16
414.485	500.73
414.693	623.61
414.901	623.61
415.11	596.98
415.318	613.37
415.526	652.28
415.734	672.76
415.943	748.53
416.151	766.96
416.359	719.86
416.567	783.35
416.776	650.23
416.984	805.88
417.192	865.27
417.4	857.07
417.608	881.65
417.817	881.65
418.025	912.37
418.233	984.05
418.441	990.19
418.649	1053.68
418.857	1055.73
419.065	1160.17
419.273	1221.61
419.481	1217.52
419.689	1254.38
419.897	1309.68
420.105	1377.26
420.313	1367.02
420.521	1498.09
420.729	1440.75
420.937	1643.49
421.145	1553.38
421.353	1567.72
421.561	1651.69
421.769	1831.91
421.977	1836
422.185	1764.33
422.393	1868.77
422.601	2051.04
422.809	1928.16
423.017	1956.83
423.224	2120.67
423.432	2151.39
423.64	2147.3
423.848	2485.21
424.056	2366.43
424.263	2655.19
424.471	2589.66
424.679	2606.04
424.887	2755.54
425.094	2743.25
425.302	2802.65
425.51	3001.3
425.718	3032.02
425.925	3081.17
426.133	3204.05
426.341	3171.28
426.548	3337.17
426.756	3523.53
426.964	3550.15
427.171	3777.48
427.379	3797.96
427.586	3886.02
427.794	3941.32
428.001	4174.78
428.209	4248.51
428.417	4154.3
428.624	4580.28
428.832	4578.23
429.039	4735.93
429.247	4570.04
429.454	5079.99
429.662	5350.32
429.869	5106.61
430.076	5284.78
430.284	5223.34
430.491	5401.52
430.699	5764.01
430.906	5854.12
431.114	5692.33
431.321	6024.1
431.528	6075.3
431.736	6511.52
431.943	6890.39
432.15	6669.21
432.358	6853.53
432.565	7203.73
432.772	6939.54
432.979	7562.12
433.187	7537.55
433.394	7521.17
433.601	8156.04
433.808	8151.94
434.016	8217.47
434.223	8383.36
434.43	8876.92
434.637	8532.86
434.844	9423.73
435.052	9507.69
435.259	9319.28
435.466	9397.1
435.673	9319.28
435.88	10074.98
436.087	10404.71
436.294	10525.54
436.501	10290.02
436.708	10695.52
436.915	10775.39
437.122	11350.87
437.329	11176.79
437.537	11703.12
437.743	11836.24
437.95	11735.88
438.157	12417.86
438.364	12747.58
438.571	12727.1
438.778	12884.8
438.985	14218.02
439.192	13437.75
439.399	13974.31
439.606	13787.95
439.813	14398.24
440.02	15110.94
440.227	15037.21
440.433	15203.1
440.64	15489.81
440.847	15422.23
441.054	15629.07
441.261	16530.18
441.467	16442.12
441.674	16880.38
441.881	17443.57
442.088	17646.32
442.294	17152.76
442.501	17572.6
442.708	18105.07
442.914	18744.03
443.121	19612.37
443.328	19012.32
443.534	20167.37
443.741	19700.44
443.948	19442.39
444.154	21002.94
444.361	20822.72
444.568	21048
444.774	20953.79
444.981	21156.54
445.187	21899.95
445.394	22528.68
445.6	22647.46
445.807	24445.58
446.013	23677.59
446.22	23896.72
446.426	24957.57
446.633	25057.92
446.839	26018.42
447.046	25004.67
447.252	26298.99
447.459	26298.99
447.665	26352.24
447.871	27325.02
448.078	28465.74
448.284	26903.14
448.491	27843.16
448.697	29112.9
448.903	29237.83
449.11	29471.29
449.316	28828.23
449.522	29579.84
449.728	30327.35
449.935	30435.89
450.141	30589.49
450.347	31296.03
450.553	30290.48
450.76	30392.88
450.966	31687.2
451.172	31169.06
451.378	32064.02
451.584	31408.67
451.791	32178.71
451.997	32057.88
452.203	32602.64
452.409	32502.29
452.615	32465.42
452.821	31171.11
453.027	30640.68
453.233	32483.86
453.44	30972.46
453.646	31490.59
453.852	31498.78
454.058	32008.73
454.264	31007.27
454.47	31779.36
454.676	31005.22
454.882	32293.4
455.088	28928.58
455.294	29665.85
455.5	29518.4
455.705	30282.29
455.911	29166.15
456.117	28559.95
456.323	28287.57
456.529	26829.41
456.735	27920.98
456.941	26970.72
457.147	26675.82
457.352	25913.97
457.558	25547.39
457.764	25643.64
457.97	25258.62
458.176	24427.15
458.381	24507.02
458.587	23599.77
458.793	23579.29
458.999	22135.47
459.204	23579.29
459.41	22905.51
459.616	21355.19
459.821	21646.01
460.027	21607.09
460.233	20994.75
460.438	20071.12
460.644	20417.22
460.85	19131.1
461.055	19243.74
461.261	19002.08
461.466	17703.67
461.672	16927.49
461.878	18477.8
462.083	17079.04
462.289	17029.88
462.494	16478.98
462.7	16093.96
462.905	15510.29
463.111	16327.43
463.316	16081.67
463.522	15665.94
463.727	16007.95
463.932	15758.1
464.138	15651.6
464.343	15483.67
464.549	15131.42
464.754	15803.15
464.959	15315.73
465.165	15416.08
465.37	14932.76
465.575	14551.84
465.781	15014.68
465.986	14779.17
466.191	14388
466.397	14295.85
466.602	13751.09
466.807	14101.29
467.012	14213.93
467.218	14095.14
467.423	13804.33
467.628	14039.85
467.833	14476.07
