Data from USB4F104151__219__11-10-46-415.txt Node

Date: Wed Mar 12 11:10:46 EDT 2025
User: louis
Spectrometer: USB4F10415
Trigger mode: 4
Integration Time (sec): 2.000000E-2
Scans to average: 1
Electric dark correction enabled: true
Nonlinearity correction enabled: false
Boxcar width: 0
XAxis mode: Wavelengths
Number of Pixels in Spectrum: 3648
>>>>>Begin Spectral Data<<<<<
178.204	-89.09
178.424	-89.09
178.644	-89.09
178.864	-128
179.084	-95.23
179.304	-58.37
179.524	21.5
179.744	-17.41
179.964	29.7
180.184	-17.41
180.404	23.55
180.624	11.26
180.844	-29.7
181.064	-54.27
181.283	17.41
181.503	37.89
181.723	35.84
181.943	-37.89
182.163	31.74
182.383	3.07
182.602	13.31
182.822	13.31
183.042	-7.17
183.262	50.18
183.482	35.84
183.701	11.26
183.921	21.5
184.141	-7.17
184.361	68.61
184.58	-11.26
184.8	15.36
185.02	-13.31
185.239	21.5
185.459	3.07
185.679	3.07
185.898	-23.55
186.118	48.13
186.338	93.18
186.557	44.03
186.777	29.7
186.997	-15.36
187.216	-25.6
187.436	70.65
187.655	7.17
187.875	54.27
188.095	17.41
188.314	13.31
188.534	13.31
188.753	1.02
188.973	58.37
189.192	66.56
189.412	5.12
189.631	46.08
189.851	46.08
190.07	-19.46
190.29	-3.07
190.509	-1.02
190.729	-39.94
190.948	21.5
191.168	123.9
191.387	91.13
191.607	-72.7
191.826	5.12
192.045	9.22
192.265	64.51
192.484	-29.7
192.704	-15.36
192.923	-37.89
193.142	56.32
193.362	31.74
193.581	76.8
193.8	89.09
194.02	39.94
194.239	-7.17
194.458	21.5
194.678	5.12
194.897	74.75
195.116	-37.89
195.335	-19.46
195.555	33.79
195.774	31.74
195.993	33.79
196.212	-1.02
196.432	54.27
196.651	13.31
196.87	15.36
197.089	54.27
197.308	29.7
197.528	66.56
197.747	-17.41
197.966	37.89
198.185	115.71
198.404	39.94
198.623	13.31
198.842	-17.41
199.062	115.71
199.281	37.89
199.5	-19.46
199.719	7.17
199.938	74.75
200.157	39.94
200.376	27.65
200.595	-7.17
200.814	93.18
201.033	9.22
201.252	72.7
201.471	31.74
201.69	60.42
201.909	19.46
202.128	70.65
202.347	52.22
202.566	-1.02
202.785	15.36
203.004	-23.55
203.223	111.61
203.442	-105.47
203.661	15.36
203.879	60.42
204.098	-17.41
204.317	25.6
204.536	84.99
204.755	66.56
204.974	97.28
205.193	87.04
205.411	66.56
205.63	-23.55
205.849	13.31
206.068	70.65
206.287	13.31
206.505	29.7
206.724	23.55
206.943	-27.65
207.162	-1.02
207.381	39.94
207.599	50.18
207.818	21.5
208.037	29.7
208.255	-31.74
208.474	21.5
208.693	91.13
208.911	-3.07
209.13	11.26
209.349	64.51
209.567	-58.37
209.786	66.56
210.005	35.84
210.223	37.89
210.442	13.31
210.661	48.13
210.879	29.7
211.098	64.51
211.316	72.7
211.535	-1.02
211.753	5.12
211.972	15.36
212.191	-5.12
212.409	60.42
212.628	84.99
212.846	-72.7
213.065	103.42
213.283	46.08
213.502	5.12
213.72	50.18
213.938	50.18
214.157	35.84
214.375	5.12
214.594	-15.36
214.812	-25.6
215.031	15.36
215.249	78.85
215.467	46.08
215.686	52.22
215.904	41.98
216.122	17.41
216.341	54.27
216.559	31.74
216.778	19.46
216.996	-21.5
217.214	1.02
217.432	58.37
217.651	23.55
217.869	23.55
218.087	11.26
218.306	9.22
218.524	-58.37
218.742	27.65
218.96	1.02
219.179	-33.79
219.397	33.79
219.615	82.94
219.833	64.51
220.051	23.55
220.27	46.08
220.488	7.17
220.706	60.42
220.924	-3.07
221.142	39.94
221.36	-1.02
221.578	-27.65
221.796	1.02
222.015	46.08
222.233	50.18
222.451	109.57
222.669	-7.17
222.887	66.56
223.105	46.08
223.323	21.5
223.541	-21.5
223.759	33.79
223.977	1.02
224.195	123.9
224.413	-3.07
224.631	95.23
224.849	25.6
225.067	91.13
225.285	-62.46
225.503	-5.12
225.721	17.41
225.939	52.22
226.157	87.04
226.375	136.19
226.592	19.46
226.81	25.6
227.028	33.79
227.246	48.13
227.464	13.31
227.682	35.84
227.9	84.99
228.117	87.04
228.335	105.47
228.553	52.22
228.771	-9.22
228.989	19.46
229.206	82.94
229.424	-3.07
229.642	-9.22
229.86	7.17
230.077	27.65
230.295	11.26
230.513	-25.6
230.731	39.94
230.948	76.8
231.166	5.12
231.384	-27.65
231.601	31.74
231.819	119.81
232.037	46.08
232.254	19.46
232.472	23.55
232.689	1.02
232.907	1.02
233.125	70.65
233.342	1.02
233.56	-7.17
233.777	-37.89
233.995	5.12
234.213	89.09
234.43	3.07
234.648	52.22
234.865	21.5
235.083	27.65
235.3	44.03
235.518	17.41
235.735	-7.17
235.953	7.17
236.17	93.18
236.388	9.22
236.605	13.31
236.822	37.89
237.04	50.18
237.257	15.36
237.475	33.79
237.692	3.07
237.909	1.02
238.127	62.46
238.344	15.36
238.562	33.79
238.779	13.31
238.996	5.12
239.214	-5.12
239.431	-15.36
239.648	37.89
239.865	-9.22
240.083	-19.46
240.3	25.6
240.517	-7.17
240.735	15.36
240.952	7.17
241.169	27.65
241.386	27.65
241.603	19.46
241.821	-19.46
242.038	103.42
242.255	60.42
242.472	1.02
242.689	-15.36
242.907	82.94
243.124	-3.07
243.341	60.42
243.558	-52.22
243.775	19.46
243.992	-7.17
244.209	-60.42
244.426	52.22
244.643	15.36
244.86	134.14
245.078	31.74
245.295	46.08
245.512	70.65
245.729	17.41
245.946	41.98
246.163	-11.26
246.38	87.04
246.597	27.65
246.814	41.98
247.031	37.89
247.248	27.65
247.464	9.22
247.681	23.55
247.898	-19.46
248.115	-7.17
248.332	70.65
248.549	48.13
248.766	72.7
248.983	66.56
249.2	-50.18
249.417	68.61
249.633	21.5
249.85	70.65
250.067	-82.94
250.284	41.98
250.501	1.02
250.717	-7.17
250.934	9.22
251.151	66.56
251.368	-15.36
251.585	27.65
251.801	62.46
252.018	-21.5
252.235	60.42
252.451	99.33
252.668	29.7
252.885	62.46
253.102	52.22
253.318	7.17
253.535	7.17
253.752	111.61
253.968	-33.79
254.185	-27.65
254.401	-1.02
254.618	13.31
254.835	80.89
255.051	54.27
255.268	48.13
255.484	1.02
255.701	39.94
255.917	35.84
256.134	56.32
256.351	33.79
256.567	11.26
256.784	66.56
257	66.56
257.217	13.31
257.433	68.61
257.65	80.89
257.866	-19.46
258.082	62.46
258.299	9.22
258.515	33.79
258.732	-48.13
258.948	60.42
259.165	58.37
259.381	46.08
259.597	54.27
259.814	101.37
260.03	21.5
260.246	52.22
260.463	37.89
260.679	-29.7
260.895	1.02
261.112	-11.26
261.328	56.32
261.544	-15.36
261.761	84.99
261.977	64.51
262.193	-3.07
262.409	60.42
262.626	78.85
262.842	33.79
263.058	21.5
263.274	21.5
263.49	78.85
263.707	-23.55
263.923	99.33
264.139	41.98
264.355	19.46
264.571	84.99
264.787	89.09
265.004	80.89
265.22	46.08
265.436	72.7
265.652	50.18
265.868	5.12
266.084	-33.79
266.3	9.22
266.516	11.26
266.732	50.18
266.948	1.02
267.164	9.22
267.38	-19.46
267.596	33.79
267.812	68.61
268.028	82.94
268.244	74.75
268.46	17.41
268.676	95.23
268.892	-19.46
269.108	-13.31
269.324	-3.07
269.54	23.55
269.756	-33.79
269.972	-3.07
270.188	68.61
270.403	-25.6
270.619	23.55
270.835	48.13
271.051	15.36
271.267	-3.07
271.483	44.03
271.698	84.99
271.914	78.85
272.13	-19.46
272.346	-3.07
272.562	103.42
272.777	78.85
272.993	17.41
273.209	70.65
273.425	-1.02
273.64	-95.23
273.856	46.08
274.072	99.33
274.287	1.02
274.503	7.17
274.719	46.08
274.934	70.65
275.15	-31.74
275.366	-15.36
275.581	37.89
275.797	93.18
276.012	-41.98
276.228	13.31
276.444	-3.07
276.659	-54.27
276.875	19.46
277.09	-82.94
277.306	58.37
277.521	50.18
277.737	58.37
277.952	-23.55
278.168	97.28
278.383	48.13
278.599	11.26
278.814	-50.18
279.03	50.18
279.245	27.65
279.461	62.46
279.676	39.94
279.892	46.08
280.107	78.85
280.322	33.79
280.538	33.79
280.753	66.56
280.969	80.89
281.184	5.12
281.399	103.42
281.615	48.13
281.83	-3.07
282.045	35.84
282.26	41.98
282.476	78.85
282.691	-11.26
282.906	33.79
283.122	70.65
283.337	13.31
283.552	87.04
283.767	-9.22
283.983	103.42
284.198	29.7
284.413	64.51
284.628	-11.26
284.843	62.46
285.058	29.7
285.274	74.75
285.489	-3.07
285.704	-29.7
285.919	15.36
286.134	23.55
286.349	48.13
286.564	5.12
286.779	50.18
286.995	56.32
287.21	-54.27
287.425	33.79
287.64	72.7
287.855	44.03
288.07	-9.22
288.285	91.13
288.5	1.02
288.715	66.56
288.93	80.89
289.145	3.07
289.36	-48.13
289.575	7.17
289.79	44.03
290.004	39.94
290.219	60.42
290.434	62.46
290.649	29.7
290.864	82.94
291.079	76.8
291.294	70.65
291.509	111.61
291.724	-35.84
291.938	103.42
292.153	109.57
292.368	-1.02
292.583	17.41
292.798	-11.26
293.012	27.65
293.227	35.84
293.442	66.56
293.657	-37.89
293.871	84.99
294.086	19.46
294.301	72.7
294.516	11.26
294.73	19.46
294.945	87.04
295.16	13.31
295.374	11.26
295.589	84.99
295.804	25.6
296.018	66.56
296.233	25.6
296.447	82.94
296.662	25.6
296.877	19.46
297.091	11.26
297.306	64.51
297.52	1.02
297.735	13.31
297.949	-3.07
298.164	-35.84
298.378	21.5
298.593	37.89
298.807	21.5
299.022	52.22
299.236	-39.94
299.451	-5.12
299.665	-5.12
299.88	60.42
300.094	54.27
300.309	46.08
300.523	41.98
300.737	44.03
300.952	66.56
301.166	29.7
301.381	27.65
301.595	3.07
301.809	-5.12
302.024	35.84
302.238	31.74
302.452	5.12
302.667	60.42
302.881	46.08
303.095	74.75
303.309	15.36
303.524	-1.02
303.738	11.26
303.952	44.03
304.166	-3.07
304.381	60.42
304.595	11.26
304.809	5.12
305.023	80.89
305.237	54.27
305.452	29.7
305.666	-70.65
305.88	68.61
306.094	31.74
306.308	-7.17
306.522	62.46
306.736	3.07
306.95	80.89
307.164	80.89
307.379	50.18
307.593	31.74
307.807	56.32
308.021	1.02
308.235	74.75
308.449	-9.22
308.663	11.26
308.877	115.71
309.091	91.13
309.305	50.18
309.519	11.26
309.733	11.26
309.947	1.02
310.161	15.36
310.374	13.31
310.588	130.05
310.802	1.02
311.016	31.74
311.23	33.79
311.444	11.26
311.658	70.65
311.872	-23.55
312.085	33.79
312.299	23.55
312.513	33.79
312.727	11.26
312.941	37.89
313.154	66.56
313.368	70.65
313.582	15.36
313.796	97.28
314.009	70.65
314.223	23.55
314.437	35.84
314.651	13.31
314.864	-21.5
315.078	-1.02
315.292	-1.02
315.505	-3.07
315.719	68.61
315.933	-7.17
316.146	11.26
316.36	-17.41
316.573	103.42
316.787	-64.51
317.001	78.85
317.214	-35.84
317.428	76.8
317.641	27.65
317.855	-3.07
318.068	11.26
318.282	70.65
318.495	35.84
318.709	31.74
318.922	50.18
319.136	68.61
319.349	-31.74
319.563	39.94
319.776	-19.46
319.99	33.79
320.203	19.46
320.417	17.41
320.63	39.94
320.843	58.37
321.057	39.94
321.27	82.94
321.483	107.52
321.697	74.75
321.91	13.31
322.124	29.7
322.337	60.42
322.55	33.79
322.763	54.27
322.977	89.09
323.19	-11.26
323.403	62.46
323.617	39.94
323.83	72.7
324.043	-54.27
324.256	101.37
324.469	52.22
324.683	7.17
324.896	37.89
325.109	-1.02
325.322	-21.5
325.535	62.46
325.748	74.75
325.962	64.51
326.175	103.42
326.388	82.94
326.601	1.02
326.814	37.89
327.027	21.5
327.24	109.57
327.453	46.08
327.666	82.94
327.879	3.07
328.092	64.51
328.305	41.98
328.518	9.22
328.731	-5.12
328.944	52.22
329.157	50.18
329.37	-7.17
329.583	72.7
329.796	58.37
330.009	-25.6
330.222	101.37
330.435	78.85
330.648	48.13
330.861	-3.07
331.073	9.22
331.286	-11.26
331.499	89.09
331.712	13.31
331.925	3.07
332.138	111.61
332.35	46.08
332.563	9.22
332.776	46.08
332.989	19.46
333.202	-13.31
333.414	76.8
333.627	21.5
333.84	128
334.053	66.56
334.265	15.36
334.478	5.12
334.691	25.6
334.903	21.5
335.116	-11.26
335.329	31.74
335.541	13.31
335.754	103.42
335.966	-9.22
336.179	64.51
336.392	-21.5
336.604	-23.55
336.817	58.37
337.029	80.89
337.242	54.27
337.454	89.09
337.667	48.13
337.88	113.66
338.092	109.57
338.305	168.96
338.517	3.07
338.729	87.04
338.942	66.56
339.154	60.42
339.367	29.7
339.579	41.98
339.792	62.46
340.004	39.94
340.217	68.61
340.429	13.31
340.641	60.42
340.854	33.79
341.066	15.36
341.278	103.42
341.491	89.09
341.703	15.36
341.915	72.7
342.128	74.75
342.34	15.36
342.552	58.37
342.764	7.17
342.977	5.12
343.189	46.08
343.401	68.61
343.613	-21.5
343.826	80.89
344.038	13.31
344.25	105.47
344.462	3.07
344.674	7.17
344.886	9.22
345.099	29.7
345.311	35.84
345.523	50.18
345.735	11.26
345.947	62.46
346.159	121.85
346.371	35.84
346.583	123.9
346.795	160.77
347.007	-3.07
347.219	70.65
347.431	27.65
347.643	91.13
347.855	39.94
348.067	80.89
348.279	19.46
348.491	-15.36
348.703	84.99
348.915	50.18
349.127	-48.13
349.339	82.94
349.551	76.8
349.763	50.18
349.975	84.99
350.187	50.18
350.399	25.6
350.61	48.13
350.822	13.31
351.034	-3.07
351.246	29.7
351.458	82.94
351.669	84.99
351.881	74.75
352.093	62.46
352.305	58.37
352.517	54.27
352.728	93.18
352.94	3.07
353.152	66.56
353.363	56.32
353.575	70.65
353.787	39.94
353.999	-1.02
354.21	19.46
354.422	70.65
354.633	-9.22
354.845	68.61
355.057	17.41
355.268	-25.6
355.48	103.42
355.692	99.33
355.903	46.08
356.115	29.7
356.326	41.98
356.538	62.46
356.749	78.85
356.961	93.18
357.172	76.8
357.384	48.13
357.595	37.89
357.807	48.13
358.018	66.56
358.23	95.23
358.441	54.27
358.653	-7.17
358.864	-7.17
359.075	74.75
359.287	60.42
359.498	93.18
359.709	60.42
359.921	35.84
360.132	46.08
360.344	97.28
360.555	70.65
360.766	7.17
360.977	13.31
361.189	25.6
361.4	76.8
361.611	-3.07
361.823	80.89
362.034	58.37
362.245	-25.6
362.456	23.55
362.667	-46.08
362.879	-11.26
363.09	37.89
363.301	1.02
363.512	89.09
363.723	48.13
363.935	46.08
364.146	25.6
364.357	7.17
364.568	121.85
364.779	-29.7
364.99	74.75
365.201	5.12
365.412	50.18
365.623	11.26
365.834	89.09
366.045	60.42
366.256	54.27
366.467	54.27
366.678	-11.26
366.889	70.65
367.1	72.7
367.311	68.61
367.522	54.27
367.733	84.99
367.944	21.5
368.155	7.17
368.366	37.89
368.577	52.22
368.788	144.38
368.999	-27.65
369.209	15.36
369.42	-3.07
369.631	39.94
369.842	109.57
370.053	50.18
370.264	87.04
370.474	21.5
370.685	54.27
370.896	66.56
371.107	48.13
371.317	78.85
371.528	-37.89
371.739	31.74
371.95	41.98
372.16	44.03
372.371	23.55
372.582	50.18
372.792	64.51
373.003	66.56
373.214	54.27
373.424	56.32
373.635	-3.07
373.846	27.65
374.056	46.08
374.267	37.89
374.477	64.51
374.688	62.46
374.898	56.32
375.109	89.09
375.319	19.46
375.53	74.75
375.74	62.46
375.951	48.13
376.161	17.41
376.372	7.17
376.582	91.13
376.793	74.75
377.003	89.09
377.214	3.07
377.424	17.41
377.635	25.6
377.845	-15.36
378.055	93.18
378.266	37.89
378.476	-3.07
378.686	91.13
378.897	48.13
379.107	125.95
379.317	76.8
379.528	19.46
379.738	134.14
379.948	107.52
380.158	-3.07
380.369	82.94
380.579	39.94
380.789	70.65
380.999	101.37
381.21	17.41
381.42	35.84
381.63	33.79
381.84	68.61
382.05	84.99
382.261	52.22
382.471	-3.07
382.681	37.89
382.891	9.22
383.101	44.03
383.311	13.31
383.521	1.02
383.731	46.08
383.941	52.22
384.151	68.61
384.361	87.04
384.571	44.03
384.781	31.74
384.991	68.61
385.201	56.32
385.411	44.03
385.621	58.37
385.831	48.13
386.041	56.32
386.251	84.99
386.461	84.99
386.671	48.13
386.881	105.47
387.091	39.94
387.301	29.7
387.511	19.46
387.72	29.7
387.93	-5.12
388.14	41.98
388.35	39.94
388.56	62.46
388.769	27.65
388.979	-3.07
389.189	-29.7
389.399	54.27
389.609	76.8
389.818	50.18
390.028	-5.12
390.238	54.27
390.447	58.37
390.657	91.13
390.867	-5.12
391.076	39.94
391.286	62.46
391.496	52.22
391.705	66.56
391.915	60.42
392.125	72.7
392.334	62.46
392.544	82.94
392.753	119.81
392.963	35.84
393.172	-39.94
393.382	-5.12
393.591	99.33
393.801	62.46
394.01	130.05
394.22	29.7
394.429	39.94
394.639	48.13
394.848	80.89
395.058	91.13
395.267	62.46
395.477	119.81
395.686	56.32
395.895	123.9
396.105	91.13
396.314	148.48
396.524	183.29
396.733	58.37
396.942	97.28
397.152	62.46
397.361	128
397.57	91.13
397.78	97.28
397.989	113.66
398.198	132.09
398.407	5.12
398.617	154.62
398.826	54.27
399.035	101.37
399.244	95.23
399.453	56.32
399.663	115.71
399.872	128
400.081	107.52
400.29	123.9
400.499	152.57
400.708	140.29
400.917	117.76
401.127	93.18
401.336	97.28
401.545	109.57
401.754	80.89
401.963	146.43
402.172	107.52
402.381	70.65
402.59	89.09
402.799	111.61
403.008	111.61
403.217	58.37
403.426	142.33
403.635	66.56
403.844	111.61
404.053	148.48
404.262	107.52
404.471	132.09
404.68	103.42
404.888	140.29
405.097	177.15
405.306	160.77
405.515	193.53
405.724	158.72
405.933	56.32
406.142	152.57
406.35	175.1
406.559	211.96
406.768	107.52
406.977	181.25
407.185	207.87
407.394	197.63
407.603	224.25
407.812	164.86
408.02	179.2
408.229	226.3
408.438	179.2
408.646	242.68
408.855	132.09
409.064	220.16
409.272	281.6
409.481	273.4
409.69	279.55
409.898	230.4
410.107	300.03
410.315	302.08
410.524	320.51
410.733	289.79
410.941	302.08
411.15	306.17
411.358	353.27
411.567	361.47
411.775	424.95
411.984	429.05
412.192	427
412.401	416.76
412.609	379.9
412.818	379.9
413.026	406.52
413.234	467.96
413.443	451.58
413.651	422.91
413.86	431.1
414.068	521.21
414.276	637.94
414.485	564.22
414.693	582.65
414.901	648.18
415.11	635.89
415.318	617.46
415.526	594.93
415.734	621.56
415.943	615.41
416.151	812.02
416.359	738.29
416.567	685.05
416.776	771.06
416.984	814.07
417.192	816.12
417.4	967.67
417.608	783.35
417.817	930.8
418.025	998.38
418.233	1022.96
418.441	979.95
418.649	1041.39
418.857	1059.82
419.065	1162.22
419.273	1098.74
419.481	1197.04
419.689	1350.64
419.897	1334.25
420.105	1240.05
420.313	1303.53
420.521	1399.79
420.729	1459.18
420.937	1434.6
421.145	1516.52
421.353	1555.43
421.561	1688.55
421.769	1704.93
421.977	1897.44
422.185	1717.22
422.393	1928.16
422.601	1983.46
422.809	1960.93
423.017	2030.56
423.224	2161.63
423.432	2208.73
423.64	2237.41
423.848	2317.28
424.056	2327.52
424.263	2438.11
424.471	2503.64
424.679	2587.61
424.887	2675.67
425.094	2821.08
425.302	2757.59
425.51	2868.18
425.718	3048.4
425.925	2954.19
426.133	3032.02
426.341	3314.64
426.548	3425.23
426.756	3439.56
426.964	3515.34
427.171	3632.07
427.379	3652.55
427.586	3695.56
427.794	3904.45
428.001	4228.03
428.209	4254.66
428.417	4352.96
428.624	4404.16
428.832	4578.23
429.039	4498.36
429.247	4453.31
429.454	5047.22
429.662	5288.88
429.869	5077.94
430.076	5409.71
430.284	5106.61
430.491	5399.47
430.699	5776.3
430.906	5551.02
431.114	5815.21
431.321	5876.65
431.528	5958.57
431.736	6337.44
431.943	6744.99
432.15	6323.1
432.358	6726.55
432.565	6982.55
432.772	6960.02
432.979	7314.32
433.187	7537.55
433.394	7469.97
433.601	7762.83
433.808	7877.51
434.016	7938.95
434.223	8426.37
434.43	8637.31
434.637	8545.15
434.844	9034.61
435.052	9442.16
435.259	9151.35
435.466	9333.62
435.673	9216.88
435.88	9745.26
436.087	10277.73
436.294	10498.91
436.501	9984.87
436.708	10318.69
436.915	10713.95
437.122	11227.99
437.329	10978.14
437.537	11520.85
437.743	11561.81
437.95	11494.22
438.157	12014.41
438.364	12460.87
438.571	12620.61
438.778	12505.92
438.985	13652.78
439.192	13099.83
439.399	13595.44
439.606	13462.32
439.813	13998.89
440.02	14885.66
440.227	14478.12
440.433	14459.68
440.64	15153.94
440.847	14789.41
441.054	15248.15
441.261	16145.16
441.467	16102.15
441.674	16470.79
441.881	16927.49
442.088	17107.71
442.294	16761.6
442.501	17105.66
442.708	17748.72
442.914	18139.88
443.121	19096.28
443.328	18348.78
443.534	19815.12
443.741	19311.32
443.948	19235.55
444.154	20472.52
444.361	20179.66
444.568	20435.66
444.774	19946.19
444.981	20576.97
445.187	21134.01
445.394	21893.81
445.6	21803.7
445.807	23743.13
446.013	22758.05
446.22	23378.59
446.426	24132.24
446.633	24453.77
446.839	24988.29
447.046	23919.25
447.252	25500.28
447.459	25418.36
447.665	25164.42
447.871	26569.32
448.078	27540.06
448.284	26253.94
448.491	27026.02
448.697	28127.83
448.903	28736.07
449.11	28576.33
449.316	28123.73
449.522	28248.66
449.728	29268.55
449.935	29450.81
450.141	29385.28
450.347	30247.47
450.553	29215.3
450.76	29405.76
450.966	30323.25
451.172	30315.06
451.378	30722.6
451.584	30298.67
451.791	30962.22
451.997	30951.98
452.203	31167.01
452.409	31242.79
452.615	31160.87
452.821	29663.8
453.027	29479.49
453.233	31212.07
453.44	29704.76
453.646	30405.17
453.852	30038.58
454.058	30874.15
454.264	29518.4
454.47	30515.76
454.676	29657.66
454.882	30657.07
455.088	28189.27
455.294	28406.35
455.5	28639.82
455.705	28717.64
455.911	28021.33
456.117	27433.57
456.323	27109.99
456.529	25580.15
456.735	26808.93
456.941	25805.43
457.147	25434.75
457.352	24720.01
457.558	24177.3
457.764	24400.52
457.97	23800.47
458.176	23300.76
458.381	23571.1
458.587	22258.35
458.793	22254.25
458.999	21306.04
459.204	22684.33
459.41	22123.18
459.616	20873.92
459.821	20781.76
460.027	20493
460.233	20232.91
460.438	19354.33
460.644	19319.51
460.85	18522.85
461.055	18238.19
461.261	18176.75
461.466	16941.82
461.672	16327.43
461.878	17326.84
462.083	16257.8
462.289	16114.44
462.494	15840.01
462.7	15002.4
462.905	14746.4
463.111	15344.41
463.316	15346.45
463.522	14803.74
463.727	15162.14
463.932	14996.25
464.138	14795.55
464.343	14992.16
464.549	14504.74
464.754	15033.11
464.959	14768.93
465.165	14856.99
465.37	14029.61
465.575	13724.46
465.781	14361.38
465.986	14414.63
466.191	13927.21
466.397	13601.58
466.602	12964.67
466.807	13341.49
467.012	13566.77
467.218	13222.71
467.423	13310.77
467.628	13300.53
467.833	13722.41
468.038	13128.5
468.244	13054.78
468.449	13482.8
