Data from USB4F104151__12__11-04-41-355.txt Node

Date: Wed Mar 12 11:04:41 EDT 2025
User: louis
Spectrometer: USB4F10415
Trigger mode: 4
Integration Time (sec): 2.000000E-2
Scans to average: 1
Electric dark correction enabled: true
Nonlinearity correction enabled: false
Boxcar width: 0
XAxis mode: Wavelengths
Number of Pixels in Spectrum: 3648
>>>>>Begin Spectral Data<<<<<
178.204	-69.46
178.424	-69.46
178.644	-69.46
178.864	-18.26
179.084	-91.99
179.304	-36.69
179.524	6.31
179.744	-34.64
179.964	-8.02
180.184	49.32
180.404	4.27
180.624	12.46
180.844	-53.08
181.064	-59.22
181.283	-3.93
181.503	53.42
181.723	69.8
181.943	-40.79
182.163	8.36
182.383	2.22
182.602	39.08
182.822	20.65
183.042	92.33
183.262	8.36
183.482	77.99
183.701	-40.79
183.921	34.99
184.141	10.41
184.361	45.23
184.58	30.89
184.8	16.55
185.02	-3.93
185.239	71.85
185.459	-12.12
185.679	51.37
185.898	16.55
186.118	32.94
186.338	-24.4
186.557	82.09
186.777	-46.93
186.997	6.31
187.216	0.17
187.436	18.6
187.655	2.22
187.875	20.65
188.095	-42.84
188.314	22.7
188.534	90.28
188.753	26.79
188.973	71.85
189.192	-12.12
189.412	28.84
189.631	37.03
189.851	69.8
190.07	6.31
190.29	-5.97
190.509	37.03
190.729	-40.79
190.948	53.42
191.168	82.09
191.387	45.23
191.607	-3.93
191.826	-26.45
192.045	16.55
192.265	22.7
192.484	4.27
192.704	51.37
192.923	-40.79
193.142	10.41
193.362	24.75
193.581	16.55
193.8	-12.12
194.02	53.42
194.239	-81.75
194.458	34.99
194.678	28.84
194.897	34.99
195.116	24.75
195.335	57.51
195.555	6.31
195.774	-10.07
195.993	22.7
196.212	84.14
196.432	32.94
196.651	20.65
196.87	-46.93
197.089	57.51
197.308	30.89
197.528	-30.55
197.747	24.75
197.966	24.75
198.185	45.23
198.404	32.94
198.623	-5.97
198.842	32.94
199.062	4.27
199.281	16.55
199.5	51.37
199.719	8.36
199.938	170.15
200.157	-12.12
200.376	39.08
200.595	71.85
200.814	-24.4
201.033	90.28
201.252	37.03
201.471	88.23
201.69	43.18
201.909	18.6
202.128	-38.74
202.347	-5.97
202.566	-48.98
202.785	-5.97
203.004	22.7
203.223	84.14
203.442	34.99
203.661	45.23
203.879	-36.69
204.098	12.46
204.317	24.75
204.536	65.71
204.755	-5.97
204.974	32.94
205.193	39.08
205.411	168.1
205.63	0.17
205.849	37.03
206.068	53.42
206.287	16.55
206.505	41.13
206.724	-51.03
206.943	4.27
207.162	24.75
207.381	28.84
207.599	12.46
207.818	0.17
208.037	77.99
208.255	6.31
208.474	20.65
208.693	63.66
208.911	51.37
209.13	43.18
209.349	37.03
209.567	67.75
209.786	47.27
210.005	28.84
210.223	-22.36
210.442	-24.4
210.661	61.61
210.879	-46.93
211.098	84.14
211.316	47.27
211.535	14.51
211.753	-30.55
211.972	67.75
212.191	26.79
212.409	8.36
212.628	45.23
212.846	41.13
213.065	30.89
213.283	139.43
213.502	75.95
213.72	88.23
213.938	102.57
214.157	-16.21
214.375	18.6
214.594	-16.21
214.812	30.89
215.031	20.65
215.249	-14.17
215.467	37.03
215.686	51.37
215.904	39.08
216.122	-1.88
216.341	49.32
216.559	28.84
216.778	73.9
216.996	-26.45
217.214	51.37
217.432	49.32
217.651	-44.88
217.869	57.51
218.087	-42.84
218.306	20.65
218.524	28.84
218.742	34.99
218.96	43.18
219.179	-16.21
219.397	75.95
219.615	43.18
219.833	-12.12
220.051	-36.69
220.27	20.65
220.488	-46.93
220.706	41.13
220.924	-16.21
221.142	53.42
221.36	-26.45
221.578	28.84
221.796	28.84
222.015	51.37
222.233	12.46
222.451	129.19
222.669	-8.02
222.887	67.75
223.105	61.61
223.323	18.6
223.541	41.13
223.759	59.56
223.977	-12.12
224.195	77.99
224.413	82.09
224.631	94.38
224.849	49.32
225.067	49.32
225.285	20.65
225.503	18.6
225.721	59.56
225.939	-12.12
226.157	18.6
226.375	98.47
226.592	-3.93
226.81	6.31
227.028	-16.21
227.246	49.32
227.464	12.46
227.682	47.27
227.9	59.56
228.117	-20.31
228.335	47.27
228.553	-10.07
228.771	65.71
228.989	32.94
229.206	37.03
229.424	-10.07
229.642	22.7
229.86	37.03
230.077	88.23
230.295	75.95
230.513	14.51
230.731	32.94
230.948	34.99
231.166	53.42
231.384	-14.17
231.601	24.75
231.819	55.47
232.037	39.08
232.254	20.65
232.472	59.56
232.689	0.17
232.907	73.9
233.125	77.99
233.342	6.31
233.56	-46.93
233.777	14.51
233.995	75.95
234.213	43.18
234.43	-20.31
234.648	108.71
234.865	34.99
235.083	49.32
235.3	-3.93
235.518	-26.45
235.735	4.27
235.953	24.75
236.17	53.42
236.388	45.23
236.605	-30.55
236.822	77.99
237.04	-20.31
237.257	47.27
237.475	-12.12
237.692	47.27
237.909	63.66
238.127	12.46
238.344	28.84
238.562	77.99
238.779	12.46
238.996	6.31
239.214	-24.4
239.431	-12.12
239.648	14.51
239.865	28.84
240.083	110.76
240.3	47.27
240.517	-36.69
240.735	4.27
240.952	84.14
241.169	32.94
241.386	0.17
241.603	65.71
241.821	-32.6
242.038	28.84
242.255	71.85
242.472	18.6
242.689	55.47
242.907	151.72
243.124	63.66
243.341	14.51
243.558	45.23
243.775	75.95
243.992	0.17
244.209	24.75
244.426	16.55
244.643	-10.07
244.86	57.51
245.078	-5.97
245.295	102.57
245.512	108.71
245.729	-57.17
245.946	90.28
246.163	106.67
246.38	45.23
246.597	8.36
246.814	53.42
247.031	94.38
247.248	49.32
247.464	-30.55
247.681	45.23
247.898	8.36
248.115	43.18
248.332	26.79
248.549	80.04
248.766	67.75
248.983	102.57
249.2	10.41
249.417	-10.07
249.633	26.79
249.85	55.47
250.067	51.37
250.284	2.22
250.501	24.75
250.717	77.99
250.934	-73.56
251.151	-69.46
251.368	-8.02
251.585	26.79
251.801	121
252.018	-30.55
252.235	24.75
252.451	43.18
252.668	20.65
252.885	28.84
253.102	30.89
253.318	30.89
253.535	26.79
253.752	-16.21
253.968	-57.17
254.185	22.7
254.401	18.6
254.618	12.46
254.835	61.61
255.051	125.1
255.268	32.94
255.484	-3.93
255.701	14.51
255.917	4.27
256.134	24.75
256.351	-24.4
256.567	-8.02
256.784	108.71
257	10.41
257.217	90.28
257.433	37.03
257.65	75.95
257.866	4.27
258.082	0.17
258.299	-14.17
258.515	14.51
258.732	75.95
258.948	32.94
259.165	22.7
259.381	65.71
259.597	65.71
259.814	-5.97
260.03	47.27
260.246	24.75
260.463	28.84
260.679	53.42
260.895	55.47
261.112	55.47
261.328	2.22
261.544	6.31
261.761	94.38
261.977	139.43
262.193	32.94
262.409	67.75
262.626	92.33
262.842	37.03
263.058	-16.21
263.274	10.41
263.49	-16.21
263.707	110.76
263.923	-5.97
264.139	84.14
264.355	-12.12
264.571	0.17
264.787	22.7
265.004	77.99
265.22	20.65
265.436	110.76
265.652	-3.93
265.868	100.52
266.084	69.8
266.3	92.33
266.516	34.99
266.732	65.71
266.948	41.13
267.164	-5.97
267.38	100.52
267.596	51.37
267.812	104.62
268.028	69.8
268.244	-18.26
268.46	-5.97
268.676	-12.12
268.892	49.32
269.108	6.31
269.324	43.18
269.54	69.8
269.756	90.28
269.972	80.04
270.188	43.18
270.403	43.18
270.619	63.66
270.835	-53.08
271.051	-12.12
271.267	-57.17
271.483	8.36
271.698	112.81
271.914	71.85
272.13	-16.21
272.346	43.18
272.562	63.66
272.777	57.51
272.993	96.43
273.209	28.84
273.425	80.04
273.64	-53.08
273.856	18.6
274.072	18.6
274.287	14.51
274.503	41.13
274.719	0.17
274.934	57.51
275.15	4.27
275.366	-24.4
275.581	8.36
275.797	32.94
276.012	16.55
276.228	-10.07
276.444	22.7
276.659	129.19
276.875	16.55
277.09	63.66
277.306	28.84
277.521	45.23
277.737	22.7
277.952	86.19
278.168	108.71
278.383	53.42
278.599	32.94
278.814	51.37
279.03	28.84
279.245	92.33
279.461	20.65
279.676	94.38
279.892	88.23
280.107	57.51
280.322	16.55
280.538	20.65
280.753	24.75
280.969	-12.12
281.184	4.27
281.399	73.9
281.615	75.95
281.83	-5.97
282.045	6.31
282.26	-20.31
282.476	-12.12
282.691	-24.4
282.906	106.67
283.122	20.65
283.337	34.99
283.552	75.95
283.767	-12.12
283.983	47.27
284.198	65.71
284.413	18.6
284.628	10.41
284.843	67.75
285.058	0.17
285.274	28.84
285.489	-44.88
285.704	51.37
285.919	39.08
286.134	59.56
286.349	28.84
286.564	16.55
286.779	-32.6
286.995	16.55
287.21	-8.02
287.425	133.29
287.64	-1.88
287.855	84.14
288.07	24.75
288.285	51.37
288.5	43.18
288.715	41.13
288.93	37.03
289.145	61.61
289.36	51.37
289.575	8.36
289.79	61.61
290.004	4.27
290.219	65.71
290.434	-10.07
290.649	18.6
290.864	63.66
291.079	-32.6
291.294	45.23
291.509	24.75
291.724	45.23
291.938	16.55
292.153	123.05
292.368	51.37
292.583	47.27
292.798	-22.36
293.012	4.27
293.227	53.42
293.442	-1.88
293.657	-8.02
293.871	86.19
294.086	94.38
294.301	55.47
294.516	-24.4
294.73	28.84
294.945	28.84
295.16	-12.12
295.374	8.36
295.589	24.75
295.804	-34.64
296.018	-5.97
296.233	-3.93
296.447	-8.02
296.662	20.65
296.877	24.75
297.091	94.38
297.306	86.19
297.52	-20.31
297.735	39.08
297.949	30.89
298.164	14.51
298.378	4.27
298.593	-3.93
298.807	63.66
299.022	75.95
299.236	24.75
299.451	26.79
299.665	114.86
299.88	59.56
300.094	55.47
300.309	106.67
300.523	34.99
300.737	45.23
300.952	53.42
301.166	118.95
301.381	4.27
301.595	8.36
301.809	77.99
302.024	37.03
302.238	8.36
302.452	43.18
302.667	-14.17
302.881	94.38
303.095	84.14
303.309	63.66
303.524	18.6
303.738	43.18
303.952	37.03
304.166	45.23
304.381	30.89
304.595	86.19
304.809	98.47
305.023	43.18
305.237	59.56
305.452	102.57
305.666	30.89
305.88	18.6
306.094	51.37
306.308	116.9
306.522	51.37
306.736	137.38
306.95	67.75
307.164	53.42
307.379	53.42
307.593	63.66
307.807	84.14
308.021	82.09
308.235	55.47
308.449	32.94
308.663	20.65
308.877	47.27
309.091	45.23
309.305	28.84
309.519	28.84
309.733	24.75
309.947	77.99
310.161	37.03
310.374	12.46
310.588	65.71
310.802	47.27
311.016	39.08
311.23	98.47
311.444	71.85
311.658	75.95
311.872	65.71
312.085	118.95
312.299	37.03
312.513	75.95
312.727	112.81
312.941	94.38
313.154	45.23
313.368	57.51
313.582	63.66
313.796	47.27
314.009	114.86
314.223	12.46
314.437	131.24
314.651	53.42
314.864	28.84
315.078	75.95
315.292	30.89
315.505	2.22
315.719	4.27
315.933	59.56
316.146	-16.21
316.36	28.84
316.573	102.57
316.787	112.81
317.001	34.99
317.214	34.99
317.428	77.99
317.641	30.89
317.855	69.8
318.068	65.71
318.282	32.94
318.495	28.84
318.709	22.7
318.922	28.84
319.136	16.55
319.349	20.65
319.563	43.18
319.776	20.65
319.99	22.7
320.203	53.42
320.417	61.61
320.63	67.75
320.843	88.23
321.057	92.33
321.27	30.89
321.483	65.71
321.697	49.32
321.91	123.05
322.124	51.37
322.337	77.99
322.55	47.27
322.763	37.03
322.977	-3.93
323.19	102.57
323.403	22.7
323.617	12.46
323.83	67.75
324.043	32.94
324.256	61.61
324.469	55.47
324.683	69.8
324.896	41.13
325.109	65.71
325.322	49.32
325.535	55.47
325.748	102.57
325.962	110.76
326.175	-5.97
326.388	26.79
326.601	80.04
326.814	69.8
327.027	37.03
327.24	49.32
327.453	-53.08
327.666	57.51
327.879	94.38
328.092	69.8
328.305	65.71
328.518	71.85
328.731	37.03
328.944	80.04
329.157	16.55
329.37	129.19
329.583	123.05
329.796	24.75
330.009	12.46
330.222	55.47
330.435	47.27
330.648	49.32
330.861	28.84
331.073	22.7
331.286	71.85
331.499	59.56
331.712	45.23
331.925	-18.26
332.138	-44.88
332.35	102.57
332.563	75.95
332.776	110.76
332.989	30.89
333.202	57.51
333.414	94.38
333.627	43.18
333.84	51.37
334.053	24.75
334.265	39.08
334.478	34.99
334.691	51.37
334.903	53.42
335.116	65.71
335.329	86.19
335.541	73.9
335.754	88.23
335.966	10.41
336.179	51.37
336.392	37.03
336.604	-8.02
336.817	102.57
337.029	34.99
337.242	102.57
337.454	53.42
337.667	-1.88
337.88	121
338.092	55.47
338.305	6.31
338.517	-59.22
338.729	67.75
338.942	41.13
339.154	82.09
339.367	24.75
339.579	59.56
339.792	59.56
340.004	45.23
340.217	22.7
340.429	24.75
340.641	16.55
340.854	28.84
341.066	118.95
341.278	121
341.491	39.08
341.703	88.23
341.915	94.38
342.128	32.94
342.34	43.18
342.552	-1.88
342.764	88.23
342.977	34.99
343.189	34.99
343.401	39.08
343.613	-30.55
343.826	102.57
344.038	65.71
344.25	41.13
344.462	32.94
344.674	112.81
344.886	-16.21
345.099	90.28
345.311	49.32
345.523	55.47
345.735	39.08
345.947	51.37
346.159	59.56
346.371	47.27
346.583	77.99
346.795	-14.17
347.007	41.13
347.219	39.08
347.431	82.09
347.643	49.32
347.855	20.65
348.067	96.43
348.279	63.66
348.491	41.13
348.703	6.31
348.915	12.46
349.127	61.61
349.339	4.27
349.551	49.32
349.763	30.89
349.975	69.8
350.187	24.75
350.399	57.51
350.61	90.28
350.822	26.79
351.034	4.27
351.246	86.19
351.458	43.18
351.669	32.94
351.881	49.32
352.093	45.23
352.305	59.56
352.517	67.75
352.728	75.95
352.94	18.6
353.152	37.03
353.363	37.03
353.575	-5.97
353.787	82.09
353.999	47.27
354.21	98.47
354.422	37.03
354.633	28.84
354.845	63.66
355.057	28.84
355.268	75.95
355.48	49.32
355.692	41.13
355.903	55.47
356.115	26.79
356.326	45.23
356.538	43.18
356.749	69.8
356.961	-22.36
357.172	116.9
357.384	65.71
357.595	116.9
357.807	61.61
358.018	149.67
358.23	-20.31
358.441	88.23
358.653	180.39
358.864	16.55
359.075	16.55
359.287	22.7
359.498	112.81
359.709	0.17
359.921	104.62
360.132	-16.21
360.344	-14.17
360.555	112.81
360.766	61.61
360.977	59.56
361.189	55.47
361.4	10.41
361.611	106.67
361.823	92.33
362.034	28.84
362.245	14.51
362.456	57.51
362.667	34.99
362.879	32.94
363.09	82.09
363.301	69.8
363.512	-8.02
363.723	92.33
363.935	90.28
364.146	131.24
364.357	67.75
364.568	43.18
364.779	47.27
364.99	30.89
365.201	73.9
365.412	73.9
365.623	71.85
365.834	26.79
366.045	51.37
366.256	-24.4
366.467	71.85
366.678	139.43
366.889	106.67
367.1	-22.36
367.311	4.27
367.522	118.95
367.733	75.95
367.944	86.19
368.155	0.17
368.366	118.95
368.577	55.47
368.788	22.7
368.999	-10.07
369.209	41.13
369.42	77.99
369.631	129.19
369.842	53.42
370.053	125.1
370.264	131.24
370.474	73.9
370.685	28.84
370.896	73.9
371.107	100.52
371.317	26.79
371.528	77.99
371.739	55.47
371.95	59.56
372.16	-8.02
372.371	6.31
372.582	32.94
372.792	75.95
373.003	-22.36
373.214	61.61
373.424	28.84
373.635	39.08
373.846	196.78
374.056	114.86
374.267	12.46
374.477	84.14
374.688	73.9
374.898	88.23
375.109	12.46
375.319	-20.31
375.53	96.43
375.74	108.71
375.951	6.31
376.161	94.38
376.372	102.57
376.582	49.32
376.793	94.38
377.003	37.03
377.214	12.46
377.424	77.99
377.635	4.27
377.845	49.32
378.055	-3.93
378.266	61.61
378.476	77.99
378.686	86.19
378.897	116.9
379.107	71.85
379.317	94.38
379.528	26.79
379.738	77.99
379.948	94.38
380.158	94.38
380.369	100.52
380.579	106.67
380.789	-14.17
380.999	125.1
381.21	63.66
381.42	73.9
381.63	32.94
381.84	22.7
382.05	67.75
382.261	37.03
382.471	57.51
382.681	55.47
382.891	112.81
383.101	110.76
383.311	77.99
383.521	53.42
383.731	51.37
383.941	96.43
384.151	90.28
384.361	84.14
384.571	90.28
384.781	118.95
384.991	98.47
385.201	82.09
385.411	104.62
385.621	90.28
385.831	88.23
386.041	49.32
386.251	-12.12
386.461	102.57
386.671	26.79
386.881	73.9
387.091	90.28
387.301	110.76
387.511	4.27
387.72	102.57
387.93	69.8
388.14	39.08
388.35	92.33
388.56	61.61
388.769	69.8
388.979	59.56
389.189	82.09
389.399	39.08
389.609	88.23
389.818	71.85
390.028	92.33
390.238	168.1
390.447	131.24
390.657	49.32
390.867	90.28
391.076	108.71
391.286	8.36
391.496	127.14
391.705	112.81
391.915	34.99
392.125	131.24
392.334	88.23
392.544	77.99
392.753	14.51
392.963	133.29
393.172	59.56
393.382	90.28
393.591	125.1
393.801	123.05
394.01	151.72
394.22	127.14
394.429	176.3
394.639	180.39
394.848	110.76
395.058	139.43
395.267	104.62
395.477	73.9
395.686	98.47
395.895	188.58
396.105	182.44
396.314	82.09
396.524	102.57
396.733	98.47
396.942	143.53
397.152	178.34
397.361	127.14
397.57	127.14
397.78	151.72
397.989	147.62
398.198	123.05
398.407	151.72
398.617	151.72
398.826	135.34
399.035	100.52
399.244	151.72
399.453	125.1
399.663	88.23
399.872	178.34
400.081	198.82
400.29	254.12
400.499	159.91
400.708	178.34
400.917	166.06
401.127	131.24
401.336	166.06
401.545	164.01
401.754	202.92
401.963	252.07
402.172	143.53
402.381	153.77
402.59	114.86
402.799	98.47
403.008	102.57
403.217	202.92
403.426	202.92
403.635	221.35
403.844	204.97
404.053	143.53
404.262	268.45
404.471	239.78
404.68	229.54
404.888	161.96
405.097	223.4
405.306	231.59
405.515	221.35
405.724	237.74
405.933	260.26
406.142	241.83
406.35	252.07
406.559	262.31
406.768	301.22
406.977	311.46
407.185	295.08
407.394	274.6
407.603	190.63
407.812	317.61
408.02	352.42
408.229	352.42
408.438	221.35
408.646	356.52
408.855	381.09
409.064	301.22
409.272	385.19
409.481	360.61
409.69	381.09
409.898	456.87
410.107	413.86
410.315	454.82
410.524	319.65
410.733	444.58
410.941	463.01
411.15	506.02
411.358	534.69
411.567	514.21
411.775	542.88
411.984	544.93
412.192	467.11
412.401	616.61
412.609	731.3
412.818	704.67
413.026	669.86
413.234	669.86
413.443	766.11
413.651	809.12
413.86	827.55
414.068	817.31
414.276	856.22
414.485	841.89
414.693	962.72
414.901	913.56
415.11	1054.87
415.318	1026.2
415.526	983.2
415.734	1134.75
415.943	1001.63
416.151	1108.12
416.359	1171.61
416.567	1276.06
416.776	1208.47
416.984	1378.45
417.192	1396.89
417.4	1388.69
417.608	1319.06
417.817	1517.72
418.025	1628.31
418.233	1530
418.441	1673.36
418.649	1697.94
418.857	1763.47
419.065	1824.91
419.273	1867.92
419.481	2013.32
419.689	2134.15
419.897	2244.74
420.105	2357.38
420.313	2220.17
420.521	2322.57
420.729	2277.51
420.937	2445.45
421.145	2637.95
421.353	2715.78
421.561	2652.29
421.769	2719.87
421.977	2877.57
422.185	2871.42
422.393	3035.26
422.601	3256.44
422.809	3219.58
423.017	3350.65
423.224	3467.38
423.432	3573.88
423.64	3623.03
423.848	3934.32
424.056	3909.74
424.263	4171.88
424.471	4194.41
424.679	4251.75
424.887	4530.28
425.094	4538.47
425.302	4659.3
425.51	4847.71
425.718	4878.43
425.925	4939.87
426.133	5029.98
426.341	5396.57
426.548	5685.33
426.756	5705.81
426.964	5660.76
427.171	6146.12
427.379	6203.47
427.586	6514.76
427.794	6412.36
428.001	6883.39
428.209	7374.91
428.417	6969.41
428.624	7553.08
428.832	7319.61
429.039	7362.62
429.247	7544.89
429.454	8267.82
429.662	8824.87
429.869	8333.36
430.076	8900.64
430.284	8624.17
430.491	9113.63
430.699	9390.11
430.906	9367.58
431.114	9447.45
431.321	9781.27
431.528	10147.86
431.736	10686.47
431.943	11212.8
432.15	10809.35
432.358	11112.45
432.565	11616.25
432.772	11554.81
432.979	12218.35
433.187	12314.61
433.394	12652.52
433.601	13250.53
433.808	13400.03
434.016	13316.06
434.223	13920.21
434.43	14870.47
434.637	14657.48
434.844	15085.51
435.052	15665.08
435.259	15577.02
435.466	15697.85
435.673	15427.52
435.88	16650.16
436.087	17307.55
436.294	17459.1
436.501	17129.38
436.708	17332.13
436.915	17979.29
437.122	18861.96
437.329	18839.44
437.537	19296.13
437.743	19779.45
437.95	19404.67
438.157	20502.39
438.364	21360.48
438.571	21002.09
438.778	21213.03
438.985	23406.41
439.192	22419.28
439.399	23426.89
439.606	22714.19
439.813	23740.22
440.02	25337.64
440.227	25052.97
440.433	24440.63
440.64	25413.41
440.847	25534.25
441.054	26162.97
441.261	27834.11
441.467	27397.9
441.674	27760.39
441.881	29017.84
442.088	28722.93
442.294	28497.66
442.501	29419.24
442.708	29982.43
442.914	31510.22
443.121	32548.54
443.328	31710.92
443.534	34131.62
443.741	32949.94
443.948	32491.19
444.154	34821.78
444.361	34600.6
444.568	34879.13
444.774	35135.12
444.981	35350.16
445.187	36271.75
445.394	37516.91
445.6	37166.71
445.807	41055.8
446.013	38690.4
446.22	39800.4
446.426	41266.74
446.633	41713.2
446.839	42941.98
447.046	40896.06
447.252	43488.79
447.459	43480.6
447.665	43351.57
447.871	45209.08
448.078	46869.98
448.284	44938.75
448.491	45958.64
448.697	47791.57
448.903	48219.59
449.11	48117.2
449.316	47437.27
449.522	48477.64
449.728	49421.75
449.935	50359.72
450.141	49769.91
450.347	51064.22
450.553	49403.32
450.76	49642.93
450.966	50865.57
451.172	50890.15
451.378	52098.45
451.584	50976.16
451.791	52114.83
451.997	52063.63
452.203	52946.31
452.409	52608.39
452.615	52180.37
452.821	50253.23
453.027	49683.89
453.233	52280.72
453.44	49743.28
453.646	50480.55
453.852	50761.12
454.058	51586.46
454.264	49886.64
454.47	50638.25
454.676	49733.04
454.882	51254.68
455.088	46769.63
455.294	47433.17
455.5	47637.97
455.705	48068.05
455.911	46366.18
456.117	45495.8
456.323	45116.92
456.529	42169.9
456.735	44338.69
456.941	42841.63
457.147	42202.66
457.352	41608.75
457.558	40513.09
457.764	40521.28
457.97	39921.23
458.176	38936.15
458.381	38786.65
458.587	36886.14
458.793	36791.93
458.999	34977.43
459.204	37434.99
459.41	36509.31
459.616	34043.56
459.821	33982.12
460.027	33906.34
460.233	33490.6
460.438	31553.23
460.644	32089.79
460.85	30447.32
461.055	30338.78
461.261	29693.67
461.466	27537.16
461.672	26822.42
461.878	28987.12
462.083	27340.55
462.289	26691.35
462.494	26394.39
462.7	25009.97
462.905	24837.94
463.111	25136.94
463.316	24979.25
463.522	25014.06
463.727	25057.07
463.932	24813.36
464.138	24586.04
464.343	24756.02
464.549	23709.5
464.754	25005.87
464.959	24696.63
465.165	24358.71
465.37	23465.8
465.575	22724.43
465.781	23674.69
465.986	23947.07
466.191	22896.46
466.397	22689.62
466.602	21489.51
