Data from USB4F104151__200__11-10-07-899.txt Node

Date: Wed Mar 12 11:10:07 EDT 2025
User: louis
Spectrometer: USB4F10415
Trigger mode: 4
Integration Time (sec): 2.000000E-2
Scans to average: 1
Electric dark correction enabled: true
Nonlinearity correction enabled: false
Boxcar width: 0
XAxis mode: Wavelengths
Number of Pixels in Spectrum: 3648
>>>>>Begin Spectral Data<<<<<
178.204	-51.54
178.424	-51.54
178.644	-51.54
178.864	-61.78
179.084	-61.78
179.304	-0.34
179.524	-26.96
179.744	-18.77
179.964	71.34
180.184	-104.79
180.404	-8.53
180.624	-24.92
180.844	11.95
181.064	-6.49
181.283	48.81
181.503	16.04
181.723	42.67
181.943	-41.3
182.163	-12.63
182.383	26.28
182.602	7.85
182.822	16.04
183.042	73.39
183.262	28.33
183.482	18.09
183.701	26.28
183.921	-33.11
184.141	16.04
184.361	83.63
184.58	73.39
184.8	32.43
185.02	16.04
185.239	44.71
185.459	69.29
185.679	1.71
185.898	18.09
186.118	5.8
186.338	77.48
186.557	48.81
186.777	-49.49
186.997	18.09
187.216	1.71
187.436	46.76
187.655	34.47
187.875	16.04
188.095	-2.39
188.314	-41.3
188.534	16.04
188.753	40.62
188.973	40.62
189.192	50.86
189.412	22.19
189.631	13.99
189.851	85.67
190.07	83.63
190.29	-12.63
190.509	30.38
190.729	22.19
190.948	48.81
191.168	38.57
191.387	77.48
191.607	36.52
191.826	83.63
192.045	-2.39
192.265	42.67
192.484	9.9
192.704	48.81
192.923	5.8
193.142	59.05
193.362	-20.82
193.581	52.91
193.8	44.71
194.02	75.43
194.239	52.91
194.458	5.8
194.678	44.71
194.897	11.95
195.116	-35.16
195.335	32.43
195.555	34.47
195.774	67.24
195.993	-14.68
196.212	-2.39
196.432	-33.11
196.651	-43.35
196.87	44.71
197.089	59.05
197.308	36.52
197.528	-26.96
197.747	26.28
197.966	-6.49
198.185	63.15
198.404	-8.53
198.623	20.14
198.842	1.71
199.062	54.95
199.281	104.11
199.5	-67.92
199.719	42.67
199.938	52.91
200.157	11.95
200.376	16.04
200.595	46.76
200.814	7.85
201.033	-53.59
201.252	-6.49
201.471	-6.49
201.69	42.67
201.909	40.62
202.128	91.82
202.347	-35.16
202.566	11.95
202.785	48.81
203.004	13.99
203.223	57
203.442	48.81
203.661	-6.49
203.879	5.8
204.098	79.53
204.317	26.28
204.536	36.52
204.755	63.15
204.974	20.14
205.193	67.24
205.411	95.91
205.63	22.19
205.849	38.57
206.068	9.9
206.287	36.52
206.505	-4.44
206.724	1.71
206.943	42.67
207.162	34.47
207.381	40.62
207.599	34.47
207.818	30.38
208.037	11.95
208.255	-39.25
208.474	-6.49
208.693	-57.68
208.911	-2.39
209.13	46.76
209.349	34.47
209.567	13.99
209.786	59.05
210.005	128.68
210.223	44.71
210.442	-67.92
210.661	18.09
210.879	20.14
211.098	9.9
211.316	18.09
211.535	-14.68
211.753	81.58
211.972	-0.34
212.191	11.95
212.409	24.23
212.628	40.62
212.846	91.82
213.065	71.34
213.283	18.09
213.502	34.47
213.72	9.9
213.938	32.43
214.157	34.47
214.375	1.71
214.594	-12.63
214.812	63.15
215.031	5.8
215.249	13.99
215.467	42.67
215.686	-10.58
215.904	71.34
216.122	13.99
216.341	100.01
216.559	42.67
216.778	24.23
216.996	-4.44
217.214	48.81
217.432	54.95
217.651	-20.82
217.869	3.75
218.087	-4.44
218.306	42.67
218.524	73.39
218.742	-31.06
218.96	69.29
219.179	79.53
219.397	42.67
219.615	-22.87
219.833	50.86
220.051	-4.44
220.27	46.76
220.488	75.43
220.706	5.8
220.924	28.33
221.142	-8.53
221.36	-35.16
221.578	13.99
221.796	-31.06
222.015	-10.58
222.233	91.82
222.451	28.33
222.669	5.8
222.887	69.29
223.105	-18.77
223.323	7.85
223.541	-20.82
223.759	54.95
223.977	61.1
224.195	-2.39
224.413	67.24
224.631	16.04
224.849	36.52
225.067	54.95
225.285	-26.96
225.503	-12.63
225.721	-63.83
225.939	22.19
226.157	38.57
226.375	54.95
226.592	16.04
226.81	61.1
227.028	34.47
227.246	26.28
227.464	77.48
227.682	16.04
227.9	1.71
228.117	-4.44
228.335	9.9
228.553	104.11
228.771	18.09
228.989	-22.87
229.206	69.29
229.424	59.05
229.642	59.05
229.86	20.14
230.077	-26.96
230.295	5.8
230.513	1.71
230.731	-2.39
230.948	11.95
231.166	38.57
231.384	57
231.601	-35.16
231.819	-8.53
232.037	54.95
232.254	36.52
232.472	-6.49
232.689	34.47
232.907	44.71
233.125	-6.49
233.342	69.29
233.56	1.71
233.777	42.67
233.995	54.95
234.213	48.81
234.43	116.39
234.648	30.38
234.865	32.43
235.083	-0.34
235.3	73.39
235.518	59.05
235.735	34.47
235.953	48.81
236.17	-14.68
236.388	48.81
236.605	5.8
236.822	-39.25
237.04	44.71
237.257	16.04
237.475	-0.34
237.692	50.86
237.909	-4.44
238.127	20.14
238.344	42.67
238.562	61.1
238.779	28.33
238.996	81.58
239.214	22.19
239.431	-6.49
239.648	46.76
239.865	26.28
240.083	7.85
240.3	54.95
240.517	71.34
240.735	-4.44
240.952	3.75
241.169	13.99
241.386	59.05
241.603	-10.58
241.821	28.33
242.038	-6.49
242.255	-14.68
242.472	44.71
242.689	77.48
242.907	13.99
243.124	28.33
243.341	18.09
243.558	73.39
243.775	48.81
243.992	20.14
244.209	61.1
244.426	54.95
244.643	36.52
244.86	108.2
245.078	-4.44
245.295	54.95
245.512	-16.73
245.729	36.52
245.946	-37.2
246.163	3.75
246.38	5.8
246.597	-20.82
246.814	-24.92
247.031	40.62
247.248	61.1
247.464	22.19
247.681	-26.96
247.898	42.67
248.115	7.85
248.332	-22.87
248.549	59.05
248.766	61.1
248.983	9.9
249.2	-53.59
249.417	-22.87
249.633	1.71
249.85	46.76
250.067	20.14
250.284	48.81
250.501	24.23
250.717	54.95
250.934	61.1
251.151	38.57
251.368	44.71
251.585	59.05
251.801	1.71
252.018	46.76
252.235	-4.44
252.451	26.28
252.668	5.8
252.885	93.87
253.102	32.43
253.318	3.75
253.535	67.24
253.752	3.75
253.968	5.8
254.185	36.52
254.401	-31.06
254.618	52.91
254.835	-49.49
255.051	83.63
255.268	38.57
255.484	-18.77
255.701	-14.68
255.917	95.91
256.134	-24.92
256.351	3.75
256.567	52.91
256.784	42.67
257	30.38
257.217	32.43
257.433	-2.39
257.65	-10.58
257.866	34.47
258.082	-59.73
258.299	40.62
258.515	75.43
258.732	-31.06
258.948	20.14
259.165	40.62
259.381	-0.34
259.597	54.95
259.814	48.81
260.03	18.09
260.246	54.95
260.463	42.67
260.679	83.63
260.895	52.91
261.112	102.06
261.328	18.09
261.544	-31.06
261.761	97.96
261.977	-16.73
262.193	-47.44
262.409	67.24
262.626	34.47
262.842	26.28
263.058	-26.96
263.274	63.15
263.49	18.09
263.707	59.05
263.923	-61.78
264.139	-4.44
264.355	54.95
264.571	38.57
264.787	7.85
265.004	75.43
265.22	54.95
265.436	30.38
265.652	34.47
265.868	32.43
266.084	-61.78
266.3	28.33
266.516	18.09
266.732	9.9
266.948	59.05
267.164	20.14
267.38	22.19
267.596	-18.77
267.812	46.76
268.028	42.67
268.244	-2.39
268.46	22.19
268.676	-2.39
268.892	83.63
269.108	-6.49
269.324	50.86
269.54	13.99
269.756	91.82
269.972	63.15
270.188	-18.77
270.403	26.28
270.619	50.86
270.835	3.75
271.051	48.81
271.267	50.86
271.483	57
271.698	-16.73
271.914	32.43
272.13	38.57
272.346	52.91
272.562	42.67
272.777	-2.39
272.993	-0.34
273.209	-8.53
273.425	13.99
273.64	-33.11
273.856	100.01
274.072	-63.83
274.287	59.05
274.503	89.77
274.719	69.29
274.934	-18.77
275.15	-29.01
275.366	65.19
275.581	3.75
275.797	13.99
276.012	-26.96
276.228	36.52
276.444	7.85
276.659	65.19
276.875	-47.44
277.09	77.48
277.306	5.8
277.521	71.34
277.737	13.99
277.952	124.58
278.168	59.05
278.383	65.19
278.599	3.75
278.814	-6.49
279.03	-14.68
279.245	-22.87
279.461	-10.58
279.676	87.72
279.892	-6.49
280.107	-69.97
280.322	-18.77
280.538	18.09
280.753	59.05
280.969	46.76
281.184	20.14
281.399	89.77
281.615	-6.49
281.83	30.38
282.045	-14.68
282.26	48.81
282.476	-20.82
282.691	50.86
282.906	-6.49
283.122	-14.68
283.337	22.19
283.552	63.15
283.767	-10.58
283.983	46.76
284.198	9.9
284.413	7.85
284.628	16.04
284.843	-22.87
285.058	100.01
285.274	11.95
285.489	-24.92
285.704	44.71
285.919	57
286.134	1.71
286.349	52.91
286.564	5.8
286.779	30.38
286.995	11.95
287.21	-22.87
287.425	44.71
287.64	7.85
287.855	57
288.07	18.09
288.285	-0.34
288.5	30.38
288.715	18.09
288.93	-37.2
289.145	-10.58
289.36	-31.06
289.575	20.14
289.79	50.86
290.004	-20.82
290.219	28.33
290.434	11.95
290.649	-6.49
290.864	67.24
291.079	59.05
291.294	87.72
291.509	-8.53
291.724	-82.26
291.938	-12.63
292.153	69.29
292.368	-41.3
292.583	-2.39
292.798	11.95
293.012	24.23
293.227	32.43
293.442	52.91
293.657	54.95
293.871	48.81
294.086	28.33
294.301	122.54
294.516	24.23
294.73	-14.68
294.945	-2.39
295.16	-2.39
295.374	16.04
295.589	-4.44
295.804	-4.44
296.018	32.43
296.233	91.82
296.447	18.09
296.662	54.95
296.877	26.28
297.091	34.47
297.306	79.53
297.52	1.71
297.735	1.71
297.949	-47.44
298.164	13.99
298.378	7.85
298.593	20.14
298.807	3.75
299.022	42.67
299.236	-6.49
299.451	-0.34
299.665	-18.77
299.88	5.8
300.094	69.29
300.309	44.71
300.523	81.58
300.737	-0.34
300.952	7.85
301.166	-18.77
301.381	89.77
301.595	7.85
301.809	34.47
302.024	-14.68
302.238	-16.73
302.452	26.28
302.667	132.78
302.881	75.43
303.095	-26.96
303.309	42.67
303.524	-35.16
303.738	-12.63
303.952	22.19
304.166	-35.16
304.381	36.52
304.595	63.15
304.809	-2.39
305.023	20.14
305.237	-10.58
305.452	36.52
305.666	20.14
305.88	40.62
306.094	-35.16
306.308	26.28
306.522	61.1
306.736	36.52
306.95	-0.34
307.164	40.62
307.379	36.52
307.593	36.52
307.807	32.43
308.021	112.3
308.235	-26.96
308.449	-39.25
308.663	65.19
308.877	40.62
309.091	22.19
309.305	73.39
309.519	-26.96
309.733	75.43
309.947	-45.4
310.161	48.81
310.374	26.28
310.588	77.48
310.802	-12.63
311.016	63.15
311.23	-43.35
311.444	75.43
311.658	63.15
311.872	5.8
312.085	54.95
312.299	79.53
312.513	36.52
312.727	18.09
312.941	48.81
313.154	126.63
313.368	13.99
313.582	-2.39
313.796	30.38
314.009	130.73
314.223	44.71
314.437	95.91
314.651	71.34
314.864	5.8
315.078	-35.16
315.292	9.9
315.505	34.47
315.719	11.95
315.933	11.95
316.146	116.39
316.36	48.81
316.573	116.39
316.787	50.86
317.001	128.68
317.214	-26.96
317.428	-31.06
317.641	30.38
317.855	-35.16
318.068	65.19
318.282	26.28
318.495	108.2
318.709	16.04
318.922	-10.58
319.136	147.11
319.349	22.19
319.563	-22.87
319.776	-12.63
319.99	-41.3
320.203	18.09
320.417	22.19
320.63	5.8
320.843	67.24
321.057	9.9
321.27	46.76
321.483	42.67
321.697	24.23
321.91	28.33
322.124	34.47
322.337	85.67
322.55	67.24
322.763	22.19
322.977	-24.92
323.19	-16.73
323.403	-6.49
323.617	71.34
323.83	-18.77
324.043	30.38
324.256	63.15
324.469	24.23
324.683	20.14
324.896	40.62
325.109	108.2
325.322	1.71
325.535	30.38
325.748	-43.35
325.962	18.09
326.175	-47.44
326.388	28.33
326.601	63.15
326.814	50.86
327.027	-74.07
327.24	-16.73
327.453	7.85
327.666	54.95
327.879	54.95
328.092	13.99
328.305	30.38
328.518	93.87
328.731	-20.82
328.944	89.77
329.157	26.28
329.37	44.71
329.583	42.67
329.796	77.48
330.009	-6.49
330.222	7.85
330.435	9.9
330.648	38.57
330.861	-12.63
331.073	13.99
331.286	38.57
331.499	-49.49
331.712	50.86
331.925	16.04
332.138	34.47
332.35	100.01
332.563	73.39
332.776	57
332.989	9.9
333.202	22.19
333.414	30.38
333.627	-31.06
333.84	32.43
334.053	34.47
334.265	-29.01
334.478	-53.59
334.691	20.14
334.903	89.77
335.116	3.75
335.329	5.8
335.541	48.81
335.754	5.8
335.966	38.57
336.179	63.15
336.392	71.34
336.604	-4.44
336.817	52.91
337.029	34.47
337.242	71.34
337.454	114.34
337.667	1.71
337.88	130.73
338.092	63.15
338.305	46.76
338.517	-2.39
338.729	50.86
338.942	46.76
339.154	22.19
339.367	-10.58
339.579	63.15
339.792	59.05
340.004	-22.87
340.217	-10.58
340.429	93.87
340.641	34.47
340.854	20.14
341.066	26.28
341.278	9.9
341.491	32.43
341.703	-24.92
341.915	24.23
342.128	79.53
342.34	59.05
342.552	54.95
342.764	83.63
342.977	42.67
343.189	18.09
343.401	67.24
343.613	1.71
343.826	24.23
344.038	52.91
344.25	65.19
344.462	18.09
344.674	-10.58
344.886	9.9
345.099	18.09
345.311	77.48
345.523	83.63
345.735	-16.73
345.947	59.05
346.159	32.43
346.371	-6.49
346.583	-33.11
346.795	75.43
347.007	-45.4
347.219	1.71
347.431	42.67
347.643	18.09
347.855	9.9
348.067	63.15
348.279	116.39
348.491	-24.92
348.703	108.2
348.915	-6.49
349.127	30.38
349.339	91.82
349.551	32.43
349.763	89.77
349.975	48.81
350.187	85.67
350.399	87.72
350.61	65.19
350.822	104.11
351.034	71.34
351.246	-0.34
351.458	54.95
351.669	-37.2
351.881	140.97
352.093	-37.2
352.305	77.48
352.517	30.38
352.728	83.63
352.94	54.95
353.152	22.19
353.363	46.76
353.575	36.52
353.787	61.1
353.999	36.52
354.21	40.62
354.422	95.91
354.633	-2.39
354.845	7.85
355.057	36.52
355.268	40.62
355.48	50.86
355.692	24.23
355.903	34.47
356.115	3.75
356.326	-92.5
356.538	13.99
356.749	48.81
356.961	63.15
357.172	46.76
357.384	46.76
357.595	-4.44
357.807	100.01
358.018	-24.92
358.23	3.75
358.441	57
358.653	102.06
358.864	34.47
359.075	63.15
359.287	44.71
359.498	89.77
359.709	81.58
359.921	-2.39
360.132	32.43
360.344	50.86
360.555	9.9
360.766	85.67
360.977	73.39
361.189	-8.53
361.4	1.71
361.611	57
361.823	26.28
362.034	93.87
362.245	-6.49
362.456	32.43
362.667	20.14
362.879	24.23
363.09	50.86
363.301	20.14
363.512	83.63
363.723	20.14
363.935	59.05
364.146	13.99
364.357	34.47
364.568	36.52
364.779	-0.34
364.99	67.24
365.201	59.05
365.412	34.47
365.623	20.14
365.834	32.43
366.045	100.01
366.256	48.81
366.467	87.72
366.678	9.9
366.889	77.48
367.1	48.81
367.311	67.24
367.522	34.47
367.733	40.62
367.944	-16.73
368.155	54.95
368.366	34.47
368.577	75.43
368.788	77.48
368.999	40.62
369.209	36.52
369.42	-26.96
369.631	26.28
369.842	42.67
370.053	-80.21
370.264	93.87
370.474	50.86
370.685	1.71
370.896	36.52
371.107	22.19
371.317	-39.25
371.528	52.91
371.739	7.85
371.95	-2.39
372.16	-16.73
372.371	7.85
372.582	-0.34
372.792	91.82
373.003	26.28
373.214	-8.53
373.424	5.8
373.635	67.24
373.846	30.38
374.056	-6.49
374.267	40.62
374.477	114.34
374.688	-10.58
374.898	20.14
375.109	75.43
375.319	36.52
375.53	-22.87
375.74	-51.54
375.951	-2.39
376.161	63.15
376.372	38.57
376.582	83.63
376.793	-0.34
377.003	48.81
377.214	-2.39
377.424	26.28
377.635	42.67
377.845	46.76
378.055	71.34
378.266	34.47
378.476	48.81
378.686	5.8
378.897	95.91
379.107	112.3
379.317	7.85
379.528	18.09
379.738	79.53
379.948	18.09
380.158	65.19
380.369	22.19
380.579	122.54
380.789	-45.4
380.999	52.91
381.21	50.86
381.42	46.76
381.63	50.86
381.84	32.43
382.05	16.04
382.261	42.67
382.471	57
382.681	7.85
382.891	57
383.101	30.38
383.311	20.14
383.521	-45.4
383.731	-14.68
383.941	81.58
384.151	30.38
384.361	97.96
384.571	-26.96
384.781	91.82
384.991	18.09
385.201	75.43
385.411	48.81
385.621	26.28
385.831	42.67
386.041	48.81
386.251	13.99
386.461	36.52
386.671	81.58
386.881	71.34
387.091	36.52
387.301	48.81
387.511	52.91
387.72	85.67
387.93	44.71
388.14	-2.39
388.35	13.99
388.56	54.95
388.769	67.24
388.979	95.91
389.189	16.04
389.399	87.72
389.609	65.19
389.818	69.29
390.028	95.91
390.238	89.77
390.447	91.82
390.657	26.28
390.867	75.43
391.076	73.39
391.286	-0.34
391.496	83.63
391.705	104.11
391.915	11.95
392.125	85.67
392.334	73.39
392.544	40.62
392.753	73.39
392.963	36.52
393.172	1.71
393.382	11.95
393.591	50.86
393.801	40.62
394.01	81.58
394.22	13.99
394.429	46.76
394.639	73.39
394.848	71.34
395.058	13.99
395.267	26.28
395.477	122.54
395.686	93.87
395.895	149.16
396.105	104.11
396.314	83.63
396.524	18.09
396.733	22.19
396.942	50.86
397.152	102.06
397.361	108.2
397.57	71.34
397.78	54.95
397.989	91.82
398.198	85.67
398.407	38.57
398.617	73.39
398.826	67.24
399.035	69.29
399.244	30.38
399.453	83.63
399.663	34.47
399.872	95.91
400.081	81.58
400.29	87.72
400.499	-0.34
400.708	34.47
400.917	87.72
401.127	136.87
401.336	79.53
401.545	114.34
401.754	151.21
401.963	134.82
402.172	50.86
402.381	28.33
402.59	106.15
402.799	65.19
403.008	138.92
403.217	61.1
403.426	108.2
403.635	104.11
403.844	77.48
404.053	97.96
404.262	112.3
404.471	93.87
404.68	104.11
404.888	102.06
405.097	73.39
405.306	102.06
405.515	112.3
405.724	112.3
405.933	104.11
406.142	57
406.35	126.63
406.559	120.49
406.768	161.45
406.977	181.93
407.185	155.3
407.394	140.97
407.603	120.49
407.812	179.88
408.02	206.5
408.229	218.79
408.438	171.69
408.646	155.3
408.855	198.31
409.064	286.37
409.272	243.37
409.481	282.28
409.69	259.75
409.898	171.69
410.107	233.13
410.315	267.94
410.524	202.41
410.733	255.65
410.941	222.89
411.15	368.29
411.358	284.33
411.567	288.42
411.775	267.94
411.984	302.76
412.192	405.16
412.401	356.01
412.609	310.95
412.818	413.35
413.026	446.12
413.234	429.73
413.443	460.45
413.651	382.63
413.86	282.28
414.068	476.84
414.276	577.19
414.485	470.69
414.693	519.84
414.901	528.03
415.11	521.89
415.318	552.61
415.526	566.95
415.734	603.81
415.943	558.75
416.151	605.86
416.359	601.76
416.567	673.44
416.776	763.55
416.984	730.78
417.192	706.21
417.4	775.84
417.608	687.78
417.817	784.03
418.025	839.33
418.233	865.95
418.441	919.2
418.649	806.56
418.857	925.34
419.065	1011.36
419.273	1007.26
419.481	1013.4
419.689	1037.98
419.897	1160.86
420.105	1179.29
420.313	1201.82
420.521	1230.49
420.729	1271.45
420.937	1273.5
421.145	1324.69
421.353	1384.09
421.561	1433.24
421.769	1500.82
421.977	1535.64
422.185	1578.64
422.393	1777.3
422.601	1844.88
422.809	1769.1
423.017	1722
423.224	1883.79
423.432	1898.13
423.64	1943.18
423.848	2125.45
424.056	2037.39
424.263	2193.03
424.471	2229.9
424.679	2258.57
424.887	2344.58
425.094	2389.64
425.302	2463.37
425.51	2510.47
425.718	2647.68
425.925	2465.41
426.133	2805.38
426.341	2866.81
426.548	2936.45
426.756	3008.12
426.964	3040.89
427.171	3143.29
427.379	3352.18
427.586	3319.42
427.794	3378.81
428.001	3645.04
428.209	3657.33
428.417	3696.24
428.624	4007.53
428.832	3907.18
429.039	3962.48
429.247	3982.96
429.454	4322.92
429.662	4601.44
429.869	4197.99
430.076	4566.63
430.284	4552.29
430.491	4613.73
430.699	4961.89
430.906	4908.64
431.114	5060.19
431.321	5146.2
431.528	5246.55
431.736	5576.28
431.943	5817.94
432.15	5793.36
432.358	5805.65
432.565	5938.77
432.772	6010.45
432.979	6475.34
433.187	6379.08
433.394	6606.41
433.601	6884.93
433.808	7013.95
434.016	6760
434.223	7323.19
434.43	7800.37
434.637	7460.41
434.844	7970.35
435.052	8205.87
435.259	8138.29
435.466	8185.39
435.673	7882.29
435.88	8547.88
436.087	9010.72
436.294	9080.35
436.501	8719.91
436.708	8936.99
436.915	9256.48
437.122	9866.77
437.329	9809.43
437.537	9920.02
437.743	10075.66
437.95	10143.25
438.157	10446.35
438.364	10855.94
438.571	11005.44
438.778	11222.53
438.985	12006.9
439.192	11437.56
439.399	11828.73
439.606	11683.32
439.813	12357.1
440.02	13280.74
440.227	12695.02
440.433	12662.25
440.64	13104.61
440.847	13135.33
441.054	13354.46
441.261	14097.88
441.467	14077.4
441.674	14400.97
441.881	14960.07
442.088	14605.77
442.294	14396.88
442.501	15037.89
442.708	15433.15
442.914	16154.04
443.121	16561.58
443.328	16293.3
443.534	17479.07
443.741	16833.96
443.948	16373.17
444.154	18083.22
444.361	17440.16
444.568	17810.84
444.774	17851.8
444.981	18107.8
445.187	18277.78
445.394	19490.18
445.6	18982.28
445.807	21085.54
446.013	20016.51
446.22	20182.39
446.426	21030.25
446.633	21456.23
446.839	21929.31
447.046	20790.64
447.252	22173.02
447.459	22189.4
447.665	22064.47
447.871	23256.39
448.078	24069.44
448.284	22859.09
448.491	23453
448.697	24476.98
448.903	24915.25
449.11	25111.85
449.316	24423.73
449.522	24988.97
449.728	25322.79
449.935	25990.43
450.141	25683.23
450.347	26424.6
450.553	25206.06
450.76	25738.53
450.966	26393.88
451.172	26260.76
451.378	26641.68
451.584	26397.98
451.791	26936.59
451.997	26299.67
452.203	27360.52
452.409	27198.73
452.615	27108.62
452.821	26346.78
453.027	25457.96
453.233	27055.37
453.44	26066.2
453.646	26395.93
453.852	26369.3
454.058	26656.02
454.264	25896.22
454.47	26326.3
454.676	25595.17
454.882	26830.1
455.088	24235.32
455.294	24599.86
455.5	24718.64
455.705	25242.92
455.911	24370.49
456.117	23596.35
456.323	23381.32
456.529	22087
456.735	23149.9
456.941	22263.13
457.147	21974.36
457.352	21384.55
457.558	20964.71
457.764	21357.92
457.97	20850.03
458.176	20428.15
458.381	20284.79
458.587	18746.76
458.793	19277.19
458.999	18345.36
459.204	19830.14
459.41	19056.01
459.616	17941.91
459.821	17751.45
460.027	17640.86
460.233	17001.9
460.438	16373.17
460.644	16553.39
460.85	15732.15
461.055	15617.47
461.261	15562.17
461.466	14605.77
461.672	14110.16
461.878	14831.05
462.083	13911.51
462.289	13802.97
462.494	13673.95
462.7	13100.51
462.905	13043.17
463.111	13184.48
463.316	13256.16
463.522	13024.74
463.727	12899.81
463.932	12690.92
464.138	12805.61
464.343	12652.01
464.549	12629.48
464.754	12854.76
464.959	12983.78
465.165	12604.91
465.37	12127.73
465.575	11716.09
465.781	12250.61
465.986	12232.18
466.191	11884.02
466.397	11656.7
466.602	10954.24
466.807	11576.83
467.012	11474.43
467.218	11466.24
467.423	11460.09
467.628	11353.6
467.833	11967.99
468.038	11357.69
468.244	11296.25
468.449	11597.31
