Data from USB4F104151__53__11-05-43-548.txt Node

Date: Wed Mar 12 11:05:43 EDT 2025
User: louis
Spectrometer: USB4F10415
Trigger mode: 4
Integration Time (sec): 2.000000E-2
Scans to average: 1
Electric dark correction enabled: true
Nonlinearity correction enabled: false
Boxcar width: 0
XAxis mode: Wavelengths
Number of Pixels in Spectrum: 3648
>>>>>Begin Spectral Data<<<<<
178.204	-42.84
178.424	-42.84
178.644	-42.84
178.864	-83.8
179.084	-55.12
179.304	20.65
179.524	4.27
179.744	32.94
179.964	-8.02
180.184	-28.5
180.404	39.08
180.624	-40.79
180.844	16.55
181.064	6.31
181.283	-61.27
181.503	14.51
181.723	4.27
181.943	-14.17
182.163	69.8
182.383	67.75
182.602	12.46
182.822	53.42
183.042	37.03
183.262	-94.04
183.482	26.79
183.701	-12.12
183.921	67.75
184.141	10.41
184.361	-38.74
184.58	-1.88
184.8	63.66
185.02	2.22
185.239	65.71
185.459	39.08
185.679	88.23
185.898	-16.21
186.118	-34.64
186.338	-18.26
186.557	53.42
186.777	-32.6
186.997	45.23
187.216	34.99
187.436	41.13
187.655	-1.88
187.875	51.37
188.095	12.46
188.314	63.66
188.534	116.9
188.753	92.33
188.973	22.7
189.192	57.51
189.412	43.18
189.631	4.27
189.851	4.27
190.07	82.09
190.29	-20.31
190.509	14.51
190.729	57.51
190.948	26.79
191.168	75.95
191.387	32.94
191.607	37.03
191.826	14.51
192.045	55.47
192.265	24.75
192.484	49.32
192.704	18.6
192.923	-42.84
193.142	55.47
193.362	114.86
193.581	63.66
193.8	-12.12
194.02	4.27
194.239	-1.88
194.458	26.79
194.678	-14.17
194.897	24.75
195.116	71.85
195.335	14.51
195.555	82.09
195.774	-14.17
195.993	65.71
196.212	26.79
196.432	51.37
196.651	-51.03
196.87	71.85
197.089	0.17
197.308	43.18
197.528	-28.5
197.747	-28.5
197.966	22.7
198.185	65.71
198.404	63.66
198.623	-20.31
198.842	61.61
199.062	71.85
199.281	16.55
199.5	145.58
199.719	16.55
199.938	20.65
200.157	43.18
200.376	-5.97
200.595	20.65
200.814	43.18
201.033	47.27
201.252	88.23
201.471	110.76
201.69	0.17
201.909	18.6
202.128	43.18
202.347	53.42
202.566	80.04
202.785	49.32
203.004	-10.07
203.223	-5.97
203.442	51.37
203.661	24.75
203.879	39.08
204.098	100.52
204.317	24.75
204.536	34.99
204.755	53.42
204.974	73.9
205.193	-5.97
205.411	22.7
205.63	51.37
205.849	57.51
206.068	-12.12
206.287	116.9
206.505	-5.97
206.724	20.65
206.943	-16.21
207.162	53.42
207.381	88.23
207.599	123.05
207.818	22.7
208.037	26.79
208.255	-18.26
208.474	2.22
208.693	-5.97
208.911	43.18
209.13	-3.93
209.349	37.03
209.567	12.46
209.786	47.27
210.005	0.17
210.223	14.51
210.442	-57.17
210.661	71.85
210.879	22.7
211.098	53.42
211.316	69.8
211.535	30.89
211.753	45.23
211.972	61.61
212.191	59.56
212.409	-1.88
212.628	51.37
212.846	-1.88
213.065	10.41
213.283	108.71
213.502	-44.88
213.72	-42.84
213.938	55.47
214.157	41.13
214.375	77.99
214.594	18.6
214.812	28.84
215.031	-14.17
215.249	43.18
215.467	47.27
215.686	45.23
215.904	51.37
216.122	45.23
216.341	0.17
216.559	16.55
216.778	18.6
216.996	-12.12
217.214	110.76
217.432	104.62
217.651	22.7
217.869	30.89
218.087	47.27
218.306	-8.02
218.524	45.23
218.742	8.36
218.96	6.31
219.179	28.84
219.397	0.17
219.615	67.75
219.833	55.47
220.051	55.47
220.27	92.33
220.488	22.7
220.706	59.56
220.924	77.99
221.142	-61.27
221.36	-24.4
221.578	49.32
221.796	16.55
222.015	41.13
222.233	65.71
222.451	-28.5
222.669	-30.55
222.887	59.56
223.105	-14.17
223.323	39.08
223.541	6.31
223.759	125.1
223.977	67.75
224.195	63.66
224.413	80.04
224.631	20.65
224.849	28.84
225.067	61.61
225.285	43.18
225.503	49.32
225.721	0.17
225.939	32.94
226.157	71.85
226.375	102.57
226.592	49.32
226.81	24.75
227.028	-38.74
227.246	67.75
227.464	-1.88
227.682	69.8
227.9	12.46
228.117	43.18
228.335	-16.21
228.553	4.27
228.771	30.89
228.989	2.22
229.206	16.55
229.424	24.75
229.642	51.37
229.86	-63.32
230.077	49.32
230.295	-12.12
230.513	34.99
230.731	57.51
230.948	65.71
231.166	59.56
231.384	-18.26
231.601	65.71
231.819	55.47
232.037	-16.21
232.254	6.31
232.472	4.27
232.689	-18.26
232.907	37.03
233.125	14.51
233.342	63.66
233.56	-28.5
233.777	32.94
233.995	51.37
234.213	39.08
234.43	18.6
234.648	80.04
234.865	-14.17
235.083	8.36
235.3	94.38
235.518	-3.93
235.735	53.42
235.953	-3.93
236.17	77.99
236.388	47.27
236.605	6.31
236.822	26.79
237.04	51.37
237.257	45.23
237.475	37.03
237.692	39.08
237.909	18.6
238.127	47.27
238.344	118.95
238.562	-5.97
238.779	39.08
238.996	14.51
239.214	-8.02
239.431	92.33
239.648	12.46
239.865	51.37
240.083	69.8
240.3	80.04
240.517	51.37
240.735	10.41
240.952	37.03
241.169	-38.74
241.386	63.66
241.603	14.51
241.821	-8.02
242.038	77.99
242.255	10.41
242.472	106.67
242.689	88.23
242.907	110.76
243.124	-5.97
243.341	102.57
243.558	-36.69
243.775	37.03
243.992	26.79
244.209	63.66
244.426	34.99
244.643	32.94
244.86	-20.31
245.078	65.71
245.295	43.18
245.512	30.89
245.729	4.27
245.946	0.17
246.163	14.51
246.38	34.99
246.597	18.6
246.814	63.66
247.031	-18.26
247.248	43.18
247.464	90.28
247.681	22.7
247.898	26.79
248.115	45.23
248.332	-36.69
248.549	43.18
248.766	75.95
248.983	45.23
249.2	100.52
249.417	65.71
249.633	-55.12
249.85	-20.31
250.067	2.22
250.284	39.08
250.501	30.89
250.717	53.42
250.934	8.36
251.151	43.18
251.368	2.22
251.585	53.42
251.801	41.13
252.018	45.23
252.235	47.27
252.451	37.03
252.668	14.51
252.885	75.95
253.102	10.41
253.318	61.61
253.535	-14.17
253.752	20.65
253.968	69.8
254.185	67.75
254.401	41.13
254.618	59.56
254.835	-14.17
255.051	-1.88
255.268	37.03
255.484	61.61
255.701	24.75
255.917	75.95
256.134	47.27
256.351	22.7
256.567	14.51
256.784	10.41
257	-10.07
257.217	37.03
257.433	41.13
257.65	59.56
257.866	61.61
258.082	18.6
258.299	0.17
258.515	127.14
258.732	6.31
258.948	28.84
259.165	61.61
259.381	12.46
259.597	-22.36
259.814	63.66
260.03	-28.5
260.246	32.94
260.463	34.99
260.679	59.56
260.895	41.13
261.112	82.09
261.328	6.31
261.544	82.09
261.761	98.47
261.977	-10.07
262.193	75.95
262.409	26.79
262.626	-26.45
262.842	26.79
263.058	20.65
263.274	86.19
263.49	84.14
263.707	14.51
263.923	47.27
264.139	53.42
264.355	-32.6
264.571	49.32
264.787	16.55
265.004	98.47
265.22	-26.45
265.436	51.37
265.652	43.18
265.868	10.41
266.084	22.7
266.3	37.03
266.516	-40.79
266.732	82.09
266.948	12.46
267.164	69.8
267.38	22.7
267.596	-3.93
267.812	41.13
268.028	77.99
268.244	82.09
268.46	90.28
268.676	-1.88
268.892	98.47
269.108	45.23
269.324	24.75
269.54	43.18
269.756	12.46
269.972	14.51
270.188	94.38
270.403	22.7
270.619	49.32
270.835	8.36
271.051	6.31
271.267	65.71
271.483	71.85
271.698	77.99
271.914	37.03
272.13	28.84
272.346	88.23
272.562	26.79
272.777	43.18
272.993	8.36
273.209	39.08
273.425	14.51
273.64	6.31
273.856	12.46
274.072	-30.55
274.287	69.8
274.503	0.17
274.719	45.23
274.934	39.08
275.15	41.13
275.366	43.18
275.581	6.31
275.797	59.56
276.012	30.89
276.228	28.84
276.444	47.27
276.659	151.72
276.875	-10.07
277.09	6.31
277.306	80.04
277.521	26.79
277.737	2.22
277.952	96.43
278.168	6.31
278.383	63.66
278.599	-32.6
278.814	18.6
279.03	0.17
279.245	84.14
279.461	20.65
279.676	84.14
279.892	57.51
280.107	55.47
280.322	10.41
280.538	34.99
280.753	8.36
280.969	55.47
281.184	98.47
281.399	57.51
281.615	14.51
281.83	45.23
282.045	49.32
282.26	-38.74
282.476	39.08
282.691	84.14
282.906	92.33
283.122	43.18
283.337	59.56
283.552	24.75
283.767	69.8
283.983	61.61
284.198	39.08
284.413	18.6
284.628	-61.27
284.843	0.17
285.058	47.27
285.274	71.85
285.489	73.9
285.704	116.9
285.919	-8.02
286.134	73.9
286.349	90.28
286.564	-5.97
286.779	39.08
286.995	34.99
287.21	-32.6
287.425	20.65
287.64	37.03
287.855	34.99
288.07	30.89
288.285	-1.88
288.5	45.23
288.715	61.61
288.93	57.51
289.145	104.62
289.36	26.79
289.575	16.55
289.79	80.04
290.004	57.51
290.219	43.18
290.434	82.09
290.649	39.08
290.864	32.94
291.079	37.03
291.294	39.08
291.509	10.41
291.724	75.95
291.938	45.23
292.153	67.75
292.368	-10.07
292.583	92.33
292.798	14.51
293.012	-20.31
293.227	-16.21
293.442	73.9
293.657	22.7
293.871	88.23
294.086	73.9
294.301	75.95
294.516	75.95
294.73	80.04
294.945	22.7
295.16	-5.97
295.374	80.04
295.589	84.14
295.804	4.27
296.018	108.71
296.233	63.66
296.447	77.99
296.662	77.99
296.877	-1.88
297.091	90.28
297.306	55.47
297.52	20.65
297.735	-26.45
297.949	80.04
298.164	39.08
298.378	-10.07
298.593	-22.36
298.807	22.7
299.022	43.18
299.236	43.18
299.451	98.47
299.665	63.66
299.88	-8.02
300.094	30.89
300.309	39.08
300.523	84.14
300.737	43.18
300.952	51.37
301.166	43.18
301.381	71.85
301.595	63.66
301.809	-12.12
302.024	10.41
302.238	51.37
302.452	92.33
302.667	10.41
302.881	-22.36
303.095	127.14
303.309	12.46
303.524	6.31
303.738	28.84
303.952	18.6
304.166	30.89
304.381	65.71
304.595	80.04
304.809	12.46
305.023	106.67
305.237	75.95
305.452	67.75
305.666	39.08
305.88	-14.17
306.094	69.8
306.308	18.6
306.522	51.37
306.736	18.6
306.95	30.89
307.164	24.75
307.379	43.18
307.593	22.7
307.807	86.19
308.021	65.71
308.235	45.23
308.449	0.17
308.663	37.03
308.877	88.23
309.091	10.41
309.305	57.51
309.519	-5.97
309.733	26.79
309.947	30.89
310.161	24.75
310.374	-10.07
310.588	108.71
310.802	24.75
311.016	34.99
311.23	55.47
311.444	92.33
311.658	90.28
311.872	30.89
312.085	20.65
312.299	10.41
312.513	59.56
312.727	65.71
312.941	92.33
313.154	10.41
313.368	59.56
313.582	69.8
313.796	12.46
314.009	24.75
314.223	59.56
314.437	34.99
314.651	61.61
314.864	82.09
315.078	53.42
315.292	67.75
315.505	22.7
315.719	12.46
315.933	-16.21
316.146	41.13
316.36	30.89
316.573	69.8
316.787	16.55
317.001	39.08
317.214	14.51
317.428	55.47
317.641	-5.97
317.855	104.62
318.068	106.67
318.282	18.6
318.495	65.71
318.709	168.1
318.922	18.6
319.136	77.99
319.349	59.56
319.563	49.32
319.776	53.42
319.99	-30.55
320.203	80.04
320.417	43.18
320.63	88.23
320.843	75.95
321.057	14.51
321.27	121
321.483	100.52
321.697	100.52
321.91	59.56
322.124	65.71
322.337	73.9
322.55	51.37
322.763	14.51
322.977	20.65
323.19	88.23
323.403	59.56
323.617	94.38
323.83	51.37
324.043	-5.97
324.256	20.65
324.469	22.7
324.683	92.33
324.896	22.7
325.109	22.7
325.322	30.89
325.535	49.32
325.748	71.85
325.962	71.85
326.175	45.23
326.388	125.1
326.601	71.85
326.814	55.47
327.027	108.71
327.24	94.38
327.453	53.42
327.666	75.95
327.879	16.55
328.092	6.31
328.305	24.75
328.518	57.51
328.731	45.23
328.944	28.84
329.157	65.71
329.37	49.32
329.583	32.94
329.796	37.03
330.009	43.18
330.222	55.47
330.435	57.51
330.648	53.42
330.861	51.37
331.073	71.85
331.286	43.18
331.499	67.75
331.712	106.67
331.925	37.03
332.138	67.75
332.35	51.37
332.563	20.65
332.776	-40.79
332.989	0.17
333.202	28.84
333.414	34.99
333.627	77.99
333.84	0.17
334.053	51.37
334.265	55.47
334.478	49.32
334.691	45.23
334.903	86.19
335.116	88.23
335.329	51.37
335.541	14.51
335.754	39.08
335.966	-14.17
336.179	98.47
336.392	-28.5
336.604	24.75
336.817	43.18
337.029	8.36
337.242	61.61
337.454	30.89
337.667	-12.12
337.88	53.42
338.092	82.09
338.305	39.08
338.517	92.33
338.729	51.37
338.942	51.37
339.154	32.94
339.367	34.99
339.579	59.56
339.792	71.85
340.004	49.32
340.217	16.55
340.429	84.14
340.641	-14.17
340.854	57.51
341.066	2.22
341.278	45.23
341.491	90.28
341.703	73.9
341.915	45.23
342.128	118.95
342.34	57.51
342.552	18.6
342.764	67.75
342.977	10.41
343.189	57.51
343.401	0.17
343.613	53.42
343.826	34.99
344.038	80.04
344.25	39.08
344.462	39.08
344.674	-1.88
344.886	49.32
345.099	80.04
345.311	86.19
345.523	90.28
345.735	8.36
345.947	69.8
346.159	34.99
346.371	86.19
346.583	16.55
346.795	104.62
347.007	32.94
347.219	53.42
347.431	108.71
347.643	67.75
347.855	22.7
348.067	67.75
348.279	125.1
348.491	28.84
348.703	88.23
348.915	-12.12
349.127	129.19
349.339	-18.26
349.551	26.79
349.763	67.75
349.975	75.95
350.187	86.19
350.399	24.75
350.61	28.84
350.822	88.23
351.034	10.41
351.246	45.23
351.458	39.08
351.669	116.9
351.881	86.19
352.093	51.37
352.305	45.23
352.517	43.18
352.728	129.19
352.94	112.81
353.152	102.57
353.363	45.23
353.575	37.03
353.787	65.71
353.999	104.62
354.21	92.33
354.422	-38.74
354.633	43.18
354.845	6.31
355.057	129.19
355.268	133.29
355.48	24.75
355.692	55.47
355.903	-1.88
356.115	-1.88
356.326	112.81
356.538	80.04
356.749	108.71
356.961	112.81
357.172	6.31
357.384	51.37
357.595	125.1
357.807	57.51
358.018	39.08
358.23	90.28
358.441	30.89
358.653	39.08
358.864	57.51
359.075	80.04
359.287	-1.88
359.498	147.62
359.709	51.37
359.921	-14.17
360.132	18.6
360.344	61.61
360.555	6.31
360.766	34.99
360.977	-1.88
361.189	75.95
361.4	75.95
361.611	77.99
361.823	112.81
362.034	47.27
362.245	61.61
362.456	8.36
362.667	65.71
362.879	20.65
363.09	26.79
363.301	114.86
363.512	37.03
363.723	12.46
363.935	92.33
364.146	90.28
364.357	-5.97
364.568	110.76
364.779	49.32
364.99	108.71
365.201	92.33
365.412	59.56
365.623	-1.88
365.834	67.75
366.045	80.04
366.256	22.7
366.467	6.31
366.678	59.56
366.889	26.79
367.1	61.61
367.311	65.71
367.522	77.99
367.733	90.28
367.944	84.14
368.155	47.27
368.366	16.55
368.577	96.43
368.788	104.62
368.999	88.23
369.209	14.51
369.42	98.47
369.631	104.62
369.842	59.56
370.053	121
370.264	49.32
370.474	80.04
370.685	75.95
370.896	43.18
371.107	49.32
371.317	108.71
371.528	63.66
371.739	69.8
371.95	61.61
372.16	112.81
372.371	24.75
372.582	45.23
372.792	88.23
373.003	10.41
373.214	14.51
373.424	133.29
373.635	53.42
373.846	84.14
374.056	22.7
374.267	94.38
374.477	2.22
374.688	59.56
374.898	39.08
375.109	26.79
375.319	75.95
375.53	123.05
375.74	51.37
375.951	39.08
376.161	129.19
376.372	104.62
376.582	8.36
376.793	69.8
377.003	100.52
377.214	82.09
377.424	26.79
377.635	75.95
377.845	34.99
378.055	86.19
378.266	84.14
378.476	65.71
378.686	-3.93
378.897	10.41
379.107	28.84
379.317	86.19
379.528	39.08
379.738	145.58
379.948	53.42
380.158	131.24
380.369	82.09
380.579	69.8
380.789	112.81
380.999	96.43
381.21	92.33
381.42	59.56
381.63	20.65
381.84	94.38
382.05	4.27
382.261	71.85
382.471	84.14
382.681	67.75
382.891	65.71
383.101	12.46
383.311	10.41
383.521	57.51
383.731	116.9
383.941	43.18
384.151	55.47
384.361	-5.97
384.571	61.61
384.781	92.33
384.991	118.95
385.201	51.37
385.411	53.42
385.621	67.75
385.831	59.56
386.041	-1.88
386.251	106.67
386.461	88.23
386.671	170.15
386.881	14.51
387.091	55.47
387.301	161.96
387.511	88.23
387.72	151.72
387.93	69.8
388.14	-10.07
388.35	-1.88
388.56	82.09
388.769	63.66
388.979	104.62
389.189	116.9
389.399	133.29
389.609	125.1
389.818	125.1
390.028	12.46
390.238	84.14
390.447	131.24
390.657	59.56
390.867	88.23
391.076	90.28
391.286	59.56
391.496	118.95
391.705	84.14
391.915	108.71
392.125	108.71
392.334	28.84
392.544	149.67
392.753	100.52
392.963	98.47
393.172	63.66
393.382	96.43
393.591	143.53
393.801	129.19
394.01	110.76
394.22	92.33
394.429	71.85
394.639	112.81
394.848	147.62
395.058	34.99
395.267	100.52
395.477	96.43
395.686	123.05
395.895	121
396.105	161.96
396.314	161.96
396.524	6.31
396.733	80.04
396.942	135.34
397.152	112.81
397.361	71.85
397.57	118.95
397.78	86.19
397.989	127.14
398.198	188.58
398.407	77.99
398.617	96.43
398.826	170.15
399.035	182.44
399.244	96.43
399.453	108.71
399.663	127.14
399.872	110.76
400.081	59.56
400.29	82.09
400.499	149.67
400.708	190.63
400.917	73.9
401.127	157.86
401.336	73.9
401.545	155.82
401.754	141.48
401.963	186.54
402.172	102.57
402.381	63.66
402.59	127.14
402.799	131.24
403.008	137.38
403.217	135.34
403.426	141.48
403.635	65.71
403.844	217.26
404.053	141.48
404.262	153.77
404.471	170.15
404.68	118.95
404.888	196.78
405.097	137.38
405.306	247.97
405.515	202.92
405.724	94.38
405.933	174.25
406.142	137.38
406.35	202.92
406.559	170.15
406.768	127.14
406.977	284.84
407.185	106.67
407.394	204.97
407.603	268.45
407.812	190.63
408.02	303.27
408.229	297.13
408.438	280.74
408.646	295.08
408.855	239.78
409.064	272.55
409.272	274.6
409.481	293.03
409.69	282.79
409.898	379.04
410.107	301.22
410.315	372.9
410.524	374.95
410.733	348.33
410.941	346.28
411.15	440.48
411.358	420
411.567	454.82
411.775	432.29
411.984	475.3
412.192	360.61
412.401	442.53
412.609	544.93
412.818	530.59
413.026	546.98
413.234	549.03
413.443	542.88
413.651	524.45
413.86	600.23
414.068	645.28
414.276	696.48
414.485	546.98
414.693	653.47
414.901	712.86
415.11	719.01
415.318	753.82
415.526	747.68
415.734	786.59
415.943	829.6
416.151	932
416.359	903.32
416.567	936.09
416.776	872.61
416.984	946.33
417.192	1032.35
417.4	972.96
417.608	1093.79
417.817	1149.08
418.025	1095.83
418.233	1226.9
418.441	1151.13
418.649	1216.66
418.857	1220.76
419.065	1382.55
419.273	1400.98
419.481	1411.22
419.689	1544.34
419.897	1603.73
420.105	1644.69
420.313	1599.63
420.521	1568.91
420.729	1634.45
420.937	1714.32
421.145	1812.62
421.353	1949.84
421.561	2050.19
421.769	2201.74
421.977	2162.83
422.185	2017.42
422.393	2285.7
422.601	2412.68
422.809	2404.49
423.017	2420.87
423.224	2515.08
423.432	2650.24
423.64	2721.92
423.848	2787.46
424.056	2844.8
424.263	2996.35
424.471	3137.66
424.679	3129.47
424.887	3278.97
425.094	3301.5
425.302	3295.35
425.51	3623.03
425.718	3643.51
425.925	3588.21
426.133	3817.58
426.341	3917.93
426.548	4073.58
426.756	4053.1
426.964	4241.51
427.171	4460.65
427.379	4698.21
427.586	4618.34
427.794	4737.12
428.001	5068.89
428.209	5130.33
428.417	5251.16
428.624	5474.39
428.832	5474.39
429.039	5374.04
429.247	5476.44
429.454	6037.58
429.662	6389.83
429.869	6017.1
430.076	6465.61
430.284	6381.64
430.491	6400.07
430.699	6641.73
430.906	6821.95
431.114	6953.02
431.321	7276.6
431.528	7407.67
431.736	7843.89
431.943	8222.77
432.15	8026.16
432.358	8151.09
432.565	8548.39
432.772	8495.15
432.979	8953.89
433.187	9125.92
433.394	9078.82
433.601	9629.72
433.808	9474.07
434.016	9523.23
434.223	10098.7
434.43	10731.53
434.637	10633.22
434.844	11282.43
435.052	11120.64
435.259	11393.02
435.466	11468.8
435.673	11233.28
435.88	12138.48
436.087	12824.55
436.294	12533.74
436.501	12193.78
436.708	12847.08
436.915	12894.18
437.122	13608.92
437.329	13455.33
437.537	14057.43
437.743	14354.38
437.95	14221.27
438.157	14849.99
438.364	15466.43
438.571	15468.48
438.778	15570.88
438.985	16916.39
439.192	16252.85
439.399	16578.48
439.606	16357.3
439.813	17338.27
440.02	18384.79
440.227	18100.12
440.433	17901.47
440.64	18419.6
440.847	18522
441.054	19083.14
441.261	20051.83
441.467	19726.21
441.674	20043.64
441.881	20920.17
442.088	20684.66
442.294	20801.39
442.501	21139.3
442.708	21653.34
442.914	22458.2
443.121	23324.49
443.328	22951.76
443.534	24508.21
443.741	23926.59
443.948	23578.43
444.154	24901.42
444.361	24903.47
444.568	25114.41
444.774	25222.95
444.981	25765.67
445.187	26378.01
445.394	27258.63
445.6	27006.73
445.807	29843.17
446.013	28280.57
446.22	29026.03
446.426	29650.66
446.633	29914.85
446.839	31532.75
447.046	29892.32
447.252	31667.91
447.459	31489.74
447.665	31321.8
447.871	32589.5
448.078	33957.54
448.284	32360.12
448.491	33388.21
448.697	34277.02
448.903	35045.01
449.11	35542.67
449.316	34596.51
449.522	35354.26
449.728	36261.51
449.935	36177.54
450.141	36451.97
450.347	37002.87
450.553	36023.94
450.76	36322.94
450.966	37463.66
451.172	36710.01
451.378	37817.96
451.584	37609.07
451.791	38043.24
451.997	37772.91
452.203	38461.02
452.409	38622.81
452.615	38438.5
452.821	37080.69
453.027	36060.8
453.233	37875.3
453.44	36460.16
453.646	37185.14
453.852	37179
454.058	38016.61
454.264	36163.2
454.47	37125.75
454.676	36253.31
454.882	37297.78
455.088	34291.36
455.294	34584.22
455.5	35581.58
455.705	35501.71
455.911	34158.24
456.117	33392.3
456.323	32976.56
456.529	31215.31
456.735	32501.43
456.941	31575.75
457.147	31008.47
457.352	30205.66
457.558	29822.69
457.764	30078.69
457.97	28915.44
458.176	28876.53
458.381	28669.69
458.587	27311.88
458.793	27299.59
458.999	25767.71
459.204	27330.31
459.41	26910.48
459.616	25212.71
459.821	25136.94
460.027	25034.54
460.233	24332.09
460.438	23230.28
460.644	23504.71
460.85	22439.76
461.055	22175.58
461.261	22058.84
461.466	20477.81
461.672	20041.59
461.878	21231.46
462.083	19720.06
462.289	19273.6
462.494	19289.99
462.7	18495.38
462.905	17727.39
463.111	18683.79
463.316	18306.96
463.522	18220.95
463.727	18298.77
463.932	18311.06
464.138	18040.73
464.343	18124.69
464.549	17627.04
464.754	18165.65
464.959	18141.08
465.165	17862.55
465.37	17059.75
465.575	16773.03
465.781	17436.58
465.986	17553.31
466.191	16840.62
466.397	16459.7
466.602	15658.94
466.807	16367.54
467.012	16340.91
467.218	16248.75
467.423	15974.33
467.628	15998.9
