Data from USB4F104151__166__11-08-49-027.txt Node

Date: Wed Mar 12 11:08:49 EDT 2025
User: louis
Spectrometer: USB4F10415
Trigger mode: 4
Integration Time (sec): 2.000000E-2
Scans to average: 1
Electric dark correction enabled: true
Nonlinearity correction enabled: false
Boxcar width: 0
XAxis mode: Wavelengths
Number of Pixels in Spectrum: 3648
>>>>>Begin Spectral Data<<<<<
178.204	-49.15
178.424	-49.15
178.644	-49.15
178.864	-90.11
179.084	-90.11
179.304	-18.43
179.524	-24.58
179.744	8.19
179.964	8.19
180.184	2.05
180.404	47.1
180.624	-8.19
180.844	-47.1
181.064	12.29
181.283	30.72
181.503	-24.58
181.723	14.34
181.943	-34.82
182.163	22.53
182.383	-32.77
182.602	-12.29
182.822	67.58
183.042	-26.62
183.262	-57.34
183.482	83.97
183.701	18.43
183.921	47.1
184.141	18.43
184.361	98.3
184.58	96.25
184.8	8.19
185.02	10.24
185.239	14.34
185.459	-18.43
185.679	51.2
185.898	-47.1
186.118	14.34
186.338	-4.1
186.557	8.19
186.777	86.01
186.997	-38.91
187.216	-14.34
187.436	43.01
187.655	55.3
187.875	77.82
188.095	-2.05
188.314	12.29
188.534	28.67
188.753	28.67
188.973	28.67
189.192	81.92
189.412	43.01
189.631	40.96
189.851	34.82
190.07	49.15
190.29	-59.39
190.509	69.63
190.729	-34.82
190.948	-32.77
191.168	67.58
191.387	-4.1
191.607	-45.06
191.826	36.86
192.045	75.77
192.265	0
192.484	-2.05
192.704	79.87
192.923	-6.14
193.142	106.49
193.362	53.25
193.581	43.01
193.8	-6.14
194.02	63.49
194.239	26.62
194.458	-55.3
194.678	2.05
194.897	77.82
195.116	14.34
195.335	16.38
195.555	51.2
195.774	-4.1
195.993	6.14
196.212	10.24
196.432	-30.72
196.651	34.82
196.87	2.05
197.089	49.15
197.308	75.77
197.528	28.67
197.747	4.1
197.966	26.62
198.185	79.87
198.404	-26.62
198.623	24.58
198.842	-43.01
199.062	43.01
199.281	57.34
199.5	24.58
199.719	-2.05
199.938	26.62
200.157	14.34
200.376	63.49
200.595	-2.05
200.814	-30.72
201.033	8.19
201.252	-22.53
201.471	32.77
201.69	-110.59
201.909	81.92
202.128	45.06
202.347	16.38
202.566	32.77
202.785	-18.43
203.004	-38.91
203.223	45.06
203.442	22.53
203.661	57.34
203.879	2.05
204.098	-20.48
204.317	-8.19
204.536	96.25
204.755	-55.3
204.974	61.44
205.193	16.38
205.411	-8.19
205.63	10.24
205.849	88.06
206.068	51.2
206.287	26.62
206.505	-10.24
206.724	12.29
206.943	-40.96
207.162	-22.53
207.381	-12.29
207.599	-16.38
207.818	22.53
208.037	-22.53
208.255	47.1
208.474	16.38
208.693	49.15
208.911	0
209.13	34.82
209.349	-49.15
209.567	75.77
209.786	0
210.005	45.06
210.223	0
210.442	14.34
210.661	-6.14
210.879	-53.25
211.098	-16.38
211.316	0
211.535	8.19
211.753	43.01
211.972	67.58
212.191	-6.14
212.409	45.06
212.628	51.2
212.846	6.14
213.065	8.19
213.283	-6.14
213.502	14.34
213.72	4.1
213.938	77.82
214.157	-8.19
214.375	67.58
214.594	63.49
214.812	6.14
215.031	-4.1
215.249	22.53
215.467	59.39
215.686	-24.58
215.904	47.1
216.122	53.25
216.341	36.86
216.559	75.77
216.778	30.72
216.996	18.43
217.214	79.87
217.432	45.06
217.651	-53.25
217.869	22.53
218.087	81.92
218.306	10.24
218.524	10.24
218.742	14.34
218.96	38.91
219.179	67.58
219.397	53.25
219.615	47.1
219.833	40.96
220.051	-6.14
220.27	-12.29
220.488	-6.14
220.706	79.87
220.924	75.77
221.142	51.2
221.36	2.05
221.578	38.91
221.796	22.53
222.015	16.38
222.233	16.38
222.451	36.86
222.669	-10.24
222.887	30.72
223.105	-2.05
223.323	49.15
223.541	-94.21
223.759	-30.72
223.977	-16.38
224.195	47.1
224.413	22.53
224.631	30.72
224.849	32.77
225.067	0
225.285	-49.15
225.503	-28.67
225.721	-47.1
225.939	-20.48
226.157	8.19
226.375	38.91
226.592	26.62
226.81	-51.2
227.028	92.16
227.246	40.96
227.464	53.25
227.682	34.82
227.9	47.1
228.117	16.38
228.335	-71.68
228.553	34.82
228.771	-10.24
228.989	10.24
229.206	18.43
229.424	59.39
229.642	47.1
229.86	-53.25
230.077	-10.24
230.295	38.91
230.513	-4.1
230.731	47.1
230.948	77.82
231.166	86.01
231.384	75.77
231.601	53.25
231.819	-38.91
232.037	-16.38
232.254	8.19
232.472	38.91
232.689	26.62
232.907	-6.14
233.125	-59.39
233.342	2.05
233.56	45.06
233.777	100.35
233.995	-6.14
234.213	32.77
234.43	-26.62
234.648	83.97
234.865	30.72
235.083	36.86
235.3	26.62
235.518	98.3
235.735	131.07
235.953	22.53
236.17	14.34
236.388	-12.29
236.605	-6.14
236.822	-73.73
237.04	6.14
237.257	32.77
237.475	-10.24
237.692	114.69
237.909	28.67
238.127	30.72
238.344	4.1
238.562	24.58
238.779	16.38
238.996	-16.38
239.214	0
239.431	-61.44
239.648	2.05
239.865	-51.2
240.083	38.91
240.3	-16.38
240.517	-18.43
240.735	18.43
240.952	116.73
241.169	40.96
241.386	-47.1
241.603	59.39
241.821	32.77
242.038	30.72
242.255	22.53
242.472	18.43
242.689	16.38
242.907	-18.43
243.124	-34.82
243.341	30.72
243.558	-12.29
243.775	-2.05
243.992	-18.43
244.209	67.58
244.426	63.49
244.643	22.53
244.86	-36.86
245.078	59.39
245.295	124.93
245.512	-34.82
245.729	-10.24
245.946	51.2
246.163	106.49
246.38	34.82
246.597	-12.29
246.814	86.01
247.031	-8.19
247.248	-14.34
247.464	51.2
247.681	43.01
247.898	26.62
248.115	-26.62
248.332	-30.72
248.549	12.29
248.766	49.15
248.983	-6.14
249.2	18.43
249.417	67.58
249.633	67.58
249.85	59.39
250.067	34.82
250.284	57.34
250.501	-36.86
250.717	124.93
250.934	-34.82
251.151	20.48
251.368	20.48
251.585	20.48
251.801	30.72
252.018	-16.38
252.235	36.86
252.451	51.2
252.668	-2.05
252.885	4.1
253.102	-30.72
253.318	26.62
253.535	118.78
253.752	36.86
253.968	-22.53
254.185	32.77
254.401	-40.96
254.618	-16.38
254.835	59.39
255.051	83.97
255.268	75.77
255.484	43.01
255.701	-6.14
255.917	38.91
256.134	14.34
256.351	45.06
256.567	-14.34
256.784	4.1
257	-22.53
257.217	10.24
257.433	51.2
257.65	47.1
257.866	75.77
258.082	10.24
258.299	79.87
258.515	26.62
258.732	-28.67
258.948	38.91
259.165	-26.62
259.381	-53.25
259.597	-61.44
259.814	63.49
260.03	10.24
260.246	24.58
260.463	100.35
260.679	22.53
260.895	20.48
261.112	100.35
261.328	-20.48
261.544	32.77
261.761	14.34
261.977	-18.43
262.193	75.77
262.409	114.69
262.626	-10.24
262.842	47.1
263.058	55.3
263.274	73.73
263.49	38.91
263.707	81.92
263.923	43.01
264.139	14.34
264.355	22.53
264.571	55.3
264.787	-28.67
265.004	51.2
265.22	8.19
265.436	55.3
265.652	53.25
265.868	12.29
266.084	-45.06
266.3	22.53
266.516	-34.82
266.732	30.72
266.948	10.24
267.164	51.2
267.38	73.73
267.596	47.1
267.812	10.24
268.028	40.96
268.244	24.58
268.46	-18.43
268.676	-28.67
268.892	-2.05
269.108	28.67
269.324	53.25
269.54	0
269.756	4.1
269.972	4.1
270.188	-30.72
270.403	26.62
270.619	51.2
270.835	-2.05
271.051	2.05
271.267	69.63
271.483	67.58
271.698	16.38
271.914	-8.19
272.13	22.53
272.346	-18.43
272.562	59.39
272.777	100.35
272.993	-16.38
273.209	-32.77
273.425	65.54
273.64	53.25
273.856	-22.53
274.072	12.29
274.287	59.39
274.503	-18.43
274.719	22.53
274.934	-79.87
275.15	-69.63
275.366	-43.01
275.581	32.77
275.797	-24.58
276.012	18.43
276.228	-2.05
276.444	-26.62
276.659	20.48
276.875	-8.19
277.09	40.96
277.306	10.24
277.521	8.19
277.737	10.24
277.952	-38.91
278.168	45.06
278.383	6.14
278.599	36.86
278.814	75.77
279.03	4.1
279.245	81.92
279.461	18.43
279.676	122.88
279.892	-4.1
280.107	16.38
280.322	-71.68
280.538	36.86
280.753	43.01
280.969	28.67
281.184	6.14
281.399	43.01
281.615	-14.34
281.83	14.34
282.045	-32.77
282.26	-4.1
282.476	20.48
282.691	2.05
282.906	92.16
283.122	-53.25
283.337	-38.91
283.552	75.77
283.767	14.34
283.983	-4.1
284.198	51.2
284.413	-53.25
284.628	-16.38
284.843	-32.77
285.058	32.77
285.274	55.3
285.489	-28.67
285.704	55.3
285.919	26.62
286.134	51.2
286.349	-4.1
286.564	28.67
286.779	-2.05
286.995	-2.05
287.21	-8.19
287.425	-28.67
287.64	45.06
287.855	0
288.07	-2.05
288.285	-24.58
288.5	-22.53
288.715	34.82
288.93	0
289.145	2.05
289.36	32.77
289.575	43.01
289.79	59.39
290.004	-8.19
290.219	38.91
290.434	90.11
290.649	65.54
290.864	8.19
291.079	-22.53
291.294	0
291.509	32.77
291.724	57.34
291.938	40.96
292.153	67.58
292.368	-55.3
292.583	32.77
292.798	18.43
293.012	49.15
293.227	73.73
293.442	57.34
293.657	-20.48
293.871	43.01
294.086	-20.48
294.301	-22.53
294.516	59.39
294.73	59.39
294.945	6.14
295.16	8.19
295.374	53.25
295.589	0
295.804	38.91
296.018	49.15
296.233	75.77
296.447	-28.67
296.662	51.2
296.877	57.34
297.091	57.34
297.306	63.49
297.52	47.1
297.735	-26.62
297.949	90.11
298.164	110.59
298.378	36.86
298.593	2.05
298.807	47.1
299.022	133.12
299.236	73.73
299.451	-63.49
299.665	-10.24
299.88	45.06
300.094	4.1
300.309	49.15
300.523	77.82
300.737	-8.19
300.952	-4.1
301.166	108.54
301.381	14.34
301.595	65.54
301.809	-2.05
302.024	-18.43
302.238	2.05
302.452	53.25
302.667	34.82
302.881	45.06
303.095	65.54
303.309	16.38
303.524	51.2
303.738	-10.24
303.952	-14.34
304.166	0
304.381	67.58
304.595	71.68
304.809	2.05
305.023	38.91
305.237	2.05
305.452	30.72
305.666	-14.34
305.88	92.16
306.094	16.38
306.308	-4.1
306.522	65.54
306.736	-24.58
306.95	53.25
307.164	14.34
307.379	49.15
307.593	75.77
307.807	14.34
308.021	36.86
308.235	65.54
308.449	55.3
308.663	12.29
308.877	59.39
309.091	10.24
309.305	-14.34
309.519	92.16
309.733	61.44
309.947	30.72
310.161	69.63
310.374	-8.19
310.588	38.91
310.802	-55.3
311.016	-26.62
311.23	14.34
311.444	-4.1
311.658	-12.29
311.872	63.49
312.085	73.73
312.299	14.34
312.513	14.34
312.727	-36.86
312.941	-98.3
313.154	28.67
313.368	6.14
313.582	32.77
313.796	36.86
314.009	12.29
314.223	22.53
314.437	6.14
314.651	26.62
314.864	40.96
315.078	14.34
315.292	-14.34
315.505	-26.62
315.719	73.73
315.933	18.43
316.146	10.24
316.36	47.1
316.573	65.54
316.787	22.53
317.001	71.68
317.214	43.01
317.428	8.19
317.641	18.43
317.855	16.38
318.068	96.25
318.282	-18.43
318.495	133.12
318.709	0
318.922	-4.1
319.136	-32.77
319.349	20.48
319.563	79.87
319.776	47.1
319.99	-22.53
320.203	36.86
320.417	6.14
320.63	43.01
320.843	57.34
321.057	14.34
321.27	0
321.483	-14.34
321.697	-8.19
321.91	-45.06
322.124	75.77
322.337	-2.05
322.55	30.72
322.763	88.06
322.977	26.62
323.19	18.43
323.403	71.68
323.617	-6.14
323.83	55.3
324.043	34.82
324.256	10.24
324.469	-12.29
324.683	34.82
324.896	12.29
325.109	6.14
325.322	-22.53
325.535	51.2
325.748	73.73
325.962	69.63
326.175	26.62
326.388	34.82
326.601	-28.67
326.814	24.58
327.027	108.54
327.24	45.06
327.453	63.49
327.666	-36.86
327.879	83.97
328.092	16.38
328.305	43.01
328.518	10.24
328.731	4.1
328.944	67.58
329.157	24.58
329.37	65.54
329.583	43.01
329.796	28.67
330.009	-40.96
330.222	2.05
330.435	10.24
330.648	20.48
330.861	10.24
331.073	88.06
331.286	73.73
331.499	45.06
331.712	10.24
331.925	14.34
332.138	18.43
332.35	40.96
332.563	-2.05
332.776	34.82
332.989	118.78
333.202	10.24
333.414	-2.05
333.627	-2.05
333.84	22.53
334.053	-4.1
334.265	12.29
334.478	12.29
334.691	6.14
334.903	43.01
335.116	12.29
335.329	38.91
335.541	-24.58
335.754	51.2
335.966	34.82
336.179	-34.82
336.392	16.38
336.604	-28.67
336.817	-18.43
337.029	22.53
337.242	75.77
337.454	-24.58
337.667	8.19
337.88	-57.34
338.092	137.21
338.305	59.39
338.517	26.62
338.729	49.15
338.942	61.44
339.154	43.01
339.367	30.72
339.579	79.87
339.792	14.34
340.004	10.24
340.217	-32.77
340.429	28.67
340.641	51.2
340.854	88.06
341.066	77.82
341.278	32.77
341.491	108.54
341.703	65.54
341.915	16.38
342.128	73.73
342.34	88.06
342.552	22.53
342.764	106.49
342.977	12.29
343.189	2.05
343.401	-6.14
343.613	-40.96
343.826	6.14
344.038	69.63
344.25	32.77
344.462	-22.53
344.674	59.39
344.886	8.19
345.099	53.25
345.311	137.21
345.523	12.29
345.735	28.67
345.947	30.72
346.159	59.39
346.371	47.1
346.583	55.3
346.795	106.49
347.007	32.77
347.219	79.87
347.431	67.58
347.643	6.14
347.855	38.91
348.067	14.34
348.279	6.14
348.491	61.44
348.703	-2.05
348.915	51.2
349.127	32.77
349.339	55.3
349.551	92.16
349.763	83.97
349.975	6.14
350.187	86.01
350.399	26.62
350.61	12.29
350.822	43.01
351.034	30.72
351.246	-2.05
351.458	108.54
351.669	112.64
351.881	51.2
352.093	53.25
352.305	47.1
352.517	55.3
352.728	45.06
352.94	79.87
353.152	28.67
353.363	14.34
353.575	79.87
353.787	59.39
353.999	47.1
354.21	53.25
354.422	-6.14
354.633	120.83
354.845	16.38
355.057	57.34
355.268	63.49
355.48	67.58
355.692	34.82
355.903	24.58
356.115	-8.19
356.326	53.25
356.538	10.24
356.749	71.68
356.961	59.39
357.172	0
357.384	71.68
357.595	67.58
357.807	124.93
358.018	30.72
358.23	34.82
358.441	83.97
358.653	83.97
358.864	14.34
359.075	-10.24
359.287	8.19
359.498	47.1
359.709	16.38
359.921	20.48
360.132	55.3
360.344	51.2
360.555	96.25
360.766	47.1
360.977	-8.19
361.189	120.83
361.4	51.2
361.611	96.25
361.823	133.12
362.034	63.49
362.245	-24.58
362.456	-4.1
362.667	4.1
362.879	14.34
363.09	38.91
363.301	71.68
363.512	-22.53
363.723	69.63
363.935	141.31
364.146	67.58
364.357	69.63
364.568	65.54
364.779	-6.14
364.99	61.44
365.201	55.3
365.412	55.3
365.623	34.82
365.834	79.87
366.045	10.24
366.256	114.69
366.467	34.82
366.678	49.15
366.889	49.15
367.1	61.44
367.311	59.39
367.522	49.15
367.733	79.87
367.944	30.72
368.155	-26.62
368.366	69.63
368.577	79.87
368.788	75.77
368.999	51.2
369.209	18.43
369.42	96.25
369.631	92.16
369.842	61.44
370.053	79.87
370.264	55.3
370.474	116.73
370.685	20.48
370.896	98.3
371.107	18.43
371.317	53.25
371.528	36.86
371.739	36.86
371.95	83.97
372.16	28.67
372.371	-4.1
372.582	-28.67
372.792	-8.19
373.003	49.15
373.214	20.48
373.424	63.49
373.635	49.15
373.846	61.44
374.056	-6.14
374.267	79.87
374.477	63.49
374.688	-8.19
374.898	12.29
375.109	63.49
375.319	26.62
375.53	16.38
375.74	79.87
375.951	65.54
376.161	53.25
376.372	92.16
376.582	36.86
376.793	6.14
377.003	69.63
377.214	59.39
377.424	38.91
377.635	-2.05
377.845	45.06
378.055	51.2
378.266	12.29
378.476	30.72
378.686	18.43
378.897	34.82
379.107	40.96
379.317	26.62
379.528	83.97
379.738	102.4
379.948	8.19
380.158	20.48
380.369	30.72
380.579	88.06
380.789	67.58
380.999	71.68
381.21	98.3
381.42	129.02
381.63	26.62
381.84	106.49
382.05	57.34
382.261	79.87
382.471	30.72
382.681	36.86
382.891	32.77
383.101	-8.19
383.311	55.3
383.521	57.34
383.731	-28.67
383.941	73.73
384.151	49.15
384.361	0
384.571	83.97
384.781	92.16
384.991	30.72
385.201	36.86
385.411	90.11
385.621	43.01
385.831	36.86
386.041	94.21
386.251	-2.05
386.461	63.49
386.671	28.67
386.881	-30.72
387.091	86.01
387.301	94.21
387.511	65.54
387.72	86.01
387.93	57.34
388.14	81.92
388.35	6.14
388.56	30.72
388.769	26.62
388.979	73.73
389.189	67.58
389.399	86.01
389.609	55.3
389.818	77.82
390.028	102.4
390.238	133.12
390.447	63.49
390.657	83.97
390.867	90.11
391.076	26.62
391.286	49.15
391.496	34.82
391.705	6.14
391.915	139.26
392.125	45.06
392.334	28.67
392.544	86.01
392.753	61.44
392.963	47.1
393.172	90.11
393.382	57.34
393.591	96.25
393.801	-2.05
394.01	59.39
394.22	-18.43
394.429	94.21
394.639	8.19
394.848	65.54
395.058	61.44
395.267	22.53
395.477	79.87
395.686	120.83
395.895	8.19
396.105	165.89
396.314	61.44
396.524	63.49
396.733	34.82
396.942	155.65
397.152	67.58
397.361	63.49
397.57	69.63
397.78	108.54
397.989	65.54
398.198	129.02
398.407	32.77
398.617	102.4
398.826	83.97
399.035	43.01
399.244	51.2
399.453	118.78
399.663	110.59
399.872	108.54
400.081	40.96
400.29	157.69
400.499	83.97
400.708	139.26
400.917	38.91
401.127	94.21
401.336	75.77
401.545	212.99
401.754	106.49
401.963	47.1
402.172	92.16
402.381	114.69
402.59	75.77
402.799	129.02
403.008	157.69
403.217	116.73
403.426	102.4
403.635	77.82
403.844	43.01
404.053	43.01
404.262	86.01
404.471	55.3
404.68	75.77
404.888	94.21
405.097	131.07
405.306	49.15
405.515	61.44
405.724	133.12
405.933	120.83
406.142	210.94
406.35	157.69
406.559	137.21
406.768	135.17
406.977	163.84
407.185	212.99
407.394	169.98
407.603	174.08
407.812	212.99
408.02	153.6
408.229	235.52
408.438	161.79
408.646	192.51
408.855	221.18
409.064	212.99
409.272	176.13
409.481	229.37
409.69	159.74
409.898	153.6
410.107	200.7
410.315	303.1
410.524	309.24
410.733	280.57
410.941	231.42
411.15	303.1
411.358	223.23
411.567	348.15
411.775	323.58
411.984	329.72
412.192	286.72
412.401	299
412.609	385.02
412.818	380.92
413.026	391.16
413.234	448.51
413.443	401.4
413.651	423.93
413.86	462.84
414.068	495.61
414.276	468.98
414.485	571.38
414.693	567.29
414.901	534.52
415.11	585.72
415.318	559.1
415.526	575.48
415.734	690.17
415.943	591.86
416.151	665.59
416.359	606.2
416.567	567.29
416.776	669.69
416.984	749.56
417.192	833.52
417.4	665.59
417.608	745.46
417.817	876.53
418.025	782.32
418.233	946.16
418.441	841.72
418.649	909.3
418.857	1026.03
419.065	1040.37
419.273	1011.7
419.481	1003.5
419.689	1110
419.897	1138.67
420.105	1136.62
420.313	1306.6
420.521	1267.69
420.729	1271.79
420.937	1382.38
421.145	1351.66
421.353	1495.02
421.561	1495.02
421.769	1576.94
421.977	1583.08
422.185	1601.51
422.393	1699.81
422.601	1789.92
422.809	1832.93
423.017	1925.09
423.224	1865.7
423.432	2088.93
423.64	1972.19
423.848	2160.61
424.056	2076.64
424.263	2306.01
424.471	2242.53
424.679	2230.24
424.887	2381.79
425.094	2394.08
425.302	2484.19
425.51	2549.72
425.718	2592.73
425.925	2660.31
426.133	2942.93
426.341	2965.46
426.548	3082.19
426.756	2998.23
426.964	3012.56
427.171	3397.58
427.379	3438.54
427.586	3471.31
427.794	3459.02
428.001	3725.26
428.209	3893.19
428.417	3782.6
428.624	4167.62
428.832	4136.9
429.039	3897.28
429.247	4149.18
429.454	4470.72
429.662	4902.84
429.869	4368.32
430.076	4708.28
430.284	4616.12
430.491	5005.24
430.699	5017.52
430.906	4882.36
431.114	5115.83
431.321	5193.65
431.528	5429.17
431.736	5783.46
431.943	6039.46
432.15	5713.83
432.358	5887.91
432.565	6266.78
432.772	6193.06
432.979	6711.19
433.187	6739.87
433.394	6760.34
433.601	7337.87
433.808	7196.56
434.016	7092.12
434.223	7462.8
434.43	7874.44
434.637	7765.9
434.844	8277.89
435.052	8468.35
435.259	8261.51
435.466	8456.06
435.673	8294.27
435.88	9103.22
436.087	9156.47
436.294	9396.08
436.501	9176.95
436.708	9301.87
436.915	9684.84
437.122	10123.11
437.329	9989.99
437.537	9971.56
437.743	10596.19
437.95	10501.98
438.157	10852.19
438.364	11181.91
438.571	11454.29
438.778	11247.44
438.985	12435.27
439.192	11947.85
439.399	12263.24
439.606	11919.18
439.813	12816.19
440.02	13389.62
440.227	13223.73
440.433	12963.64
440.64	13539.12
440.847	13526.83
441.054	13739.82
441.261	14679.84
441.467	14436.13
441.674	14874.4
441.881	15445.78
442.088	15304.47
442.294	14919.45
442.501	15337.24
442.708	15955.72
442.914	16518.92
443.121	17235.7
443.328	16805.63
443.534	17807.09
443.741	17395.45
443.948	17213.18
444.154	18527.97
444.361	18212.59
444.568	18466.53
444.774	18296.55
444.981	18605.8
445.187	19160.8
445.394	19996.37
445.6	19736.27
445.807	21360.31
446.013	20750.02
446.22	20897.47
446.426	21669.56
446.633	22134.45
446.839	22585
447.046	21655.22
447.252	23090.85
447.459	23123.62
447.665	23031.46
447.871	23735.96
448.078	24768.13
448.284	23834.26
448.491	24395.4
448.697	25269.89
448.903	25796.21
449.11	26019.44
449.316	25224.83
449.522	25486.97
449.728	26658.41
449.935	26437.23
450.141	26707.56
450.347	27244.13
450.553	26127.99
450.76	26764.9
450.966	27567.71
451.172	27166.31
451.378	27899.48
451.584	27367.01
451.791	27987.54
451.997	27623
452.203	28313.17
452.409	28130.9
452.615	27799.13
452.821	27139.68
453.027	26578.54
453.233	27960.92
453.44	26480.24
453.646	27340.38
453.852	27637.34
454.058	27883.09
454.264	27057.76
454.47	27561.56
454.676	26918.5
454.882	27862.61
455.088	25157.25
455.294	25585.27
455.5	25882.23
455.705	26173.04
455.911	24878.72
456.117	24807.05
456.323	24245.9
456.529	22773.41
456.735	24008.34
456.941	23297.69
457.147	23076.51
457.352	22171.31
457.558	21935.79
457.764	21794.48
457.97	21681.85
458.176	21030.59
458.381	21286.59
458.587	20111.05
458.793	19955.41
458.999	18999.01
459.204	20526.79
459.41	19807.95
459.616	18624.23
459.821	18943.71
460.027	18327.27
460.233	17944.3
460.438	17131.26
460.644	17202.94
460.85	16738.05
461.055	16447.24
461.261	16166.67
461.466	15054.62
461.672	14847.77
461.878	15902.48
462.083	14616.35
462.289	14710.56
462.494	14049.07
462.7	13795.12
462.905	13483.83
463.111	13664.05
463.316	13659.95
463.522	13559.6
463.727	13528.88
463.932	13440.82
464.138	13385.52
464.343	13299.51
464.549	13174.58
464.754	13600.56
464.959	13315.89
465.165	13240.12
465.37	12574.53
465.575	12500.8
465.781	12932.92
465.986	13154.1
466.191	12670.78
466.397	12236.61
466.602	11777.87
466.807	12152.65
467.012	11945.8
467.218	11999.05
467.423	11812.68
467.628	11890.51
467.833	12347.2
468.038	12166.98
468.244	11761.48
468.449	11931.47
468.654	11880.27
468.859	11614.03
