Data from USB4F104151__25__11-05-07-912.txt Node

Date: Wed Mar 12 11:05:07 EDT 2025
User: louis
Spectrometer: USB4F10415
Trigger mode: 4
Integration Time (sec): 2.000000E-2
Scans to average: 1
Electric dark correction enabled: true
Nonlinearity correction enabled: false
Boxcar width: 0
XAxis mode: Wavelengths
Number of Pixels in Spectrum: 3648
>>>>>Begin Spectral Data<<<<<
178.204	-36.01
178.424	-36.01
178.644	-36.01
178.864	-66.73
179.084	-36.01
179.304	-62.63
179.524	15.19
179.744	52.05
179.964	58.2
180.184	-62.63
180.404	-11.43
180.624	-7.34
180.844	-3.24
181.064	19.29
181.283	33.62
181.503	-58.54
181.723	27.48
181.943	11.09
182.163	21.33
182.383	23.38
182.602	-5.29
182.822	39.76
183.042	2.9
183.262	54.1
183.482	23.38
183.701	13.14
183.921	43.86
184.141	-15.53
184.361	45.91
184.58	-36.01
184.8	7
185.02	-3.24
185.239	107.35
185.459	21.33
185.679	52.05
185.898	-42.15
186.118	86.87
186.338	47.96
186.557	66.39
186.777	35.67
186.997	-7.34
187.216	-44.2
187.436	7
187.655	33.62
187.875	93.01
188.095	13.14
188.314	2.9
188.534	84.82
188.753	35.67
188.973	-33.96
189.192	25.43
189.412	35.67
189.631	41.81
189.851	23.38
190.07	54.1
190.29	13.14
190.509	68.44
190.729	68.44
190.948	21.33
191.168	90.96
191.387	19.29
191.607	64.34
191.826	93.01
192.045	-56.49
192.265	-17.58
192.484	66.39
192.704	99.16
192.923	54.1
193.142	68.44
193.362	62.29
193.581	7
193.8	-1.19
194.02	-25.77
194.239	50
194.458	37.72
194.678	7
194.897	-17.58
195.116	-23.72
195.335	27.48
195.555	56.15
195.774	-13.48
195.993	60.24
196.212	-15.53
196.432	41.81
196.651	37.72
196.87	33.62
197.089	62.29
197.308	56.15
197.528	-15.53
197.747	78.68
197.966	11.09
198.185	74.58
198.404	29.52
198.623	21.33
198.842	60.24
199.062	90.96
199.281	74.58
199.5	76.63
199.719	-9.39
199.938	23.38
200.157	29.52
200.376	54.1
200.595	31.57
200.814	84.82
201.033	47.96
201.252	-13.48
201.471	0.85
201.69	-13.48
201.909	29.52
202.128	47.96
202.347	31.57
202.566	-42.15
202.785	86.87
203.004	56.15
203.223	25.43
203.442	64.34
203.661	47.96
203.879	-36.01
204.098	74.58
204.317	50
204.536	11.09
204.755	15.19
204.974	23.38
205.193	-5.29
205.411	107.35
205.63	78.68
205.849	23.38
206.068	74.58
206.287	33.62
206.505	76.63
206.724	93.01
206.943	66.39
207.162	50
207.381	41.81
207.599	60.24
207.818	-31.91
208.037	17.24
208.255	82.77
208.474	29.52
208.693	-5.29
208.911	31.57
209.13	2.9
209.349	115.54
209.567	101.2
209.786	19.29
210.005	52.05
210.223	52.05
210.442	-3.24
210.661	78.68
210.879	25.43
211.098	93.01
211.316	78.68
211.535	4.95
211.753	-42.15
211.972	93.01
212.191	45.91
212.409	-25.77
212.628	23.38
212.846	60.24
213.065	29.52
213.283	-13.48
213.502	90.96
213.72	0.85
213.938	-27.82
214.157	-5.29
214.375	93.01
214.594	90.96
214.812	-70.83
215.031	15.19
215.249	-15.53
215.467	37.72
215.686	29.52
215.904	37.72
216.122	50
216.341	117.59
216.559	50
216.778	70.48
216.996	52.05
217.214	13.14
217.432	78.68
217.651	-7.34
217.869	52.05
218.087	7
218.306	76.63
218.524	43.86
218.742	-3.24
218.96	105.3
219.179	-9.39
219.397	23.38
219.615	21.33
219.833	-3.24
220.051	33.62
220.27	0.85
220.488	39.76
220.706	62.29
220.924	-27.82
221.142	25.43
221.36	37.72
221.578	84.82
221.796	60.24
222.015	31.57
222.233	2.9
222.451	-17.58
222.669	64.34
222.887	21.33
223.105	66.39
223.323	4.95
223.541	84.82
223.759	0.85
223.977	9.05
224.195	25.43
224.413	127.83
224.631	27.48
224.849	-5.29
225.067	62.29
225.285	-15.53
225.503	27.48
225.721	-29.87
225.939	64.34
226.157	-5.29
226.375	60.24
226.592	29.52
226.81	121.68
227.028	2.9
227.246	21.33
227.464	25.43
227.682	117.59
227.9	13.14
228.117	70.48
228.335	84.82
228.553	31.57
228.771	31.57
228.989	35.67
229.206	-5.29
229.424	52.05
229.642	-17.58
229.86	0.85
230.077	33.62
230.295	39.76
230.513	-3.24
230.731	35.67
230.948	37.72
231.166	66.39
231.384	4.95
231.601	7
231.819	50
232.037	25.43
232.254	27.48
232.472	7
232.689	-17.58
232.907	93.01
233.125	9.05
233.342	27.48
233.56	47.96
233.777	93.01
233.995	29.52
234.213	33.62
234.43	11.09
234.648	70.48
234.865	-46.25
235.083	74.58
235.3	62.29
235.518	9.05
235.735	97.11
235.953	50
236.17	68.44
236.388	17.24
236.605	13.14
236.822	50
237.04	109.4
237.257	-11.43
237.475	39.76
237.692	2.9
237.909	35.67
238.127	-23.72
238.344	37.72
238.562	58.2
238.779	41.81
238.996	-13.48
239.214	47.96
239.431	86.87
239.648	25.43
239.865	2.9
240.083	17.24
240.3	23.38
240.517	68.44
240.735	68.44
240.952	62.29
241.169	52.05
241.386	29.52
241.603	56.15
241.821	-7.34
242.038	113.49
242.255	99.16
242.472	47.96
242.689	86.87
242.907	27.48
243.124	31.57
243.341	47.96
243.558	17.24
243.775	70.48
243.992	-13.48
244.209	45.91
244.426	78.68
244.643	31.57
244.86	7
245.078	27.48
245.295	47.96
245.512	11.09
245.729	-11.43
245.946	74.58
246.163	101.2
246.38	-3.24
246.597	47.96
246.814	60.24
247.031	56.15
247.248	11.09
247.464	2.9
247.681	45.91
247.898	19.29
248.115	70.48
248.332	37.72
248.549	47.96
248.766	29.52
248.983	72.53
249.2	76.63
249.417	58.2
249.633	95.06
249.85	111.44
250.067	52.05
250.284	15.19
250.501	21.33
250.717	90.96
250.934	45.91
251.151	142.16
251.368	64.34
251.585	115.54
251.801	15.19
252.018	-13.48
252.235	37.72
252.451	-9.39
252.668	50
252.885	82.77
253.102	27.48
253.318	9.05
253.535	50
253.752	13.14
253.968	15.19
254.185	19.29
254.401	97.11
254.618	2.9
254.835	-25.77
255.051	97.11
255.268	13.14
255.484	84.82
255.701	-38.06
255.917	29.52
256.134	50
256.351	43.86
256.567	-9.39
256.784	52.05
257	4.95
257.217	37.72
257.433	17.24
257.65	70.48
257.866	60.24
258.082	-21.67
258.299	29.52
258.515	58.2
258.732	13.14
258.948	37.72
259.165	33.62
259.381	-9.39
259.597	-9.39
259.814	-1.19
260.03	41.81
260.246	-21.67
260.463	-11.43
260.679	74.58
260.895	-3.24
261.112	17.24
261.328	70.48
261.544	45.91
261.761	127.83
261.977	41.81
262.193	60.24
262.409	70.48
262.626	45.91
262.842	103.25
263.058	31.57
263.274	33.62
263.49	17.24
263.707	80.72
263.923	54.1
264.139	-44.2
264.355	54.1
264.571	72.53
264.787	52.05
265.004	47.96
265.22	25.43
265.436	-9.39
265.652	-36.01
265.868	13.14
266.084	19.29
266.3	31.57
266.516	72.53
266.732	15.19
266.948	35.67
267.164	17.24
267.38	-11.43
267.596	17.24
267.812	9.05
268.028	127.83
268.244	84.82
268.46	72.53
268.676	-99.5
268.892	76.63
269.108	60.24
269.324	29.52
269.54	-9.39
269.756	56.15
269.972	19.29
270.188	78.68
270.403	-23.72
270.619	78.68
270.835	23.38
271.051	47.96
271.267	17.24
271.483	43.86
271.698	31.57
271.914	80.72
272.13	35.67
272.346	70.48
272.562	-50.35
272.777	119.64
272.993	-13.48
273.209	23.38
273.425	31.57
273.64	25.43
273.856	82.77
274.072	-70.83
274.287	35.67
274.503	64.34
274.719	25.43
274.934	52.05
275.15	43.86
275.366	4.95
275.581	37.72
275.797	45.91
276.012	68.44
276.228	27.48
276.444	39.76
276.659	101.2
276.875	-7.34
277.09	37.72
277.306	15.19
277.521	50
277.737	80.72
277.952	39.76
278.168	13.14
278.383	62.29
278.599	-33.96
278.814	88.92
279.03	43.86
279.245	50
279.461	86.87
279.676	23.38
279.892	-13.48
280.107	64.34
280.322	86.87
280.538	7
280.753	72.53
280.969	-31.91
281.184	39.76
281.399	41.81
281.615	35.67
281.83	27.48
282.045	-52.39
282.26	41.81
282.476	56.15
282.691	60.24
282.906	27.48
283.122	19.29
283.337	64.34
283.552	88.92
283.767	19.29
283.983	39.76
284.198	99.16
284.413	86.87
284.628	43.86
284.843	-5.29
285.058	54.1
285.274	56.15
285.489	54.1
285.704	31.57
285.919	4.95
286.134	0.85
286.349	78.68
286.564	95.06
286.779	80.72
286.995	66.39
287.21	25.43
287.425	19.29
287.64	66.39
287.855	72.53
288.07	37.72
288.285	-1.19
288.5	103.25
288.715	103.25
288.93	29.52
289.145	23.38
289.36	78.68
289.575	31.57
289.79	113.49
290.004	15.19
290.219	54.1
290.434	-9.39
290.649	11.09
290.864	25.43
291.079	23.38
291.294	25.43
291.509	39.76
291.724	43.86
291.938	0.85
292.153	117.59
292.368	33.62
292.583	74.58
292.798	60.24
293.012	-15.53
293.227	68.44
293.442	68.44
293.657	-13.48
293.871	74.58
294.086	17.24
294.301	138.07
294.516	54.1
294.73	41.81
294.945	23.38
295.16	-62.63
295.374	50
295.589	76.63
295.804	45.91
296.018	56.15
296.233	37.72
296.447	-5.29
296.662	47.96
296.877	39.76
297.091	66.39
297.306	60.24
297.52	19.29
297.735	93.01
297.949	66.39
298.164	86.87
298.378	33.62
298.593	37.72
298.807	21.33
299.022	95.06
299.236	31.57
299.451	17.24
299.665	-48.3
299.88	52.05
300.094	-1.19
300.309	54.1
300.523	56.15
300.737	33.62
300.952	7
301.166	60.24
301.381	15.19
301.595	58.2
301.809	78.68
302.024	17.24
302.238	15.19
302.452	58.2
302.667	41.81
302.881	78.68
303.095	58.2
303.309	60.24
303.524	21.33
303.738	50
303.952	15.19
304.166	13.14
304.381	68.44
304.595	0.85
304.809	-1.19
305.023	29.52
305.237	86.87
305.452	45.91
305.666	58.2
305.88	43.86
306.094	2.9
306.308	43.86
306.522	-3.24
306.736	64.34
306.95	21.33
307.164	62.29
307.379	7
307.593	43.86
307.807	62.29
308.021	13.14
308.235	50
308.449	35.67
308.663	31.57
308.877	138.07
309.091	41.81
309.305	50
309.519	27.48
309.733	50
309.947	-19.63
310.161	19.29
310.374	111.44
310.588	58.2
310.802	70.48
311.016	2.9
311.23	86.87
311.444	84.82
311.658	11.09
311.872	109.4
312.085	15.19
312.299	62.29
312.513	23.38
312.727	84.82
312.941	25.43
313.154	31.57
313.368	-1.19
313.582	84.82
313.796	54.1
314.009	31.57
314.223	35.67
314.437	90.96
314.651	66.39
314.864	-44.2
315.078	50
315.292	-9.39
315.505	-13.48
315.719	27.48
315.933	66.39
316.146	82.77
316.36	4.95
316.573	21.33
316.787	23.38
317.001	78.68
317.214	62.29
317.428	70.48
317.641	-5.29
317.855	21.33
318.068	23.38
318.282	113.49
318.495	97.11
318.709	2.9
318.922	-50.35
319.136	82.77
319.349	119.64
319.563	86.87
319.776	39.76
319.99	74.58
320.203	-21.67
320.417	47.96
320.63	37.72
320.843	76.63
321.057	64.34
321.27	47.96
321.483	76.63
321.697	72.53
321.91	90.96
322.124	45.91
322.337	52.05
322.55	-5.29
322.763	-9.39
322.977	21.33
323.19	-31.91
323.403	70.48
323.617	84.82
323.83	9.05
324.043	-27.82
324.256	7
324.469	29.52
324.683	-42.15
324.896	-33.96
325.109	54.1
325.322	15.19
325.535	43.86
325.748	54.1
325.962	23.38
326.175	39.76
326.388	82.77
326.601	25.43
326.814	39.76
327.027	70.48
327.24	13.14
327.453	39.76
327.666	56.15
327.879	84.82
328.092	97.11
328.305	7
328.518	45.91
328.731	66.39
328.944	64.34
329.157	25.43
329.37	-11.43
329.583	62.29
329.796	129.88
330.009	29.52
330.222	39.76
330.435	27.48
330.648	78.68
330.861	136.02
331.073	13.14
331.286	50
331.499	39.76
331.712	29.52
331.925	90.96
332.138	15.19
332.35	84.82
332.563	13.14
332.776	68.44
332.989	90.96
333.202	47.96
333.414	82.77
333.627	-36.01
333.84	2.9
334.053	68.44
334.265	-15.53
334.478	62.29
334.691	21.33
334.903	105.3
335.116	-21.67
335.329	25.43
335.541	-27.82
335.754	35.67
335.966	-64.68
336.179	93.01
336.392	-13.48
336.604	70.48
336.817	58.2
337.029	50
337.242	60.24
337.454	80.72
337.667	105.3
337.88	99.16
338.092	97.11
338.305	-13.48
338.517	78.68
338.729	76.63
338.942	76.63
339.154	-89.26
339.367	17.24
339.579	41.81
339.792	13.14
340.004	50
340.217	64.34
340.429	29.52
340.641	58.2
340.854	21.33
341.066	19.29
341.278	29.52
341.491	56.15
341.703	23.38
341.915	11.09
342.128	-3.24
342.34	-9.39
342.552	105.3
342.764	7
342.977	50
343.189	58.2
343.401	39.76
343.613	0.85
343.826	31.57
344.038	2.9
344.25	35.67
344.462	82.77
344.674	82.77
344.886	2.9
345.099	31.57
345.311	19.29
345.523	29.52
345.735	-11.43
345.947	52.05
346.159	54.1
346.371	-19.63
346.583	-52.39
346.795	58.2
347.007	101.2
347.219	29.52
347.431	127.83
347.643	27.48
347.855	-109.74
348.067	45.91
348.279	31.57
348.491	68.44
348.703	13.14
348.915	56.15
349.127	15.19
349.339	33.62
349.551	68.44
349.763	80.72
349.975	88.92
350.187	19.29
350.399	35.67
350.61	37.72
350.822	11.09
351.034	76.63
351.246	9.05
351.458	-7.34
351.669	86.87
351.881	27.48
352.093	158.55
352.305	72.53
352.517	86.87
352.728	64.34
352.94	60.24
353.152	72.53
353.363	121.68
353.575	99.16
353.787	47.96
353.999	109.4
354.21	76.63
354.422	72.53
354.633	78.68
354.845	37.72
355.057	76.63
355.268	66.39
355.48	9.05
355.692	-13.48
355.903	2.9
356.115	9.05
356.326	-15.53
356.538	64.34
356.749	121.68
356.961	35.67
357.172	-11.43
357.384	29.52
357.595	113.49
357.807	121.68
358.018	25.43
358.23	70.48
358.441	17.24
358.653	54.1
358.864	7
359.075	29.52
359.287	31.57
359.498	105.3
359.709	68.44
359.921	54.1
360.132	76.63
360.344	84.82
360.555	60.24
360.766	88.92
360.977	4.95
361.189	101.2
361.4	-54.44
361.611	27.48
361.823	129.88
362.034	86.87
362.245	-5.29
362.456	9.05
362.667	76.63
362.879	33.62
363.09	-1.19
363.301	68.44
363.512	52.05
363.723	95.06
363.935	97.11
364.146	125.78
364.357	29.52
364.568	76.63
364.779	-5.29
364.99	31.57
365.201	76.63
365.412	15.19
365.623	62.29
365.834	62.29
366.045	78.68
366.256	82.77
366.467	54.1
366.678	82.77
366.889	54.1
367.1	7
367.311	58.2
367.522	101.2
367.733	50
367.944	107.35
368.155	-15.53
368.366	119.64
368.577	7
368.788	58.2
368.999	21.33
369.209	60.24
369.42	95.06
369.631	152.4
369.842	47.96
370.053	138.07
370.264	76.63
370.474	27.48
370.685	-9.39
370.896	29.52
371.107	88.92
371.317	101.2
371.528	41.81
371.739	109.4
371.95	37.72
372.16	50
372.371	-42.15
372.582	43.86
372.792	56.15
373.003	7
373.214	-31.91
373.424	76.63
373.635	97.11
373.846	37.72
374.056	60.24
374.267	47.96
374.477	31.57
374.688	62.29
374.898	99.16
375.109	39.76
375.319	23.38
375.53	-7.34
375.74	25.43
375.951	52.05
376.161	31.57
376.372	58.2
376.582	37.72
376.793	-44.2
377.003	-58.54
377.214	47.96
377.424	109.4
377.635	111.44
377.845	58.2
378.055	70.48
378.266	2.9
378.476	15.19
378.686	54.1
378.897	68.44
379.107	88.92
379.317	86.87
379.528	76.63
379.738	47.96
379.948	2.9
380.158	41.81
380.369	7
380.579	37.72
380.789	84.82
380.999	25.43
381.21	35.67
381.42	93.01
381.63	74.58
381.84	41.81
382.05	129.88
382.261	148.31
382.471	70.48
382.681	41.81
382.891	113.49
383.101	41.81
383.311	56.15
383.521	43.86
383.731	37.72
383.941	45.91
384.151	70.48
384.361	33.62
384.571	115.54
384.781	86.87
384.991	121.68
385.201	103.25
385.411	45.91
385.621	113.49
385.831	27.48
386.041	47.96
386.251	47.96
386.461	115.54
386.671	119.64
386.881	56.15
387.091	-13.48
387.301	103.25
387.511	17.24
387.72	84.82
387.93	43.86
388.14	84.82
388.35	25.43
388.56	66.39
388.769	45.91
388.979	23.38
389.189	62.29
389.399	76.63
389.609	72.53
389.818	52.05
390.028	45.91
390.238	21.33
390.447	97.11
390.657	105.3
390.867	23.38
391.076	-1.19
391.286	50
391.496	74.58
391.705	123.73
391.915	97.11
392.125	99.16
392.334	17.24
392.544	197.46
392.753	68.44
392.963	15.19
393.172	88.92
393.382	99.16
393.591	54.1
393.801	76.63
394.01	72.53
394.22	129.88
394.429	13.14
394.639	80.72
394.848	43.86
395.058	115.54
395.267	109.4
395.477	150.36
395.686	66.39
395.895	168.79
396.105	90.96
396.314	54.1
396.524	86.87
396.733	148.31
396.942	162.64
397.152	127.83
397.361	97.11
397.57	105.3
397.78	43.86
397.989	121.68
398.198	117.59
398.407	105.3
398.617	123.73
398.826	166.74
399.035	86.87
399.244	121.68
399.453	103.25
399.663	84.82
399.872	52.05
400.081	111.44
400.29	146.26
400.499	86.87
400.708	119.64
400.917	54.1
401.127	99.16
401.336	162.64
401.545	136.02
401.754	105.3
401.963	142.16
402.172	23.38
402.381	176.98
402.59	103.25
402.799	72.53
403.008	215.89
403.217	131.92
403.426	123.73
403.635	123.73
403.844	125.78
404.053	142.16
404.262	88.92
404.471	166.74
404.68	154.45
404.888	78.68
405.097	156.5
405.306	129.88
405.515	107.35
405.724	187.22
405.933	158.55
406.142	138.07
406.35	148.31
406.559	199.51
406.768	111.44
406.977	219.99
407.185	191.31
407.394	262.99
407.603	127.83
407.812	211.79
408.02	224.08
408.229	279.38
408.438	160.59
408.646	187.22
408.855	131.92
409.064	256.85
409.272	199.51
409.481	246.61
409.69	365.39
409.898	244.56
410.107	209.75
410.315	297.81
410.524	248.66
410.733	287.57
410.941	295.76
411.15	359.25
411.358	379.73
411.567	338.77
411.775	379.73
411.984	428.88
412.192	344.91
412.401	383.82
412.609	521.04
412.818	414.54
413.026	461.65
413.234	430.93
413.443	414.54
413.651	529.23
413.86	430.93
414.068	516.94
414.276	570.19
414.485	627.53
414.693	650.06
414.901	654.16
415.11	656.2
415.318	629.58
415.526	688.97
415.734	774.99
415.943	752.46
416.151	797.51
416.359	691.02
416.567	828.23
416.776	803.66
416.984	848.71
417.192	949.06
417.4	979.78
417.608	877.38
417.817	967.49
418.025	953.16
418.233	975.69
418.441	1039.17
418.649	1098.56
418.857	1170.24
419.065	1164.1
419.273	1145.67
419.481	1325.89
419.689	1250.11
419.897	1327.94
420.105	1479.49
420.313	1413.95
420.521	1432.38
420.729	1532.73
420.937	1585.98
421.145	1561.41
421.353	1667.9
421.561	1798.97
421.769	1788.73
421.977	1846.07
422.185	1848.12
422.393	1983.29
422.601	2022.2
422.809	2059.06
423.017	2147.12
423.224	2157.36
423.432	2386.74
423.64	2323.25
423.848	2468.66
424.056	2417.46
424.263	2599.73
424.471	2636.59
424.679	2609.97
424.887	2736.94
425.094	2894.63
425.302	2810.67
425.51	2919.21
425.718	3181.35
425.925	3044.13
426.133	3386.15
426.341	3576.61
426.548	3564.32
426.756	3539.74
426.964	3652.38
427.171	3889.95
427.379	3963.67
427.586	4098.84
427.794	4092.69
428.001	4428.56
428.209	4537.1
428.417	4449.04
428.624	4756.24
428.832	4631.31
429.039	4735.76
429.247	4715.28
429.454	5210.89
429.662	5618.43
429.869	5071.62
430.076	5470.98
430.284	5339.91
430.491	5579.52
430.699	5886.72
430.906	5997.31
431.114	5978.87
431.321	6257.4
431.528	6427.38
431.736	6863.6
431.943	7125.74
432.15	6855.4
432.358	6996.71
432.565	7322.34
432.772	7236.33
432.979	7670.5
433.187	7881.44
433.394	7961.31
433.601	8276.7
433.808	8461.01
434.016	8530.64
434.223	8579.79
434.43	9145.03
434.637	8911.57
434.844	9519.81
435.052	9880.25
435.259	9886.4
435.466	9773.76
435.673	9792.19
435.88	10316.47
436.087	10814.13
436.294	11094.7
436.501	10709.68
436.708	10922.67
436.915	11139.76
437.122	11831.97
437.329	11778.72
437.537	12012.19
437.743	12216.99
437.95	12155.55
438.157	12794.51
438.364	13349.51
438.571	13496.97
438.778	13363.85
438.985	14551.67
439.192	13902.47
439.399	14369.4
439.606	13904.51
439.813	15250.03
440.02	15661.67
440.227	15731.3
440.433	15649.38
440.64	16085.6
440.847	15790.69
441.054	16224.86
441.261	17349.2
441.467	17312.33
441.674	17564.23
441.881	18096.71
442.088	18201.15
442.294	17904.2
442.501	18502.2
442.708	18786.87
442.914	19737.13
443.121	20275.74
443.328	19960.36
443.534	21223.95
443.741	20455.97
443.948	20679.19
444.154	21676.55
444.361	21770.76
444.568	21795.34
444.774	21848.58
444.981	22387.2
445.187	22688.25
445.394	23663.08
445.6	23220.72
445.807	25969.1
446.013	24306.15
446.22	24869.34
446.426	26083.78
446.633	26388.93
446.839	26767.8
447.046	25678.29
447.252	27154.87
447.459	27249.08
447.665	26948.03
447.871	28471.71
448.078	29499.8
448.284	28068.27
448.491	29114.78
448.697	30089.61
448.903	30421.38
449.11	30310.79
449.316	29671.82
449.522	30728.58
449.728	31621.49
449.935	31318.39
450.141	31211.9
450.347	32012.65
450.553	31283.58
450.76	31721.84
450.966	32835.94
451.172	32332.14
451.378	32844.13
451.584	32153.96
451.791	33026.4
451.997	33093.98
452.203	33630.55
452.409	33313.11
452.615	33061.21
452.821	31693.17
453.027	31678.83
453.233	33263.96
453.44	31693.17
453.646	31981.93
453.852	31949.17
454.058	32704.87
454.264	31375.73
454.47	32401.77
454.676	31584.63
454.882	32665.95
455.088	29907.34
455.294	30249.35
455.5	30419.33
455.705	30787.97
455.911	29456.79
456.117	29168.02
456.323	28338.6
456.529	26900.92
456.735	28117.42
456.941	27310.52
457.147	27097.53
457.352	25790.92
457.558	25625.04
457.764	25876.94
457.97	25274.84
458.176	24736.22
458.381	24855
458.587	23390.7
458.793	23654.89
458.999	22178.31
459.204	23841.26
459.41	23161.33
459.616	21778.95
459.821	21645.84
460.027	21514.77
460.233	20857.37
460.438	20093.47
460.644	20283.94
460.85	19354.16
461.055	18860.6
461.261	18999.86
461.466	17646.15
461.672	16968.27
461.878	18221.63
462.083	17044.05
462.289	16951.89
462.494	16642.65
462.7	15788.64
462.905	15286.89
463.111	15938.15
463.316	16134.75
463.522	15735.4
463.727	15829.6
463.932	15686.25
464.138	15639.14
464.343	15624.81
464.549	14895.73
464.754	15589.99
464.959	15620.71
465.165	15438.44
465.37	14588.53
465.575	14422.65
465.781	15037.04
465.986	15196.78
466.191	14615.16
466.397	14115.45
466.602	13562.5
466.807	14125.69
467.012	14109.31
467.218	13859.46
467.423	13861.51
467.628	13898.37
467.833	14762.61
468.038	13959.81
468.244	13701.76
468.449	14275.2
468.654	13453.96
468.859	13462.15
469.064	13365.9
469.269	12941.97
469.474	12880.53
