Data from USB4F104151__172__11-08-58-047.txt Node

Date: Wed Mar 12 11:08:58 EDT 2025
User: louis
Spectrometer: USB4F10415
Trigger mode: 4
Integration Time (sec): 2.000000E-2
Scans to average: 1
Electric dark correction enabled: true
Nonlinearity correction enabled: false
Boxcar width: 0
XAxis mode: Wavelengths
Number of Pixels in Spectrum: 3648
>>>>>Begin Spectral Data<<<<<
178.204	-37.03
178.424	-37.03
178.644	-37.03
178.864	-139.43
179.084	-61.61
179.304	-4.27
179.524	-24.75
179.744	-32.94
179.964	22.36
180.184	16.21
180.404	26.45
180.624	63.32
180.844	-2.22
181.064	-80.04
181.283	-28.84
181.503	38.74
181.723	5.97
181.943	-34.99
182.163	48.98
182.383	8.02
182.602	-16.55
182.822	-22.7
183.042	-69.8
183.262	-16.55
183.482	79.7
183.701	-28.84
183.921	40.79
184.141	5.97
184.361	3.93
184.58	65.36
184.8	30.55
185.02	8.02
185.239	46.93
185.459	51.03
185.679	20.31
185.898	18.26
186.118	-6.31
186.338	67.41
186.557	-51.37
186.777	14.17
186.997	28.5
187.216	30.55
187.436	89.94
187.655	44.88
187.875	75.6
188.095	34.64
188.314	46.93
188.534	104.28
188.753	-20.65
188.973	77.65
189.192	14.17
189.412	-37.03
189.631	-16.55
189.851	71.51
190.07	-41.13
190.29	34.64
190.509	3.93
190.729	-28.84
190.948	85.84
191.168	51.03
191.387	51.03
191.607	110.42
191.826	20.31
192.045	-16.55
192.265	5.97
192.484	-14.51
192.704	-57.51
192.923	14.17
193.142	81.75
193.362	5.97
193.581	5.97
193.8	38.74
194.02	1.88
194.239	53.08
194.458	67.41
194.678	28.5
194.897	22.36
195.116	22.36
195.335	8.02
195.555	30.55
195.774	12.12
195.993	30.55
196.212	-4.27
196.432	-37.03
196.651	-12.46
196.87	-10.41
197.089	-6.31
197.308	44.88
197.528	59.22
197.747	3.93
197.966	3.93
198.185	46.93
198.404	12.12
198.623	36.69
198.842	22.36
199.062	28.5
199.281	18.26
199.5	-4.27
199.719	104.28
199.938	34.64
200.157	104.28
200.376	3.93
200.595	98.13
200.814	28.5
201.033	-2.22
201.252	81.75
201.471	79.7
201.69	-4.27
201.909	-63.66
202.128	46.93
202.347	1.88
202.566	122.71
202.785	40.79
203.004	-10.41
203.223	102.23
203.442	36.69
203.661	42.84
203.879	67.41
204.098	79.7
204.317	42.84
204.536	16.21
204.755	-28.84
204.974	-34.99
205.193	67.41
205.411	61.27
205.63	3.93
205.849	14.17
206.068	91.99
206.287	-20.65
206.505	44.88
206.724	-14.51
206.943	73.56
207.162	34.64
207.381	38.74
207.599	28.5
207.818	28.5
208.037	-18.6
208.255	30.55
208.474	-2.22
208.693	36.69
208.911	44.88
209.13	20.31
209.349	20.31
209.567	-16.55
209.786	106.32
210.005	26.45
210.223	40.79
210.442	-2.22
210.661	-8.36
210.879	-57.51
211.098	48.98
211.316	59.22
211.535	40.79
211.753	5.97
211.972	118.61
212.191	-2.22
212.409	3.93
212.628	28.5
212.846	8.02
213.065	26.45
213.283	36.69
213.502	10.07
213.72	18.26
213.938	28.5
214.157	12.12
214.375	24.4
214.594	-6.31
214.812	44.88
215.031	24.4
215.249	55.12
215.467	-0.17
215.686	28.5
215.904	18.26
216.122	38.74
216.341	-2.22
216.559	61.27
216.778	44.88
216.996	16.21
217.214	57.17
217.432	-41.13
217.651	-39.08
217.869	26.45
218.087	-14.51
218.306	65.36
218.524	30.55
218.742	53.08
218.96	3.93
219.179	12.12
219.397	38.74
219.615	89.94
219.833	69.46
220.051	77.65
220.27	28.5
220.488	44.88
220.706	16.21
220.924	59.22
221.142	-22.7
221.36	59.22
221.578	75.6
221.796	-0.17
222.015	36.69
222.233	5.97
222.451	42.84
222.669	8.02
222.887	51.03
223.105	12.12
223.323	8.02
223.541	-100.52
223.759	51.03
223.977	34.64
224.195	-6.31
224.413	28.5
224.631	-12.46
224.849	34.64
225.067	89.94
225.285	65.36
225.503	42.84
225.721	69.46
225.939	28.5
226.157	55.12
226.375	104.28
226.592	8.02
226.81	-16.55
227.028	69.46
227.246	114.52
227.464	44.88
227.682	44.88
227.9	91.99
228.117	22.36
228.335	79.7
228.553	20.31
228.771	16.21
228.989	-20.65
229.206	-12.46
229.424	20.31
229.642	-49.32
229.86	14.17
230.077	-2.22
230.295	-37.03
230.513	22.36
230.731	48.98
230.948	26.45
231.166	42.84
231.384	14.17
231.601	42.84
231.819	-2.22
232.037	63.32
232.254	69.46
232.472	32.6
232.689	40.79
232.907	51.03
233.125	-4.27
233.342	20.31
233.56	44.88
233.777	16.21
233.995	-14.51
234.213	85.84
234.43	-20.65
234.648	-30.89
234.865	59.22
235.083	-8.36
235.3	34.64
235.518	-28.84
235.735	26.45
235.953	-10.41
236.17	44.88
236.388	12.12
236.605	16.21
236.822	53.08
237.04	-2.22
237.257	40.79
237.475	14.17
237.692	61.27
237.909	3.93
238.127	12.12
238.344	75.6
238.562	46.93
238.779	32.6
238.996	-30.89
239.214	38.74
239.431	34.64
239.648	-12.46
239.865	79.7
240.083	-10.41
240.3	40.79
240.517	48.98
240.735	40.79
240.952	87.89
241.169	38.74
241.386	12.12
241.603	1.88
241.821	26.45
242.038	124.76
242.255	-14.51
242.472	28.5
242.689	81.75
242.907	40.79
243.124	-41.13
243.341	10.07
243.558	38.74
243.775	3.93
243.992	67.41
244.209	75.6
244.426	77.65
244.643	67.41
244.86	73.56
245.078	65.36
245.295	36.69
245.512	81.75
245.729	-8.36
245.946	26.45
246.163	10.07
246.38	77.65
246.597	-18.6
246.814	30.55
247.031	14.17
247.248	-10.41
247.464	46.93
247.681	83.8
247.898	36.69
248.115	-2.22
248.332	26.45
248.549	85.84
248.766	128.85
248.983	112.47
249.2	128.85
249.417	14.17
249.633	24.4
249.85	57.17
250.067	3.93
250.284	44.88
250.501	-4.27
250.717	57.17
250.934	-18.6
251.151	44.88
251.368	-45.23
251.585	34.64
251.801	-24.75
252.018	34.64
252.235	75.6
252.451	5.97
252.668	46.93
252.885	73.56
253.102	10.07
253.318	38.74
253.535	10.07
253.752	40.79
253.968	-16.55
254.185	-20.65
254.401	10.07
254.618	3.93
254.835	22.36
255.051	94.04
255.268	85.84
255.484	44.88
255.701	-8.36
255.917	44.88
256.134	57.17
256.351	48.98
256.567	-67.75
256.784	44.88
257	18.26
257.217	44.88
257.433	77.65
257.65	44.88
257.866	77.65
258.082	3.93
258.299	-26.79
258.515	57.17
258.732	-18.6
258.948	12.12
259.165	-6.31
259.381	-28.84
259.597	106.32
259.814	108.37
260.03	22.36
260.246	-14.51
260.463	-30.89
260.679	-4.27
260.895	24.4
261.112	24.4
261.328	-37.03
261.544	40.79
261.761	-26.79
261.977	-55.47
262.193	-37.03
262.409	63.32
262.626	-34.99
262.842	51.03
263.058	28.5
263.274	57.17
263.49	71.51
263.707	89.94
263.923	16.21
264.139	-16.55
264.355	22.36
264.571	91.99
264.787	5.97
265.004	28.5
265.22	14.17
265.436	51.03
265.652	110.42
265.868	-18.6
266.084	32.6
266.3	40.79
266.516	8.02
266.732	71.51
266.948	8.02
267.164	12.12
267.38	-49.32
267.596	18.26
267.812	42.84
268.028	1.88
268.244	20.31
268.46	67.41
268.676	-34.99
268.892	40.79
269.108	8.02
269.324	16.21
269.54	-84.14
269.756	26.45
269.972	67.41
270.188	1.88
270.403	-43.18
270.619	28.5
270.835	16.21
271.051	14.17
271.267	57.17
271.483	-4.27
271.698	-20.65
271.914	-2.22
272.13	1.88
272.346	42.84
272.562	71.51
272.777	40.79
272.993	42.84
273.209	46.93
273.425	36.69
273.64	44.88
273.856	24.4
274.072	-55.47
274.287	30.55
274.503	69.46
274.719	42.84
274.934	85.84
275.15	-8.36
275.366	42.84
275.581	3.93
275.797	22.36
276.012	12.12
276.228	-0.17
276.444	16.21
276.659	79.7
276.875	36.69
277.09	53.08
277.306	71.51
277.521	38.74
277.737	65.36
277.952	61.27
278.168	36.69
278.383	69.46
278.599	1.88
278.814	-37.03
279.03	10.07
279.245	28.5
279.461	32.6
279.676	16.21
279.892	14.17
280.107	-14.51
280.322	1.88
280.538	24.4
280.753	36.69
280.969	55.12
281.184	14.17
281.399	20.31
281.615	24.4
281.83	-0.17
282.045	-67.75
282.26	32.6
282.476	87.89
282.691	32.6
282.906	53.08
283.122	5.97
283.337	-0.17
283.552	89.94
283.767	26.45
283.983	118.61
284.198	26.45
284.413	118.61
284.628	-22.7
284.843	-39.08
285.058	5.97
285.274	63.32
285.489	-22.7
285.704	53.08
285.919	-14.51
286.134	10.07
286.349	-6.31
286.564	20.31
286.779	34.64
286.995	42.84
287.21	-6.31
287.425	42.84
287.64	-47.27
287.855	-2.22
288.07	20.31
288.285	18.26
288.5	51.03
288.715	91.99
288.93	-55.47
289.145	55.12
289.36	8.02
289.575	59.22
289.79	98.13
290.004	48.98
290.219	67.41
290.434	32.6
290.649	-34.99
290.864	5.97
291.079	1.88
291.294	-8.36
291.509	28.5
291.724	-32.94
291.938	18.26
292.153	-69.8
292.368	42.84
292.583	34.64
292.798	67.41
293.012	-12.46
293.227	36.69
293.442	38.74
293.657	48.98
293.871	16.21
294.086	77.65
294.301	53.08
294.516	77.65
294.73	3.93
294.945	42.84
295.16	75.6
295.374	38.74
295.589	65.36
295.804	14.17
296.018	77.65
296.233	-2.22
296.447	40.79
296.662	-4.27
296.877	69.46
297.091	51.03
297.306	14.17
297.52	-28.84
297.735	20.31
297.949	26.45
298.164	59.22
298.378	67.41
298.593	24.4
298.807	83.8
299.022	22.36
299.236	48.98
299.451	18.26
299.665	20.31
299.88	-10.41
300.094	106.32
300.309	67.41
300.523	16.21
300.737	73.56
300.952	77.65
301.166	46.93
301.381	59.22
301.595	32.6
301.809	10.07
302.024	3.93
302.238	48.98
302.452	79.7
302.667	44.88
302.881	-24.75
303.095	46.93
303.309	42.84
303.524	59.22
303.738	-2.22
303.952	32.6
304.166	22.36
304.381	3.93
304.595	14.17
304.809	96.08
305.023	40.79
305.237	36.69
305.452	94.04
305.666	135
305.88	-6.31
306.094	14.17
306.308	42.84
306.522	81.75
306.736	44.88
306.95	10.07
307.164	-20.65
307.379	34.64
307.593	24.4
307.807	38.74
308.021	112.47
308.235	46.93
308.449	71.51
308.663	-30.89
308.877	53.08
309.091	89.94
309.305	69.46
309.519	-8.36
309.733	-45.23
309.947	-20.65
310.161	69.46
310.374	55.12
310.588	5.97
310.802	-28.84
311.016	-2.22
311.23	65.36
311.444	12.12
311.658	12.12
311.872	44.88
312.085	67.41
312.299	114.52
312.513	53.08
312.727	26.45
312.941	85.84
313.154	-4.27
313.368	-16.55
313.582	24.4
313.796	-26.79
314.009	44.88
314.223	87.89
314.437	-14.51
314.651	36.69
314.864	-4.27
315.078	3.93
315.292	38.74
315.505	-22.7
315.719	16.21
315.933	53.08
316.146	10.07
316.36	-110.76
316.573	55.12
316.787	79.7
317.001	20.31
317.214	16.21
317.428	40.79
317.641	30.55
317.855	71.51
318.068	96.08
318.282	48.98
318.495	14.17
318.709	63.32
318.922	18.26
319.136	10.07
319.349	22.36
319.563	-10.41
319.776	46.93
319.99	10.07
320.203	22.36
320.417	36.69
320.63	38.74
320.843	32.6
321.057	51.03
321.27	26.45
321.483	22.36
321.697	104.28
321.91	5.97
322.124	24.4
322.337	59.22
322.55	65.36
322.763	59.22
322.977	22.36
323.19	-14.51
323.403	96.08
323.617	44.88
323.83	48.98
324.043	-12.46
324.256	110.42
324.469	-10.41
324.683	48.98
324.896	120.66
325.109	102.23
325.322	-22.7
325.535	14.17
325.748	22.36
325.962	10.07
326.175	67.41
326.388	96.08
326.601	112.47
326.814	85.84
327.027	22.36
327.24	135
327.453	10.07
327.666	-37.03
327.879	46.93
328.092	34.64
328.305	48.98
328.518	1.88
328.731	24.4
328.944	-6.31
329.157	42.84
329.37	-8.36
329.583	75.6
329.796	8.02
330.009	22.36
330.222	10.07
330.435	-4.27
330.648	42.84
330.861	12.12
331.073	75.6
331.286	55.12
331.499	12.12
331.712	10.07
331.925	20.31
332.138	73.56
332.35	106.32
332.563	87.89
332.776	38.74
332.989	61.27
333.202	24.4
333.414	22.36
333.627	38.74
333.84	-8.36
334.053	-18.6
334.265	73.56
334.478	-30.89
334.691	42.84
334.903	20.31
335.116	14.17
335.329	14.17
335.541	38.74
335.754	-2.22
335.966	-6.31
336.179	98.13
336.392	-10.41
336.604	-37.03
336.817	65.36
337.029	36.69
337.242	91.99
337.454	75.6
337.667	5.97
337.88	1.88
338.092	-8.36
338.305	81.75
338.517	14.17
338.729	40.79
338.942	26.45
339.154	-8.36
339.367	75.6
339.579	36.69
339.792	44.88
340.004	48.98
340.217	18.26
340.429	18.26
340.641	61.27
340.854	139.09
341.066	65.36
341.278	46.93
341.491	14.17
341.703	1.88
341.915	63.32
342.128	38.74
342.34	12.12
342.552	91.99
342.764	1.88
342.977	22.36
343.189	-0.17
343.401	-86.19
343.613	-20.65
343.826	51.03
344.038	10.07
344.25	40.79
344.462	40.79
344.674	71.51
344.886	30.55
345.099	85.84
345.311	36.69
345.523	38.74
345.735	-18.6
345.947	53.08
346.159	83.8
346.371	24.4
346.583	40.79
346.795	75.6
347.007	63.32
347.219	130.9
347.431	46.93
347.643	79.7
347.855	57.17
348.067	-8.36
348.279	14.17
348.491	55.12
348.703	51.03
348.915	106.32
349.127	-10.41
349.339	22.36
349.551	20.31
349.763	51.03
349.975	-59.56
350.187	18.26
350.399	34.64
350.61	81.75
350.822	8.02
351.034	81.75
351.246	63.32
351.458	106.32
351.669	71.51
351.881	46.93
352.093	42.84
352.305	120.66
352.517	51.03
352.728	32.6
352.94	59.22
353.152	75.6
353.363	38.74
353.575	55.12
353.787	106.32
353.999	12.12
354.21	22.36
354.422	10.07
354.633	75.6
354.845	-12.46
355.057	48.98
355.268	61.27
355.48	30.55
355.692	-34.99
355.903	28.5
356.115	22.36
356.326	57.17
356.538	96.08
356.749	71.51
356.961	81.75
357.172	40.79
357.384	32.6
357.595	83.8
357.807	57.17
358.018	57.17
358.23	81.75
358.441	102.23
358.653	12.12
358.864	32.6
359.075	18.26
359.287	26.45
359.498	42.84
359.709	34.64
359.921	96.08
360.132	42.84
360.344	67.41
360.555	38.74
360.766	67.41
360.977	83.8
361.189	-6.31
361.4	34.64
361.611	61.27
361.823	89.94
362.034	46.93
362.245	-57.51
362.456	30.55
362.667	130.9
362.879	71.51
363.09	-47.27
363.301	46.93
363.512	55.12
363.723	30.55
363.935	5.97
364.146	75.6
364.357	26.45
364.568	108.37
364.779	42.84
364.99	3.93
365.201	28.5
365.412	118.61
365.623	-2.22
365.834	79.7
366.045	10.07
366.256	81.75
366.467	40.79
366.678	18.26
366.889	32.6
367.1	-34.99
367.311	85.84
367.522	16.21
367.733	40.79
367.944	1.88
368.155	87.89
368.366	42.84
368.577	128.85
368.788	38.74
368.999	-22.7
369.209	38.74
369.42	40.79
369.631	30.55
369.842	65.36
370.053	30.55
370.264	-14.51
370.474	53.08
370.685	-12.46
370.896	81.75
371.107	3.93
371.317	67.41
371.528	20.31
371.739	28.5
371.95	22.36
372.16	61.27
372.371	42.84
372.582	96.08
372.792	32.6
373.003	61.27
373.214	81.75
373.424	98.13
373.635	63.32
373.846	8.02
374.056	28.5
374.267	94.04
374.477	34.64
374.688	100.18
374.898	53.08
375.109	118.61
375.319	44.88
375.53	59.22
375.74	55.12
375.951	51.03
376.161	24.4
376.372	69.46
376.582	-14.51
376.793	30.55
377.003	40.79
377.214	53.08
377.424	59.22
377.635	63.32
377.845	5.97
378.055	57.17
378.266	81.75
378.476	-18.6
378.686	87.89
378.897	38.74
379.107	59.22
379.317	32.6
379.528	83.8
379.738	61.27
379.948	-26.79
380.158	77.65
380.369	14.17
380.579	20.31
380.789	-4.27
380.999	96.08
381.21	-26.79
381.42	83.8
381.63	26.45
381.84	61.27
382.05	63.32
382.261	108.37
382.471	44.88
382.681	59.22
382.891	48.98
383.101	75.6
383.311	12.12
383.521	75.6
383.731	120.66
383.941	38.74
384.151	108.37
384.361	-2.22
384.571	61.27
384.781	59.22
384.991	89.94
385.201	67.41
385.411	24.4
385.621	83.8
385.831	77.65
386.041	116.56
386.251	-20.65
386.461	98.13
386.671	71.51
386.881	71.51
387.091	20.31
387.301	104.28
387.511	53.08
387.72	83.8
387.93	30.55
388.14	5.97
388.35	61.27
388.56	89.94
388.769	130.9
388.979	5.97
389.189	28.5
389.399	3.93
389.609	96.08
389.818	59.22
390.028	-0.17
390.238	-18.6
390.447	18.26
390.657	91.99
390.867	12.12
391.076	-61.61
391.286	44.88
391.496	24.4
391.705	114.52
391.915	34.64
392.125	79.7
392.334	46.93
392.544	89.94
392.753	98.13
392.963	-4.27
393.172	53.08
393.382	22.36
393.591	91.99
393.801	28.5
394.01	42.84
394.22	79.7
394.429	100.18
394.639	44.88
394.848	102.23
395.058	79.7
395.267	145.24
395.477	132.95
395.686	53.08
395.895	104.28
396.105	102.23
396.314	65.36
396.524	81.75
396.733	48.98
396.942	55.12
397.152	104.28
397.361	79.7
397.57	89.94
397.78	89.94
397.989	77.65
398.198	126.8
398.407	24.4
398.617	59.22
398.826	145.24
399.035	100.18
399.244	75.6
399.453	96.08
399.663	108.37
399.872	81.75
400.081	73.56
400.29	83.8
400.499	26.45
400.708	159.57
400.917	106.32
401.127	57.17
401.336	120.66
401.545	106.32
401.754	85.84
401.963	61.27
402.172	118.61
402.381	102.23
402.59	53.08
402.799	30.55
403.008	182.1
403.217	145.24
403.426	122.71
403.635	30.55
403.844	98.13
404.053	180.05
404.262	85.84
404.471	112.47
404.68	161.62
404.888	108.37
405.097	145.24
405.306	163.67
405.515	175.95
405.724	91.99
405.933	102.23
406.142	126.8
406.35	124.76
406.559	155.47
406.768	178
406.977	171.86
407.185	218.96
407.394	128.85
407.603	155.47
407.812	184.15
408.02	196.43
408.229	206.67
408.438	169.81
408.646	180.05
408.855	186.19
409.064	237.39
409.272	210.77
409.481	233.3
409.69	200.53
409.898	272.21
410.107	223.06
410.315	223.06
410.524	249.68
410.733	298.83
410.941	288.59
411.15	274.26
411.358	325.46
411.567	307.02
411.775	247.63
411.984	251.73
412.192	366.42
412.401	253.78
412.609	489.29
412.818	429.9
413.026	446.29
413.234	366.42
413.443	407.38
413.651	403.28
413.86	399.18
414.068	577.36
414.276	468.81
414.485	499.53
414.693	560.97
414.901	513.87
415.11	560.97
415.318	517.97
415.526	649.04
415.734	556.88
415.943	571.21
416.151	681.8
416.359	649.04
416.567	597.84
416.776	700.23
416.984	780.11
417.192	730.95
417.4	786.25
417.608	862.02
417.817	816.97
418.025	866.12
418.233	1007.43
418.441	991.05
418.649	958.28
418.857	1058.63
419.065	1107.78
419.273	1070.92
419.481	1066.82
419.689	1128.26
419.897	1195.84
420.105	1275.71
420.313	1259.33
420.521	1322.82
420.729	1410.88
420.937	1410.88
421.145	1505.09
421.353	1410.88
421.561	1597.24
421.769	1517.37
421.977	1646.4
422.185	1570.62
422.393	1779.51
422.601	1867.58
422.809	1916.73
423.017	1832.76
423.224	1924.92
423.432	2029.37
423.64	2029.37
423.848	2283.31
424.056	2271.03
424.263	2367.28
424.471	2213.68
424.679	2344.75
424.887	2557.74
425.094	2631.47
425.302	2660.14
425.51	2641.71
425.718	2643.76
425.925	2713.39
426.133	2864.94
426.341	3032.87
426.548	3209
426.756	3229.48
426.964	3225.38
427.171	3325.73
427.379	3487.52
427.586	3594.01
427.794	3698.46
428.001	3837.72
428.209	4042.52
428.417	3804.96
428.624	4280.08
428.832	4292.37
429.039	4022.04
429.247	4173.59
429.454	4667.15
429.662	4765.45
429.869	4687.63
430.076	4888.33
430.284	4736.78
430.491	4921.1
430.699	5234.44
430.906	5056.26
431.114	5277.44
431.321	5461.76
431.528	5637.89
431.736	5881.6
431.943	6143.74
432.15	5957.37
432.358	6264.57
432.565	6448.88
432.772	6416.12
432.979	6749.93
433.187	6829.81
433.394	6921.96
433.601	7352.04
433.808	7337.7
434.016	7544.55
434.223	7593.7
434.43	8070.87
434.637	7954.14
434.844	8367.83
435.052	8496.85
435.259	8531.67
435.466	8689.36
435.673	8546
435.88	9058
436.087	9737.92
436.294	9686.72
436.501	9338.57
436.708	9488.07
436.915	9684.67
437.122	10407.61
437.329	10225.34
437.537	10606.26
437.743	10991.28
437.95	10548.92
438.157	11105.96
438.364	11529.89
438.571	11572.9
438.778	11703.97
438.985	12777.11
439.192	12361.37
439.399	12662.42
439.606	12371.61
439.813	12990.1
440.02	13895.3
440.227	13432.46
440.433	13303.43
440.64	13915.78
440.847	13840
441.054	13975.17
441.261	15119.98
441.467	14880.37
441.674	15220.33
441.881	15529.58
442.088	15644.26
442.294	15406.7
442.501	15869.54
442.708	16399.96
442.914	16938.58
443.121	17477.19
443.328	17262.16
443.534	18368.06
443.741	17815.11
443.948	17643.08
444.154	18652.73
444.361	18695.74
444.568	19093.04
444.774	18904.63
444.981	19287.6
445.187	19555.88
445.394	20534.81
445.6	20127.27
445.807	22040.07
446.013	21124.63
446.22	21491.21
446.426	22447.61
446.633	22414.85
446.839	23143.92
447.046	22119.94
447.252	23578.09
447.459	23735.79
447.665	23111.16
447.871	24313.31
448.078	25429.46
448.284	24092.13
448.491	25060.82
448.697	25896.39
448.903	26451.39
449.11	26492.35
449.316	25996.74
449.522	26408.39
449.728	27123.13
449.935	27270.58
450.141	27469.23
450.347	27626.93
450.553	26488.26
450.76	27366.84
450.966	27944.36
451.172	27901.36
451.378	28489.12
451.584	27868.59
451.791	28233.13
451.997	28462.5
452.203	28976.54
452.409	28757.41
452.615	28788.13
452.821	27360.69
453.027	27286.96
453.233	28571.04
453.44	27565.49
453.646	28081.58
453.852	27696.56
454.058	28327.33
454.264	27348.4
454.47	28112.3
454.676	27372.98
454.882	28321.19
455.088	25681.36
455.294	26275.27
455.5	26549.7
455.705	26615.23
455.911	25736.65
456.117	25239
456.323	24763.87
456.529	23449.07
456.735	24507.87
456.941	23944.68
457.147	23539.18
457.352	22453.76
457.558	22439.42
457.764	22509.05
457.97	21923.33
458.176	21366.29
458.381	21579.28
458.587	20405.79
458.793	20450.85
458.999	19183.15
459.204	20573.72
459.41	20303.39
459.616	18724.41
459.821	18957.88
460.027	19025.46
460.233	18486.84
460.438	17679.94
460.644	17759.81
460.85	16678.49
461.055	16551.51
461.261	16606.81
461.466	15087.22
461.672	14978.67
461.878	16103.01
462.083	14890.61
462.289	14612.09
462.494	14345.85
462.7	13903.49
462.905	13622.92
463.111	13946.5
463.316	13907.59
463.522	13700.74
463.727	13692.55
463.932	13817.47
464.138	13432.46
464.343	13608.58
464.549	13192.84
464.754	13774.47
464.959	13319.82
465.165	13545.09
465.37	12904.08
465.575	12443.29
465.781	13010.57
465.986	13287.05
466.191	12570.26
466.397	12465.82
466.602	11818.66
466.807	12304.03
467.012	12258.97
467.218	12193.44
467.423	11984.54
467.628	12365.46
467.833	12414.62
468.038	12267.16
468.244	11878.05
