Data from USB4F104151__59__11-05-56-406.txt Node

Date: Wed Mar 12 11:05:56 EDT 2025
User: louis
Spectrometer: USB4F10415
Trigger mode: 4
Integration Time (sec): 2.000000E-2
Scans to average: 1
Electric dark correction enabled: true
Nonlinearity correction enabled: false
Boxcar width: 0
XAxis mode: Wavelengths
Number of Pixels in Spectrum: 3648
>>>>>Begin Spectral Data<<<<<
178.204	-70.14
178.424	-70.14
178.644	-70.14
178.864	-64
179.084	-102.91
179.304	30.21
179.524	11.78
179.744	-43.52
179.964	65.02
180.184	32.26
180.404	-25.09
180.624	-41.47
180.844	-55.81
181.064	22.02
181.283	-18.94
181.503	9.73
181.723	13.82
181.943	5.63
182.163	3.58
182.383	-25.09
182.602	44.54
182.822	17.92
183.042	-18.94
183.262	62.98
183.482	77.31
183.701	32.26
183.921	108.03
184.141	54.78
184.361	9.73
184.58	32.26
184.8	-14.85
185.02	48.64
185.239	62.98
185.459	1.54
185.679	71.17
185.898	9.73
186.118	38.4
186.338	1.54
186.557	52.74
186.777	-45.57
186.997	75.26
187.216	71.17
187.436	103.93
187.655	65.02
187.875	87.55
188.095	-23.04
188.314	67.07
188.534	101.89
188.753	-6.66
188.973	77.31
189.192	67.07
189.412	73.21
189.631	9.73
189.851	89.6
190.07	50.69
190.29	24.06
190.509	56.83
190.729	26.11
190.948	103.93
191.168	151.04
191.387	71.17
191.607	54.78
191.826	79.36
192.045	9.73
192.265	103.93
192.484	110.08
192.704	9.73
192.923	46.59
193.142	9.73
193.362	60.93
193.581	112.13
193.8	7.68
194.02	130.56
194.239	-0.51
194.458	19.97
194.678	-25.09
194.897	26.11
195.116	26.11
195.335	30.21
195.555	3.58
195.774	50.69
195.993	9.73
196.212	-20.99
196.432	-0.51
196.651	73.21
196.87	56.83
197.089	89.6
197.308	22.02
197.528	-4.61
197.747	19.97
197.966	38.4
198.185	99.84
198.404	32.26
198.623	83.45
198.842	24.06
199.062	54.78
199.281	73.21
199.5	40.45
199.719	67.07
199.938	91.65
200.157	54.78
200.376	65.02
200.595	46.59
200.814	140.8
201.033	17.92
201.252	67.07
201.471	-25.09
201.69	110.08
201.909	24.06
202.128	71.17
202.347	-27.14
202.566	54.78
202.785	50.69
203.004	91.65
203.223	40.45
203.442	60.93
203.661	91.65
203.879	46.59
204.098	81.41
204.317	26.11
204.536	60.93
204.755	-2.56
204.974	26.11
205.193	40.45
205.411	62.98
205.63	28.16
205.849	1.54
206.068	85.5
206.287	46.59
206.505	79.36
206.724	50.69
206.943	44.54
207.162	44.54
207.381	-45.57
207.599	-39.42
207.818	71.17
208.037	-6.66
208.255	19.97
208.474	138.75
208.693	50.69
208.911	65.02
209.13	50.69
209.349	38.4
209.567	22.02
209.786	26.11
210.005	91.65
210.223	132.61
210.442	73.21
210.661	38.4
210.879	9.73
211.098	30.21
211.316	46.59
211.535	28.16
211.753	17.92
211.972	60.93
212.191	58.88
212.409	89.6
212.628	93.69
212.846	73.21
213.065	19.97
213.283	22.02
213.502	128.51
213.72	11.78
213.938	-39.42
214.157	60.93
214.375	46.59
214.594	60.93
214.812	52.74
215.031	48.64
215.249	17.92
215.467	95.74
215.686	87.55
215.904	42.5
216.122	34.3
216.341	77.31
216.559	62.98
216.778	38.4
216.996	54.78
217.214	-0.51
217.432	67.07
217.651	112.13
217.869	17.92
218.087	36.35
218.306	56.83
218.524	46.59
218.742	17.92
218.96	60.93
219.179	60.93
219.397	22.02
219.615	130.56
219.833	58.88
220.051	42.5
220.27	60.93
220.488	85.5
220.706	93.69
220.924	13.82
221.142	32.26
221.36	30.21
221.578	65.02
221.796	38.4
222.015	19.97
222.233	-27.14
222.451	26.11
222.669	62.98
222.887	79.36
223.105	79.36
223.323	3.58
223.541	69.12
223.759	58.88
223.977	62.98
224.195	52.74
224.413	54.78
224.631	89.6
224.849	-45.57
225.067	79.36
225.285	36.35
225.503	110.08
225.721	-57.86
225.939	40.45
226.157	30.21
226.375	93.69
226.592	-16.9
226.81	62.98
227.028	116.22
227.246	17.92
227.464	9.73
227.682	42.5
227.9	58.88
228.117	34.3
228.335	54.78
228.553	91.65
228.771	13.82
228.989	54.78
229.206	110.08
229.424	13.82
229.642	-35.33
229.86	1.54
230.077	7.68
230.295	50.69
230.513	34.3
230.731	105.98
230.948	81.41
231.166	124.41
231.384	56.83
231.601	36.35
231.819	71.17
232.037	46.59
232.254	28.16
232.472	-27.14
232.689	42.5
232.907	7.68
233.125	42.5
233.342	30.21
233.56	62.98
233.777	58.88
233.995	24.06
234.213	69.12
234.43	118.27
234.648	50.69
234.865	9.73
235.083	89.6
235.3	7.68
235.518	54.78
235.735	114.17
235.953	75.26
236.17	30.21
236.388	48.64
236.605	-12.8
236.822	69.12
237.04	44.54
237.257	65.02
237.475	42.5
237.692	52.74
237.909	126.46
238.127	1.54
238.344	17.92
238.562	103.93
238.779	42.5
238.996	77.31
239.214	79.36
239.431	36.35
239.648	-0.51
239.865	112.13
240.083	93.69
240.3	42.5
240.517	26.11
240.735	-6.66
240.952	26.11
241.169	67.07
241.386	99.84
241.603	54.78
241.821	22.02
242.038	71.17
242.255	56.83
242.472	38.4
242.689	85.5
242.907	99.84
243.124	-12.8
243.341	112.13
243.558	28.16
243.775	-20.99
243.992	28.16
244.209	62.98
244.426	58.88
244.643	62.98
244.86	-59.9
245.078	85.5
245.295	24.06
245.512	28.16
245.729	-20.99
245.946	17.92
246.163	36.35
246.38	-2.56
246.597	-33.28
246.814	77.31
247.031	40.45
247.248	56.83
247.464	17.92
247.681	134.65
247.898	-4.61
248.115	101.89
248.332	-4.61
248.549	56.83
248.766	97.79
248.983	87.55
249.2	54.78
249.417	73.21
249.633	26.11
249.85	77.31
250.067	114.17
250.284	83.45
250.501	32.26
250.717	89.6
250.934	-76.29
251.151	56.83
251.368	34.3
251.585	42.5
251.801	62.98
252.018	24.06
252.235	56.83
252.451	-16.9
252.668	62.98
252.885	91.65
253.102	71.17
253.318	30.21
253.535	24.06
253.752	73.21
253.968	54.78
254.185	60.93
254.401	81.41
254.618	132.61
254.835	75.26
255.051	38.4
255.268	99.84
255.484	120.32
255.701	75.26
255.917	89.6
256.134	52.74
256.351	50.69
256.567	60.93
256.784	56.83
257	30.21
257.217	103.93
257.433	85.5
257.65	73.21
257.866	83.45
258.082	60.93
258.299	19.97
258.515	116.22
258.732	24.06
258.948	36.35
259.165	38.4
259.381	67.07
259.597	105.98
259.814	24.06
260.03	95.74
260.246	54.78
260.463	-8.7
260.679	40.45
260.895	-10.75
261.112	7.68
261.328	58.88
261.544	1.54
261.761	71.17
261.977	17.92
262.193	26.11
262.409	89.6
262.626	48.64
262.842	7.68
263.058	54.78
263.274	32.26
263.49	30.21
263.707	1.54
263.923	114.17
264.139	-6.66
264.355	71.17
264.571	40.45
264.787	22.02
265.004	93.69
265.22	105.98
265.436	56.83
265.652	28.16
265.868	42.5
266.084	30.21
266.3	77.31
266.516	46.59
266.732	-12.8
266.948	87.55
267.164	26.11
267.38	89.6
267.596	83.45
267.812	132.61
268.028	50.69
268.244	22.02
268.46	62.98
268.676	-2.56
268.892	99.84
269.108	30.21
269.324	89.6
269.54	30.21
269.756	79.36
269.972	26.11
270.188	89.6
270.403	58.88
270.619	56.83
270.835	116.22
271.051	34.3
271.267	28.16
271.483	54.78
271.698	50.69
271.914	85.5
272.13	93.69
272.346	7.68
272.562	95.74
272.777	1.54
272.993	112.13
273.209	1.54
273.425	110.08
273.64	54.78
273.856	34.3
274.072	48.64
274.287	-35.33
274.503	60.93
274.719	65.02
274.934	60.93
275.15	56.83
275.366	58.88
275.581	65.02
275.797	50.69
276.012	134.65
276.228	77.31
276.444	122.37
276.659	67.07
276.875	69.12
277.09	140.8
277.306	-27.14
277.521	114.17
277.737	69.12
277.952	22.02
278.168	79.36
278.383	30.21
278.599	-37.38
278.814	34.3
279.03	34.3
279.245	124.41
279.461	67.07
279.676	67.07
279.892	17.92
280.107	62.98
280.322	85.5
280.538	44.54
280.753	87.55
280.969	87.55
281.184	11.78
281.399	24.06
281.615	42.5
281.83	42.5
282.045	97.79
282.26	26.11
282.476	32.26
282.691	65.02
282.906	30.21
283.122	5.63
283.337	67.07
283.552	28.16
283.767	54.78
283.983	67.07
284.198	69.12
284.413	71.17
284.628	36.35
284.843	62.98
285.058	15.87
285.274	62.98
285.489	103.93
285.704	71.17
285.919	58.88
286.134	97.79
286.349	1.54
286.564	24.06
286.779	112.13
286.995	67.07
287.21	34.3
287.425	65.02
287.64	48.64
287.855	126.46
288.07	-51.71
288.285	71.17
288.5	77.31
288.715	50.69
288.93	73.21
289.145	83.45
289.36	65.02
289.575	44.54
289.79	48.64
290.004	26.11
290.219	116.22
290.434	58.88
290.649	36.35
290.864	62.98
291.079	54.78
291.294	60.93
291.509	30.21
291.724	56.83
291.938	77.31
292.153	95.74
292.368	56.83
292.583	87.55
292.798	81.41
293.012	112.13
293.227	24.06
293.442	93.69
293.657	11.78
293.871	32.26
294.086	40.45
294.301	81.41
294.516	120.32
294.73	22.02
294.945	69.12
295.16	58.88
295.374	7.68
295.589	65.02
295.804	97.79
296.018	46.59
296.233	85.5
296.447	-10.75
296.662	11.78
296.877	77.31
297.091	85.5
297.306	26.11
297.52	30.21
297.735	9.73
297.949	79.36
298.164	108.03
298.378	58.88
298.593	24.06
298.807	-2.56
299.022	3.58
299.236	40.45
299.451	56.83
299.665	120.32
299.88	5.63
300.094	36.35
300.309	85.5
300.523	85.5
300.737	15.87
300.952	62.98
301.166	50.69
301.381	44.54
301.595	13.82
301.809	5.63
302.024	85.5
302.238	5.63
302.452	62.98
302.667	85.5
302.881	87.55
303.095	128.51
303.309	103.93
303.524	44.54
303.738	50.69
303.952	79.36
304.166	126.46
304.381	38.4
304.595	103.93
304.809	44.54
305.023	-4.61
305.237	108.03
305.452	77.31
305.666	81.41
305.88	58.88
306.094	77.31
306.308	40.45
306.522	40.45
306.736	105.98
306.95	30.21
307.164	67.07
307.379	87.55
307.593	118.27
307.807	101.89
308.021	77.31
308.235	46.59
308.449	11.78
308.663	91.65
308.877	136.7
309.091	19.97
309.305	46.59
309.519	-2.56
309.733	79.36
309.947	44.54
310.161	79.36
310.374	60.93
310.588	60.93
310.802	56.83
311.016	-18.94
311.23	93.69
311.444	52.74
311.658	48.64
311.872	54.78
312.085	17.92
312.299	71.17
312.513	50.69
312.727	58.88
312.941	30.21
313.154	112.13
313.368	13.82
313.582	60.93
313.796	62.98
314.009	140.8
314.223	58.88
314.437	69.12
314.651	40.45
314.864	9.73
315.078	42.5
315.292	52.74
315.505	83.45
315.719	56.83
315.933	93.69
316.146	-29.18
316.36	5.63
316.573	30.21
316.787	46.59
317.001	136.7
317.214	60.93
317.428	79.36
317.641	52.74
317.855	71.17
318.068	62.98
318.282	142.85
318.495	54.78
318.709	13.82
318.922	120.32
319.136	91.65
319.349	93.69
319.563	32.26
319.776	87.55
319.99	28.16
320.203	48.64
320.417	73.21
320.63	56.83
320.843	89.6
321.057	44.54
321.27	42.5
321.483	30.21
321.697	87.55
321.91	56.83
322.124	50.69
322.337	89.6
322.55	65.02
322.763	75.26
322.977	36.35
323.19	97.79
323.403	62.98
323.617	36.35
323.83	75.26
324.043	-43.52
324.256	122.37
324.469	1.54
324.683	99.84
324.896	50.69
325.109	67.07
325.322	56.83
325.535	140.8
325.748	99.84
325.962	62.98
326.175	-6.66
326.388	22.02
326.601	38.4
326.814	114.17
327.027	73.21
327.24	134.65
327.453	32.26
327.666	101.89
327.879	60.93
328.092	26.11
328.305	22.02
328.518	71.17
328.731	24.06
328.944	79.36
329.157	105.98
329.37	26.11
329.583	103.93
329.796	89.6
330.009	11.78
330.222	48.64
330.435	30.21
330.648	122.37
330.861	99.84
331.073	58.88
331.286	56.83
331.499	62.98
331.712	42.5
331.925	65.02
332.138	58.88
332.35	130.56
332.563	103.93
332.776	97.79
332.989	62.98
333.202	69.12
333.414	30.21
333.627	42.5
333.84	60.93
334.053	32.26
334.265	52.74
334.478	93.69
334.691	11.78
334.903	48.64
335.116	52.74
335.329	105.98
335.541	75.26
335.754	7.68
335.966	56.83
336.179	116.22
336.392	50.69
336.604	108.03
336.817	83.45
337.029	114.17
337.242	38.4
337.454	26.11
337.667	75.26
337.88	138.75
338.092	91.65
338.305	52.74
338.517	11.78
338.729	56.83
338.942	95.74
339.154	50.69
339.367	79.36
339.579	58.88
339.792	54.78
340.004	183.81
340.217	46.59
340.429	30.21
340.641	71.17
340.854	81.41
341.066	36.35
341.278	17.92
341.491	144.89
341.703	81.41
341.915	77.31
342.128	138.75
342.34	-4.61
342.552	58.88
342.764	7.68
342.977	24.06
343.189	65.02
343.401	50.69
343.613	40.45
343.826	-0.51
344.038	13.82
344.25	73.21
344.462	38.4
344.674	44.54
344.886	99.84
345.099	38.4
345.311	97.79
345.523	-6.66
345.735	87.55
345.947	71.17
346.159	112.13
346.371	91.65
346.583	118.27
346.795	103.93
347.007	46.59
347.219	122.37
347.431	79.36
347.643	103.93
347.855	46.59
348.067	58.88
348.279	19.97
348.491	89.6
348.703	89.6
348.915	26.11
349.127	73.21
349.339	69.12
349.551	69.12
349.763	93.69
349.975	79.36
350.187	132.61
350.399	81.41
350.61	110.08
350.822	44.54
351.034	89.6
351.246	99.84
351.458	48.64
351.669	75.26
351.881	128.51
352.093	194.05
352.305	67.07
352.517	46.59
352.728	83.45
352.94	48.64
353.152	65.02
353.363	85.5
353.575	42.5
353.787	83.45
353.999	112.13
354.21	34.3
354.422	67.07
354.633	46.59
354.845	50.69
355.057	85.5
355.268	65.02
355.48	11.78
355.692	62.98
355.903	71.17
356.115	42.5
356.326	62.98
356.538	-2.56
356.749	50.69
356.961	91.65
357.172	11.78
357.384	7.68
357.595	120.32
357.807	110.08
358.018	73.21
358.23	60.93
358.441	138.75
358.653	62.98
358.864	48.64
359.075	73.21
359.287	1.54
359.498	34.3
359.709	67.07
359.921	108.03
360.132	44.54
360.344	112.13
360.555	71.17
360.766	99.84
360.977	79.36
361.189	146.94
361.4	52.74
361.611	130.56
361.823	87.55
362.034	75.26
362.245	65.02
362.456	50.69
362.667	108.03
362.879	83.45
363.09	24.06
363.301	140.8
363.512	44.54
363.723	93.69
363.935	65.02
364.146	85.5
364.357	71.17
364.568	5.63
364.779	48.64
364.99	155.13
365.201	95.74
365.412	97.79
365.623	105.98
365.834	50.69
366.045	85.5
366.256	108.03
366.467	112.13
366.678	75.26
366.889	54.78
367.1	5.63
367.311	52.74
367.522	71.17
367.733	128.51
367.944	65.02
368.155	79.36
368.366	93.69
368.577	138.75
368.788	95.74
368.999	38.4
369.209	62.98
369.42	69.12
369.631	87.55
369.842	67.07
370.053	26.11
370.264	97.79
370.474	110.08
370.685	105.98
370.896	71.17
371.107	118.27
371.317	120.32
371.528	30.21
371.739	97.79
371.95	122.37
372.16	89.6
372.371	77.31
372.582	62.98
372.792	13.82
373.003	95.74
373.214	73.21
373.424	91.65
373.635	77.31
373.846	136.7
374.056	103.93
374.267	112.13
374.477	146.94
374.688	79.36
374.898	5.63
375.109	-10.75
375.319	73.21
375.53	142.85
375.74	67.07
375.951	-14.85
376.161	34.3
376.372	194.05
376.582	85.5
376.793	148.99
377.003	118.27
377.214	50.69
377.424	83.45
377.635	60.93
377.845	13.82
378.055	194.05
378.266	22.02
378.476	65.02
378.686	122.37
378.897	44.54
379.107	112.13
379.317	105.98
379.528	40.45
379.738	116.22
379.948	71.17
380.158	120.32
380.369	38.4
380.579	124.41
380.789	50.69
380.999	60.93
381.21	54.78
381.42	163.33
381.63	58.88
381.84	65.02
382.05	30.21
382.261	26.11
382.471	62.98
382.681	67.07
382.891	128.51
383.101	54.78
383.311	52.74
383.521	67.07
383.731	87.55
383.941	89.6
384.151	56.83
384.361	75.26
384.571	103.93
384.781	134.65
384.991	103.93
385.201	40.45
385.411	130.56
385.621	169.47
385.831	112.13
386.041	122.37
386.251	122.37
386.461	136.7
386.671	69.12
386.881	81.41
387.091	58.88
387.301	79.36
387.511	120.32
387.72	95.74
387.93	-0.51
388.14	73.21
388.35	46.59
388.56	124.41
388.769	118.27
388.979	128.51
389.189	110.08
389.399	128.51
389.609	81.41
389.818	87.55
390.028	65.02
390.238	67.07
390.447	130.56
390.657	91.65
390.867	120.32
391.076	75.26
391.286	108.03
391.496	87.55
391.705	136.7
391.915	138.75
392.125	114.17
392.334	101.89
392.544	177.66
392.753	167.42
392.963	75.26
393.172	163.33
393.382	93.69
393.591	122.37
393.801	112.13
394.01	120.32
394.22	69.12
394.429	77.31
394.639	118.27
394.848	65.02
395.058	71.17
395.267	124.41
395.477	122.37
395.686	132.61
395.895	185.85
396.105	148.99
396.314	196.09
396.524	110.08
396.733	128.51
396.942	144.89
397.152	157.18
397.361	161.28
397.57	155.13
397.78	194.05
397.989	116.22
398.198	200.19
398.407	126.46
398.617	91.65
398.826	161.28
399.035	153.09
399.244	179.71
399.453	116.22
399.663	138.75
399.872	159.23
400.081	157.18
400.29	167.42
400.499	91.65
400.708	138.75
400.917	151.04
401.127	122.37
401.336	167.42
401.545	220.67
401.754	153.09
401.963	226.81
402.172	159.23
402.381	144.89
402.59	177.66
402.799	138.75
403.008	159.23
403.217	183.81
403.426	140.8
403.635	200.19
403.844	155.13
404.053	194.05
404.262	157.18
404.471	220.67
404.68	101.89
404.888	179.71
405.097	165.37
405.306	161.28
405.515	259.58
405.724	210.43
405.933	226.81
406.142	224.76
406.35	148.99
406.559	253.44
406.768	253.44
406.977	273.92
407.185	372.22
407.394	265.72
407.603	280.06
407.812	318.97
408.02	329.21
408.229	269.82
408.438	343.55
408.646	230.91
408.855	304.64
409.064	292.35
409.272	237.05
409.481	384.51
409.69	368.12
409.898	339.45
410.107	368.12
410.315	390.65
410.524	413.18
410.733	388.6
410.941	351.74
411.15	474.62
411.358	361.98
411.567	488.95
411.775	441.85
411.984	497.14
412.192	636.41
412.401	556.54
412.609	517.62
412.818	630.26
413.026	654.84
413.234	589.3
413.443	509.43
413.651	589.3
413.86	638.45
414.068	701.94
414.276	753.14
414.485	724.47
414.693	769.52
414.901	771.57
415.11	882.16
415.318	882.16
415.526	886.26
415.734	929.27
415.943	927.22
416.151	968.18
416.359	994.8
416.567	966.13
416.776	972.27
416.984	1058.29
417.192	1068.53
417.4	1183.21
417.608	1222.13
417.817	1252.84
418.025	1277.42
418.233	1287.66
418.441	1355.24
418.649	1349.1
418.857	1488.36
419.065	1529.32
419.273	1502.7
419.481	1572.33
419.689	1689.06
419.897	1727.97
420.105	1754.6
420.313	1863.14
420.521	1940.96
420.729	1969.63
420.937	1992.16
421.145	2057.7
421.353	2125.28
421.561	2160.1
421.769	2262.49
421.977	2444.76
422.185	2354.65
422.393	2526.68
422.601	2602.46
422.809	2614.74
423.017	2651.61
423.224	2938.32
423.432	2811.35
423.64	2979.28
423.848	3206.61
424.056	3110.35
424.263	3405.26
424.471	3376.59
424.679	3403.21
424.887	3636.68
425.094	3708.36
425.302	3722.7
425.51	3880.39
425.718	4120
425.925	4079.04
426.133	4212.16
426.341	4277.69
426.548	4599.23
426.756	4824.5
426.964	4550.07
427.171	4896.18
427.379	4933.04
427.586	5223.86
427.794	5363.12
428.001	5617.07
428.209	5881.25
428.417	5733.8
428.624	6143.39
428.832	6288.8
429.039	6176.16
429.247	5967.27
429.454	6665.63
429.662	7073.17
429.869	6753.69
430.076	6993.3
430.284	6968.73
430.491	7257.49
430.699	7615.88
430.906	7652.75
431.114	7562.64
431.321	8011.14
431.528	8299.91
431.736	8621.44
431.943	9074.04
432.15	8779.13
432.358	8945.02
432.565	9483.63
432.772	9647.47
432.979	10071.4
433.187	10069.35
433.394	10292.58
433.601	10818.91
433.808	10794.33
434.016	10894.68
434.223	11212.12
434.43	12221.77
434.637	11677.01
434.844	12490.05
435.052	12795.2
435.259	12506.43
435.466	12830.01
435.673	12680.51
435.88	13481.27
436.087	14122.28
436.294	14243.11
436.501	13673.78
436.708	14015.79
436.915	14431.52
437.122	15125.79
437.329	15260.95
437.537	15607.06
437.743	16162.06
437.95	15836.43
438.157	16559.36
438.364	17165.56
438.571	17077.5
438.778	17425.65
438.985	18820.32
439.192	17886.45
439.399	18773.22
439.606	18443.49
439.813	19346.65
440.02	20622.53
440.227	20118.73
440.433	19975.38
440.64	20706.5
440.847	20505.8
441.054	21193.92
441.261	22541.48
441.467	22097.07
441.674	22297.77
441.881	23526.55
442.088	23409.82
442.294	23092.38
442.501	23977.11
442.708	24167.57
442.914	25390.2
443.121	26389.61
443.328	25730.17
443.534	27409.5
443.741	26535.02
443.948	26326.13
444.154	28505.17
444.361	28204.11
444.568	28228.69
444.774	28060.76
444.981	28943.43
445.187	29529.15
445.394	30624.81
445.6	30489.65
445.807	33522.69
446.013	31691.8
446.22	32439.31
446.426	33713.15
446.633	34315.25
446.839	35066.86
447.046	33504.26
447.252	35208.17
447.459	35625.95
447.665	35390.44
447.871	36948.94
448.078	38200.25
448.284	36563.92
448.491	37397.45
448.697	38771.63
448.903	39459.75
449.11	39926.69
449.316	38603.7
449.522	39895.97
449.728	40770.45
449.935	41061.26
450.141	40901.52
450.347	42152.83
450.553	40686.48
450.76	41001.87
450.966	42400.63
451.172	41671.56
451.378	42965.87
451.584	42163.07
451.791	42967.92
451.997	42699.64
452.203	43615.08
452.409	42949.49
452.615	43027.31
452.821	41524.1
453.027	41274.25
453.233	43211.63
453.44	41350.03
453.646	41823.11
453.852	42474.36
454.058	42759.03
454.264	41407.37
454.47	42167.16
454.676	41462.66
454.882	42494.84
455.088	38824.88
455.294	39650.21
455.5	39889.82
455.705	40094.62
455.911	38595.51
456.117	38034.36
456.323	37727.17
456.529	35570.66
456.735	36625.36
456.941	35912.67
457.147	35283.94
457.352	34212.85
457.558	33934.33
457.764	34192.37
457.97	33426.43
458.176	32834.57
458.381	32623.63
458.587	30895.14
458.793	31011.88
458.999	29285.44
459.204	31607.84
459.41	30778.41
459.616	28716.11
459.821	28568.65
460.027	28683.34
460.233	28351.57
460.438	26657.9
460.644	26858.6
460.85	25820.28
461.055	25306.24
461.261	25402.49
461.466	23354.52
461.672	22457.51
461.878	24360.08
462.083	22742.18
462.289	22422.7
462.494	22140.08
462.7	21374.14
462.905	20624.58
463.111	21290.17
463.316	21339.32
463.522	20874.43
463.727	21195.96
463.932	20974.78
464.138	20628.68
464.343	20829.38
464.549	20235.47
464.754	20747.46
464.959	20841.67
465.165	20427.98
465.37	19619.03
465.575	19168.48
465.781	20067.53
465.986	20290.76
466.191	19528.92
466.397	18810.08
466.602	18416.87
466.807	18672.87
