Data from USB4F104151__228__11-10-59-074.txt Node

Date: Wed Mar 12 11:10:59 EDT 2025
User: louis
Spectrometer: USB4F10415
Trigger mode: 4
Integration Time (sec): 2.000000E-2
Scans to average: 1
Electric dark correction enabled: true
Nonlinearity correction enabled: false
Boxcar width: 0
XAxis mode: Wavelengths
Number of Pixels in Spectrum: 3648
>>>>>Begin Spectral Data<<<<<
178.204	-43.18
178.424	-43.18
178.644	-43.18
178.864	-125.1
179.084	-71.85
179.304	-30.89
179.524	-2.22
179.744	28.5
179.964	-28.84
180.184	-8.36
180.404	40.79
180.624	85.84
180.844	3.93
181.064	-28.84
181.283	51.03
181.503	-67.75
181.723	-43.18
181.943	-22.7
182.163	24.4
182.383	-69.8
182.602	-41.13
182.822	-2.22
183.042	-20.65
183.262	16.21
183.482	-8.36
183.701	22.36
183.921	85.84
184.141	-61.61
184.361	53.08
184.58	26.45
184.8	1.88
185.02	-28.84
185.239	53.08
185.459	55.12
185.679	-24.75
185.898	-34.99
186.118	-10.41
186.338	65.36
186.557	-18.6
186.777	-22.7
186.997	77.65
187.216	44.88
187.436	77.65
187.655	18.26
187.875	44.88
188.095	-34.99
188.314	53.08
188.534	-18.6
188.753	38.74
188.973	12.12
189.192	-12.46
189.412	1.88
189.631	51.03
189.851	3.93
190.07	20.31
190.29	-24.75
190.509	46.93
190.729	63.32
190.948	104.28
191.168	65.36
191.387	65.36
191.607	63.32
191.826	-22.7
192.045	22.36
192.265	3.93
192.484	61.27
192.704	-10.41
192.923	-24.75
193.142	14.17
193.362	67.41
193.581	12.12
193.8	-0.17
194.02	20.31
194.239	36.69
194.458	96.08
194.678	55.12
194.897	61.27
195.116	57.17
195.335	55.12
195.555	12.12
195.774	28.5
195.993	30.55
196.212	24.4
196.432	46.93
196.651	24.4
196.87	1.88
197.089	34.64
197.308	-37.03
197.528	10.07
197.747	26.45
197.966	16.21
198.185	30.55
198.404	8.02
198.623	12.12
198.842	3.93
199.062	42.84
199.281	73.56
199.5	28.5
199.719	-4.27
199.938	59.22
200.157	73.56
200.376	-49.32
200.595	63.32
200.814	26.45
201.033	-10.41
201.252	-34.99
201.471	118.61
201.69	51.03
201.909	36.69
202.128	26.45
202.347	-51.37
202.566	-63.66
202.785	-26.79
203.004	-6.31
203.223	44.88
203.442	55.12
203.661	38.74
203.879	-61.61
204.098	8.02
204.317	-18.6
204.536	34.64
204.755	-20.65
204.974	-8.36
205.193	71.51
205.411	57.17
205.63	22.36
205.849	85.84
206.068	24.4
206.287	34.64
206.505	75.6
206.724	-20.65
206.943	59.22
207.162	8.02
207.381	48.98
207.599	65.36
207.818	-10.41
208.037	38.74
208.255	-4.27
208.474	67.41
208.693	22.36
208.911	59.22
209.13	14.17
209.349	44.88
209.567	-26.79
209.786	38.74
210.005	-24.75
210.223	-55.47
210.442	59.22
210.661	42.84
210.879	28.5
211.098	65.36
211.316	57.17
211.535	46.93
211.753	-30.89
211.972	40.79
212.191	10.07
212.409	14.17
212.628	-63.66
212.846	-12.46
213.065	12.12
213.283	30.55
213.502	110.42
213.72	-10.41
213.938	79.7
214.157	42.84
214.375	94.04
214.594	14.17
214.812	81.75
215.031	46.93
215.249	20.31
215.467	3.93
215.686	40.79
215.904	51.03
216.122	18.26
216.341	63.32
216.559	-4.27
216.778	89.94
216.996	-20.65
217.214	-20.65
217.432	-18.6
217.651	8.02
217.869	22.36
218.087	55.12
218.306	51.03
218.524	40.79
218.742	24.4
218.96	61.27
219.179	53.08
219.397	71.51
219.615	-20.65
219.833	98.13
220.051	14.17
220.27	5.97
220.488	-39.08
220.706	-51.37
220.924	42.84
221.142	79.7
221.36	-14.51
221.578	89.94
221.796	36.69
222.015	38.74
222.233	-30.89
222.451	-2.22
222.669	-4.27
222.887	8.02
223.105	-4.27
223.323	32.6
223.541	10.07
223.759	-4.27
223.977	-10.41
224.195	61.27
224.413	67.41
224.631	-10.41
224.849	48.98
225.067	-55.47
225.285	42.84
225.503	55.12
225.721	18.26
225.939	14.17
226.157	40.79
226.375	61.27
226.592	-20.65
226.81	91.99
227.028	3.93
227.246	91.99
227.464	-6.31
227.682	24.4
227.9	34.64
228.117	40.79
228.335	8.02
228.553	55.12
228.771	30.55
228.989	63.32
229.206	-26.79
229.424	36.69
229.642	3.93
229.86	-16.55
230.077	-24.75
230.295	32.6
230.513	59.22
230.731	110.42
230.948	28.5
231.166	32.6
231.384	1.88
231.601	-8.36
231.819	98.13
232.037	79.7
232.254	-80.04
232.472	63.32
232.689	42.84
232.907	28.5
233.125	38.74
233.342	61.27
233.56	26.45
233.777	-2.22
233.995	5.97
234.213	22.36
234.43	40.79
234.648	5.97
234.865	40.79
235.083	44.88
235.3	-10.41
235.518	83.8
235.735	-22.7
235.953	44.88
236.17	10.07
236.388	77.65
236.605	-10.41
236.822	55.12
237.04	44.88
237.257	22.36
237.475	8.02
237.692	40.79
237.909	59.22
238.127	53.08
238.344	-2.22
238.562	-69.8
238.779	61.27
238.996	-14.51
239.214	-0.17
239.431	20.31
239.648	-16.55
239.865	-14.51
240.083	57.17
240.3	96.08
240.517	-12.46
240.735	12.12
240.952	-28.84
241.169	48.98
241.386	44.88
241.603	26.45
241.821	40.79
242.038	12.12
242.255	5.97
242.472	-0.17
242.689	46.93
242.907	1.88
243.124	14.17
243.341	57.17
243.558	122.71
243.775	-43.18
243.992	-6.31
244.209	-0.17
244.426	14.17
244.643	28.5
244.86	63.32
245.078	57.17
245.295	32.6
245.512	20.31
245.729	-8.36
245.946	-55.47
246.163	30.55
246.38	67.41
246.597	44.88
246.814	8.02
247.031	51.03
247.248	38.74
247.464	14.17
247.681	-6.31
247.898	30.55
248.115	75.6
248.332	20.31
248.549	-14.51
248.766	14.17
248.983	-12.46
249.2	71.51
249.417	10.07
249.633	53.08
249.85	63.32
250.067	14.17
250.284	48.98
250.501	36.69
250.717	-16.55
250.934	44.88
251.151	-16.55
251.368	14.17
251.585	18.26
251.801	28.5
252.018	67.41
252.235	65.36
252.451	22.36
252.668	-6.31
252.885	-30.89
253.102	30.55
253.318	-69.8
253.535	-2.22
253.752	-26.79
253.968	34.64
254.185	1.88
254.401	-4.27
254.618	12.12
254.835	-30.89
255.051	34.64
255.268	30.55
255.484	59.22
255.701	61.27
255.917	89.94
256.134	36.69
256.351	-8.36
256.567	-14.51
256.784	55.12
257	22.36
257.217	63.32
257.433	16.21
257.65	53.08
257.866	57.17
258.082	53.08
258.299	8.02
258.515	-26.79
258.732	-2.22
258.948	-37.03
259.165	26.45
259.381	14.17
259.597	1.88
259.814	3.93
260.03	-4.27
260.246	34.64
260.463	5.97
260.679	55.12
260.895	42.84
261.112	38.74
261.328	30.55
261.544	26.45
261.761	108.37
261.977	18.26
262.193	-0.17
262.409	-2.22
262.626	-10.41
262.842	34.64
263.058	-2.22
263.274	8.02
263.49	51.03
263.707	-16.55
263.923	77.65
264.139	22.36
264.355	-67.75
264.571	-55.47
264.787	-47.27
265.004	28.5
265.22	36.69
265.436	94.04
265.652	-55.47
265.868	5.97
266.084	-24.75
266.3	-2.22
266.516	36.69
266.732	44.88
266.948	22.36
267.164	-4.27
267.38	-8.36
267.596	48.98
267.812	26.45
268.028	-71.85
268.244	-12.46
268.46	-26.79
268.676	-43.18
268.892	53.08
269.108	-8.36
269.324	75.6
269.54	-37.03
269.756	91.99
269.972	-2.22
270.188	-49.32
270.403	-59.56
270.619	71.51
270.835	30.55
271.051	59.22
271.267	46.93
271.483	-28.84
271.698	3.93
271.914	-39.08
272.13	10.07
272.346	63.32
272.562	-4.27
272.777	100.18
272.993	42.84
273.209	16.21
273.425	22.36
273.64	1.88
273.856	51.03
274.072	-73.9
274.287	30.55
274.503	48.98
274.719	42.84
274.934	30.55
275.15	20.31
275.366	57.17
275.581	18.26
275.797	14.17
276.012	12.12
276.228	69.46
276.444	5.97
276.659	81.75
276.875	10.07
277.09	44.88
277.306	-51.37
277.521	14.17
277.737	-49.32
277.952	1.88
278.168	10.07
278.383	-22.7
278.599	20.31
278.814	24.4
279.03	18.26
279.245	30.55
279.461	87.89
279.676	-12.46
279.892	8.02
280.107	102.23
280.322	-32.94
280.538	26.45
280.753	57.17
280.969	55.12
281.184	36.69
281.399	-10.41
281.615	22.36
281.83	98.13
282.045	-53.42
282.26	46.93
282.476	-0.17
282.691	59.22
282.906	22.36
283.122	42.84
283.337	-49.32
283.552	16.21
283.767	1.88
283.983	-8.36
284.198	-0.17
284.413	20.31
284.628	-30.89
284.843	44.88
285.058	34.64
285.274	-2.22
285.489	-8.36
285.704	46.93
285.919	81.75
286.134	-0.17
286.349	100.18
286.564	-67.75
286.779	18.26
286.995	24.4
287.21	5.97
287.425	42.84
287.64	48.98
287.855	-26.79
288.07	63.32
288.285	89.94
288.5	46.93
288.715	-34.99
288.93	34.64
289.145	10.07
289.36	48.98
289.575	67.41
289.79	8.02
290.004	-10.41
290.219	22.36
290.434	59.22
290.649	32.6
290.864	16.21
291.079	59.22
291.294	28.5
291.509	40.79
291.724	30.55
291.938	-14.51
292.153	-61.61
292.368	-12.46
292.583	38.74
292.798	59.22
293.012	22.36
293.227	3.93
293.442	-16.55
293.657	38.74
293.871	-4.27
294.086	77.65
294.301	5.97
294.516	38.74
294.73	51.03
294.945	32.6
295.16	57.17
295.374	10.07
295.589	59.22
295.804	3.93
296.018	5.97
296.233	22.36
296.447	40.79
296.662	24.4
296.877	-51.37
297.091	-6.31
297.306	-20.65
297.52	24.4
297.735	55.12
297.949	-43.18
298.164	10.07
298.378	1.88
298.593	-2.22
298.807	75.6
299.022	8.02
299.236	79.7
299.451	65.36
299.665	3.93
299.88	28.5
300.094	38.74
300.309	46.93
300.523	69.46
300.737	5.97
300.952	55.12
301.166	71.51
301.381	12.12
301.595	10.07
301.809	5.97
302.024	53.08
302.238	44.88
302.452	34.64
302.667	118.61
302.881	30.55
303.095	28.5
303.309	-14.51
303.524	46.93
303.738	-8.36
303.952	-22.7
304.166	55.12
304.381	-104.62
304.595	34.64
304.809	-30.89
305.023	-10.41
305.237	-2.22
305.452	38.74
305.666	59.22
305.88	28.5
306.094	81.75
306.308	-0.17
306.522	22.36
306.736	51.03
306.95	30.55
307.164	96.08
307.379	38.74
307.593	1.88
307.807	-2.22
308.021	96.08
308.235	-41.13
308.449	18.26
308.663	-20.65
308.877	94.04
309.091	-10.41
309.305	-39.08
309.519	-10.41
309.733	59.22
309.947	51.03
310.161	38.74
310.374	34.64
310.588	20.31
310.802	10.07
311.016	34.64
311.23	-2.22
311.444	12.12
311.658	-20.65
311.872	57.17
312.085	51.03
312.299	124.76
312.513	38.74
312.727	-16.55
312.941	-22.7
313.154	114.52
313.368	61.27
313.582	26.45
313.796	40.79
314.009	34.64
314.223	61.27
314.437	71.51
314.651	3.93
314.864	1.88
315.078	-2.22
315.292	-22.7
315.505	-51.37
315.719	81.75
315.933	18.26
316.146	91.99
316.36	30.55
316.573	67.41
316.787	18.26
317.001	40.79
317.214	-53.42
317.428	98.13
317.641	20.31
317.855	-53.42
318.068	-55.47
318.282	40.79
318.495	26.45
318.709	46.93
318.922	40.79
319.136	22.36
319.349	38.74
319.563	18.26
319.776	18.26
319.99	-18.6
320.203	22.36
320.417	51.03
320.63	20.31
320.843	65.36
321.057	59.22
321.27	34.64
321.483	-61.61
321.697	1.88
321.91	14.17
322.124	48.98
322.337	10.07
322.55	-10.41
322.763	20.31
322.977	38.74
323.19	20.31
323.403	22.36
323.617	51.03
323.83	30.55
324.043	24.4
324.256	91.99
324.469	-10.41
324.683	32.6
324.896	-20.65
325.109	20.31
325.322	10.07
325.535	106.32
325.748	10.07
325.962	-26.79
326.175	12.12
326.388	20.31
326.601	20.31
326.814	20.31
327.027	-6.31
327.24	-45.23
327.453	38.74
327.666	12.12
327.879	12.12
328.092	48.98
328.305	-2.22
328.518	16.21
328.731	30.55
328.944	22.36
329.157	38.74
329.37	-0.17
329.583	67.41
329.796	71.51
330.009	18.26
330.222	-32.94
330.435	-10.41
330.648	112.47
330.861	73.56
331.073	22.36
331.286	-0.17
331.499	20.31
331.712	14.17
331.925	28.5
332.138	8.02
332.35	-39.08
332.563	42.84
332.776	34.64
332.989	51.03
333.202	-24.75
333.414	12.12
333.627	1.88
333.84	-12.46
334.053	12.12
334.265	-22.7
334.478	-10.41
334.691	26.45
334.903	38.74
335.116	26.45
335.329	14.17
335.541	57.17
335.754	10.07
335.966	53.08
336.179	34.64
336.392	81.75
336.604	77.65
336.817	53.08
337.029	-10.41
337.242	12.12
337.454	73.56
337.667	5.97
337.88	42.84
338.092	44.88
338.305	55.12
338.517	40.79
338.729	67.41
338.942	10.07
339.154	-20.65
339.367	75.6
339.579	24.4
339.792	69.46
340.004	30.55
340.217	-53.42
340.429	42.84
340.641	32.6
340.854	14.17
341.066	10.07
341.278	145.24
341.491	61.27
341.703	30.55
341.915	-2.22
342.128	75.6
342.34	57.17
342.552	26.45
342.764	36.69
342.977	1.88
343.189	14.17
343.401	-20.65
343.613	-22.7
343.826	46.93
344.038	28.5
344.25	-2.22
344.462	5.97
344.674	75.6
344.886	20.31
345.099	12.12
345.311	69.46
345.523	16.21
345.735	-0.17
345.947	116.56
346.159	79.7
346.371	18.26
346.583	-8.36
346.795	91.99
347.007	5.97
347.219	63.32
347.431	26.45
347.643	26.45
347.855	26.45
348.067	87.89
348.279	36.69
348.491	40.79
348.703	44.88
348.915	55.12
349.127	-12.46
349.339	-2.22
349.551	61.27
349.763	75.6
349.975	-16.55
350.187	48.98
350.399	26.45
350.61	48.98
350.822	94.04
351.034	67.41
351.246	42.84
351.458	-8.36
351.669	-45.23
351.881	89.94
352.093	16.21
352.305	71.51
352.517	53.08
352.728	-10.41
352.94	-8.36
353.152	-26.79
353.363	3.93
353.575	79.7
353.787	87.89
353.999	34.64
354.21	118.61
354.422	32.6
354.633	-37.03
354.845	61.27
355.057	79.7
355.268	24.4
355.48	48.98
355.692	18.26
355.903	73.56
356.115	28.5
356.326	57.17
356.538	30.55
356.749	46.93
356.961	96.08
357.172	112.47
357.384	-6.31
357.595	-8.36
357.807	42.84
358.018	59.22
358.23	30.55
358.441	5.97
358.653	5.97
358.864	-18.6
359.075	98.13
359.287	75.6
359.498	69.46
359.709	18.26
359.921	55.12
360.132	18.26
360.344	3.93
360.555	8.02
360.766	26.45
360.977	96.08
361.189	40.79
361.4	44.88
361.611	135
361.823	32.6
362.034	100.18
362.245	108.37
362.456	28.5
362.667	67.41
362.879	20.31
363.09	46.93
363.301	44.88
363.512	14.17
363.723	-39.08
363.935	69.46
364.146	5.97
364.357	32.6
364.568	104.28
364.779	102.23
364.99	65.36
365.201	53.08
365.412	57.17
365.623	51.03
365.834	89.94
366.045	-20.65
366.256	-6.31
366.467	46.93
366.678	22.36
366.889	30.55
367.1	1.88
367.311	55.12
367.522	16.21
367.733	69.46
367.944	32.6
368.155	104.28
368.366	-0.17
368.577	44.88
368.788	1.88
368.999	-2.22
369.209	22.36
369.42	38.74
369.631	-0.17
369.842	24.4
370.053	-8.36
370.264	-34.99
370.474	-18.6
370.685	75.6
370.896	26.45
371.107	57.17
371.317	8.02
371.528	3.93
371.739	53.08
371.95	63.32
372.16	71.51
372.371	-16.55
372.582	-77.99
372.792	96.08
373.003	65.36
373.214	22.36
373.424	46.93
373.635	-16.55
373.846	147.28
374.056	46.93
374.267	44.88
374.477	53.08
374.688	14.17
374.898	-14.51
375.109	22.36
375.319	77.65
375.53	3.93
375.74	34.64
375.951	73.56
376.161	75.6
376.372	8.02
376.582	-32.94
376.793	75.6
377.003	71.51
377.214	5.97
377.424	100.18
377.635	30.55
377.845	48.98
378.055	81.75
378.266	-8.36
378.476	26.45
378.686	-10.41
378.897	55.12
379.107	61.27
379.317	77.65
379.528	14.17
379.738	-2.22
379.948	28.5
380.158	85.84
380.369	46.93
380.579	-4.27
380.789	46.93
380.999	139.09
381.21	51.03
381.42	59.22
381.63	42.84
381.84	42.84
382.05	67.41
382.261	83.8
382.471	-45.23
382.681	24.4
382.891	79.7
383.101	87.89
383.311	12.12
383.521	14.17
383.731	79.7
383.941	61.27
384.151	30.55
384.361	51.03
384.571	8.02
384.781	-14.51
384.991	57.17
385.201	71.51
385.411	14.17
385.621	-57.51
385.831	59.22
386.041	51.03
386.251	59.22
386.461	-39.08
386.671	55.12
386.881	73.56
387.091	28.5
387.301	59.22
387.511	55.12
387.72	132.95
387.93	22.36
388.14	83.8
388.35	108.37
388.56	69.46
388.769	106.32
388.979	36.69
389.189	20.31
389.399	20.31
389.609	102.23
389.818	61.27
390.028	89.94
390.238	108.37
390.447	-6.31
390.657	22.36
390.867	20.31
391.076	87.89
391.286	22.36
391.496	65.36
391.705	38.74
391.915	69.46
392.125	112.47
392.334	67.41
392.544	51.03
392.753	65.36
392.963	-2.22
393.172	94.04
393.382	24.4
393.591	118.61
393.801	51.03
394.01	114.52
394.22	53.08
394.429	122.71
394.639	-41.13
394.848	100.18
395.058	63.32
395.267	85.84
395.477	57.17
395.686	143.19
395.895	100.18
396.105	182.1
396.314	20.31
396.524	46.93
396.733	102.23
396.942	96.08
397.152	89.94
397.361	73.56
397.57	122.71
397.78	126.8
397.989	77.65
398.198	71.51
398.407	71.51
398.617	130.9
398.826	137.04
399.035	98.13
399.244	120.66
399.453	65.36
399.663	126.8
399.872	175.95
400.081	46.93
400.29	91.99
400.499	87.89
400.708	85.84
400.917	128.85
401.127	141.14
401.336	110.42
401.545	79.7
401.754	81.75
401.963	22.36
402.172	38.74
402.381	126.8
402.59	87.89
402.799	132.95
403.008	118.61
403.217	114.52
403.426	55.12
403.635	55.12
403.844	132.95
404.053	128.85
404.262	57.17
404.471	130.9
404.68	112.47
404.888	159.57
405.097	44.88
405.306	42.84
405.515	116.56
405.724	145.24
405.933	190.29
406.142	163.67
406.35	149.33
406.559	108.37
406.768	167.76
406.977	192.34
407.185	223.06
407.394	200.53
407.603	190.29
407.812	163.67
408.02	153.43
408.229	251.73
408.438	229.2
408.646	239.44
408.855	223.06
409.064	243.54
409.272	286.54
409.481	317.26
409.69	255.83
409.898	276.31
410.107	300.88
410.315	286.54
410.524	290.64
410.733	350.03
410.941	323.41
411.15	313.17
411.358	350.03
411.567	374.61
411.775	360.27
411.984	374.61
412.192	421.71
412.401	399.18
412.609	399.18
412.818	454.48
413.026	335.7
413.234	399.18
413.443	526.16
413.651	497.49
413.86	501.58
414.068	511.82
414.276	491.34
414.485	589.64
414.693	585.55
414.901	616.27
415.11	663.37
415.318	665.42
415.526	714.57
415.734	679.75
415.943	730.95
416.151	753.48
416.359	702.28
416.567	780.11
416.776	792.39
416.984	839.5
417.192	941.89
417.4	864.07
417.608	935.75
417.817	972.61
418.025	978.76
418.233	1072.96
418.441	1013.57
418.649	1075.01
418.857	1222.47
419.065	1208.13
419.273	1218.37
419.481	1249.09
419.689	1412.93
419.897	1412.93
420.105	1398.59
420.313	1343.3
420.521	1556.29
420.729	1541.95
420.937	1505.09
421.145	1652.54
421.353	1630.01
421.561	1761.08
421.769	1795.9
421.977	1898.3
422.185	1920.82
422.393	1861.43
422.601	2105.14
422.809	1955.64
423.017	2129.72
423.224	2219.83
423.432	2324.27
423.64	2301.75
423.848	2533.17
424.056	2406.19
424.263	2531.12
424.471	2539.31
424.679	2559.79
424.887	2729.77
425.094	2660.14
425.302	2909.99
425.51	3010.34
425.718	3039.01
425.925	3116.84
426.133	3299.11
426.341	3483.42
426.548	3663.65
426.756	3536.67
426.964	3544.86
427.171	3876.63
427.379	3995.42
427.586	4140.82
427.794	4046.62
428.001	4179.73
428.209	4476.69
428.417	4493.07
428.624	4767.5
428.832	4605.71
429.039	4708.11
429.247	4790.03
429.454	5173
429.662	5404.42
429.869	5138.18
430.076	5433.09
430.284	5250.82
430.491	5582.59
430.699	5988.09
430.906	5787.39
431.114	6002.43
431.321	6080.25
431.528	6182.65
431.736	6747.89
431.943	7065.32
432.15	6852.33
432.358	7012.07
432.565	7335.65
432.772	7272.17
432.979	7519.97
433.187	7784.16
433.394	7755.49
433.601	8265.43
433.808	8232.66
434.016	8171.22
434.223	8611.54
434.43	9207.5
434.637	8867.53
434.844	9551.56
435.052	9754.3
435.259	9518.79
435.466	9719.49
435.673	9463.49
435.88	10036.92
436.087	10954.41
436.294	10866.35
436.501	10489.53
436.708	10700.47
436.915	10974.89
437.122	11605.67
437.329	11626.15
437.537	11896.48
437.743	12095.13
437.95	12062.37
438.157	12660.37
438.364	13065.87
438.571	13020.81
438.778	13287.05
438.985	14411.39
439.192	13586.05
439.399	14405.24
439.606	13774.47
439.813	14595.7
440.02	15650.41
440.227	15400.55
440.433	15087.22
440.64	15779.43
440.847	15586.92
441.054	15857.25
441.261	16973.39
441.467	16543.32
441.674	17131.09
441.881	17856.07
442.088	17555.02
442.294	17516.11
442.501	18112.06
442.708	18196.03
442.914	19238.45
443.121	19764.78
443.328	19148.34
443.534	20794.9
443.741	19930.66
443.948	19717.67
444.154	21251.6
444.361	20799
444.568	21124.63
444.774	21020.18
444.981	21571.08
445.187	21990.92
445.394	22908.41
445.6	22853.11
445.807	24939.99
446.013	23766.51
446.22	24174.05
446.426	25290.2
446.633	25314.77
446.839	26090.95
447.046	24987.1
447.252	26676.67
447.459	26492.35
447.665	26133.96
447.871	27547.06
448.078	28618.14
448.284	26971.58
448.491	28233.13
448.697	29066.65
448.903	29482.39
449.11	29621.65
449.316	29021.59
449.522	29580.69
449.728	30367.11
449.935	30870.91
450.141	30549.38
450.347	31321.46
450.553	30041.48
450.76	30766.46
450.966	31769.97
451.172	31292.79
451.378	32220.52
451.584	31217.02
451.791	32200.04
451.997	32038.25
452.203	32738.66
452.409	32546.15
452.615	32224.62
452.821	30854.53
453.027	30858.62
453.233	32605.54
453.44	31026.56
453.646	31542.64
453.852	31632.75
454.058	32046.44
454.264	30983.55
454.47	31442.29
454.676	31079.8
454.882	31608.18
455.088	29361.56
455.294	29533.59
455.5	30012.81
455.705	30178.7
455.911	28937.63
456.117	28331.43
456.323	27950.51
456.529	26428.87
456.735	27461.04
456.941	27147.7
457.147	26627.52
457.352	25540.05
457.558	25425.36
457.764	25296.34
457.97	24487.39
458.176	24231.4
458.381	24272.35
458.587	23227.89
458.793	23076.34
458.999	21915.14
459.204	23453.17
459.41	22971.89
459.616	21550.6
459.821	21433.87
460.027	21321.23
460.233	20694.55
460.438	19811.88
460.644	20084.26
460.85	19250.74
461.055	18992.69
461.261	18837.05
461.466	17624.65
461.672	17004.11
461.878	18079.3
462.083	17018.45
462.289	16631.38
462.494	16455.26
462.7	15726.18
462.905	15167.09
463.111	15537.77
463.316	15720.04
463.522	15472.23
463.727	15580.78
463.932	15314.54
464.138	15341.16
464.343	15408.75
464.549	14968.43
464.754	15562.34
464.959	15525.48
465.165	15058.54
465.37	14827.12
465.575	14120.57
465.781	14767.73
465.986	14814.84
466.191	14319.23
466.397	14016.13
466.602	13211.28
466.807	13825.67
467.012	13792.9
467.218	13733.51
467.423	13708.93
