Data from USB4F104151__269__11-12-06-146.txt Node

Date: Wed Mar 12 11:12:06 EDT 2025
User: louis
Spectrometer: USB4F10415
Trigger mode: 4
Integration Time (sec): 2.000000E-2
Scans to average: 1
Electric dark correction enabled: true
Nonlinearity correction enabled: false
Boxcar width: 0
XAxis mode: Wavelengths
Number of Pixels in Spectrum: 3648
>>>>>Begin Spectral Data<<<<<
178.204	-108.54
178.424	-108.54
178.644	-108.54
178.864	-155.65
179.084	-133.12
179.304	24.58
179.524	47.1
179.744	-116.73
179.964	-4.1
180.184	6.14
180.404	34.82
180.624	38.91
180.844	26.62
181.064	-40.96
181.283	-51.2
181.503	0
181.723	34.82
181.943	-67.58
182.163	59.39
182.383	6.14
182.602	-4.1
182.822	-22.53
183.042	-20.48
183.262	12.29
183.482	-12.29
183.701	-4.1
183.921	92.16
184.141	22.53
184.361	71.68
184.58	22.53
184.8	38.91
185.02	-43.01
185.239	43.01
185.459	-32.77
185.679	32.77
185.898	-67.58
186.118	98.3
186.338	-4.1
186.557	-53.25
186.777	75.77
186.997	-24.58
187.216	26.62
187.436	10.24
187.655	30.72
187.875	67.58
188.095	-47.1
188.314	2.05
188.534	98.3
188.753	-24.58
188.973	8.19
189.192	14.34
189.412	51.2
189.631	-65.53
189.851	8.19
190.07	34.82
190.29	34.82
190.509	12.29
190.729	14.34
190.948	61.44
191.168	126.97
191.387	67.58
191.607	22.53
191.826	73.73
192.045	-8.19
192.265	59.39
192.484	14.34
192.704	-22.53
192.923	14.34
193.142	-8.19
193.362	-94.21
193.581	-88.06
193.8	51.2
194.02	55.3
194.239	-69.63
194.458	34.82
194.678	71.68
194.897	-22.53
195.116	-10.24
195.335	-2.05
195.555	-69.63
195.774	-26.62
195.993	-4.1
196.212	6.14
196.432	-14.34
196.651	55.3
196.87	-79.87
197.089	-30.72
197.308	-53.25
197.528	26.62
197.747	-22.53
197.966	34.82
198.185	43.01
198.404	6.14
198.623	-20.48
198.842	71.68
199.062	-30.72
199.281	-16.38
199.5	2.05
199.719	-45.06
199.938	61.44
200.157	47.1
200.376	-12.29
200.595	24.58
200.814	47.1
201.033	79.87
201.252	-36.86
201.471	-18.43
201.69	2.05
201.909	-90.11
202.128	-12.29
202.347	106.49
202.566	22.53
202.785	20.48
203.004	-18.43
203.223	28.67
203.442	-8.19
203.661	6.14
203.879	18.43
204.098	-18.43
204.317	-55.3
204.536	0
204.755	-67.58
204.974	71.68
205.193	-8.19
205.411	59.39
205.63	2.05
205.849	-14.34
206.068	43.01
206.287	-100.35
206.505	38.91
206.724	-10.24
206.943	32.77
207.162	26.62
207.381	-59.39
207.599	-26.62
207.818	-20.48
208.037	-6.14
208.255	18.43
208.474	8.19
208.693	43.01
208.911	-38.91
209.13	92.16
209.349	-6.14
209.567	18.43
209.786	-6.14
210.005	14.34
210.223	63.49
210.442	-2.05
210.661	-10.24
210.879	10.24
211.098	12.29
211.316	-34.82
211.535	2.05
211.753	18.43
211.972	51.2
212.191	-36.86
212.409	-104.45
212.628	-57.34
212.846	69.63
213.065	12.29
213.283	79.87
213.502	-38.91
213.72	12.29
213.938	-47.1
214.157	30.72
214.375	8.19
214.594	-51.2
214.812	32.77
215.031	-67.58
215.249	38.91
215.467	49.15
215.686	6.14
215.904	8.19
216.122	-20.48
216.341	2.05
216.559	100.35
216.778	43.01
216.996	14.34
217.214	67.58
217.432	16.38
217.651	-51.2
217.869	16.38
218.087	8.19
218.306	55.3
218.524	20.48
218.742	0
218.96	-10.24
219.179	-67.58
219.397	45.06
219.615	38.91
219.833	47.1
220.051	-10.24
220.27	53.25
220.488	-8.19
220.706	-38.91
220.924	34.82
221.142	-61.44
221.36	24.58
221.578	-22.53
221.796	40.96
222.015	-67.58
222.233	-14.34
222.451	22.53
222.669	-4.1
222.887	63.49
223.105	8.19
223.323	-18.43
223.541	-18.43
223.759	-12.29
223.977	0
224.195	61.44
224.413	-6.14
224.631	-18.43
224.849	26.62
225.067	79.87
225.285	-16.38
225.503	10.24
225.721	14.34
225.939	-38.91
226.157	-2.05
226.375	77.82
226.592	-22.53
226.81	69.63
227.028	-12.29
227.246	51.2
227.464	12.29
227.682	-10.24
227.9	79.87
228.117	-102.4
228.335	24.58
228.553	67.58
228.771	-65.53
228.989	47.1
229.206	-10.24
229.424	-8.19
229.642	-36.86
229.86	-32.77
230.077	-8.19
230.295	-16.38
230.513	22.53
230.731	-2.05
230.948	-20.48
231.166	-28.67
231.384	-22.53
231.601	10.24
231.819	20.48
232.037	-57.34
232.254	-26.62
232.472	-8.19
232.689	43.01
232.907	-6.14
233.125	-77.82
233.342	28.67
233.56	14.34
233.777	-4.1
233.995	30.72
234.213	2.05
234.43	4.1
234.648	26.62
234.865	-43.01
235.083	26.62
235.3	-12.29
235.518	-26.62
235.735	47.1
235.953	47.1
236.17	-12.29
236.388	-4.1
236.605	-32.77
236.822	-49.15
237.04	-6.14
237.257	38.91
237.475	47.1
237.692	86.01
237.909	71.68
238.127	-34.82
238.344	40.96
238.562	26.62
238.779	-10.24
238.996	30.72
239.214	2.05
239.431	67.58
239.648	-61.44
239.865	22.53
240.083	20.48
240.3	-24.58
240.517	-28.67
240.735	-10.24
240.952	-32.77
241.169	-14.34
241.386	-55.3
241.603	26.62
241.821	-36.86
242.038	-32.77
242.255	47.1
242.472	-18.43
242.689	-40.96
242.907	-10.24
243.124	-77.82
243.341	-34.82
243.558	-4.1
243.775	-4.1
243.992	-34.82
244.209	-18.43
244.426	-34.82
244.643	102.4
244.86	4.1
245.078	59.39
245.295	-22.53
245.512	73.73
245.729	16.38
245.946	-12.29
246.163	10.24
246.38	-53.25
246.597	4.1
246.814	-16.38
247.031	67.58
247.248	30.72
247.464	-10.24
247.681	-43.01
247.898	2.05
248.115	-75.77
248.332	-71.68
248.549	28.67
248.766	8.19
248.983	10.24
249.2	-45.06
249.417	-2.05
249.633	-100.35
249.85	-12.29
250.067	-47.1
250.284	26.62
250.501	-49.15
250.717	20.48
250.934	-92.16
251.151	24.58
251.368	-24.58
251.585	-4.1
251.801	-8.19
252.018	-14.34
252.235	-14.34
252.451	71.68
252.668	24.58
252.885	10.24
253.102	28.67
253.318	0
253.535	8.19
253.752	-16.38
253.968	-28.67
254.185	-22.53
254.401	38.91
254.618	6.14
254.835	-45.06
255.051	-8.19
255.268	40.96
255.484	12.29
255.701	-26.62
255.917	22.53
256.134	-47.1
256.351	2.05
256.567	-65.53
256.784	-14.34
257	20.48
257.217	12.29
257.433	6.14
257.65	-4.1
257.866	59.39
258.082	-92.16
258.299	47.1
258.515	-8.19
258.732	34.82
258.948	10.24
259.165	16.38
259.381	-53.25
259.597	-18.43
259.814	28.67
260.03	-36.86
260.246	4.1
260.463	55.3
260.679	-36.86
260.895	18.43
261.112	34.82
261.328	-51.2
261.544	20.48
261.761	81.92
261.977	-20.48
262.193	-12.29
262.409	-38.91
262.626	20.48
262.842	10.24
263.058	-77.82
263.274	34.82
263.49	4.1
263.707	61.44
263.923	-77.82
264.139	-4.1
264.355	8.19
264.571	20.48
264.787	-2.05
265.004	53.25
265.22	4.1
265.436	-8.19
265.652	22.53
265.868	20.48
266.084	-10.24
266.3	65.54
266.516	16.38
266.732	-20.48
266.948	63.49
267.164	-14.34
267.38	-63.49
267.596	12.29
267.812	-30.72
268.028	12.29
268.244	10.24
268.46	28.67
268.676	53.25
268.892	40.96
269.108	-16.38
269.324	36.86
269.54	-18.43
269.756	-28.67
269.972	-55.3
270.188	51.2
270.403	-57.34
270.619	-22.53
270.835	20.48
271.051	-4.1
271.267	-65.53
271.483	-63.49
271.698	-36.86
271.914	43.01
272.13	69.63
272.346	71.68
272.562	-8.19
272.777	-18.43
272.993	-32.77
273.209	38.91
273.425	6.14
273.64	-55.3
273.856	32.77
274.072	4.1
274.287	-8.19
274.503	-18.43
274.719	-2.05
274.934	-2.05
275.15	-67.58
275.366	40.96
275.581	8.19
275.797	26.62
276.012	22.53
276.228	4.1
276.444	43.01
276.659	-12.29
276.875	43.01
277.09	-22.53
277.306	43.01
277.521	45.06
277.737	26.62
277.952	65.54
278.168	-4.1
278.383	102.4
278.599	-14.34
278.814	28.67
279.03	45.06
279.245	47.1
279.461	-88.06
279.676	36.86
279.892	-10.24
280.107	-57.34
280.322	-71.68
280.538	40.96
280.753	-12.29
280.969	26.62
281.184	-59.39
281.399	-18.43
281.615	22.53
281.83	40.96
282.045	-65.53
282.26	26.62
282.476	14.34
282.691	18.43
282.906	-6.14
283.122	10.24
283.337	-20.48
283.552	122.88
283.767	12.29
283.983	90.11
284.198	-28.67
284.413	6.14
284.628	26.62
284.843	-8.19
285.058	10.24
285.274	-10.24
285.489	4.1
285.704	-22.53
285.919	-8.19
286.134	-4.1
286.349	12.29
286.564	-26.62
286.779	36.86
286.995	-12.29
287.21	-2.05
287.425	-2.05
287.64	51.2
287.855	34.82
288.07	6.14
288.285	-47.1
288.5	77.82
288.715	83.97
288.93	14.34
289.145	-51.2
289.36	30.72
289.575	-12.29
289.79	55.3
290.004	22.53
290.219	-30.72
290.434	-18.43
290.649	2.05
290.864	51.2
291.079	45.06
291.294	38.91
291.509	2.05
291.724	61.44
291.938	-10.24
292.153	38.91
292.368	-20.48
292.583	14.34
292.798	-6.14
293.012	-6.14
293.227	83.97
293.442	-34.82
293.657	18.43
293.871	22.53
294.086	-10.24
294.301	43.01
294.516	14.34
294.73	43.01
294.945	-18.43
295.16	63.49
295.374	4.1
295.589	63.49
295.804	-2.05
296.018	-6.14
296.233	24.58
296.447	53.25
296.662	-40.96
296.877	79.87
297.091	45.06
297.306	-18.43
297.52	18.43
297.735	-12.29
297.949	24.58
298.164	8.19
298.378	-18.43
298.593	-10.24
298.807	-6.14
299.022	4.1
299.236	51.2
299.451	57.34
299.665	77.82
299.88	-4.1
300.094	59.39
300.309	10.24
300.523	86.01
300.737	-26.62
300.952	-26.62
301.166	92.16
301.381	-2.05
301.595	-22.53
301.809	81.92
302.024	14.34
302.238	-2.05
302.452	81.92
302.667	-6.14
302.881	18.43
303.095	65.54
303.309	24.58
303.524	-10.24
303.738	-16.38
303.952	-45.06
304.166	2.05
304.381	-22.53
304.595	34.82
304.809	10.24
305.023	-49.15
305.237	79.87
305.452	40.96
305.666	-34.82
305.88	6.14
306.094	18.43
306.308	55.3
306.522	53.25
306.736	2.05
306.95	10.24
307.164	22.53
307.379	6.14
307.593	45.06
307.807	116.73
308.021	0
308.235	10.24
308.449	-12.29
308.663	14.34
308.877	38.91
309.091	2.05
309.305	-2.05
309.519	-30.72
309.733	75.77
309.947	-59.39
310.161	28.67
310.374	102.4
310.588	-6.14
310.802	-110.59
311.016	-20.48
311.23	6.14
311.444	34.82
311.658	-61.44
311.872	38.91
312.085	-10.24
312.299	8.19
312.513	-14.34
312.727	75.77
312.941	20.48
313.154	-34.82
313.368	16.38
313.582	-24.58
313.796	-49.15
314.009	0
314.223	55.3
314.437	6.14
314.651	96.25
314.864	20.48
315.078	-20.48
315.292	-36.86
315.505	-30.72
315.719	-53.25
315.933	63.49
316.146	53.25
316.36	-20.48
316.573	83.97
316.787	-49.15
317.001	-20.48
317.214	-43.01
317.428	-6.14
317.641	-69.63
317.855	14.34
318.068	4.1
318.282	55.3
318.495	83.97
318.709	75.77
318.922	-53.25
319.136	20.48
319.349	22.53
319.563	2.05
319.776	-18.43
319.99	57.34
320.203	22.53
320.417	-51.2
320.63	96.25
320.843	20.48
321.057	90.11
321.27	24.58
321.483	24.58
321.697	32.77
321.91	61.44
322.124	6.14
322.337	-36.86
322.55	-10.24
322.763	69.63
322.977	-10.24
323.19	-73.73
323.403	8.19
323.617	18.43
323.83	-20.48
324.043	-30.72
324.256	20.48
324.469	-4.1
324.683	24.58
324.896	-38.91
325.109	14.34
325.322	-12.29
325.535	47.1
325.748	10.24
325.962	8.19
326.175	-28.67
326.388	32.77
326.601	34.82
326.814	-26.62
327.027	34.82
327.24	98.3
327.453	-10.24
327.666	49.15
327.879	14.34
328.092	92.16
328.305	30.72
328.518	51.2
328.731	43.01
328.944	36.86
329.157	67.58
329.37	-47.1
329.583	-55.3
329.796	114.69
330.009	-8.19
330.222	30.72
330.435	-38.91
330.648	-16.38
330.861	2.05
331.073	24.58
331.286	6.14
331.499	57.34
331.712	-24.58
331.925	-79.87
332.138	14.34
332.35	4.1
332.563	51.2
332.776	61.44
332.989	-47.1
333.202	-6.14
333.414	0
333.627	-10.24
333.84	-8.19
334.053	12.29
334.265	67.58
334.478	14.34
334.691	28.67
334.903	24.58
335.116	-2.05
335.329	30.72
335.541	-38.91
335.754	73.73
335.966	63.49
336.179	34.82
336.392	4.1
336.604	16.38
336.817	34.82
337.029	20.48
337.242	34.82
337.454	-32.77
337.667	10.24
337.88	98.3
338.092	-22.53
338.305	-30.72
338.517	26.62
338.729	36.86
338.942	96.25
339.154	-24.58
339.367	-8.19
339.579	18.43
339.792	69.63
340.004	-14.34
340.217	-59.39
340.429	57.34
340.641	-10.24
340.854	55.3
341.066	49.15
341.278	-18.43
341.491	-12.29
341.703	-32.77
341.915	26.62
342.128	-18.43
342.34	36.86
342.552	-49.15
342.764	-4.1
342.977	18.43
343.189	-14.34
343.401	49.15
343.613	45.06
343.826	53.25
344.038	71.68
344.25	14.34
344.462	-86.01
344.674	51.2
344.886	-43.01
345.099	57.34
345.311	34.82
345.523	18.43
345.735	16.38
345.947	-22.53
346.159	-22.53
346.371	-24.58
346.583	47.1
346.795	120.83
347.007	26.62
347.219	-14.34
347.431	-4.1
347.643	28.67
347.855	45.06
348.067	71.68
348.279	-14.34
348.491	26.62
348.703	100.35
348.915	-55.3
349.127	-30.72
349.339	-26.62
349.551	-16.38
349.763	67.58
349.975	-18.43
350.187	43.01
350.399	49.15
350.61	40.96
350.822	2.05
351.034	0
351.246	104.45
351.458	6.14
351.669	22.53
351.881	45.06
352.093	0
352.305	53.25
352.517	4.1
352.728	38.91
352.94	12.29
353.152	51.2
353.363	36.86
353.575	-40.96
353.787	36.86
353.999	124.93
354.21	79.87
354.422	-4.1
354.633	2.05
354.845	34.82
355.057	53.25
355.268	96.25
355.48	18.43
355.692	32.77
355.903	28.67
356.115	10.24
356.326	10.24
356.538	-24.58
356.749	24.58
356.961	-63.49
357.172	43.01
357.384	30.72
357.595	26.62
357.807	32.77
358.018	38.91
358.23	-6.14
358.441	63.49
358.653	83.97
358.864	-12.29
359.075	40.96
359.287	38.91
359.498	0
359.709	55.3
359.921	90.11
360.132	43.01
360.344	30.72
360.555	-14.34
360.766	34.82
360.977	67.58
361.189	90.11
361.4	12.29
361.611	0
361.823	86.01
362.034	86.01
362.245	-63.49
362.456	18.43
362.667	-22.53
362.879	10.24
363.09	38.91
363.301	26.62
363.512	6.14
363.723	-2.05
363.935	-16.38
364.146	51.2
364.357	-6.14
364.568	2.05
364.779	-26.62
364.99	104.45
365.201	-2.05
365.412	88.06
365.623	32.77
365.834	69.63
366.045	69.63
366.256	79.87
366.467	14.34
366.678	16.38
366.889	-20.48
367.1	106.49
367.311	-4.1
367.522	73.73
367.733	43.01
367.944	49.15
368.155	10.24
368.366	-24.58
368.577	32.77
368.788	100.35
368.999	32.77
369.209	43.01
369.42	6.14
369.631	24.58
369.842	28.67
370.053	-24.58
370.264	22.53
370.474	-43.01
370.685	22.53
370.896	-6.14
371.107	47.1
371.317	2.05
371.528	51.2
371.739	65.54
371.95	2.05
372.16	-34.82
372.371	112.64
372.582	18.43
372.792	-18.43
373.003	59.39
373.214	47.1
373.424	24.58
373.635	32.77
373.846	47.1
374.056	38.91
374.267	6.14
374.477	20.48
374.688	67.58
374.898	-18.43
375.109	-28.67
375.319	-32.77
375.53	122.88
375.74	12.29
375.951	-38.91
376.161	-40.96
376.372	67.58
376.582	4.1
376.793	36.86
377.003	-12.29
377.214	18.43
377.424	10.24
377.635	10.24
377.845	22.53
378.055	32.77
378.266	47.1
378.476	75.77
378.686	-4.1
378.897	30.72
379.107	-6.14
379.317	12.29
379.528	-28.67
379.738	120.83
379.948	-2.05
380.158	116.73
380.369	2.05
380.579	36.86
380.789	63.49
380.999	6.14
381.21	-47.1
381.42	4.1
381.63	51.2
381.84	6.14
382.05	59.39
382.261	53.25
382.471	8.19
382.681	14.34
382.891	59.39
383.101	57.34
383.311	20.48
383.521	-6.14
383.731	-2.05
383.941	47.1
384.151	65.54
384.361	16.38
384.571	-38.91
384.781	14.34
384.991	92.16
385.201	71.68
385.411	18.43
385.621	-30.72
385.831	28.67
386.041	45.06
386.251	-12.29
386.461	90.11
386.671	20.48
386.881	45.06
387.091	38.91
387.301	104.45
387.511	-26.62
387.72	108.54
387.93	34.82
388.14	10.24
388.35	24.58
388.56	45.06
388.769	30.72
388.979	24.58
389.189	77.82
389.399	69.63
389.609	12.29
389.818	0
390.028	-38.91
390.238	102.4
390.447	12.29
390.657	90.11
390.867	2.05
391.076	51.2
391.286	36.86
391.496	-22.53
391.705	-18.43
391.915	30.72
392.125	51.2
392.334	32.77
392.544	16.38
392.753	14.34
392.963	36.86
393.172	51.2
393.382	24.58
393.591	83.97
393.801	67.58
394.01	28.67
394.22	65.54
394.429	47.1
394.639	38.91
394.848	65.54
395.058	75.77
395.267	92.16
395.477	69.63
395.686	116.73
395.895	69.63
396.105	53.25
396.314	30.72
396.524	51.2
396.733	51.2
396.942	20.48
397.152	26.62
397.361	155.65
397.57	133.12
397.78	10.24
397.989	86.01
398.198	86.01
398.407	8.19
398.617	65.54
398.826	79.87
399.035	71.68
399.244	73.73
399.453	47.1
399.663	38.91
399.872	51.2
400.081	83.97
400.29	88.06
400.499	16.38
400.708	116.73
400.917	47.1
401.127	116.73
401.336	30.72
401.545	163.84
401.754	129.02
401.963	141.31
402.172	73.73
402.381	120.83
402.59	112.64
402.799	4.1
403.008	227.32
403.217	165.89
403.426	163.84
403.635	75.77
403.844	83.97
404.053	167.93
404.262	67.58
404.471	141.31
404.68	110.59
404.888	118.78
405.097	149.5
405.306	137.21
405.515	120.83
405.724	122.88
405.933	139.26
406.142	155.65
406.35	157.69
406.559	126.97
406.768	120.83
406.977	141.31
407.185	124.93
407.394	178.17
407.603	167.93
407.812	227.32
408.02	190.46
408.229	172.03
408.438	198.65
408.646	139.26
408.855	239.61
409.064	198.65
409.272	196.61
409.481	180.22
409.69	276.48
409.898	192.51
410.107	186.37
410.315	260.09
410.524	276.48
410.733	266.24
410.941	290.81
411.15	227.32
411.358	303.1
411.567	301.05
411.775	346.11
411.984	315.39
412.192	258.04
412.401	315.39
412.609	432.12
412.818	378.87
413.026	483.32
413.234	511.99
413.443	372.73
413.651	350.2
413.86	555
414.068	483.32
414.276	528.38
414.485	493.56
414.693	526.33
414.901	622.58
415.11	546.81
415.318	557.05
415.526	600.05
415.734	604.15
415.943	620.53
416.151	696.31
416.359	724.98
416.567	700.41
416.776	757.75
416.984	829.43
417.192	774.13
417.4	909.3
417.608	847.86
417.817	854
418.025	851.96
418.233	954.35
418.441	909.3
418.649	913.39
418.857	1101.81
419.065	1114.1
419.273	1155.05
419.481	1052.66
419.689	1230.83
419.897	1273.84
420.105	1343.47
420.313	1341.42
420.521	1423.34
420.729	1400.81
420.937	1398.76
421.145	1417.19
421.353	1540.07
421.561	1693.67
421.769	1740.77
421.977	1705.96
422.185	1685.48
422.393	1773.54
422.601	1931.23
422.809	1867.75
423.017	1947.62
423.224	1974.24
423.432	2086.88
423.64	2140.13
423.848	2222.05
424.056	2299.87
424.263	2435.03
424.471	2318.3
424.679	2562.01
424.887	2486.23
425.094	2697.17
425.302	2701.27
425.51	2881.49
425.718	2811.86
425.925	2877.4
426.133	3051.47
426.341	3241.93
426.548	3301.33
426.756	3336.14
426.964	3416.01
427.171	3573.71
427.379	3618.76
427.586	3676.1
427.794	3819.46
428.001	4016.07
428.209	4153.28
428.417	4165.57
428.624	4374.46
428.832	4446.14
429.039	4448.19
429.247	4450.24
429.454	4861.88
429.662	5191.6
429.869	4777.91
430.076	5167.03
430.284	5103.54
430.491	5257.14
430.699	5619.63
430.906	5502.89
431.114	5605.29
431.321	5681.07
431.528	5777.32
431.736	6387.61
431.943	6627.23
432.15	6502.3
432.358	6453.15
432.565	6758.3
432.772	6731.67
432.979	7169.94
433.187	7133.08
433.394	7409.55
433.601	7667.59
433.808	7681.93
434.016	7649.16
434.223	7907.21
434.43	8609.66
434.637	8347.52
434.844	8863.61
435.052	9217.91
435.259	8933.24
435.466	9090.93
435.673	8830.84
435.88	9566.06
436.087	10073.96
436.294	10178.4
436.501	9908.07
436.708	10114.92
436.915	10475.36
437.122	10893.15
437.329	10897.24
437.537	11089.75
437.743	11261.78
437.95	11319.12
438.157	11966.28
438.364	12394.31
438.571	12154.69
438.778	12408.64
438.985	13487.92
439.192	13084.47
439.399	13293.37
439.606	13002.55
439.813	13559.6
440.02	14534.43
440.227	14303.01
440.433	14163.75
440.64	14772
440.847	14696.22
441.054	14753.57
441.261	15902.48
441.467	15560.47
441.674	15910.67
441.881	16531.2
442.088	16633.6
442.294	16287.5
442.501	16756.48
442.708	17110.78
442.914	17706.74
443.121	18480.87
443.328	18261.74
443.534	19668.69
443.741	18765.54
443.948	18628.32
444.154	19885.78
444.361	19701.46
444.568	19773.14
444.774	20053.71
444.981	20262.6
445.187	21040.83
445.394	21526.2
445.6	21219
445.807	23332.51
446.013	22154.93
446.22	22857.38
446.426	23477.91
446.633	24014.48
446.839	24305.29
447.046	23402.14
447.252	25085.57
447.459	24927.88
447.665	24948.36
447.871	25804.41
448.078	27113.06
448.284	25785.97
448.491	26482.28
448.697	27457.12
448.903	27881.05
449.11	27846.23
449.316	27399.77
449.522	27852.38
449.728	28597.84
449.935	29261.38
450.141	29048.39
450.347	30006.84
450.553	28630.6
450.76	28769.86
450.966	29632.06
451.172	29238.85
451.378	30178.87
451.584	29251.14
451.791	30492.21
451.997	30260.79
452.203	30879.27
452.409	30762.54
452.615	30758.44
452.821	29400.64
453.027	29144.64
453.233	30817.83
453.44	29517.37
453.646	29548.09
453.852	29773.37
454.058	30328.37
454.264	29351.49
454.47	29982.26
454.676	29457.98
454.882	30344.75
455.088	27856.47
455.294	27965.01
455.5	28601.93
455.705	28868.17
455.911	27336.29
456.117	27080.29
456.323	26703.46
456.529	25042.56
456.735	26449.52
456.941	25714.3
457.147	25429.63
457.352	24714.89
457.558	23930.51
457.764	24299.15
457.97	23686.81
458.176	23277.21
458.381	23475.87
458.587	22066.86
458.793	22210.22
458.999	21108.41
459.204	22511.27
459.41	21941.94
459.616	20682.44
459.821	20336.33
460.027	20420.3
460.233	19912.4
460.438	18999.01
460.644	18833.12
460.85	18257.64
461.055	18048.75
461.261	17909.49
461.466	16830.21
461.672	15980.3
461.878	17735.41
462.083	16199.43
462.289	15830.8
462.494	15838.99
462.7	15021.85
462.905	14501.67
463.111	15269.65
463.316	15079.19
463.522	14921.5
463.727	14898.97
463.932	14815.01
464.138	14638.88
464.343	14792.48
464.549	14477.09
464.754	14880.54
464.959	14862.11
465.165	14892.83
465.37	13967.15
465.575	13463.35
465.781	14468.9
465.986	14251.81
466.191	13717.29
466.397	13502.26
466.602	12775.23
466.807	13190.97
467.012	13287.22
467.218	13309.75
