Data from USB4F104151__290__11-13-02-220.txt Node

Date: Wed Mar 12 11:13:02 EDT 2025
User: louis
Spectrometer: USB4F10415
Trigger mode: 4
Integration Time (sec): 2.000000E-2
Scans to average: 1
Electric dark correction enabled: true
Nonlinearity correction enabled: false
Boxcar width: 0
XAxis mode: Wavelengths
Number of Pixels in Spectrum: 3648
>>>>>Begin Spectral Data<<<<<
178.204	-141.82
178.424	-141.82
178.644	-141.82
178.864	-100.86
179.084	-86.53
179.304	44.54
179.524	-14.85
179.744	-57.86
179.964	91.65
180.184	-70.14
180.404	69.12
180.624	-18.94
180.844	-39.42
181.064	-41.47
181.283	60.93
181.503	11.78
181.723	-35.33
181.943	-43.52
182.163	26.11
182.383	24.06
182.602	87.55
182.822	7.68
183.042	42.5
183.262	75.26
183.482	-10.75
183.701	-2.56
183.921	-12.8
184.141	-23.04
184.361	62.98
184.58	-2.56
184.8	-35.33
185.02	-41.47
185.239	42.5
185.459	60.93
185.679	-8.7
185.898	-51.71
186.118	9.73
186.338	-23.04
186.557	71.17
186.777	-39.42
186.997	60.93
187.216	48.64
187.436	19.97
187.655	15.87
187.875	32.26
188.095	-35.33
188.314	5.63
188.534	-14.85
188.753	60.93
188.973	42.5
189.192	26.11
189.412	75.26
189.631	26.11
189.851	46.59
190.07	-18.94
190.29	24.06
190.509	48.64
190.729	-16.9
190.948	54.78
191.168	75.26
191.387	5.63
191.607	-0.51
191.826	58.88
192.045	-47.62
192.265	46.59
192.484	15.87
192.704	24.06
192.923	-18.94
193.142	-8.7
193.362	-4.61
193.581	73.21
193.8	112.13
194.02	54.78
194.239	-49.66
194.458	73.21
194.678	99.84
194.897	56.83
195.116	34.3
195.335	-27.14
195.555	13.82
195.774	42.5
195.993	42.5
196.212	1.54
196.432	9.73
196.651	-10.75
196.87	75.26
197.089	175.61
197.308	-4.61
197.528	1.54
197.747	-80.38
197.966	65.02
198.185	-10.75
198.404	-2.56
198.623	26.11
198.842	52.74
199.062	65.02
199.281	38.4
199.5	-10.75
199.719	13.82
199.938	19.97
200.157	-8.7
200.376	99.84
200.595	75.26
200.814	46.59
201.033	-0.51
201.252	7.68
201.471	5.63
201.69	52.74
201.909	87.55
202.128	19.97
202.347	34.3
202.566	77.31
202.785	-45.57
203.004	40.45
203.223	32.26
203.442	-0.51
203.661	69.12
203.879	54.78
204.098	58.88
204.317	28.16
204.536	5.63
204.755	22.02
204.974	40.45
205.193	3.58
205.411	-0.51
205.63	42.5
205.849	1.54
206.068	-51.71
206.287	36.35
206.505	5.63
206.724	75.26
206.943	-37.38
207.162	42.5
207.381	17.92
207.599	-6.66
207.818	3.58
208.037	69.12
208.255	30.21
208.474	30.21
208.693	-2.56
208.911	71.17
209.13	95.74
209.349	69.12
209.567	-12.8
209.786	-25.09
210.005	46.59
210.223	42.5
210.442	46.59
210.661	52.74
210.879	56.83
211.098	1.54
211.316	58.88
211.535	-29.18
211.753	26.11
211.972	28.16
212.191	13.82
212.409	48.64
212.628	40.45
212.846	-68.09
213.065	26.11
213.283	108.03
213.502	56.83
213.72	5.63
213.938	-16.9
214.157	-10.75
214.375	17.92
214.594	19.97
214.812	-8.7
215.031	56.83
215.249	22.02
215.467	38.4
215.686	65.02
215.904	13.82
216.122	5.63
216.341	28.16
216.559	42.5
216.778	73.21
216.996	26.11
217.214	-16.9
217.432	-64
217.651	91.65
217.869	-12.8
218.087	81.41
218.306	13.82
218.524	26.11
218.742	52.74
218.96	-18.94
219.179	-66.05
219.397	28.16
219.615	108.03
219.833	28.16
220.051	-33.28
220.27	9.73
220.488	-0.51
220.706	58.88
220.924	71.17
221.142	-20.99
221.36	11.78
221.578	-25.09
221.796	11.78
222.015	38.4
222.233	36.35
222.451	58.88
222.669	-27.14
222.887	-2.56
223.105	-57.86
223.323	-35.33
223.541	83.45
223.759	9.73
223.977	-14.85
224.195	46.59
224.413	5.63
224.631	11.78
224.849	-2.56
225.067	87.55
225.285	48.64
225.503	58.88
225.721	-39.42
225.939	11.78
226.157	-27.14
226.375	-6.66
226.592	13.82
226.81	-4.61
227.028	30.21
227.246	77.31
227.464	120.32
227.682	28.16
227.9	7.68
228.117	-2.56
228.335	1.54
228.553	73.21
228.771	-35.33
228.989	32.26
229.206	-20.99
229.424	-16.9
229.642	73.21
229.86	56.83
230.077	30.21
230.295	-61.95
230.513	79.36
230.731	38.4
230.948	58.88
231.166	24.06
231.384	-25.09
231.601	-39.42
231.819	87.55
232.037	-25.09
232.254	9.73
232.472	32.26
232.689	77.31
232.907	91.65
233.125	71.17
233.342	65.02
233.56	7.68
233.777	22.02
233.995	15.87
234.213	1.54
234.43	67.07
234.648	44.54
234.865	30.21
235.083	17.92
235.3	-37.38
235.518	-43.52
235.735	-29.18
235.953	77.31
236.17	44.54
236.388	7.68
236.605	46.59
236.822	5.63
237.04	13.82
237.257	-2.56
237.475	44.54
237.692	-12.8
237.909	67.07
238.127	24.06
238.344	15.87
238.562	79.36
238.779	-14.85
238.996	26.11
239.214	-2.56
239.431	54.78
239.648	40.45
239.865	26.11
240.083	22.02
240.3	28.16
240.517	-16.9
240.735	-6.66
240.952	-33.28
241.169	60.93
241.386	-16.9
241.603	50.69
241.821	11.78
242.038	34.3
242.255	69.12
242.472	22.02
242.689	50.69
242.907	65.02
243.124	69.12
243.341	52.74
243.558	19.97
243.775	77.31
243.992	-29.18
244.209	48.64
244.426	-6.66
244.643	-29.18
244.86	9.73
245.078	54.78
245.295	26.11
245.512	-27.14
245.729	-10.75
245.946	13.82
246.163	69.12
246.38	32.26
246.597	32.26
246.814	13.82
247.031	46.59
247.248	48.64
247.464	77.31
247.681	-4.61
247.898	69.12
248.115	89.6
248.332	38.4
248.549	58.88
248.766	60.93
248.983	46.59
249.2	5.63
249.417	52.74
249.633	-12.8
249.85	91.65
250.067	75.26
250.284	32.26
250.501	34.3
250.717	128.51
250.934	44.54
251.151	-10.75
251.368	-14.85
251.585	89.6
251.801	-20.99
252.018	3.58
252.235	28.16
252.451	65.02
252.668	24.06
252.885	3.58
253.102	30.21
253.318	30.21
253.535	11.78
253.752	-4.61
253.968	48.64
254.185	38.4
254.401	32.26
254.618	-6.66
254.835	24.06
255.051	3.58
255.268	26.11
255.484	-55.81
255.701	22.02
255.917	91.65
256.134	65.02
256.351	19.97
256.567	-0.51
256.784	34.3
257	-10.75
257.217	32.26
257.433	34.3
257.65	1.54
257.866	-43.52
258.082	1.54
258.299	54.78
258.515	58.88
258.732	17.92
258.948	-0.51
259.165	75.26
259.381	34.3
259.597	48.64
259.814	26.11
260.03	-20.99
260.246	17.92
260.463	52.74
260.679	91.65
260.895	-18.94
261.112	19.97
261.328	22.02
261.544	28.16
261.761	67.07
261.977	-59.9
262.193	40.45
262.409	-6.66
262.626	148.99
262.842	67.07
263.058	67.07
263.274	9.73
263.49	73.21
263.707	17.92
263.923	-14.85
264.139	-12.8
264.355	-4.61
264.571	-45.57
264.787	79.36
265.004	19.97
265.22	-27.14
265.436	36.35
265.652	75.26
265.868	17.92
266.084	5.63
266.3	58.88
266.516	-43.52
266.732	-16.9
266.948	-8.7
267.164	44.54
267.38	65.02
267.596	28.16
267.812	75.26
268.028	-102.91
268.244	-39.42
268.46	36.35
268.676	-8.7
268.892	-25.09
269.108	46.59
269.324	52.74
269.54	52.74
269.756	54.78
269.972	28.16
270.188	62.98
270.403	40.45
270.619	-10.75
270.835	26.11
271.051	7.68
271.267	-6.66
271.483	36.35
271.698	19.97
271.914	-18.94
272.13	-23.04
272.346	42.5
272.562	-10.75
272.777	38.4
272.993	50.69
273.209	56.83
273.425	9.73
273.64	26.11
273.856	71.17
274.072	1.54
274.287	91.65
274.503	13.82
274.719	54.78
274.934	73.21
275.15	-23.04
275.366	50.69
275.581	-57.86
275.797	30.21
276.012	-49.66
276.228	112.13
276.444	9.73
276.659	83.45
276.875	-18.94
277.09	-16.9
277.306	-10.75
277.521	-8.7
277.737	40.45
277.952	17.92
278.168	56.83
278.383	32.26
278.599	-18.94
278.814	-12.8
279.03	42.5
279.245	50.69
279.461	-20.99
279.676	1.54
279.892	42.5
280.107	22.02
280.322	-0.51
280.538	44.54
280.753	5.63
280.969	73.21
281.184	44.54
281.399	42.5
281.615	11.78
281.83	-20.99
282.045	-104.96
282.26	75.26
282.476	44.54
282.691	5.63
282.906	52.74
283.122	19.97
283.337	17.92
283.552	36.35
283.767	36.35
283.983	87.55
284.198	-18.94
284.413	-33.28
284.628	-55.81
284.843	-27.14
285.058	13.82
285.274	87.55
285.489	13.82
285.704	9.73
285.919	38.4
286.134	122.37
286.349	26.11
286.564	46.59
286.779	75.26
286.995	7.68
287.21	-10.75
287.425	56.83
287.64	-29.18
287.855	36.35
288.07	-104.96
288.285	46.59
288.5	69.12
288.715	38.4
288.93	22.02
289.145	-2.56
289.36	40.45
289.575	30.21
289.79	-14.85
290.004	26.11
290.219	73.21
290.434	99.84
290.649	62.98
290.864	67.07
291.079	-10.75
291.294	-14.85
291.509	-12.8
291.724	52.74
291.938	15.87
292.153	17.92
292.368	-0.51
292.583	52.74
292.798	46.59
293.012	15.87
293.227	-27.14
293.442	5.63
293.657	120.32
293.871	5.63
294.086	79.36
294.301	65.02
294.516	79.36
294.73	95.74
294.945	-10.75
295.16	-2.56
295.374	71.17
295.589	50.69
295.804	46.59
296.018	77.31
296.233	56.83
296.447	11.78
296.662	34.3
296.877	36.35
297.091	69.12
297.306	89.6
297.52	36.35
297.735	-8.7
297.949	1.54
298.164	36.35
298.378	69.12
298.593	30.21
298.807	38.4
299.022	50.69
299.236	17.92
299.451	67.07
299.665	75.26
299.88	26.11
300.094	-0.51
300.309	38.4
300.523	-35.33
300.737	-35.33
300.952	89.6
301.166	79.36
301.381	-12.8
301.595	42.5
301.809	40.45
302.024	3.58
302.238	-12.8
302.452	67.07
302.667	22.02
302.881	-10.75
303.095	-10.75
303.309	-6.66
303.524	50.69
303.738	128.51
303.952	24.06
304.166	91.65
304.381	-27.14
304.595	87.55
304.809	38.4
305.023	89.6
305.237	17.92
305.452	46.59
305.666	5.63
305.88	62.98
306.094	42.5
306.308	65.02
306.522	36.35
306.736	112.13
306.95	42.5
307.164	103.93
307.379	83.45
307.593	34.3
307.807	85.5
308.021	26.11
308.235	22.02
308.449	46.59
308.663	42.5
308.877	93.69
309.091	30.21
309.305	9.73
309.519	71.17
309.733	89.6
309.947	75.26
310.161	-0.51
310.374	116.22
310.588	32.26
310.802	83.45
311.016	105.98
311.23	36.35
311.444	79.36
311.658	30.21
311.872	171.52
312.085	11.78
312.299	-2.56
312.513	48.64
312.727	54.78
312.941	40.45
313.154	28.16
313.368	-14.85
313.582	28.16
313.796	40.45
314.009	46.59
314.223	11.78
314.437	17.92
314.651	75.26
314.864	-2.56
315.078	22.02
315.292	62.98
315.505	28.16
315.719	-16.9
315.933	83.45
316.146	15.87
316.36	30.21
316.573	112.13
316.787	50.69
317.001	5.63
317.214	-2.56
317.428	3.58
317.641	75.26
317.855	-8.7
318.068	-37.38
318.282	1.54
318.495	99.84
318.709	93.69
318.922	30.21
319.136	26.11
319.349	95.74
319.563	26.11
319.776	7.68
319.99	-90.62
320.203	89.6
320.417	48.64
320.63	-16.9
320.843	58.88
321.057	24.06
321.27	56.83
321.483	114.17
321.697	79.36
321.91	-2.56
322.124	-6.66
322.337	40.45
322.55	62.98
322.763	26.11
322.977	52.74
323.19	52.74
323.403	65.02
323.617	85.5
323.83	38.4
324.043	-49.66
324.256	-8.7
324.469	58.88
324.683	54.78
324.896	-37.38
325.109	22.02
325.322	-61.95
325.535	54.78
325.748	26.11
325.962	22.02
326.175	11.78
326.388	42.5
326.601	9.73
326.814	13.82
327.027	60.93
327.24	38.4
327.453	-18.94
327.666	91.65
327.879	65.02
328.092	24.06
328.305	30.21
328.518	52.74
328.731	54.78
328.944	71.17
329.157	9.73
329.37	42.5
329.583	77.31
329.796	130.56
330.009	17.92
330.222	71.17
330.435	5.63
330.648	81.41
330.861	9.73
331.073	3.58
331.286	44.54
331.499	54.78
331.712	9.73
331.925	83.45
332.138	75.26
332.35	71.17
332.563	34.3
332.776	105.98
332.989	-29.18
333.202	34.3
333.414	-29.18
333.627	101.89
333.84	9.73
334.053	38.4
334.265	19.97
334.478	22.02
334.691	19.97
334.903	-12.8
335.116	26.11
335.329	30.21
335.541	52.74
335.754	9.73
335.966	56.83
336.179	50.69
336.392	-47.62
336.604	112.13
336.817	46.59
337.029	56.83
337.242	52.74
337.454	95.74
337.667	-23.04
337.88	54.78
338.092	75.26
338.305	116.22
338.517	67.07
338.729	77.31
338.942	11.78
339.154	1.54
339.367	75.26
339.579	87.55
339.792	46.59
340.004	52.74
340.217	-2.56
340.429	-10.75
340.641	13.82
340.854	-16.9
341.066	34.3
341.278	118.27
341.491	65.02
341.703	54.78
341.915	60.93
342.128	58.88
342.34	32.26
342.552	50.69
342.764	67.07
342.977	120.32
343.189	124.41
343.401	50.69
343.613	79.36
343.826	56.83
344.038	13.82
344.25	46.59
344.462	44.54
344.674	46.59
344.886	26.11
345.099	77.31
345.311	67.07
345.523	-14.85
345.735	60.93
345.947	34.3
346.159	-0.51
346.371	36.35
346.583	17.92
346.795	105.98
347.007	22.02
347.219	13.82
347.431	-53.76
347.643	48.64
347.855	62.98
348.067	50.69
348.279	30.21
348.491	46.59
348.703	97.79
348.915	19.97
349.127	5.63
349.339	28.16
349.551	44.54
349.763	30.21
349.975	75.26
350.187	101.89
350.399	112.13
350.61	11.78
350.822	3.58
351.034	42.5
351.246	52.74
351.458	38.4
351.669	9.73
351.881	87.55
352.093	-20.99
352.305	24.06
352.517	34.3
352.728	58.88
352.94	116.22
353.152	69.12
353.363	7.68
353.575	30.21
353.787	130.56
353.999	5.63
354.21	103.93
354.422	26.11
354.633	38.4
354.845	-35.33
355.057	32.26
355.268	79.36
355.48	30.21
355.692	24.06
355.903	19.97
356.115	52.74
356.326	-29.18
356.538	116.22
356.749	60.93
356.961	85.5
357.172	26.11
357.384	-0.51
357.595	42.5
357.807	11.78
358.018	9.73
358.23	36.35
358.441	87.55
358.653	79.36
358.864	-27.14
359.075	50.69
359.287	22.02
359.498	73.21
359.709	46.59
359.921	3.58
360.132	44.54
360.344	103.93
360.555	-68.09
360.766	-20.99
360.977	38.4
361.189	17.92
361.4	17.92
361.611	13.82
361.823	69.12
362.034	71.17
362.245	42.5
362.456	3.58
362.667	73.21
362.879	32.26
363.09	17.92
363.301	71.17
363.512	79.36
363.723	71.17
363.935	42.5
364.146	56.83
364.357	58.88
364.568	79.36
364.779	-70.14
364.99	67.07
365.201	-14.85
365.412	34.3
365.623	67.07
365.834	108.03
366.045	65.02
366.256	9.73
366.467	112.13
366.678	34.3
366.889	62.98
367.1	-0.51
367.311	17.92
367.522	87.55
367.733	40.45
367.944	-8.7
368.155	67.07
368.366	40.45
368.577	73.21
368.788	60.93
368.999	87.55
369.209	83.45
369.42	9.73
369.631	83.45
369.842	50.69
370.053	24.06
370.264	122.37
370.474	17.92
370.685	71.17
370.896	81.41
371.107	56.83
371.317	69.12
371.528	73.21
371.739	89.6
371.95	54.78
372.16	17.92
372.371	7.68
372.582	5.63
372.792	50.69
373.003	44.54
373.214	93.69
373.424	122.37
373.635	105.98
373.846	44.54
374.056	3.58
374.267	26.11
374.477	89.6
374.688	65.02
374.898	22.02
375.109	77.31
375.319	44.54
375.53	19.97
375.74	26.11
375.951	-29.18
376.161	-12.8
376.372	79.36
376.582	38.4
376.793	-23.04
377.003	65.02
377.214	69.12
377.424	105.98
377.635	-27.14
377.845	69.12
378.055	62.98
378.266	30.21
378.476	46.59
378.686	19.97
378.897	5.63
379.107	-31.23
379.317	44.54
379.528	85.5
379.738	132.61
379.948	5.63
380.158	-2.56
380.369	17.92
380.579	79.36
380.789	58.88
380.999	110.08
381.21	22.02
381.42	62.98
381.63	15.87
381.84	91.65
382.05	56.83
382.261	58.88
382.471	140.8
382.681	28.16
382.891	75.26
383.101	19.97
383.311	26.11
383.521	110.08
383.731	87.55
383.941	71.17
384.151	44.54
384.361	1.54
384.571	17.92
384.781	9.73
384.991	79.36
385.201	110.08
385.411	42.5
385.621	69.12
385.831	17.92
386.041	28.16
386.251	71.17
386.461	116.22
386.671	-76.29
386.881	112.13
387.091	11.78
387.301	73.21
387.511	56.83
387.72	71.17
387.93	73.21
388.14	-8.7
388.35	58.88
388.56	50.69
388.769	24.06
388.979	9.73
389.189	73.21
389.399	17.92
389.609	50.69
389.818	140.8
390.028	60.93
390.238	42.5
390.447	44.54
390.657	75.26
390.867	3.58
391.076	85.5
391.286	91.65
391.496	-6.66
391.705	11.78
391.915	132.61
392.125	93.69
392.334	118.27
392.544	148.99
392.753	91.65
392.963	52.74
393.172	112.13
393.382	26.11
393.591	165.37
393.801	62.98
394.01	99.84
394.22	58.88
394.429	42.5
394.639	75.26
394.848	89.6
395.058	83.45
395.267	126.46
395.477	69.12
395.686	71.17
395.895	69.12
396.105	128.51
396.314	83.45
396.524	26.11
396.733	99.84
396.942	99.84
397.152	93.69
397.361	54.78
397.57	-2.56
397.78	112.13
397.989	87.55
398.198	110.08
398.407	75.26
398.617	71.17
398.826	24.06
399.035	71.17
399.244	200.19
399.453	93.69
399.663	136.7
399.872	122.37
400.081	120.32
400.29	120.32
400.499	54.78
400.708	124.41
400.917	128.51
401.127	171.52
401.336	-2.56
401.545	118.27
401.754	165.37
401.963	110.08
402.172	65.02
402.381	81.41
402.59	173.57
402.799	181.76
403.008	163.33
403.217	73.21
403.426	167.42
403.635	116.22
403.844	144.89
404.053	153.09
404.262	159.23
404.471	185.85
404.68	173.57
404.888	103.93
405.097	103.93
405.306	130.56
405.515	140.8
405.724	148.99
405.933	196.09
406.142	208.38
406.35	177.66
406.559	232.96
406.768	218.62
406.977	210.43
407.185	206.33
407.394	224.76
407.603	255.48
407.812	261.63
408.02	214.52
408.229	253.44
408.438	257.53
408.646	329.21
408.855	222.72
409.064	286.2
409.272	224.76
409.481	368.12
409.69	349.69
409.898	298.49
410.107	318.97
410.315	339.45
410.524	353.79
410.733	407.03
410.941	312.83
411.15	337.4
411.358	345.59
411.567	456.19
411.775	450.04
411.984	386.55
412.192	437.75
412.401	488.95
412.609	474.62
412.818	570.87
413.026	544.25
413.234	484.86
413.443	646.65
413.651	566.78
413.86	601.59
414.068	632.31
414.276	611.83
414.485	689.65
414.693	718.33
414.901	787.96
415.11	689.65
415.318	685.56
415.526	775.67
415.734	853.49
415.943	775.67
416.151	835.06
416.359	830.96
416.567	1002.99
416.776	890.35
416.984	888.31
417.192	1021.42
417.4	1089.01
417.608	1019.38
417.817	1150.45
418.025	1123.82
418.233	1347.05
418.441	1158.64
418.649	1261.04
418.857	1402.35
419.065	1390.06
419.273	1318.38
419.481	1392.11
419.689	1445.35
419.897	1555.94
420.105	1607.14
420.313	1658.34
420.521	1644.01
420.729	1603.05
420.937	1717.73
421.145	1807.84
421.353	1863.14
421.561	2041.31
421.769	1955.3
421.977	2160.1
422.185	2063.84
422.393	2266.59
422.601	2280.93
422.809	2301.4
423.017	2389.47
423.224	2577.88
423.432	2637.27
423.64	2555.35
423.848	2885.08
424.056	2829.78
424.263	2891.22
424.471	3081.68
424.679	3030.48
424.887	3210.7
425.094	3337.68
425.302	3366.35
425.51	3411.4
425.718	3497.42
425.925	3620.3
426.133	3677.64
426.341	3999.17
426.548	4103.62
426.756	4103.62
426.964	4169.15
427.171	4281.79
427.379	4562.36
427.586	4388.29
427.794	4634.04
428.001	4793.78
428.209	5170.61
428.417	5045.68
428.624	5322.16
428.832	5514.67
429.039	5369.26
429.247	5422.51
429.454	5944.74
429.662	6208.93
429.869	5985.7
430.076	6180.26
430.284	6249.89
430.491	6524.32
430.699	6702.49
430.906	6837.66
431.114	6788.5
431.321	7157.14
431.528	7273.87
431.736	7605.64
431.943	8048.01
432.15	7957.89
432.358	8017.29
432.565	8125.83
432.772	8263.04
432.979	8682.88
433.187	9061.75
433.394	9137.52
433.601	9565.55
433.808	9663.85
434.016	9575.79
434.223	10005.86
434.43	10696.03
434.637	10405.22
434.844	10802.52
435.052	11074.9
435.259	10943.83
435.466	11279.7
435.673	10855.77
435.88	11828.56
436.087	12469.57
436.294	12522.82
436.501	12184.9
436.708	12481.86
436.915	12645.7
437.122	13311.28
437.329	13356.34
437.537	13567.28
437.743	13901.1
437.95	13856.04
438.157	14691.62
438.364	15303.96
438.571	14951.71
438.778	15131.93
438.985	16561.41
439.192	15768.85
439.399	16420.1
439.606	16002.32
439.813	17175.8
440.02	18029.8
440.227	17655.03
440.433	17468.66
440.64	17882.35
440.847	17775.86
441.054	18345.19
441.261	19596.5
441.467	19533.01
441.674	19797.2
441.881	20479.18
442.088	20116.69
442.294	20227.28
442.501	20917.44
442.708	21347.51
442.914	21550.26
443.121	23106.72
443.328	22484.14
443.534	23858.32
443.741	23069.86
443.948	22686.89
444.154	24607.88
444.361	24429.71
444.568	24814.73
444.774	24642.7
444.981	24847.49
445.187	25713.78
445.394	27110.5
445.6	26248.3
445.807	29205.57
446.013	27655.26
446.22	27995.22
446.426	29037.64
446.633	29375.55
446.839	30524.46
447.046	29291.59
447.252	30909.48
447.459	30880.81
447.665	30669.87
447.871	32048.15
448.078	33297.41
448.284	31652.89
448.491	32775.18
448.697	33797.12
448.903	34788.33
449.11	34386.93
449.316	33586.18
449.522	34952.17
449.728	35130.34
449.935	35947.48
450.141	35408.87
450.347	36600.79
450.553	35415.01
450.76	35455.97
450.966	36848.59
451.172	36391.89
451.378	37428.16
451.584	36508.63
451.791	37362.63
451.997	37428.16
452.203	38095.8
452.409	37583.81
452.615	37653.44
452.821	36318.17
453.027	35957.72
453.233	37405.64
453.44	36533.2
453.646	36793.29
453.852	36731.86
454.058	37518.28
454.264	36058.07
454.47	37012.43
454.676	35820.51
454.882	37376.97
455.088	33856.51
455.294	34790.38
455.5	34943.98
455.705	35410.92
455.911	33735.68
456.117	33285.12
456.323	32564.24
456.529	31116.33
456.735	32373.78
456.941	31691.8
457.147	31104.04
457.352	30426.16
457.558	29637.69
457.764	29975.61
457.97	29471.81
458.176	28664.91
458.381	28513.36
458.587	27257.95
458.793	26979.43
458.999	25990.26
459.204	27655.26
459.41	27102.31
459.616	25169.02
459.821	25150.59
460.027	25316.48
460.233	24720.52
460.438	23407.77
460.644	23649.43
460.85	22539.43
461.055	22217.9
461.261	22135.98
461.466	20561.09
461.672	19805.39
461.878	21400.76
462.083	20075.73
462.289	19506.39
462.494	19395.8
462.7	18400.49
462.905	18105.58
463.111	18693.35
463.316	18609.38
463.522	18257.13
463.727	18322.66
463.932	18404.58
464.138	18154.73
464.343	18406.63
464.549	17753.33
464.754	18582.76
464.959	18097.39
465.165	17947.89
465.37	17214.71
465.575	16792.83
465.781	17413.37
465.986	17503.48
466.191	16792.83
466.397	16616.71
466.602	15924.49
466.807	16588.03
467.012	16362.76
467.218	16209.16
467.423	16170.25
467.628	16295.18
