Data from USB4F104151__192__11-09-51-021.txt Node

Date: Wed Mar 12 11:09:51 EDT 2025
User: louis
Spectrometer: USB4F10415
Trigger mode: 4
Integration Time (sec): 2.000000E-2
Scans to average: 1
Electric dark correction enabled: true
Nonlinearity correction enabled: false
Boxcar width: 0
XAxis mode: Wavelengths
Number of Pixels in Spectrum: 3648
>>>>>Begin Spectral Data<<<<<
178.204	-106.15
178.424	-106.15
178.644	-106.15
178.864	-128.68
179.084	-106.15
179.304	-13.99
179.524	33.11
179.744	51.54
179.964	-18.09
180.184	16.73
180.404	-34.47
180.624	-18.09
180.844	-42.67
181.064	-38.57
181.283	29.01
181.503	-7.85
181.723	43.35
181.943	-3.75
182.163	-61.1
182.383	16.73
182.602	14.68
182.822	6.49
183.042	-85.67
183.262	0.34
183.482	-91.82
183.701	10.58
183.921	-50.86
184.141	-57
184.361	20.82
184.58	6.49
184.8	-54.95
185.02	-16.04
185.239	-20.14
185.459	-1.71
185.679	45.4
185.898	-79.53
186.118	37.2
186.338	-44.71
186.557	90.45
186.777	-26.28
186.997	-11.95
187.216	43.35
187.436	31.06
187.655	4.44
187.875	-24.23
188.095	6.49
188.314	-22.19
188.534	-3.75
188.753	0.34
188.973	8.53
189.192	0.34
189.412	-48.81
189.631	-91.82
189.851	49.49
190.07	26.96
190.29	-61.1
190.509	-44.71
190.729	-57
190.948	-28.33
191.168	47.44
191.387	-34.47
191.607	45.4
191.826	-32.43
192.045	4.44
192.265	-11.95
192.484	39.25
192.704	-36.52
192.923	-54.95
193.142	-5.8
193.362	-9.9
193.581	29.01
193.8	31.06
194.02	43.35
194.239	-24.23
194.458	43.35
194.678	51.54
194.897	-16.04
195.116	29.01
195.335	-69.29
195.555	-16.04
195.774	-13.99
195.993	37.2
196.212	16.73
196.432	-38.57
196.651	-71.34
196.87	-16.04
197.089	37.2
197.308	12.63
197.528	-34.47
197.747	-48.81
197.966	18.77
198.185	33.11
198.404	29.01
198.623	4.44
198.842	22.87
199.062	-32.43
199.281	115.03
199.5	-48.81
199.719	51.54
199.938	16.73
200.157	-5.8
200.376	29.01
200.595	31.06
200.814	55.64
201.033	-69.29
201.252	31.06
201.471	-28.33
201.69	4.44
201.909	-34.47
202.128	6.49
202.347	14.68
202.566	-9.9
202.785	10.58
203.004	-36.52
203.223	24.92
203.442	-3.75
203.661	2.39
203.879	-42.67
204.098	-13.99
204.317	-44.71
204.536	43.35
204.755	-32.43
204.974	72.02
205.193	45.4
205.411	24.92
205.63	-59.05
205.849	18.77
206.068	41.3
206.287	35.16
206.505	-42.67
206.724	-44.71
206.943	0.34
207.162	18.77
207.381	8.53
207.599	-40.62
207.818	-7.85
208.037	-9.9
208.255	6.49
208.474	8.53
208.693	-20.14
208.911	-36.52
209.13	61.78
209.349	-61.1
209.567	-61.1
209.786	-32.43
210.005	41.3
210.223	-40.62
210.442	-24.23
210.661	57.68
210.879	31.06
211.098	33.11
211.316	20.82
211.535	35.16
211.753	-46.76
211.972	-24.23
212.191	-7.85
212.409	18.77
212.628	51.54
212.846	18.77
213.065	12.63
213.283	-1.71
213.502	-22.19
213.72	-16.04
213.938	-34.47
214.157	88.4
214.375	4.44
214.594	-20.14
214.812	-32.43
215.031	12.63
215.249	4.44
215.467	51.54
215.686	2.39
215.904	-30.38
216.122	-26.28
216.341	37.2
216.559	-11.95
216.778	-3.75
216.996	-30.38
217.214	-100.01
217.432	-3.75
217.651	4.44
217.869	29.01
218.087	0.34
218.306	33.11
218.524	-3.75
218.742	-69.29
218.96	2.39
219.179	-11.95
219.397	-9.9
219.615	43.35
219.833	-11.95
220.051	-36.52
220.27	24.92
220.488	51.54
220.706	35.16
220.924	-5.8
221.142	-44.71
221.36	-52.91
221.578	-20.14
221.796	49.49
222.015	61.78
222.233	-1.71
222.451	12.63
222.669	-30.38
222.887	39.25
223.105	53.59
223.323	-100.01
223.541	-61.1
223.759	22.87
223.977	29.01
224.195	96.6
224.413	-1.71
224.631	-7.85
224.849	35.16
225.067	57.68
225.285	2.39
225.503	41.3
225.721	-24.23
225.939	53.59
226.157	-5.8
226.375	-1.71
226.592	-57
226.81	-13.99
227.028	-52.91
227.246	59.73
227.464	39.25
227.682	-3.75
227.9	47.44
228.117	16.73
228.335	8.53
228.553	-46.76
228.771	0.34
228.989	-16.04
229.206	37.2
229.424	-71.34
229.642	29.01
229.86	-3.75
230.077	57.68
230.295	57.68
230.513	18.77
230.731	24.92
230.948	43.35
231.166	86.36
231.384	22.87
231.601	-67.24
231.819	45.4
232.037	-32.43
232.254	39.25
232.472	-79.53
232.689	-20.14
232.907	35.16
233.125	-20.14
233.342	-24.23
233.56	24.92
233.777	-26.28
233.995	-32.43
234.213	33.11
234.43	39.25
234.648	35.16
234.865	-48.81
235.083	-20.14
235.3	59.73
235.518	-36.52
235.735	61.78
235.953	20.82
236.17	-42.67
236.388	-61.1
236.605	-73.39
236.822	0.34
237.04	-24.23
237.257	4.44
237.475	29.01
237.692	-1.71
237.909	59.73
238.127	47.44
238.344	35.16
238.562	2.39
238.779	-20.14
238.996	-54.95
239.214	16.73
239.431	-34.47
239.648	12.63
239.865	4.44
240.083	-3.75
240.3	51.54
240.517	57.68
240.735	20.82
240.952	53.59
241.169	-11.95
241.386	35.16
241.603	41.3
241.821	24.92
242.038	-18.09
242.255	53.59
242.472	-5.8
242.689	65.88
242.907	26.96
243.124	31.06
243.341	-16.04
243.558	-54.95
243.775	0.34
243.992	-85.67
244.209	-11.95
244.426	-1.71
244.643	-13.99
244.86	-73.39
245.078	-65.19
245.295	-24.23
245.512	-32.43
245.729	-24.23
245.946	39.25
246.163	-3.75
246.38	-20.14
246.597	43.35
246.814	41.3
247.031	-32.43
247.248	-18.09
247.464	61.78
247.681	-3.75
247.898	-73.39
248.115	-11.95
248.332	14.68
248.549	20.82
248.766	-34.47
248.983	16.73
249.2	-16.04
249.417	6.49
249.633	-57
249.85	59.73
250.067	-59.05
250.284	26.96
250.501	-20.14
250.717	65.88
250.934	35.16
251.151	8.53
251.368	-3.75
251.585	47.44
251.801	14.68
252.018	-26.28
252.235	-11.95
252.451	-5.8
252.668	-54.95
252.885	-7.85
253.102	-1.71
253.318	-36.52
253.535	-50.86
253.752	20.82
253.968	49.49
254.185	-11.95
254.401	53.59
254.618	-20.14
254.835	2.39
255.051	49.49
255.268	-11.95
255.484	45.4
255.701	6.49
255.917	14.68
256.134	-126.63
256.351	-36.52
256.567	12.63
256.784	57.68
257	18.77
257.217	-77.48
257.433	-18.09
257.65	-5.8
257.866	16.73
258.082	-26.28
258.299	-65.19
258.515	-22.19
258.732	-20.14
258.948	-40.62
259.165	-59.05
259.381	14.68
259.597	51.54
259.814	20.82
260.03	-40.62
260.246	12.63
260.463	29.01
260.679	37.2
260.895	24.92
261.112	-11.95
261.328	-40.62
261.544	-24.23
261.761	41.3
261.977	59.73
262.193	-42.67
262.409	-9.9
262.626	37.2
262.842	-48.81
263.058	37.2
263.274	-16.04
263.49	-28.33
263.707	4.44
263.923	59.73
264.139	6.49
264.355	37.2
264.571	2.39
264.787	31.06
265.004	-7.85
265.22	-3.75
265.436	-9.9
265.652	33.11
265.868	26.96
266.084	-22.19
266.3	-32.43
266.516	-3.75
266.732	-32.43
266.948	4.44
267.164	-18.09
267.38	-7.85
267.596	-46.76
267.812	78.16
268.028	35.16
268.244	43.35
268.46	65.88
268.676	-9.9
268.892	10.58
269.108	-28.33
269.324	39.25
269.54	-106.15
269.756	16.73
269.972	-65.19
270.188	31.06
270.403	-73.39
270.619	-34.47
270.835	45.4
271.051	22.87
271.267	4.44
271.483	-7.85
271.698	-13.99
271.914	49.49
272.13	-16.04
272.346	-13.99
272.562	26.96
272.777	-16.04
272.993	-28.33
273.209	18.77
273.425	6.49
273.64	45.4
273.856	18.77
274.072	-1.71
274.287	-77.48
274.503	-13.99
274.719	-28.33
274.934	37.2
275.15	2.39
275.366	-7.85
275.581	33.11
275.797	24.92
276.012	31.06
276.228	-30.38
276.444	-52.91
276.659	55.64
276.875	-42.67
277.09	-30.38
277.306	18.77
277.521	29.01
277.737	20.82
277.952	-36.52
278.168	65.88
278.383	-52.91
278.599	108.88
278.814	-28.33
279.03	-26.28
279.245	-65.19
279.461	51.54
279.676	39.25
279.892	-36.52
280.107	26.96
280.322	0.34
280.538	-59.05
280.753	10.58
280.969	-20.14
281.184	-34.47
281.399	-40.62
281.615	96.6
281.83	53.59
282.045	-32.43
282.26	-48.81
282.476	24.92
282.691	8.53
282.906	-40.62
283.122	29.01
283.337	39.25
283.552	119.12
283.767	12.63
283.983	-18.09
284.198	-44.71
284.413	-16.04
284.628	-38.57
284.843	18.77
285.058	76.12
285.274	-11.95
285.489	20.82
285.704	43.35
285.919	39.25
286.134	-18.09
286.349	14.68
286.564	-38.57
286.779	10.58
286.995	8.53
287.21	-81.58
287.425	22.87
287.64	-18.09
287.855	-54.95
288.07	41.3
288.285	-1.71
288.5	4.44
288.715	53.59
288.93	-34.47
289.145	-1.71
289.36	22.87
289.575	55.64
289.79	12.63
290.004	24.92
290.219	49.49
290.434	-46.76
290.649	-36.52
290.864	-110.25
291.079	-28.33
291.294	6.49
291.509	12.63
291.724	20.82
291.938	29.01
292.153	33.11
292.368	-16.04
292.583	2.39
292.798	-9.9
293.012	16.73
293.227	-61.1
293.442	2.39
293.657	-24.23
293.871	86.36
294.086	-18.09
294.301	-50.86
294.516	-32.43
294.73	39.25
294.945	31.06
295.16	29.01
295.374	0.34
295.589	-28.33
295.804	35.16
296.018	-57
296.233	26.96
296.447	31.06
296.662	-63.15
296.877	12.63
297.091	4.44
297.306	49.49
297.52	33.11
297.735	-5.8
297.949	-73.39
298.164	-22.19
298.378	-44.71
298.593	-26.28
298.807	-1.71
299.022	20.82
299.236	45.4
299.451	49.49
299.665	8.53
299.88	49.49
300.094	-20.14
300.309	31.06
300.523	-30.38
300.737	-1.71
300.952	16.73
301.166	10.58
301.381	-7.85
301.595	-1.71
301.809	8.53
302.024	59.73
302.238	-26.28
302.452	24.92
302.667	8.53
302.881	12.63
303.095	37.2
303.309	-20.14
303.524	-59.05
303.738	10.58
303.952	49.49
304.166	-91.82
304.381	-73.39
304.595	-9.9
304.809	24.92
305.023	-81.58
305.237	-7.85
305.452	14.68
305.666	31.06
305.88	31.06
306.094	-20.14
306.308	20.82
306.522	2.39
306.736	-65.19
306.95	0.34
307.164	8.53
307.379	-20.14
307.593	39.25
307.807	-3.75
308.021	18.77
308.235	-52.91
308.449	-22.19
308.663	-13.99
308.877	4.44
309.091	-7.85
309.305	-24.23
309.519	-79.53
309.733	63.83
309.947	-48.81
310.161	-71.34
310.374	41.3
310.588	-3.75
310.802	51.54
311.016	61.78
311.23	43.35
311.444	-36.52
311.658	4.44
311.872	41.3
312.085	-1.71
312.299	47.44
312.513	33.11
312.727	-26.28
312.941	20.82
313.154	14.68
313.368	-71.34
313.582	-46.76
313.796	-20.14
314.009	-30.38
314.223	-16.04
314.437	59.73
314.651	47.44
314.864	8.53
315.078	-11.95
315.292	12.63
315.505	0.34
315.719	102.74
315.933	65.88
316.146	12.63
316.36	-36.52
316.573	12.63
316.787	-44.71
317.001	-13.99
317.214	-20.14
317.428	88.4
317.641	-36.52
317.855	63.83
318.068	22.87
318.282	-24.23
318.495	6.49
318.709	-5.8
318.922	-61.1
319.136	41.3
319.349	-24.23
319.563	-1.71
319.776	22.87
319.99	-36.52
320.203	-11.95
320.417	43.35
320.63	2.39
320.843	10.58
321.057	39.25
321.27	-24.23
321.483	49.49
321.697	-40.62
321.91	6.49
322.124	20.82
322.337	-30.38
322.55	63.83
322.763	22.87
322.977	63.83
323.19	-16.04
323.403	-57
323.617	-44.71
323.83	86.36
324.043	-3.75
324.256	4.44
324.469	18.77
324.683	57.68
324.896	-79.53
325.109	-20.14
325.322	-3.75
325.535	14.68
325.748	41.3
325.962	53.59
326.175	-9.9
326.388	6.49
326.601	86.36
326.814	20.82
327.027	55.64
327.24	41.3
327.453	12.63
327.666	12.63
327.879	0.34
328.092	-22.19
328.305	8.53
328.518	8.53
328.731	20.82
328.944	0.34
329.157	8.53
329.37	39.25
329.583	14.68
329.796	12.63
330.009	-30.38
330.222	16.73
330.435	-52.91
330.648	-16.04
330.861	41.3
331.073	-7.85
331.286	-3.75
331.499	-26.28
331.712	-59.05
331.925	53.59
332.138	37.2
332.35	24.92
332.563	4.44
332.776	-20.14
332.989	8.53
333.202	-5.8
333.414	-24.23
333.627	26.96
333.84	-5.8
334.053	33.11
334.265	-30.38
334.478	8.53
334.691	0.34
334.903	49.49
335.116	-104.11
335.329	82.26
335.541	4.44
335.754	20.82
335.966	-40.62
336.179	0.34
336.392	-11.95
336.604	-24.23
336.817	0.34
337.029	55.64
337.242	22.87
337.454	22.87
337.667	-63.15
337.88	18.77
338.092	6.49
338.305	31.06
338.517	-112.3
338.729	33.11
338.942	-20.14
339.154	-5.8
339.367	24.92
339.579	31.06
339.792	10.58
340.004	16.73
340.217	53.59
340.429	33.11
340.641	-40.62
340.854	-16.04
341.066	14.68
341.278	24.92
341.491	106.84
341.703	-16.04
341.915	-48.81
342.128	-77.48
342.34	-50.86
342.552	-42.67
342.764	100.69
342.977	-34.47
343.189	-11.95
343.401	24.92
343.613	-26.28
343.826	-46.76
344.038	16.73
344.25	-34.47
344.462	78.16
344.674	-9.9
344.886	-13.99
345.099	43.35
345.311	12.63
345.523	6.49
345.735	-30.38
345.947	-7.85
346.159	-1.71
346.371	35.16
346.583	6.49
346.795	67.92
347.007	67.92
347.219	-3.75
347.431	16.73
347.643	90.45
347.855	-3.75
348.067	12.63
348.279	8.53
348.491	-52.91
348.703	-9.9
348.915	51.54
349.127	-5.8
349.339	-5.8
349.551	-57
349.763	39.25
349.975	-65.19
350.187	33.11
350.399	119.12
350.61	10.58
350.822	-63.15
351.034	45.4
351.246	2.39
351.458	39.25
351.669	-9.9
351.881	29.01
352.093	-7.85
352.305	61.78
352.517	16.73
352.728	61.78
352.94	-1.71
353.152	35.16
353.363	12.63
353.575	26.96
353.787	-18.09
353.999	-5.8
354.21	39.25
354.422	-83.63
354.633	88.4
354.845	24.92
355.057	-13.99
355.268	16.73
355.48	12.63
355.692	16.73
355.903	-5.8
356.115	-5.8
356.326	-30.38
356.538	20.82
356.749	12.63
356.961	18.77
357.172	18.77
357.384	53.59
357.595	35.16
357.807	16.73
358.018	33.11
358.23	12.63
358.441	49.49
358.653	10.58
358.864	26.96
359.075	10.58
359.287	-7.85
359.498	39.25
359.709	-26.28
359.921	72.02
360.132	90.45
360.344	86.36
360.555	-13.99
360.766	22.87
360.977	24.92
361.189	6.49
361.4	-13.99
361.611	63.83
361.823	-36.52
362.034	-42.67
362.245	-52.91
362.456	51.54
362.667	-5.8
362.879	-11.95
363.09	-24.23
363.301	22.87
363.512	4.44
363.723	-16.04
363.935	10.58
364.146	24.92
364.357	35.16
364.568	45.4
364.779	12.63
364.99	-44.71
365.201	-11.95
365.412	39.25
365.623	-40.62
365.834	26.96
366.045	-32.43
366.256	29.01
366.467	-59.05
366.678	31.06
366.889	-9.9
367.1	33.11
367.311	41.3
367.522	49.49
367.733	2.39
367.944	-18.09
368.155	16.73
368.366	33.11
368.577	41.3
368.788	2.39
368.999	45.4
369.209	-50.86
369.42	20.82
369.631	20.82
369.842	55.64
370.053	2.39
370.264	-3.75
370.474	-38.57
370.685	31.06
370.896	-22.19
371.107	26.96
371.317	-13.99
371.528	14.68
371.739	10.58
371.95	12.63
372.16	-26.28
372.371	-7.85
372.582	37.2
372.792	12.63
373.003	14.68
373.214	-3.75
373.424	20.82
373.635	18.77
373.846	41.3
374.056	4.44
374.267	12.63
374.477	43.35
374.688	57.68
374.898	-18.09
375.109	-24.23
375.319	4.44
375.53	-32.43
375.74	24.92
375.951	24.92
376.161	6.49
376.372	-34.47
376.582	4.44
376.793	49.49
377.003	-34.47
377.214	53.59
377.424	51.54
377.635	8.53
377.845	-22.19
378.055	57.68
378.266	6.49
378.476	31.06
378.686	6.49
378.897	29.01
379.107	26.96
379.317	2.39
379.528	45.4
379.738	18.77
379.948	-48.81
380.158	47.44
380.369	-24.23
380.579	51.54
380.789	-30.38
380.999	63.83
381.21	47.44
381.42	-20.14
381.63	4.44
381.84	88.4
382.05	0.34
382.261	-18.09
382.471	-28.33
382.681	26.96
382.891	-16.04
383.101	98.64
383.311	-16.04
383.521	-36.52
383.731	22.87
383.941	45.4
384.151	8.53
384.361	37.2
384.571	43.35
384.781	24.92
384.991	47.44
385.201	39.25
385.411	37.2
385.621	33.11
385.831	43.35
386.041	-32.43
386.251	24.92
386.461	-36.52
386.671	39.25
386.881	43.35
387.091	61.78
387.301	-18.09
387.511	-44.71
387.72	-1.71
387.93	14.68
388.14	-7.85
388.35	-11.95
388.56	0.34
388.769	53.59
388.979	35.16
389.189	-52.91
389.399	-20.14
389.609	16.73
389.818	-5.8
390.028	33.11
390.238	41.3
390.447	24.92
390.657	14.68
390.867	-7.85
391.076	-1.71
391.286	-3.75
391.496	-83.63
391.705	14.68
391.915	147.8
392.125	12.63
392.334	69.97
392.544	41.3
392.753	20.82
392.963	-69.29
393.172	33.11
393.382	-38.57
393.591	35.16
393.801	45.4
394.01	129.36
394.22	82.26
394.429	-44.71
394.639	-18.09
394.848	65.88
395.058	2.39
395.267	51.54
395.477	108.88
395.686	61.78
395.895	131.41
396.105	67.92
396.314	41.3
396.524	4.44
396.733	6.49
396.942	98.64
397.152	4.44
397.361	55.64
397.57	10.58
397.78	74.07
397.989	94.55
398.198	22.87
398.407	51.54
398.617	12.63
398.826	-1.71
399.035	43.35
399.244	72.02
399.453	96.6
399.663	102.74
399.872	55.64
400.081	92.5
400.29	112.98
400.499	0.34
400.708	57.68
400.917	31.06
401.127	20.82
401.336	65.88
401.545	80.21
401.754	57.68
401.963	35.16
402.172	69.97
402.381	41.3
402.59	2.39
402.799	53.59
403.008	14.68
403.217	86.36
403.426	24.92
403.635	51.54
403.844	14.68
404.053	65.88
404.262	63.83
404.471	-20.14
404.68	74.07
404.888	76.12
405.097	31.06
405.306	106.84
405.515	123.22
405.724	63.83
405.933	96.6
406.142	74.07
406.35	2.39
406.559	135.51
406.768	123.22
406.977	55.64
407.185	57.68
407.394	129.36
407.603	92.5
407.812	61.78
408.02	100.69
408.229	121.17
408.438	119.12
408.646	110.93
408.855	117.08
409.064	149.84
409.272	110.93
409.481	145.75
409.69	90.45
409.898	57.68
410.107	149.84
410.315	151.89
410.524	145.75
410.733	155.99
410.941	186.71
411.15	129.36
411.358	244.05
411.567	141.65
411.775	184.66
411.984	246.1
412.192	205.14
412.401	198.99
412.609	254.29
412.818	203.09
413.026	340.3
413.234	289.1
413.443	289.1
413.651	287.06
413.86	305.49
414.068	315.73
414.276	328.02
414.485	268.63
414.693	379.22
414.901	389.46
415.11	465.23
415.318	321.87
415.526	395.6
415.734	399.7
415.943	397.65
416.151	524.62
416.359	477.52
416.567	508.24
416.776	549.2
416.984	442.7
417.192	592.2
417.4	489.81
417.608	565.58
417.817	545.1
418.025	659.79
418.233	557.39
418.441	614.73
418.649	686.41
418.857	784.71
419.065	706.89
419.273	725.32
419.481	733.51
419.689	743.75
419.897	891.21
420.105	854.34
420.313	868.68
420.521	903.5
420.729	1022.28
420.937	860.49
421.145	958.79
421.353	1061.19
421.561	997.7
421.769	1136.96
421.977	1243.46
422.185	1130.82
422.393	1169.73
422.601	1257.79
422.809	1274.18
423.017	1311.04
423.224	1304.9
423.432	1216.83
423.64	1378.62
423.848	1489.21
424.056	1419.58
424.263	1558.85
424.471	1532.22
424.679	1603.9
424.887	1657.15
425.094	1761.59
425.302	1769.79
425.51	1724.73
425.718	1868.09
425.925	1749.31
426.133	1902.9
426.341	2015.54
426.548	2206
426.756	2169.14
426.964	2156.85
427.171	2261.3
427.379	2300.21
427.586	2515.25
427.794	2421.04
428.001	2578.73
428.209	2677.04
428.417	2623.79
428.624	2912.55
428.832	2765.1
429.039	2810.15
429.247	2859.31
429.454	3068.2
429.662	3373.35
429.869	3098.92
430.076	3334.43
430.284	3043.62
430.491	3340.58
430.699	3518.75
430.906	3723.55
431.114	3572
431.321	3711.26
431.528	3774.75
431.736	4081.94
431.943	4088.09
432.15	4047.13
432.358	4081.94
432.565	4354.32
432.772	4397.33
432.979	4530.45
433.187	4669.71
433.394	4589.84
433.601	4833.55
433.808	5077.26
434.016	4940.04
434.223	5089.54
434.43	5460.23
434.637	5411.07
434.844	5708.03
435.052	5775.61
435.259	5812.48
435.466	5744.89
435.673	5832.96
435.88	6275.32
436.087	6572.27
436.294	6435.06
436.501	6244.6
436.708	6424.82
436.915	6672.62
437.122	6990.06
437.329	6910.19
437.537	7155.94
437.743	7405.8
437.95	7330.02
438.157	7489.76
438.364	7868.64
438.571	7688.42
438.778	7665.89
438.985	8710.35
439.192	8362.2
439.399	8480.98
439.606	8354.01
439.813	8773.84
440.02	9396.42
440.227	9087.18
440.433	9042.12
440.64	9355.46
440.847	9369.8
441.054	9597.12
441.261	10238.14
441.467	10117.31
441.674	10303.67
441.881	10791.09
442.088	10690.74
442.294	10569.91
442.501	10950.83
442.708	11055.28
442.914	11407.53
443.121	11741.35
443.328	11477.16
443.534	12361.88
443.741	12187.8
443.948	11622.56
444.154	12826.77
444.361	12628.12
444.568	12931.22
444.774	12830.87
444.981	12900.5
445.187	13248.65
445.394	13865.09
445.6	13682.82
445.807	14876.79
446.013	14379.13
446.22	14581.88
446.426	15237.23
446.633	15304.81
446.839	15550.57
447.046	14995.57
447.252	16046.18
447.459	15958.11
447.665	15730.79
447.871	16760.92
448.078	17154.13
448.284	16363.61
448.491	16998.48
448.697	17659.98
448.903	17789
449.11	17739.85
449.316	17426.51
449.522	17958.98
449.728	18284.61
449.935	18405.44
450.141	18430.01
450.347	18587.71
450.553	18407.48
450.76	18550.84
450.966	19167.28
451.172	18634.81
451.378	19329.07
451.584	18798.65
451.791	19640.36
451.997	19271.73
452.203	19656.75
452.409	19613.74
452.615	19404.85
452.821	18788.41
453.027	18565.18
453.233	19796.01
453.44	18804.79
453.646	19091.51
453.852	19103.79
454.058	19355.69
454.264	18884.66
454.47	19017.78
454.676	18493.5
454.882	19163.18
455.088	17733.7
455.294	17571.91
455.5	18128.96
455.705	18440.25
455.911	17526.86
456.117	17219.66
456.323	17064.02
456.529	15859.81
456.735	16666.71
456.941	16334.94
457.147	15929.44
457.352	15472.75
457.558	15224.94
457.764	15376.49
457.97	14907.51
458.176	14651.51
458.381	14631.03
458.587	14039.17
458.793	13781.12
458.999	13238.41
459.204	14116.99
459.41	13912.19
459.616	12904.59
459.821	12972.18
460.027	12945.55
460.233	12451.99
460.438	11841.7
460.644	11933.86
460.85	11403.43
461.055	11399.34
461.261	11196.59
461.466	10571.96
461.672	10119.35
461.878	10784.94
462.083	10131.64
462.289	9937.09
462.494	9859.26
462.7	9470.15
462.905	9371.85
463.111	9482.44
463.316	9529.54
463.522	9414.85
463.727	9435.33
463.932	9279.69
464.138	9279.69
464.343	9273.54
464.549	9267.4
464.754	9529.54
464.959	9220.3
465.165	9306.31
465.37	8769.74
465.575	8407.25
465.781	8810.7
465.986	9103.56
466.191	8812.75
466.397	8329.43
466.602	8052.95
466.807	8411.35
467.012	8290.52
467.218	8460.5
467.423	8302.81
467.628	8284.37
