Data from USB4F104151__74__11-06-19-884.txt Node

Date: Wed Mar 12 11:06:19 EDT 2025
User: louis
Spectrometer: USB4F10415
Trigger mode: 4
Integration Time (sec): 2.000000E-2
Scans to average: 1
Electric dark correction enabled: true
Nonlinearity correction enabled: false
Boxcar width: 0
XAxis mode: Wavelengths
Number of Pixels in Spectrum: 3648
>>>>>Begin Spectral Data<<<<<
178.204	-75.77
178.424	-75.77
178.644	-75.77
178.864	-131.07
179.084	-36.86
179.304	53.25
179.524	-36.86
179.744	30.72
179.964	55.3
180.184	-12.29
180.404	12.29
180.624	-24.58
180.844	-20.48
181.064	-59.39
181.283	16.38
181.503	-40.96
181.723	26.62
181.943	-47.1
182.163	28.67
182.383	-18.43
182.602	-2.05
182.822	22.53
183.042	45.06
183.262	-4.1
183.482	-55.3
183.701	-59.39
183.921	-55.3
184.141	-36.86
184.361	36.86
184.58	-38.91
184.8	-4.1
185.02	-4.1
185.239	30.72
185.459	-30.72
185.679	-16.38
185.898	0
186.118	55.3
186.338	-65.53
186.557	6.14
186.777	8.19
186.997	-8.19
187.216	18.43
187.436	-28.67
187.655	28.67
187.875	-32.77
188.095	-22.53
188.314	-59.39
188.534	38.91
188.753	0
188.973	88.06
189.192	18.43
189.412	-63.49
189.631	14.34
189.851	4.1
190.07	-55.3
190.29	-2.05
190.509	-38.91
190.729	8.19
190.948	0
191.168	16.38
191.387	118.78
191.607	73.73
191.826	59.39
192.045	-28.67
192.265	94.21
192.484	12.29
192.704	-14.34
192.923	20.48
193.142	43.01
193.362	53.25
193.581	137.21
193.8	26.62
194.02	20.48
194.239	14.34
194.458	14.34
194.678	-20.48
194.897	2.05
195.116	-14.34
195.335	26.62
195.555	49.15
195.774	-2.05
195.993	94.21
196.212	-40.96
196.432	14.34
196.651	40.96
196.87	-30.72
197.089	45.06
197.308	24.58
197.528	24.58
197.747	-38.91
197.966	10.24
198.185	28.67
198.404	-45.06
198.623	16.38
198.842	-18.43
199.062	-4.1
199.281	-2.05
199.5	-16.38
199.719	-4.1
199.938	-8.19
200.157	67.58
200.376	47.1
200.595	59.39
200.814	-8.19
201.033	-2.05
201.252	71.68
201.471	32.77
201.69	22.53
201.909	-12.29
202.128	49.15
202.347	-22.53
202.566	-22.53
202.785	-36.86
203.004	12.29
203.223	6.14
203.442	30.72
203.661	-14.34
203.879	6.14
204.098	22.53
204.317	-47.1
204.536	65.54
204.755	61.44
204.974	-32.77
205.193	26.62
205.411	67.58
205.63	-36.86
205.849	10.24
206.068	8.19
206.287	45.06
206.505	59.39
206.724	-20.48
206.943	45.06
207.162	-38.91
207.381	53.25
207.599	-12.29
207.818	24.58
208.037	-8.19
208.255	-4.1
208.474	43.01
208.693	53.25
208.911	-6.14
209.13	-18.43
209.349	88.06
209.567	16.38
209.786	59.39
210.005	6.14
210.223	26.62
210.442	57.34
210.661	18.43
210.879	-16.38
211.098	92.16
211.316	18.43
211.535	22.53
211.753	-73.73
211.972	8.19
212.191	-22.53
212.409	65.54
212.628	59.39
212.846	12.29
213.065	20.48
213.283	71.68
213.502	26.62
213.72	4.1
213.938	36.86
214.157	-2.05
214.375	38.91
214.594	14.34
214.812	12.29
215.031	-8.19
215.249	57.34
215.467	59.39
215.686	34.82
215.904	18.43
216.122	47.1
216.341	30.72
216.559	-2.05
216.778	61.44
216.996	18.43
217.214	-36.86
217.432	38.91
217.651	49.15
217.869	61.44
218.087	61.44
218.306	-16.38
218.524	73.73
218.742	28.67
218.96	18.43
219.179	4.1
219.397	20.48
219.615	61.44
219.833	40.96
220.051	-36.86
220.27	88.06
220.488	28.67
220.706	47.1
220.924	-4.1
221.142	49.15
221.36	61.44
221.578	-65.53
221.796	43.01
222.015	14.34
222.233	36.86
222.451	-69.63
222.669	-18.43
222.887	-57.34
223.105	-10.24
223.323	-8.19
223.541	-22.53
223.759	8.19
223.977	-6.14
224.195	-12.29
224.413	12.29
224.631	8.19
224.849	86.01
225.067	126.97
225.285	-26.62
225.503	-45.06
225.721	-65.53
225.939	-49.15
226.157	-32.77
226.375	51.2
226.592	-2.05
226.81	28.67
227.028	4.1
227.246	59.39
227.464	-6.14
227.682	10.24
227.9	-16.38
228.117	-81.92
228.335	-16.38
228.553	2.05
228.771	110.59
228.989	45.06
229.206	20.48
229.424	14.34
229.642	-45.06
229.86	8.19
230.077	0
230.295	-8.19
230.513	-32.77
230.731	-18.43
230.948	75.77
231.166	69.63
231.384	-16.38
231.601	16.38
231.819	30.72
232.037	-14.34
232.254	69.63
232.472	53.25
232.689	18.43
232.907	71.68
233.125	0
233.342	-24.58
233.56	-67.58
233.777	-12.29
233.995	36.86
234.213	2.05
234.43	71.68
234.648	-57.34
234.865	36.86
235.083	40.96
235.3	-18.43
235.518	6.14
235.735	34.82
235.953	53.25
236.17	45.06
236.388	73.73
236.605	49.15
236.822	81.92
237.04	-16.38
237.257	65.54
237.475	12.29
237.692	81.92
237.909	24.58
238.127	22.53
238.344	34.82
238.562	-22.53
238.779	-24.58
238.996	-4.1
239.214	96.25
239.431	36.86
239.648	-49.15
239.865	73.73
240.083	26.62
240.3	4.1
240.517	-38.91
240.735	-10.24
240.952	63.49
241.169	53.25
241.386	30.72
241.603	38.91
241.821	18.43
242.038	49.15
242.255	32.77
242.472	-4.1
242.689	49.15
242.907	20.48
243.124	36.86
243.341	36.86
243.558	59.39
243.775	-28.67
243.992	69.63
244.209	6.14
244.426	40.96
244.643	22.53
244.86	2.05
245.078	8.19
245.295	14.34
245.512	12.29
245.729	32.77
245.946	26.62
246.163	106.49
246.38	-53.25
246.597	-12.29
246.814	71.68
247.031	0
247.248	10.24
247.464	51.2
247.681	-12.29
247.898	16.38
248.115	8.19
248.332	-22.53
248.549	71.68
248.766	16.38
248.983	55.3
249.2	63.49
249.417	55.3
249.633	43.01
249.85	12.29
250.067	2.05
250.284	-6.14
250.501	67.58
250.717	36.86
250.934	40.96
251.151	-30.72
251.368	2.05
251.585	47.1
251.801	49.15
252.018	26.62
252.235	-20.48
252.451	-32.77
252.668	75.77
252.885	43.01
253.102	81.92
253.318	-2.05
253.535	-22.53
253.752	28.67
253.968	53.25
254.185	-20.48
254.401	-59.39
254.618	12.29
254.835	28.67
255.051	94.21
255.268	-2.05
255.484	88.06
255.701	77.82
255.917	26.62
256.134	-4.1
256.351	-6.14
256.567	18.43
256.784	28.67
257	-38.91
257.217	92.16
257.433	4.1
257.65	22.53
257.866	34.82
258.082	69.63
258.299	22.53
258.515	-12.29
258.732	8.19
258.948	-24.58
259.165	-4.1
259.381	34.82
259.597	-6.14
259.814	18.43
260.03	0
260.246	49.15
260.463	-4.1
260.679	38.91
260.895	38.91
261.112	36.86
261.328	20.48
261.544	40.96
261.761	73.73
261.977	-10.24
262.193	-57.34
262.409	75.77
262.626	-28.67
262.842	-34.82
263.058	-12.29
263.274	40.96
263.49	24.58
263.707	-12.29
263.923	-26.62
264.139	4.1
264.355	-53.25
264.571	65.54
264.787	-8.19
265.004	71.68
265.22	26.62
265.436	86.01
265.652	47.1
265.868	22.53
266.084	-59.39
266.3	47.1
266.516	-14.34
266.732	32.77
266.948	-22.53
267.164	-75.77
267.38	-6.14
267.596	-6.14
267.812	32.77
268.028	59.39
268.244	22.53
268.46	73.73
268.676	20.48
268.892	112.64
269.108	0
269.324	61.44
269.54	43.01
269.756	49.15
269.972	-61.44
270.188	53.25
270.403	-34.82
270.619	61.44
270.835	-24.58
271.051	-28.67
271.267	-18.43
271.483	51.2
271.698	65.54
271.914	36.86
272.13	-20.48
272.346	0
272.562	57.34
272.777	38.91
272.993	-6.14
273.209	-18.43
273.425	67.58
273.64	-30.72
273.856	73.73
274.072	22.53
274.287	16.38
274.503	75.77
274.719	40.96
274.934	34.82
275.15	-53.25
275.366	36.86
275.581	40.96
275.797	38.91
276.012	-4.1
276.228	77.82
276.444	-2.05
276.659	45.06
276.875	51.2
277.09	-14.34
277.306	-22.53
277.521	-40.96
277.737	8.19
277.952	4.1
278.168	96.25
278.383	28.67
278.599	-30.72
278.814	16.38
279.03	102.4
279.245	43.01
279.461	30.72
279.676	-14.34
279.892	20.48
280.107	-28.67
280.322	16.38
280.538	51.2
280.753	-2.05
280.969	-18.43
281.184	8.19
281.399	-10.24
281.615	36.86
281.83	40.96
282.045	-34.82
282.26	34.82
282.476	14.34
282.691	-36.86
282.906	47.1
283.122	-8.19
283.337	-24.58
283.552	-20.48
283.767	-14.34
283.983	47.1
284.198	18.43
284.413	28.67
284.628	81.92
284.843	59.39
285.058	4.1
285.274	40.96
285.489	61.44
285.704	63.49
285.919	51.2
286.134	49.15
286.349	24.58
286.564	6.14
286.779	77.82
286.995	67.58
287.21	-24.58
287.425	24.58
287.64	-14.34
287.855	40.96
288.07	-2.05
288.285	59.39
288.5	45.06
288.715	0
288.93	-6.14
289.145	-18.43
289.36	-4.1
289.575	83.97
289.79	-30.72
290.004	-10.24
290.219	122.88
290.434	2.05
290.649	22.53
290.864	-2.05
291.079	45.06
291.294	36.86
291.509	73.73
291.724	18.43
291.938	61.44
292.153	40.96
292.368	28.67
292.583	-26.62
292.798	20.48
293.012	47.1
293.227	14.34
293.442	47.1
293.657	36.86
293.871	45.06
294.086	-16.38
294.301	71.68
294.516	57.34
294.73	57.34
294.945	-24.58
295.16	-22.53
295.374	18.43
295.589	69.63
295.804	43.01
296.018	36.86
296.233	4.1
296.447	-16.38
296.662	-4.1
296.877	69.63
297.091	45.06
297.306	53.25
297.52	28.67
297.735	12.29
297.949	2.05
298.164	10.24
298.378	49.15
298.593	14.34
298.807	86.01
299.022	8.19
299.236	28.67
299.451	28.67
299.665	100.35
299.88	-2.05
300.094	20.48
300.309	63.49
300.523	-14.34
300.737	-65.53
300.952	30.72
301.166	8.19
301.381	-6.14
301.595	20.48
301.809	61.44
302.024	8.19
302.238	-43.01
302.452	36.86
302.667	86.01
302.881	102.4
303.095	59.39
303.309	-16.38
303.524	43.01
303.738	20.48
303.952	-20.48
304.166	-40.96
304.381	-6.14
304.595	92.16
304.809	2.05
305.023	8.19
305.237	36.86
305.452	67.58
305.666	6.14
305.88	102.4
306.094	57.34
306.308	14.34
306.522	8.19
306.736	-20.48
306.95	79.87
307.164	-20.48
307.379	73.73
307.593	45.06
307.807	51.2
308.021	43.01
308.235	8.19
308.449	45.06
308.663	71.68
308.877	38.91
309.091	67.58
309.305	20.48
309.519	-12.29
309.733	55.3
309.947	22.53
310.161	38.91
310.374	43.01
310.588	28.67
310.802	-8.19
311.016	49.15
311.23	36.86
311.444	61.44
311.658	2.05
311.872	32.77
312.085	116.73
312.299	71.68
312.513	-18.43
312.727	2.05
312.941	40.96
313.154	30.72
313.368	-45.06
313.582	-12.29
313.796	-47.1
314.009	-18.43
314.223	59.39
314.437	20.48
314.651	0
314.864	-16.38
315.078	71.68
315.292	-59.39
315.505	69.63
315.719	24.58
315.933	114.69
316.146	6.14
316.36	2.05
316.573	26.62
316.787	67.58
317.001	96.25
317.214	34.82
317.428	55.3
317.641	-38.91
317.855	47.1
318.068	16.38
318.282	8.19
318.495	43.01
318.709	65.54
318.922	59.39
319.136	147.45
319.349	40.96
319.563	53.25
319.776	86.01
319.99	77.82
320.203	-22.53
320.417	112.64
320.63	2.05
320.843	73.73
321.057	30.72
321.27	-8.19
321.483	20.48
321.697	112.64
321.91	81.92
322.124	12.29
322.337	63.49
322.55	-65.53
322.763	43.01
322.977	30.72
323.19	32.77
323.403	77.82
323.617	20.48
323.83	30.72
324.043	53.25
324.256	53.25
324.469	-26.62
324.683	61.44
324.896	16.38
325.109	4.1
325.322	59.39
325.535	106.49
325.748	20.48
325.962	-8.19
326.175	14.34
326.388	-26.62
326.601	67.58
326.814	65.54
327.027	92.16
327.24	112.64
327.453	-22.53
327.666	92.16
327.879	106.49
328.092	-14.34
328.305	-4.1
328.518	45.06
328.731	2.05
328.944	-104.45
329.157	73.73
329.37	73.73
329.583	34.82
329.796	24.58
330.009	30.72
330.222	75.77
330.435	45.06
330.648	18.43
330.861	43.01
331.073	100.35
331.286	92.16
331.499	104.45
331.712	22.53
331.925	-2.05
332.138	30.72
332.35	26.62
332.563	45.06
332.776	24.58
332.989	94.21
333.202	-45.06
333.414	51.2
333.627	79.87
333.84	-36.86
334.053	6.14
334.265	12.29
334.478	36.86
334.691	73.73
334.903	8.19
335.116	-20.48
335.329	102.4
335.541	45.06
335.754	36.86
335.966	-12.29
336.179	-40.96
336.392	57.34
336.604	24.58
336.817	32.77
337.029	77.82
337.242	12.29
337.454	30.72
337.667	34.82
337.88	14.34
338.092	57.34
338.305	-14.34
338.517	38.91
338.729	71.68
338.942	79.87
339.154	-61.44
339.367	22.53
339.579	14.34
339.792	26.62
340.004	69.63
340.217	12.29
340.429	69.63
340.641	45.06
340.854	90.11
341.066	-4.1
341.278	143.36
341.491	32.77
341.703	79.87
341.915	47.1
342.128	6.14
342.34	16.38
342.552	-6.14
342.764	83.97
342.977	79.87
343.189	34.82
343.401	47.1
343.613	14.34
343.826	86.01
344.038	51.2
344.25	8.19
344.462	28.67
344.674	92.16
344.886	-24.58
345.099	26.62
345.311	24.58
345.523	38.91
345.735	77.82
345.947	-2.05
346.159	-38.91
346.371	-4.1
346.583	28.67
346.795	88.06
347.007	40.96
347.219	22.53
347.431	59.39
347.643	135.17
347.855	8.19
348.067	55.3
348.279	45.06
348.491	69.63
348.703	104.45
348.915	47.1
349.127	12.29
349.339	22.53
349.551	88.06
349.763	57.34
349.975	36.86
350.187	86.01
350.399	28.67
350.61	77.82
350.822	73.73
351.034	51.2
351.246	47.1
351.458	104.45
351.669	51.2
351.881	20.48
352.093	69.63
352.305	81.92
352.517	92.16
352.728	14.34
352.94	45.06
353.152	92.16
353.363	61.44
353.575	20.48
353.787	110.59
353.999	10.24
354.21	49.15
354.422	36.86
354.633	20.48
354.845	-65.53
355.057	26.62
355.268	20.48
355.48	43.01
355.692	77.82
355.903	34.82
356.115	-4.1
356.326	-6.14
356.538	30.72
356.749	47.1
356.961	110.59
357.172	34.82
357.384	32.77
357.595	43.01
357.807	57.34
358.018	73.73
358.23	-47.1
358.441	-18.43
358.653	67.58
358.864	45.06
359.075	32.77
359.287	32.77
359.498	137.21
359.709	-2.05
359.921	-12.29
360.132	10.24
360.344	110.59
360.555	36.86
360.766	34.82
360.977	159.74
361.189	106.49
361.4	2.05
361.611	22.53
361.823	36.86
362.034	40.96
362.245	10.24
362.456	83.97
362.667	51.2
362.879	67.58
363.09	26.62
363.301	53.25
363.512	45.06
363.723	-12.29
363.935	43.01
364.146	30.72
364.357	83.97
364.568	133.12
364.779	-18.43
364.99	98.3
365.201	53.25
365.412	92.16
365.623	83.97
365.834	14.34
366.045	12.29
366.256	2.05
366.467	65.54
366.678	2.05
366.889	22.53
367.1	28.67
367.311	51.2
367.522	-45.06
367.733	6.14
367.944	65.54
368.155	65.54
368.366	83.97
368.577	4.1
368.788	55.3
368.999	131.07
369.209	-18.43
369.42	81.92
369.631	116.73
369.842	32.77
370.053	-24.58
370.264	36.86
370.474	8.19
370.685	-24.58
370.896	49.15
371.107	75.77
371.317	90.11
371.528	28.67
371.739	151.55
371.95	96.25
372.16	108.54
372.371	36.86
372.582	-65.53
372.792	61.44
373.003	12.29
373.214	40.96
373.424	106.49
373.635	-36.86
373.846	4.1
374.056	47.1
374.267	106.49
374.477	-18.43
374.688	-24.58
374.898	67.58
375.109	47.1
375.319	49.15
375.53	100.35
375.74	61.44
375.951	-10.24
376.161	-32.77
376.372	71.68
376.582	67.58
376.793	16.38
377.003	34.82
377.214	71.68
377.424	53.25
377.635	104.45
377.845	71.68
378.055	96.25
378.266	8.19
378.476	30.72
378.686	102.4
378.897	26.62
379.107	94.21
379.317	67.58
379.528	96.25
379.738	86.01
379.948	81.92
380.158	45.06
380.369	65.54
380.579	6.14
380.789	32.77
380.999	34.82
381.21	49.15
381.42	118.78
381.63	43.01
381.84	53.25
382.05	61.44
382.261	112.64
382.471	110.59
382.681	59.39
382.891	79.87
383.101	86.01
383.311	45.06
383.521	-8.19
383.731	57.34
383.941	40.96
384.151	57.34
384.361	77.82
384.571	96.25
384.781	145.41
384.991	116.73
385.201	73.73
385.411	61.44
385.621	0
385.831	63.49
386.041	38.91
386.251	43.01
386.461	43.01
386.671	12.29
386.881	20.48
387.091	55.3
387.301	28.67
387.511	55.3
387.72	116.73
387.93	45.06
388.14	14.34
388.35	65.54
388.56	178.17
388.769	40.96
388.979	77.82
389.189	110.59
389.399	73.73
389.609	83.97
389.818	57.34
390.028	86.01
390.238	40.96
390.447	51.2
390.657	106.49
390.867	65.54
391.076	45.06
391.286	106.49
391.496	73.73
391.705	100.35
391.915	59.39
392.125	126.97
392.334	133.12
392.544	129.02
392.753	124.93
392.963	43.01
393.172	32.77
393.382	57.34
393.591	167.93
393.801	47.1
394.01	124.93
394.22	108.54
394.429	63.49
394.639	86.01
394.848	63.49
395.058	86.01
395.267	112.64
395.477	86.01
395.686	90.11
395.895	198.65
396.105	126.97
396.314	192.51
396.524	155.65
396.733	65.54
396.942	192.51
397.152	86.01
397.361	137.21
397.57	126.97
397.78	94.21
397.989	65.54
398.198	108.54
398.407	116.73
398.617	86.01
398.826	16.38
399.035	112.64
399.244	141.31
399.453	110.59
399.663	157.69
399.872	192.51
400.081	110.59
400.29	96.25
400.499	124.93
400.708	108.54
400.917	129.02
401.127	79.87
401.336	151.55
401.545	188.41
401.754	137.21
401.963	145.41
402.172	137.21
402.381	75.77
402.59	96.25
402.799	194.56
403.008	139.26
403.217	167.93
403.426	176.13
403.635	182.27
403.844	184.32
404.053	159.74
404.262	126.97
404.471	204.8
404.68	174.08
404.888	147.45
405.097	180.22
405.306	233.47
405.515	245.76
405.724	196.61
405.933	192.51
406.142	210.94
406.35	217.08
406.559	192.51
406.768	215.04
406.977	288.76
407.185	264.19
407.394	260.09
407.603	233.47
407.812	296.96
408.02	245.76
408.229	260.09
408.438	391.16
408.646	299
408.855	305.15
409.064	284.67
409.272	284.67
409.481	378.87
409.69	372.73
409.898	376.83
410.107	423.93
410.315	391.16
410.524	335.87
410.733	473.08
410.941	344.06
411.15	434.17
411.358	501.75
411.567	528.38
411.775	534.52
411.984	507.9
412.192	632.82
412.401	509.94
412.609	575.48
412.818	653.3
413.026	583.67
413.234	677.88
413.443	747.51
413.651	616.44
413.86	686.07
414.068	800.76
414.276	921.59
414.485	825.33
414.693	860.15
414.901	868.34
415.11	890.87
415.318	882.67
415.526	978.93
415.734	1019.89
415.943	980.98
416.151	1042.42
416.359	1064.94
416.567	1054.7
416.776	1279.98
416.984	1306.6
417.192	1433.58
417.4	1363.95
417.608	1353.71
417.817	1392.62
418.025	1509.35
418.233	1654.76
418.441	1515.5
418.649	1619.94
418.857	1738.73
419.065	1742.82
419.273	1673.19
419.481	1787.88
419.689	1861.6
419.897	2078.69
420.105	2058.21
420.313	2099.17
420.521	2111.46
420.729	2250.72
420.937	2263.01
421.145	2318.3
421.353	2412.51
421.561	2574.3
421.769	2830.29
421.977	2674.65
422.185	2719.7
422.393	2770.9
422.601	3069.91
422.809	3172.3
423.017	3059.67
423.224	3129.3
423.432	3403.72
423.64	3194.83
423.848	3553.23
424.056	3626.95
424.263	3811.27
424.471	3831.75
424.679	4061.12
424.887	4186.05
425.094	4235.2
425.302	4235.2
425.51	4528.06
425.718	4534.2
425.925	4730.81
426.133	4951.99
426.341	5134.26
426.548	5089.2
426.756	5347.25
426.964	5322.67
427.171	5646.25
427.379	5965.73
427.586	5994.4
427.794	6180.77
428.001	6406.05
428.209	6477.73
428.417	6569.88
428.624	7002.01
428.832	6913.94
429.039	6907.8
429.247	7165.84
429.454	7733.13
429.662	8210.31
429.869	7782.28
430.076	8114.05
430.284	8007.56
430.491	8341.38
430.699	8847.22
430.906	8775.55
431.114	8941.43
431.321	9066.36
431.528	9408.37
431.736	10176.36
431.943	10479.46
432.15	10344.29
432.358	10424.16
432.565	10819.42
432.772	10985.3
432.979	11667.28
433.187	11708.24
433.394	11605.84
433.601	12439.36
433.808	12461.89
434.016	12666.69
434.223	12945.21
434.43	13719.34
434.637	13377.33
434.844	14272.29
435.052	14849.82
435.259	14352.16
435.466	14583.59
435.673	14604.07
435.88	15453.97
436.087	16211.72
436.294	16381.7
436.501	15910.67
436.708	16432.9
436.915	16664.32
437.122	17551.09
437.329	17481.46
437.537	18085.61
437.743	18282.22
437.95	18116.33
438.157	19109.6
438.364	19766.99
438.571	19513.05
438.778	20045.52
438.985	21685.94
439.192	20862.66
439.399	21741.24
439.606	21114.56
439.813	22286
440.02	23815.83
440.227	22996.64
440.433	22955.68
440.64	23938.71
440.847	23516.83
441.054	24059.54
441.261	25951.86
441.467	25161.34
441.674	25960.05
441.881	26842.73
442.088	26783.34
442.294	26574.44
442.501	27156.07
442.708	27809.37
442.914	29154.88
443.121	30170.68
443.328	29431.36
443.534	31600.16
443.741	30694.96
443.948	30158.39
444.154	32253.46
444.361	32278.04
444.568	32353.81
444.774	32149.01
444.981	32931.34
445.187	33498.62
445.394	35380.71
445.6	34207.22
445.807	38174.14
446.013	36191.7
446.22	37156.3
446.426	38591.92
446.633	38540.72
446.839	39806.37
447.046	38622.64
447.252	40277.4
447.459	40586.64
447.665	40367.51
447.871	42067.33
448.078	43722.08
448.284	41424.26
448.491	42941.81
448.697	44471.64
448.903	45075.79
449.11	45413.71
449.316	44203.36
449.522	45129.04
449.728	46302.53
449.935	46449.98
450.141	46708.02
450.347	47637.8
450.553	46519.61
450.76	46507.32
450.966	48225.57
451.172	47289.65
451.378	48694.55
451.584	47990.05
451.791	48510.24
451.997	48160.03
452.203	49288.46
452.409	49157.39
452.615	48766.23
452.821	47256.88
453.027	46691.64
453.233	48835.86
453.44	46773.56
453.646	47957.28
453.852	47662.38
454.058	48481.56
454.264	46560.57
454.47	47906.08
454.676	46865.72
454.882	48311.58
455.088	44240.22
455.294	44825.94
455.5	45589.83
455.705	45753.67
455.911	43937.12
456.117	43038.06
456.323	42900.85
456.529	40220.06
456.735	41627.01
456.941	40687
457.147	40226.2
457.352	39003.56
457.558	38497.72
457.764	38481.33
457.97	37832.13
458.176	36994.51
458.381	37045.71
458.587	35112.42
458.793	35464.67
458.999	33594.88
459.204	35816.93
459.41	34862.57
459.616	32243.22
459.821	32525.84
460.027	32417.3
460.233	31682.08
460.438	30336.56
460.644	30512.69
460.85	29042.24
461.055	29011.53
461.261	28681.8
461.466	26361.45
461.672	25656.95
461.878	27588.19
462.083	25839.22
462.289	25251.45
462.494	25026.18
462.7	24200.85
462.905	23588.5
463.111	24229.52
463.316	24299.15
463.522	23867.03
463.727	23725.72
463.932	23936.66
464.138	23457.43
464.343	23565.98
464.549	22877.86
464.754	23731.86
464.959	23350.94
465.165	23465.63
465.37	22492.84
465.575	21714.61
465.781	22666.92
465.986	22832.8
466.191	21919.41
466.397	21610.17
466.602	20596.42
466.807	21216.96
467.012	21520.06
