Data from USB4F104151__145__11-08-12-852.txt Node

Date: Wed Mar 12 11:08:12 EDT 2025
User: louis
Spectrometer: USB4F10415
Trigger mode: 4
Integration Time (sec): 2.000000E-2
Scans to average: 1
Electric dark correction enabled: true
Nonlinearity correction enabled: false
Boxcar width: 0
XAxis mode: Wavelengths
Number of Pixels in Spectrum: 3648
>>>>>Begin Spectral Data<<<<<
178.204	-30.38
178.424	-30.38
178.644	-30.38
178.864	-112.3
179.084	-91.82
179.304	-13.99
179.524	45.4
179.744	0.34
179.964	31.06
180.184	2.39
180.404	59.73
180.624	-36.52
180.844	-1.71
181.064	-11.95
181.283	-44.71
181.503	12.63
181.723	-42.67
181.943	-5.8
182.163	8.53
182.383	2.39
182.602	115.03
182.822	12.63
183.042	26.96
183.262	45.4
183.482	26.96
183.701	39.25
183.921	-30.38
184.141	57.68
184.361	20.82
184.58	-26.28
184.8	22.87
185.02	82.26
185.239	63.83
185.459	-7.85
185.679	45.4
185.898	-69.29
186.118	20.82
186.338	49.49
186.557	10.58
186.777	-20.14
186.997	4.44
187.216	-36.52
187.436	143.7
187.655	18.77
187.875	33.11
188.095	53.59
188.314	4.44
188.534	8.53
188.753	20.82
188.973	-57
189.192	41.3
189.412	63.83
189.631	59.73
189.851	86.36
190.07	61.78
190.29	-7.85
190.509	41.3
190.729	143.7
190.948	117.08
191.168	88.4
191.387	55.64
191.607	20.82
191.826	57.68
192.045	57.68
192.265	26.96
192.484	61.78
192.704	49.49
192.923	-52.91
193.142	117.08
193.362	33.11
193.581	110.93
193.8	26.96
194.02	41.3
194.239	55.64
194.458	63.83
194.678	-54.95
194.897	35.16
195.116	53.59
195.335	123.22
195.555	20.82
195.774	20.82
195.993	16.73
196.212	51.54
196.432	16.73
196.651	47.44
196.87	-5.8
197.089	80.21
197.308	43.35
197.528	12.63
197.747	51.54
197.966	-13.99
198.185	-7.85
198.404	39.25
198.623	6.49
198.842	35.16
199.062	-5.8
199.281	117.08
199.5	2.39
199.719	-5.8
199.938	22.87
200.157	84.31
200.376	6.49
200.595	112.98
200.814	69.97
201.033	57.68
201.252	-5.8
201.471	20.82
201.69	82.26
201.909	57.68
202.128	-28.33
202.347	53.59
202.566	14.68
202.785	39.25
203.004	49.49
203.223	94.55
203.442	-26.28
203.661	35.16
203.879	51.54
204.098	55.64
204.317	-1.71
204.536	12.63
204.755	8.53
204.974	45.4
205.193	59.73
205.411	112.98
205.63	20.82
205.849	137.56
206.068	-28.33
206.287	67.92
206.505	100.69
206.724	-75.43
206.943	90.45
207.162	-11.95
207.381	24.92
207.599	69.97
207.818	6.49
208.037	74.07
208.255	8.53
208.474	-11.95
208.693	45.4
208.911	37.2
209.13	55.64
209.349	12.63
209.567	22.87
209.786	53.59
210.005	37.2
210.223	53.59
210.442	-69.29
210.661	26.96
210.879	74.07
211.098	86.36
211.316	-38.57
211.535	98.64
211.753	29.01
211.972	-22.19
212.191	-46.76
212.409	98.64
212.628	121.17
212.846	45.4
213.065	31.06
213.283	76.12
213.502	8.53
213.72	-16.04
213.938	67.92
214.157	-7.85
214.375	-50.86
214.594	33.11
214.812	39.25
215.031	24.92
215.249	16.73
215.467	6.49
215.686	-63.15
215.904	84.31
216.122	43.35
216.341	65.88
216.559	67.92
216.778	-28.33
216.996	127.32
217.214	-32.43
217.432	-7.85
217.651	57.68
217.869	-16.04
218.087	67.92
218.306	22.87
218.524	57.68
218.742	65.88
218.96	37.2
219.179	41.3
219.397	-28.33
219.615	78.16
219.833	49.49
220.051	-54.95
220.27	67.92
220.488	57.68
220.706	53.59
220.924	106.84
221.142	20.82
221.36	14.68
221.578	88.4
221.796	41.3
222.015	51.54
222.233	39.25
222.451	12.63
222.669	33.11
222.887	-28.33
223.105	4.44
223.323	49.49
223.541	-36.52
223.759	74.07
223.977	63.83
224.195	72.02
224.413	100.69
224.631	72.02
224.849	86.36
225.067	72.02
225.285	14.68
225.503	69.97
225.721	35.16
225.939	69.97
226.157	16.73
226.375	145.75
226.592	69.97
226.81	29.01
227.028	49.49
227.246	88.4
227.464	104.79
227.682	20.82
227.9	45.4
228.117	-3.75
228.335	43.35
228.553	57.68
228.771	37.2
228.989	57.68
229.206	-54.95
229.424	55.64
229.642	16.73
229.86	47.44
230.077	26.96
230.295	22.87
230.513	88.4
230.731	-34.47
230.948	102.74
231.166	-5.8
231.384	43.35
231.601	6.49
231.819	69.97
232.037	61.78
232.254	33.11
232.472	2.39
232.689	43.35
232.907	51.54
233.125	-28.33
233.342	0.34
233.56	37.2
233.777	8.53
233.995	94.55
234.213	59.73
234.43	59.73
234.648	18.77
234.865	18.77
235.083	31.06
235.3	22.87
235.518	29.01
235.735	51.54
235.953	-28.33
236.17	55.64
236.388	-24.23
236.605	18.77
236.822	20.82
237.04	-9.9
237.257	24.92
237.475	37.2
237.692	35.16
237.909	51.54
238.127	72.02
238.344	24.92
238.562	76.12
238.779	-1.71
238.996	20.82
239.214	-26.28
239.431	12.63
239.648	-9.9
239.865	29.01
240.083	53.59
240.3	45.4
240.517	-9.9
240.735	-40.62
240.952	16.73
241.169	100.69
241.386	-5.8
241.603	26.96
241.821	-11.95
242.038	37.2
242.255	33.11
242.472	16.73
242.689	31.06
242.907	14.68
243.124	33.11
243.341	10.58
243.558	-3.75
243.775	0.34
243.992	6.49
244.209	-24.23
244.426	121.17
244.643	61.78
244.86	-30.38
245.078	41.3
245.295	-1.71
245.512	0.34
245.729	31.06
245.946	45.4
246.163	18.77
246.38	74.07
246.597	24.92
246.814	14.68
247.031	-3.75
247.248	102.74
247.464	45.4
247.681	-7.85
247.898	20.82
248.115	74.07
248.332	16.73
248.549	61.78
248.766	16.73
248.983	35.16
249.2	-3.75
249.417	47.44
249.633	90.45
249.85	69.97
250.067	-59.05
250.284	51.54
250.501	-42.67
250.717	8.53
250.934	59.73
251.151	41.3
251.368	10.58
251.585	22.87
251.801	65.88
252.018	-13.99
252.235	12.63
252.451	26.96
252.668	0.34
252.885	37.2
253.102	74.07
253.318	106.84
253.535	-87.72
253.752	49.49
253.968	55.64
254.185	45.4
254.401	18.77
254.618	20.82
254.835	108.88
255.051	96.6
255.268	59.73
255.484	63.83
255.701	24.92
255.917	45.4
256.134	10.58
256.351	55.64
256.567	41.3
256.784	72.02
257	22.87
257.217	74.07
257.433	53.59
257.65	74.07
257.866	57.68
258.082	51.54
258.299	45.4
258.515	47.44
258.732	55.64
258.948	41.3
259.165	8.53
259.381	29.01
259.597	80.21
259.814	18.77
260.03	29.01
260.246	24.92
260.463	4.44
260.679	-7.85
260.895	59.73
261.112	14.68
261.328	22.87
261.544	12.63
261.761	37.2
261.977	16.73
262.193	65.88
262.409	35.16
262.626	22.87
262.842	39.25
263.058	39.25
263.274	65.88
263.49	-7.85
263.707	24.92
263.923	57.68
264.139	-36.52
264.355	41.3
264.571	33.11
264.787	53.59
265.004	51.54
265.22	41.3
265.436	31.06
265.652	-18.09
265.868	45.4
266.084	-32.43
266.3	4.44
266.516	55.64
266.732	94.55
266.948	-40.62
267.164	57.68
267.38	22.87
267.596	-30.38
267.812	80.21
268.028	59.73
268.244	26.96
268.46	78.16
268.676	53.59
268.892	-20.14
269.108	67.92
269.324	-11.95
269.54	86.36
269.756	51.54
269.972	-67.24
270.188	74.07
270.403	-32.43
270.619	4.44
270.835	55.64
271.051	65.88
271.267	67.92
271.483	41.3
271.698	20.82
271.914	86.36
272.13	-18.09
272.346	55.64
272.562	-3.75
272.777	47.44
272.993	121.17
273.209	45.4
273.425	100.69
273.64	26.96
273.856	88.4
274.072	33.11
274.287	37.2
274.503	10.58
274.719	59.73
274.934	18.77
275.15	-30.38
275.366	-9.9
275.581	8.53
275.797	31.06
276.012	10.58
276.228	98.64
276.444	106.84
276.659	20.82
276.875	-18.09
277.09	35.16
277.306	51.54
277.521	47.44
277.737	76.12
277.952	61.78
278.168	110.93
278.383	12.63
278.599	57.68
278.814	2.39
279.03	-22.19
279.245	90.45
279.461	39.25
279.676	33.11
279.892	-7.85
280.107	-40.62
280.322	22.87
280.538	57.68
280.753	-26.28
280.969	14.68
281.184	41.3
281.399	57.68
281.615	80.21
281.83	-3.75
282.045	45.4
282.26	102.74
282.476	-24.23
282.691	84.31
282.906	18.77
283.122	45.4
283.337	41.3
283.552	84.31
283.767	-9.9
283.983	112.98
284.198	16.73
284.413	74.07
284.628	-73.39
284.843	-9.9
285.058	65.88
285.274	65.88
285.489	63.83
285.704	-57
285.919	12.63
286.134	55.64
286.349	26.96
286.564	86.36
286.779	41.3
286.995	76.12
287.21	8.53
287.425	98.64
287.64	-24.23
287.855	18.77
288.07	-13.99
288.285	2.39
288.5	86.36
288.715	139.6
288.93	-16.04
289.145	59.73
289.36	20.82
289.575	67.92
289.79	16.73
290.004	55.64
290.219	26.96
290.434	31.06
290.649	65.88
290.864	20.82
291.079	69.97
291.294	-9.9
291.509	37.2
291.724	39.25
291.938	43.35
292.153	18.77
292.368	37.2
292.583	39.25
292.798	-46.76
293.012	88.4
293.227	24.92
293.442	74.07
293.657	26.96
293.871	74.07
294.086	-7.85
294.301	69.97
294.516	-20.14
294.73	22.87
294.945	-18.09
295.16	6.49
295.374	86.36
295.589	33.11
295.804	16.73
296.018	39.25
296.233	65.88
296.447	4.44
296.662	16.73
296.877	10.58
297.091	31.06
297.306	106.84
297.52	-24.23
297.735	72.02
297.949	63.83
298.164	76.12
298.378	37.2
298.593	94.55
298.807	37.2
299.022	82.26
299.236	108.88
299.451	-13.99
299.665	88.4
299.88	112.98
300.094	59.73
300.309	-65.19
300.523	-13.99
300.737	-22.19
300.952	45.4
301.166	29.01
301.381	41.3
301.595	41.3
301.809	-3.75
302.024	61.78
302.238	45.4
302.452	49.49
302.667	47.44
302.881	10.58
303.095	78.16
303.309	59.73
303.524	39.25
303.738	29.01
303.952	14.68
304.166	31.06
304.381	-18.09
304.595	110.93
304.809	51.54
305.023	65.88
305.237	72.02
305.452	26.96
305.666	20.82
305.88	102.74
306.094	127.32
306.308	53.59
306.522	67.92
306.736	39.25
306.95	26.96
307.164	94.55
307.379	74.07
307.593	0.34
307.807	74.07
308.021	-42.67
308.235	14.68
308.449	-48.81
308.663	10.58
308.877	12.63
309.091	65.88
309.305	98.64
309.519	2.39
309.733	35.16
309.947	63.83
310.161	41.3
310.374	12.63
310.588	41.3
310.802	80.21
311.016	74.07
311.23	-44.71
311.444	98.64
311.658	-13.99
311.872	24.92
312.085	-3.75
312.299	53.59
312.513	72.02
312.727	57.68
312.941	35.16
313.154	104.79
313.368	33.11
313.582	45.4
313.796	-16.04
314.009	65.88
314.223	94.55
314.437	65.88
314.651	10.58
314.864	-46.76
315.078	72.02
315.292	41.3
315.505	41.3
315.719	63.83
315.933	63.83
316.146	139.6
316.36	-30.38
316.573	80.21
316.787	18.77
317.001	57.68
317.214	-13.99
317.428	39.25
317.641	69.97
317.855	39.25
318.068	14.68
318.282	43.35
318.495	41.3
318.709	49.49
318.922	29.01
319.136	67.92
319.349	14.68
319.563	6.49
319.776	51.54
319.99	24.92
320.203	69.97
320.417	26.96
320.63	6.49
320.843	78.16
321.057	31.06
321.27	90.45
321.483	96.6
321.697	90.45
321.91	53.59
322.124	57.68
322.337	14.68
322.55	-32.43
322.763	35.16
322.977	78.16
323.19	20.82
323.403	33.11
323.617	59.73
323.83	10.58
324.043	16.73
324.256	-16.04
324.469	24.92
324.683	53.59
324.896	24.92
325.109	33.11
325.322	-9.9
325.535	78.16
325.748	82.26
325.962	-26.28
326.175	72.02
326.388	94.55
326.601	45.4
326.814	-18.09
327.027	102.74
327.24	29.01
327.453	100.69
327.666	16.73
327.879	78.16
328.092	29.01
328.305	-87.72
328.518	67.92
328.731	12.63
328.944	61.78
329.157	104.79
329.37	121.17
329.583	20.82
329.796	104.79
330.009	72.02
330.222	45.4
330.435	45.4
330.648	117.08
330.861	104.79
331.073	74.07
331.286	63.83
331.499	18.77
331.712	47.44
331.925	61.78
332.138	63.83
332.35	35.16
332.563	61.78
332.776	49.49
332.989	26.96
333.202	51.54
333.414	45.4
333.627	84.31
333.84	41.3
334.053	0.34
334.265	24.92
334.478	74.07
334.691	57.68
334.903	86.36
335.116	22.87
335.329	35.16
335.541	24.92
335.754	69.97
335.966	10.58
336.179	31.06
336.392	74.07
336.604	20.82
336.817	80.21
337.029	37.2
337.242	76.12
337.454	45.4
337.667	-13.99
337.88	61.78
338.092	35.16
338.305	72.02
338.517	-18.09
338.729	-13.99
338.942	88.4
339.154	47.44
339.367	6.49
339.579	41.3
339.792	14.68
340.004	12.63
340.217	-13.99
340.429	-11.95
340.641	-3.75
340.854	-3.75
341.066	4.44
341.278	74.07
341.491	37.2
341.703	-28.33
341.915	29.01
342.128	100.69
342.34	72.02
342.552	24.92
342.764	59.73
342.977	20.82
343.189	90.45
343.401	100.69
343.613	76.12
343.826	20.82
344.038	-11.95
344.25	-46.76
344.462	96.6
344.674	61.78
344.886	37.2
345.099	26.96
345.311	57.68
345.523	69.97
345.735	16.73
345.947	74.07
346.159	29.01
346.371	65.88
346.583	45.4
346.795	151.89
347.007	18.77
347.219	61.78
347.431	26.96
347.643	155.99
347.855	24.92
348.067	10.58
348.279	45.4
348.491	55.64
348.703	49.49
348.915	29.01
349.127	-24.23
349.339	49.49
349.551	-7.85
349.763	76.12
349.975	-40.62
350.187	33.11
350.399	53.59
350.61	16.73
350.822	41.3
351.034	4.44
351.246	22.87
351.458	53.59
351.669	53.59
351.881	90.45
352.093	104.79
352.305	100.69
352.517	49.49
352.728	98.64
352.94	57.68
353.152	94.55
353.363	0.34
353.575	69.97
353.787	33.11
353.999	45.4
354.21	47.44
354.422	20.82
354.633	47.44
354.845	53.59
355.057	10.58
355.268	-5.8
355.48	0.34
355.692	39.25
355.903	84.31
356.115	96.6
356.326	8.53
356.538	53.59
356.749	100.69
356.961	72.02
357.172	92.5
357.384	53.59
357.595	72.02
357.807	33.11
358.018	51.54
358.23	82.26
358.441	102.74
358.653	102.74
358.864	29.01
359.075	43.35
359.287	49.49
359.498	53.59
359.709	45.4
359.921	94.55
360.132	76.12
360.344	6.49
360.555	78.16
360.766	41.3
360.977	29.01
361.189	26.96
361.4	59.73
361.611	74.07
361.823	6.49
362.034	78.16
362.245	16.73
362.456	82.26
362.667	94.55
362.879	10.58
363.09	47.44
363.301	53.59
363.512	94.55
363.723	80.21
363.935	96.6
364.146	39.25
364.357	0.34
364.568	-9.9
364.779	49.49
364.99	74.07
365.201	4.44
365.412	45.4
365.623	0.34
365.834	45.4
366.045	6.49
366.256	76.12
366.467	41.3
366.678	72.02
366.889	4.44
367.1	14.68
367.311	-30.38
367.522	39.25
367.733	55.64
367.944	61.78
368.155	16.73
368.366	123.22
368.577	57.68
368.788	80.21
368.999	2.39
369.209	-7.85
369.42	86.36
369.631	55.64
369.842	88.4
370.053	82.26
370.264	-24.23
370.474	78.16
370.685	20.82
370.896	16.73
371.107	125.27
371.317	94.55
371.528	82.26
371.739	37.2
371.95	22.87
372.16	106.84
372.371	51.54
372.582	69.97
372.792	41.3
373.003	82.26
373.214	37.2
373.424	-5.8
373.635	22.87
373.846	96.6
374.056	51.54
374.267	90.45
374.477	94.55
374.688	115.03
374.898	57.68
375.109	43.35
375.319	59.73
375.53	82.26
375.74	80.21
375.951	69.97
376.161	26.96
376.372	41.3
376.582	31.06
376.793	24.92
377.003	67.92
377.214	65.88
377.424	76.12
377.635	139.6
377.845	-32.43
378.055	61.78
378.266	69.97
378.476	53.59
378.686	43.35
378.897	22.87
379.107	86.36
379.317	24.92
379.528	90.45
379.738	102.74
379.948	96.6
380.158	139.6
380.369	22.87
380.579	94.55
380.789	4.44
380.999	86.36
381.21	39.25
381.42	53.59
381.63	74.07
381.84	115.03
382.05	84.31
382.261	59.73
382.471	80.21
382.681	90.45
382.891	82.26
383.101	86.36
383.311	0.34
383.521	59.73
383.731	127.32
383.941	84.31
384.151	69.97
384.361	43.35
384.571	20.82
384.781	-59.05
384.991	90.45
385.201	108.88
385.411	98.64
385.621	39.25
385.831	63.83
386.041	74.07
386.251	121.17
386.461	129.36
386.671	-18.09
386.881	94.55
387.091	49.49
387.301	51.54
387.511	37.2
387.72	135.51
387.93	22.87
388.14	65.88
388.35	-16.04
388.56	112.98
388.769	121.17
388.979	123.22
389.189	26.96
389.399	102.74
389.609	72.02
389.818	67.92
390.028	57.68
390.238	139.6
390.447	59.73
390.657	53.59
390.867	88.4
391.076	31.06
391.286	106.84
391.496	53.59
391.705	92.5
391.915	112.98
392.125	176.47
392.334	96.6
392.544	-3.75
392.753	112.98
392.963	63.83
393.172	61.78
393.382	29.01
393.591	76.12
393.801	125.27
394.01	151.89
394.22	141.65
394.429	80.21
394.639	80.21
394.848	88.4
395.058	112.98
395.267	80.21
395.477	127.32
395.686	151.89
395.895	98.64
396.105	78.16
396.314	63.83
396.524	49.49
396.733	49.49
396.942	176.47
397.152	135.51
397.361	74.07
397.57	94.55
397.78	82.26
397.989	20.82
398.198	133.46
398.407	76.12
398.617	119.12
398.826	110.93
399.035	41.3
399.244	74.07
399.453	102.74
399.663	180.56
399.872	74.07
400.081	149.84
400.29	96.6
400.499	117.08
400.708	151.89
400.917	104.79
401.127	174.42
401.336	2.39
401.545	131.41
401.754	88.4
401.963	80.21
402.172	88.4
402.381	102.74
402.59	153.94
402.799	123.22
403.008	129.36
403.217	133.46
403.426	72.02
403.635	141.65
403.844	137.56
404.053	37.2
404.262	59.73
404.471	96.6
404.68	151.89
404.888	137.56
405.097	172.37
405.306	94.55
405.515	94.55
405.724	117.08
405.933	108.88
406.142	151.89
406.35	125.27
406.559	180.56
406.768	106.84
406.977	160.08
407.185	201.04
407.394	186.71
407.603	158.03
407.812	164.18
408.02	266.58
408.229	166.23
408.438	256.34
408.646	217.43
408.855	186.71
409.064	227.67
409.272	225.62
409.481	276.82
409.69	262.48
409.898	282.96
410.107	315.73
410.315	303.44
410.524	272.72
410.733	317.78
410.941	293.2
411.15	356.69
411.358	377.17
411.567	401.74
411.775	411.98
411.984	434.51
412.192	385.36
412.401	364.88
412.609	389.46
412.818	467.28
413.026	436.56
413.234	489.81
413.443	461.13
413.651	502.09
413.86	549.2
414.068	498
414.276	514.38
414.485	547.15
414.693	547.15
414.901	612.68
415.11	651.6
415.318	641.36
415.526	719.18
415.734	667.98
415.943	725.32
416.151	684.36
416.359	713.03
416.567	706.89
416.776	756.04
416.984	880.97
417.192	942.41
417.4	952.65
417.608	842.06
417.817	831.82
418.025	977.22
418.233	1030.47
418.441	919.88
418.649	956.74
418.857	1165.64
419.065	1161.54
419.273	1186.12
419.481	1196.36
419.689	1165.64
419.897	1323.33
420.105	1354.05
420.313	1415.49
420.521	1306.95
420.729	1456.45
420.937	1462.59
421.145	1499.45
421.353	1642.81
421.561	1755.45
421.769	1667.39
421.977	1872.18
422.185	1894.71
422.393	1982.78
422.601	2054.45
422.809	1894.71
423.017	2033.97
423.224	2132.28
423.432	2206
423.64	2179.38
423.848	2447.66
424.056	2367.79
424.263	2339.12
424.471	2416.94
424.679	2494.77
424.887	2693.42
425.094	2801.96
425.302	2785.58
425.51	2867.5
425.718	3029.29
425.925	3072.29
426.133	3078.44
426.341	3291.43
426.548	3375.39
426.756	3303.71
426.964	3410.21
427.171	3701.02
427.379	3842.33
427.586	3795.23
427.794	3948.83
428.001	4237.59
428.209	4204.82
428.417	4258.07
428.624	4548.88
428.832	4534.54
429.039	4317.46
429.247	4649.23
429.454	4806.92
429.662	5153.03
429.869	5081.35
430.076	5312.77
430.284	5107.98
430.491	5474.56
430.699	5660.93
430.906	5718.27
431.114	5695.74
431.321	5804.28
431.528	6101.24
431.736	6482.16
431.943	6836.46
432.15	6363.38
432.358	6703.34
432.565	6973.67
432.772	7004.39
432.979	7196.9
433.187	7344.36
433.394	7493.86
433.601	7977.18
433.808	7944.41
434.016	7876.83
434.223	8261.85
434.43	8732.88
434.637	8546.51
434.844	9158.86
435.052	9183.43
435.259	9011.4
435.466	9312.46
435.673	9195.72
435.88	9681.09
436.087	10363.06
436.294	10381.49
436.501	10219.71
436.708	10281.14
436.915	10725.55
437.122	11051.18
437.329	11239.59
437.537	11364.52
437.743	11636.9
437.95	11645.09
438.157	12241.05
438.364	12519.57
438.571	12509.33
438.778	12632.21
438.985	13518.98
439.192	13168.78
439.399	13578.37
439.606	13248.65
439.813	14205.05
440.02	15001.71
440.227	14647.41
440.433	14571.64
440.64	15054.96
440.847	15014
441.054	15497.32
441.261	16287.84
441.467	15839.33
441.674	16552.02
441.881	16975.95
442.088	16971.86
442.294	16754.77
442.501	17340.49
442.708	17559.63
442.914	18110.53
443.121	19107.89
443.328	18538.55
443.534	19865.64
443.741	19189.81
443.948	18851.89
444.154	20631.58
444.361	20262.94
444.568	20736.02
444.774	20185.12
444.981	20545.56
445.187	21311.5
445.394	22317.06
445.6	21843.98
445.807	24010.73
446.013	22831.1
446.22	23302.13
446.426	24094.69
446.633	24606.69
446.839	25442.26
447.046	24051.69
447.252	25591.76
447.459	25591.76
447.665	25282.52
447.871	26722.24
448.078	27678.64
448.284	26400.71
448.491	27017.15
448.697	27756.46
448.903	28280.74
449.11	28594.08
449.316	28178.34
449.522	28796.83
449.728	29341.59
449.935	29669.26
450.141	29769.62
450.347	30394.25
450.553	29132.7
450.76	29527.95
450.966	30537.6
451.172	30312.33
451.378	30865.28
451.584	30361.48
451.791	31057.79
451.997	31027.07
452.203	31463.29
452.409	31496.05
452.615	31258.49
452.821	30017.42
453.027	29783.95
453.233	31502.2
453.44	29812.62
453.646	30404.49
453.852	30607.23
454.058	31131.51
454.264	29622.16
454.47	30834.56
454.676	30115.72
454.882	30967.68
455.088	27930.54
455.294	28342.18
455.5	29294.49
455.705	29093.79
455.911	28075.94
456.117	27473.84
456.323	26750.91
456.529	25561.04
456.735	26847.16
456.941	26003.4
457.147	26030.02
457.352	25145.3
457.558	24451.04
457.764	24690.65
457.97	24309.73
458.176	23650.28
458.381	23685.1
458.587	22446.08
458.793	22413.31
458.999	21293.07
459.204	22958.07
459.41	22231.04
459.616	20944.92
459.821	20783.13
460.027	20340.77
460.233	20348.96
460.438	19327.02
460.644	19406.89
460.85	18706.49
461.055	18284.61
461.261	18280.51
461.466	16816.21
461.672	16265.31
461.878	17780.81
462.083	16525.4
462.289	16191.58
462.494	16027.74
462.7	15360.11
462.905	14854.26
463.111	15407.21
463.316	15386.73
463.522	15161.45
463.727	15179.89
463.932	15026.29
464.138	14893.17
464.343	14930.03
464.549	14622.84
464.754	15171.69
464.959	14872.69
465.165	14690.42
465.37	14256.25
465.575	13918.34
465.781	14338.17
465.986	14454.9
466.191	13734.02
466.397	13547.65
466.602	12961.94
466.807	13381.77
467.012	13668.48
467.218	13504.65
467.423	13349
467.628	13342.86
467.833	14155.9
468.038	13404.3
