Data from USB4F104151__140__11-07-58-936.txt Node

Date: Wed Mar 12 11:07:58 EDT 2025
User: louis
Spectrometer: USB4F10415
Trigger mode: 4
Integration Time (sec): 2.000000E-2
Scans to average: 1
Electric dark correction enabled: true
Nonlinearity correction enabled: false
Boxcar width: 0
XAxis mode: Wavelengths
Number of Pixels in Spectrum: 3648
>>>>>Begin Spectral Data<<<<<
178.204	-17.92
178.424	-17.92
178.644	-17.92
178.864	-114.17
179.084	-69.12
179.304	47.62
179.524	12.8
179.744	-40.45
179.964	51.71
180.184	10.75
180.404	-19.97
180.624	-3.58
180.844	43.52
181.064	-73.21
181.283	-13.82
181.503	-54.78
181.723	39.42
181.943	-28.16
182.163	18.94
182.383	-5.63
182.602	14.85
182.822	2.56
183.042	57.86
183.262	82.43
183.482	18.94
183.701	-11.78
183.921	31.23
184.141	-42.5
184.361	35.33
184.58	55.81
184.8	18.94
185.02	2.56
185.239	2.56
185.459	59.9
185.679	51.71
185.898	-32.26
186.118	23.04
186.338	-42.5
186.557	49.66
186.777	-5.63
186.997	-30.21
187.216	72.19
187.436	59.9
187.655	-1.54
187.875	10.75
188.095	39.42
188.314	12.8
188.534	10.75
188.753	18.94
188.973	8.7
189.192	37.38
189.412	39.42
189.631	29.18
189.851	39.42
190.07	23.04
190.29	39.42
190.509	-48.64
190.729	-19.97
190.948	-1.54
191.168	51.71
191.387	25.09
191.607	8.7
191.826	20.99
192.045	14.85
192.265	-1.54
192.484	61.95
192.704	-9.73
192.923	41.47
193.142	96.77
193.362	78.33
193.581	-9.73
193.8	72.19
194.02	55.81
194.239	10.75
194.458	37.38
194.678	6.66
194.897	37.38
195.116	-89.6
195.335	10.75
195.555	-3.58
195.774	-24.06
195.993	-26.11
196.212	14.85
196.432	20.99
196.651	55.81
196.87	-3.58
197.089	37.38
197.308	84.48
197.528	-13.82
197.747	-1.54
197.966	23.04
198.185	27.14
198.404	27.14
198.623	64
198.842	-7.68
199.062	66.05
199.281	68.09
199.5	39.42
199.719	25.09
199.938	45.57
200.157	0.51
200.376	27.14
200.595	29.18
200.814	-38.4
201.033	23.04
201.252	-48.64
201.471	18.94
201.69	4.61
201.909	29.18
202.128	10.75
202.347	18.94
202.566	33.28
202.785	31.23
203.004	-30.21
203.223	66.05
203.442	41.47
203.661	-3.58
203.879	14.85
204.098	-11.78
204.317	18.94
204.536	-40.45
204.755	18.94
204.974	8.7
205.193	0.51
205.411	10.75
205.63	-26.11
205.849	6.66
206.068	68.09
206.287	-34.3
206.505	111.1
206.724	-26.11
206.943	-3.58
207.162	-7.68
207.381	49.66
207.599	33.28
207.818	-65.02
208.037	59.9
208.255	68.09
208.474	23.04
208.693	-30.21
208.911	53.76
209.13	-19.97
209.349	76.29
209.567	57.86
209.786	64
210.005	41.47
210.223	41.47
210.442	-56.83
210.661	72.19
210.879	-11.78
211.098	49.66
211.316	2.56
211.535	80.38
211.753	-7.68
211.972	45.57
212.191	18.94
212.409	137.73
212.628	-30.21
212.846	-3.58
213.065	41.47
213.283	109.05
213.502	37.38
213.72	27.14
213.938	-48.64
214.157	12.8
214.375	94.72
214.594	-38.4
214.812	41.47
215.031	12.8
215.249	-54.78
215.467	2.56
215.686	20.99
215.904	39.42
216.122	-13.82
216.341	-5.63
216.559	53.76
216.778	82.43
216.996	-9.73
217.214	-52.74
217.432	61.95
217.651	-1.54
217.869	59.9
218.087	45.57
218.306	-17.92
218.524	33.28
218.742	-22.02
218.96	2.56
219.179	45.57
219.397	80.38
219.615	84.48
219.833	61.95
220.051	10.75
220.27	29.18
220.488	2.56
220.706	45.57
220.924	-9.73
221.142	72.19
221.36	-73.21
221.578	4.61
221.796	27.14
222.015	-1.54
222.233	16.9
222.451	39.42
222.669	-54.78
222.887	84.48
223.105	25.09
223.323	-13.82
223.541	0.51
223.759	43.52
223.977	-44.54
224.195	45.57
224.413	35.33
224.631	-5.63
224.849	39.42
225.067	45.57
225.285	-62.98
225.503	31.23
225.721	-46.59
225.939	72.19
226.157	-9.73
226.375	61.95
226.592	4.61
226.81	-28.16
227.028	45.57
227.246	59.9
227.464	0.51
227.682	-3.58
227.9	51.71
228.117	29.18
228.335	25.09
228.553	84.48
228.771	-17.92
228.989	94.72
229.206	59.9
229.424	35.33
229.642	2.56
229.86	23.04
230.077	10.75
230.295	70.14
230.513	14.85
230.731	12.8
230.948	80.38
231.166	12.8
231.384	45.57
231.601	25.09
231.819	39.42
232.037	-7.68
232.254	-28.16
232.472	6.66
232.689	49.66
232.907	18.94
233.125	31.23
233.342	72.19
233.56	12.8
233.777	39.42
233.995	14.85
234.213	31.23
234.43	43.52
234.648	14.85
234.865	35.33
235.083	45.57
235.3	-17.92
235.518	53.76
235.735	12.8
235.953	78.33
236.17	74.24
236.388	88.57
236.605	-11.78
236.822	-11.78
237.04	72.19
237.257	18.94
237.475	-11.78
237.692	16.9
237.909	45.57
238.127	16.9
238.344	72.19
238.562	111.1
238.779	-15.87
238.996	16.9
239.214	16.9
239.431	51.71
239.648	31.23
239.865	47.62
240.083	-38.4
240.3	49.66
240.517	4.61
240.735	72.19
240.952	37.38
241.169	27.14
241.386	-17.92
241.603	47.62
241.821	-9.73
242.038	-22.02
242.255	111.1
242.472	31.23
242.689	88.57
242.907	74.24
243.124	64
243.341	29.18
243.558	-1.54
243.775	39.42
243.992	49.66
244.209	-28.16
244.426	27.14
244.643	68.09
244.86	94.72
245.078	29.18
245.295	64
245.512	80.38
245.729	-3.58
245.946	-60.93
246.163	23.04
246.38	0.51
246.597	-77.31
246.814	-9.73
247.031	23.04
247.248	64
247.464	39.42
247.681	35.33
247.898	18.94
248.115	55.81
248.332	-50.69
248.549	8.7
248.766	14.85
248.983	72.19
249.2	47.62
249.417	74.24
249.633	47.62
249.85	68.09
250.067	-28.16
250.284	-9.73
250.501	2.56
250.717	51.71
250.934	23.04
251.151	45.57
251.368	82.43
251.585	70.14
251.801	51.71
252.018	-1.54
252.235	-38.4
252.451	-15.87
252.668	-15.87
252.885	-28.16
253.102	16.9
253.318	-26.11
253.535	43.52
253.752	39.42
253.968	55.81
254.185	-22.02
254.401	12.8
254.618	37.38
254.835	47.62
255.051	-30.21
255.268	84.48
255.484	33.28
255.701	57.86
255.917	96.77
256.134	23.04
256.351	-11.78
256.567	66.05
256.784	61.95
257	6.66
257.217	0.51
257.433	-13.82
257.65	20.99
257.866	35.33
258.082	61.95
258.299	37.38
258.515	86.53
258.732	-22.02
258.948	4.61
259.165	-42.5
259.381	45.57
259.597	117.25
259.814	2.56
260.03	35.33
260.246	78.33
260.463	-22.02
260.679	2.56
260.895	59.9
261.112	27.14
261.328	-1.54
261.544	10.75
261.761	59.9
261.977	27.14
262.193	12.8
262.409	43.52
262.626	31.23
262.842	49.66
263.058	82.43
263.274	8.7
263.49	57.86
263.707	-28.16
263.923	12.8
264.139	16.9
264.355	74.24
264.571	74.24
264.787	80.38
265.004	-62.98
265.22	35.33
265.436	41.47
265.652	-71.17
265.868	35.33
266.084	57.86
266.3	-50.69
266.516	-17.92
266.732	39.42
266.948	2.56
267.164	-56.83
267.38	72.19
267.596	27.14
267.812	47.62
268.028	10.75
268.244	18.94
268.46	12.8
268.676	2.56
268.892	80.38
269.108	-5.63
269.324	6.66
269.54	-13.82
269.756	35.33
269.972	-3.58
270.188	-32.26
270.403	76.29
270.619	55.81
270.835	29.18
271.051	-26.11
271.267	35.33
271.483	61.95
271.698	-5.63
271.914	-5.63
272.13	59.9
272.346	74.24
272.562	-24.06
272.777	55.81
272.993	4.61
273.209	27.14
273.425	16.9
273.64	-13.82
273.856	-13.82
274.072	14.85
274.287	-42.5
274.503	43.52
274.719	33.28
274.934	20.99
275.15	-13.82
275.366	59.9
275.581	51.71
275.797	31.23
276.012	12.8
276.228	109.05
276.444	-22.02
276.659	49.66
276.875	0.51
277.09	37.38
277.306	4.61
277.521	27.14
277.737	41.47
277.952	12.8
278.168	-36.35
278.383	55.81
278.599	66.05
278.814	-38.4
279.03	12.8
279.245	31.23
279.461	12.8
279.676	2.56
279.892	6.66
280.107	45.57
280.322	8.7
280.538	31.23
280.753	43.52
280.969	23.04
281.184	39.42
281.399	4.61
281.615	68.09
281.83	-1.54
282.045	-34.3
282.26	72.19
282.476	-15.87
282.691	127.49
282.906	59.9
283.122	76.29
283.337	41.47
283.552	20.99
283.767	18.94
283.983	18.94
284.198	27.14
284.413	68.09
284.628	-9.73
284.843	70.14
285.058	78.33
285.274	49.66
285.489	10.75
285.704	31.23
285.919	-36.35
286.134	57.86
286.349	14.85
286.564	-11.78
286.779	64
286.995	55.81
287.21	-73.21
287.425	39.42
287.64	37.38
287.855	100.86
288.07	49.66
288.285	100.86
288.5	-32.26
288.715	41.47
288.93	16.9
289.145	57.86
289.36	33.28
289.575	4.61
289.79	-22.02
290.004	86.53
290.219	39.42
290.434	-1.54
290.649	-11.78
290.864	-24.06
291.079	-83.45
291.294	27.14
291.509	0.51
291.724	-5.63
291.938	-54.78
292.153	133.63
292.368	47.62
292.583	37.38
292.798	-1.54
293.012	-32.26
293.227	10.75
293.442	-15.87
293.657	70.14
293.871	53.76
294.086	10.75
294.301	92.67
294.516	37.38
294.73	-19.97
294.945	20.99
295.16	-42.5
295.374	-9.73
295.589	-13.82
295.804	-7.68
296.018	12.8
296.233	12.8
296.447	82.43
296.662	14.85
296.877	113.15
297.091	18.94
297.306	74.24
297.52	-11.78
297.735	41.47
297.949	16.9
298.164	33.28
298.378	33.28
298.593	53.76
298.807	12.8
299.022	29.18
299.236	4.61
299.451	80.38
299.665	31.23
299.88	59.9
300.094	47.62
300.309	0.51
300.523	20.99
300.737	2.56
300.952	-26.11
301.166	12.8
301.381	-3.58
301.595	55.81
301.809	35.33
302.024	27.14
302.238	10.75
302.452	70.14
302.667	4.61
302.881	51.71
303.095	64
303.309	33.28
303.524	27.14
303.738	49.66
303.952	39.42
304.166	82.43
304.381	-13.82
304.595	55.81
304.809	8.7
305.023	4.61
305.237	61.95
305.452	4.61
305.666	47.62
305.88	59.9
306.094	31.23
306.308	6.66
306.522	27.14
306.736	14.85
306.95	10.75
307.164	-7.68
307.379	27.14
307.593	2.56
307.807	94.72
308.021	31.23
308.235	-1.54
308.449	-13.82
308.663	20.99
308.877	96.77
309.091	49.66
309.305	127.49
309.519	-56.83
309.733	47.62
309.947	2.56
310.161	10.75
310.374	51.71
310.588	29.18
310.802	-7.68
311.016	-15.87
311.23	-24.06
311.444	57.86
311.658	41.47
311.872	76.29
312.085	84.48
312.299	51.71
312.513	64
312.727	20.99
312.941	31.23
313.154	25.09
313.368	33.28
313.582	92.67
313.796	53.76
314.009	39.42
314.223	18.94
314.437	-81.41
314.651	64
314.864	-3.58
315.078	-1.54
315.292	-13.82
315.505	41.47
315.719	37.38
315.933	-17.92
316.146	39.42
316.36	-34.3
316.573	57.86
316.787	39.42
317.001	-1.54
317.214	49.66
317.428	-5.63
317.641	12.8
317.855	55.81
318.068	47.62
318.282	76.29
318.495	82.43
318.709	43.52
318.922	20.99
319.136	41.47
319.349	-62.98
319.563	66.05
319.776	51.71
319.99	37.38
320.203	2.56
320.417	45.57
320.63	49.66
320.843	47.62
321.057	66.05
321.27	78.33
321.483	43.52
321.697	59.9
321.91	31.23
322.124	57.86
322.337	14.85
322.55	33.28
322.763	82.43
322.977	18.94
323.19	64
323.403	47.62
323.617	94.72
323.83	109.05
324.043	29.18
324.256	31.23
324.469	-19.97
324.683	72.19
324.896	37.38
325.109	-11.78
325.322	8.7
325.535	-5.63
325.748	33.28
325.962	61.95
326.175	25.09
326.388	2.56
326.601	113.15
326.814	29.18
327.027	51.71
327.24	41.47
327.453	8.7
327.666	102.91
327.879	20.99
328.092	27.14
328.305	14.85
328.518	16.9
328.731	-30.21
328.944	8.7
329.157	23.04
329.37	43.52
329.583	14.85
329.796	61.95
330.009	0.51
330.222	-32.26
330.435	84.48
330.648	61.95
330.861	78.33
331.073	51.71
331.286	88.57
331.499	45.57
331.712	18.94
331.925	8.7
332.138	0.51
332.35	33.28
332.563	4.61
332.776	49.66
332.989	82.43
333.202	25.09
333.414	-11.78
333.627	51.71
333.84	41.47
334.053	68.09
334.265	0.51
334.478	0.51
334.691	37.38
334.903	51.71
335.116	29.18
335.329	18.94
335.541	31.23
335.754	100.86
335.966	12.8
336.179	-11.78
336.392	68.09
336.604	43.52
336.817	10.75
337.029	27.14
337.242	6.66
337.454	107.01
337.667	31.23
337.88	82.43
338.092	23.04
338.305	61.95
338.517	27.14
338.729	2.56
338.942	8.7
339.154	47.62
339.367	23.04
339.579	57.86
339.792	-3.58
340.004	84.48
340.217	16.9
340.429	-5.63
340.641	-1.54
340.854	-3.58
341.066	53.76
341.278	2.56
341.491	84.48
341.703	6.66
341.915	-19.97
342.128	51.71
342.34	80.38
342.552	74.24
342.764	-22.02
342.977	33.28
343.189	10.75
343.401	-13.82
343.613	41.47
343.826	14.85
344.038	37.38
344.25	53.76
344.462	10.75
344.674	39.42
344.886	16.9
345.099	100.86
345.311	43.52
345.523	27.14
345.735	0.51
345.947	96.77
346.159	-1.54
346.371	-60.93
346.583	55.81
346.795	70.14
347.007	70.14
347.219	45.57
347.431	37.38
347.643	123.39
347.855	10.75
348.067	61.95
348.279	27.14
348.491	49.66
348.703	59.9
348.915	25.09
349.127	2.56
349.339	49.66
349.551	12.8
349.763	12.8
349.975	64
350.187	123.39
350.399	-24.06
350.61	113.15
350.822	43.52
351.034	47.62
351.246	16.9
351.458	59.9
351.669	39.42
351.881	23.04
352.093	129.53
352.305	-9.73
352.517	68.09
352.728	27.14
352.94	53.76
353.152	37.38
353.363	-26.11
353.575	61.95
353.787	172.54
353.999	117.25
354.21	78.33
354.422	4.61
354.633	39.42
354.845	37.38
355.057	18.94
355.268	2.56
355.48	10.75
355.692	33.28
355.903	-7.68
356.115	-34.3
356.326	-13.82
356.538	59.9
356.749	14.85
356.961	23.04
357.172	8.7
357.384	53.76
357.595	96.77
357.807	16.9
358.018	23.04
358.23	23.04
358.441	86.53
358.653	53.76
358.864	25.09
359.075	-56.83
359.287	82.43
359.498	45.57
359.709	53.76
359.921	43.52
360.132	66.05
360.344	18.94
360.555	18.94
360.766	53.76
360.977	55.81
361.189	27.14
361.4	4.61
361.611	51.71
361.823	18.94
362.034	57.86
362.245	43.52
362.456	41.47
362.667	25.09
362.879	12.8
363.09	68.09
363.301	33.28
363.512	125.44
363.723	0.51
363.935	27.14
364.146	64
364.357	53.76
364.568	39.42
364.779	47.62
364.99	6.66
365.201	-5.63
365.412	-11.78
365.623	8.7
365.834	27.14
366.045	59.9
366.256	80.38
366.467	78.33
366.678	76.29
366.889	80.38
367.1	6.66
367.311	61.95
367.522	59.9
367.733	-7.68
367.944	70.14
368.155	49.66
368.366	55.81
368.577	55.81
368.788	61.95
368.999	-11.78
369.209	53.76
369.42	49.66
369.631	78.33
369.842	25.09
370.053	31.23
370.264	55.81
370.474	72.19
370.685	68.09
370.896	41.47
371.107	14.85
371.317	23.04
371.528	-1.54
371.739	29.18
371.95	51.71
372.16	84.48
372.371	18.94
372.582	18.94
372.792	53.76
373.003	92.67
373.214	-17.92
373.424	86.53
373.635	-28.16
373.846	76.29
374.056	23.04
374.267	41.47
374.477	72.19
374.688	18.94
374.898	90.62
375.109	-17.92
375.319	49.66
375.53	94.72
375.74	64
375.951	39.42
376.161	74.24
376.372	-5.63
376.582	33.28
376.793	6.66
377.003	-9.73
377.214	57.86
377.424	18.94
377.635	4.61
377.845	-7.68
378.055	35.33
378.266	74.24
378.476	107.01
378.686	-17.92
378.897	113.15
379.107	-11.78
379.317	80.38
379.528	68.09
379.738	92.67
379.948	47.62
380.158	70.14
380.369	70.14
380.579	121.34
380.789	41.47
380.999	23.04
381.21	51.71
381.42	72.19
381.63	100.86
381.84	102.91
382.05	41.47
382.261	117.25
382.471	66.05
382.681	74.24
382.891	16.9
383.101	18.94
383.311	53.76
383.521	47.62
383.731	123.39
383.941	41.47
384.151	47.62
384.361	51.71
384.571	-22.02
384.781	102.91
384.991	8.7
385.201	10.75
385.411	35.33
385.621	84.48
385.831	-22.02
386.041	78.33
386.251	25.09
386.461	94.72
386.671	107.01
386.881	59.9
387.091	68.09
387.301	66.05
387.511	78.33
387.72	90.62
387.93	68.09
388.14	18.94
388.35	111.1
388.56	162.3
388.769	31.23
388.979	66.05
389.189	29.18
389.399	-1.54
389.609	84.48
389.818	90.62
390.028	107.01
390.238	80.38
390.447	31.23
390.657	84.48
390.867	6.66
391.076	96.77
391.286	0.51
391.496	41.47
391.705	90.62
391.915	119.29
392.125	43.52
392.334	45.57
392.544	104.96
392.753	80.38
392.963	-17.92
393.172	90.62
393.382	78.33
393.591	123.39
393.801	107.01
394.01	80.38
394.22	125.44
394.429	55.81
394.639	84.48
394.848	43.52
395.058	66.05
395.267	117.25
395.477	66.05
395.686	88.57
395.895	98.81
396.105	147.97
396.314	80.38
396.524	31.23
396.733	143.87
396.942	61.95
397.152	61.95
397.361	57.86
397.57	49.66
397.78	104.96
397.989	115.2
398.198	160.25
398.407	-19.97
398.617	178.69
398.826	49.66
399.035	102.91
399.244	43.52
399.453	156.16
399.663	80.38
399.872	100.86
400.081	78.33
400.29	166.4
400.499	39.42
400.708	125.44
400.917	68.09
401.127	117.25
401.336	109.05
401.545	109.05
401.754	154.11
401.963	125.44
402.172	100.86
402.381	156.16
402.59	109.05
402.799	125.44
403.008	123.39
403.217	6.66
403.426	133.63
403.635	88.57
403.844	59.9
404.053	133.63
404.262	66.05
404.471	68.09
404.68	100.86
404.888	51.71
405.097	131.58
405.306	66.05
405.515	68.09
405.724	129.53
405.933	168.45
406.142	178.69
406.35	117.25
406.559	184.83
406.768	123.39
406.977	119.29
407.185	143.87
407.394	154.11
407.603	129.53
407.812	137.73
408.02	154.11
408.229	170.49
408.438	242.17
408.646	137.73
408.855	141.82
409.064	213.5
409.272	240.12
409.481	256.51
409.69	221.69
409.898	262.65
410.107	260.6
410.315	313.85
410.524	227.84
410.733	238.08
410.941	287.23
411.15	307.71
411.358	332.28
411.567	305.66
411.775	371.19
411.984	350.71
412.192	324.09
412.401	291.32
412.609	379.39
412.818	367.1
413.026	365.05
413.234	371.19
413.443	305.66
413.651	420.35
413.86	387.58
414.068	500.22
414.276	469.5
414.485	465.4
414.693	483.83
414.901	457.21
415.11	461.3
415.318	592.37
415.526	559.61
415.734	659.96
415.943	631.29
416.151	633.33
416.359	674.29
416.567	602.61
416.776	748.02
416.984	819.7
417.192	776.69
417.4	782.84
417.608	750.07
417.817	842.23
418.025	879.09
418.233	907.76
418.441	915.95
418.649	926.19
418.857	971.25
419.065	1114.61
419.273	1061.36
419.481	1081.84
419.689	1106.42
419.897	1094.13
420.105	1114.61
420.313	1184.24
420.521	1227.25
420.729	1266.16
420.937	1358.32
421.145	1350.12
421.353	1524.2
421.561	1450.47
421.769	1444.33
421.977	1532.39
422.185	1634.79
422.393	1706.47
422.601	1812.96
422.809	1767.91
423.017	1745.38
423.224	1954.27
423.432	1886.69
423.64	1868.26
423.848	2118.11
424.056	2142.69
424.263	2169.31
424.471	2191.84
424.679	2277.85
424.887	2400.73
425.094	2488.79
425.302	2472.41
425.51	2613.72
425.718	2720.21
425.925	2777.56
426.133	2847.19
426.341	2882
426.548	3154.38
426.756	3111.38
426.964	3191.25
427.171	3320.27
427.379	3437
427.586	3391.95
427.794	3449.29
428.001	3557.83
428.209	3862.98
428.417	3684.81
428.624	4063.68
428.832	4112.83
429.039	4159.94
429.247	4014.53
429.454	4403.64
429.662	4577.72
429.869	4411.84
430.076	4807.09
430.284	4647.35
430.491	4843.96
430.699	5165.49
430.906	4962.74
431.114	5015.99
431.321	5194.16
431.528	5331.37
431.736	5788.07
431.943	6044.07
432.15	5816.74
432.358	5917.09
432.565	6220.19
432.772	6056.36
432.979	6676.89
433.187	6683.03
433.394	6707.61
433.601	7225.75
433.808	7123.35
434.016	7127.44
434.223	7596.43
434.43	7866.76
434.637	7590.28
434.844	8112.52
435.052	8315.27
435.259	8229.25
435.466	8604.03
435.673	8286.59
435.88	8960.38
436.087	9365.87
436.294	9304.43
436.501	8913.27
436.708	9054.58
436.915	9677.16
437.122	10010.98
437.329	9802.09
437.537	10318.18
437.743	10514.78
437.95	10332.51
438.157	10991.96
438.364	11401.55
438.571	11127.13
438.778	11309.4
438.985	12312.9
439.192	11651.41
439.399	12364.1
439.606	12061
439.813	12601.66
440.02	13650.22
440.227	13287.73
440.433	13295.93
440.64	13730.09
440.847	13357.36
441.054	13840.68
441.261	14901.53
441.467	14727.46
441.674	14797.09
441.881	15319.32
442.088	15325.46
442.294	15059.23
442.501	15577.36
442.708	15896.85
442.914	16752.9
443.121	17156.35
443.328	17094.91
443.534	18028.78
443.741	17336.57
443.948	17146.11
444.154	18749.67
444.361	18280.68
444.568	18350.31
444.774	18587.88
444.981	18583.78
445.187	19351.77
445.394	20164.81
445.6	19943.63
445.807	21899.44
446.013	20760.77
446.22	21487.8
446.426	22114.48
446.633	22180.01
446.839	22849.7
447.046	22294.7
447.252	23236.77
447.459	23214.24
447.665	22954.15
447.871	24354.96
448.078	25311.36
448.284	23836.82
448.491	24438.92
448.697	25616.51
448.903	26040.43
449.11	25890.93
449.316	25567.35
449.522	26282.09
449.728	26763.37
449.935	27285.6
450.141	26593.39
450.347	27379.81
450.553	26857.57
450.76	26955.88
450.966	27928.66
451.172	27904.09
451.378	28414.03
451.584	27902.04
451.791	28405.84
451.997	28160.08
452.203	28727.37
452.409	28584.01
452.615	28645.45
452.821	27459.68
453.027	27316.32
453.233	28733.51
453.44	27435.1
453.646	28239.95
453.852	28309.58
454.058	28289.1
454.264	27469.92
454.47	28051.54
454.676	27424.86
454.882	28395.6
455.088	25763.96
455.294	26228.85
455.5	26632.3
455.705	26986.6
455.911	25917.56
456.117	25364.6
456.323	24914.05
456.529	23568.54
456.735	24410.25
456.941	23928.98
457.147	23582.87
457.352	23070.88
457.558	22466.73
457.764	22649
457.97	22073.52
458.176	21907.63
458.381	21749.94
458.587	20629.7
458.793	20715.72
458.999	19499.22
459.204	21070.01
459.41	20406.47
459.616	19142.88
459.821	19128.54
460.027	19003.61
460.233	18788.58
460.438	17594.61
460.644	17848.56
460.85	16943.36
461.055	16910.59
461.261	16750.85
461.466	15468.82
461.672	14907.68
461.878	16163.08
462.083	15198.49
462.289	15075.61
462.494	14930.2
462.7	14063.91
462.905	13855.02
463.111	14188.84
463.316	14240.04
463.522	13977.9
463.727	14000.43
463.932	13904.17
464.138	13588.78
464.343	13867.31
464.549	13424.95
464.754	13902.12
464.959	13760.81
465.165	13551.92
465.37	13005.11
465.575	12597.57
465.781	13185.33
465.986	13576.5
466.191	12792.12
466.397	12564.8
466.602	12314.95
466.807	12503.36
467.012	12325.19
467.218	12568.9
467.423	12169.54
467.628	12454.21
467.833	12984.63
468.038	12568.9
468.244	12190.02
468.449	12507.46
468.654	12171.59
