Data from USB4F104151__101__11-07-06-482.txt Node

Date: Wed Mar 12 11:07:06 EDT 2025
User: louis
Spectrometer: USB4F10415
Trigger mode: 4
Integration Time (sec): 2.000000E-2
Scans to average: 1
Electric dark correction enabled: true
Nonlinearity correction enabled: false
Boxcar width: 0
XAxis mode: Wavelengths
Number of Pixels in Spectrum: 3648
>>>>>Begin Spectral Data<<<<<
178.204	-117.08
178.424	-117.08
178.644	-117.08
178.864	-65.88
179.084	-102.74
179.304	-24.92
179.524	22.19
179.744	42.67
179.964	52.91
180.184	-4.44
180.404	-29.01
180.624	5.8
180.844	-8.53
181.064	-16.73
181.283	-24.92
181.503	-18.77
181.723	3.75
181.943	9.9
182.163	16.04
182.383	-0.34
182.602	93.87
182.822	-8.53
183.042	42.67
183.262	-12.63
183.482	-18.77
183.701	83.63
183.921	-49.49
184.141	36.52
184.361	9.9
184.58	1.71
184.8	5.8
185.02	24.23
185.239	75.43
185.459	24.23
185.679	13.99
185.898	48.81
186.118	-4.44
186.338	7.85
186.557	9.9
186.777	65.19
186.997	-6.49
187.216	-29.01
187.436	46.76
187.655	-14.68
187.875	81.58
188.095	54.95
188.314	18.09
188.534	18.09
188.753	-0.34
188.973	54.95
189.192	-4.44
189.412	42.67
189.631	-22.87
189.851	-55.64
190.07	44.71
190.29	59.05
190.509	-31.06
190.729	20.14
190.948	-18.77
191.168	38.57
191.387	20.14
191.607	36.52
191.826	-0.34
192.045	-12.63
192.265	40.62
192.484	73.39
192.704	26.28
192.923	-65.88
193.142	93.87
193.362	-10.58
193.581	11.95
193.8	5.8
194.02	-0.34
194.239	-24.92
194.458	-4.44
194.678	9.9
194.897	9.9
195.116	71.34
195.335	11.95
195.555	30.38
195.774	97.96
195.993	-0.34
196.212	-26.96
196.432	-37.2
196.651	30.38
196.87	-35.16
197.089	36.52
197.308	-16.73
197.528	-0.34
197.747	79.53
197.966	-10.58
198.185	-41.3
198.404	32.43
198.623	-8.53
198.842	11.95
199.062	7.85
199.281	42.67
199.5	-45.4
199.719	5.8
199.938	73.39
200.157	-2.39
200.376	-35.16
200.595	61.1
200.814	-4.44
201.033	-22.87
201.252	26.28
201.471	16.04
201.69	-16.73
201.909	30.38
202.128	-12.63
202.347	24.23
202.566	7.85
202.785	-4.44
203.004	-84.31
203.223	91.82
203.442	52.91
203.661	38.57
203.879	20.14
204.098	42.67
204.317	30.38
204.536	77.48
204.755	61.1
204.974	26.28
205.193	5.8
205.411	20.14
205.63	-18.77
205.849	36.52
206.068	5.8
206.287	18.09
206.505	1.71
206.724	34.47
206.943	-20.82
207.162	50.86
207.381	44.71
207.599	69.29
207.818	61.1
208.037	-6.49
208.255	-12.63
208.474	30.38
208.693	18.09
208.911	1.71
209.13	59.05
209.349	20.14
209.567	32.43
209.786	-22.87
210.005	61.1
210.223	77.48
210.442	20.14
210.661	36.52
210.879	48.81
211.098	77.48
211.316	50.86
211.535	-22.87
211.753	20.14
211.972	-41.3
212.191	11.95
212.409	-12.63
212.628	57
212.846	-2.39
213.065	40.62
213.283	-12.63
213.502	46.76
213.72	81.58
213.938	26.28
214.157	-41.3
214.375	48.81
214.594	-12.63
214.812	-0.34
215.031	-8.53
215.249	30.38
215.467	22.19
215.686	7.85
215.904	-4.44
216.122	-31.06
216.341	3.75
216.559	20.14
216.778	116.39
216.996	36.52
217.214	7.85
217.432	-53.59
217.651	-0.34
217.869	-8.53
218.087	24.23
218.306	44.71
218.524	-45.4
218.742	-14.68
218.96	79.53
219.179	-57.68
219.397	-41.3
219.615	61.1
219.833	48.81
220.051	-22.87
220.27	40.62
220.488	13.99
220.706	28.33
220.924	22.19
221.142	-6.49
221.36	-22.87
221.578	48.81
221.796	48.81
222.015	-22.87
222.233	3.75
222.451	83.63
222.669	16.04
222.887	100.01
223.105	-37.2
223.323	3.75
223.541	36.52
223.759	52.91
223.977	5.8
224.195	69.29
224.413	24.23
224.631	24.23
224.849	-12.63
225.067	89.77
225.285	32.43
225.503	-16.73
225.721	-16.73
225.939	-41.3
226.157	38.57
226.375	102.06
226.592	-37.2
226.81	20.14
227.028	52.91
227.246	-0.34
227.464	13.99
227.682	81.58
227.9	34.47
228.117	-67.92
228.335	126.63
228.553	104.11
228.771	-43.35
228.989	22.19
229.206	1.71
229.424	-20.82
229.642	-0.34
229.86	-69.97
230.077	-26.96
230.295	13.99
230.513	28.33
230.731	81.58
230.948	77.48
231.166	13.99
231.384	1.71
231.601	46.76
231.819	-33.11
232.037	-0.34
232.254	-4.44
232.472	32.43
232.689	-33.11
232.907	20.14
233.125	73.39
233.342	104.11
233.56	40.62
233.777	61.1
233.995	52.91
234.213	67.24
234.43	44.71
234.648	54.95
234.865	48.81
235.083	34.47
235.3	-41.3
235.518	-92.5
235.735	24.23
235.953	52.91
236.17	-16.73
236.388	13.99
236.605	-39.25
236.822	-31.06
237.04	36.52
237.257	34.47
237.475	-35.16
237.692	-26.96
237.909	26.28
238.127	16.04
238.344	-35.16
238.562	-59.73
238.779	-88.4
238.996	34.47
239.214	-16.73
239.431	32.43
239.648	-14.68
239.865	48.81
240.083	34.47
240.3	-29.01
240.517	-37.2
240.735	3.75
240.952	44.71
241.169	83.63
241.386	-22.87
241.603	44.71
241.821	-22.87
242.038	52.91
242.255	34.47
242.472	-69.97
242.689	-12.63
242.907	69.29
243.124	-35.16
243.341	79.53
243.558	22.19
243.775	-33.11
243.992	-0.34
244.209	46.76
244.426	18.09
244.643	3.75
244.86	7.85
245.078	73.39
245.295	20.14
245.512	57
245.729	-8.53
245.946	7.85
246.163	30.38
246.38	-18.77
246.597	-49.49
246.814	-14.68
247.031	42.67
247.248	61.1
247.464	36.52
247.681	57
247.898	52.91
248.115	67.24
248.332	-51.54
248.549	106.15
248.766	24.23
248.983	26.28
249.2	16.04
249.417	102.06
249.633	-20.82
249.85	13.99
250.067	1.71
250.284	-45.4
250.501	-10.58
250.717	-10.58
250.934	-53.59
251.151	-57.68
251.368	57
251.585	24.23
251.801	87.72
252.018	-69.97
252.235	5.8
252.451	-22.87
252.668	22.19
252.885	9.9
253.102	57
253.318	81.58
253.535	-24.92
253.752	-10.58
253.968	34.47
254.185	-29.01
254.401	38.57
254.618	7.85
254.835	-4.44
255.051	48.81
255.268	3.75
255.484	46.76
255.701	44.71
255.917	79.53
256.134	34.47
256.351	46.76
256.567	48.81
256.784	9.9
257	87.72
257.217	67.24
257.433	50.86
257.65	-49.49
257.866	52.91
258.082	3.75
258.299	24.23
258.515	-8.53
258.732	63.15
258.948	42.67
259.165	-47.44
259.381	44.71
259.597	32.43
259.814	11.95
260.03	11.95
260.246	67.24
260.463	34.47
260.679	73.39
260.895	-12.63
261.112	52.91
261.328	16.04
261.544	38.57
261.761	16.04
261.977	-26.96
262.193	-18.77
262.409	42.67
262.626	40.62
262.842	36.52
263.058	-41.3
263.274	-16.73
263.49	-45.4
263.707	59.05
263.923	30.38
264.139	52.91
264.355	-0.34
264.571	81.58
264.787	36.52
265.004	59.05
265.22	-31.06
265.436	7.85
265.652	7.85
265.868	-4.44
266.084	-31.06
266.3	69.29
266.516	-18.77
266.732	-10.58
266.948	-33.11
267.164	-98.64
267.38	57
267.596	30.38
267.812	114.34
268.028	54.95
268.244	-8.53
268.46	65.19
268.676	-49.49
268.892	24.23
269.108	-16.73
269.324	40.62
269.54	36.52
269.756	13.99
269.972	36.52
270.188	-29.01
270.403	1.71
270.619	52.91
270.835	-4.44
271.051	87.72
271.267	3.75
271.483	28.33
271.698	20.14
271.914	3.75
272.13	61.1
272.346	81.58
272.562	20.14
272.777	24.23
272.993	26.28
273.209	-16.73
273.425	36.52
273.64	20.14
273.856	13.99
274.072	61.1
274.287	-16.73
274.503	-29.01
274.719	71.34
274.934	-18.77
275.15	24.23
275.366	83.63
275.581	-0.34
275.797	22.19
276.012	-41.3
276.228	50.86
276.444	20.14
276.659	24.23
276.875	13.99
277.09	-4.44
277.306	65.19
277.521	-2.39
277.737	30.38
277.952	-10.58
278.168	-8.53
278.383	73.39
278.599	32.43
278.814	-12.63
279.03	-47.44
279.245	30.38
279.461	-59.73
279.676	34.47
279.892	36.52
280.107	-10.58
280.322	-14.68
280.538	40.62
280.753	57
280.969	69.29
281.184	26.28
281.399	38.57
281.615	46.76
281.83	-24.92
282.045	-18.77
282.26	87.72
282.476	34.47
282.691	69.29
282.906	-29.01
283.122	-43.35
283.337	-45.4
283.552	77.48
283.767	-8.53
283.983	46.76
284.198	7.85
284.413	83.63
284.628	-12.63
284.843	-4.44
285.058	65.19
285.274	-12.63
285.489	3.75
285.704	38.57
285.919	-12.63
286.134	73.39
286.349	3.75
286.564	75.43
286.779	52.91
286.995	26.28
287.21	-31.06
287.425	-16.73
287.64	5.8
287.855	7.85
288.07	-18.77
288.285	-43.35
288.5	11.95
288.715	57
288.93	-47.44
289.145	-16.73
289.36	-16.73
289.575	32.43
289.79	44.71
290.004	44.71
290.219	81.58
290.434	5.8
290.649	57
290.864	83.63
291.079	18.09
291.294	-37.2
291.509	110.25
291.724	-55.64
291.938	81.58
292.153	-20.82
292.368	9.9
292.583	28.33
292.798	9.9
293.012	75.43
293.227	-2.39
293.442	18.09
293.657	24.23
293.871	46.76
294.086	30.38
294.301	65.19
294.516	-43.35
294.73	30.38
294.945	7.85
295.16	-0.34
295.374	11.95
295.589	-16.73
295.804	46.76
296.018	11.95
296.233	-14.68
296.447	-43.35
296.662	20.14
296.877	59.05
297.091	32.43
297.306	7.85
297.52	-8.53
297.735	-35.16
297.949	9.9
298.164	52.91
298.378	83.63
298.593	-35.16
298.807	-6.49
299.022	42.67
299.236	18.09
299.451	-63.83
299.665	-26.96
299.88	-6.49
300.094	40.62
300.309	-12.63
300.523	52.91
300.737	28.33
300.952	3.75
301.166	30.38
301.381	63.15
301.595	26.28
301.809	-24.92
302.024	-18.77
302.238	-35.16
302.452	22.19
302.667	-4.44
302.881	-6.49
303.095	36.52
303.309	57
303.524	5.8
303.738	83.63
303.952	-45.4
304.166	59.05
304.381	28.33
304.595	44.71
304.809	61.1
305.023	-14.68
305.237	32.43
305.452	40.62
305.666	46.76
305.88	79.53
306.094	16.04
306.308	-24.92
306.522	30.38
306.736	-4.44
306.95	40.62
307.164	3.75
307.379	36.52
307.593	34.47
307.807	3.75
308.021	-26.96
308.235	5.8
308.449	75.43
308.663	11.95
308.877	3.75
309.091	46.76
309.305	36.52
309.519	-26.96
309.733	-31.06
309.947	-14.68
310.161	71.34
310.374	59.05
310.588	5.8
310.802	67.24
311.016	40.62
311.23	57
311.444	-29.01
311.658	42.67
311.872	65.19
312.085	20.14
312.299	9.9
312.513	22.19
312.727	22.19
312.941	1.71
313.154	9.9
313.368	46.76
313.582	34.47
313.796	-29.01
314.009	61.1
314.223	7.85
314.437	26.28
314.651	32.43
314.864	5.8
315.078	83.63
315.292	-16.73
315.505	24.23
315.719	36.52
315.933	52.91
316.146	59.05
316.36	28.33
316.573	22.19
316.787	57
317.001	28.33
317.214	1.71
317.428	-31.06
317.641	-18.77
317.855	-39.25
318.068	100.01
318.282	36.52
318.495	40.62
318.709	7.85
318.922	-49.49
319.136	-12.63
319.349	34.47
319.563	3.75
319.776	73.39
319.99	-0.34
320.203	38.57
320.417	54.95
320.63	11.95
320.843	5.8
321.057	81.58
321.27	38.57
321.483	16.04
321.697	61.1
321.91	-16.73
322.124	30.38
322.337	-12.63
322.55	118.44
322.763	20.14
322.977	42.67
323.19	16.04
323.403	24.23
323.617	85.67
323.83	34.47
324.043	52.91
324.256	13.99
324.469	1.71
324.683	24.23
324.896	36.52
325.109	30.38
325.322	13.99
325.535	69.29
325.748	5.8
325.962	-24.92
326.175	-8.53
326.388	46.76
326.601	-12.63
326.814	-82.26
327.027	-20.82
327.24	97.96
327.453	40.62
327.666	20.14
327.879	42.67
328.092	26.28
328.305	57
328.518	11.95
328.731	-26.96
328.944	-10.58
329.157	36.52
329.37	3.75
329.583	63.15
329.796	-16.73
330.009	5.8
330.222	13.99
330.435	16.04
330.648	91.82
330.861	42.67
331.073	20.14
331.286	61.1
331.499	-39.25
331.712	30.38
331.925	20.14
332.138	-0.34
332.35	20.14
332.563	20.14
332.776	-16.73
332.989	40.62
333.202	65.19
333.414	11.95
333.627	46.76
333.84	-33.11
334.053	20.14
334.265	-10.58
334.478	57
334.691	38.57
334.903	36.52
335.116	48.81
335.329	-72.02
335.541	-16.73
335.754	32.43
335.966	24.23
336.179	-41.3
336.392	38.57
336.604	-14.68
336.817	9.9
337.029	36.52
337.242	52.91
337.454	9.9
337.667	-31.06
337.88	85.67
338.092	26.28
338.305	30.38
338.517	-16.73
338.729	-24.92
338.942	40.62
339.154	-16.73
339.367	85.67
339.579	79.53
339.792	-14.68
340.004	-14.68
340.217	57
340.429	73.39
340.641	-24.92
340.854	5.8
341.066	61.1
341.278	48.81
341.491	81.58
341.703	-2.39
341.915	57
342.128	36.52
342.34	24.23
342.552	28.33
342.764	3.75
342.977	26.28
343.189	30.38
343.401	-16.73
343.613	11.95
343.826	24.23
344.038	-16.73
344.25	42.67
344.462	13.99
344.674	40.62
344.886	7.85
345.099	54.95
345.311	50.86
345.523	85.67
345.735	65.19
345.947	-8.53
346.159	38.57
346.371	42.67
346.583	42.67
346.795	46.76
347.007	42.67
347.219	50.86
347.431	85.67
347.643	20.14
347.855	-26.96
348.067	1.71
348.279	-12.63
348.491	42.67
348.703	69.29
348.915	52.91
349.127	85.67
349.339	-24.92
349.551	-8.53
349.763	40.62
349.975	-67.92
350.187	-16.73
350.399	28.33
350.61	87.72
350.822	36.52
351.034	38.57
351.246	106.15
351.458	54.95
351.669	16.04
351.881	22.19
352.093	24.23
352.305	-6.49
352.517	7.85
352.728	20.14
352.94	91.82
353.152	20.14
353.363	-51.54
353.575	46.76
353.787	-6.49
353.999	75.43
354.21	40.62
354.422	52.91
354.633	9.9
354.845	138.92
355.057	-6.49
355.268	65.19
355.48	1.71
355.692	-22.87
355.903	1.71
356.115	52.91
356.326	16.04
356.538	85.67
356.749	108.2
356.961	143.02
357.172	-14.68
357.384	20.14
357.595	32.43
357.807	38.57
358.018	18.09
358.23	32.43
358.441	91.82
358.653	46.76
358.864	48.81
359.075	-37.2
359.287	38.57
359.498	-49.49
359.709	95.91
359.921	73.39
360.132	-61.78
360.344	46.76
360.555	61.1
360.766	61.1
360.977	18.09
361.189	59.05
361.4	9.9
361.611	32.43
361.823	54.95
362.034	54.95
362.245	7.85
362.456	13.99
362.667	63.15
362.879	13.99
363.09	26.28
363.301	20.14
363.512	44.71
363.723	46.76
363.935	24.23
364.146	79.53
364.357	9.9
364.568	30.38
364.779	30.38
364.99	65.19
365.201	48.81
365.412	71.34
365.623	67.24
365.834	22.19
366.045	52.91
366.256	9.9
366.467	114.34
366.678	-16.73
366.889	30.38
367.1	-2.39
367.311	16.04
367.522	26.28
367.733	-8.53
367.944	20.14
368.155	30.38
368.366	18.09
368.577	69.29
368.788	28.33
368.999	52.91
369.209	48.81
369.42	69.29
369.631	16.04
369.842	57
370.053	26.28
370.264	-29.01
370.474	91.82
370.685	28.33
370.896	20.14
371.107	95.91
371.317	75.43
371.528	34.47
371.739	57
371.95	63.15
372.16	9.9
372.371	-18.77
372.582	7.85
372.792	106.15
373.003	63.15
373.214	11.95
373.424	79.53
373.635	7.85
373.846	48.81
374.056	126.63
374.267	44.71
374.477	-8.53
374.688	57
374.898	61.1
375.109	36.52
375.319	89.77
375.53	22.19
375.74	40.62
375.951	48.81
376.161	77.48
376.372	52.91
376.582	-0.34
376.793	69.29
377.003	77.48
377.214	73.39
377.424	5.8
377.635	36.52
377.845	36.52
378.055	110.25
378.266	-29.01
378.476	-12.63
378.686	20.14
378.897	-6.49
379.107	87.72
379.317	71.34
379.528	-8.53
379.738	7.85
379.948	30.38
380.158	124.58
380.369	40.62
380.579	-33.11
380.789	-6.49
380.999	44.71
381.21	126.63
381.42	67.24
381.63	-6.49
381.84	71.34
382.05	20.14
382.261	40.62
382.471	22.19
382.681	18.09
382.891	22.19
383.101	71.34
383.311	32.43
383.521	-2.39
383.731	36.52
383.941	-14.68
384.151	22.19
384.361	24.23
384.571	97.96
384.781	40.62
384.991	16.04
385.201	79.53
385.411	-8.53
385.621	61.1
385.831	7.85
386.041	89.77
386.251	-16.73
386.461	124.58
386.671	67.24
386.881	34.47
387.091	-51.54
387.301	54.95
387.511	124.58
387.72	65.19
387.93	71.34
388.14	36.52
388.35	57
388.56	26.28
388.769	57
388.979	48.81
389.189	22.19
389.399	11.95
389.609	9.9
389.818	28.33
390.028	71.34
390.238	59.05
390.447	40.62
390.657	30.38
390.867	36.52
391.076	16.04
391.286	54.95
391.496	102.06
391.705	54.95
391.915	89.77
392.125	81.58
392.334	85.67
392.544	38.57
392.753	3.75
392.963	100.01
393.172	5.8
393.382	30.38
393.591	95.91
393.801	46.76
394.01	65.19
394.22	91.82
394.429	11.95
394.639	36.52
394.848	48.81
395.058	100.01
395.267	61.1
395.477	85.67
395.686	151.21
395.895	22.19
396.105	126.63
396.314	61.1
396.524	46.76
396.733	65.19
396.942	24.23
397.152	77.48
397.361	110.25
397.57	44.71
397.78	85.67
397.989	134.82
398.198	81.58
398.407	-20.82
398.617	106.15
398.826	79.53
399.035	122.54
399.244	110.25
399.453	89.77
399.663	46.76
399.872	79.53
400.081	69.29
400.29	112.3
400.499	57
400.708	83.63
400.917	81.58
401.127	149.16
401.336	130.73
401.545	171.69
401.754	114.34
401.963	126.63
402.172	93.87
402.381	73.39
402.59	57
402.799	179.88
403.008	159.4
403.217	136.87
403.426	102.06
403.635	106.15
403.844	114.34
404.053	71.34
404.262	85.67
404.471	44.71
404.68	132.78
404.888	159.4
405.097	114.34
405.306	149.16
405.515	73.39
405.724	155.3
405.933	159.4
406.142	165.54
406.35	163.5
406.559	173.74
406.768	132.78
406.977	155.3
407.185	118.44
407.394	151.21
407.603	114.34
407.812	231.08
408.02	261.8
408.229	265.89
408.438	253.61
408.646	239.27
408.855	190.12
409.064	284.33
409.272	235.18
409.481	292.52
409.69	247.46
409.898	319.14
410.107	253.61
410.315	255.65
410.524	269.99
410.733	333.48
410.941	300.71
411.15	351.91
411.358	308.9
411.567	325.29
411.775	300.71
411.984	392.87
412.192	401.06
412.401	425.64
412.609	351.91
412.818	468.64
413.026	429.73
413.234	429.73
413.443	491.17
413.651	470.69
413.86	495.27
414.068	503.46
414.276	616.1
414.485	626.34
414.693	548.51
414.901	644.77
415.11	642.72
415.318	620.19
415.526	632.48
415.734	765.6
415.943	728.74
416.151	687.78
416.359	755.36
416.567	708.26
416.776	816.8
416.984	843.42
417.192	831.13
417.4	835.23
417.608	925.34
417.817	972.44
418.025	894.62
418.233	1097.37
418.441	1037.98
418.649	1093.27
418.857	1130.14
419.065	1083.03
419.273	1117.85
419.481	1242.78
419.689	1289.88
419.897	1398.42
420.105	1343.13
420.313	1371.8
420.521	1515.16
420.729	1418.9
420.937	1564.31
421.145	1560.21
421.353	1595.03
421.561	1728.14
421.769	1803.92
421.977	1836.69
422.185	1853.07
422.393	1881.74
422.601	2088.59
422.809	2088.59
423.017	2029.2
423.224	2174.6
423.432	2213.51
423.64	2162.31
423.848	2434.69
424.056	2250.38
424.263	2686.59
424.471	2635.39
424.679	2649.73
424.887	2709.12
425.094	2743.94
425.302	2784.9
425.51	3006.08
425.718	3014.27
425.925	2946.69
426.133	3159.67
426.341	3288.7
426.548	3518.07
426.756	3628.66
426.964	3477.11
427.171	3784.3
427.379	3847.79
427.586	4032.11
427.794	4077.16
428.001	4228.71
428.209	4345.45
428.417	4456.04
428.624	4513.38
428.832	4726.37
429.039	4617.83
429.247	4578.92
429.454	5156.44
429.662	5381.72
429.869	4875.87
430.076	5307.99
430.284	5475.93
430.491	5518.93
430.699	5838.42
430.906	5787.22
431.114	5860.95
431.321	6147.66
431.528	6243.92
431.736	6612.55
431.943	6977.09
432.15	6764.1
432.358	6891.07
432.565	7257.66
432.772	6985.28
432.979	7425.59
433.187	7626.29
433.394	7614.01
433.601	8252.97
433.808	8115.76
434.016	8173.1
434.223	8693.29
434.43	9121.31
434.637	8719.91
434.844	9362.97
435.052	9469.47
435.259	9518.62
435.466	9469.47
435.673	9512.47
435.88	10386.96
436.087	10792.45
436.294	11015.68
436.501	10331.66
436.708	10563.08
436.915	11120.13
437.122	11542.01
437.329	11369.98
437.537	11832.82
437.743	11861.49
437.95	12011
438.157	12510.7
438.364	13077.99
438.571	12602.86
438.778	12975.59
438.985	14491.09
439.192	13776.34
439.399	14106.07
439.606	13608.41
439.813	14783.95
440.02	15312.32
440.227	15269.31
440.433	15128
440.64	15680.96
440.847	15498.69
441.054	15867.32
441.261	16833.96
441.467	16827.82
441.674	17319.33
441.881	17855.9
442.088	17261.99
442.294	17520.03
442.501	18025.88
442.708	18318.74
442.914	18910.6
443.121	19809.66
443.328	19387.78
443.534	20569.46
443.741	20055.42
443.948	19422.59
444.154	21230.95
444.361	21282.15
444.568	21335.4
444.774	21222.76
444.981	21376.36
445.187	21925.21
445.394	23158.09
445.6	22969.68
445.807	24919.34
446.013	23749.95
446.22	24319.29
446.426	25107.76
446.633	25273.64
446.839	26516.76
447.046	25115.95
447.252	26416.41
447.459	26793.23
447.665	26416.41
447.871	27399.43
448.078	28777.72
448.284	27258.12
448.491	28464.38
448.697	29502.7
448.903	29611.24
449.11	30139.61
449.316	29250.8
449.522	29844.71
449.728	30821.59
449.935	31032.53
450.141	30823.64
450.347	31560.91
450.553	30584.02
450.76	30917.84
450.966	31995.07
451.172	31401.16
451.378	32314.56
451.584	31702.21
451.791	32543.93
451.997	32464.06
452.203	32722.1
452.409	32783.54
452.615	32795.83
452.821	31409.36
453.027	30991.57
453.233	32621.75
453.44	31601.86
453.646	31835.33
453.852	32228.54
454.058	32138.43
454.264	31311.05
454.47	32056.51
454.676	31241.42
454.882	32576.7
455.088	29549.8
455.294	29836.52
455.5	30495.96
455.705	30457.05
455.911	29533.42
456.117	29089.01
456.323	28415.23
456.529	26869.01
456.735	28310.78
456.941	27542.79
457.147	27012.37
457.352	26008.86
457.558	25767.2
457.764	26035.49
457.97	25398.57
458.176	25011.5
458.381	24919.34
458.587	23614.79
458.793	23622.98
458.999	22558.03
459.204	24202.55
459.41	23420.23
459.616	21722.46
459.821	21933.4
460.027	21722.46
460.233	21407.08
460.438	20335.99
460.644	20524.4
460.85	19580.29
461.055	19350.92
461.261	19338.63
461.466	17747.36
461.672	17212.84
461.878	18558.35
462.083	17296.8
462.289	16856.49
462.494	16948.65
462.7	16025.01
462.905	15750.59
463.111	16448.94
463.316	16420.27
463.522	15898.04
463.727	15924.66
463.932	15850.94
464.138	15850.94
464.343	15830.46
464.549	15525.31
464.754	15820.22
464.959	15637.95
465.165	15461.82
465.37	15005.13
465.575	14661.07
465.781	15099.33
465.986	15351.23
466.191	14556.62
466.397	14441.93
466.602	13647.32
466.807	14462.41
467.012	14274
467.218	14038.48
467.423	14036.44
467.628	14116.31
467.833	14667.21
468.038	14130.64
468.244	13682.14
