Data from USB4F104151__58__11-05-55-787.txt Node

Date: Wed Mar 12 11:05:55 EDT 2025
User: louis
Spectrometer: USB4F10415
Trigger mode: 4
Integration Time (sec): 2.000000E-2
Scans to average: 1
Electric dark correction enabled: true
Nonlinearity correction enabled: false
Boxcar width: 0
XAxis mode: Wavelengths
Number of Pixels in Spectrum: 3648
>>>>>Begin Spectral Data<<<<<
178.204	-17.07
178.424	-17.07
178.644	-17.07
178.864	-51.88
179.084	-113.32
179.304	-27.31
179.524	38.23
179.744	-27.31
179.964	-21.16
180.184	21.85
180.404	15.7
180.624	-15.02
180.844	13.65
181.064	-2.73
181.283	15.7
181.503	-53.93
181.723	42.32
181.943	-88.75
182.163	1.37
182.383	19.8
182.602	-10.92
182.822	11.61
183.042	3.41
183.262	50.52
183.482	52.56
183.701	25.94
183.921	-60.07
184.141	1.37
184.361	114
184.58	-2.73
184.8	-8.87
185.02	-17.07
185.239	11.61
185.459	11.61
185.679	-31.4
185.898	-25.26
186.118	52.56
186.338	-10.92
186.557	19.8
186.777	3.41
186.997	-12.97
187.216	5.46
187.436	1.37
187.655	-25.26
187.875	27.99
188.095	-10.92
188.314	15.7
188.534	58.71
188.753	40.28
188.973	-15.02
189.192	42.32
189.412	-10.92
189.631	3.41
189.851	27.99
190.07	73.04
190.29	-27.31
190.509	-55.98
190.729	-6.83
190.948	9.56
191.168	77.14
191.387	52.56
191.607	32.08
191.826	5.46
192.045	79.19
192.265	32.08
192.484	-4.78
192.704	-6.83
192.923	-74.41
193.142	107.86
193.362	62.8
193.581	42.32
193.8	42.32
194.02	-27.31
194.239	-45.74
194.458	1.37
194.678	-6.83
194.897	-55.98
195.116	-31.4
195.335	30.04
195.555	-23.21
195.774	9.56
195.993	93.52
196.212	9.56
196.432	9.56
196.651	54.61
196.87	11.61
197.089	66.9
197.308	19.8
197.528	60.76
197.747	21.85
197.966	-4.78
198.185	32.08
198.404	-21.16
198.623	48.47
198.842	-6.83
199.062	50.52
199.281	21.85
199.5	-27.31
199.719	-2.73
199.938	56.66
200.157	15.7
200.376	48.47
200.595	40.28
200.814	5.46
201.033	-37.55
201.252	1.37
201.471	-25.26
201.69	1.37
201.909	23.89
202.128	50.52
202.347	5.46
202.566	-88.75
202.785	19.8
203.004	-21.16
203.223	71
203.442	-23.21
203.661	23.89
203.879	-2.73
204.098	27.99
204.317	23.89
204.536	-4.78
204.755	-2.73
204.974	42.32
205.193	23.89
205.411	93.52
205.63	79.19
205.849	64.85
206.068	38.23
206.287	19.8
206.505	-8.87
206.724	-4.78
206.943	77.14
207.162	21.85
207.381	40.28
207.599	11.61
207.818	9.56
208.037	5.46
208.255	17.75
208.474	-25.26
208.693	7.51
208.911	11.61
209.13	50.52
209.349	-23.21
209.567	-72.36
209.786	58.71
210.005	-2.73
210.223	48.47
210.442	32.08
210.661	7.51
210.879	40.28
211.098	15.7
211.316	1.37
211.535	36.18
211.753	-21.16
211.972	-10.92
212.191	36.18
212.409	34.13
212.628	40.28
212.846	-25.26
213.065	1.37
213.283	79.19
213.502	15.7
213.72	60.76
213.938	36.18
214.157	60.76
214.375	-2.73
214.594	-17.07
214.812	93.52
215.031	-33.45
215.249	-23.21
215.467	17.75
215.686	5.46
215.904	11.61
216.122	-4.78
216.341	185.68
216.559	27.99
216.778	-6.83
216.996	-66.22
217.214	21.85
217.432	30.04
217.651	-23.21
217.869	30.04
218.087	-27.31
218.306	85.33
218.524	19.8
218.742	34.13
218.96	50.52
219.179	56.66
219.397	89.43
219.615	30.04
219.833	7.51
220.051	-6.83
220.27	13.65
220.488	83.28
220.706	15.7
220.924	34.13
221.142	38.23
221.36	54.61
221.578	97.62
221.796	-2.73
222.015	-4.78
222.233	48.47
222.451	13.65
222.669	-19.11
222.887	13.65
223.105	-0.68
223.323	23.89
223.541	34.13
223.759	-68.27
223.977	56.66
224.195	66.9
224.413	56.66
224.631	5.46
224.849	34.13
225.067	93.52
225.285	-10.92
225.503	-35.5
225.721	-23.21
225.939	40.28
226.157	58.71
226.375	-8.87
226.592	1.37
226.81	81.24
227.028	116.05
227.246	87.38
227.464	34.13
227.682	83.28
227.9	30.04
228.117	44.37
228.335	-0.68
228.553	-45.74
228.771	54.61
228.989	9.56
229.206	46.42
229.424	-2.73
229.642	27.99
229.86	52.56
230.077	77.14
230.295	-2.73
230.513	36.18
230.731	46.42
230.948	152.92
231.166	36.18
231.384	13.65
231.601	7.51
231.819	71
232.037	38.23
232.254	-2.73
232.472	17.75
232.689	-17.07
232.907	101.72
233.125	7.51
233.342	30.04
233.56	-41.64
233.777	-29.35
233.995	-25.26
234.213	7.51
234.43	3.41
234.648	-12.97
234.865	25.94
235.083	54.61
235.3	-8.87
235.518	3.41
235.735	15.7
235.953	46.42
236.17	19.8
236.388	-37.55
236.605	32.08
236.822	-17.07
237.04	66.9
237.257	77.14
237.475	-76.46
237.692	19.8
237.909	5.46
238.127	30.04
238.344	52.56
238.562	-2.73
238.779	11.61
238.996	-10.92
239.214	48.47
239.431	54.61
239.648	21.85
239.865	30.04
240.083	83.28
240.3	-2.73
240.517	-23.21
240.735	58.71
240.952	46.42
241.169	23.89
241.386	1.37
241.603	25.94
241.821	-66.22
242.038	56.66
242.255	17.75
242.472	25.94
242.689	15.7
242.907	60.76
243.124	66.9
243.341	-4.78
243.558	17.75
243.775	-8.87
243.992	60.76
244.209	58.71
244.426	1.37
244.643	13.65
244.86	15.7
245.078	15.7
245.295	71
245.512	7.51
245.729	-66.22
245.946	-21.16
246.163	-21.16
246.38	-19.11
246.597	23.89
246.814	54.61
247.031	-33.45
247.248	66.9
247.464	-10.92
247.681	30.04
247.898	23.89
248.115	60.76
248.332	-10.92
248.549	-19.11
248.766	-4.78
248.983	19.8
249.2	17.75
249.417	48.47
249.633	42.32
249.85	19.8
250.067	9.56
250.284	-55.98
250.501	27.99
250.717	-2.73
250.934	46.42
251.151	32.08
251.368	-58.03
251.585	-4.78
251.801	77.14
252.018	23.89
252.235	-17.07
252.451	7.51
252.668	5.46
252.885	13.65
253.102	42.32
253.318	23.89
253.535	-64.17
253.752	25.94
253.968	38.23
254.185	-33.45
254.401	34.13
254.618	11.61
254.835	25.94
255.051	11.61
255.268	-29.35
255.484	79.19
255.701	19.8
255.917	-68.27
256.134	-64.17
256.351	54.61
256.567	-17.07
256.784	17.75
257	48.47
257.217	34.13
257.433	-2.73
257.65	-21.16
257.866	38.23
258.082	40.28
258.299	3.41
258.515	21.85
258.732	-29.35
258.948	42.32
259.165	114
259.381	11.61
259.597	17.75
259.814	-10.92
260.03	-51.88
260.246	23.89
260.463	11.61
260.679	32.08
260.895	-47.79
261.112	23.89
261.328	-6.83
261.544	19.8
261.761	83.28
261.977	-45.74
262.193	85.33
262.409	-15.02
262.626	19.8
262.842	40.28
263.058	44.37
263.274	56.66
263.49	15.7
263.707	11.61
263.923	25.94
264.139	32.08
264.355	25.94
264.571	111.96
264.787	5.46
265.004	30.04
265.22	-15.02
265.436	44.37
265.652	-12.97
265.868	25.94
266.084	30.04
266.3	-55.98
266.516	40.28
266.732	-6.83
266.948	38.23
267.164	66.9
267.38	32.08
267.596	68.95
267.812	23.89
268.028	38.23
268.244	-39.59
268.46	17.75
268.676	87.38
268.892	5.46
269.108	34.13
269.324	-2.73
269.54	-12.97
269.756	75.09
269.972	-31.4
270.188	79.19
270.403	-25.26
270.619	27.99
270.835	11.61
271.051	38.23
271.267	15.7
271.483	25.94
271.698	9.56
271.914	5.46
272.13	-23.21
272.346	21.85
272.562	13.65
272.777	52.56
272.993	-10.92
273.209	9.56
273.425	7.51
273.64	-27.31
273.856	42.32
274.072	13.65
274.287	48.47
274.503	9.56
274.719	23.89
274.934	30.04
275.15	-12.97
275.366	36.18
275.581	-39.59
275.797	13.65
276.012	25.94
276.228	21.85
276.444	-37.55
276.659	-15.02
276.875	-6.83
277.09	48.47
277.306	-2.73
277.521	87.38
277.737	23.89
277.952	25.94
278.168	11.61
278.383	15.7
278.599	-4.78
278.814	-31.4
279.03	30.04
279.245	52.56
279.461	42.32
279.676	19.8
279.892	42.32
280.107	91.48
280.322	54.61
280.538	109.91
280.753	-49.83
280.969	36.18
281.184	9.56
281.399	25.94
281.615	11.61
281.83	73.04
282.045	36.18
282.26	5.46
282.476	-4.78
282.691	60.76
282.906	17.75
283.122	-23.21
283.337	-62.12
283.552	56.66
283.767	11.61
283.983	58.71
284.198	5.46
284.413	-6.83
284.628	-17.07
284.843	81.24
285.058	27.99
285.274	17.75
285.489	-60.07
285.704	23.89
285.919	-2.73
286.134	56.66
286.349	5.46
286.564	25.94
286.779	30.04
286.995	97.62
287.21	-17.07
287.425	7.51
287.64	-4.78
287.855	44.37
288.07	15.7
288.285	-10.92
288.5	77.14
288.715	44.37
288.93	44.37
289.145	-37.55
289.36	27.99
289.575	68.95
289.79	9.56
290.004	73.04
290.219	30.04
290.434	66.9
290.649	71
290.864	7.51
291.079	58.71
291.294	-23.21
291.509	54.61
291.724	-17.07
291.938	-23.21
292.153	75.09
292.368	-51.88
292.583	40.28
292.798	-21.16
293.012	-23.21
293.227	42.32
293.442	21.85
293.657	56.66
293.871	30.04
294.086	-35.5
294.301	-2.73
294.516	73.04
294.73	17.75
294.945	-76.46
295.16	23.89
295.374	-17.07
295.589	101.72
295.804	58.71
296.018	48.47
296.233	-51.88
296.447	42.32
296.662	21.85
296.877	38.23
297.091	7.51
297.306	42.32
297.52	-55.98
297.735	95.57
297.949	52.56
298.164	1.37
298.378	42.32
298.593	27.99
298.807	11.61
299.022	91.48
299.236	-0.68
299.451	19.8
299.665	91.48
299.88	7.51
300.094	27.99
300.309	54.61
300.523	54.61
300.737	56.66
300.952	54.61
301.166	-4.78
301.381	21.85
301.595	21.85
301.809	15.7
302.024	32.08
302.238	34.13
302.452	44.37
302.667	-15.02
302.881	105.81
303.095	7.51
303.309	68.95
303.524	17.75
303.738	13.65
303.952	25.94
304.166	-41.64
304.381	-6.83
304.595	9.56
304.809	21.85
305.023	71
305.237	-2.73
305.452	60.76
305.666	-19.11
305.88	5.46
306.094	-2.73
306.308	89.43
306.522	79.19
306.736	54.61
306.95	19.8
307.164	11.61
307.379	11.61
307.593	105.81
307.807	-0.68
308.021	-23.21
308.235	34.13
308.449	58.71
308.663	-4.78
308.877	89.43
309.091	23.89
309.305	30.04
309.519	11.61
309.733	40.28
309.947	56.66
310.161	97.62
310.374	23.89
310.588	25.94
310.802	-0.68
311.016	40.28
311.23	21.85
311.444	50.52
311.658	32.08
311.872	107.86
312.085	95.57
312.299	50.52
312.513	97.62
312.727	44.37
312.941	-43.69
313.154	58.71
313.368	64.85
313.582	52.56
313.796	1.37
314.009	38.23
314.223	101.72
314.437	66.9
314.651	-0.68
314.864	58.71
315.078	91.48
315.292	68.95
315.505	25.94
315.719	130.39
315.933	23.89
316.146	52.56
316.36	-4.78
316.573	142.68
316.787	79.19
317.001	93.52
317.214	44.37
317.428	5.46
317.641	30.04
317.855	42.32
318.068	62.8
318.282	-17.07
318.495	48.47
318.709	21.85
318.922	60.76
319.136	75.09
319.349	27.99
319.563	46.42
319.776	-19.11
319.99	9.56
320.203	25.94
320.417	68.95
320.63	3.41
320.843	83.28
321.057	77.14
321.27	-43.69
321.483	-0.68
321.697	85.33
321.91	64.85
322.124	128.34
322.337	44.37
322.55	58.71
322.763	36.18
322.977	62.8
323.19	-15.02
323.403	-60.07
323.617	95.57
323.83	73.04
324.043	81.24
324.256	44.37
324.469	107.86
324.683	-25.26
324.896	-74.41
325.109	25.94
325.322	9.56
325.535	128.34
325.748	-12.97
325.962	32.08
326.175	48.47
326.388	68.95
326.601	44.37
326.814	3.41
327.027	79.19
327.24	89.43
327.453	5.46
327.666	60.76
327.879	124.24
328.092	36.18
328.305	-25.26
328.518	42.32
328.731	50.52
328.944	-12.97
329.157	21.85
329.37	58.71
329.583	122.2
329.796	73.04
330.009	-82.6
330.222	66.9
330.435	36.18
330.648	64.85
330.861	-8.87
331.073	81.24
331.286	-2.73
331.499	52.56
331.712	-49.83
331.925	91.48
332.138	58.71
332.35	23.89
332.563	19.8
332.776	64.85
332.989	5.46
333.202	103.76
333.414	56.66
333.627	25.94
333.84	1.37
334.053	97.62
334.265	56.66
334.478	60.76
334.691	1.37
334.903	23.89
335.116	-4.78
335.329	13.65
335.541	50.52
335.754	-17.07
335.966	23.89
336.179	83.28
336.392	79.19
336.604	120.15
336.817	46.42
337.029	46.42
337.242	38.23
337.454	56.66
337.667	66.9
337.88	77.14
338.092	27.99
338.305	79.19
338.517	32.08
338.729	42.32
338.942	124.24
339.154	-19.11
339.367	52.56
339.579	17.75
339.792	-12.97
340.004	89.43
340.217	17.75
340.429	83.28
340.641	-31.4
340.854	38.23
341.066	-8.87
341.278	38.23
341.491	71
341.703	62.8
341.915	25.94
342.128	3.41
342.34	-10.92
342.552	38.23
342.764	27.99
342.977	-12.97
343.189	81.24
343.401	44.37
343.613	-15.02
343.826	-10.92
344.038	-27.31
344.25	77.14
344.462	17.75
344.674	34.13
344.886	25.94
345.099	19.8
345.311	85.33
345.523	40.28
345.735	-0.68
345.947	66.9
346.159	42.32
346.371	34.13
346.583	-19.11
346.795	11.61
347.007	13.65
347.219	13.65
347.431	11.61
347.643	-8.87
347.855	30.04
348.067	1.37
348.279	46.42
348.491	36.18
348.703	79.19
348.915	21.85
349.127	17.75
349.339	32.08
349.551	71
349.763	83.28
349.975	36.18
350.187	52.56
350.399	62.8
350.61	128.34
350.822	34.13
351.034	58.71
351.246	17.75
351.458	-35.5
351.669	103.76
351.881	58.71
352.093	73.04
352.305	130.39
352.517	-25.26
352.728	56.66
352.94	42.32
353.152	87.38
353.363	11.61
353.575	87.38
353.787	54.61
353.999	34.13
354.21	17.75
354.422	77.14
354.633	58.71
354.845	66.9
355.057	38.23
355.268	32.08
355.48	68.95
355.692	25.94
355.903	32.08
356.115	5.46
356.326	27.99
356.538	32.08
356.749	32.08
356.961	48.47
357.172	13.65
357.384	105.81
357.595	114
357.807	97.62
358.018	48.47
358.23	93.52
358.441	144.72
358.653	134.48
358.864	17.75
359.075	32.08
359.287	52.56
359.498	36.18
359.709	36.18
359.921	71
360.132	83.28
360.344	21.85
360.555	-10.92
360.766	83.28
360.977	11.61
361.189	50.52
361.4	56.66
361.611	34.13
361.823	-27.31
362.034	17.75
362.245	34.13
362.456	42.32
362.667	107.86
362.879	-0.68
363.09	56.66
363.301	83.28
363.512	38.23
363.723	7.51
363.935	107.86
364.146	71
364.357	81.24
364.568	11.61
364.779	21.85
364.99	132.44
365.201	103.76
365.412	25.94
365.623	73.04
365.834	109.91
366.045	73.04
366.256	126.29
366.467	42.32
366.678	89.43
366.889	60.76
367.1	77.14
367.311	50.52
367.522	30.04
367.733	118.1
367.944	25.94
368.155	44.37
368.366	32.08
368.577	34.13
368.788	97.62
368.999	-35.5
369.209	-23.21
369.42	116.05
369.631	36.18
369.842	3.41
370.053	107.86
370.264	32.08
370.474	21.85
370.685	3.41
370.896	56.66
371.107	64.85
371.317	111.96
371.528	60.76
371.739	56.66
371.95	30.04
372.16	109.91
372.371	7.51
372.582	75.09
372.792	64.85
373.003	66.9
373.214	44.37
373.424	81.24
373.635	46.42
373.846	77.14
374.056	66.9
374.267	50.52
374.477	83.28
374.688	-2.73
374.898	7.51
375.109	71
375.319	73.04
375.53	30.04
375.74	30.04
375.951	19.8
376.161	81.24
376.372	163.15
376.582	-10.92
376.793	34.13
377.003	122.2
377.214	62.8
377.424	60.76
377.635	124.24
377.845	52.56
378.055	83.28
378.266	50.52
378.476	50.52
378.686	-8.87
378.897	15.7
379.107	62.8
379.317	-12.97
379.528	19.8
379.738	42.32
379.948	64.85
380.158	50.52
380.369	15.7
380.579	95.57
380.789	19.8
380.999	91.48
381.21	21.85
381.42	107.86
381.63	83.28
381.84	68.95
382.05	50.52
382.261	56.66
382.471	116.05
382.681	-17.07
382.891	111.96
383.101	87.38
383.311	99.67
383.521	64.85
383.731	38.23
383.941	122.2
384.151	30.04
384.361	68.95
384.571	64.85
384.781	128.34
384.991	58.71
385.201	81.24
385.411	111.96
385.621	89.43
385.831	-23.21
386.041	66.9
386.251	75.09
386.461	81.24
386.671	40.28
386.881	56.66
387.091	50.52
387.301	71
387.511	89.43
387.72	56.66
387.93	103.76
388.14	5.46
388.35	85.33
388.56	89.43
388.769	83.28
388.979	71
389.189	54.61
389.399	50.52
389.609	75.09
389.818	64.85
390.028	46.42
390.238	91.48
390.447	75.09
390.657	42.32
390.867	40.28
391.076	-47.79
391.286	75.09
391.496	52.56
391.705	85.33
391.915	66.9
392.125	48.47
392.334	-23.21
392.544	146.77
392.753	-6.83
392.963	107.86
393.172	114
393.382	68.95
393.591	157.01
393.801	56.66
394.01	150.87
394.22	19.8
394.429	101.72
394.639	189.78
394.848	107.86
395.058	83.28
395.267	27.99
395.477	120.15
395.686	122.2
395.895	85.33
396.105	140.63
396.314	87.38
396.524	50.52
396.733	157.01
396.942	71
397.152	161.11
397.361	140.63
397.57	132.44
397.78	75.09
397.989	103.76
398.198	132.44
398.407	111.96
398.617	73.04
398.826	105.81
399.035	93.52
399.244	146.77
399.453	138.58
399.663	103.76
399.872	161.11
400.081	93.52
400.29	134.48
400.499	27.99
400.708	109.91
400.917	81.24
401.127	161.11
401.336	93.52
401.545	157.01
401.754	140.63
401.963	204.11
402.172	114
402.381	66.9
402.59	134.48
402.799	130.39
403.008	169.3
403.217	210.26
403.426	175.44
403.635	142.68
403.844	87.38
404.053	111.96
404.262	181.59
404.471	134.48
404.68	257.36
404.888	193.87
405.097	197.97
405.306	116.05
405.515	165.2
405.724	150.87
405.933	152.92
406.142	212.31
406.35	195.92
406.559	292.18
406.768	195.92
406.977	189.78
407.185	181.59
407.394	179.54
407.603	230.74
407.812	169.3
408.02	234.83
408.229	318.8
408.438	302.42
408.646	243.03
408.855	240.98
409.064	273.75
409.272	361.81
409.481	345.42
409.69	271.7
409.898	355.66
410.107	353.62
410.315	359.76
410.524	333.14
410.733	429.39
410.941	406.86
411.15	492.88
411.358	388.43
411.567	501.07
411.775	462.16
411.984	406.86
412.192	466.25
412.401	521.55
412.609	566.6
412.818	552.27
413.026	517.45
413.234	546.13
413.443	591.18
413.651	662.86
413.86	585.04
414.068	660.81
414.276	722.25
414.485	648.52
414.693	724.3
414.901	791.88
415.11	818.5
415.318	814.41
415.526	832.84
415.734	886.09
415.943	884.04
416.151	996.68
416.359	959.81
416.567	953.67
416.776	1015.11
416.984	1119.56
417.192	1191.24
417.4	1140.04
417.608	1150.28
417.817	1238.34
418.025	1267.01
418.233	1328.45
418.441	1346.88
418.649	1375.55
418.857	1498.43
419.065	1572.16
419.273	1490.24
419.481	1543.49
419.689	1738.04
419.897	1725.75
420.105	1811.77
420.313	1797.43
420.521	1840.44
420.729	1883.45
420.937	1969.46
421.145	2090.29
421.353	2184.5
421.561	2198.84
421.769	2252.08
421.977	2426.16
422.185	2364.72
422.393	2596.14
422.601	2678.06
422.809	2682.16
423.017	2688.3
423.224	2682.16
423.432	2807.08
423.64	2897.19
423.848	3145
424.056	3032.36
424.263	3276.07
424.471	3343.65
424.679	3323.17
424.887	3601.69
425.094	3726.62
425.302	3835.16
425.51	3812.64
425.718	3857.69
425.925	4160.79
426.133	4222.23
426.341	4338.96
426.548	4547.86
426.756	4541.71
426.964	4572.43
427.171	4951.31
427.379	5039.37
427.586	5117.19
427.794	5289.22
428.001	5539.07
428.209	5780.73
428.417	5760.25
428.624	6063.35
428.832	5887.23
429.039	5954.81
429.247	6126.84
429.454	6630.64
429.662	6939.88
429.869	6612.21
430.076	7191.78
430.284	6817.01
430.491	7410.92
430.699	7632.1
430.906	7630.05
431.114	7701.73
431.321	8074.46
431.528	8164.57
431.736	8553.68
431.943	9194.7
432.15	9020.62
432.358	8985.8
432.565	9612.48
432.772	9569.48
432.979	10114.23
433.187	10013.88
433.394	10204.35
433.601	11021.49
433.808	10822.83
434.016	10831.02
434.223	11097.26
434.43	12037.28
434.637	11596.96
434.844	12354.71
435.052	12756.11
435.259	12741.78
435.466	12770.45
435.673	12545.17
435.88	13479.05
436.087	14107.77
436.294	14244.99
436.501	13825.15
436.708	14103.68
436.915	14853.23
437.122	15252.59
437.329	15400.04
437.537	15674.47
437.743	15858.79
437.95	15946.85
438.157	16581.72
438.364	17163.34
438.571	17019.99
438.778	17146.96
438.985	18863.16
439.192	18334.78
439.399	18996.28
439.606	18267.2
439.813	19452.97
440.02	20593.69
440.227	20386.85
440.433	19835.94
440.64	20884.5
440.847	20702.23
441.054	21165.07
441.261	22424.58
441.467	22213.63
441.674	22604.8
441.881	23419.89
442.088	23630.83
442.294	22883.32
442.501	23944.17
442.708	24136.68
442.914	25334.74
443.121	26006.47
443.328	25818.06
443.534	27507.63
443.741	26807.23
443.948	26569.66
444.154	28423.08
444.361	28048.3
444.568	28373.92
444.774	28369.83
444.981	28691.36
445.187	29459.35
445.394	30550.92
445.6	30335.88
445.807	33467.22
446.013	31890.29
446.22	32662.37
446.426	33987.41
446.633	33479.51
446.839	35087.17
447.046	33620.82
447.252	35562.29
447.459	35814.19
447.665	35328.83
447.871	37063.46
448.078	38390.54
448.284	36516.65
448.491	37612.31
448.697	39195.39
448.903	39682.81
449.11	39918.32
449.316	39353.08
449.522	40057.59
449.728	40739.56
449.935	41175.78
450.141	41102.05
450.347	42046.16
450.553	40438.51
450.76	40991.46
450.966	42670.79
451.172	41863.89
451.378	43184.83
451.584	42093.27
451.791	43047.62
451.997	42697.42
452.203	43707.07
452.409	43121.35
452.615	43356.86
452.821	41954.01
453.027	41145.06
453.233	43414.21
453.44	41855.7
453.646	42271.44
453.852	42392.27
454.058	42875.59
454.264	41614.04
454.47	42511.05
454.676	41321.18
454.882	43240.13
455.088	39068.42
455.294	39604.99
455.5	39846.65
455.705	40110.83
455.911	38783.75
456.117	38107.92
456.323	37425.95
456.529	35754.8
456.735	37079.84
456.941	36127.53
457.147	35732.28
457.352	34382.66
457.558	34114.38
457.764	34011.98
457.97	33444.69
458.176	32834.4
458.381	32709.47
458.587	31210.36
458.793	31142.78
458.999	29359
459.204	31650.67
459.41	30823.29
459.616	28746.65
459.821	28554.15
460.027	28713.89
460.233	27927.47
460.438	26694.59
460.644	26504.13
460.85	25748.43
461.055	25410.51
461.261	25322.45
461.466	23270.39
461.672	22828.02
461.878	24605.66
462.083	22619.13
462.289	22268.93
462.494	21892.1
462.7	21087.25
462.905	20706.33
463.111	21218.32
463.316	21453.84
463.522	21160.98
463.727	20833.3
463.932	20995.09
464.138	20661.27
464.343	20876.31
464.549	20433.95
464.754	21077.01
464.959	20884.5
465.165	20524.06
465.37	19584.04
465.575	19403.82
465.781	20208.67
465.986	20321.31
466.191	19442.73
466.397	18867.25
466.602	18330.69
466.807	18807.86
467.012	18834.49
467.218	18787.38
467.423	18482.24
