Data from USB4F104151__205__11-10-15-758.txt Node

Date: Wed Mar 12 11:10:15 EDT 2025
User: louis
Spectrometer: USB4F10415
Trigger mode: 4
Integration Time (sec): 2.000000E-2
Scans to average: 1
Electric dark correction enabled: true
Nonlinearity correction enabled: false
Boxcar width: 0
XAxis mode: Wavelengths
Number of Pixels in Spectrum: 3648
>>>>>Begin Spectral Data<<<<<
178.204	-28.33
178.424	-28.33
178.644	-28.33
178.864	-77.48
179.084	-89.77
179.304	8.53
179.524	2.39
179.744	-32.43
179.964	-24.23
180.184	47.44
180.404	33.11
180.624	-3.75
180.844	-46.76
181.064	-79.53
181.283	39.25
181.503	18.77
181.723	37.2
181.943	-22.19
182.163	-50.86
182.383	61.78
182.602	-3.75
182.822	-11.95
183.042	4.44
183.262	-22.19
183.482	82.26
183.701	-1.71
183.921	-46.76
184.141	-22.19
184.361	88.4
184.58	-7.85
184.8	-69.29
185.02	-32.43
185.239	98.64
185.459	-61.1
185.679	20.82
185.898	-9.9
186.118	8.53
186.338	115.03
186.557	45.4
186.777	22.87
186.997	65.88
187.216	-34.47
187.436	8.53
187.655	-9.9
187.875	37.2
188.095	-13.99
188.314	63.83
188.534	31.06
188.753	-67.24
188.973	-1.71
189.192	69.97
189.412	-9.9
189.631	-22.19
189.851	-67.24
190.07	24.92
190.29	-69.29
190.509	-7.85
190.729	-77.48
190.948	92.5
191.168	35.16
191.387	29.01
191.607	-32.43
191.826	-28.33
192.045	-9.9
192.265	43.35
192.484	53.59
192.704	16.73
192.923	-16.04
193.142	26.96
193.362	53.59
193.581	55.64
193.8	16.73
194.02	16.73
194.239	-32.43
194.458	41.3
194.678	4.44
194.897	84.31
195.116	18.77
195.335	-7.85
195.555	8.53
195.774	-40.62
195.993	49.49
196.212	-20.14
196.432	41.3
196.651	-28.33
196.87	55.64
197.089	0.34
197.308	0.34
197.528	41.3
197.747	-67.24
197.966	22.87
198.185	-16.04
198.404	41.3
198.623	29.01
198.842	53.59
199.062	26.96
199.281	41.3
199.5	-11.95
199.719	22.87
199.938	29.01
200.157	67.92
200.376	8.53
200.595	43.35
200.814	-3.75
201.033	12.63
201.252	86.36
201.471	6.49
201.69	39.25
201.909	-28.33
202.128	-30.38
202.347	24.92
202.566	14.68
202.785	-7.85
203.004	-52.91
203.223	55.64
203.442	-40.62
203.661	29.01
203.879	47.44
204.098	12.63
204.317	18.77
204.536	72.02
204.755	20.82
204.974	-38.57
205.193	-63.15
205.411	55.64
205.63	-16.04
205.849	-3.75
206.068	33.11
206.287	67.92
206.505	-7.85
206.724	-20.14
206.943	14.68
207.162	-18.09
207.381	0.34
207.599	16.73
207.818	-3.75
208.037	-1.71
208.255	49.49
208.474	-44.71
208.693	-16.04
208.911	18.77
209.13	-73.39
209.349	20.82
209.567	-40.62
209.786	43.35
210.005	-36.52
210.223	-13.99
210.442	2.39
210.661	-24.23
210.879	-7.85
211.098	-40.62
211.316	-54.95
211.535	35.16
211.753	0.34
211.972	-20.14
212.191	-18.09
212.409	-11.95
212.628	-30.38
212.846	-46.76
213.065	53.59
213.283	10.58
213.502	41.3
213.72	-65.19
213.938	49.49
214.157	29.01
214.375	0.34
214.594	-1.71
214.812	-13.99
215.031	20.82
215.249	14.68
215.467	43.35
215.686	-3.75
215.904	59.73
216.122	65.88
216.341	86.36
216.559	16.73
216.778	2.39
216.996	55.64
217.214	-7.85
217.432	0.34
217.651	16.73
217.869	-32.43
218.087	0.34
218.306	6.49
218.524	90.45
218.742	8.53
218.96	39.25
219.179	22.87
219.397	22.87
219.615	49.49
219.833	10.58
220.051	26.96
220.27	-30.38
220.488	86.36
220.706	88.4
220.924	41.3
221.142	8.53
221.36	74.07
221.578	33.11
221.796	45.4
222.015	33.11
222.233	6.49
222.451	16.73
222.669	-1.71
222.887	47.44
223.105	12.63
223.323	-1.71
223.541	45.4
223.759	61.78
223.977	-13.99
224.195	33.11
224.413	45.4
224.631	37.2
224.849	-16.04
225.067	-5.8
225.285	-30.38
225.503	-13.99
225.721	10.58
225.939	-30.38
226.157	-28.33
226.375	2.39
226.592	-75.43
226.81	-38.57
227.028	-9.9
227.246	59.73
227.464	22.87
227.682	57.68
227.9	-20.14
228.117	-36.52
228.335	-67.24
228.553	51.54
228.771	90.45
228.989	-54.95
229.206	29.01
229.424	-20.14
229.642	-16.04
229.86	8.53
230.077	59.73
230.295	37.2
230.513	-24.23
230.731	57.68
230.948	-32.43
231.166	-7.85
231.384	-26.28
231.601	6.49
231.819	94.55
232.037	-34.47
232.254	24.92
232.472	33.11
232.689	-11.95
232.907	24.92
233.125	33.11
233.342	-63.15
233.56	-77.48
233.777	6.49
233.995	-16.04
234.213	31.06
234.43	-57
234.648	-67.24
234.865	-11.95
235.083	-44.71
235.3	26.96
235.518	-5.8
235.735	-24.23
235.953	22.87
236.17	-16.04
236.388	2.39
236.605	41.3
236.822	61.78
237.04	-7.85
237.257	74.07
237.475	57.68
237.692	-3.75
237.909	10.58
238.127	-32.43
238.344	-9.9
238.562	-5.8
238.779	8.53
238.996	-89.77
239.214	26.96
239.431	-9.9
239.648	-7.85
239.865	22.87
240.083	-9.9
240.3	20.82
240.517	45.4
240.735	14.68
240.952	51.54
241.169	-30.38
241.386	96.6
241.603	20.82
241.821	-30.38
242.038	47.44
242.255	-46.76
242.472	0.34
242.689	8.53
242.907	112.98
243.124	53.59
243.341	35.16
243.558	-46.76
243.775	-30.38
243.992	-1.71
244.209	16.73
244.426	10.58
244.643	80.21
244.86	-3.75
245.078	35.16
245.295	22.87
245.512	31.06
245.729	-9.9
245.946	-36.52
246.163	-36.52
246.38	115.03
246.597	-3.75
246.814	63.83
247.031	-3.75
247.248	18.77
247.464	94.55
247.681	-11.95
247.898	65.88
248.115	41.3
248.332	-22.19
248.549	41.3
248.766	100.69
248.983	-11.95
249.2	-28.33
249.417	18.77
249.633	-124.58
249.85	-40.62
250.067	20.82
250.284	55.64
250.501	39.25
250.717	-5.8
250.934	-32.43
251.151	69.97
251.368	24.92
251.585	67.92
251.801	55.64
252.018	53.59
252.235	37.2
252.451	45.4
252.668	55.64
252.885	-42.67
253.102	16.73
253.318	-24.23
253.535	20.82
253.752	-5.8
253.968	74.07
254.185	41.3
254.401	6.49
254.618	14.68
254.835	31.06
255.051	29.01
255.268	-28.33
255.484	33.11
255.701	84.31
255.917	33.11
256.134	0.34
256.351	-24.23
256.567	-22.19
256.784	24.92
257	-5.8
257.217	112.98
257.433	-50.86
257.65	41.3
257.866	14.68
258.082	-9.9
258.299	-13.99
258.515	22.87
258.732	-9.9
258.948	61.78
259.165	-7.85
259.381	74.07
259.597	26.96
259.814	-13.99
260.03	-7.85
260.246	2.39
260.463	29.01
260.679	18.77
260.895	10.58
261.112	104.79
261.328	22.87
261.544	4.44
261.761	47.44
261.977	-26.28
262.193	-44.71
262.409	98.64
262.626	8.53
262.842	6.49
263.058	16.73
263.274	10.58
263.49	-11.95
263.707	12.63
263.923	24.92
264.139	-110.25
264.355	47.44
264.571	37.2
264.787	57.68
265.004	-22.19
265.22	43.35
265.436	-20.14
265.652	-18.09
265.868	31.06
266.084	12.63
266.3	80.21
266.516	20.82
266.732	63.83
266.948	33.11
267.164	6.49
267.38	-5.8
267.596	-7.85
267.812	102.74
268.028	-7.85
268.244	16.73
268.46	-7.85
268.676	-89.77
268.892	76.12
269.108	-3.75
269.324	-9.9
269.54	51.54
269.756	0.34
269.972	-7.85
270.188	20.82
270.403	-1.71
270.619	94.55
270.835	-1.71
271.051	18.77
271.267	-38.57
271.483	-91.82
271.698	18.77
271.914	-22.19
272.13	0.34
272.346	69.97
272.562	53.59
272.777	-3.75
272.993	-26.28
273.209	65.88
273.425	74.07
273.64	2.39
273.856	-3.75
274.072	29.01
274.287	12.63
274.503	4.44
274.719	43.35
274.934	49.49
275.15	31.06
275.366	0.34
275.581	-63.15
275.797	33.11
276.012	-24.23
276.228	-36.52
276.444	22.87
276.659	10.58
276.875	24.92
277.09	96.6
277.306	51.54
277.521	-16.04
277.737	47.44
277.952	-59.05
278.168	12.63
278.383	8.53
278.599	10.58
278.814	4.44
279.03	88.4
279.245	14.68
279.461	35.16
279.676	-20.14
279.892	-1.71
280.107	20.82
280.322	-42.67
280.538	-16.04
280.753	20.82
280.969	57.68
281.184	-3.75
281.399	41.3
281.615	-9.9
281.83	67.92
282.045	4.44
282.26	-1.71
282.476	22.87
282.691	-16.04
282.906	63.83
283.122	53.59
283.337	-24.23
283.552	45.4
283.767	-7.85
283.983	-36.52
284.198	18.77
284.413	39.25
284.628	-40.62
284.843	33.11
285.058	-13.99
285.274	35.16
285.489	6.49
285.704	33.11
285.919	-3.75
286.134	20.82
286.349	31.06
286.564	69.97
286.779	55.64
286.995	63.83
287.21	6.49
287.425	4.44
287.64	31.06
287.855	-69.29
288.07	4.44
288.285	14.68
288.5	4.44
288.715	33.11
288.93	6.49
289.145	-30.38
289.36	51.54
289.575	-61.1
289.79	94.55
290.004	47.44
290.219	33.11
290.434	-22.19
290.649	31.06
290.864	35.16
291.079	6.49
291.294	78.16
291.509	47.44
291.724	88.4
291.938	29.01
292.153	14.68
292.368	8.53
292.583	-20.14
292.798	18.77
293.012	33.11
293.227	18.77
293.442	-59.05
293.657	-9.9
293.871	41.3
294.086	-11.95
294.301	47.44
294.516	-7.85
294.73	20.82
294.945	12.63
295.16	67.92
295.374	74.07
295.589	80.21
295.804	59.73
296.018	55.64
296.233	18.77
296.447	24.92
296.662	20.82
296.877	57.68
297.091	22.87
297.306	-22.19
297.52	43.35
297.735	82.26
297.949	35.16
298.164	-5.8
298.378	-16.04
298.593	-13.99
298.807	-61.1
299.022	14.68
299.236	51.54
299.451	47.44
299.665	-22.19
299.88	31.06
300.094	-18.09
300.309	35.16
300.523	18.77
300.737	-24.23
300.952	86.36
301.166	-3.75
301.381	-57
301.595	33.11
301.809	51.54
302.024	4.44
302.238	-34.47
302.452	61.78
302.667	-52.91
302.881	6.49
303.095	-5.8
303.309	55.64
303.524	4.44
303.738	-30.38
303.952	4.44
304.166	43.35
304.381	-50.86
304.595	41.3
304.809	12.63
305.023	51.54
305.237	53.59
305.452	74.07
305.666	57.68
305.88	29.01
306.094	31.06
306.308	-24.23
306.522	57.68
306.736	-7.85
306.95	-16.04
307.164	61.78
307.379	12.63
307.593	-46.76
307.807	41.3
308.021	-38.57
308.235	18.77
308.449	29.01
308.663	74.07
308.877	65.88
309.091	39.25
309.305	12.63
309.519	-32.43
309.733	41.3
309.947	-16.04
310.161	164.18
310.374	29.01
310.588	45.4
310.802	-28.33
311.016	-22.19
311.23	29.01
311.444	-38.57
311.658	39.25
311.872	57.68
312.085	74.07
312.299	12.63
312.513	-28.33
312.727	53.59
312.941	18.77
313.154	33.11
313.368	18.77
313.582	8.53
313.796	0.34
314.009	10.58
314.223	8.53
314.437	43.35
314.651	22.87
314.864	55.64
315.078	-40.62
315.292	29.01
315.505	31.06
315.719	92.5
315.933	-30.38
316.146	49.49
316.36	-7.85
316.573	37.2
316.787	2.39
317.001	-30.38
317.214	55.64
317.428	12.63
317.641	41.3
317.855	41.3
318.068	39.25
318.282	78.16
318.495	127.32
318.709	59.73
318.922	12.63
319.136	57.68
319.349	8.53
319.563	22.87
319.776	0.34
319.99	-36.52
320.203	35.16
320.417	55.64
320.63	18.77
320.843	41.3
321.057	35.16
321.27	18.77
321.483	24.92
321.697	-3.75
321.91	35.16
322.124	100.69
322.337	6.49
322.55	16.73
322.763	14.68
322.977	-22.19
323.19	10.58
323.403	35.16
323.617	-40.62
323.83	43.35
324.043	2.39
324.256	80.21
324.469	8.53
324.683	-3.75
324.896	-34.47
325.109	33.11
325.322	39.25
325.535	57.68
325.748	41.3
325.962	16.73
326.175	8.53
326.388	0.34
326.601	39.25
326.814	-5.8
327.027	45.4
327.24	33.11
327.453	-1.71
327.666	59.73
327.879	59.73
328.092	-5.8
328.305	59.73
328.518	-24.23
328.731	49.49
328.944	20.82
329.157	45.4
329.37	16.73
329.583	110.93
329.796	155.99
330.009	33.11
330.222	78.16
330.435	20.82
330.648	-16.04
330.861	-75.43
331.073	61.78
331.286	-11.95
331.499	-1.71
331.712	-16.04
331.925	22.87
332.138	12.63
332.35	-16.04
332.563	8.53
332.776	-7.85
332.989	29.01
333.202	29.01
333.414	-36.52
333.627	53.59
333.84	-28.33
334.053	53.59
334.265	0.34
334.478	33.11
334.691	78.16
334.903	16.73
335.116	-52.91
335.329	84.31
335.541	57.68
335.754	6.49
335.966	16.73
336.179	12.63
336.392	-7.85
336.604	29.01
336.817	65.88
337.029	-5.8
337.242	39.25
337.454	100.69
337.667	-32.43
337.88	31.06
338.092	74.07
338.305	0.34
338.517	-24.23
338.729	-3.75
338.942	94.55
339.154	45.4
339.367	-20.14
339.579	63.83
339.792	51.54
340.004	-59.05
340.217	-32.43
340.429	26.96
340.641	72.02
340.854	41.3
341.066	37.2
341.278	22.87
341.491	86.36
341.703	6.49
341.915	51.54
342.128	57.68
342.34	24.92
342.552	14.68
342.764	88.4
342.977	57.68
343.189	-7.85
343.401	78.16
343.613	4.44
343.826	-1.71
344.038	22.87
344.25	-44.71
344.462	72.02
344.674	4.44
344.886	-24.23
345.099	10.58
345.311	-28.33
345.523	72.02
345.735	33.11
345.947	59.73
346.159	-1.71
346.371	102.74
346.583	18.77
346.795	67.92
347.007	-24.23
347.219	20.82
347.431	16.73
347.643	20.82
347.855	12.63
348.067	74.07
348.279	-20.14
348.491	57.68
348.703	39.25
348.915	59.73
349.127	-22.19
349.339	8.53
349.551	-7.85
349.763	51.54
349.975	53.59
350.187	84.31
350.399	74.07
350.61	39.25
350.822	49.49
351.034	94.55
351.246	31.06
351.458	67.92
351.669	49.49
351.881	26.96
352.093	-52.91
352.305	20.82
352.517	61.78
352.728	74.07
352.94	45.4
353.152	12.63
353.363	-40.62
353.575	12.63
353.787	153.94
353.999	10.58
354.21	59.73
354.422	47.44
354.633	26.96
354.845	24.92
355.057	31.06
355.268	26.96
355.48	12.63
355.692	61.78
355.903	59.73
356.115	82.26
356.326	-22.19
356.538	65.88
356.749	18.77
356.961	14.68
357.172	-1.71
357.384	-28.33
357.595	61.78
357.807	-28.33
358.018	117.08
358.23	33.11
358.441	0.34
358.653	57.68
358.864	39.25
359.075	-16.04
359.287	67.92
359.498	104.79
359.709	43.35
359.921	14.68
360.132	-7.85
360.344	45.4
360.555	24.92
360.766	-44.71
360.977	41.3
361.189	121.17
361.4	6.49
361.611	35.16
361.823	41.3
362.034	-20.14
362.245	41.3
362.456	18.77
362.667	69.97
362.879	88.4
363.09	-18.09
363.301	45.4
363.512	41.3
363.723	65.88
363.935	20.82
364.146	8.53
364.357	78.16
364.568	-38.57
364.779	12.63
364.99	-9.9
365.201	78.16
365.412	31.06
365.623	8.53
365.834	20.82
366.045	-5.8
366.256	67.92
366.467	88.4
366.678	86.36
366.889	-7.85
367.1	76.12
367.311	-13.99
367.522	22.87
367.733	69.97
367.944	76.12
368.155	-32.43
368.366	29.01
368.577	49.49
368.788	43.35
368.999	14.68
369.209	102.74
369.42	-1.71
369.631	127.32
369.842	4.44
370.053	-48.81
370.264	72.02
370.474	-24.23
370.685	14.68
370.896	-16.04
371.107	29.01
371.317	35.16
371.528	-11.95
371.739	61.78
371.95	86.36
372.16	4.44
372.371	41.3
372.582	80.21
372.792	55.64
373.003	-7.85
373.214	115.03
373.424	29.01
373.635	-54.95
373.846	51.54
374.056	82.26
374.267	65.88
374.477	51.54
374.688	-32.43
374.898	-16.04
375.109	-13.99
375.319	10.58
375.53	14.68
375.74	12.63
375.951	-24.23
376.161	53.59
376.372	57.68
376.582	53.59
376.793	35.16
377.003	61.78
377.214	102.74
377.424	45.4
377.635	41.3
377.845	31.06
378.055	53.59
378.266	51.54
378.476	49.49
378.686	53.59
378.897	37.2
379.107	-65.19
379.317	65.88
379.528	26.96
379.738	72.02
379.948	-18.09
380.158	74.07
380.369	10.58
380.579	110.93
380.789	-16.04
380.999	39.25
381.21	8.53
381.42	80.21
381.63	43.35
381.84	33.11
382.05	20.82
382.261	41.3
382.471	98.64
382.681	22.87
382.891	117.08
383.101	20.82
383.311	20.82
383.521	22.87
383.731	8.53
383.941	96.6
384.151	90.45
384.361	8.53
384.571	20.82
384.781	-9.9
384.991	61.78
385.201	119.12
385.411	33.11
385.621	24.92
385.831	18.77
386.041	53.59
386.251	57.68
386.461	29.01
386.671	43.35
386.881	102.74
387.091	18.77
387.301	0.34
387.511	-13.99
387.72	49.49
387.93	51.54
388.14	10.58
388.35	22.87
388.56	53.59
388.769	41.3
388.979	96.6
389.189	12.63
389.399	90.45
389.609	-13.99
389.818	123.22
390.028	31.06
390.238	47.44
390.447	24.92
390.657	88.4
390.867	80.21
391.076	61.78
391.286	98.64
391.496	47.44
391.705	47.44
391.915	55.64
392.125	57.68
392.334	43.35
392.544	84.31
392.753	88.4
392.963	45.4
393.172	16.73
393.382	45.4
393.591	112.98
393.801	-1.71
394.01	117.08
394.22	39.25
394.429	100.69
394.639	90.45
394.848	131.41
395.058	22.87
395.267	72.02
395.477	59.73
395.686	51.54
395.895	123.22
396.105	82.26
396.314	78.16
396.524	108.88
396.733	65.88
396.942	61.78
397.152	10.58
397.361	119.12
397.57	20.82
397.78	69.97
397.989	110.93
398.198	33.11
398.407	82.26
398.617	100.69
398.826	63.83
399.035	117.08
399.244	98.64
399.453	90.45
399.663	135.51
399.872	96.6
400.081	149.84
400.29	74.07
400.499	49.49
400.708	110.93
400.917	88.4
401.127	43.35
401.336	88.4
401.545	96.6
401.754	117.08
401.963	147.8
402.172	131.41
402.381	37.2
402.59	112.98
402.799	78.16
403.008	55.64
403.217	119.12
403.426	155.99
403.635	96.6
403.844	88.4
404.053	76.12
404.262	94.55
404.471	143.7
404.68	137.56
404.888	104.79
405.097	209.23
405.306	166.23
405.515	158.03
405.724	115.03
405.933	176.47
406.142	170.32
406.35	153.94
406.559	135.51
406.768	205.14
406.977	176.47
407.185	102.74
407.394	219.47
407.603	164.18
407.812	242
408.02	246.1
408.229	262.48
408.438	276.82
408.646	205.14
408.855	293.2
409.064	229.71
409.272	291.15
409.481	364.88
409.69	285.01
409.898	325.97
410.107	342.35
410.315	301.39
410.524	272.72
410.733	414.03
410.941	330.06
411.15	373.07
411.358	399.7
411.567	432.46
411.775	377.17
411.984	391.5
412.192	512.33
412.401	373.07
412.609	584.01
412.818	450.89
413.026	524.62
413.234	543.05
413.443	549.2
413.651	561.48
413.86	631.12
414.068	702.79
414.276	610.64
414.485	569.68
414.693	708.94
414.901	706.89
415.11	776.52
415.318	678.22
415.526	815.43
415.734	803.15
415.943	870.73
416.151	913.74
416.359	932.17
416.567	948.55
416.776	987.46
416.984	979.27
417.192	928.07
417.4	1022.28
417.608	1065.29
417.817	1128.77
418.025	1147.2
418.233	1288.51
418.441	1069.38
418.649	1233.22
418.857	1382.72
419.065	1333.57
419.273	1386.82
419.481	1448.26
419.689	1503.55
419.897	1663.29
420.105	1632.57
420.313	1689.92
420.521	1632.57
420.729	1792.31
420.937	1868.09
421.145	1835.32
421.353	1943.86
421.561	2105.65
421.769	2011.45
421.977	2142.52
422.185	2154.8
422.393	2296.11
422.601	2402.61
422.809	2560.3
423.017	2418.99
423.224	2554.16
423.432	2631.98
423.64	2699.56
423.848	3021.1
424.056	2681.13
424.263	3062.05
424.471	2976.04
424.679	3080.49
424.887	3297.57
425.094	3354.91
425.302	3332.39
425.51	3522.85
425.718	3649.82
425.925	3801.37
426.133	3809.56
426.341	3940.63
426.548	4198.68
426.756	4208.92
426.964	4362.51
427.171	4512.02
427.379	4622.61
427.586	4776.2
427.794	4940.04
428.001	5107.98
428.209	5312.77
428.417	5191.94
428.624	5650.69
428.832	5730.56
429.039	5605.63
429.247	5644.54
429.454	6088.95
429.662	6480.11
429.869	6111.48
430.076	6426.87
430.284	6394.1
430.491	6613.23
430.699	7084.27
430.906	7047.4
431.114	6963.44
431.321	7397.6
431.528	7618.79
431.736	8118.49
431.943	8472.79
432.15	8077.53
432.358	8224.98
432.565	8822.99
432.772	8650.96
432.979	8810.7
433.187	9195.72
433.394	9216.2
433.601	10006.72
433.808	9887.93
434.016	9777.34
434.223	10338.49
434.43	10932.4
434.637	10535.09
434.844	11450.53
435.052	11557.03
435.259	11479.21
435.466	11563.17
435.673	11395.24
435.88	12380.31
436.087	13037.71
436.294	12863.63
436.501	12650.64
436.708	12771.47
436.915	13213.84
437.122	13844.61
437.329	13717.64
437.537	14385.27
437.743	14602.36
437.95	14516.34
438.157	15079.54
438.364	15779.94
438.571	15575.14
438.778	15603.82
438.985	16851.03
439.192	16410.71
439.399	16769.11
439.606	16443.48
439.813	17461.32
440.02	18647.1
440.227	18221.12
440.433	18001.99
440.64	18653.24
440.847	18677.82
441.054	19157.04
441.261	20398.11
441.467	20121.63
441.674	20482.08
441.881	21239.83
442.088	21039.12
442.294	21112.85
442.501	21358.61
442.708	22118.4
442.914	22990.84
443.121	23531.5
443.328	23246.83
443.534	24889.31
443.741	24068.07
443.948	23562.22
444.154	25622.48
444.361	25171.93
444.568	25450.45
444.774	25511.89
444.981	25718.73
445.187	26335.17
445.394	27625.39
445.6	27422.64
445.807	29861.77
446.013	28428.2
446.22	29161.37
446.426	30281.61
446.633	30259.08
446.839	31663.99
447.046	30220.17
447.252	31428.47
447.459	31936.37
447.665	31410.04
447.871	33427.29
448.078	34772.8
448.284	32823.14
448.491	33908.56
448.697	34674.5
448.903	35624.76
449.11	35579.7
449.316	34948.93
449.522	35630.9
449.728	36679.46
449.935	36697.89
450.141	36640.55
450.347	37816.08
450.553	36431.66
450.76	36708.13
450.966	37832.47
451.172	37711.64
451.378	38217.49
451.584	37771.03
451.791	38817.54
451.997	38684.42
452.203	38905.6
452.409	39106.3
452.615	38905.6
452.821	37095.2
453.027	37080.86
453.233	39114.5
453.44	37228.32
453.646	37717.78
453.852	38182.67
454.058	38487.82
454.264	37062.43
454.47	37635.86
454.676	36970.27
454.882	38145.81
455.088	34836.29
455.294	35620.66
455.5	35839.79
455.705	36452.14
455.911	34957.12
456.117	34023.25
456.323	33587.03
456.529	31915.89
456.735	33169.24
456.941	32540.52
457.147	31838.06
457.352	30885.76
457.558	30549.89
457.764	30439.3
457.97	30150.54
458.176	29116.31
458.381	29403.03
458.587	27658.16
458.793	28010.41
458.999	26286.02
459.204	28299.17
459.41	27645.87
459.616	25958.35
459.821	25851.85
460.027	25679.82
460.233	25079.77
460.438	23853.03
460.644	24254.44
460.85	22978.55
461.055	22984.69
461.261	22378.5
461.466	20703.26
461.672	20394.01
461.878	21929.99
462.083	20209.7
462.289	20154.4
462.494	19839.01
462.7	18815.03
462.905	18300.99
463.111	18866.23
463.316	19122.23
463.522	18620.47
463.727	18901.04
463.932	18663.48
464.138	18475.07
464.343	18735.16
464.549	17864.77
464.754	18737.21
464.959	18622.52
465.165	18479.16
465.37	17616.97
465.575	17143.89
465.781	17875.01
465.986	18024.51
466.191	17434.7
466.397	16967.76
466.602	15982.69
466.807	16975.95
467.012	16787.54
467.218	16656.47
467.423	16646.23
