Data from USB4F104151__187__11-09-41-861.txt Node

Date: Wed Mar 12 11:09:41 EDT 2025
User: louis
Spectrometer: USB4F10415
Trigger mode: 4
Integration Time (sec): 2.000000E-2
Scans to average: 1
Electric dark correction enabled: true
Nonlinearity correction enabled: false
Boxcar width: 0
XAxis mode: Wavelengths
Number of Pixels in Spectrum: 3648
>>>>>Begin Spectral Data<<<<<
178.204	-57.51
178.424	-57.51
178.644	-57.51
178.864	-67.75
179.084	-106.67
179.304	8.02
179.524	40.79
179.744	16.21
179.964	-8.36
180.184	-22.7
180.404	-16.55
180.624	-0.17
180.844	18.26
181.064	-34.99
181.283	10.07
181.503	-26.79
181.723	16.21
181.943	10.07
182.163	53.08
182.383	-39.08
182.602	-30.89
182.822	-14.51
183.042	3.93
183.262	-65.71
183.482	42.84
183.701	55.12
183.921	-28.84
184.141	-102.57
184.361	57.17
184.58	-0.17
184.8	-16.55
185.02	3.93
185.239	-28.84
185.459	-22.7
185.679	-18.6
185.898	-51.37
186.118	36.69
186.338	67.41
186.557	3.93
186.777	1.88
186.997	85.84
187.216	-18.6
187.436	38.74
187.655	28.5
187.875	85.84
188.095	-12.46
188.314	12.12
188.534	-0.17
188.753	-0.17
188.973	-8.36
189.192	-8.36
189.412	55.12
189.631	18.26
189.851	-32.94
190.07	46.93
190.29	-71.85
190.509	55.12
190.729	-30.89
190.948	3.93
191.168	124.76
191.387	20.31
191.607	-4.27
191.826	-8.36
192.045	-43.18
192.265	-6.31
192.484	-8.36
192.704	-37.03
192.923	-22.7
193.142	-10.41
193.362	40.79
193.581	71.51
193.8	-12.46
194.02	46.93
194.239	-10.41
194.458	-14.51
194.678	18.26
194.897	44.88
195.116	-10.41
195.335	1.88
195.555	-73.9
195.774	-0.17
195.993	28.5
196.212	-10.41
196.432	-20.65
196.651	-53.42
196.87	-24.75
197.089	79.7
197.308	42.84
197.528	8.02
197.747	-51.37
197.966	46.93
198.185	28.5
198.404	26.45
198.623	24.4
198.842	28.5
199.062	30.55
199.281	-12.46
199.5	38.74
199.719	36.69
199.938	40.79
200.157	65.36
200.376	-34.99
200.595	-22.7
200.814	38.74
201.033	-4.27
201.252	-22.7
201.471	75.6
201.69	63.32
201.909	-18.6
202.128	-6.31
202.347	-20.65
202.566	-37.03
202.785	-37.03
203.004	22.36
203.223	85.84
203.442	-37.03
203.661	61.27
203.879	-6.31
204.098	12.12
204.317	-53.42
204.536	51.03
204.755	1.88
204.974	-63.66
205.193	10.07
205.411	65.36
205.63	-67.75
205.849	-43.18
206.068	-8.36
206.287	-71.85
206.505	40.79
206.724	-53.42
206.943	5.97
207.162	32.6
207.381	-22.7
207.599	46.93
207.818	-4.27
208.037	-12.46
208.255	32.6
208.474	40.79
208.693	5.97
208.911	-32.94
209.13	3.93
209.349	63.32
209.567	-12.46
209.786	79.7
210.005	-28.84
210.223	-82.09
210.442	-67.75
210.661	30.55
210.879	3.93
211.098	-26.79
211.316	24.4
211.535	-8.36
211.753	-4.27
211.972	3.93
212.191	-45.23
212.409	-0.17
212.628	-8.36
212.846	-10.41
213.065	5.97
213.283	-4.27
213.502	-53.42
213.72	14.17
213.938	28.5
214.157	18.26
214.375	24.4
214.594	-18.6
214.812	16.21
215.031	34.64
215.249	26.45
215.467	16.21
215.686	55.12
215.904	-0.17
216.122	-32.94
216.341	135
216.559	14.17
216.778	26.45
216.996	32.6
217.214	75.6
217.432	-20.65
217.651	-32.94
217.869	12.12
218.087	-8.36
218.306	3.93
218.524	-39.08
218.742	-0.17
218.96	36.69
219.179	-82.09
219.397	75.6
219.615	48.98
219.833	32.6
220.051	3.93
220.27	1.88
220.488	-14.51
220.706	112.47
220.924	22.36
221.142	24.4
221.36	8.02
221.578	30.55
221.796	18.26
222.015	53.08
222.233	-28.84
222.451	40.79
222.669	59.22
222.887	-16.55
223.105	-41.13
223.323	-12.46
223.541	-49.32
223.759	-12.46
223.977	10.07
224.195	-24.75
224.413	-2.22
224.631	132.95
224.849	-22.7
225.067	-51.37
225.285	-37.03
225.503	69.46
225.721	-61.61
225.939	-2.22
226.157	-0.17
226.375	34.64
226.592	-4.27
226.81	71.51
227.028	24.4
227.246	59.22
227.464	-8.36
227.682	36.69
227.9	32.6
228.117	-12.46
228.335	14.17
228.553	32.6
228.771	61.27
228.989	-34.99
229.206	65.36
229.424	24.4
229.642	-4.27
229.86	-55.47
230.077	12.12
230.295	-16.55
230.513	-2.22
230.731	30.55
230.948	32.6
231.166	36.69
231.384	36.69
231.601	38.74
231.819	-8.36
232.037	-41.13
232.254	28.5
232.472	-4.27
232.689	-63.66
232.907	-2.22
233.125	-49.32
233.342	-0.17
233.56	30.55
233.777	34.64
233.995	10.07
234.213	71.51
234.43	-2.22
234.648	-14.51
234.865	30.55
235.083	42.84
235.3	-71.85
235.518	36.69
235.735	-18.6
235.953	-0.17
236.17	26.45
236.388	40.79
236.605	-14.51
236.822	85.84
237.04	42.84
237.257	18.26
237.475	-30.89
237.692	38.74
237.909	-28.84
238.127	-20.65
238.344	102.23
238.562	44.88
238.779	-47.27
238.996	10.07
239.214	-32.94
239.431	5.97
239.648	-16.55
239.865	8.02
240.083	18.26
240.3	22.36
240.517	-20.65
240.735	22.36
240.952	26.45
241.169	81.75
241.386	42.84
241.603	-59.56
241.821	-57.51
242.038	38.74
242.255	73.56
242.472	-22.7
242.689	-2.22
242.907	30.55
243.124	-8.36
243.341	85.84
243.558	-77.99
243.775	-49.32
243.992	26.45
244.209	32.6
244.426	-8.36
244.643	53.08
244.86	51.03
245.078	-37.03
245.295	-55.47
245.512	-2.22
245.729	18.26
245.946	81.75
246.163	-34.99
246.38	48.98
246.597	24.4
246.814	28.5
247.031	-16.55
247.248	46.93
247.464	20.31
247.681	26.45
247.898	102.23
248.115	-43.18
248.332	73.56
248.549	59.22
248.766	100.18
248.983	81.75
249.2	22.36
249.417	51.03
249.633	-8.36
249.85	3.93
250.067	24.4
250.284	55.12
250.501	89.94
250.717	51.03
250.934	-2.22
251.151	-18.6
251.368	40.79
251.585	22.36
251.801	-0.17
252.018	-41.13
252.235	73.56
252.451	-4.27
252.668	-4.27
252.885	61.27
253.102	77.65
253.318	16.21
253.535	30.55
253.752	40.79
253.968	-14.51
254.185	40.79
254.401	18.26
254.618	22.36
254.835	16.21
255.051	-8.36
255.268	-0.17
255.484	59.22
255.701	65.36
255.917	36.69
256.134	-30.89
256.351	12.12
256.567	-4.27
256.784	44.88
257	-26.79
257.217	-47.27
257.433	-2.22
257.65	-12.46
257.866	-20.65
258.082	-26.79
258.299	1.88
258.515	26.45
258.732	18.26
258.948	73.56
259.165	32.6
259.381	3.93
259.597	-24.75
259.814	-24.75
260.03	87.89
260.246	14.17
260.463	12.12
260.679	-18.6
260.895	-28.84
261.112	51.03
261.328	-12.46
261.544	8.02
261.761	57.17
261.977	-26.79
262.193	38.74
262.409	-80.04
262.626	44.88
262.842	-30.89
263.058	57.17
263.274	-10.41
263.49	30.55
263.707	53.08
263.923	8.02
264.139	-26.79
264.355	44.88
264.571	46.93
264.787	-16.55
265.004	104.28
265.22	22.36
265.436	89.94
265.652	-32.94
265.868	-43.18
266.084	-43.18
266.3	-12.46
266.516	-18.6
266.732	-2.22
266.948	-18.6
267.164	89.94
267.38	-18.6
267.596	-0.17
267.812	53.08
268.028	32.6
268.244	69.46
268.46	22.36
268.676	20.31
268.892	-12.46
269.108	8.02
269.324	48.98
269.54	-16.55
269.756	-20.65
269.972	-45.23
270.188	36.69
270.403	-43.18
270.619	55.12
270.835	-14.51
271.051	57.17
271.267	-0.17
271.483	-34.99
271.698	-63.66
271.914	79.7
272.13	16.21
272.346	10.07
272.562	-57.51
272.777	28.5
272.993	18.26
273.209	20.31
273.425	87.89
273.64	34.64
273.856	-30.89
274.072	-4.27
274.287	-14.51
274.503	36.69
274.719	16.21
274.934	-8.36
275.15	-45.23
275.366	-10.41
275.581	-43.18
275.797	30.55
276.012	-28.84
276.228	42.84
276.444	30.55
276.659	1.88
276.875	-63.66
277.09	65.36
277.306	-34.99
277.521	48.98
277.737	-20.65
277.952	10.07
278.168	22.36
278.383	-24.75
278.599	20.31
278.814	34.64
279.03	-12.46
279.245	46.93
279.461	-24.75
279.676	-45.23
279.892	-39.08
280.107	-10.41
280.322	3.93
280.538	14.17
280.753	1.88
280.969	3.93
281.184	-2.22
281.399	-57.51
281.615	102.23
281.83	-18.6
282.045	-41.13
282.26	42.84
282.476	14.17
282.691	65.36
282.906	-12.46
283.122	14.17
283.337	1.88
283.552	61.27
283.767	-12.46
283.983	28.5
284.198	55.12
284.413	-45.23
284.628	44.88
284.843	-30.89
285.058	-2.22
285.274	48.98
285.489	12.12
285.704	24.4
285.919	12.12
286.134	-39.08
286.349	26.45
286.564	18.26
286.779	36.69
286.995	28.5
287.21	-51.37
287.425	38.74
287.64	-14.51
287.855	-10.41
288.07	-2.22
288.285	-10.41
288.5	40.79
288.715	-2.22
288.93	20.31
289.145	-57.51
289.36	5.97
289.575	36.69
289.79	10.07
290.004	26.45
290.219	18.26
290.434	1.88
290.649	-37.03
290.864	-10.41
291.079	-14.51
291.294	44.88
291.509	-49.32
291.724	-22.7
291.938	3.93
292.153	63.32
292.368	5.97
292.583	16.21
292.798	38.74
293.012	1.88
293.227	67.41
293.442	-4.27
293.657	-0.17
293.871	-4.27
294.086	32.6
294.301	38.74
294.516	-30.89
294.73	63.32
294.945	-24.75
295.16	34.64
295.374	32.6
295.589	26.45
295.804	20.31
296.018	32.6
296.233	24.4
296.447	10.07
296.662	18.26
296.877	55.12
297.091	36.69
297.306	46.93
297.52	18.26
297.735	-20.65
297.949	28.5
298.164	51.03
298.378	-8.36
298.593	14.17
298.807	-8.36
299.022	-16.55
299.236	40.79
299.451	-32.94
299.665	67.41
299.88	3.93
300.094	5.97
300.309	-12.46
300.523	-22.7
300.737	-16.55
300.952	-49.32
301.166	8.02
301.381	-2.22
301.595	18.26
301.809	-71.85
302.024	-4.27
302.238	-34.99
302.452	16.21
302.667	-8.36
302.881	24.4
303.095	12.12
303.309	16.21
303.524	-28.84
303.738	63.32
303.952	36.69
304.166	28.5
304.381	-86.19
304.595	67.41
304.809	-18.6
305.023	36.69
305.237	-22.7
305.452	20.31
305.666	42.84
305.88	3.93
306.094	8.02
306.308	-2.22
306.522	-8.36
306.736	106.32
306.95	46.93
307.164	34.64
307.379	-43.18
307.593	61.27
307.807	5.97
308.021	34.64
308.235	-8.36
308.449	-2.22
308.663	24.4
308.877	18.26
309.091	-16.55
309.305	-41.13
309.519	-41.13
309.733	14.17
309.947	77.65
310.161	36.69
310.374	10.07
310.588	-12.46
310.802	32.6
311.016	20.31
311.23	48.98
311.444	-6.31
311.658	36.69
311.872	10.07
312.085	18.26
312.299	61.27
312.513	20.31
312.727	-4.27
312.941	-4.27
313.154	-24.75
313.368	48.98
313.582	-12.46
313.796	30.55
314.009	81.75
314.223	-59.56
314.437	-22.7
314.651	-22.7
314.864	3.93
315.078	63.32
315.292	20.31
315.505	63.32
315.719	71.51
315.933	12.12
316.146	-6.31
316.36	18.26
316.573	26.45
316.787	28.5
317.001	67.41
317.214	-41.13
317.428	20.31
317.641	16.21
317.855	38.74
318.068	69.46
318.282	-2.22
318.495	112.47
318.709	53.08
318.922	51.03
319.136	40.79
319.349	18.26
319.563	-4.27
319.776	-34.99
319.99	-8.36
320.203	48.98
320.417	34.64
320.63	22.36
320.843	16.21
321.057	40.79
321.27	-28.84
321.483	-6.31
321.697	30.55
321.91	-4.27
322.124	44.88
322.337	10.07
322.55	-57.51
322.763	22.36
322.977	10.07
323.19	-22.7
323.403	-20.65
323.617	40.79
323.83	14.17
324.043	34.64
324.256	48.98
324.469	-0.17
324.683	-32.94
324.896	10.07
325.109	-12.46
325.322	10.07
325.535	55.12
325.748	-8.36
325.962	12.12
326.175	8.02
326.388	-4.27
326.601	32.6
326.814	-39.08
327.027	57.17
327.24	89.94
327.453	32.6
327.666	38.74
327.879	65.36
328.092	10.07
328.305	36.69
328.518	-14.51
328.731	44.88
328.944	1.88
329.157	42.84
329.37	-24.75
329.583	-32.94
329.796	44.88
330.009	-12.46
330.222	51.03
330.435	8.02
330.648	81.75
330.861	8.02
331.073	61.27
331.286	-28.84
331.499	38.74
331.712	24.4
331.925	8.02
332.138	22.36
332.35	69.46
332.563	32.6
332.776	20.31
332.989	-2.22
333.202	20.31
333.414	-16.55
333.627	-8.36
333.84	36.69
334.053	-16.55
334.265	-6.31
334.478	36.69
334.691	38.74
334.903	-45.23
335.116	-45.23
335.329	28.5
335.541	12.12
335.754	61.27
335.966	22.36
336.179	26.45
336.392	-4.27
336.604	22.36
336.817	46.93
337.029	77.65
337.242	-49.32
337.454	16.21
337.667	81.75
337.88	12.12
338.092	12.12
338.305	65.36
338.517	-37.03
338.729	14.17
338.942	36.69
339.154	-8.36
339.367	12.12
339.579	32.6
339.792	40.79
340.004	59.22
340.217	-39.08
340.429	57.17
340.641	18.26
340.854	57.17
341.066	-28.84
341.278	71.51
341.491	34.64
341.703	-4.27
341.915	20.31
342.128	24.4
342.34	-22.7
342.552	-71.85
342.764	-43.18
342.977	3.93
343.189	-24.75
343.401	-51.37
343.613	63.32
343.826	24.4
344.038	3.93
344.25	-12.46
344.462	-2.22
344.674	-6.31
344.886	-6.31
345.099	10.07
345.311	16.21
345.523	-2.22
345.735	-10.41
345.947	28.5
346.159	40.79
346.371	57.17
346.583	38.74
346.795	12.12
347.007	-39.08
347.219	24.4
347.431	14.17
347.643	36.69
347.855	12.12
348.067	59.22
348.279	-61.61
348.491	-37.03
348.703	81.75
348.915	18.26
349.127	18.26
349.339	16.21
349.551	26.45
349.763	71.51
349.975	8.02
350.187	3.93
350.399	1.88
350.61	98.13
350.822	-51.37
351.034	14.17
351.246	16.21
351.458	73.56
351.669	59.22
351.881	8.02
352.093	24.4
352.305	8.02
352.517	-14.51
352.728	10.07
352.94	-39.08
353.152	34.64
353.363	44.88
353.575	40.79
353.787	-10.41
353.999	40.79
354.21	-6.31
354.422	51.03
354.633	51.03
354.845	57.17
355.057	12.12
355.268	30.55
355.48	-16.55
355.692	-12.46
355.903	5.97
356.115	55.12
356.326	-12.46
356.538	38.74
356.749	14.17
356.961	53.08
357.172	1.88
357.384	26.45
357.595	46.93
357.807	51.03
358.018	77.65
358.23	-28.84
358.441	28.5
358.653	83.8
358.864	-69.8
359.075	5.97
359.287	69.46
359.498	42.84
359.709	-12.46
359.921	26.45
360.132	40.79
360.344	24.4
360.555	24.4
360.766	1.88
360.977	55.12
361.189	75.6
361.4	59.22
361.611	36.69
361.823	-24.75
362.034	-47.27
362.245	-41.13
362.456	-65.71
362.667	57.17
362.879	12.12
363.09	32.6
363.301	12.12
363.512	-8.36
363.723	48.98
363.935	32.6
364.146	8.02
364.357	85.84
364.568	53.08
364.779	-8.36
364.99	71.51
365.201	128.85
365.412	91.99
365.623	3.93
365.834	-0.17
366.045	36.69
366.256	55.12
366.467	38.74
366.678	55.12
366.889	34.64
367.1	32.6
367.311	8.02
367.522	10.07
367.733	34.64
367.944	22.36
368.155	-12.46
368.366	-6.31
368.577	-10.41
368.788	1.88
368.999	-24.75
369.209	3.93
369.42	83.8
369.631	67.41
369.842	-49.32
370.053	-39.08
370.264	16.21
370.474	-22.7
370.685	3.93
370.896	71.51
371.107	96.08
371.317	30.55
371.528	14.17
371.739	83.8
371.95	-37.03
372.16	-30.89
372.371	-61.61
372.582	5.97
372.792	26.45
373.003	20.31
373.214	34.64
373.424	36.69
373.635	-8.36
373.846	104.28
374.056	-12.46
374.267	24.4
374.477	24.4
374.688	-18.6
374.898	-0.17
375.109	12.12
375.319	-12.46
375.53	73.56
375.74	8.02
375.951	22.36
376.161	46.93
376.372	57.17
376.582	32.6
376.793	94.04
377.003	5.97
377.214	-20.65
377.424	24.4
377.635	135
377.845	61.27
378.055	20.31
378.266	-2.22
378.476	32.6
378.686	-51.37
378.897	22.36
379.107	36.69
379.317	12.12
379.528	-24.75
379.738	5.97
379.948	12.12
380.158	53.08
380.369	30.55
380.579	89.94
380.789	-41.13
380.999	61.27
381.21	-12.46
381.42	-6.31
381.63	-0.17
381.84	-34.99
382.05	-2.22
382.261	46.93
382.471	8.02
382.681	28.5
382.891	-10.41
383.101	-6.31
383.311	8.02
383.521	18.26
383.731	51.03
383.941	-8.36
384.151	26.45
384.361	20.31
384.571	8.02
384.781	102.23
384.991	10.07
385.201	-39.08
385.411	-8.36
385.621	46.93
385.831	-16.55
386.041	-20.65
386.251	89.94
386.461	38.74
386.671	-12.46
386.881	-4.27
387.091	-41.13
387.301	98.13
387.511	-57.51
387.72	26.45
387.93	108.37
388.14	-28.84
388.35	20.31
388.56	65.36
388.769	18.26
388.979	20.31
389.189	16.21
389.399	81.75
389.609	46.93
389.818	14.17
390.028	-2.22
390.238	16.21
390.447	32.6
390.657	-26.79
390.867	-20.65
391.076	44.88
391.286	24.4
391.496	-4.27
391.705	22.36
391.915	38.74
392.125	22.36
392.334	10.07
392.544	65.36
392.753	85.84
392.963	46.93
393.172	57.17
393.382	-6.31
393.591	110.42
393.801	32.6
394.01	34.64
394.22	3.93
394.429	18.26
394.639	-14.51
394.848	-39.08
395.058	98.13
395.267	16.21
395.477	46.93
395.686	71.51
395.895	46.93
396.105	65.36
396.314	12.12
396.524	155.47
396.733	51.03
396.942	63.32
397.152	98.13
397.361	48.98
397.57	3.93
397.78	122.71
397.989	48.98
398.198	94.04
398.407	-43.18
398.617	20.31
398.826	44.88
399.035	5.97
399.244	-10.41
399.453	79.7
399.663	36.69
399.872	69.46
400.081	61.27
400.29	104.28
400.499	-20.65
400.708	-2.22
400.917	89.94
401.127	73.56
401.336	89.94
401.545	159.57
401.754	71.51
401.963	30.55
402.172	-16.55
402.381	67.41
402.59	89.94
402.799	57.17
403.008	73.56
403.217	96.08
403.426	114.52
403.635	73.56
403.844	-0.17
404.053	114.52
404.262	57.17
404.471	141.14
404.68	79.7
404.888	124.76
405.097	8.02
405.306	-2.22
405.515	100.18
405.724	130.9
405.933	102.23
406.142	65.36
406.35	149.33
406.559	77.65
406.768	106.32
406.977	100.18
407.185	24.4
407.394	124.76
407.603	69.46
407.812	151.38
408.02	145.24
408.229	110.42
408.438	126.8
408.646	112.47
408.855	69.46
409.064	178
409.272	83.8
409.481	192.34
409.69	137.04
409.898	118.61
410.107	114.52
410.315	147.28
410.524	186.19
410.733	264.02
410.941	145.24
411.15	167.76
411.358	178
411.567	218.96
411.775	216.91
411.984	231.25
412.192	178
412.401	298.83
412.609	315.22
412.818	300.88
413.026	300.88
413.234	339.79
413.443	266.07
413.651	352.08
413.86	294.74
414.068	278.35
414.276	378.7
414.485	311.12
414.693	304.98
414.901	434
415.11	294.74
415.318	341.84
415.526	431.95
415.734	491.34
415.943	423.76
416.151	419.66
416.359	472.91
416.567	536.4
416.776	468.81
416.984	507.73
417.192	542.54
417.4	513.87
417.608	511.82
417.817	606.03
418.025	630.6
418.233	646.99
418.441	542.54
418.649	649.04
418.857	706.38
419.065	743.24
419.273	726.86
419.481	743.24
419.689	808.78
419.897	819.02
420.105	847.69
420.313	923.46
420.521	853.83
420.729	847.69
420.937	917.32
421.145	1003.33
421.353	982.85
421.561	1136.45
421.769	1097.54
421.977	1169.22
422.185	1089.35
422.393	1140.55
422.601	1226.56
422.809	1328.96
423.017	1326.91
423.224	1474.37
423.432	1353.54
423.64	1384.26
423.848	1519.42
424.056	1539.9
424.263	1625.92
424.471	1556.29
424.679	1681.21
424.887	1724.22
425.094	1750.84
425.302	1699.64
425.51	1867.58
425.718	1894.2
425.925	1931.06
426.133	1953.59
426.341	2150.2
426.548	2211.64
426.756	2154.29
426.964	2242.36
427.171	2375.47
427.379	2379.57
427.586	2408.24
427.794	2469.68
428.001	2670.38
428.209	2848.55
428.417	2621.23
428.624	2899.75
428.832	2907.94
429.039	2754.35
429.247	2737.96
429.454	3073.83
429.662	3295.01
429.869	3065.64
430.076	3137.32
430.284	3366.69
430.491	3405.6
430.699	3587.87
430.906	3542.82
431.114	3632.93
431.321	3700.51
431.528	3706.65
431.736	4036.38
431.943	4202.26
432.15	4161.3
432.358	4286.23
432.565	4370.19
432.772	4353.81
432.979	4448.02
433.187	4634.38
433.394	4568.85
433.601	5033.74
433.808	5033.74
434.016	5019.4
434.223	5127.94
434.43	5519.11
434.637	5375.75
434.844	5799.68
435.052	5885.69
435.259	5908.22
435.466	5850.88
435.673	5854.97
435.88	6188.79
436.087	6598.38
436.294	6598.38
436.501	6364.92
436.708	6491.89
436.915	6704.88
437.122	6989.55
437.329	6809.33
437.537	7237.35
437.743	7347.94
437.95	7241.45
438.157	7608.03
438.364	7773.92
438.571	7821.02
438.778	7909.08
438.985	8595.15
439.192	8271.58
439.399	8670.93
439.606	8251.1
439.813	8605.39
440.02	9469.64
440.227	9301.7
440.433	9113.29
440.64	9520.84
440.847	9367.24
441.054	9594.56
441.261	10229.43
441.467	10188.47
441.674	10569.4
441.881	10690.23
442.088	10720.95
442.294	10419.89
442.501	10964.65
442.708	11112.11
442.914	11564.71
443.121	11730.59
443.328	11511.46
443.534	12609.17
443.741	12080.8
443.948	11982.49
444.154	12871.31
444.361	12674.71
444.568	12803.73
444.774	13022.86
444.981	13063.82
445.187	13264.52
445.394	13799.04
445.6	13719.17
445.807	15083.12
446.013	14362.23
446.22	14614.13
446.426	15083.12
446.633	15279.72
446.839	15726.18
447.046	15156.85
447.252	15924.83
447.459	15877.73
447.665	15914.59
447.871	16823.89
448.078	17325.64
448.284	16692.82
448.491	17022.55
448.697	17692.23
448.903	18200.13
449.11	17997.38
449.316	17671.75
449.522	17931.84
449.728	18503.23
449.935	18814.52
450.141	18775.61
450.347	19099.19
450.553	18357.82
450.76	18572.86
450.966	19385.9
451.172	18859.57
451.378	19469.87
451.584	19158.58
451.791	19570.22
451.997	19512.88
452.203	19590.7
452.409	19850.79
452.615	19818.02
452.821	18927.16
453.027	18673.21
453.233	19627.56
453.44	18624.06
453.646	19101.23
453.852	19158.58
454.058	19158.58
454.264	18808.37
454.47	19189.3
454.676	18759.22
454.882	19404.33
455.088	17471.05
455.294	18093.63
455.5	18064.96
455.705	18570.81
455.911	17669.7
456.117	17151.57
456.323	16846.42
456.529	16088.67
456.735	16901.72
456.941	16434.78
457.147	16229.98
457.352	15591.02
457.558	15412.84
457.764	15568.49
457.97	15187.57
458.176	14734.96
458.381	14775.92
458.587	14055.04
458.793	13995.65
458.999	13268.62
459.204	14339.71
459.41	14009.98
459.616	12975.76
459.821	13094.54
460.027	12951.18
460.233	12576.41
460.438	12136.09
460.644	12105.37
460.85	11507.37
461.055	11521.7
461.261	11378.34
461.466	10532.53
461.672	10182.33
461.878	10981.04
462.083	10305.21
462.289	10102.46
462.494	9848.51
462.7	9533.12
462.905	9242.31
463.111	9610.95
463.316	9707.2
463.522	9541.32
463.727	9367.24
463.932	9377.48
464.138	9193.16
464.343	9391.81
464.549	8988.36
464.754	9434.82
464.959	9486.02
465.165	9277.13
465.37	8863.44
465.575	8666.83
465.781	8734.42
465.986	8926.93
466.191	8883.92
466.397	8646.35
466.602	8238.81
466.807	8509.14
467.012	8419.03
467.218	8462.04
467.423	8441.56
467.628	8353.49
467.833	8572.63
