Data from USB4F104151__98__11-07-00-699.txt Node

Date: Wed Mar 12 11:07:00 EDT 2025
User: louis
Spectrometer: USB4F10415
Trigger mode: 4
Integration Time (sec): 2.000000E-2
Scans to average: 1
Electric dark correction enabled: true
Nonlinearity correction enabled: false
Boxcar width: 0
XAxis mode: Wavelengths
Number of Pixels in Spectrum: 3648
>>>>>Begin Spectral Data<<<<<
178.204	-29.18
178.424	-29.18
178.644	-29.18
178.864	-72.19
179.084	-49.66
179.304	-27.14
179.524	-78.33
179.744	52.74
179.964	54.78
180.184	-2.56
180.404	-35.33
180.624	5.63
180.844	-0.51
181.064	-31.23
181.283	40.45
181.503	-59.9
181.723	81.41
181.943	-25.09
182.163	56.83
182.383	-2.56
182.602	83.45
182.822	-16.9
183.042	-37.38
183.262	-64
183.482	56.83
183.701	28.16
183.921	62.98
184.141	-33.28
184.361	17.92
184.58	36.35
184.8	7.68
185.02	38.4
185.239	40.45
185.459	73.21
185.679	54.78
185.898	28.16
186.118	46.59
186.338	9.73
186.557	52.74
186.777	26.11
186.997	-10.75
187.216	28.16
187.436	48.64
187.655	77.31
187.875	17.92
188.095	13.82
188.314	50.69
188.534	65.02
188.753	22.02
188.973	-6.66
189.192	52.74
189.412	28.16
189.631	54.78
189.851	-20.99
190.07	38.4
190.29	36.35
190.509	-8.7
190.729	-4.61
190.948	-33.28
191.168	130.56
191.387	11.78
191.607	-14.85
191.826	93.69
192.045	-14.85
192.265	56.83
192.484	-31.23
192.704	-39.42
192.923	30.21
193.142	89.6
193.362	1.54
193.581	-0.51
193.8	7.68
194.02	-51.71
194.239	34.3
194.458	-31.23
194.678	-0.51
194.897	36.35
195.116	67.07
195.335	7.68
195.555	-4.61
195.774	13.82
195.993	-6.66
196.212	30.21
196.432	5.63
196.651	153.09
196.87	28.16
197.089	11.78
197.308	7.68
197.528	69.12
197.747	22.02
197.966	101.89
198.185	13.82
198.404	-8.7
198.623	46.59
198.842	48.64
199.062	7.68
199.281	42.5
199.5	3.58
199.719	44.54
199.938	24.06
200.157	32.26
200.376	22.02
200.595	1.54
200.814	13.82
201.033	-16.9
201.252	13.82
201.471	-14.85
201.69	24.06
201.909	44.54
202.128	3.58
202.347	-45.57
202.566	-66.05
202.785	19.97
203.004	-27.14
203.223	108.03
203.442	28.16
203.661	34.3
203.879	-8.7
204.098	67.07
204.317	103.93
204.536	-12.8
204.755	13.82
204.974	54.78
205.193	13.82
205.411	3.58
205.63	11.78
205.849	30.21
206.068	-6.66
206.287	77.31
206.505	48.64
206.724	48.64
206.943	-20.99
207.162	-10.75
207.381	36.35
207.599	-45.57
207.818	19.97
208.037	11.78
208.255	24.06
208.474	-29.18
208.693	46.59
208.911	28.16
209.13	52.74
209.349	34.3
209.567	-20.99
209.786	-23.04
210.005	13.82
210.223	42.5
210.442	-57.86
210.661	69.12
210.879	42.5
211.098	13.82
211.316	48.64
211.535	15.87
211.753	-27.14
211.972	69.12
212.191	30.21
212.409	36.35
212.628	7.68
212.846	67.07
213.065	-8.7
213.283	75.26
213.502	46.59
213.72	32.26
213.938	40.45
214.157	56.83
214.375	34.3
214.594	44.54
214.812	65.02
215.031	-2.56
215.249	19.97
215.467	-33.28
215.686	56.83
215.904	24.06
216.122	38.4
216.341	56.83
216.559	15.87
216.778	9.73
216.996	40.45
217.214	-12.8
217.432	7.68
217.651	17.92
217.869	42.5
218.087	52.74
218.306	58.88
218.524	-4.61
218.742	5.63
218.96	36.35
219.179	24.06
219.397	60.93
219.615	114.17
219.833	-47.62
220.051	1.54
220.27	89.6
220.488	105.98
220.706	62.98
220.924	13.82
221.142	62.98
221.36	-8.7
221.578	134.65
221.796	5.63
222.015	73.21
222.233	28.16
222.451	-10.75
222.669	-55.81
222.887	24.06
223.105	42.5
223.323	17.92
223.541	-39.42
223.759	1.54
223.977	54.78
224.195	54.78
224.413	54.78
224.631	34.3
224.849	-0.51
225.067	171.52
225.285	52.74
225.503	-6.66
225.721	54.78
225.939	3.58
226.157	32.26
226.375	3.58
226.592	-18.94
226.81	38.4
227.028	38.4
227.246	30.21
227.464	-31.23
227.682	-41.47
227.9	60.93
228.117	1.54
228.335	71.17
228.553	7.68
228.771	56.83
228.989	69.12
229.206	-10.75
229.424	36.35
229.642	-51.71
229.86	30.21
230.077	73.21
230.295	69.12
230.513	87.55
230.731	71.17
230.948	34.3
231.166	7.68
231.384	32.26
231.601	-47.62
231.819	-12.8
232.037	1.54
232.254	38.4
232.472	97.79
232.689	17.92
232.907	24.06
233.125	-31.23
233.342	22.02
233.56	-16.9
233.777	48.64
233.995	15.87
234.213	65.02
234.43	-37.38
234.648	7.68
234.865	-16.9
235.083	52.74
235.3	38.4
235.518	38.4
235.735	60.93
235.953	36.35
236.17	38.4
236.388	-2.56
236.605	71.17
236.822	34.3
237.04	110.08
237.257	5.63
237.475	-18.94
237.692	15.87
237.909	3.58
238.127	93.69
238.344	-25.09
238.562	50.69
238.779	34.3
238.996	5.63
239.214	22.02
239.431	-0.51
239.648	97.79
239.865	44.54
240.083	-18.94
240.3	15.87
240.517	-20.99
240.735	-20.99
240.952	-4.61
241.169	30.21
241.386	77.31
241.603	32.26
241.821	28.16
242.038	62.98
242.255	26.11
242.472	11.78
242.689	7.68
242.907	38.4
243.124	40.45
243.341	26.11
243.558	-35.33
243.775	69.12
243.992	-57.86
244.209	79.36
244.426	13.82
244.643	42.5
244.86	5.63
245.078	65.02
245.295	-20.99
245.512	7.68
245.729	7.68
245.946	40.45
246.163	69.12
246.38	-18.94
246.597	114.17
246.814	22.02
247.031	-37.38
247.248	-2.56
247.464	24.06
247.681	-14.85
247.898	22.02
248.115	40.45
248.332	19.97
248.549	69.12
248.766	81.41
248.983	13.82
249.2	-0.51
249.417	9.73
249.633	52.74
249.85	32.26
250.067	50.69
250.284	-31.23
250.501	34.3
250.717	5.63
250.934	60.93
251.151	-8.7
251.368	42.5
251.585	60.93
251.801	-74.24
252.018	-12.8
252.235	15.87
252.451	114.17
252.668	-10.75
252.885	122.37
253.102	60.93
253.318	73.21
253.535	-20.99
253.752	32.26
253.968	69.12
254.185	3.58
254.401	-16.9
254.618	34.3
254.835	1.54
255.051	60.93
255.268	-23.04
255.484	1.54
255.701	34.3
255.917	-23.04
256.134	-8.7
256.351	1.54
256.567	5.63
256.784	54.78
257	9.73
257.217	30.21
257.433	65.02
257.65	58.88
257.866	73.21
258.082	11.78
258.299	-23.04
258.515	38.4
258.732	-37.38
258.948	122.37
259.165	-45.57
259.381	-57.86
259.597	79.36
259.814	-2.56
260.03	32.26
260.246	75.26
260.463	28.16
260.679	9.73
260.895	48.64
261.112	36.35
261.328	11.78
261.544	7.68
261.761	85.5
261.977	9.73
262.193	5.63
262.409	7.68
262.626	30.21
262.842	69.12
263.058	-4.61
263.274	28.16
263.49	91.65
263.707	30.21
263.923	26.11
264.139	-41.47
264.355	40.45
264.571	7.68
264.787	46.59
265.004	28.16
265.22	85.5
265.436	15.87
265.652	9.73
265.868	-23.04
266.084	-8.7
266.3	58.88
266.516	28.16
266.732	-33.28
266.948	22.02
267.164	-18.94
267.38	15.87
267.596	89.6
267.812	71.17
268.028	26.11
268.244	1.54
268.46	-59.9
268.676	-61.95
268.892	58.88
269.108	9.73
269.324	-59.9
269.54	32.26
269.756	83.45
269.972	56.83
270.188	36.35
270.403	24.06
270.619	-43.52
270.835	44.54
271.051	58.88
271.267	-4.61
271.483	32.26
271.698	-29.18
271.914	15.87
272.13	-20.99
272.346	28.16
272.562	11.78
272.777	89.6
272.993	65.02
273.209	46.59
273.425	52.74
273.64	30.21
273.856	-0.51
274.072	-2.56
274.287	75.26
274.503	-4.61
274.719	7.68
274.934	3.58
275.15	5.63
275.366	69.12
275.581	11.78
275.797	101.89
276.012	13.82
276.228	-2.56
276.444	19.97
276.659	67.07
276.875	110.08
277.09	-8.7
277.306	60.93
277.521	-53.76
277.737	103.93
277.952	46.59
278.168	-8.7
278.383	17.92
278.599	32.26
278.814	24.06
279.03	36.35
279.245	108.03
279.461	-8.7
279.676	-23.04
279.892	69.12
280.107	52.74
280.322	110.08
280.538	46.59
280.753	73.21
280.969	91.65
281.184	7.68
281.399	26.11
281.615	9.73
281.83	52.74
282.045	-33.28
282.26	-33.28
282.476	81.41
282.691	93.69
282.906	15.87
283.122	97.79
283.337	5.63
283.552	75.26
283.767	5.63
283.983	5.63
284.198	30.21
284.413	36.35
284.628	9.73
284.843	19.97
285.058	-27.14
285.274	22.02
285.489	46.59
285.704	7.68
285.919	42.5
286.134	54.78
286.349	5.63
286.564	36.35
286.779	112.13
286.995	-0.51
287.21	26.11
287.425	87.55
287.64	26.11
287.855	-6.66
288.07	-57.86
288.285	24.06
288.5	13.82
288.715	-8.7
288.93	28.16
289.145	36.35
289.36	67.07
289.575	48.64
289.79	54.78
290.004	42.5
290.219	87.55
290.434	5.63
290.649	-12.8
290.864	-51.71
291.079	38.4
291.294	-39.42
291.509	65.02
291.724	89.6
291.938	28.16
292.153	93.69
292.368	-27.14
292.583	28.16
292.798	24.06
293.012	50.69
293.227	54.78
293.442	-2.56
293.657	-0.51
293.871	56.83
294.086	28.16
294.301	105.98
294.516	52.74
294.73	85.5
294.945	-84.48
295.16	32.26
295.374	36.35
295.589	67.07
295.804	32.26
296.018	24.06
296.233	17.92
296.447	11.78
296.662	-35.33
296.877	58.88
297.091	-10.75
297.306	11.78
297.52	85.5
297.735	42.5
297.949	-53.76
298.164	3.58
298.378	3.58
298.593	-2.56
298.807	52.74
299.022	17.92
299.236	85.5
299.451	38.4
299.665	56.83
299.88	69.12
300.094	-6.66
300.309	42.5
300.523	44.54
300.737	38.4
300.952	17.92
301.166	52.74
301.381	-0.51
301.595	46.59
301.809	83.45
302.024	22.02
302.238	7.68
302.452	52.74
302.667	-25.09
302.881	28.16
303.095	24.06
303.309	-4.61
303.524	83.45
303.738	89.6
303.952	3.58
304.166	15.87
304.381	-35.33
304.595	58.88
304.809	15.87
305.023	36.35
305.237	11.78
305.452	34.3
305.666	58.88
305.88	65.02
306.094	28.16
306.308	36.35
306.522	101.89
306.736	91.65
306.95	28.16
307.164	19.97
307.379	-59.9
307.593	26.11
307.807	56.83
308.021	-4.61
308.235	11.78
308.449	24.06
308.663	-0.51
308.877	60.93
309.091	93.69
309.305	32.26
309.519	-23.04
309.733	73.21
309.947	30.21
310.161	42.5
310.374	-0.51
310.588	87.55
310.802	19.97
311.016	-8.7
311.23	62.98
311.444	-10.75
311.658	19.97
311.872	17.92
312.085	44.54
312.299	116.22
312.513	24.06
312.727	56.83
312.941	38.4
313.154	50.69
313.368	52.74
313.582	28.16
313.796	19.97
314.009	46.59
314.223	-12.8
314.437	9.73
314.651	1.54
314.864	73.21
315.078	-45.57
315.292	-14.85
315.505	-2.56
315.719	30.21
315.933	56.83
316.146	9.73
316.36	-25.09
316.573	62.98
316.787	24.06
317.001	73.21
317.214	7.68
317.428	17.92
317.641	50.69
317.855	-4.61
318.068	97.79
318.282	73.21
318.495	50.69
318.709	11.78
318.922	34.3
319.136	67.07
319.349	40.45
319.563	105.98
319.776	9.73
319.99	42.5
320.203	77.31
320.417	79.36
320.63	17.92
320.843	48.64
321.057	32.26
321.27	-10.75
321.483	-27.14
321.697	-0.51
321.91	-10.75
322.124	19.97
322.337	34.3
322.55	28.16
322.763	-20.99
322.977	-18.94
323.19	54.78
323.403	3.58
323.617	60.93
323.83	24.06
324.043	36.35
324.256	67.07
324.469	5.63
324.683	46.59
324.896	69.12
325.109	32.26
325.322	-6.66
325.535	105.98
325.748	-2.56
325.962	69.12
326.175	62.98
326.388	15.87
326.601	7.68
326.814	54.78
327.027	36.35
327.24	89.6
327.453	-12.8
327.666	128.51
327.879	11.78
328.092	-2.56
328.305	5.63
328.518	15.87
328.731	32.26
328.944	85.5
329.157	77.31
329.37	79.36
329.583	56.83
329.796	36.35
330.009	-20.99
330.222	11.78
330.435	44.54
330.648	32.26
330.861	17.92
331.073	124.41
331.286	56.83
331.499	99.84
331.712	97.79
331.925	42.5
332.138	77.31
332.35	50.69
332.563	-8.7
332.776	67.07
332.989	9.73
333.202	13.82
333.414	32.26
333.627	46.59
333.84	87.55
334.053	48.64
334.265	62.98
334.478	91.65
334.691	3.58
334.903	46.59
335.116	24.06
335.329	36.35
335.541	-45.57
335.754	83.45
335.966	-23.04
336.179	7.68
336.392	-20.99
336.604	56.83
336.817	56.83
337.029	67.07
337.242	38.4
337.454	-16.9
337.667	5.63
337.88	32.26
338.092	38.4
338.305	83.45
338.517	11.78
338.729	52.74
338.942	54.78
339.154	-14.85
339.367	-25.09
339.579	11.78
339.792	15.87
340.004	77.31
340.217	-14.85
340.429	15.87
340.641	-14.85
340.854	19.97
341.066	79.36
341.278	99.84
341.491	22.02
341.703	85.5
341.915	-12.8
342.128	101.89
342.34	30.21
342.552	-25.09
342.764	26.11
342.977	1.54
343.189	15.87
343.401	17.92
343.613	91.65
343.826	56.83
344.038	62.98
344.25	75.26
344.462	-8.7
344.674	71.17
344.886	-10.75
345.099	54.78
345.311	83.45
345.523	-39.42
345.735	19.97
345.947	65.02
346.159	40.45
346.371	36.35
346.583	77.31
346.795	99.84
347.007	-2.56
347.219	50.69
347.431	-16.9
347.643	48.64
347.855	52.74
348.067	110.08
348.279	28.16
348.491	48.64
348.703	114.17
348.915	-12.8
349.127	130.56
349.339	-0.51
349.551	62.98
349.763	-6.66
349.975	62.98
350.187	-31.23
350.399	36.35
350.61	19.97
350.822	-43.52
351.034	48.64
351.246	71.17
351.458	44.54
351.669	36.35
351.881	62.98
352.093	60.93
352.305	75.26
352.517	60.93
352.728	65.02
352.94	48.64
353.152	65.02
353.363	26.11
353.575	79.36
353.787	13.82
353.999	36.35
354.21	105.98
354.422	5.63
354.633	54.78
354.845	101.89
355.057	38.4
355.268	65.02
355.48	22.02
355.692	30.21
355.903	-2.56
356.115	36.35
356.326	-2.56
356.538	17.92
356.749	24.06
356.961	118.27
357.172	22.02
357.384	118.27
357.595	81.41
357.807	58.88
358.018	-0.51
358.23	-6.66
358.441	87.55
358.653	28.16
358.864	26.11
359.075	9.73
359.287	-33.28
359.498	44.54
359.709	89.6
359.921	42.5
360.132	46.59
360.344	-23.04
360.555	22.02
360.766	28.16
360.977	50.69
361.189	44.54
361.4	13.82
361.611	44.54
361.823	89.6
362.034	32.26
362.245	32.26
362.456	5.63
362.667	-37.38
362.879	146.94
363.09	-4.61
363.301	3.58
363.512	32.26
363.723	36.35
363.935	32.26
364.146	75.26
364.357	67.07
364.568	110.08
364.779	34.3
364.99	-4.61
365.201	-37.38
365.412	65.02
365.623	-8.7
365.834	103.93
366.045	3.58
366.256	15.87
366.467	124.41
366.678	50.69
366.889	40.45
367.1	11.78
367.311	-8.7
367.522	26.11
367.733	83.45
367.944	65.02
368.155	87.55
368.366	75.26
368.577	75.26
368.788	83.45
368.999	77.31
369.209	-10.75
369.42	89.6
369.631	95.74
369.842	101.89
370.053	5.63
370.264	62.98
370.474	19.97
370.685	-39.42
370.896	5.63
371.107	36.35
371.317	77.31
371.528	56.83
371.739	73.21
371.95	60.93
372.16	9.73
372.371	7.68
372.582	87.55
372.792	48.64
373.003	7.68
373.214	97.79
373.424	15.87
373.635	-29.18
373.846	48.64
374.056	40.45
374.267	36.35
374.477	65.02
374.688	44.54
374.898	56.83
375.109	73.21
375.319	24.06
375.53	26.11
375.74	-16.9
375.951	83.45
376.161	34.3
376.372	89.6
376.582	11.78
376.793	40.45
377.003	-4.61
377.214	22.02
377.424	62.98
377.635	67.07
377.845	44.54
378.055	120.32
378.266	-41.47
378.476	44.54
378.686	48.64
378.897	-29.18
379.107	50.69
379.317	-41.47
379.528	34.3
379.738	105.98
379.948	22.02
380.158	146.94
380.369	67.07
380.579	83.45
380.789	-8.7
380.999	110.08
381.21	19.97
381.42	81.41
381.63	-4.61
381.84	30.21
382.05	52.74
382.261	58.88
382.471	79.36
382.681	15.87
382.891	108.03
383.101	91.65
383.311	-14.85
383.521	19.97
383.731	114.17
383.941	-8.7
384.151	-20.99
384.361	62.98
384.571	71.17
384.781	22.02
384.991	48.64
385.201	69.12
385.411	24.06
385.621	79.36
385.831	93.69
386.041	56.83
386.251	69.12
386.461	89.6
386.671	87.55
386.881	50.69
387.091	36.35
387.301	91.65
387.511	93.69
387.72	28.16
387.93	60.93
388.14	71.17
388.35	13.82
388.56	52.74
388.769	32.26
388.979	17.92
389.189	24.06
389.399	19.97
389.609	73.21
389.818	101.89
390.028	3.58
390.238	36.35
390.447	75.26
390.657	19.97
390.867	48.64
391.076	44.54
391.286	65.02
391.496	13.82
391.705	81.41
391.915	28.16
392.125	40.45
392.334	22.02
392.544	30.21
392.753	58.88
392.963	56.83
393.172	7.68
393.382	89.6
393.591	103.93
393.801	13.82
394.01	130.56
394.22	91.65
394.429	1.54
394.639	48.64
394.848	120.32
395.058	62.98
395.267	118.27
395.477	26.11
395.686	30.21
395.895	118.27
396.105	93.69
396.314	87.55
396.524	105.98
396.733	42.5
396.942	110.08
397.152	46.59
397.361	58.88
397.57	38.4
397.78	159.23
397.989	71.17
398.198	103.93
398.407	73.21
398.617	103.93
398.826	89.6
399.035	151.04
399.244	85.5
399.453	58.88
399.663	77.31
399.872	122.37
400.081	75.26
400.29	130.56
400.499	-10.75
400.708	134.65
400.917	122.37
401.127	89.6
401.336	97.79
401.545	159.23
401.754	75.26
401.963	157.18
402.172	99.84
402.381	97.79
402.59	95.74
402.799	116.22
403.008	114.17
403.217	167.42
403.426	89.6
403.635	126.46
403.844	103.93
404.053	65.02
404.262	187.9
404.471	112.13
404.68	114.17
404.888	122.37
405.097	126.46
405.306	81.41
405.515	175.61
405.724	151.04
405.933	151.04
406.142	187.9
406.35	167.42
406.559	114.17
406.768	194.05
406.977	187.9
407.185	128.51
407.394	206.33
407.603	187.9
407.812	216.57
408.02	263.68
408.229	181.76
408.438	183.81
408.646	165.37
408.855	224.76
409.064	200.19
409.272	286.2
409.481	304.64
409.69	261.63
409.898	294.4
410.107	255.48
410.315	267.77
410.524	187.9
410.733	282.11
410.941	347.64
411.15	314.88
411.358	368.12
411.567	368.12
411.775	310.78
411.984	355.83
412.192	398.84
412.401	353.79
412.609	400.89
412.818	447.99
413.026	425.47
413.234	501.24
413.443	384.51
413.651	484.86
413.86	515.58
414.068	527.86
414.276	611.83
414.485	505.34
414.693	646.65
414.901	738.8
415.11	613.88
415.318	601.59
415.526	693.75
415.734	763.38
415.943	665.08
416.151	757.24
416.359	726.52
416.567	878.07
416.776	871.92
416.984	916.98
417.192	839.16
417.4	884.21
417.608	933.36
417.817	904.69
418.025	1039.86
418.233	1107.44
418.441	1031.66
418.649	1140.21
418.857	1207.79
419.065	1308.14
419.273	1170.93
419.481	1345
419.689	1353.2
419.897	1402.35
420.105	1375.72
420.313	1488.36
420.521	1537.51
420.729	1539.56
420.937	1560.04
421.145	1668.58
421.353	1646.05
421.561	1803.75
421.769	1791.46
421.977	1932.77
422.185	1822.18
422.393	1906.15
422.601	2088.42
422.809	2160.1
423.017	2092.51
423.224	2272.73
423.432	2315.74
423.64	2194.91
423.848	2518.49
424.056	2469.34
424.263	2573.78
424.471	2620.89
424.679	2702.81
424.887	2883.03
425.094	2887.12
425.302	2903.51
425.51	3163.6
425.718	3235.28
425.925	3149.26
426.133	3229.13
426.341	3446.22
426.548	3685.83
426.756	3558.86
426.964	3739.08
427.171	3886.53
427.379	3970.5
427.586	3964.36
427.794	4074.95
428.001	4398.52
428.209	4359.61
428.417	4439.48
428.624	4787.64
428.832	4877.75
429.039	4832.69
429.247	4748.73
429.454	5250.48
429.662	5623.21
429.869	5178.8
430.076	5588.39
430.284	5506.48
430.491	5770.66
430.699	6143.39
430.906	6041
431.114	5957.03
431.321	6237.6
431.528	6428.06
431.736	6763.93
431.943	7187.86
432.15	6897.05
432.358	6942.1
432.565	7441.81
432.772	7318.93
432.979	7755.15
433.187	8000.9
433.394	8121.73
433.601	8426.88
433.808	8371.58
434.016	8457.6
434.223	8684.92
434.43	9323.89
434.637	9291.12
434.844	9600.37
435.052	9907.56
435.259	9727.34
435.466	9887.08
435.673	9741.68
435.88	10634.59
436.087	11038.04
436.294	11138.39
436.501	10681.69
436.708	10984.79
436.915	11244.88
437.122	11810.12
437.329	11670.86
437.537	12049.74
437.743	12350.79
437.95	12205.38
438.157	12848.44
438.364	13358.39
438.571	13487.41
438.778	13264.18
438.985	14621.98
439.192	14079.27
439.399	14572.83
439.606	14181.67
439.813	14910.75
440.02	15994.12
440.227	15768.85
440.433	15742.22
440.64	16153.87
440.847	15856.91
441.054	16438.53
441.261	17280.25
441.467	17095.93
441.674	17577.2
441.881	18205.93
442.088	18046.19
442.294	17939.69
442.501	18515.17
442.708	18922.72
442.914	19616.98
443.121	20350.15
443.328	19825.87
443.534	21097.66
443.741	20675.78
443.948	20247.76
444.154	21761.2
444.361	21390.52
444.568	21767.35
444.774	21920.95
444.981	21955.76
445.187	22717.61
445.394	23680.15
445.6	23436.44
445.807	25662.58
446.013	24380.56
446.22	24968.32
446.426	26012.79
446.633	26354.8
446.839	27059.3
447.046	25748.6
447.252	27464.8
447.459	27153.51
447.665	27280.48
447.871	28312.66
448.078	29817.91
448.284	28036.18
448.491	28963.91
448.697	29989.94
448.903	30366.77
449.11	30876.71
449.316	30313.52
449.522	30639.15
449.728	31589.41
449.935	31810.59
450.141	31607.84
450.347	32236.56
450.553	31687.71
450.76	31818.78
450.966	32863.24
451.172	32662.54
451.378	32889.87
451.584	32771.08
451.791	33362.95
451.997	33463.3
452.203	33799.16
452.409	33649.66
452.615	33360.9
452.821	32410.64
453.027	32289.81
453.233	33735.68
453.44	32316.43
453.646	32865.29
453.852	32984.07
454.058	33653.76
454.264	31912.99
454.47	33113.09
454.676	32332.82
454.882	33166.34
455.088	30415.92
455.294	30661.68
455.5	31374.37
455.705	31648.8
455.911	29957.17
456.117	29703.23
456.323	29082.69
456.529	27536.48
456.735	28875.85
456.941	28343.38
457.147	27698.27
457.352	26754.15
457.558	26532.97
457.764	26764.39
457.97	26133.62
458.176	25291.9
458.381	25588.86
458.587	24302.73
458.793	24179.86
458.999	23159.97
459.204	24759.43
459.41	23983.25
459.616	22670.5
459.821	22596.78
460.027	22113.45
460.233	21841.07
460.438	20712.64
460.644	21214.4
460.85	20022.48
461.055	19758.29
461.261	19791.06
461.466	18173.16
461.672	17712.37
461.878	18994.4
462.083	17816.82
462.289	17499.38
462.494	17153.27
462.7	16549.12
462.905	16321.8
463.111	16766.21
463.316	16833.79
463.522	16303.37
463.727	16571.65
463.932	16432.39
464.138	16334.09
464.343	16168.2
464.549	15611.15
464.754	16362.76
464.959	16332.04
465.165	16096.52
465.37	15451.41
465.575	14888.22
465.781	15559.95
465.986	15879.44
466.191	15179.03
466.397	14898.46
466.602	14062.89
466.807	14683.42
467.012	14607.65
467.218	14523.68
467.423	14447.91
467.628	14540.07
467.833	14884.12
468.038	14685.47
468.244	13868.33
