Data from USB4F104151__85__11-06-36-405.txt Node

Date: Wed Mar 12 11:06:36 EDT 2025
User: louis
Spectrometer: USB4F10415
Trigger mode: 4
Integration Time (sec): 2.000000E-2
Scans to average: 1
Electric dark correction enabled: true
Nonlinearity correction enabled: false
Boxcar width: 0
XAxis mode: Wavelengths
Number of Pixels in Spectrum: 3648
>>>>>Begin Spectral Data<<<<<
178.204	-97.28
178.424	-97.28
178.644	-97.28
178.864	35.84
179.084	-46.08
179.304	-3.07
179.524	-21.5
179.744	7.17
179.964	1.02
180.184	-41.98
180.404	29.7
180.624	9.22
180.844	-41.98
181.064	-5.12
181.283	48.13
181.503	7.17
181.723	11.26
181.943	13.31
182.163	66.56
182.383	60.42
182.602	52.22
182.822	35.84
183.042	103.42
183.262	9.22
183.482	62.46
183.701	-9.22
183.921	29.7
184.141	1.02
184.361	31.74
184.58	50.18
184.8	1.02
185.02	31.74
185.239	105.47
185.459	41.98
185.679	64.51
185.898	44.03
186.118	3.07
186.338	44.03
186.557	62.46
186.777	62.46
186.997	-27.65
187.216	-27.65
187.436	78.85
187.655	-15.36
187.875	33.79
188.095	29.7
188.314	25.6
188.534	27.65
188.753	93.18
188.973	68.61
189.192	78.85
189.412	35.84
189.631	78.85
189.851	37.89
190.07	50.18
190.29	7.17
190.509	9.22
190.729	76.8
190.948	60.42
191.168	68.61
191.387	21.5
191.607	1.02
191.826	-39.94
192.045	41.98
192.265	41.98
192.484	5.12
192.704	27.65
192.923	58.37
193.142	91.13
193.362	74.75
193.581	80.89
193.8	128
194.02	56.32
194.239	-19.46
194.458	54.27
194.678	76.8
194.897	60.42
195.116	-29.7
195.335	35.84
195.555	-15.36
195.774	103.42
195.993	91.13
196.212	44.03
196.432	1.02
196.651	-37.89
196.87	48.13
197.089	97.28
197.308	72.7
197.528	101.37
197.747	-5.12
197.966	1.02
198.185	119.81
198.404	-17.41
198.623	58.37
198.842	119.81
199.062	105.47
199.281	-3.07
199.5	27.65
199.719	13.31
199.938	44.03
200.157	-27.65
200.376	103.42
200.595	123.9
200.814	62.46
201.033	56.32
201.252	35.84
201.471	29.7
201.69	52.22
201.909	74.75
202.128	9.22
202.347	7.17
202.566	62.46
202.785	17.41
203.004	5.12
203.223	31.74
203.442	-46.08
203.661	-39.94
203.879	27.65
204.098	64.51
204.317	48.13
204.536	60.42
204.755	87.04
204.974	50.18
205.193	54.27
205.411	62.46
205.63	99.33
205.849	9.22
206.068	50.18
206.287	-9.22
206.505	33.79
206.724	27.65
206.943	56.32
207.162	17.41
207.381	-48.13
207.599	13.31
207.818	60.42
208.037	25.6
208.255	29.7
208.474	29.7
208.693	27.65
208.911	1.02
209.13	48.13
209.349	17.41
209.567	74.75
209.786	27.65
210.005	41.98
210.223	70.65
210.442	-5.12
210.661	-25.6
210.879	103.42
211.098	-27.65
211.316	-13.31
211.535	44.03
211.753	15.36
211.972	54.27
212.191	37.89
212.409	97.28
212.628	-5.12
212.846	7.17
213.065	58.37
213.283	103.42
213.502	62.46
213.72	48.13
213.938	72.7
214.157	46.08
214.375	17.41
214.594	11.26
214.812	58.37
215.031	13.31
215.249	46.08
215.467	-19.46
215.686	27.65
215.904	27.65
216.122	21.5
216.341	140.29
216.559	84.99
216.778	62.46
216.996	-9.22
217.214	68.61
217.432	29.7
217.651	72.7
217.869	72.7
218.087	7.17
218.306	21.5
218.524	54.27
218.742	130.05
218.96	31.74
219.179	15.36
219.397	64.51
219.615	89.09
219.833	21.5
220.051	-19.46
220.27	99.33
220.488	37.89
220.706	15.36
220.924	-68.61
221.142	48.13
221.36	23.55
221.578	1.02
221.796	-7.17
222.015	56.32
222.233	44.03
222.451	-13.31
222.669	21.5
222.887	39.94
223.105	39.94
223.323	50.18
223.541	37.89
223.759	109.57
223.977	-33.79
224.195	60.42
224.413	84.99
224.631	-9.22
224.849	5.12
225.067	80.89
225.285	-3.07
225.503	35.84
225.721	-37.89
225.939	70.65
226.157	66.56
226.375	44.03
226.592	31.74
226.81	41.98
227.028	93.18
227.246	89.09
227.464	72.7
227.682	13.31
227.9	56.32
228.117	58.37
228.335	78.85
228.553	91.13
228.771	64.51
228.989	35.84
229.206	54.27
229.424	9.22
229.642	-9.22
229.86	-13.31
230.077	19.46
230.295	74.75
230.513	99.33
230.731	9.22
230.948	-5.12
231.166	95.23
231.384	17.41
231.601	-1.02
231.819	7.17
232.037	50.18
232.254	-11.26
232.472	11.26
232.689	-35.84
232.907	78.85
233.125	1.02
233.342	62.46
233.56	-3.07
233.777	62.46
233.995	56.32
234.213	29.7
234.43	-5.12
234.648	62.46
234.865	31.74
235.083	80.89
235.3	56.32
235.518	-1.02
235.735	68.61
235.953	35.84
236.17	17.41
236.388	37.89
236.605	-11.26
236.822	121.85
237.04	33.79
237.257	-1.02
237.475	33.79
237.692	121.85
237.909	1.02
238.127	89.09
238.344	-5.12
238.562	95.23
238.779	-13.31
238.996	82.94
239.214	62.46
239.431	17.41
239.648	84.99
239.865	31.74
240.083	37.89
240.3	13.31
240.517	50.18
240.735	1.02
240.952	66.56
241.169	89.09
241.386	13.31
241.603	80.89
241.821	74.75
242.038	113.66
242.255	58.37
242.472	60.42
242.689	54.27
242.907	29.7
243.124	125.95
243.341	21.5
243.558	89.09
243.775	37.89
243.992	-25.6
244.209	48.13
244.426	74.75
244.643	74.75
244.86	66.56
245.078	3.07
245.295	35.84
245.512	7.17
245.729	62.46
245.946	50.18
246.163	82.94
246.38	54.27
246.597	3.07
246.814	48.13
247.031	68.61
247.248	64.51
247.464	68.61
247.681	15.36
247.898	31.74
248.115	60.42
248.332	123.9
248.549	68.61
248.766	78.85
248.983	121.85
249.2	13.31
249.417	48.13
249.633	7.17
249.85	37.89
250.067	5.12
250.284	23.55
250.501	23.55
250.717	23.55
250.934	23.55
251.151	25.6
251.368	19.46
251.585	-39.94
251.801	35.84
252.018	29.7
252.235	68.61
252.451	46.08
252.668	-3.07
252.885	154.62
253.102	54.27
253.318	11.26
253.535	-31.74
253.752	3.07
253.968	9.22
254.185	13.31
254.401	101.37
254.618	35.84
254.835	-39.94
255.051	109.57
255.268	33.79
255.484	39.94
255.701	-3.07
255.917	89.09
256.134	37.89
256.351	76.8
256.567	-1.02
256.784	64.51
257	9.22
257.217	111.61
257.433	62.46
257.65	11.26
257.866	37.89
258.082	111.61
258.299	91.13
258.515	99.33
258.732	91.13
258.948	29.7
259.165	25.6
259.381	25.6
259.597	-19.46
259.814	70.65
260.03	21.5
260.246	76.8
260.463	-3.07
260.679	76.8
260.895	48.13
261.112	13.31
261.328	95.23
261.544	44.03
261.761	60.42
261.977	70.65
262.193	95.23
262.409	93.18
262.626	48.13
262.842	9.22
263.058	11.26
263.274	50.18
263.49	15.36
263.707	25.6
263.923	-7.17
264.139	41.98
264.355	-13.31
264.571	123.9
264.787	-21.5
265.004	41.98
265.22	-5.12
265.436	1.02
265.652	37.89
265.868	13.31
266.084	41.98
266.3	1.02
266.516	62.46
266.732	13.31
266.948	25.6
267.164	-41.98
267.38	-7.17
267.596	31.74
267.812	35.84
268.028	62.46
268.244	41.98
268.46	7.17
268.676	-19.46
268.892	148.48
269.108	27.65
269.324	37.89
269.54	44.03
269.756	58.37
269.972	15.36
270.188	35.84
270.403	29.7
270.619	70.65
270.835	21.5
271.051	105.47
271.267	111.61
271.483	72.7
271.698	39.94
271.914	11.26
272.13	50.18
272.346	48.13
272.562	54.27
272.777	113.66
272.993	9.22
273.209	41.98
273.425	-1.02
273.64	-29.7
273.856	17.41
274.072	91.13
274.287	44.03
274.503	95.23
274.719	13.31
274.934	37.89
275.15	-50.18
275.366	37.89
275.581	11.26
275.797	58.37
276.012	37.89
276.228	31.74
276.444	97.28
276.659	74.75
276.875	-15.36
277.09	13.31
277.306	68.61
277.521	80.89
277.737	87.04
277.952	56.32
278.168	117.76
278.383	80.89
278.599	35.84
278.814	48.13
279.03	-25.6
279.245	125.95
279.461	66.56
279.676	138.24
279.892	37.89
280.107	58.37
280.322	21.5
280.538	56.32
280.753	-19.46
280.969	33.79
281.184	80.89
281.399	17.41
281.615	-58.37
281.83	60.42
282.045	27.65
282.26	31.74
282.476	-23.55
282.691	11.26
282.906	56.32
283.122	39.94
283.337	95.23
283.552	33.79
283.767	-7.17
283.983	37.89
284.198	82.94
284.413	82.94
284.628	41.98
284.843	44.03
285.058	15.36
285.274	-23.55
285.489	19.46
285.704	44.03
285.919	80.89
286.134	29.7
286.349	52.22
286.564	44.03
286.779	9.22
286.995	23.55
287.21	56.32
287.425	39.94
287.64	80.89
287.855	109.57
288.07	41.98
288.285	56.32
288.5	-29.7
288.715	84.99
288.93	130.05
289.145	44.03
289.36	87.04
289.575	33.79
289.79	19.46
290.004	23.55
290.219	107.52
290.434	68.61
290.649	48.13
290.864	15.36
291.079	44.03
291.294	-3.07
291.509	115.71
291.724	-5.12
291.938	41.98
292.153	-23.55
292.368	-5.12
292.583	80.89
292.798	76.8
293.012	23.55
293.227	54.27
293.442	-7.17
293.657	19.46
293.871	154.62
294.086	80.89
294.301	-1.02
294.516	52.22
294.73	-9.22
294.945	29.7
295.16	17.41
295.374	82.94
295.589	87.04
295.804	11.26
296.018	7.17
296.233	103.42
296.447	41.98
296.662	66.56
296.877	1.02
297.091	105.47
297.306	1.02
297.52	84.99
297.735	91.13
297.949	11.26
298.164	29.7
298.378	27.65
298.593	35.84
298.807	27.65
299.022	50.18
299.236	105.47
299.451	78.85
299.665	39.94
299.88	33.79
300.094	29.7
300.309	7.17
300.523	54.27
300.737	25.6
300.952	5.12
301.166	70.65
301.381	64.51
301.595	29.7
301.809	76.8
302.024	60.42
302.238	11.26
302.452	31.74
302.667	58.37
302.881	29.7
303.095	87.04
303.309	64.51
303.524	76.8
303.738	50.18
303.952	25.6
304.166	72.7
304.381	78.85
304.595	134.14
304.809	-21.5
305.023	25.6
305.237	44.03
305.452	35.84
305.666	37.89
305.88	17.41
306.094	44.03
306.308	39.94
306.522	44.03
306.736	130.05
306.95	80.89
307.164	-21.5
307.379	37.89
307.593	78.85
307.807	136.19
308.021	54.27
308.235	60.42
308.449	37.89
308.663	62.46
308.877	76.8
309.091	84.99
309.305	142.33
309.519	39.94
309.733	62.46
309.947	48.13
310.161	-33.79
310.374	62.46
310.588	46.08
310.802	35.84
311.016	97.28
311.23	60.42
311.444	13.31
311.658	48.13
311.872	37.89
312.085	66.56
312.299	31.74
312.513	25.6
312.727	113.66
312.941	15.36
313.154	52.22
313.368	41.98
313.582	3.07
313.796	31.74
314.009	29.7
314.223	37.89
314.437	54.27
314.651	29.7
314.864	39.94
315.078	25.6
315.292	-50.18
315.505	52.22
315.719	97.28
315.933	-7.17
316.146	39.94
316.36	29.7
316.573	84.99
316.787	87.04
317.001	103.42
317.214	31.74
317.428	62.46
317.641	-11.26
317.855	99.33
318.068	11.26
318.282	107.52
318.495	134.14
318.709	37.89
318.922	78.85
319.136	74.75
319.349	82.94
319.563	50.18
319.776	113.66
319.99	44.03
320.203	91.13
320.417	58.37
320.63	107.52
320.843	95.23
321.057	11.26
321.27	13.31
321.483	33.79
321.697	29.7
321.91	21.5
322.124	78.85
322.337	84.99
322.55	76.8
322.763	95.23
322.977	95.23
323.19	-35.84
323.403	68.61
323.617	-5.12
323.83	33.79
324.043	72.7
324.256	64.51
324.469	50.18
324.683	84.99
324.896	66.56
325.109	78.85
325.322	97.28
325.535	82.94
325.748	115.71
325.962	56.32
326.175	29.7
326.388	58.37
326.601	68.61
326.814	66.56
327.027	17.41
327.24	140.29
327.453	-29.7
327.666	58.37
327.879	136.19
328.092	1.02
328.305	19.46
328.518	134.14
328.731	17.41
328.944	17.41
329.157	66.56
329.37	48.13
329.583	50.18
329.796	19.46
330.009	48.13
330.222	130.05
330.435	66.56
330.648	82.94
330.861	62.46
331.073	76.8
331.286	62.46
331.499	93.18
331.712	60.42
331.925	48.13
332.138	-7.17
332.35	91.13
332.563	29.7
332.776	156.67
332.989	-7.17
333.202	-11.26
333.414	29.7
333.627	68.61
333.84	99.33
334.053	80.89
334.265	25.6
334.478	76.8
334.691	62.46
334.903	23.55
335.116	3.07
335.329	39.94
335.541	64.51
335.754	44.03
335.966	54.27
336.179	-19.46
336.392	54.27
336.604	46.08
336.817	44.03
337.029	62.46
337.242	5.12
337.454	72.7
337.667	58.37
337.88	74.75
338.092	39.94
338.305	72.7
338.517	29.7
338.729	76.8
338.942	62.46
339.154	-19.46
339.367	48.13
339.579	89.09
339.792	78.85
340.004	132.09
340.217	29.7
340.429	-29.7
340.641	37.89
340.854	11.26
341.066	33.79
341.278	99.33
341.491	128
341.703	64.51
341.915	50.18
342.128	68.61
342.34	39.94
342.552	-1.02
342.764	21.5
342.977	64.51
343.189	21.5
343.401	66.56
343.613	103.42
343.826	105.47
344.038	72.7
344.25	15.36
344.462	31.74
344.674	62.46
344.886	74.75
345.099	50.18
345.311	33.79
345.523	74.75
345.735	68.61
345.947	91.13
346.159	50.18
346.371	-33.79
346.583	13.31
346.795	70.65
347.007	37.89
347.219	29.7
347.431	46.08
347.643	19.46
347.855	111.61
348.067	19.46
348.279	68.61
348.491	35.84
348.703	62.46
348.915	9.22
349.127	64.51
349.339	25.6
349.551	84.99
349.763	93.18
349.975	-46.08
350.187	82.94
350.399	78.85
350.61	66.56
350.822	-19.46
351.034	35.84
351.246	91.13
351.458	27.65
351.669	52.22
351.881	64.51
352.093	95.23
352.305	60.42
352.517	-25.6
352.728	60.42
352.94	41.98
353.152	7.17
353.363	7.17
353.575	39.94
353.787	115.71
353.999	66.56
354.21	123.9
354.422	37.89
354.633	29.7
354.845	29.7
355.057	99.33
355.268	125.95
355.48	89.09
355.692	101.37
355.903	21.5
356.115	-37.89
356.326	41.98
356.538	56.32
356.749	62.46
356.961	99.33
357.172	-15.36
357.384	82.94
357.595	17.41
357.807	52.22
358.018	64.51
358.23	80.89
358.441	80.89
358.653	93.18
358.864	37.89
359.075	50.18
359.287	107.52
359.498	-1.02
359.709	62.46
359.921	80.89
360.132	80.89
360.344	72.7
360.555	70.65
360.766	37.89
360.977	19.46
361.189	121.85
361.4	11.26
361.611	95.23
361.823	-3.07
362.034	33.79
362.245	41.98
362.456	113.66
362.667	5.12
362.879	70.65
363.09	87.04
363.301	103.42
363.512	80.89
363.723	7.17
363.935	74.75
364.146	21.5
364.357	72.7
364.568	125.95
364.779	44.03
364.99	117.76
365.201	-5.12
365.412	82.94
365.623	7.17
365.834	103.42
366.045	46.08
366.256	111.61
366.467	103.42
366.678	64.51
366.889	56.32
367.1	78.85
367.311	-7.17
367.522	23.55
367.733	33.79
367.944	87.04
368.155	87.04
368.366	123.9
368.577	123.9
368.788	107.52
368.999	-21.5
369.209	39.94
369.42	54.27
369.631	152.57
369.842	41.98
370.053	50.18
370.264	35.84
370.474	-11.26
370.685	56.32
370.896	117.76
371.107	91.13
371.317	93.18
371.528	48.13
371.739	89.09
371.95	99.33
372.16	48.13
372.371	33.79
372.582	74.75
372.792	78.85
373.003	-27.65
373.214	99.33
373.424	41.98
373.635	58.37
373.846	93.18
374.056	13.31
374.267	-25.6
374.477	109.57
374.688	105.47
374.898	62.46
375.109	62.46
375.319	154.62
375.53	66.56
375.74	70.65
375.951	89.09
376.161	46.08
376.372	105.47
376.582	46.08
376.793	119.81
377.003	21.5
377.214	74.75
377.424	97.28
377.635	41.98
377.845	82.94
378.055	91.13
378.266	29.7
378.476	119.81
378.686	84.99
378.897	80.89
379.107	46.08
379.317	1.02
379.528	125.95
379.738	-11.26
379.948	44.03
380.158	27.65
380.369	29.7
380.579	50.18
380.789	46.08
380.999	105.47
381.21	68.61
381.42	138.24
381.63	70.65
381.84	107.52
382.05	46.08
382.261	35.84
382.471	87.04
382.681	-7.17
382.891	111.61
383.101	41.98
383.311	25.6
383.521	33.79
383.731	62.46
383.941	107.52
384.151	54.27
384.361	72.7
384.571	31.74
384.781	70.65
384.991	125.95
385.201	39.94
385.411	46.08
385.621	37.89
385.831	125.95
386.041	103.42
386.251	99.33
386.461	52.22
386.671	31.74
386.881	82.94
387.091	80.89
387.301	58.37
387.511	93.18
387.72	27.65
387.93	130.05
388.14	80.89
388.35	48.13
388.56	82.94
388.769	82.94
388.979	91.13
389.189	23.55
389.399	66.56
389.609	156.67
389.818	72.7
390.028	23.55
390.238	87.04
390.447	111.61
390.657	48.13
390.867	62.46
391.076	66.56
391.286	74.75
391.496	44.03
391.705	39.94
391.915	97.28
392.125	78.85
392.334	35.84
392.544	39.94
392.753	21.5
392.963	35.84
393.172	70.65
393.382	78.85
393.591	115.71
393.801	1.02
394.01	87.04
394.22	27.65
394.429	121.85
394.639	101.37
394.848	123.9
395.058	66.56
395.267	130.05
395.477	76.8
395.686	84.99
395.895	109.57
396.105	107.52
396.314	31.74
396.524	89.09
396.733	48.13
396.942	154.62
397.152	21.5
397.361	148.48
397.57	160.77
397.78	39.94
397.989	134.14
398.198	80.89
398.407	37.89
398.617	62.46
398.826	117.76
399.035	27.65
399.244	60.42
399.453	27.65
399.663	150.53
399.872	111.61
400.081	56.32
400.29	160.77
400.499	117.76
400.708	99.33
400.917	93.18
401.127	72.7
401.336	99.33
401.545	41.98
401.754	105.47
401.963	111.61
402.172	84.99
402.381	103.42
402.59	111.61
402.799	97.28
403.008	121.85
403.217	183.29
403.426	128
403.635	134.14
403.844	76.8
404.053	111.61
404.262	138.24
404.471	140.29
404.68	128
404.888	222.2
405.097	87.04
405.306	189.44
405.515	140.29
405.724	111.61
405.933	89.09
406.142	107.52
406.35	201.72
406.559	211.96
406.768	123.9
406.977	205.82
407.185	119.81
407.394	177.15
407.603	209.92
407.812	234.49
408.02	134.14
408.229	214.01
408.438	185.34
408.646	216.06
408.855	175.1
409.064	201.72
409.272	244.73
409.481	275.45
409.69	226.3
409.898	150.53
410.107	267.26
410.315	281.6
410.524	269.31
410.733	308.22
410.941	283.64
411.15	314.36
411.358	338.94
411.567	300.03
411.775	332.79
411.984	314.36
412.192	332.79
412.401	300.03
412.609	457.72
412.818	381.95
413.026	371.71
413.234	406.52
413.443	439.29
413.651	414.71
413.86	470.01
414.068	535.54
414.276	494.58
414.485	537.59
414.693	521.21
414.901	492.54
415.11	574.46
415.318	594.93
415.526	619.51
415.734	642.04
415.943	697.33
416.151	639.99
416.359	654.33
416.567	662.52
416.776	695.29
416.984	785.4
417.192	820.21
417.4	685.05
417.608	805.88
417.817	803.83
418.025	760.82
418.233	906.23
418.441	852.98
418.649	965.62
418.857	1012.72
419.065	1065.97
419.273	1033.2
419.481	1088.5
419.689	1158.13
419.897	1240.05
420.105	1242.09
420.313	1283.05
420.521	1313.77
420.729	1272.81
420.937	1248.24
421.145	1348.59
421.353	1444.84
421.561	1561.58
421.769	1567.72
421.977	1661.93
422.185	1629.16
422.393	1760.23
422.601	1870.82
422.809	1893.35
423.017	1909.73
423.224	1872.87
423.432	1965.03
423.64	1985.51
423.848	2169.82
424.056	2130.91
424.263	2245.6
424.471	2243.55
424.679	2345.95
424.887	2429.91
425.094	2509.79
425.302	2546.65
425.51	2716.63
425.718	2636.76
425.925	2843.6
426.133	2870.23
426.341	3032.02
426.548	3130.32
426.756	3066.83
426.964	3224.53
427.171	3333.07
427.379	3392.46
427.586	3605.45
427.794	3505.1
428.001	3736.52
428.209	3834.82
428.417	3871.68
428.624	4234.18
428.832	4123.59
429.039	4062.15
429.247	4064.19
429.454	4584.38
429.662	4787.13
429.869	4611
430.076	4846.52
430.284	4864.95
430.491	4920.24
430.699	5084.08
430.906	5286.83
431.114	5118.9
431.321	5532.59
431.528	5583.79
431.736	5788.58
431.943	6323.1
432.15	6065.06
432.358	5964.71
432.565	6310.82
432.772	6316.96
432.979	6751.13
433.187	6974.36
433.394	6910.87
433.601	7336.85
433.808	7304.08
434.016	7377.81
434.223	7719.82
434.43	7981.96
434.637	7889.8
434.844	8311.68
435.052	8481.66
435.259	8389.5
435.466	8622.97
435.673	8504.19
435.88	9153.4
436.087	9419.63
436.294	9552.75
436.501	9165.68
436.708	9583.47
436.915	9782.12
437.122	10263.4
437.329	10097.51
437.537	10580.83
437.743	10865.5
437.95	10716
438.157	11244.37
438.364	11645.77
438.571	11615.05
438.778	11455.31
438.985	12763.97
439.192	12186.44
439.399	12647.23
439.606	12473.15
439.813	13120.31
440.02	13701.93
440.227	13488.95
440.433	13413.17
440.64	13841.2
440.847	13540.15
441.054	14226.21
441.261	14832.41
441.467	14885.66
441.674	15274.77
441.881	15551.25
442.088	15563.54
442.294	15754
442.501	15848.21
442.708	16458.5
442.914	16857.85
443.121	17392.37
443.328	16933.63
443.534	18264.81
443.741	17822.45
443.948	17447.67
444.154	18815.71
444.361	18703.07
444.568	18848.48
444.774	18807.52
444.981	19122.91
445.187	19665.62
445.394	20406.98
445.6	20439.75
445.807	22393.51
446.013	21250.75
446.22	21723.83
446.426	22227.63
446.633	22475.43
446.839	23261.85
447.046	22538.92
447.252	23487.13
447.459	23607.96
447.665	23734.93
447.871	24478.35
448.078	25510.52
448.284	24378
448.491	25051.78
448.697	26163.82
448.903	26425.96
449.11	26503.79
449.316	26073.71
449.522	26661.48
449.728	27392.61
449.935	27583.07
450.141	27275.87
450.347	28127.83
450.553	27247.2
450.76	27486.81
450.966	28637.77
451.172	27984.47
451.378	28762.7
451.584	28234.32
451.791	28619.34
451.997	28815.94
452.203	29264.45
452.409	29170.24
452.615	28807.75
452.821	28015.19
453.027	27648.6
453.233	29084.23
453.44	27642.46
453.646	28252.75
453.852	28400.21
454.058	28688.97
454.264	27408.99
454.47	28383.82
454.676	27920.98
454.882	28709.45
455.088	26178.16
455.294	26677.86
455.5	27077.22
455.705	26997.35
455.911	26051.19
456.117	25432.7
456.323	24924.8
456.529	23894.68
456.735	25008.77
456.941	24085.14
457.147	23732.89
457.352	22911.65
457.558	22778.53
457.764	23032.48
457.97	22440.62
458.176	21793.46
458.381	21848.75
458.587	20783.81
458.793	20597.45
458.999	19765.97
459.204	21195.45
459.41	20667.08
459.616	19219.16
459.821	19198.68
460.027	19124.96
460.233	18789.09
460.438	17996.53
460.644	18000.62
460.85	17238.78
461.055	16915.2
461.261	16880.38
461.466	15463.19
461.672	15280.92
461.878	16337.67
462.083	15164.18
462.289	15074.07
462.494	15053.59
462.7	13816.62
462.905	13792.05
463.111	14320.42
463.316	14457.64
463.522	14080.81
463.727	14123.82
463.932	14129.96
464.138	13906.73
464.343	14086.95
464.549	13503.28
464.754	14183.21
464.959	13650.74
465.165	13574.96
465.37	13132.6
465.575	12876.6
465.781	13200.18
465.986	13417.27
466.191	12974.91
466.397	12653.37
466.602	12094.28
466.807	12505.92
467.012	12426.05
467.218	12391.23
467.423	12344.13
467.628	12413.76
467.833	12716.86
468.038	12256.07
468.244	12004.17
468.449	12661.57
