Data from USB4F104151__108__11-07-13-958.txt Node

Date: Wed Mar 12 11:07:13 EDT 2025
User: louis
Spectrometer: USB4F10415
Trigger mode: 4
Integration Time (sec): 2.000000E-2
Scans to average: 1
Electric dark correction enabled: true
Nonlinearity correction enabled: false
Boxcar width: 0
XAxis mode: Wavelengths
Number of Pixels in Spectrum: 3648
>>>>>Begin Spectral Data<<<<<
178.204	35.33
178.424	35.33
178.644	35.33
178.864	-112.13
179.084	-9.73
179.304	45.57
179.524	16.9
179.744	-36.35
179.964	12.8
180.184	8.7
180.404	-24.06
180.624	41.47
180.844	10.75
181.064	0.51
181.283	-32.26
181.503	-44.54
181.723	0.51
181.943	-38.4
182.163	47.62
182.383	43.52
182.602	0.51
182.822	53.76
183.042	41.47
183.262	0.51
183.482	10.75
183.701	-3.58
183.921	86.53
184.141	74.24
184.361	90.62
184.58	0.51
184.8	39.42
185.02	61.95
185.239	55.81
185.459	-17.92
185.679	72.19
185.898	4.61
186.118	10.75
186.338	-5.63
186.557	41.47
186.777	35.33
186.997	27.14
187.216	31.23
187.436	35.33
187.655	64
187.875	78.33
188.095	31.23
188.314	35.33
188.534	37.38
188.753	-34.3
188.973	92.67
189.192	2.56
189.412	29.18
189.631	-11.78
189.851	18.94
190.07	80.38
190.29	51.71
190.509	-3.58
190.729	35.33
190.948	98.81
191.168	100.86
191.387	102.91
191.607	41.47
191.826	-36.35
192.045	51.71
192.265	-26.11
192.484	10.75
192.704	-17.92
192.923	-34.3
193.142	39.42
193.362	-17.92
193.581	47.62
193.8	14.85
194.02	88.57
194.239	51.71
194.458	55.81
194.678	-42.5
194.897	111.1
195.116	47.62
195.335	31.23
195.555	6.66
195.774	14.85
195.993	78.33
196.212	39.42
196.432	-28.16
196.651	-5.63
196.87	4.61
197.089	76.29
197.308	70.14
197.528	59.9
197.747	-9.73
197.966	55.81
198.185	115.2
198.404	-19.97
198.623	123.39
198.842	49.66
199.062	-26.11
199.281	64
199.5	4.61
199.719	-9.73
199.938	59.9
200.157	123.39
200.376	2.56
200.595	51.71
200.814	76.29
201.033	47.62
201.252	66.05
201.471	39.42
201.69	43.52
201.909	2.56
202.128	-9.73
202.347	86.53
202.566	47.62
202.785	-13.82
203.004	74.24
203.223	25.09
203.442	61.95
203.661	-19.97
203.879	51.71
204.098	72.19
204.317	-32.26
204.536	88.57
204.755	59.9
204.974	8.7
205.193	68.09
205.411	29.18
205.63	35.33
205.849	66.05
206.068	-24.06
206.287	59.9
206.505	117.25
206.724	135.68
206.943	29.18
207.162	-15.87
207.381	66.05
207.599	-9.73
207.818	16.9
208.037	82.43
208.255	72.19
208.474	94.72
208.693	109.05
208.911	68.09
209.13	72.19
209.349	55.81
209.567	64
209.786	68.09
210.005	45.57
210.223	10.75
210.442	100.86
210.661	35.33
210.879	88.57
211.098	51.71
211.316	47.62
211.535	41.47
211.753	37.38
211.972	47.62
212.191	115.2
212.409	33.28
212.628	-1.54
212.846	-50.69
213.065	39.42
213.283	72.19
213.502	82.43
213.72	31.23
213.938	39.42
214.157	90.62
214.375	-3.58
214.594	39.42
214.812	41.47
215.031	121.34
215.249	-26.11
215.467	66.05
215.686	88.57
215.904	100.86
216.122	-15.87
216.341	33.28
216.559	23.04
216.778	121.34
216.996	51.71
217.214	78.33
217.432	-7.68
217.651	-13.82
217.869	12.8
218.087	66.05
218.306	61.95
218.524	-3.58
218.742	39.42
218.96	4.61
219.179	64
219.397	53.76
219.615	6.66
219.833	27.14
220.051	-87.55
220.27	25.09
220.488	35.33
220.706	27.14
220.924	92.67
221.142	45.57
221.36	14.85
221.578	8.7
221.796	-11.78
222.015	37.38
222.233	41.47
222.451	-52.74
222.669	29.18
222.887	64
223.105	72.19
223.323	-13.82
223.541	16.9
223.759	76.29
223.977	-26.11
224.195	2.56
224.413	12.8
224.631	31.23
224.849	27.14
225.067	51.71
225.285	10.75
225.503	14.85
225.721	14.85
225.939	-9.73
226.157	25.09
226.375	92.67
226.592	18.94
226.81	90.62
227.028	33.28
227.246	2.56
227.464	80.38
227.682	18.94
227.9	43.52
228.117	72.19
228.335	51.71
228.553	16.9
228.771	-30.21
228.989	76.29
229.206	4.61
229.424	10.75
229.642	23.04
229.86	8.7
230.077	64
230.295	49.66
230.513	31.23
230.731	43.52
230.948	66.05
231.166	31.23
231.384	-5.63
231.601	33.28
231.819	49.66
232.037	27.14
232.254	-1.54
232.472	86.53
232.689	49.66
232.907	68.09
233.125	61.95
233.342	-11.78
233.56	64
233.777	37.38
233.995	43.52
234.213	125.44
234.43	43.52
234.648	0.51
234.865	47.62
235.083	90.62
235.3	115.2
235.518	-17.92
235.735	20.99
235.953	47.62
236.17	6.66
236.388	16.9
236.605	35.33
236.822	59.9
237.04	59.9
237.257	12.8
237.475	-5.63
237.692	74.24
237.909	-38.4
238.127	-15.87
238.344	72.19
238.562	25.09
238.779	35.33
238.996	37.38
239.214	117.25
239.431	-36.35
239.648	29.18
239.865	25.09
240.083	6.66
240.3	76.29
240.517	-13.82
240.735	23.04
240.952	33.28
241.169	39.42
241.386	66.05
241.603	70.14
241.821	12.8
242.038	4.61
242.255	51.71
242.472	-17.92
242.689	51.71
242.907	23.04
243.124	27.14
243.341	-7.68
243.558	72.19
243.775	8.7
243.992	-60.93
244.209	-17.92
244.426	82.43
244.643	66.05
244.86	16.9
245.078	16.9
245.295	53.76
245.512	51.71
245.729	25.09
245.946	102.91
246.163	16.9
246.38	6.66
246.597	72.19
246.814	47.62
247.031	61.95
247.248	-7.68
247.464	43.52
247.681	47.62
247.898	68.09
248.115	127.49
248.332	74.24
248.549	16.9
248.766	27.14
248.983	35.33
249.2	-5.63
249.417	25.09
249.633	-13.82
249.85	115.2
250.067	20.99
250.284	25.09
250.501	80.38
250.717	84.48
250.934	-3.58
251.151	61.95
251.368	70.14
251.585	37.38
251.801	0.51
252.018	6.66
252.235	57.86
252.451	2.56
252.668	-38.4
252.885	59.9
253.102	4.61
253.318	25.09
253.535	-13.82
253.752	49.66
253.968	84.48
254.185	35.33
254.401	47.62
254.618	43.52
254.835	18.94
255.051	84.48
255.268	-1.54
255.484	64
255.701	76.29
255.917	-22.02
256.134	70.14
256.351	39.42
256.567	-34.3
256.784	27.14
257	35.33
257.217	47.62
257.433	-7.68
257.65	68.09
257.866	43.52
258.082	-1.54
258.299	37.38
258.515	59.9
258.732	16.9
258.948	8.7
259.165	35.33
259.381	88.57
259.597	135.68
259.814	27.14
260.03	43.52
260.246	12.8
260.463	80.38
260.679	47.62
260.895	45.57
261.112	61.95
261.328	72.19
261.544	25.09
261.761	10.75
261.977	96.77
262.193	76.29
262.409	8.7
262.626	104.96
262.842	80.38
263.058	53.76
263.274	72.19
263.49	51.71
263.707	35.33
263.923	39.42
264.139	-42.5
264.355	66.05
264.571	66.05
264.787	-7.68
265.004	55.81
265.22	-44.54
265.436	-9.73
265.652	78.33
265.868	-24.06
266.084	8.7
266.3	16.9
266.516	-7.68
266.732	55.81
266.948	8.7
267.164	-7.68
267.38	80.38
267.596	27.14
267.812	47.62
268.028	16.9
268.244	51.71
268.46	49.66
268.676	84.48
268.892	43.52
269.108	33.28
269.324	141.82
269.54	57.86
269.756	111.1
269.972	-13.82
270.188	18.94
270.403	109.05
270.619	35.33
270.835	64
271.051	25.09
271.267	80.38
271.483	10.75
271.698	31.23
271.914	61.95
272.13	39.42
272.346	43.52
272.562	111.1
272.777	45.57
272.993	49.66
273.209	-19.97
273.425	53.76
273.64	102.91
273.856	49.66
274.072	-3.58
274.287	76.29
274.503	37.38
274.719	47.62
274.934	2.56
275.15	61.95
275.366	2.56
275.581	25.09
275.797	43.52
276.012	76.29
276.228	14.85
276.444	47.62
276.659	33.28
276.875	-5.63
277.09	47.62
277.306	51.71
277.521	80.38
277.737	84.48
277.952	43.52
278.168	23.04
278.383	80.38
278.599	10.75
278.814	74.24
279.03	78.33
279.245	25.09
279.461	31.23
279.676	66.05
279.892	6.66
280.107	10.75
280.322	31.23
280.538	102.91
280.753	74.24
280.969	78.33
281.184	27.14
281.399	37.38
281.615	61.95
281.83	135.68
282.045	4.61
282.26	111.1
282.476	98.81
282.691	51.71
282.906	88.57
283.122	80.38
283.337	14.85
283.552	31.23
283.767	-3.58
283.983	39.42
284.198	72.19
284.413	39.42
284.628	8.7
284.843	12.8
285.058	12.8
285.274	35.33
285.489	37.38
285.704	57.86
285.919	-15.87
286.134	43.52
286.349	57.86
286.564	-3.58
286.779	123.39
286.995	16.9
287.21	74.24
287.425	68.09
287.64	20.99
287.855	8.7
288.07	43.52
288.285	8.7
288.5	100.86
288.715	141.82
288.93	84.48
289.145	-11.78
289.36	33.28
289.575	23.04
289.79	41.47
290.004	14.85
290.219	109.05
290.434	47.62
290.649	55.81
290.864	-38.4
291.079	98.81
291.294	29.18
291.509	57.86
291.724	39.42
291.938	16.9
292.153	88.57
292.368	59.9
292.583	121.34
292.798	43.52
293.012	66.05
293.227	35.33
293.442	6.66
293.657	47.62
293.871	78.33
294.086	74.24
294.301	66.05
294.516	59.9
294.73	33.28
294.945	10.75
295.16	33.28
295.374	39.42
295.589	61.95
295.804	16.9
296.018	41.47
296.233	66.05
296.447	57.86
296.662	31.23
296.877	33.28
297.091	66.05
297.306	51.71
297.52	86.53
297.735	80.38
297.949	39.42
298.164	78.33
298.378	-28.16
298.593	20.99
298.807	41.47
299.022	55.81
299.236	25.09
299.451	25.09
299.665	59.9
299.88	72.19
300.094	-3.58
300.309	139.77
300.523	23.04
300.737	53.76
300.952	80.38
301.166	29.18
301.381	25.09
301.595	20.99
301.809	82.43
302.024	53.76
302.238	127.49
302.452	23.04
302.667	47.62
302.881	90.62
303.095	66.05
303.309	66.05
303.524	55.81
303.738	-15.87
303.952	4.61
304.166	66.05
304.381	-1.54
304.595	100.86
304.809	10.75
305.023	100.86
305.237	100.86
305.452	68.09
305.666	29.18
305.88	141.82
306.094	39.42
306.308	23.04
306.522	76.29
306.736	18.94
306.95	51.71
307.164	14.85
307.379	35.33
307.593	6.66
307.807	88.57
308.021	109.05
308.235	33.28
308.449	137.73
308.663	10.75
308.877	111.1
309.091	14.85
309.305	43.52
309.519	-13.82
309.733	47.62
309.947	23.04
310.161	-13.82
310.374	109.05
310.588	107.01
310.802	-9.73
311.016	-13.82
311.23	78.33
311.444	64
311.658	84.48
311.872	39.42
312.085	68.09
312.299	74.24
312.513	76.29
312.727	86.53
312.941	80.38
313.154	72.19
313.368	51.71
313.582	55.81
313.796	68.09
314.009	96.77
314.223	43.52
314.437	80.38
314.651	74.24
314.864	53.76
315.078	-58.88
315.292	12.8
315.505	70.14
315.719	66.05
315.933	64
316.146	57.86
316.36	0.51
316.573	92.67
316.787	68.09
317.001	80.38
317.214	117.25
317.428	55.81
317.641	-7.68
317.855	2.56
318.068	113.15
318.282	82.43
318.495	76.29
318.709	57.86
318.922	33.28
319.136	78.33
319.349	64
319.563	-32.26
319.776	45.57
319.99	31.23
320.203	68.09
320.417	-30.21
320.63	41.47
320.843	115.2
321.057	113.15
321.27	29.18
321.483	78.33
321.697	111.1
321.91	43.52
322.124	123.39
322.337	111.1
322.55	27.14
322.763	84.48
322.977	86.53
323.19	59.9
323.403	27.14
323.617	35.33
323.83	66.05
324.043	68.09
324.256	57.86
324.469	-40.45
324.683	-1.54
324.896	25.09
325.109	117.25
325.322	61.95
325.535	16.9
325.748	68.09
325.962	12.8
326.175	135.68
326.388	64
326.601	117.25
326.814	53.76
327.027	74.24
327.24	107.01
327.453	123.39
327.666	-7.68
327.879	76.29
328.092	29.18
328.305	123.39
328.518	33.28
328.731	10.75
328.944	113.15
329.157	90.62
329.37	25.09
329.583	55.81
329.796	152.06
330.009	90.62
330.222	61.95
330.435	80.38
330.648	55.81
330.861	20.99
331.073	39.42
331.286	18.94
331.499	96.77
331.712	92.67
331.925	35.33
332.138	57.86
332.35	33.28
332.563	33.28
332.776	84.48
332.989	2.56
333.202	37.38
333.414	80.38
333.627	45.57
333.84	31.23
334.053	57.86
334.265	-7.68
334.478	8.7
334.691	25.09
334.903	27.14
335.116	115.2
335.329	90.62
335.541	25.09
335.754	55.81
335.966	43.52
336.179	107.01
336.392	78.33
336.604	-19.97
336.817	23.04
337.029	41.47
337.242	43.52
337.454	125.44
337.667	35.33
337.88	111.1
338.092	41.47
338.305	92.67
338.517	45.57
338.729	55.81
338.942	-5.63
339.154	6.66
339.367	37.38
339.579	78.33
339.792	23.04
340.004	47.62
340.217	100.86
340.429	96.77
340.641	57.86
340.854	53.76
341.066	82.43
341.278	156.16
341.491	43.52
341.703	64
341.915	55.81
342.128	92.67
342.34	90.62
342.552	10.75
342.764	-26.11
342.977	59.9
343.189	-1.54
343.401	53.76
343.613	10.75
343.826	29.18
344.038	23.04
344.25	145.92
344.462	35.33
344.674	109.05
344.886	-7.68
345.099	-3.58
345.311	55.81
345.523	70.14
345.735	18.94
345.947	104.96
346.159	109.05
346.371	55.81
346.583	25.09
346.795	61.95
347.007	72.19
347.219	37.38
347.431	31.23
347.643	78.33
347.855	31.23
348.067	102.91
348.279	18.94
348.491	-19.97
348.703	6.66
348.915	41.47
349.127	59.9
349.339	84.48
349.551	68.09
349.763	80.38
349.975	37.38
350.187	51.71
350.399	90.62
350.61	70.14
350.822	84.48
351.034	86.53
351.246	96.77
351.458	51.71
351.669	35.33
351.881	82.43
352.093	51.71
352.305	41.47
352.517	64
352.728	45.57
352.94	43.52
353.152	115.2
353.363	109.05
353.575	86.53
353.787	100.86
353.999	76.29
354.21	125.44
354.422	109.05
354.633	37.38
354.845	41.47
355.057	18.94
355.268	145.92
355.48	6.66
355.692	39.42
355.903	10.75
356.115	64
356.326	-50.69
356.538	117.25
356.749	57.86
356.961	172.54
357.172	55.81
357.384	31.23
357.595	55.81
357.807	92.67
358.018	59.9
358.23	27.14
358.441	109.05
358.653	96.77
358.864	29.18
359.075	10.75
359.287	55.81
359.498	84.48
359.709	4.61
359.921	41.47
360.132	35.33
360.344	70.14
360.555	47.62
360.766	2.56
360.977	53.76
361.189	133.63
361.4	43.52
361.611	98.81
361.823	92.67
362.034	66.05
362.245	8.7
362.456	45.57
362.667	33.28
362.879	51.71
363.09	8.7
363.301	88.57
363.512	6.66
363.723	66.05
363.935	109.05
364.146	35.33
364.357	70.14
364.568	121.34
364.779	76.29
364.99	59.9
365.201	47.62
365.412	82.43
365.623	25.09
365.834	84.48
366.045	80.38
366.256	141.82
366.467	150.01
366.678	47.62
366.889	76.29
367.1	88.57
367.311	57.86
367.522	59.9
367.733	55.81
367.944	86.53
368.155	102.91
368.366	14.85
368.577	139.77
368.788	107.01
368.999	4.61
369.209	14.85
369.42	154.11
369.631	143.87
369.842	109.05
370.053	66.05
370.264	53.76
370.474	6.66
370.685	115.2
370.896	53.76
371.107	14.85
371.317	94.72
371.528	96.77
371.739	39.42
371.95	33.28
372.16	37.38
372.371	39.42
372.582	43.52
372.792	135.68
373.003	16.9
373.214	47.62
373.424	123.39
373.635	53.76
373.846	104.96
374.056	25.09
374.267	53.76
374.477	121.34
374.688	53.76
374.898	76.29
375.109	18.94
375.319	84.48
375.53	29.18
375.74	64
375.951	70.14
376.161	84.48
376.372	111.1
376.582	113.15
376.793	80.38
377.003	39.42
377.214	117.25
377.424	68.09
377.635	41.47
377.845	84.48
378.055	94.72
378.266	80.38
378.476	74.24
378.686	84.48
378.897	80.38
379.107	86.53
379.317	23.04
379.528	0.51
379.738	53.76
379.948	-44.54
380.158	113.15
380.369	92.67
380.579	68.09
380.789	16.9
380.999	90.62
381.21	61.95
381.42	174.59
381.63	51.71
381.84	158.21
382.05	104.96
382.261	-17.92
382.471	107.01
382.681	127.49
382.891	170.49
383.101	100.86
383.311	86.53
383.521	113.15
383.731	158.21
383.941	104.96
384.151	147.97
384.361	96.77
384.571	74.24
384.781	113.15
384.991	88.57
385.201	100.86
385.411	78.33
385.621	96.77
385.831	113.15
386.041	139.77
386.251	109.05
386.461	109.05
386.671	133.63
386.881	72.19
387.091	45.57
387.301	109.05
387.511	72.19
387.72	78.33
387.93	111.1
388.14	-19.97
388.35	14.85
388.56	90.62
388.769	66.05
388.979	59.9
389.189	125.44
389.399	23.04
389.609	23.04
389.818	121.34
390.028	25.09
390.238	45.57
390.447	160.25
390.657	98.81
390.867	119.29
391.076	88.57
391.286	141.82
391.496	104.96
391.705	166.4
391.915	39.42
392.125	115.2
392.334	94.72
392.544	104.96
392.753	68.09
392.963	102.91
393.172	125.44
393.382	55.81
393.591	98.81
393.801	59.9
394.01	98.81
394.22	64
394.429	104.96
394.639	68.09
394.848	123.39
395.058	109.05
395.267	117.25
395.477	141.82
395.686	84.48
395.895	186.88
396.105	131.58
396.314	115.2
396.524	150.01
396.733	154.11
396.942	227.84
397.152	182.78
397.361	141.82
397.57	102.91
397.78	141.82
397.989	154.11
398.198	152.06
398.407	131.58
398.617	100.86
398.826	121.34
399.035	139.77
399.244	133.63
399.453	176.64
399.663	180.73
399.872	145.92
400.081	154.11
400.29	139.77
400.499	109.05
400.708	107.01
400.917	100.86
401.127	127.49
401.336	221.69
401.545	199.16
401.754	158.21
401.963	197.12
402.172	197.12
402.381	160.25
402.59	162.3
402.799	180.73
403.008	154.11
403.217	168.45
403.426	182.78
403.635	203.26
403.844	215.55
404.053	170.49
404.262	182.78
404.471	236.03
404.68	201.21
404.888	219.64
405.097	174.59
405.306	254.46
405.515	289.28
405.724	254.46
405.933	227.84
406.142	272.89
406.35	223.74
406.559	221.69
406.768	195.07
406.977	283.13
407.185	238.08
407.394	301.56
407.603	270.84
407.812	377.34
408.02	377.34
408.229	317.95
408.438	262.65
408.646	307.71
408.855	305.66
409.064	342.52
409.272	313.85
409.481	305.66
409.69	410.11
409.898	377.34
410.107	371.19
410.315	367.1
410.524	453.11
410.733	457.21
410.941	473.59
411.15	481.78
411.358	580.09
411.567	522.74
411.775	573.94
411.984	582.14
412.192	588.28
412.401	551.42
412.609	594.42
412.818	643.57
413.026	641.53
413.234	690.68
413.443	662.01
413.651	698.87
413.86	766.45
414.068	803.32
414.276	770.55
414.485	803.32
414.693	877.04
414.901	825.84
415.11	922.1
415.318	883.19
415.526	1018.35
415.734	1092.08
415.943	1081.84
416.151	1085.94
416.359	1090.03
416.567	1094.13
416.776	1182.19
416.984	1300.97
417.192	1247.72
417.4	1317.36
417.608	1235.44
417.817	1395.18
418.025	1481.19
418.233	1520.1
418.441	1509.86
418.649	1577.45
418.857	1759.72
419.065	1677.8
419.273	1673.7
419.481	1769.96
419.689	1888.74
419.897	2028
420.105	1987.04
420.313	1939.94
420.521	2122.21
420.729	2187.74
420.937	2216.41
421.145	2382.3
421.353	2406.88
421.561	2607.58
421.769	2613.72
421.977	2666.97
422.185	2755.03
422.393	2828.76
422.601	3062.23
422.809	3080.66
423.017	3029.46
423.224	3074.51
423.432	3312.08
423.64	3314.13
423.848	3594.7
424.056	3455.44
424.263	3828.17
424.471	3824.07
424.679	3776.97
424.887	4028.87
425.094	4399.55
425.302	4196.8
425.51	4362.69
425.718	4565.43
425.925	4557.24
426.133	4874.68
426.341	4972.98
426.548	5185.97
426.756	5470.64
426.964	5323.18
427.171	5650.86
427.379	5724.58
427.586	5847.46
427.794	5974.44
428.001	6269.34
428.209	6506.91
428.417	6461.85
428.624	6965.65
428.832	6969.75
429.039	6893.97
429.247	6879.64
429.454	7510.41
429.662	7942.53
429.869	7434.64
430.076	8032.65
430.284	7811.46
430.491	8214.91
430.699	8698.24
430.906	8606.08
431.114	8806.78
431.321	9171.32
431.528	9173.36
431.736	9814.38
431.943	10240.36
432.15	9988.46
432.358	10168.68
432.565	10633.57
432.772	10615.13
432.979	11272.53
433.187	11411.79
433.394	11542.86
433.601	12245.32
433.808	12185.93
434.016	12118.34
434.223	12847.42
434.43	13379.89
434.637	13322.55
434.844	13981.99
435.052	14307.62
435.259	14303.53
435.466	14500.13
435.673	14184.74
435.88	15192.34
436.087	15780.11
436.294	15698.19
436.501	15399.19
436.708	16009.48
436.915	16437.51
437.122	17074.43
437.329	16898.3
437.537	17533.17
437.743	18077.93
437.95	17740.02
438.157	18823.39
438.364	19472.6
438.571	19189.98
438.778	19206.36
438.985	21364.92
439.192	20363.47
439.399	20977.86
439.606	20527.3
439.813	21973.17
440.02	23005.34
440.227	22419.63
440.433	22327.47
440.64	23294.11
440.847	23031.97
441.054	23658.65
441.261	24957.06
441.467	24815.75
441.674	25284.73
441.881	26067.06
442.088	26232.94
442.294	25933.94
442.501	26820.71
442.708	26923.11
442.914	28377.17
443.121	29222.98
443.328	28545.1
443.534	30578.73
443.741	30033.97
443.948	29339.71
444.154	31420.45
444.361	30930.98
444.568	31791.13
444.774	31182.88
444.981	32016.41
445.187	33200.13
445.394	34551.79
445.6	33538.05
445.807	36976.59
446.013	35416.04
446.22	35688.42
446.426	37558.21
446.633	37900.22
446.839	38758.32
447.046	37664.71
447.252	39305.13
447.459	39061.42
447.665	38948.78
447.871	40707.99
448.078	42549.11
448.284	40148.89
448.491	42012.54
448.697	43448.17
448.903	43988.83
449.11	44226.4
449.316	43077.49
449.522	43771.75
449.728	45117.26
449.935	45340.49
450.141	45522.76
450.347	46364.48
450.553	45086.54
450.76	45442.89
450.966	46978.87
451.172	46292.8
451.378	47570.73
451.584	46802.74
451.791	47480.62
451.997	47191.86
452.203	47716.14
452.409	48627.48
452.615	47576.87
452.821	46298.94
453.027	45885.25
453.233	48189.22
453.44	46108.48
453.646	47230.77
453.852	46528.31
454.058	47847.21
454.264	45832
454.47	46855.99
454.676	45862.72
454.882	47241.01
455.088	43011.95
455.294	43843.43
455.5	44476.25
455.705	44965.71
455.911	43005.81
456.117	42127.23
456.323	42229.63
456.529	39335.85
456.735	41344.91
456.941	40056.73
457.147	39761.83
457.352	38289.34
457.558	37779.39
457.764	37984.19
457.97	37195.72
458.176	36214.74
458.381	36351.96
458.587	34627.57
458.793	34760.69
458.999	33005.58
459.204	35434.47
459.41	33918.97
459.616	32190.48
459.821	31799.32
460.027	31969.3
460.233	31293.47
460.438	29659.2
460.644	29790.27
460.85	28502.09
461.055	28426.32
461.261	28352.59
461.466	26110.07
461.672	25331.84
461.878	26984.55
462.083	25432.19
462.289	25022.59
462.494	24600.71
462.7	23638.17
462.905	23034.02
463.111	23963.79
463.316	23855.25
463.522	23015.58
463.727	23509.15
463.932	23273.63
464.138	23388.32
464.343	23009.44
464.549	22655.14
464.754	23396.51
464.959	23042.21
465.165	23206.05
465.37	21971.12
465.575	21534.9
465.781	22347.95
465.986	22227.12
466.191	21473.46
466.397	21162.17
466.602	20414.66
466.807	20988.1
467.012	21141.69
467.218	20840.64
