Data from USB4F104151__36__11-05-21-470.txt Node

Date: Wed Mar 12 11:05:21 EDT 2025
User: louis
Spectrometer: USB4F10415
Trigger mode: 4
Integration Time (sec): 2.000000E-2
Scans to average: 1
Electric dark correction enabled: true
Nonlinearity correction enabled: false
Boxcar width: 0
XAxis mode: Wavelengths
Number of Pixels in Spectrum: 3648
>>>>>Begin Spectral Data<<<<<
178.204	-97.62
178.424	-97.62
178.644	-97.62
178.864	-97.62
179.084	-50.52
179.304	-27.99
179.524	-34.13
179.744	-36.18
179.964	-30.04
180.184	4.78
180.404	2.73
180.624	2.73
180.844	62.12
181.064	-56.66
181.283	21.16
181.503	25.26
181.723	66.22
181.943	-27.99
182.163	10.92
182.383	-3.41
182.602	45.74
182.822	19.11
183.042	70.31
183.262	-11.61
183.482	17.07
183.701	21.16
183.921	0.68
184.141	6.83
184.361	62.12
184.58	-7.51
184.8	37.55
185.02	-44.37
185.239	-9.56
185.459	-85.33
185.679	39.59
185.898	0.68
186.118	23.21
186.338	-19.8
186.557	27.31
186.777	23.21
186.997	55.98
187.216	-17.75
187.436	6.83
187.655	-25.94
187.875	68.27
188.095	-27.99
188.314	31.4
188.534	103.08
188.753	-75.09
188.973	-9.56
189.192	68.27
189.412	37.55
189.631	-1.37
189.851	-3.41
190.07	76.46
190.29	-73.04
190.509	62.12
190.729	-11.61
190.948	-5.46
191.168	146.09
191.387	-48.47
191.607	-15.7
191.826	39.59
192.045	-36.18
192.265	-1.37
192.484	-34.13
192.704	0.68
192.923	-7.51
193.142	23.21
193.362	41.64
193.581	35.5
193.8	10.92
194.02	33.45
194.239	72.36
194.458	27.31
194.678	17.07
194.897	53.93
195.116	-15.7
195.335	68.27
195.555	2.73
195.774	68.27
195.993	21.16
196.212	15.02
196.432	-75.09
196.651	-3.41
196.87	-17.75
197.089	-3.41
197.308	62.12
197.528	117.42
197.747	15.02
197.966	60.07
198.185	43.69
198.404	49.83
198.623	31.4
198.842	-1.37
199.062	27.31
199.281	72.36
199.5	-1.37
199.719	66.22
199.938	25.26
200.157	76.46
200.376	12.97
200.595	21.16
200.814	-13.65
201.033	31.4
201.252	66.22
201.471	2.73
201.69	39.59
201.909	17.07
202.128	-5.46
202.347	82.6
202.566	-44.37
202.785	2.73
203.004	2.73
203.223	66.22
203.442	-34.13
203.661	-83.28
203.879	43.69
204.098	60.07
204.317	39.59
204.536	33.45
204.755	37.55
204.974	53.93
205.193	43.69
205.411	25.26
205.63	23.21
205.849	-36.18
206.068	31.4
206.287	-1.37
206.505	27.31
206.724	2.73
206.943	-1.37
207.162	41.64
207.381	10.92
207.599	37.55
207.818	82.6
208.037	39.59
208.255	-42.32
208.474	37.55
208.693	-36.18
208.911	29.35
209.13	-27.99
209.349	41.64
209.567	88.75
209.786	-46.42
210.005	70.31
210.223	88.75
210.442	17.07
210.661	70.31
210.879	2.73
211.098	17.07
211.316	-75.09
211.535	74.41
211.753	27.31
211.972	60.07
212.191	6.83
212.409	66.22
212.628	84.65
212.846	-23.89
213.065	15.02
213.283	6.83
213.502	-5.46
213.72	21.16
213.938	-23.89
214.157	-7.51
214.375	43.69
214.594	60.07
214.812	10.92
215.031	19.11
215.249	37.55
215.467	27.31
215.686	31.4
215.904	-17.75
216.122	-36.18
216.341	47.79
216.559	25.26
216.778	86.7
216.996	-30.04
217.214	6.83
217.432	8.87
217.651	-25.94
217.869	23.21
218.087	27.31
218.306	70.31
218.524	21.16
218.742	-23.89
218.96	2.73
219.179	21.16
219.397	17.07
219.615	-34.13
219.833	43.69
220.051	-27.99
220.27	-30.04
220.488	-50.52
220.706	55.98
220.924	-5.46
221.142	6.83
221.36	-46.42
221.578	21.16
221.796	2.73
222.015	27.31
222.233	88.75
222.451	8.87
222.669	41.64
222.887	33.45
223.105	-77.14
223.323	-11.61
223.541	-11.61
223.759	37.55
223.977	-97.62
224.195	119.46
224.413	-58.71
224.631	68.27
224.849	2.73
225.067	47.79
225.285	-42.32
225.503	31.4
225.721	-25.94
225.939	-7.51
226.157	-3.41
226.375	66.22
226.592	0.68
226.81	31.4
227.028	8.87
227.246	60.07
227.464	31.4
227.682	-5.46
227.9	60.07
228.117	-40.28
228.335	-66.9
228.553	-13.65
228.771	-9.56
228.989	-1.37
229.206	-7.51
229.424	31.4
229.642	-17.75
229.86	29.35
230.077	60.07
230.295	-19.8
230.513	31.4
230.731	4.78
230.948	45.74
231.166	-9.56
231.384	-30.04
231.601	-66.9
231.819	96.94
232.037	12.97
232.254	-38.23
232.472	6.83
232.689	25.26
232.907	17.07
233.125	12.97
233.342	-1.37
233.56	-40.28
233.777	47.79
233.995	31.4
234.213	37.55
234.43	47.79
234.648	10.92
234.865	-50.52
235.083	-25.94
235.3	-1.37
235.518	6.83
235.735	17.07
235.953	27.31
236.17	76.46
236.388	31.4
236.605	-1.37
236.822	37.55
237.04	55.98
237.257	49.83
237.475	-25.94
237.692	-46.42
237.909	-44.37
238.127	-54.61
238.344	23.21
238.562	35.5
238.779	43.69
238.996	-64.85
239.214	2.73
239.431	8.87
239.648	-56.66
239.865	70.31
240.083	-1.37
240.3	15.02
240.517	58.03
240.735	10.92
240.952	60.07
241.169	29.35
241.386	39.59
241.603	29.35
241.821	-48.47
242.038	58.03
242.255	82.6
242.472	-62.8
242.689	15.02
242.907	-30.04
243.124	51.88
243.341	2.73
243.558	-64.85
243.775	4.78
243.992	27.31
244.209	51.88
244.426	19.11
244.643	25.26
244.86	-13.65
245.078	43.69
245.295	-1.37
245.512	-19.8
245.729	-25.94
245.946	10.92
246.163	-21.85
246.38	-7.51
246.597	37.55
246.814	107.18
247.031	4.78
247.248	-9.56
247.464	35.5
247.681	80.55
247.898	25.26
248.115	15.02
248.332	-5.46
248.549	-7.51
248.766	94.89
248.983	29.35
249.2	-5.46
249.417	58.03
249.633	19.11
249.85	17.07
250.067	0.68
250.284	12.97
250.501	60.07
250.717	33.45
250.934	35.5
251.151	33.45
251.368	17.07
251.585	31.4
251.801	80.55
252.018	-25.94
252.235	96.94
252.451	-44.37
252.668	-5.46
252.885	31.4
253.102	-32.08
253.318	58.03
253.535	-19.8
253.752	23.21
253.968	4.78
254.185	-23.89
254.401	25.26
254.618	8.87
254.835	4.78
255.051	78.51
255.268	31.4
255.484	21.16
255.701	64.17
255.917	-9.56
256.134	31.4
256.351	35.5
256.567	6.83
256.784	-11.61
257	45.74
257.217	70.31
257.433	35.5
257.65	31.4
257.866	96.94
258.082	-25.94
258.299	19.11
258.515	-9.56
258.732	-25.94
258.948	45.74
259.165	-13.65
259.381	25.26
259.597	43.69
259.814	19.11
260.03	55.98
260.246	10.92
260.463	19.11
260.679	58.03
260.895	94.89
261.112	53.93
261.328	-52.56
261.544	-36.18
261.761	21.16
261.977	43.69
262.193	-38.23
262.409	-25.94
262.626	4.78
262.842	-42.32
263.058	27.31
263.274	45.74
263.49	37.55
263.707	74.41
263.923	17.07
264.139	37.55
264.355	27.31
264.571	80.55
264.787	-38.23
265.004	15.02
265.22	-9.56
265.436	29.35
265.652	-40.28
265.868	27.31
266.084	-19.8
266.3	8.87
266.516	31.4
266.732	39.59
266.948	-17.75
267.164	119.46
267.38	-1.37
267.596	31.4
267.812	-13.65
268.028	53.93
268.244	70.31
268.46	8.87
268.676	6.83
268.892	58.03
269.108	31.4
269.324	10.92
269.54	31.4
269.756	39.59
269.972	31.4
270.188	37.55
270.403	2.73
270.619	0.68
270.835	31.4
271.051	6.83
271.267	-54.61
271.483	4.78
271.698	31.4
271.914	39.59
272.13	35.5
272.346	-1.37
272.562	33.45
272.777	23.21
272.993	-40.28
273.209	4.78
273.425	4.78
273.64	2.73
273.856	64.17
274.072	-1.37
274.287	-5.46
274.503	12.97
274.719	66.22
274.934	0.68
275.15	-7.51
275.366	58.03
275.581	-42.32
275.797	-40.28
276.012	23.21
276.228	8.87
276.444	37.55
276.659	-9.56
276.875	-42.32
277.09	-15.7
277.306	-23.89
277.521	43.69
277.737	25.26
277.952	76.46
278.168	-32.08
278.383	2.73
278.599	-19.8
278.814	27.31
279.03	25.26
279.245	98.99
279.461	64.17
279.676	6.83
279.892	37.55
280.107	-17.75
280.322	-64.85
280.538	21.16
280.753	2.73
280.969	37.55
281.184	25.26
281.399	-23.89
281.615	-60.76
281.83	10.92
282.045	-9.56
282.26	23.21
282.476	29.35
282.691	27.31
282.906	-5.46
283.122	-11.61
283.337	15.02
283.552	80.55
283.767	49.83
283.983	2.73
284.198	-13.65
284.413	-62.8
284.628	-11.61
284.843	-3.41
285.058	45.74
285.274	-11.61
285.489	-15.7
285.704	80.55
285.919	88.75
286.134	-9.56
286.349	51.88
286.564	23.21
286.779	23.21
286.995	62.12
287.21	-27.99
287.425	-5.46
287.64	-50.52
287.855	33.45
288.07	-17.75
288.285	43.69
288.5	-1.37
288.715	-13.65
288.93	-34.13
289.145	41.64
289.36	19.11
289.575	-87.38
289.79	19.11
290.004	-11.61
290.219	33.45
290.434	29.35
290.649	166.57
290.864	19.11
291.079	12.97
291.294	58.03
291.509	15.02
291.724	0.68
291.938	-38.23
292.153	-3.41
292.368	74.41
292.583	39.59
292.798	27.31
293.012	19.11
293.227	-1.37
293.442	-27.99
293.657	39.59
293.871	39.59
294.086	-11.61
294.301	-17.75
294.516	80.55
294.73	101.03
294.945	70.31
295.16	53.93
295.374	-1.37
295.589	-11.61
295.804	33.45
296.018	49.83
296.233	92.84
296.447	105.13
296.662	-30.04
296.877	62.12
297.091	66.22
297.306	31.4
297.52	15.02
297.735	-1.37
297.949	35.5
298.164	39.59
298.378	88.75
298.593	-42.32
298.807	-50.52
299.022	15.02
299.236	8.87
299.451	31.4
299.665	19.11
299.88	45.74
300.094	49.83
300.309	76.46
300.523	64.17
300.737	47.79
300.952	4.78
301.166	31.4
301.381	47.79
301.595	76.46
301.809	25.26
302.024	78.51
302.238	31.4
302.452	70.31
302.667	41.64
302.881	27.31
303.095	31.4
303.309	6.83
303.524	23.21
303.738	25.26
303.952	37.55
304.166	27.31
304.381	2.73
304.595	31.4
304.809	55.98
305.023	70.31
305.237	4.78
305.452	33.45
305.666	47.79
305.88	-3.41
306.094	129.7
306.308	23.21
306.522	74.41
306.736	25.26
306.95	51.88
307.164	12.97
307.379	68.27
307.593	51.88
307.807	47.79
308.021	-11.61
308.235	80.55
308.449	-48.47
308.663	23.21
308.877	31.4
309.091	70.31
309.305	27.31
309.519	58.03
309.733	68.27
309.947	72.36
310.161	49.83
310.374	109.22
310.588	141.99
310.802	-30.04
311.016	35.5
311.23	27.31
311.444	-62.8
311.658	-34.13
311.872	41.64
312.085	94.89
312.299	17.07
312.513	51.88
312.727	-1.37
312.941	-21.85
313.154	39.59
313.368	-15.7
313.582	51.88
313.796	53.93
314.009	0.68
314.223	-9.56
314.437	43.69
314.651	12.97
314.864	0.68
315.078	-42.32
315.292	-15.7
315.505	-3.41
315.719	25.26
315.933	-1.37
316.146	62.12
316.36	6.83
316.573	113.32
316.787	45.74
317.001	25.26
317.214	-30.04
317.428	62.12
317.641	31.4
317.855	-23.89
318.068	-13.65
318.282	6.83
318.495	31.4
318.709	66.22
318.922	-32.08
319.136	23.21
319.349	80.55
319.563	60.07
319.776	-17.75
319.99	-66.9
320.203	0.68
320.417	29.35
320.63	33.45
320.843	76.46
321.057	-9.56
321.27	8.87
321.483	80.55
321.697	55.98
321.91	29.35
322.124	-17.75
322.337	70.31
322.55	-46.42
322.763	47.79
322.977	33.45
323.19	-25.94
323.403	76.46
323.617	-11.61
323.83	2.73
324.043	53.93
324.256	-21.85
324.469	8.87
324.683	43.69
324.896	43.69
325.109	-36.18
325.322	39.59
325.535	2.73
325.748	-9.56
325.962	17.07
326.175	41.64
326.388	55.98
326.601	72.36
326.814	68.27
327.027	23.21
327.24	103.08
327.453	45.74
327.666	27.31
327.879	39.59
328.092	49.83
328.305	117.42
328.518	21.16
328.731	33.45
328.944	76.46
329.157	-25.94
329.37	-11.61
329.583	74.41
329.796	23.21
330.009	51.88
330.222	31.4
330.435	23.21
330.648	60.07
330.861	8.87
331.073	74.41
331.286	-1.37
331.499	25.26
331.712	-9.56
331.925	55.98
332.138	35.5
332.35	21.16
332.563	33.45
332.776	41.64
332.989	27.31
333.202	-30.04
333.414	49.83
333.627	-13.65
333.84	-34.13
334.053	-46.42
334.265	55.98
334.478	12.97
334.691	2.73
334.903	-30.04
335.116	-38.23
335.329	76.46
335.541	-9.56
335.754	66.22
335.966	-40.28
336.179	15.02
336.392	45.74
336.604	17.07
336.817	76.46
337.029	0.68
337.242	37.55
337.454	-15.7
337.667	72.36
337.88	0.68
338.092	86.7
338.305	53.93
338.517	-34.13
338.729	101.03
338.942	47.79
339.154	4.78
339.367	29.35
339.579	-40.28
339.792	-13.65
340.004	37.55
340.217	17.07
340.429	37.55
340.641	19.11
340.854	45.74
341.066	-17.75
341.278	74.41
341.491	33.45
341.703	31.4
341.915	-48.47
342.128	39.59
342.34	25.26
342.552	19.11
342.764	70.31
342.977	35.5
343.189	62.12
343.401	4.78
343.613	31.4
343.826	21.16
344.038	10.92
344.25	17.07
344.462	19.11
344.674	45.74
344.886	68.27
345.099	-19.8
345.311	66.22
345.523	33.45
345.735	31.4
345.947	27.31
346.159	76.46
346.371	25.26
346.583	4.78
346.795	129.7
347.007	25.26
347.219	-1.37
347.431	-50.52
347.643	-15.7
347.855	19.11
348.067	-17.75
348.279	6.83
348.491	41.64
348.703	-21.85
348.915	23.21
349.127	-42.32
349.339	19.11
349.551	4.78
349.763	17.07
349.975	82.6
350.187	8.87
350.399	-15.7
350.61	45.74
350.822	43.69
351.034	88.75
351.246	10.92
351.458	-21.85
351.669	80.55
351.881	-3.41
352.093	-19.8
352.305	-15.7
352.517	29.35
352.728	53.93
352.94	41.64
353.152	123.56
353.363	41.64
353.575	6.83
353.787	6.83
353.999	62.12
354.21	19.11
354.422	10.92
354.633	2.73
354.845	23.21
355.057	33.45
355.268	51.88
355.48	131.75
355.692	6.83
355.903	33.45
356.115	-21.85
356.326	43.69
356.538	25.26
356.749	29.35
356.961	19.11
357.172	58.03
357.384	29.35
357.595	37.55
357.807	-1.37
358.018	-1.37
358.23	29.35
358.441	-40.28
358.653	39.59
358.864	72.36
359.075	17.07
359.287	-3.41
359.498	103.08
359.709	82.6
359.921	-1.37
360.132	-1.37
360.344	4.78
360.555	2.73
360.766	60.07
360.977	47.79
361.189	41.64
361.4	-25.94
361.611	76.46
361.823	-13.65
362.034	86.7
362.245	-34.13
362.456	33.45
362.667	0.68
362.879	47.79
363.09	-71
363.301	72.36
363.512	47.79
363.723	21.16
363.935	41.64
364.146	53.93
364.357	23.21
364.568	33.45
364.779	-7.51
364.99	55.98
365.201	-62.8
365.412	17.07
365.623	-27.99
365.834	41.64
366.045	33.45
366.256	37.55
366.467	2.73
366.678	60.07
366.889	15.02
367.1	-68.95
367.311	-5.46
367.522	17.07
367.733	-25.94
367.944	-11.61
368.155	15.02
368.366	33.45
368.577	10.92
368.788	45.74
368.999	41.64
369.209	-56.66
369.42	-54.61
369.631	101.03
369.842	-58.71
370.053	72.36
370.264	25.26
370.474	86.7
370.685	53.93
370.896	64.17
371.107	41.64
371.317	33.45
371.528	49.83
371.739	15.02
371.95	41.64
372.16	17.07
372.371	86.7
372.582	-5.46
372.792	-7.51
373.003	0.68
373.214	146.09
373.424	86.7
373.635	68.27
373.846	43.69
374.056	70.31
374.267	55.98
374.477	2.73
374.688	2.73
374.898	25.26
375.109	31.4
375.319	62.12
375.53	31.4
375.74	41.64
375.951	31.4
376.161	4.78
376.372	25.26
376.582	6.83
376.793	58.03
377.003	-23.89
377.214	-11.61
377.424	45.74
377.635	27.31
377.845	66.22
378.055	31.4
378.266	6.83
378.476	12.97
378.686	35.5
378.897	92.84
379.107	-25.94
379.317	64.17
379.528	41.64
379.738	103.08
379.948	76.46
380.158	68.27
380.369	4.78
380.579	74.41
380.789	70.31
380.999	47.79
381.21	53.93
381.42	78.51
381.63	55.98
381.84	53.93
382.05	121.51
382.261	64.17
382.471	78.51
382.681	92.84
382.891	53.93
383.101	10.92
383.311	39.59
383.521	-7.51
383.731	62.12
383.941	17.07
384.151	-5.46
384.361	-21.85
384.571	84.65
384.781	-13.65
384.991	55.98
385.201	51.88
385.411	117.42
385.621	60.07
385.831	43.69
386.041	94.89
386.251	37.55
386.461	33.45
386.671	84.65
386.881	33.45
387.091	-13.65
387.301	43.69
387.511	58.03
387.72	35.5
387.93	43.69
388.14	64.17
388.35	170.66
388.56	58.03
388.769	10.92
388.979	8.87
389.189	80.55
389.399	27.31
389.609	15.02
389.818	103.08
390.028	68.27
390.238	119.46
390.447	-19.8
390.657	2.73
390.867	8.87
391.076	17.07
391.286	41.64
391.496	-9.56
391.705	68.27
391.915	41.64
392.125	10.92
392.334	53.93
392.544	15.02
392.753	101.03
392.963	31.4
393.172	27.31
393.382	41.64
393.591	10.92
393.801	76.46
394.01	113.32
394.22	27.31
394.429	154.28
394.639	-7.51
394.848	51.88
395.058	115.37
395.267	43.69
395.477	129.7
395.686	131.75
395.895	64.17
396.105	84.65
396.314	92.84
396.524	51.88
396.733	92.84
396.942	43.69
397.152	15.02
397.361	80.55
397.57	92.84
397.78	82.6
397.989	90.79
398.198	80.55
398.407	47.79
398.617	133.8
398.826	53.93
399.035	72.36
399.244	78.51
399.453	19.11
399.663	72.36
399.872	58.03
400.081	144.04
400.29	105.13
400.499	96.94
400.708	94.89
400.917	88.75
401.127	90.79
401.336	60.07
401.545	113.32
401.754	127.66
401.963	160.42
402.172	137.9
402.381	148.14
402.59	51.88
402.799	76.46
403.008	66.22
403.217	101.03
403.426	35.5
403.635	37.55
403.844	53.93
404.053	107.18
404.262	119.46
404.471	47.79
404.68	182.95
404.888	146.09
405.097	193.19
405.306	172.71
405.515	113.32
405.724	84.65
405.933	113.32
406.142	109.22
406.35	62.12
406.559	86.7
406.768	234.15
406.977	178.86
407.185	191.14
407.394	141.99
407.603	164.52
407.812	213.67
408.02	240.3
408.229	158.38
408.438	187.05
408.646	172.71
408.855	174.76
409.064	225.96
409.272	168.62
409.481	264.87
409.69	189.1
409.898	195.24
410.107	264.87
410.315	246.44
410.524	250.53
410.733	250.53
410.941	234.15
411.15	260.77
411.358	291.49
411.567	350.89
411.775	344.74
411.984	373.41
412.192	340.65
412.401	408.23
412.609	416.42
412.818	334.5
413.026	365.22
413.234	346.79
413.443	516.77
413.651	496.29
413.86	572.07
414.068	477.86
414.276	524.96
414.485	473.76
414.693	547.49
414.901	604.83
415.11	537.25
415.318	647.84
415.526	608.93
415.734	639.65
415.943	684.7
416.151	674.46
416.359	705.18
416.567	737.95
416.776	811.68
416.984	832.16
417.192	881.31
417.4	914.08
417.608	795.29
417.817	959.13
418.025	903.84
418.233	877.21
418.441	955.04
418.649	996
418.857	1176.22
419.065	1151.64
419.273	1139.35
419.481	1133.21
419.689	1233.56
419.897	1323.67
420.105	1200.79
420.313	1297.05
420.521	1213.08
420.729	1364.63
420.937	1358.49
421.145	1413.78
421.353	1514.13
421.561	1637.01
421.769	1598.1
421.977	1671.83
422.185	1772.18
422.393	1720.98
422.601	1886.86
422.809	1952.4
423.017	1976.97
423.224	2030.22
423.432	2241.16
423.64	2226.82
423.848	2245.26
424.056	2212.49
424.263	2441.86
424.471	2488.96
424.679	2513.54
424.887	2663.04
425.094	2724.48
425.302	2642.56
425.51	2957.95
425.718	2925.18
425.925	2966.14
426.133	3070.59
426.341	3242.62
426.548	3267.19
426.756	3351.16
426.964	3431.03
427.171	3537.52
427.379	3553.91
427.586	3713.65
427.794	3842.67
428.001	4045.42
428.209	4256.36
428.417	4188.78
428.624	4711.01
428.832	4409.96
429.039	4491.88
429.247	4371.05
429.454	4686.44
429.662	5247.58
429.869	4868.7
430.076	5163.61
430.284	5034.59
430.491	5202.52
430.699	5640.79
430.906	5585.49
431.114	5804.63
431.321	5694.04
431.528	5909.07
431.736	6298.19
431.943	6523.46
432.15	6425.16
432.358	6582.85
432.565	6697.54
432.772	6734.4
432.979	7293.5
433.187	7316.03
433.394	7445.05
433.601	7858.74
433.808	7973.42
434.016	7868.98
434.223	8210.99
434.43	8569.38
434.637	8415.79
434.844	9024.03
435.052	9144.86
435.259	9038.37
435.466	9081.38
435.673	9071.14
435.88	9746.97
436.087	10301.97
436.294	10228.24
436.501	9951.76
436.708	10177.04
436.915	10410.51
437.122	10945.03
437.329	11059.71
437.537	11305.47
437.743	11545.08
437.95	11307.52
438.157	12108.27
438.364	12429.81
438.571	12364.27
438.778	12351.98
438.985	13451.74
439.192	13156.83
439.399	13693.4
439.606	13314.53
439.813	13941.21
440.02	14809.54
440.227	14649.8
440.433	14385.62
440.64	14827.98
440.847	14567.88
441.054	15231.43
441.261	16110
441.467	15999.41
441.674	16458.16
441.881	16667.05
442.088	16705.96
442.294	16644.52
442.501	17248.68
442.708	17414.56
442.914	17936.79
443.121	18758.03
443.328	18596.24
443.534	20009.34
443.741	19255.68
443.948	18960.78
444.154	20392.31
444.361	20328.82
444.568	20244.85
444.774	20066.68
444.981	20533.62
445.187	21227.88
445.394	22071.64
445.6	21944.67
445.807	23765.31
446.013	22862.16
446.22	23226.7
446.426	24039.74
446.633	24412.47
446.839	25084.2
447.046	24291.64
447.252	25090.35
447.459	25729.31
447.665	25364.78
447.871	26405.14
448.078	27486.47
448.284	26390.81
448.491	26802.45
448.697	28020.99
448.903	28459.26
449.11	28229.88
449.316	27934.98
449.522	28330.23
449.728	29180.14
449.935	29223.15
450.141	29241.58
450.347	30220.51
450.553	29325.55
450.76	29477.1
450.966	30370.01
451.172	30474.46
451.378	30931.15
451.584	30341.34
451.791	30955.73
451.997	30714.07
452.203	31244.49
452.409	31250.64
452.615	31029.46
452.821	29571.3
453.027	29380.84
453.233	30863.57
453.44	29722.85
453.646	29929.7
453.852	30036.19
454.058	30554.33
454.264	29307.12
454.47	30533.85
454.676	29294.83
454.882	30400.73
455.088	27547.91
455.294	28029.18
455.5	28444.92
455.705	28711.16
455.911	27525.38
456.117	27091.21
456.323	26741.01
456.529	25016.62
456.735	26472.73
456.941	25409.83
457.147	24877.36
457.352	24125.75
457.558	24070.46
457.764	24049.98
457.97	23488.84
458.176	22724.94
458.381	22985.04
458.587	21811.55
458.793	21977.44
458.999	20668.78
459.204	22315.35
459.41	21526.88
459.616	20291.96
459.821	20177.27
460.027	19984.76
460.233	19833.21
460.438	18553.23
460.644	18680.21
460.85	18049.43
461.055	17832.35
461.261	17562.01
461.466	16265.65
461.672	15862.2
461.878	17121.7
462.083	15991.22
462.289	15346.11
462.494	15514.05
462.7	14825.93
462.905	14268.88
463.111	14916.04
463.316	14770.63
463.522	14758.35
463.727	14799.3
463.932	14606.8
464.138	14463.44
464.343	14662.09
464.549	14129.62
464.754	14512.59
464.959	14490.06
465.165	14354.9
465.37	13713.88
465.575	13541.85
465.781	13814.23
465.986	14129.62
466.191	13312.48
466.397	13457.89
466.602	12601.83
466.807	13187.55
467.012	13310.43
467.218	13027.81
467.423	13033.96
467.628	12952.04
467.833	13603.29
