Data from USB4F104151__60__11-05-57-026.txt Node

Date: Wed Mar 12 11:05:57 EDT 2025
User: louis
Spectrometer: USB4F10415
Trigger mode: 4
Integration Time (sec): 2.000000E-2
Scans to average: 1
Electric dark correction enabled: true
Nonlinearity correction enabled: false
Boxcar width: 0
XAxis mode: Wavelengths
Number of Pixels in Spectrum: 3648
>>>>>Begin Spectral Data<<<<<
178.204	-79.36
178.424	-79.36
178.644	-79.36
178.864	-120.32
179.084	-97.79
179.304	25.09
179.524	-15.87
179.744	-1.54
179.964	-13.82
180.184	10.75
180.404	-26.11
180.624	-54.78
180.844	92.67
181.064	-32.26
181.283	25.09
181.503	-56.83
181.723	47.62
181.943	51.71
182.163	23.04
182.383	12.8
182.602	45.57
182.822	131.58
183.042	-17.92
183.262	-28.16
183.482	25.09
183.701	-32.26
183.921	-11.78
184.141	-15.87
184.361	31.23
184.58	41.47
184.8	-9.73
185.02	-5.63
185.239	64
185.459	-9.73
185.679	41.47
185.898	-17.92
186.118	18.94
186.338	20.99
186.557	84.48
186.777	6.66
186.997	-19.97
187.216	29.18
187.436	47.62
187.655	25.09
187.875	29.18
188.095	35.33
188.314	45.57
188.534	29.18
188.753	-36.35
188.973	84.48
189.192	-1.54
189.412	12.8
189.631	16.9
189.851	49.66
190.07	80.38
190.29	10.75
190.509	6.66
190.729	-50.69
190.948	59.9
191.168	31.23
191.387	33.28
191.607	-15.87
191.826	-38.4
192.045	47.62
192.265	-67.07
192.484	-19.97
192.704	14.85
192.923	53.76
193.142	45.57
193.362	14.85
193.581	88.57
193.8	-5.63
194.02	10.75
194.239	4.61
194.458	-22.02
194.678	-1.54
194.897	-44.54
195.116	-22.02
195.335	96.77
195.555	8.7
195.774	10.75
195.993	-9.73
196.212	8.7
196.432	-17.92
196.651	33.28
196.87	6.66
197.089	102.91
197.308	-1.54
197.528	12.8
197.747	-5.63
197.966	-15.87
198.185	20.99
198.404	23.04
198.623	-75.26
198.842	27.14
199.062	23.04
199.281	70.14
199.5	27.14
199.719	92.67
199.938	0.51
200.157	47.62
200.376	-7.68
200.595	59.9
200.814	35.33
201.033	43.52
201.252	25.09
201.471	43.52
201.69	-17.92
201.909	-17.92
202.128	35.33
202.347	92.67
202.566	-17.92
202.785	55.81
203.004	-11.78
203.223	29.18
203.442	-54.78
203.661	47.62
203.879	20.99
204.098	18.94
204.317	0.51
204.536	25.09
204.755	51.71
204.974	47.62
205.193	23.04
205.411	-5.63
205.63	-9.73
205.849	-7.68
206.068	16.9
206.287	-1.54
206.505	37.38
206.724	37.38
206.943	57.86
207.162	25.09
207.381	43.52
207.599	-30.21
207.818	35.33
208.037	-7.68
208.255	-38.4
208.474	76.29
208.693	16.9
208.911	14.85
209.13	47.62
209.349	162.3
209.567	-36.35
209.786	8.7
210.005	-34.3
210.223	-34.3
210.442	33.28
210.661	23.04
210.879	-11.78
211.098	-42.5
211.316	-13.82
211.535	-24.06
211.753	33.28
211.972	8.7
212.191	88.57
212.409	-17.92
212.628	90.62
212.846	-36.35
213.065	-26.11
213.283	53.76
213.502	27.14
213.72	-42.5
213.938	35.33
214.157	-28.16
214.375	-13.82
214.594	-36.35
214.812	-15.87
215.031	31.23
215.249	68.09
215.467	18.94
215.686	0.51
215.904	-19.97
216.122	33.28
216.341	-3.58
216.559	16.9
216.778	74.24
216.996	35.33
217.214	39.42
217.432	-38.4
217.651	51.71
217.869	-3.58
218.087	-48.64
218.306	-13.82
218.524	76.29
218.742	47.62
218.96	47.62
219.179	-5.63
219.397	-24.06
219.615	109.05
219.833	16.9
220.051	-65.02
220.27	12.8
220.488	84.48
220.706	6.66
220.924	-44.54
221.142	37.38
221.36	-48.64
221.578	-1.54
221.796	35.33
222.015	-7.68
222.233	-19.97
222.451	78.33
222.669	59.9
222.887	0.51
223.105	-22.02
223.323	0.51
223.541	-11.78
223.759	0.51
223.977	8.7
224.195	2.56
224.413	70.14
224.631	55.81
224.849	-17.92
225.067	18.94
225.285	27.14
225.503	68.09
225.721	-56.83
225.939	16.9
226.157	25.09
226.375	31.23
226.592	10.75
226.81	8.7
227.028	72.19
227.246	78.33
227.464	20.99
227.682	-22.02
227.9	12.8
228.117	18.94
228.335	64
228.553	31.23
228.771	49.66
228.989	-9.73
229.206	72.19
229.424	33.28
229.642	16.9
229.86	59.9
230.077	37.38
230.295	61.95
230.513	66.05
230.731	78.33
230.948	49.66
231.166	-30.21
231.384	-36.35
231.601	14.85
231.819	150.01
232.037	68.09
232.254	39.42
232.472	84.48
232.689	8.7
232.907	35.33
233.125	49.66
233.342	-30.21
233.56	2.56
233.777	49.66
233.995	25.09
234.213	55.81
234.43	8.7
234.648	-9.73
234.865	-9.73
235.083	31.23
235.3	10.75
235.518	31.23
235.735	43.52
235.953	35.33
236.17	47.62
236.388	88.57
236.605	10.75
236.822	14.85
237.04	72.19
237.257	78.33
237.475	-3.58
237.692	70.14
237.909	0.51
238.127	6.66
238.344	-5.63
238.562	0.51
238.779	0.51
238.996	-32.26
239.214	-22.02
239.431	64
239.648	6.66
239.865	-22.02
240.083	49.66
240.3	43.52
240.517	18.94
240.735	78.33
240.952	31.23
241.169	72.19
241.386	55.81
241.603	14.85
241.821	-3.58
242.038	-26.11
242.255	8.7
242.472	16.9
242.689	-48.64
242.907	0.51
243.124	0.51
243.341	14.85
243.558	-3.58
243.775	-15.87
243.992	-38.4
244.209	-48.64
244.426	16.9
244.643	-40.45
244.86	27.14
245.078	-5.63
245.295	47.62
245.512	27.14
245.729	-22.02
245.946	8.7
246.163	41.47
246.38	45.57
246.597	74.24
246.814	64
247.031	-17.92
247.248	37.38
247.464	64
247.681	16.9
247.898	-13.82
248.115	10.75
248.332	2.56
248.549	102.91
248.766	70.14
248.983	35.33
249.2	-30.21
249.417	-34.3
249.633	2.56
249.85	109.05
250.067	35.33
250.284	6.66
250.501	35.33
250.717	61.95
250.934	-34.3
251.151	14.85
251.368	84.48
251.585	29.18
251.801	27.14
252.018	35.33
252.235	25.09
252.451	-22.02
252.668	0.51
252.885	-44.54
253.102	0.51
253.318	-32.26
253.535	39.42
253.752	64
253.968	39.42
254.185	74.24
254.401	39.42
254.618	-19.97
254.835	27.14
255.051	61.95
255.268	41.47
255.484	45.57
255.701	29.18
255.917	6.66
256.134	57.86
256.351	23.04
256.567	12.8
256.784	-46.59
257	-11.78
257.217	18.94
257.433	-9.73
257.65	72.19
257.866	-11.78
258.082	61.95
258.299	84.48
258.515	23.04
258.732	-1.54
258.948	-7.68
259.165	14.85
259.381	6.66
259.597	57.86
259.814	74.24
260.03	-42.5
260.246	55.81
260.463	92.67
260.679	18.94
260.895	59.9
261.112	-9.73
261.328	88.57
261.544	37.38
261.761	66.05
261.977	-9.73
262.193	-62.98
262.409	59.9
262.626	12.8
262.842	12.8
263.058	-36.35
263.274	-17.92
263.49	64
263.707	72.19
263.923	-54.78
264.139	-9.73
264.355	27.14
264.571	-11.78
264.787	84.48
265.004	-34.3
265.22	31.23
265.436	-30.21
265.652	31.23
265.868	59.9
266.084	68.09
266.3	104.96
266.516	12.8
266.732	35.33
266.948	20.99
267.164	53.76
267.38	-65.02
267.596	29.18
267.812	74.24
268.028	-11.78
268.244	-52.74
268.46	20.99
268.676	55.81
268.892	-11.78
269.108	-5.63
269.324	31.23
269.54	-22.02
269.756	25.09
269.972	10.75
270.188	14.85
270.403	-34.3
270.619	111.1
270.835	47.62
271.051	-46.59
271.267	14.85
271.483	-46.59
271.698	37.38
271.914	74.24
272.13	84.48
272.346	55.81
272.562	33.28
272.777	-11.78
272.993	51.71
273.209	35.33
273.425	102.91
273.64	6.66
273.856	61.95
274.072	64
274.287	-28.16
274.503	109.05
274.719	0.51
274.934	12.8
275.15	25.09
275.366	23.04
275.581	-50.69
275.797	29.18
276.012	115.2
276.228	37.38
276.444	-28.16
276.659	51.71
276.875	35.33
277.09	18.94
277.306	-1.54
277.521	23.04
277.737	31.23
277.952	-17.92
278.168	23.04
278.383	-9.73
278.599	8.7
278.814	111.1
279.03	74.24
279.245	23.04
279.461	66.05
279.676	33.28
279.892	20.99
280.107	10.75
280.322	-36.35
280.538	-26.11
280.753	119.29
280.969	49.66
281.184	57.86
281.399	10.75
281.615	43.52
281.83	70.14
282.045	-15.87
282.26	-40.45
282.476	-36.35
282.691	2.56
282.906	-19.97
283.122	74.24
283.337	127.49
283.552	66.05
283.767	-13.82
283.983	49.66
284.198	33.28
284.413	41.47
284.628	29.18
284.843	57.86
285.058	-22.02
285.274	10.75
285.489	-3.58
285.704	-11.78
285.919	35.33
286.134	12.8
286.349	10.75
286.564	25.09
286.779	41.47
286.995	-22.02
287.21	72.19
287.425	35.33
287.64	53.76
287.855	39.42
288.07	35.33
288.285	43.52
288.5	37.38
288.715	49.66
288.93	-13.82
289.145	14.85
289.36	51.71
289.575	51.71
289.79	31.23
290.004	10.75
290.219	-5.63
290.434	33.28
290.649	49.66
290.864	31.23
291.079	-17.92
291.294	80.38
291.509	45.57
291.724	-11.78
291.938	20.99
292.153	37.38
292.368	-28.16
292.583	33.28
292.798	74.24
293.012	31.23
293.227	49.66
293.442	29.18
293.657	-3.58
293.871	-15.87
294.086	-26.11
294.301	-7.68
294.516	74.24
294.73	10.75
294.945	-30.21
295.16	33.28
295.374	0.51
295.589	-9.73
295.804	-5.63
296.018	57.86
296.233	27.14
296.447	20.99
296.662	-97.79
296.877	39.42
297.091	72.19
297.306	-24.06
297.52	16.9
297.735	-15.87
297.949	23.04
298.164	68.09
298.378	-1.54
298.593	92.67
298.807	-9.73
299.022	80.38
299.236	-22.02
299.451	-19.97
299.665	14.85
299.88	84.48
300.094	45.57
300.309	-42.5
300.523	27.14
300.737	53.76
300.952	53.76
301.166	0.51
301.381	-19.97
301.595	53.76
301.809	47.62
302.024	-30.21
302.238	-22.02
302.452	45.57
302.667	82.43
302.881	82.43
303.095	20.99
303.309	-17.92
303.524	-24.06
303.738	-42.5
303.952	2.56
304.166	57.86
304.381	47.62
304.595	39.42
304.809	49.66
305.023	92.67
305.237	-15.87
305.452	23.04
305.666	35.33
305.88	23.04
306.094	10.75
306.308	70.14
306.522	51.71
306.736	14.85
306.95	10.75
307.164	-44.54
307.379	-71.17
307.593	139.77
307.807	59.9
308.021	12.8
308.235	8.7
308.449	6.66
308.663	-38.4
308.877	23.04
309.091	53.76
309.305	51.71
309.519	-30.21
309.733	66.05
309.947	8.7
310.161	23.04
310.374	-81.41
310.588	39.42
310.802	20.99
311.016	66.05
311.23	59.9
311.444	-46.59
311.658	29.18
311.872	76.29
312.085	25.09
312.299	49.66
312.513	35.33
312.727	57.86
312.941	76.29
313.154	59.9
313.368	76.29
313.582	-36.35
313.796	68.09
314.009	-26.11
314.223	90.62
314.437	8.7
314.651	16.9
314.864	-3.58
315.078	27.14
315.292	51.71
315.505	-7.68
315.719	72.19
315.933	76.29
316.146	-9.73
316.36	-17.92
316.573	25.09
316.787	35.33
317.001	-26.11
317.214	10.75
317.428	39.42
317.641	4.61
317.855	-32.26
318.068	43.52
318.282	115.2
318.495	96.77
318.709	31.23
318.922	39.42
319.136	78.33
319.349	41.47
319.563	82.43
319.776	72.19
319.99	20.99
320.203	39.42
320.417	20.99
320.63	23.04
320.843	-15.87
321.057	55.81
321.27	23.04
321.483	39.42
321.697	43.52
321.91	8.7
322.124	57.86
322.337	20.99
322.55	10.75
322.763	84.48
322.977	117.25
323.19	41.47
323.403	35.33
323.617	66.05
323.83	98.81
324.043	29.18
324.256	33.28
324.469	10.75
324.683	20.99
324.896	33.28
325.109	59.9
325.322	18.94
325.535	0.51
325.748	100.86
325.962	76.29
326.175	90.62
326.388	31.23
326.601	37.38
326.814	61.95
327.027	111.1
327.24	14.85
327.453	-1.54
327.666	111.1
327.879	12.8
328.092	70.14
328.305	51.71
328.518	47.62
328.731	96.77
328.944	-7.68
329.157	-24.06
329.37	-24.06
329.583	33.28
329.796	156.16
330.009	-13.82
330.222	6.66
330.435	33.28
330.648	29.18
330.861	59.9
331.073	33.28
331.286	59.9
331.499	133.63
331.712	39.42
331.925	90.62
332.138	102.91
332.35	96.77
332.563	109.05
332.776	31.23
332.989	-1.54
333.202	74.24
333.414	43.52
333.627	35.33
333.84	35.33
334.053	66.05
334.265	109.05
334.478	61.95
334.691	109.05
334.903	18.94
335.116	29.18
335.329	61.95
335.541	35.33
335.754	47.62
335.966	66.05
336.179	25.09
336.392	-9.73
336.604	143.87
336.817	78.33
337.029	41.47
337.242	-3.58
337.454	37.38
337.667	35.33
337.88	72.19
338.092	43.52
338.305	94.72
338.517	18.94
338.729	-24.06
338.942	76.29
339.154	74.24
339.367	41.47
339.579	72.19
339.792	121.34
340.004	18.94
340.217	-5.63
340.429	127.49
340.641	-50.69
340.854	12.8
341.066	41.47
341.278	78.33
341.491	31.23
341.703	98.81
341.915	72.19
342.128	39.42
342.34	82.43
342.552	31.23
342.764	92.67
342.977	55.81
343.189	6.66
343.401	111.1
343.613	33.28
343.826	98.81
344.038	-7.68
344.25	68.09
344.462	16.9
344.674	25.09
344.886	61.95
345.099	80.38
345.311	14.85
345.523	14.85
345.735	-13.82
345.947	-3.58
346.159	55.81
346.371	27.14
346.583	-7.68
346.795	117.25
347.007	-5.63
347.219	113.15
347.431	33.28
347.643	78.33
347.855	47.62
348.067	51.71
348.279	76.29
348.491	45.57
348.703	4.61
348.915	29.18
349.127	57.86
349.339	102.91
349.551	51.71
349.763	53.76
349.975	14.85
350.187	57.86
350.399	123.39
350.61	76.29
350.822	31.23
351.034	57.86
351.246	16.9
351.458	-30.21
351.669	35.33
351.881	61.95
352.093	45.57
352.305	-9.73
352.517	68.09
352.728	33.28
352.94	49.66
353.152	76.29
353.363	2.56
353.575	170.49
353.787	90.62
353.999	117.25
354.21	119.29
354.422	39.42
354.633	-13.82
354.845	86.53
355.057	16.9
355.268	-26.11
355.48	92.67
355.692	25.09
355.903	10.75
356.115	68.09
356.326	-22.02
356.538	98.81
356.749	49.66
356.961	47.62
357.172	55.81
357.384	88.57
357.595	102.91
357.807	84.48
358.018	45.57
358.23	72.19
358.441	64
358.653	43.52
358.864	39.42
359.075	137.73
359.287	4.61
359.498	70.14
359.709	31.23
359.921	94.72
360.132	64
360.344	59.9
360.555	119.29
360.766	20.99
360.977	-28.16
361.189	94.72
361.4	-5.63
361.611	43.52
361.823	107.01
362.034	64
362.245	-13.82
362.456	39.42
362.667	78.33
362.879	59.9
363.09	68.09
363.301	41.47
363.512	76.29
363.723	-58.88
363.935	70.14
364.146	96.77
364.357	47.62
364.568	-9.73
364.779	59.9
364.99	59.9
365.201	74.24
365.412	33.28
365.623	25.09
365.834	90.62
366.045	72.19
366.256	43.52
366.467	43.52
366.678	68.09
366.889	-36.35
367.1	31.23
367.311	35.33
367.522	2.56
367.733	14.85
367.944	107.01
368.155	59.9
368.366	166.4
368.577	86.53
368.788	29.18
368.999	-24.06
369.209	-15.87
369.42	66.05
369.631	131.58
369.842	49.66
370.053	8.7
370.264	80.38
370.474	125.44
370.685	96.77
370.896	59.9
371.107	64
371.317	115.2
371.528	16.9
371.739	43.52
371.95	-26.11
372.16	2.56
372.371	55.81
372.582	41.47
372.792	25.09
373.003	59.9
373.214	55.81
373.424	33.28
373.635	37.38
373.846	102.91
374.056	27.14
374.267	16.9
374.477	88.57
374.688	14.85
374.898	33.28
375.109	31.23
375.319	37.38
375.53	14.85
375.74	107.01
375.951	127.49
376.161	82.43
376.372	31.23
376.582	47.62
376.793	49.66
377.003	-3.58
377.214	12.8
377.424	72.19
377.635	16.9
377.845	25.09
378.055	16.9
378.266	68.09
378.476	53.76
378.686	-1.54
378.897	10.75
379.107	-52.74
379.317	98.81
379.528	25.09
379.738	57.86
379.948	-7.68
380.158	102.91
380.369	47.62
380.579	80.38
380.789	111.1
380.999	64
381.21	92.67
381.42	107.01
381.63	88.57
381.84	43.52
382.05	51.71
382.261	35.33
382.471	88.57
382.681	12.8
382.891	104.96
383.101	64
383.311	25.09
383.521	80.38
383.731	88.57
383.941	37.38
384.151	57.86
384.361	80.38
384.571	78.33
384.781	88.57
384.991	45.57
385.201	61.95
385.411	72.19
385.621	10.75
385.831	86.53
386.041	59.9
386.251	-26.11
386.461	72.19
386.671	51.71
386.881	76.29
387.091	47.62
387.301	53.76
387.511	119.29
387.72	68.09
387.93	82.43
388.14	23.04
388.35	74.24
388.56	131.58
388.769	117.25
388.979	49.66
389.189	100.86
389.399	35.33
389.609	76.29
389.818	57.86
390.028	90.62
390.238	84.48
390.447	12.8
390.657	16.9
390.867	-5.63
391.076	104.96
391.286	12.8
391.496	115.2
391.705	-34.3
391.915	104.96
392.125	57.86
392.334	82.43
392.544	35.33
392.753	90.62
392.963	59.9
393.172	90.62
393.382	35.33
393.591	74.24
393.801	43.52
394.01	104.96
394.22	102.91
394.429	88.57
394.639	139.77
394.848	47.62
395.058	92.67
395.267	92.67
395.477	156.16
395.686	180.73
395.895	76.29
396.105	86.53
396.314	31.23
396.524	82.43
396.733	88.57
396.942	111.1
397.152	94.72
397.361	98.81
397.57	59.9
397.78	86.53
397.989	100.86
398.198	143.87
398.407	125.44
398.617	158.21
398.826	92.67
399.035	176.64
399.244	96.77
399.453	102.91
399.663	117.25
399.872	147.97
400.081	100.86
400.29	121.34
400.499	109.05
400.708	111.1
400.917	160.25
401.127	154.11
401.336	123.39
401.545	166.4
401.754	147.97
401.963	174.59
402.172	150.01
402.381	92.67
402.59	152.06
402.799	141.82
403.008	92.67
403.217	154.11
403.426	55.81
403.635	145.92
403.844	129.53
404.053	197.12
404.262	147.97
404.471	121.34
404.68	190.97
404.888	139.77
405.097	156.16
405.306	186.88
405.515	190.97
405.724	133.63
405.933	178.69
406.142	260.6
406.35	223.74
406.559	207.36
406.768	190.97
406.977	236.03
407.185	154.11
407.394	240.12
407.603	209.4
407.812	274.94
408.02	252.41
408.229	264.7
408.438	252.41
408.646	162.3
408.855	279.04
409.064	248.32
409.272	348.67
409.481	311.8
409.69	272.89
409.898	274.94
410.107	287.23
410.315	365.05
410.524	354.81
410.733	397.82
410.941	383.48
411.15	430.59
411.358	459.26
411.567	440.83
411.775	489.98
411.984	496.12
412.192	535.03
412.401	481.78
412.609	586.23
412.818	502.26
413.026	539.13
413.234	594.42
413.443	623.09
413.651	639.48
413.86	641.53
414.068	633.33
414.276	670.2
414.485	735.73
414.693	788.98
414.901	776.69
415.11	848.37
415.318	760.31
415.526	791.03
415.734	864.75
415.943	862.71
416.151	946.67
416.359	1036.78
416.567	956.91
416.776	1038.83
416.984	1100.27
417.192	1087.98
417.4	1137.13
417.608	1130.99
417.817	1208.81
418.025	1208.81
418.233	1444.33
418.441	1255.92
418.649	1343.98
418.857	1503.72
419.065	1448.43
419.273	1491.43
419.481	1546.73
419.689	1653.22
419.897	1872.36
420.105	1716.71
420.313	1720.81
420.521	1833.44
420.729	1980.9
420.937	2046.43
421.145	2083.3
421.353	2032.1
421.561	2185.69
421.769	2236.89
421.977	2312.67
422.185	2398.68
422.393	2488.79
422.601	2583
422.809	2632.15
423.017	2656.73
423.224	2818.52
423.432	2904.53
423.64	2869.72
423.848	3135.95
424.056	3060.18
424.263	3340.75
424.471	3334.61
424.679	3410.38
424.887	3563.98
425.094	3721.67
425.302	3731.91
425.51	3846.6
425.718	3887.56
425.925	4071.87
426.133	4204.99
426.341	4477.37
426.548	4446.65
426.756	4608.44
426.964	4647.35
427.171	4923.83
427.379	5151.15
427.586	5208.5
427.794	5302.7
428.001	5466.54
428.209	5611.95
428.417	5779.88
428.624	6003.11
428.832	6095.27
429.039	5947.81
429.247	6230.43
429.454	6437.28
429.662	7139.73
429.869	6547.87
430.076	7068.05
430.284	7027.09
430.491	7160.21
430.699	7584.14
430.906	7397.78
431.114	7754.12
431.321	8038.79
431.528	8225.15
431.736	8622.46
431.943	9181.56
432.15	8710.52
432.358	8925.56
432.565	9437.55
432.772	9531.76
432.979	9838.95
433.187	10064.23
433.394	10082.66
433.601	10652
433.808	10858.84
434.016	10727.77
434.223	11321.68
434.43	11880.78
434.637	11569.49
434.844	12337.48
435.052	12693.82
435.259	12747.07
435.466	12587.33
435.673	12468.55
435.88	13439.28
436.087	14082.35
436.294	14219.56
436.501	13885.74
436.708	14188.84
436.915	14588.19
437.122	15063.32
437.329	15204.63
437.537	15618.32
437.743	15919.37
437.95	15882.51
438.157	16793.86
438.364	17094.91
438.571	17211.64
438.778	17357.05
438.985	18608.36
439.192	17973.49
439.399	18841.82
439.606	18385.13
439.813	19323.1
440.02	20443.34
440.227	20136.14
440.433	19976.4
440.64	20740.29
440.847	20648.13
441.054	20961.47
441.261	22499.5
441.467	22182.06
441.674	22589.61
441.881	23373.98
442.088	23558.3
442.294	22941.86
442.501	23992.47
442.708	24264.85
442.914	25380.99
443.121	26253.42
443.328	25483.39
443.534	27627.61
443.741	26722.41
443.948	26013.81
444.154	28434.51
444.361	27988.05
444.568	28258.38
444.774	28311.63
444.981	28751.95
445.187	29614.14
445.394	30670.89
445.6	30058.55
445.807	33275.91
446.013	31739.93
446.22	32294.93
446.426	33662.97
446.633	33900.54
446.839	34715.63
447.046	33955.83
447.252	35264.49
447.459	35512.29
447.665	34981.87
447.871	37025.74
448.078	37986.24
448.284	36364.25
448.491	37236.68
448.697	39002.03
448.903	39210.92
449.11	39696.29
449.316	38852.53
449.522	39686.05
449.728	40775.57
449.935	40873.87
450.141	40890.26
450.347	42127.23
450.553	40210.33
450.76	40763.28
450.966	42194.81
451.172	42203
451.378	42891.12
451.584	42106.75
451.791	42725.24
451.997	42565.49
452.203	43704.17
452.409	43282.28
452.615	42999.66
452.821	41521.03
453.027	41086.86
453.233	43194.22
453.44	41279.37
453.646	42004.35
453.852	42254.2
454.058	42469.24
454.264	41322.38
454.47	42381.18
454.676	41129.87
454.882	42710.9
455.088	38897.58
455.294	39374.76
455.5	39694.24
455.705	40236.95
455.911	38834.1
456.117	37769.15
456.323	37072.84
456.529	35190.76
456.735	36880.33
456.941	36184.02
457.147	35463.14
457.352	34211.83
457.558	33271.81
457.764	34039.8
457.97	33697.79
458.176	32567.31
458.381	32690.19
458.587	30715.95
458.793	30955.56
458.999	29235.27
459.204	31090.73
459.41	30720.04
459.616	28545.1
459.821	28713.03
460.027	28414.03
460.233	27621.47
460.438	26333.29
460.644	27043.94
460.85	25618.55
461.055	24973.44
461.261	25292.93
461.466	23232.67
461.672	22646.95
461.878	24377.48
462.083	22476.97
462.289	22190.25
462.494	22102.19
462.7	20951.23
462.905	20601.03
463.111	21377.21
463.316	21377.21
463.522	21242.04
463.727	20926.66
463.932	20910.27
464.138	20553.93
464.343	20805.83
464.549	19886.29
464.754	21231.8
464.959	20547.78
465.165	20240.59
465.37	19855.57
465.575	19366.1
465.781	19876.05
465.986	20211.92
466.191	19405.02
466.397	19210.46
466.602	17965.29
466.807	18931.94
467.012	18874.59
467.218	18864.35
467.423	18409.7
