Data from USB4F104151__232__11-11-01-413.txt Node

Date: Wed Mar 12 11:11:01 EDT 2025
User: louis
Spectrometer: USB4F10415
Trigger mode: 4
Integration Time (sec): 2.000000E-2
Scans to average: 1
Electric dark correction enabled: true
Nonlinearity correction enabled: false
Boxcar width: 0
XAxis mode: Wavelengths
Number of Pixels in Spectrum: 3648
>>>>>Begin Spectral Data<<<<<
178.204	-72.36
178.424	-72.36
178.644	-72.36
178.864	-53.93
179.084	-66.22
179.304	-25.26
179.524	7.51
179.744	-27.31
179.964	-8.87
180.184	-53.93
180.404	7.51
180.624	21.85
180.844	-29.35
181.064	32.08
181.283	25.94
181.503	25.94
181.723	23.89
181.943	-72.36
182.163	83.28
182.383	25.94
182.602	15.7
182.822	-2.73
183.042	21.85
183.262	-8.87
183.482	-31.4
183.701	38.23
183.921	46.42
184.141	9.56
184.361	83.28
184.58	-47.79
184.8	11.61
185.02	52.56
185.239	44.37
185.459	25.94
185.679	32.08
185.898	19.8
186.118	107.86
186.338	25.94
186.557	11.61
186.777	27.99
186.997	-21.16
187.216	-17.07
187.436	77.14
187.655	60.76
187.875	54.61
188.095	7.51
188.314	68.95
188.534	-15.02
188.753	71
188.973	13.65
189.192	44.37
189.412	-0.68
189.631	13.65
189.851	17.75
190.07	56.66
190.29	62.8
190.509	9.56
190.729	50.52
190.948	42.32
191.168	50.52
191.387	-25.26
191.607	-10.92
191.826	68.95
192.045	-4.78
192.265	-4.78
192.484	64.85
192.704	19.8
192.923	-60.07
193.142	71
193.362	-29.35
193.581	19.8
193.8	34.13
194.02	7.51
194.239	60.76
194.458	38.23
194.678	60.76
194.897	40.28
195.116	34.13
195.335	32.08
195.555	-33.45
195.774	-62.12
195.993	11.61
196.212	-6.83
196.432	-49.83
196.651	-45.74
196.87	7.51
197.089	62.8
197.308	36.18
197.528	9.56
197.747	71
197.966	-25.26
198.185	71
198.404	7.51
198.623	71
198.842	25.94
199.062	11.61
199.281	-10.92
199.5	23.89
199.719	-8.87
199.938	87.38
200.157	38.23
200.376	5.46
200.595	36.18
200.814	3.41
201.033	38.23
201.252	-8.87
201.471	40.28
201.69	-6.83
201.909	34.13
202.128	34.13
202.347	-25.26
202.566	-2.73
202.785	64.85
203.004	5.46
203.223	132.44
203.442	-12.97
203.661	-41.64
203.879	42.32
204.098	56.66
204.317	21.85
204.536	97.62
204.755	7.51
204.974	71
205.193	54.61
205.411	138.58
205.63	7.51
205.849	19.8
206.068	60.76
206.287	36.18
206.505	48.47
206.724	-2.73
206.943	93.52
207.162	-0.68
207.381	7.51
207.599	-12.97
207.818	5.46
208.037	-4.78
208.255	-33.45
208.474	58.71
208.693	66.9
208.911	-0.68
209.13	27.99
209.349	-6.83
209.567	-6.83
209.786	-0.68
210.005	32.08
210.223	30.04
210.442	52.56
210.661	44.37
210.879	13.65
211.098	60.76
211.316	54.61
211.535	13.65
211.753	87.38
211.972	40.28
212.191	5.46
212.409	5.46
212.628	19.8
212.846	-17.07
213.065	48.47
213.283	99.67
213.502	56.66
213.72	-12.97
213.938	30.04
214.157	60.76
214.375	81.24
214.594	-17.07
214.812	-8.87
215.031	-55.98
215.249	3.41
215.467	38.23
215.686	64.85
215.904	83.28
216.122	40.28
216.341	58.71
216.559	17.75
216.778	17.75
216.996	23.89
217.214	-6.83
217.432	-2.73
217.651	1.37
217.869	60.76
218.087	1.37
218.306	-35.5
218.524	85.33
218.742	50.52
218.96	79.19
219.179	11.61
219.397	50.52
219.615	40.28
219.833	48.47
220.051	-15.02
220.27	-12.97
220.488	-8.87
220.706	1.37
220.924	-2.73
221.142	-19.11
221.36	83.28
221.578	50.52
221.796	64.85
222.015	-2.73
222.233	1.37
222.451	-12.97
222.669	-45.74
222.887	50.52
223.105	-72.36
223.323	3.41
223.541	-29.35
223.759	68.95
223.977	-41.64
224.195	40.28
224.413	75.09
224.631	-8.87
224.849	60.76
225.067	64.85
225.285	11.61
225.503	27.99
225.721	-62.12
225.939	34.13
226.157	56.66
226.375	36.18
226.592	13.65
226.81	54.61
227.028	17.75
227.246	36.18
227.464	46.42
227.682	38.23
227.9	68.95
228.117	77.14
228.335	66.9
228.553	95.57
228.771	30.04
228.989	103.76
229.206	-0.68
229.424	-31.4
229.642	-2.73
229.86	54.61
230.077	30.04
230.295	21.85
230.513	64.85
230.731	-2.73
230.948	114
231.166	93.52
231.384	83.28
231.601	13.65
231.819	-2.73
232.037	1.37
232.254	38.23
232.472	73.04
232.689	44.37
232.907	-23.21
233.125	5.46
233.342	9.56
233.56	52.56
233.777	-76.46
233.995	13.65
234.213	46.42
234.43	103.76
234.648	5.46
234.865	-12.97
235.083	13.65
235.3	-31.4
235.518	19.8
235.735	13.65
235.953	32.08
236.17	-6.83
236.388	13.65
236.605	15.7
236.822	13.65
237.04	17.75
237.257	77.14
237.475	44.37
237.692	52.56
237.909	-4.78
238.127	-25.26
238.344	105.81
238.562	-4.78
238.779	21.85
238.996	-0.68
239.214	-17.07
239.431	15.7
239.648	-33.45
239.865	11.61
240.083	-10.92
240.3	5.46
240.517	-0.68
240.735	-8.87
240.952	34.13
241.169	27.99
241.386	21.85
241.603	7.51
241.821	23.89
242.038	34.13
242.255	-10.92
242.472	19.8
242.689	32.08
242.907	15.7
243.124	13.65
243.341	83.28
243.558	30.04
243.775	73.04
243.992	-8.87
244.209	-23.21
244.426	32.08
244.643	66.9
244.86	34.13
245.078	-33.45
245.295	83.28
245.512	-33.45
245.729	42.32
245.946	-17.07
246.163	-25.26
246.38	9.56
246.597	-15.02
246.814	56.66
247.031	66.9
247.248	66.9
247.464	40.28
247.681	66.9
247.898	38.23
248.115	-8.87
248.332	-55.98
248.549	62.8
248.766	19.8
248.983	97.62
249.2	-45.74
249.417	58.71
249.633	23.89
249.85	75.09
250.067	36.18
250.284	77.14
250.501	13.65
250.717	34.13
250.934	-6.83
251.151	-21.16
251.368	30.04
251.585	93.52
251.801	19.8
252.018	93.52
252.235	44.37
252.451	23.89
252.668	25.94
252.885	77.14
253.102	64.85
253.318	23.89
253.535	-21.16
253.752	77.14
253.968	60.76
254.185	3.41
254.401	7.51
254.618	11.61
254.835	30.04
255.051	54.61
255.268	-6.83
255.484	13.65
255.701	-15.02
255.917	-27.31
256.134	79.19
256.351	17.75
256.567	-12.97
256.784	-4.78
257	-6.83
257.217	87.38
257.433	27.99
257.65	13.65
257.866	25.94
258.082	-62.12
258.299	62.8
258.515	21.85
258.732	62.8
258.948	54.61
259.165	3.41
259.381	-4.78
259.597	-21.16
259.814	36.18
260.03	-47.79
260.246	56.66
260.463	52.56
260.679	60.76
260.895	23.89
261.112	105.81
261.328	-47.79
261.544	60.76
261.761	56.66
261.977	-19.11
262.193	13.65
262.409	27.99
262.626	-0.68
262.842	56.66
263.058	-8.87
263.274	40.28
263.49	52.56
263.707	-6.83
263.923	25.94
264.139	44.37
264.355	11.61
264.571	21.85
264.787	95.57
265.004	11.61
265.22	56.66
265.436	81.24
265.652	107.86
265.868	58.71
266.084	68.95
266.3	54.61
266.516	-4.78
266.732	58.71
266.948	23.89
267.164	32.08
267.38	42.32
267.596	-12.97
267.812	71
268.028	60.76
268.244	-21.16
268.46	32.08
268.676	44.37
268.892	34.13
269.108	27.99
269.324	-8.87
269.54	42.32
269.756	73.04
269.972	56.66
270.188	105.81
270.403	27.99
270.619	54.61
270.835	-4.78
271.051	21.85
271.267	32.08
271.483	3.41
271.698	-8.87
271.914	-8.87
272.13	-15.02
272.346	62.8
272.562	17.75
272.777	38.23
272.993	-70.31
273.209	89.43
273.425	54.61
273.64	99.67
273.856	32.08
274.072	-4.78
274.287	73.04
274.503	48.47
274.719	130.39
274.934	5.46
275.15	15.7
275.366	27.99
275.581	-27.31
275.797	48.47
276.012	42.32
276.228	-29.35
276.444	64.85
276.659	54.61
276.875	9.56
277.09	77.14
277.306	48.47
277.521	52.56
277.737	56.66
277.952	-4.78
278.168	-6.83
278.383	105.81
278.599	-10.92
278.814	40.28
279.03	-19.11
279.245	15.7
279.461	-33.45
279.676	13.65
279.892	5.46
280.107	40.28
280.322	-4.78
280.538	34.13
280.753	9.56
280.969	77.14
281.184	32.08
281.399	-4.78
281.615	34.13
281.83	60.76
282.045	44.37
282.26	19.8
282.476	21.85
282.691	77.14
282.906	44.37
283.122	34.13
283.337	-15.02
283.552	48.47
283.767	21.85
283.983	23.89
284.198	-4.78
284.413	9.56
284.628	48.47
284.843	-33.45
285.058	64.85
285.274	52.56
285.489	97.62
285.704	15.7
285.919	23.89
286.134	17.75
286.349	-17.07
286.564	56.66
286.779	101.72
286.995	54.61
287.21	62.8
287.425	62.8
287.64	3.41
287.855	66.9
288.07	-10.92
288.285	21.85
288.5	-0.68
288.715	48.47
288.93	-72.36
289.145	-21.16
289.36	52.56
289.575	17.75
289.79	77.14
290.004	25.94
290.219	62.8
290.434	-8.87
290.649	3.41
290.864	107.86
291.079	13.65
291.294	9.56
291.509	38.23
291.724	56.66
291.938	-47.79
292.153	25.94
292.368	21.85
292.583	68.95
292.798	75.09
293.012	79.19
293.227	-8.87
293.442	15.7
293.657	68.95
293.871	132.44
294.086	68.95
294.301	122.2
294.516	-0.68
294.73	58.71
294.945	-12.97
295.16	19.8
295.374	-8.87
295.589	9.56
295.804	7.51
296.018	-0.68
296.233	23.89
296.447	27.99
296.662	32.08
296.877	42.32
297.091	85.33
297.306	40.28
297.52	15.7
297.735	62.8
297.949	-12.97
298.164	32.08
298.378	64.85
298.593	21.85
298.807	-25.26
299.022	46.42
299.236	42.32
299.451	23.89
299.665	21.85
299.88	17.75
300.094	-51.88
300.309	25.94
300.523	56.66
300.737	56.66
300.952	81.24
301.166	107.86
301.381	-8.87
301.595	91.48
301.809	-0.68
302.024	-41.64
302.238	21.85
302.452	34.13
302.667	-51.88
302.881	40.28
303.095	32.08
303.309	9.56
303.524	-4.78
303.738	-4.78
303.952	-17.07
304.166	-8.87
304.381	27.99
304.595	48.47
304.809	40.28
305.023	89.43
305.237	60.76
305.452	9.56
305.666	-15.02
305.88	15.7
306.094	122.2
306.308	36.18
306.522	79.19
306.736	75.09
306.95	3.41
307.164	27.99
307.379	66.9
307.593	27.99
307.807	77.14
308.021	38.23
308.235	-6.83
308.449	77.14
308.663	38.23
308.877	25.94
309.091	-4.78
309.305	46.42
309.519	-12.97
309.733	64.85
309.947	-0.68
310.161	38.23
310.374	13.65
310.588	-4.78
310.802	38.23
311.016	56.66
311.23	27.99
311.444	15.7
311.658	40.28
311.872	-2.73
312.085	-2.73
312.299	85.33
312.513	103.76
312.727	27.99
312.941	23.89
313.154	75.09
313.368	-31.4
313.582	21.85
313.796	-2.73
314.009	-12.97
314.223	66.9
314.437	42.32
314.651	19.8
314.864	-33.45
315.078	-35.5
315.292	-2.73
315.505	101.72
315.719	7.51
315.933	11.61
316.146	40.28
316.36	-8.87
316.573	23.89
316.787	114
317.001	48.47
317.214	-37.55
317.428	56.66
317.641	-21.16
317.855	79.19
318.068	23.89
318.282	68.95
318.495	144.72
318.709	-10.92
318.922	7.51
319.136	58.71
319.349	30.04
319.563	15.7
319.776	15.7
319.99	9.56
320.203	89.43
320.417	62.8
320.63	50.52
320.843	118.1
321.057	30.04
321.27	-19.11
321.483	-37.55
321.697	99.67
321.91	34.13
322.124	9.56
322.337	77.14
322.55	91.48
322.763	-19.11
322.977	81.24
323.19	30.04
323.403	-43.69
323.617	132.44
323.83	89.43
324.043	11.61
324.256	7.51
324.469	-0.68
324.683	48.47
324.896	40.28
325.109	30.04
325.322	1.37
325.535	62.8
325.748	27.99
325.962	-4.78
326.175	27.99
326.388	73.04
326.601	13.65
326.814	71
327.027	40.28
327.24	87.38
327.453	-17.07
327.666	40.28
327.879	52.56
328.092	11.61
328.305	81.24
328.518	3.41
328.731	30.04
328.944	-64.17
329.157	-8.87
329.37	30.04
329.583	36.18
329.796	23.89
330.009	-12.97
330.222	42.32
330.435	5.46
330.648	124.24
330.861	66.9
331.073	9.56
331.286	17.75
331.499	46.42
331.712	11.61
331.925	32.08
332.138	-43.69
332.35	46.42
332.563	83.28
332.776	34.13
332.989	17.75
333.202	15.7
333.414	52.56
333.627	19.8
333.84	56.66
334.053	40.28
334.265	34.13
334.478	60.76
334.691	73.04
334.903	50.52
335.116	13.65
335.329	27.99
335.541	73.04
335.754	79.19
335.966	25.94
336.179	77.14
336.392	-17.07
336.604	75.09
336.817	68.95
337.029	9.56
337.242	-17.07
337.454	68.95
337.667	-33.45
337.88	71
338.092	44.37
338.305	83.28
338.517	-39.59
338.729	7.51
338.942	85.33
339.154	60.76
339.367	5.46
339.579	34.13
339.792	3.41
340.004	40.28
340.217	11.61
340.429	-15.02
340.641	-39.59
340.854	73.04
341.066	1.37
341.278	-2.73
341.491	40.28
341.703	89.43
341.915	7.51
342.128	40.28
342.34	60.76
342.552	-0.68
342.764	64.85
342.977	111.96
343.189	97.62
343.401	7.51
343.613	15.7
343.826	89.43
344.038	66.9
344.25	5.46
344.462	40.28
344.674	105.81
344.886	40.28
345.099	91.48
345.311	36.18
345.523	46.42
345.735	-10.92
345.947	58.71
346.159	50.52
346.371	77.14
346.583	-21.16
346.795	30.04
347.007	48.47
347.219	38.23
347.431	7.51
347.643	11.61
347.855	32.08
348.067	25.94
348.279	-84.65
348.491	19.8
348.703	25.94
348.915	34.13
349.127	-43.69
349.339	48.47
349.551	79.19
349.763	99.67
349.975	-10.92
350.187	124.24
350.399	-4.78
350.61	48.47
350.822	62.8
351.034	15.7
351.246	68.95
351.458	79.19
351.669	46.42
351.881	122.2
352.093	120.15
352.305	-29.35
352.517	54.61
352.728	48.47
352.94	-10.92
353.152	81.24
353.363	34.13
353.575	-15.02
353.787	97.62
353.999	32.08
354.21	48.47
354.422	3.41
354.633	42.32
354.845	77.14
355.057	-0.68
355.268	-12.97
355.48	13.65
355.692	36.18
355.903	32.08
356.115	105.81
356.326	-78.51
356.538	52.56
356.749	62.8
356.961	75.09
357.172	21.85
357.384	46.42
357.595	146.77
357.807	42.32
358.018	77.14
358.23	50.52
358.441	138.58
358.653	73.04
358.864	34.13
359.075	-8.87
359.287	-4.78
359.498	19.8
359.709	-25.26
359.921	87.38
360.132	60.76
360.344	50.52
360.555	54.61
360.766	73.04
360.977	44.37
361.189	44.37
361.4	5.46
361.611	46.42
361.823	30.04
362.034	1.37
362.245	15.7
362.456	52.56
362.667	73.04
362.879	85.33
363.09	48.47
363.301	101.72
363.512	3.41
363.723	13.65
363.935	25.94
364.146	30.04
364.357	44.37
364.568	40.28
364.779	91.48
364.99	48.47
365.201	-2.73
365.412	54.61
365.623	-35.5
365.834	5.46
366.045	13.65
366.256	103.76
366.467	3.41
366.678	30.04
366.889	40.28
367.1	38.23
367.311	44.37
367.522	91.48
367.733	58.71
367.944	97.62
368.155	-15.02
368.366	48.47
368.577	60.76
368.788	17.75
368.999	25.94
369.209	83.28
369.42	99.67
369.631	148.82
369.842	11.61
370.053	85.33
370.264	-8.87
370.474	83.28
370.685	54.61
370.896	48.47
371.107	79.19
371.317	58.71
371.528	48.47
371.739	101.72
371.95	52.56
372.16	89.43
372.371	34.13
372.582	13.65
372.792	60.76
373.003	23.89
373.214	52.56
373.424	40.28
373.635	40.28
373.846	130.39
374.056	34.13
374.267	1.37
374.477	73.04
374.688	9.56
374.898	52.56
375.109	32.08
375.319	-31.4
375.53	48.47
375.74	71
375.951	64.85
376.161	15.7
376.372	44.37
376.582	-8.87
376.793	54.61
377.003	71
377.214	66.9
377.424	58.71
377.635	91.48
377.845	83.28
378.055	124.24
378.266	-21.16
378.476	46.42
378.686	11.61
378.897	11.61
379.107	46.42
379.317	97.62
379.528	71
379.738	81.24
379.948	-21.16
380.158	81.24
380.369	48.47
380.579	32.08
380.789	66.9
380.999	38.23
381.21	36.18
381.42	-8.87
381.63	46.42
381.84	85.33
382.05	85.33
382.261	-6.83
382.471	79.19
382.681	85.33
382.891	81.24
383.101	93.52
383.311	-37.55
383.521	93.52
383.731	34.13
383.941	40.28
384.151	66.9
384.361	-19.11
384.571	134.48
384.781	48.47
384.991	140.63
385.201	146.77
385.411	79.19
385.621	71
385.831	68.95
386.041	52.56
386.251	40.28
386.461	122.2
386.671	62.8
386.881	89.43
387.091	19.8
387.301	73.04
387.511	85.33
387.72	118.1
387.93	50.52
388.14	46.42
388.35	34.13
388.56	30.04
388.769	54.61
388.979	21.85
389.189	54.61
389.399	118.1
389.609	36.18
389.818	64.85
390.028	32.08
390.238	34.13
390.447	42.32
390.657	83.28
390.867	64.85
391.076	44.37
391.286	1.37
391.496	159.06
391.705	140.63
391.915	77.14
392.125	138.58
392.334	68.95
392.544	58.71
392.753	124.24
392.963	83.28
393.172	23.89
393.382	50.52
393.591	64.85
393.801	60.76
394.01	40.28
394.22	101.72
394.429	27.99
394.639	116.05
394.848	107.86
395.058	73.04
395.267	85.33
395.477	17.75
395.686	132.44
395.895	116.05
396.105	87.38
396.314	91.48
396.524	77.14
396.733	154.96
396.942	64.85
397.152	105.81
397.361	48.47
397.57	122.2
397.78	83.28
397.989	7.51
398.198	66.9
398.407	64.85
398.617	73.04
398.826	118.1
399.035	68.95
399.244	81.24
399.453	93.52
399.663	126.29
399.872	105.81
400.081	157.01
400.29	136.53
400.499	87.38
400.708	195.92
400.917	142.68
401.127	132.44
401.336	89.43
401.545	138.58
401.754	140.63
401.963	169.3
402.172	44.37
402.381	159.06
402.59	95.57
402.799	105.81
403.008	118.1
403.217	130.39
403.426	152.91
403.635	79.19
403.844	154.96
404.053	200.02
404.262	128.34
404.471	189.78
404.68	128.34
404.888	99.67
405.097	159.06
405.306	89.43
405.515	132.44
405.724	101.72
405.933	101.72
406.142	183.63
406.35	167.25
406.559	234.83
406.768	152.91
406.977	200.02
407.185	171.35
407.394	118.1
407.603	212.31
407.812	193.87
408.02	269.65
408.229	159.06
408.438	177.49
408.646	228.69
408.855	273.75
409.064	286.03
409.272	204.11
409.481	191.83
409.69	224.59
409.898	320.85
410.107	261.46
410.315	286.03
410.524	245.07
410.733	384.34
410.941	308.56
411.15	304.46
411.358	337.23
411.567	406.86
411.775	298.32
411.984	378.19
412.192	396.62
412.401	470.35
412.609	451.92
412.818	421.2
413.026	517.45
413.234	515.41
413.443	456.01
413.651	384.34
413.86	560.46
414.068	531.79
414.276	628.04
414.485	574.8
414.693	623.95
414.901	707.91
415.11	593.23
415.318	552.27
415.526	621.9
415.734	623.95
415.943	773.45
416.151	787.79
416.359	728.39
416.567	841.03
416.776	771.4
416.984	959.81
417.192	851.27
417.4	871.75
417.608	943.43
417.817	1006.92
418.025	1045.83
418.233	1113.41
418.441	1017.16
418.649	1097.03
418.857	1101.12
419.065	1156.42
419.273	1150.28
419.481	1242.43
419.689	1387.84
419.897	1310.02
420.105	1410.37
420.313	1408.32
420.521	1443.14
420.729	1516.86
420.937	1580.35
421.145	1639.74
421.353	1641.79
421.561	1766.71
421.769	1770.81
421.977	1926.46
422.185	1920.31
422.393	1946.94
422.601	2135.35
422.809	2188.6
423.017	2329.91
423.224	2170.16
423.432	2211.12
423.64	2274.61
423.848	2493.74
424.056	2383.15
424.263	2696.49
424.471	2739.5
424.679	2790.7
424.887	2835.75
425.094	2899.24
425.302	2942.25
425.51	3130.66
425.718	3046.69
425.925	3233.06
426.133	3241.25
426.341	3374.37
426.548	3665.18
426.756	3548.45
426.964	3706.14
427.171	3841.31
427.379	3906.84
427.586	3917.08
427.794	4052.25
428.001	4295.96
428.209	4580.62
428.417	4496.66
428.624	4685.07
428.832	4779.28
429.039	4693.26
429.247	4902.15
429.454	5102.86
429.662	5453.06
429.869	5233.93
430.076	5631.23
430.284	5539.07
430.491	5539.07
430.699	5874.94
430.906	5911.8
431.114	6032.63
431.321	6229.24
431.528	6290.68
431.736	6649.07
431.943	7150.82
432.15	6780.14
432.358	6886.64
432.565	7484.64
432.772	7404.77
432.979	7576.8
433.187	7564.51
433.394	7730.4
433.601	8266.97
433.808	8381.65
434.016	8305.88
434.223	8578.26
434.43	9100.49
434.637	8793.3
434.844	9647.3
435.052	9874.62
435.259	9721.02
435.466	9798.85
435.673	9647.3
435.88	10501.3
436.087	10927.28
436.294	10835.12
436.501	10689.71
436.708	10675.38
436.915	11254.95
437.122	11662.5
437.329	11418.79
437.537	12004.51
437.743	12358.81
437.95	12051.61
438.157	12895.38
438.364	13241.48
438.571	12977.3
438.778	13298.83
438.985	14417.02
439.192	13939.84
439.399	14484.6
439.606	13952.13
439.813	14726.26
440.02	15549.54
440.227	15309.93
440.433	15279.21
440.64	15443.05
440.847	15496.3
441.054	15909.99
441.261	17007.7
441.467	16989.27
441.674	17390.67
441.881	17902.66
442.088	17759.3
442.294	17433.68
442.501	17761.35
442.708	18394.17
442.914	19022.9
443.121	19604.52
443.328	19188.78
443.534	20591.64
443.741	20128.8
443.948	19952.68
444.154	21474.32
444.361	20970.52
444.568	21124.11
444.774	21068.82
444.981	21531.66
445.187	22275.07
445.394	23266.29
445.6	22600.7
445.807	25060.31
446.013	23774.19
446.22	24685.53
446.426	25519.06
446.633	25879.5
446.839	26338.24
447.046	25232.34
447.252	26586.05
447.459	26635.2
447.665	26545.09
447.871	27446.19
448.078	29117.34
448.284	27589.55
448.491	28533.67
448.697	29399.96
448.903	29658
449.11	29930.38
449.316	29311.89
449.522	29596.56
449.728	30698.37
449.935	30974.84
450.141	30880.64
450.347	31619.95
450.553	30428.04
450.76	30950.27
450.966	31904.62
451.172	31417.21
451.378	32328.55
451.584	31826.8
451.791	32129.9
451.997	32101.23
452.203	32809.82
452.409	32936.8
452.615	32496.49
452.821	31419.25
453.027	30856.06
453.233	32400.23
453.44	31574.9
453.646	31441.78
453.852	31540.08
454.058	32185.19
454.264	31345.53
454.47	32041.84
454.676	31042.43
454.882	31957.87
455.088	29266.84
455.294	29899.66
455.5	30190.47
455.705	30593.92
455.911	29135.77
456.117	28208.04
456.323	27857.84
456.529	26317.76
456.735	27540.4
456.941	27009.98
457.147	26563.52
457.352	25603.02
457.558	25367.51
457.764	25912.27
457.97	24863.71
458.176	24521.7
458.381	24609.76
458.587	23184.37
458.793	23505.9
458.999	22066.18
459.204	23626.73
459.41	23045.11
459.616	21550.09
459.821	21384.21
460.027	21568.52
460.233	20810.78
460.438	19964.96
460.644	20108.32
460.85	19104.82
461.055	18857.01
461.261	18762.81
461.466	17368.14
461.672	16882.77
461.878	17957.96
462.083	17095.76
462.289	16743.51
462.494	16555.1
462.7	15639.65
462.905	15449.19
463.111	15705.19
463.316	15989.86
463.522	15813.73
463.727	15645.8
463.932	15565.93
464.138	15211.63
464.343	15598.7
464.549	15086.7
464.754	15469.67
464.959	15492.2
465.165	15354.99
465.37	14638.2
465.575	14376.06
465.781	14867.57
465.986	14959.73
466.191	14300.28
466.397	14132.35
466.602	13565.06
466.807	14124.16
467.012	14038.14
467.218	13954.18
467.423	13606.02
467.628	13929.6
467.833	14466.17
468.038	13841.54
468.244	13610.12
