Data from USB4F104151__63__11-06-03-026.txt Node

Date: Wed Mar 12 11:06:03 EDT 2025
User: louis
Spectrometer: USB4F10415
Trigger mode: 4
Integration Time (sec): 2.000000E-2
Scans to average: 1
Electric dark correction enabled: true
Nonlinearity correction enabled: false
Boxcar width: 0
XAxis mode: Wavelengths
Number of Pixels in Spectrum: 3648
>>>>>Begin Spectral Data<<<<<
178.204	-8.02
178.424	-8.02
178.644	-8.02
178.864	-26.45
179.084	-65.36
179.304	26.79
179.524	-67.41
179.744	-28.5
179.964	-28.5
180.184	4.27
180.404	43.18
180.624	0.17
180.844	-55.12
181.064	-8.02
181.283	30.89
181.503	34.99
181.723	47.27
181.943	30.89
182.163	-10.07
182.383	-34.64
182.602	59.56
182.822	108.71
183.042	-38.74
183.262	24.75
183.482	8.36
183.701	53.42
183.921	-16.21
184.141	47.27
184.361	26.79
184.58	30.89
184.8	-3.93
185.02	-8.02
185.239	59.56
185.459	51.37
185.679	39.08
185.898	4.27
186.118	0.17
186.338	-20.31
186.557	32.94
186.777	-22.36
186.997	63.66
187.216	-65.36
187.436	51.37
187.655	-8.02
187.875	96.43
188.095	51.37
188.314	104.62
188.534	77.99
188.753	-20.31
188.973	20.65
189.192	-16.21
189.412	18.6
189.631	-1.88
189.851	-36.69
190.07	18.6
190.29	6.31
190.509	55.47
190.729	-8.02
190.948	39.08
191.168	26.79
191.387	67.75
191.607	-14.17
191.826	28.84
192.045	88.23
192.265	39.08
192.484	43.18
192.704	10.41
192.923	-8.02
193.142	57.51
193.362	75.95
193.581	41.13
193.8	8.36
194.02	82.09
194.239	4.27
194.458	-24.4
194.678	16.55
194.897	45.23
195.116	32.94
195.335	63.66
195.555	-28.5
195.774	0.17
195.993	4.27
196.212	10.41
196.432	59.56
196.651	-44.88
196.87	-1.88
197.089	14.51
197.308	-5.97
197.528	-18.26
197.747	-59.22
197.966	28.84
198.185	47.27
198.404	24.75
198.623	22.7
198.842	51.37
199.062	-3.93
199.281	-5.97
199.5	12.46
199.719	53.42
199.938	18.6
200.157	67.75
200.376	45.23
200.595	47.27
200.814	4.27
201.033	28.84
201.252	51.37
201.471	69.8
201.69	26.79
201.909	82.09
202.128	-28.5
202.347	43.18
202.566	63.66
202.785	2.22
203.004	6.31
203.223	80.04
203.442	45.23
203.661	-26.45
203.879	39.08
204.098	22.7
204.317	0.17
204.536	59.56
204.755	55.47
204.974	-30.55
205.193	51.37
205.411	110.76
205.63	-12.12
205.849	2.22
206.068	18.6
206.287	10.41
206.505	53.42
206.724	8.36
206.943	-14.17
207.162	2.22
207.381	-12.12
207.599	-26.45
207.818	-16.21
208.037	8.36
208.255	-12.12
208.474	-36.69
208.693	37.03
208.911	30.89
209.13	24.75
209.349	43.18
209.567	-26.45
209.786	59.56
210.005	73.9
210.223	-48.98
210.442	-1.88
210.661	2.22
210.879	4.27
211.098	30.89
211.316	82.09
211.535	51.37
211.753	4.27
211.972	71.85
212.191	24.75
212.409	92.33
212.628	-40.79
212.846	34.99
213.065	20.65
213.283	-12.12
213.502	-28.5
213.72	22.7
213.938	37.03
214.157	20.65
214.375	96.43
214.594	4.27
214.812	14.51
215.031	47.27
215.249	-28.5
215.467	65.71
215.686	65.71
215.904	118.95
216.122	92.33
216.341	26.79
216.559	88.23
216.778	67.75
216.996	71.85
217.214	-14.17
217.432	24.75
217.651	49.32
217.869	-38.74
218.087	-44.88
218.306	2.22
218.524	16.55
218.742	75.95
218.96	69.8
219.179	-12.12
219.397	100.52
219.615	4.27
219.833	22.7
220.051	20.65
220.27	-18.26
220.488	45.23
220.706	18.6
220.924	2.22
221.142	0.17
221.36	53.42
221.578	18.6
221.796	112.81
222.015	-8.02
222.233	-12.12
222.451	4.27
222.669	16.55
222.887	45.23
223.105	-51.03
223.323	37.03
223.541	-71.51
223.759	18.6
223.977	-5.97
224.195	-10.07
224.413	61.61
224.631	69.8
224.849	-3.93
225.067	8.36
225.285	-46.93
225.503	16.55
225.721	18.6
225.939	32.94
226.157	-5.97
226.375	53.42
226.592	16.55
226.81	37.03
227.028	73.9
227.246	57.51
227.464	-38.74
227.682	26.79
227.9	24.75
228.117	75.95
228.335	12.46
228.553	10.41
228.771	77.99
228.989	-1.88
229.206	-38.74
229.424	55.47
229.642	110.76
229.86	-24.4
230.077	32.94
230.295	16.55
230.513	37.03
230.731	10.41
230.948	47.27
231.166	-16.21
231.384	47.27
231.601	30.89
231.819	10.41
232.037	69.8
232.254	-36.69
232.472	16.55
232.689	61.61
232.907	108.71
233.125	6.31
233.342	-55.12
233.56	-16.21
233.777	0.17
233.995	-40.79
234.213	32.94
234.43	-16.21
234.648	30.89
234.865	18.6
235.083	123.05
235.3	55.47
235.518	59.56
235.735	49.32
235.953	34.99
236.17	30.89
236.388	61.61
236.605	34.99
236.822	22.7
237.04	41.13
237.257	24.75
237.475	-26.45
237.692	-8.02
237.909	63.66
238.127	84.14
238.344	2.22
238.562	77.99
238.779	-61.27
238.996	2.22
239.214	51.37
239.431	-10.07
239.648	-24.4
239.865	0.17
240.083	49.32
240.3	-3.93
240.517	-61.27
240.735	-26.45
240.952	14.51
241.169	8.36
241.386	20.65
241.603	41.13
241.821	16.55
242.038	-1.88
242.255	18.6
242.472	-5.97
242.689	45.23
242.907	127.14
243.124	-75.6
243.341	41.13
243.558	86.19
243.775	28.84
243.992	-57.17
244.209	-3.93
244.426	10.41
244.643	102.57
244.86	18.6
245.078	34.99
245.295	30.89
245.512	45.23
245.729	-61.27
245.946	18.6
246.163	20.65
246.38	59.56
246.597	45.23
246.814	39.08
247.031	24.75
247.248	12.46
247.464	39.08
247.681	90.28
247.898	26.79
248.115	43.18
248.332	-20.31
248.549	71.85
248.766	20.65
248.983	65.71
249.2	86.19
249.417	53.42
249.633	94.38
249.85	30.89
250.067	75.95
250.284	39.08
250.501	-14.17
250.717	41.13
250.934	12.46
251.151	0.17
251.368	24.75
251.585	59.56
251.801	102.57
252.018	12.46
252.235	69.8
252.451	16.55
252.668	-8.02
252.885	43.18
253.102	-3.93
253.318	55.47
253.535	30.89
253.752	26.79
253.968	6.31
254.185	-5.97
254.401	30.89
254.618	43.18
254.835	8.36
255.051	65.71
255.268	18.6
255.484	63.66
255.701	16.55
255.917	22.7
256.134	-69.46
256.351	90.28
256.567	-28.5
256.784	-3.93
257	-18.26
257.217	10.41
257.433	67.75
257.65	41.13
257.866	47.27
258.082	53.42
258.299	20.65
258.515	26.79
258.732	-10.07
258.948	22.7
259.165	8.36
259.381	0.17
259.597	-26.45
259.814	55.47
260.03	34.99
260.246	45.23
260.463	55.47
260.679	65.71
260.895	49.32
261.112	71.85
261.328	37.03
261.544	69.8
261.761	96.43
261.977	55.47
262.193	-24.4
262.409	34.99
262.626	30.89
262.842	67.75
263.058	-16.21
263.274	98.47
263.49	-87.89
263.707	-12.12
263.923	53.42
264.139	-16.21
264.355	2.22
264.571	100.52
264.787	82.09
265.004	4.27
265.22	-5.97
265.436	-18.26
265.652	-22.36
265.868	51.37
266.084	61.61
266.3	-14.17
266.516	-28.5
266.732	53.42
266.948	-22.36
267.164	28.84
267.38	20.65
267.596	88.23
267.812	59.56
268.028	65.71
268.244	43.18
268.46	71.85
268.676	90.28
268.892	45.23
269.108	4.27
269.324	-18.26
269.54	-38.74
269.756	34.99
269.972	10.41
270.188	-20.31
270.403	-14.17
270.619	45.23
270.835	88.23
271.051	-42.84
271.267	-26.45
271.483	2.22
271.698	30.89
271.914	30.89
272.13	108.71
272.346	47.27
272.562	14.51
272.777	75.95
272.993	14.51
273.209	20.65
273.425	-5.97
273.64	12.46
273.856	55.47
274.072	45.23
274.287	20.65
274.503	133.29
274.719	100.52
274.934	14.51
275.15	-51.03
275.366	39.08
275.581	16.55
275.797	0.17
276.012	-20.31
276.228	75.95
276.444	53.42
276.659	73.9
276.875	57.51
277.09	-26.45
277.306	-5.97
277.521	59.56
277.737	32.94
277.952	32.94
278.168	39.08
278.383	53.42
278.599	-30.55
278.814	71.85
279.03	53.42
279.245	71.85
279.461	-8.02
279.676	26.79
279.892	22.7
280.107	24.75
280.322	-32.6
280.538	16.55
280.753	43.18
280.969	135.34
281.184	6.31
281.399	49.32
281.615	80.04
281.83	39.08
282.045	-26.45
282.26	12.46
282.476	6.31
282.691	75.95
282.906	-28.5
283.122	-32.6
283.337	28.84
283.552	75.95
283.767	53.42
283.983	71.85
284.198	108.71
284.413	114.86
284.628	-20.31
284.843	12.46
285.058	43.18
285.274	16.55
285.489	73.9
285.704	37.03
285.919	28.84
286.134	2.22
286.349	18.6
286.564	2.22
286.779	73.9
286.995	32.94
287.21	0.17
287.425	51.37
287.64	-16.21
287.855	20.65
288.07	-48.98
288.285	4.27
288.5	26.79
288.715	69.8
288.93	96.43
289.145	-51.03
289.36	14.51
289.575	98.47
289.79	16.55
290.004	69.8
290.219	12.46
290.434	32.94
290.649	18.6
290.864	-10.07
291.079	-8.02
291.294	12.46
291.509	-8.02
291.724	59.56
291.938	51.37
292.153	-34.64
292.368	-20.31
292.583	12.46
292.798	-20.31
293.012	53.42
293.227	34.99
293.442	-5.97
293.657	73.9
293.871	53.42
294.086	24.75
294.301	26.79
294.516	-46.93
294.73	24.75
294.945	41.13
295.16	45.23
295.374	49.32
295.589	84.14
295.804	-5.97
296.018	49.32
296.233	73.9
296.447	82.09
296.662	-5.97
296.877	106.67
297.091	84.14
297.306	-5.97
297.52	18.6
297.735	59.56
297.949	114.86
298.164	61.61
298.378	69.8
298.593	39.08
298.807	45.23
299.022	8.36
299.236	30.89
299.451	51.37
299.665	82.09
299.88	26.79
300.094	71.85
300.309	69.8
300.523	24.75
300.737	61.61
300.952	-24.4
301.166	8.36
301.381	-5.97
301.595	20.65
301.809	57.51
302.024	8.36
302.238	96.43
302.452	67.75
302.667	92.33
302.881	-12.12
303.095	10.41
303.309	16.55
303.524	8.36
303.738	10.41
303.952	77.99
304.166	12.46
304.381	18.6
304.595	30.89
304.809	-38.74
305.023	-5.97
305.237	69.8
305.452	39.08
305.666	118.95
305.88	6.31
306.094	-12.12
306.308	112.81
306.522	73.9
306.736	32.94
306.95	0.17
307.164	28.84
307.379	26.79
307.593	69.8
307.807	20.65
308.021	80.04
308.235	67.75
308.449	-8.02
308.663	45.23
308.877	82.09
309.091	53.42
309.305	59.56
309.519	41.13
309.733	80.04
309.947	-55.12
310.161	32.94
310.374	20.65
310.588	96.43
310.802	45.23
311.016	82.09
311.23	82.09
311.444	-10.07
311.658	-3.93
311.872	45.23
312.085	8.36
312.299	127.14
312.513	69.8
312.727	0.17
312.941	12.46
313.154	8.36
313.368	8.36
313.582	4.27
313.796	20.65
314.009	47.27
314.223	73.9
314.437	98.47
314.651	32.94
314.864	47.27
315.078	18.6
315.292	-12.12
315.505	73.9
315.719	12.46
315.933	-5.97
316.146	30.89
316.36	63.66
316.573	22.7
316.787	-5.97
317.001	100.52
317.214	-3.93
317.428	32.94
317.641	-10.07
317.855	-3.93
318.068	116.9
318.282	63.66
318.495	98.47
318.709	63.66
318.922	20.65
319.136	104.62
319.349	41.13
319.563	26.79
319.776	24.75
319.99	47.27
320.203	41.13
320.417	12.46
320.63	-20.31
320.843	12.46
321.057	43.18
321.27	-16.21
321.483	80.04
321.697	34.99
321.91	4.27
322.124	53.42
322.337	104.62
322.55	32.94
322.763	32.94
322.977	92.33
323.19	30.89
323.403	22.7
323.617	-22.36
323.83	6.31
324.043	-55.12
324.256	8.36
324.469	4.27
324.683	2.22
324.896	16.55
325.109	67.75
325.322	34.99
325.535	6.31
325.748	65.71
325.962	57.51
326.175	18.6
326.388	94.38
326.601	82.09
326.814	-1.88
327.027	61.61
327.24	112.81
327.453	-8.02
327.666	6.31
327.879	22.7
328.092	69.8
328.305	8.36
328.518	16.55
328.731	34.99
328.944	-5.97
329.157	12.46
329.37	6.31
329.583	32.94
329.796	61.61
330.009	-12.12
330.222	-8.02
330.435	20.65
330.648	59.56
330.861	-18.26
331.073	49.32
331.286	39.08
331.499	57.51
331.712	18.6
331.925	133.29
332.138	-8.02
332.35	82.09
332.563	67.75
332.776	41.13
332.989	14.51
333.202	71.85
333.414	20.65
333.627	71.85
333.84	53.42
334.053	30.89
334.265	18.6
334.478	24.75
334.691	12.46
334.903	45.23
335.116	22.7
335.329	26.79
335.541	57.51
335.754	-8.02
335.966	14.51
336.179	47.27
336.392	-24.4
336.604	20.65
336.817	47.27
337.029	34.99
337.242	41.13
337.454	98.47
337.667	51.37
337.88	20.65
338.092	20.65
338.305	-10.07
338.517	6.31
338.729	16.55
338.942	45.23
339.154	24.75
339.367	41.13
339.579	-8.02
339.792	53.42
340.004	65.71
340.217	-10.07
340.429	59.56
340.641	37.03
340.854	57.51
341.066	4.27
341.278	49.32
341.491	10.41
341.703	41.13
341.915	-61.27
342.128	53.42
342.34	84.14
342.552	67.75
342.764	67.75
342.977	67.75
343.189	-14.17
343.401	18.6
343.613	26.79
343.826	30.89
344.038	61.61
344.25	49.32
344.462	-18.26
344.674	12.46
344.886	82.09
345.099	59.56
345.311	94.38
345.523	118.95
345.735	-83.8
345.947	57.51
346.159	59.56
346.371	32.94
346.583	43.18
346.795	92.33
347.007	30.89
347.219	106.67
347.431	-14.17
347.643	96.43
347.855	84.14
348.067	45.23
348.279	86.19
348.491	59.56
348.703	47.27
348.915	-71.51
349.127	77.99
349.339	-48.98
349.551	8.36
349.763	16.55
349.975	12.46
350.187	73.9
350.399	47.27
350.61	94.38
350.822	59.56
351.034	51.37
351.246	65.71
351.458	32.94
351.669	28.84
351.881	67.75
352.093	98.47
352.305	92.33
352.517	102.57
352.728	121
352.94	102.57
353.152	71.85
353.363	20.65
353.575	18.6
353.787	41.13
353.999	65.71
354.21	65.71
354.422	73.9
354.633	12.46
354.845	-1.88
355.057	30.89
355.268	86.19
355.48	63.66
355.692	-73.56
355.903	28.84
356.115	53.42
356.326	26.79
356.538	51.37
356.749	49.32
356.961	77.99
357.172	-12.12
357.384	-32.6
357.595	118.95
357.807	12.46
358.018	59.56
358.23	20.65
358.441	131.24
358.653	90.28
358.864	8.36
359.075	45.23
359.287	88.23
359.498	30.89
359.709	86.19
359.921	37.03
360.132	-22.36
360.344	61.61
360.555	12.46
360.766	0.17
360.977	22.7
361.189	57.51
361.4	24.75
361.611	0.17
361.823	116.9
362.034	47.27
362.245	69.8
362.456	135.34
362.667	86.19
362.879	92.33
363.09	80.04
363.301	53.42
363.512	30.89
363.723	59.56
363.935	39.08
364.146	47.27
364.357	39.08
364.568	47.27
364.779	73.9
364.99	32.94
365.201	90.28
365.412	45.23
365.623	63.66
365.834	80.04
366.045	28.84
366.256	2.22
366.467	30.89
366.678	53.42
366.889	16.55
367.1	73.9
367.311	34.99
367.522	61.61
367.733	43.18
367.944	94.38
368.155	59.56
368.366	96.43
368.577	28.84
368.788	90.28
368.999	-12.12
369.209	82.09
369.42	65.71
369.631	41.13
369.842	69.8
370.053	118.95
370.264	84.14
370.474	135.34
370.685	-8.02
370.896	65.71
371.107	75.95
371.317	59.56
371.528	53.42
371.739	110.76
371.95	18.6
372.16	67.75
372.371	28.84
372.582	67.75
372.792	108.71
373.003	61.61
373.214	-12.12
373.424	0.17
373.635	82.09
373.846	24.75
374.056	34.99
374.267	18.6
374.477	71.85
374.688	34.99
374.898	110.76
375.109	73.9
375.319	94.38
375.53	30.89
375.74	75.95
375.951	47.27
376.161	71.85
376.372	94.38
376.582	24.75
376.793	104.62
377.003	73.9
377.214	26.79
377.424	8.36
377.635	18.6
377.845	22.7
378.055	127.14
378.266	57.51
378.476	57.51
378.686	-10.07
378.897	75.95
379.107	65.71
379.317	63.66
379.528	88.23
379.738	82.09
379.948	51.37
380.158	96.43
380.369	61.61
380.579	116.9
380.789	77.99
380.999	65.71
381.21	-46.93
381.42	61.61
381.63	92.33
381.84	75.95
382.05	0.17
382.261	4.27
382.471	67.75
382.681	49.32
382.891	90.28
383.101	61.61
383.311	39.08
383.521	57.51
383.731	86.19
383.941	84.14
384.151	4.27
384.361	61.61
384.571	32.94
384.781	80.04
384.991	77.99
385.201	75.95
385.411	49.32
385.621	100.52
385.831	100.52
386.041	39.08
386.251	26.79
386.461	98.47
386.671	84.14
386.881	106.67
387.091	12.46
387.301	32.94
387.511	20.65
387.72	84.14
387.93	77.99
388.14	61.61
388.35	55.47
388.56	143.53
388.769	129.19
388.979	80.04
389.189	2.22
389.399	12.46
389.609	90.28
389.818	41.13
390.028	49.32
390.238	69.8
390.447	43.18
390.657	57.51
390.867	47.27
391.076	4.27
391.286	55.47
391.496	26.79
391.705	39.08
391.915	34.99
392.125	104.62
392.334	143.53
392.544	82.09
392.753	49.32
392.963	28.84
393.172	106.67
393.382	14.51
393.591	137.38
393.801	84.14
394.01	61.61
394.22	73.9
394.429	65.71
394.639	125.1
394.848	55.47
395.058	41.13
395.267	49.32
395.477	77.99
395.686	28.84
395.895	131.24
396.105	77.99
396.314	59.56
396.524	96.43
396.733	63.66
396.942	182.44
397.152	135.34
397.361	69.8
397.57	116.9
397.78	63.66
397.989	131.24
398.198	123.05
398.407	75.95
398.617	123.05
398.826	114.86
399.035	106.67
399.244	118.95
399.453	92.33
399.663	108.71
399.872	73.9
400.081	104.62
400.29	45.23
400.499	106.67
400.708	92.33
400.917	129.19
401.127	137.38
401.336	155.82
401.545	110.76
401.754	157.86
401.963	116.9
402.172	112.81
402.381	41.13
402.59	133.29
402.799	180.39
403.008	127.14
403.217	90.28
403.426	75.95
403.635	131.24
403.844	149.67
404.053	131.24
404.262	155.82
404.471	123.05
404.68	118.95
404.888	90.28
405.097	123.05
405.306	106.67
405.515	155.82
405.724	209.06
405.933	145.58
406.142	180.39
406.35	209.06
406.559	123.05
406.768	151.72
406.977	268.45
407.185	153.77
407.394	182.44
407.603	194.73
407.812	176.3
408.02	209.06
408.229	186.54
408.438	215.21
408.646	182.44
408.855	178.34
409.064	264.36
409.272	159.91
409.481	284.84
409.69	233.64
409.898	223.4
410.107	305.32
410.315	303.27
410.524	278.69
410.733	252.07
410.941	262.31
411.15	272.55
411.358	352.42
411.567	321.7
411.775	342.18
411.984	362.66
412.192	415.91
412.401	395.43
412.609	358.57
412.818	395.43
413.026	397.48
413.234	487.59
413.443	483.49
413.651	417.96
413.86	469.16
414.068	473.25
414.276	565.41
414.485	561.31
414.693	565.41
414.901	696.48
415.11	651.42
415.318	600.23
415.526	671.9
415.734	669.86
415.943	714.91
416.151	782.49
416.359	776.35
416.567	800.93
416.776	831.65
416.984	837.79
417.192	852.13
417.4	829.6
417.608	946.33
417.817	942.24
418.025	948.38
418.233	999.58
418.441	1056.92
418.649	1028.25
418.857	1282.2
419.065	1218.71
419.273	1134.75
419.481	1169.56
419.689	1239.19
419.897	1441.94
420.105	1392.79
420.313	1368.21
420.521	1519.76
420.729	1472.66
420.937	1558.67
421.145	1523.86
421.353	1634.45
421.561	1687.7
421.769	1724.56
421.977	1861.77
422.185	1773.71
422.393	1896.59
422.601	1945.74
422.809	1915.02
423.017	2080.91
423.224	2128.01
423.432	2191.5
423.64	2293.9
423.848	2386.05
424.056	2433.16
424.263	2498.69
424.471	2640
424.679	2695.3
424.887	2822.27
425.094	2852.99
425.302	2869.37
425.51	2996.35
425.718	3049.6
425.925	3022.97
426.133	3201.15
426.341	3326.07
426.548	3584.12
426.756	3580.02
426.964	3764.34
427.171	3825.78
427.379	3897.46
427.586	3909.74
427.794	4094.06
428.001	4309.1
428.209	4536.42
428.417	4278.38
428.624	4757.6
428.832	4784.23
429.039	4690.02
429.247	4655.2
429.454	5185.63
429.662	5478.49
429.869	5116
430.076	5394.52
430.284	5400.66
430.491	5433.43
430.699	5916.75
430.906	5943.38
431.114	6049.87
431.321	6109.26
431.528	6455.37
431.736	6645.83
431.943	7094.33
432.15	6973.5
432.358	6889.54
432.565	7123.01
432.772	7272.51
432.979	7571.51
433.187	7882.8
433.394	7868.47
433.601	8155.18
433.808	8216.62
434.016	8333.36
434.223	8775.72
434.43	9091.1
434.637	8908.83
434.844	9512.99
435.052	9803.8
435.259	9564.18
435.466	9969.68
435.673	9445.4
435.88	10203.15
436.087	10539.02
436.294	10663.94
436.501	10592.27
436.708	10868.74
436.915	11372.54
437.122	11847.67
437.329	11689.98
437.537	11911.16
437.743	12330.99
437.95	11993.08
438.157	12869.61
438.364	13191.14
438.571	13051.88
438.778	13189.09
438.985	14442.45
439.192	13903.83
439.399	14374.86
439.606	14104.53
439.813	14831.56
440.02	15740.86
440.227	15495.1
440.433	15208.39
440.64	15708.09
440.847	15882.17
441.054	16132.02
441.261	17203.11
441.467	17037.22
441.674	17362.85
441.881	18055.06
442.088	17825.69
442.294	17536.93
442.501	18210.71
442.708	18679.69
442.914	19335.04
443.121	20017.02
443.328	19642.24
443.534	21002.09
443.741	20416.37
443.948	19912.57
444.154	21716.83
444.361	21438.31
444.568	21667.68
444.774	21647.2
444.981	21798.75
445.187	22386.52
445.394	23740.22
445.6	23324.49
445.807	25519.91
446.013	24502.07
446.22	24540.98
446.426	25702.18
446.633	25933.6
446.839	26730.26
447.046	25900.83
447.252	27234.06
447.459	27012.88
447.665	26871.57
447.871	27963.14
448.078	29406.95
448.284	28043.01
448.491	28837.62
448.697	29894.37
448.903	30152.41
449.11	30467.8
449.316	29937.38
449.522	30318.3
449.728	31600.33
449.935	31678.15
450.141	31647.43
450.347	32038.59
450.553	31160.02
450.76	31577.8
450.966	32456.38
451.172	32159.42
451.378	32941.75
451.584	32761.53
451.791	33005.24
451.997	32919.22
452.203	33361.58
452.409	33283.76
452.615	33015.47
452.821	32134.85
453.027	31727.3
453.233	33060.53
453.44	31823.56
453.646	32440
453.852	32569.02
454.058	32779.96
454.264	31725.25
454.47	32360.12
454.676	31983.3
454.882	32671.42
455.088	29830.88
455.294	30263
455.5	30695.13
455.705	30963.41
455.911	29515.5
456.117	29253.36
456.323	28935.92
456.529	27240.2
456.735	28180.22
456.941	27727.62
457.147	26910.48
457.352	26335
457.558	26238.75
457.764	26130.2
457.97	25481
458.176	25134.89
458.381	24991.53
458.587	23723.84
458.793	23541.57
458.999	22540.11
459.204	23865.15
459.41	23543.62
459.616	22056.79
459.821	22040.41
460.027	22107.99
460.233	21360.48
460.438	20492.15
460.644	20748.14
460.85	19527.55
461.055	19498.88
461.261	19068.81
461.466	17823.64
461.672	17624.99
461.878	18626.45
462.083	17629.09
462.289	17239.97
462.494	16801.71
462.7	16132.02
462.905	15515.58
463.111	16289.71
463.316	16422.83
463.522	16097.21
463.727	16003
463.932	15804.35
464.138	15820.73
464.343	15865.78
464.549	15505.34
464.754	16033.72
464.959	15921.08
465.165	15577.02
465.37	15103.94
465.575	14645.2
465.781	15052.74
465.986	15292.35
466.191	14776.27
466.397	14446.54
466.602	13664.22
466.807	14381.01
467.012	14335.95
467.218	14372.82
467.423	14098.39
467.628	14276.56
467.833	14913.48
468.038	14401.49
468.244	13924.31
