Data from USB4F104151__91__11-06-44-201.txt Node

Date: Wed Mar 12 11:06:44 EDT 2025
User: louis
Spectrometer: USB4F10415
Trigger mode: 4
Integration Time (sec): 2.000000E-2
Scans to average: 1
Electric dark correction enabled: true
Nonlinearity correction enabled: false
Boxcar width: 0
XAxis mode: Wavelengths
Number of Pixels in Spectrum: 3648
>>>>>Begin Spectral Data<<<<<
178.204	-74.07
178.424	-74.07
178.644	-74.07
178.864	-110.93
179.084	-106.84
179.304	-69.97
179.524	26.28
179.744	30.38
179.964	-4.44
180.184	32.43
180.404	36.52
180.624	-2.39
180.844	-43.35
181.064	-72.02
181.283	18.09
181.503	-6.49
181.723	54.95
181.943	-102.74
182.163	1.71
182.383	-57.68
182.602	46.76
182.822	-10.58
183.042	38.57
183.262	-4.44
183.482	5.8
183.701	104.11
183.921	-4.44
184.141	-0.34
184.361	42.67
184.58	20.14
184.8	-41.3
185.02	34.47
185.239	-29.01
185.459	-39.25
185.679	-10.58
185.898	34.47
186.118	40.62
186.338	-14.68
186.557	36.52
186.777	-18.77
186.997	1.71
187.216	-131.41
187.436	38.57
187.655	38.57
187.875	-26.96
188.095	-22.87
188.314	42.67
188.534	46.76
188.753	20.14
188.973	-0.34
189.192	-18.77
189.412	24.23
189.631	5.8
189.851	3.75
190.07	34.47
190.29	46.76
190.509	28.33
190.729	-12.63
190.948	73.39
191.168	42.67
191.387	77.48
191.607	-45.4
191.826	-14.68
192.045	36.52
192.265	20.14
192.484	-35.16
192.704	63.15
192.923	22.19
193.142	22.19
193.362	-2.39
193.581	-45.4
193.8	9.9
194.02	5.8
194.239	18.09
194.458	42.67
194.678	-16.73
194.897	13.99
195.116	-31.06
195.335	-39.25
195.555	42.67
195.774	13.99
195.993	24.23
196.212	11.95
196.432	59.05
196.651	5.8
196.87	1.71
197.089	3.75
197.308	-0.34
197.528	40.62
197.747	-39.25
197.966	7.85
198.185	22.19
198.404	11.95
198.623	-47.44
198.842	-12.63
199.062	69.29
199.281	-2.39
199.5	24.23
199.719	28.33
199.938	34.47
200.157	34.47
200.376	-16.73
200.595	-35.16
200.814	61.1
201.033	22.19
201.252	67.24
201.471	-20.82
201.69	71.34
201.909	-8.53
202.128	42.67
202.347	79.53
202.566	71.34
202.785	-6.49
203.004	36.52
203.223	75.43
203.442	79.53
203.661	-31.06
203.879	65.19
204.098	54.95
204.317	18.09
204.536	61.1
204.755	-4.44
204.974	122.54
205.193	63.15
205.411	44.71
205.63	9.9
205.849	-4.44
206.068	57
206.287	54.95
206.505	77.48
206.724	13.99
206.943	3.75
207.162	71.34
207.381	36.52
207.599	-4.44
207.818	-18.77
208.037	11.95
208.255	3.75
208.474	69.29
208.693	3.75
208.911	36.52
209.13	24.23
209.349	-51.54
209.567	-22.87
209.786	-14.68
210.005	-43.35
210.223	3.75
210.442	-20.82
210.661	7.85
210.879	24.23
211.098	28.33
211.316	46.76
211.535	26.28
211.753	54.95
211.972	-8.53
212.191	-78.16
212.409	-100.69
212.628	48.81
212.846	9.9
213.065	-61.78
213.283	143.02
213.502	-0.34
213.72	48.81
213.938	1.71
214.157	59.05
214.375	24.23
214.594	42.67
214.812	-53.59
215.031	-14.68
215.249	34.47
215.467	61.1
215.686	30.38
215.904	63.15
216.122	-22.87
216.341	-26.96
216.559	-4.44
216.778	32.43
216.996	75.43
217.214	-0.34
217.432	48.81
217.651	-67.92
217.869	20.14
218.087	-29.01
218.306	-14.68
218.524	22.19
218.742	16.04
218.96	83.63
219.179	-8.53
219.397	11.95
219.615	24.23
219.833	16.04
220.051	52.91
220.27	128.68
220.488	22.19
220.706	40.62
220.924	-18.77
221.142	26.28
221.36	1.71
221.578	50.86
221.796	40.62
222.015	30.38
222.233	1.71
222.451	22.19
222.669	32.43
222.887	44.71
223.105	32.43
223.323	18.09
223.541	-12.63
223.759	1.71
223.977	11.95
224.195	59.05
224.413	1.71
224.631	22.19
224.849	22.19
225.067	52.91
225.285	24.23
225.503	-20.82
225.721	44.71
225.939	-26.96
226.157	9.9
226.375	104.11
226.592	-67.92
226.81	57
227.028	3.75
227.246	59.05
227.464	54.95
227.682	67.24
227.9	65.19
228.117	-33.11
228.335	20.14
228.553	-2.39
228.771	3.75
228.989	-0.34
229.206	-2.39
229.424	-55.64
229.642	22.19
229.86	-35.16
230.077	46.76
230.295	-12.63
230.513	32.43
230.731	24.23
230.948	3.75
231.166	7.85
231.384	-61.78
231.601	-18.77
231.819	89.77
232.037	26.28
232.254	11.95
232.472	40.62
232.689	-20.82
232.907	28.33
233.125	48.81
233.342	42.67
233.56	-16.73
233.777	30.38
233.995	34.47
234.213	75.43
234.43	-14.68
234.648	-14.68
234.865	28.33
235.083	7.85
235.3	-18.77
235.518	57
235.735	5.8
235.953	91.82
236.17	-41.3
236.388	-39.25
236.605	-8.53
236.822	104.11
237.04	-22.87
237.257	20.14
237.475	-14.68
237.692	54.95
237.909	-72.02
238.127	32.43
238.344	40.62
238.562	-16.73
238.779	-14.68
238.996	-35.16
239.214	-4.44
239.431	11.95
239.648	1.71
239.865	18.09
240.083	30.38
240.3	32.43
240.517	-2.39
240.735	-24.92
240.952	-41.3
241.169	-31.06
241.386	18.09
241.603	13.99
241.821	-2.39
242.038	38.57
242.255	9.9
242.472	-37.2
242.689	-53.59
242.907	30.38
243.124	26.28
243.341	18.09
243.558	65.19
243.775	67.24
243.992	16.04
244.209	-10.58
244.426	24.23
244.643	50.86
244.86	9.9
245.078	13.99
245.295	69.29
245.512	32.43
245.729	-26.96
245.946	-2.39
246.163	114.34
246.38	26.28
246.597	48.81
246.814	38.57
247.031	34.47
247.248	63.15
247.464	22.19
247.681	-12.63
247.898	-0.34
248.115	28.33
248.332	-55.64
248.549	50.86
248.766	3.75
248.983	38.57
249.2	-16.73
249.417	-35.16
249.633	52.91
249.85	57
250.067	30.38
250.284	122.54
250.501	-33.11
250.717	32.43
250.934	46.76
251.151	5.8
251.368	65.19
251.585	-12.63
251.801	11.95
252.018	-26.96
252.235	-2.39
252.451	-35.16
252.668	1.71
252.885	16.04
253.102	67.24
253.318	1.71
253.535	28.33
253.752	-2.39
253.968	-10.58
254.185	1.71
254.401	18.09
254.618	-26.96
254.835	7.85
255.051	48.81
255.268	9.9
255.484	65.19
255.701	30.38
255.917	-31.06
256.134	-29.01
256.351	59.05
256.567	-0.34
256.784	110.25
257	-31.06
257.217	54.95
257.433	-26.96
257.65	67.24
257.866	28.33
258.082	5.8
258.299	32.43
258.515	28.33
258.732	46.76
258.948	67.24
259.165	54.95
259.381	-63.83
259.597	46.76
259.814	32.43
260.03	22.19
260.246	11.95
260.463	79.53
260.679	65.19
260.895	-12.63
261.112	26.28
261.328	-4.44
261.544	81.58
261.761	97.96
261.977	3.75
262.193	-16.73
262.409	5.8
262.626	9.9
262.842	79.53
263.058	-47.44
263.274	93.87
263.49	7.85
263.707	7.85
263.923	83.63
264.139	34.47
264.355	9.9
264.571	40.62
264.787	-29.01
265.004	-26.96
265.22	32.43
265.436	77.48
265.652	65.19
265.868	-22.87
266.084	-6.49
266.3	5.8
266.516	9.9
266.732	52.91
266.948	18.09
267.164	28.33
267.38	5.8
267.596	-12.63
267.812	93.87
268.028	13.99
268.244	-0.34
268.46	73.39
268.676	36.52
268.892	13.99
269.108	38.57
269.324	97.96
269.54	-2.39
269.756	71.34
269.972	-39.25
270.188	30.38
270.403	63.15
270.619	36.52
270.835	11.95
271.051	-39.25
271.267	24.23
271.483	26.28
271.698	20.14
271.914	3.75
272.13	32.43
272.346	61.1
272.562	67.24
272.777	59.05
272.993	-20.82
273.209	-12.63
273.425	-20.82
273.64	-22.87
273.856	52.91
274.072	28.33
274.287	20.14
274.503	65.19
274.719	13.99
274.934	95.91
275.15	-6.49
275.366	83.63
275.581	-8.53
275.797	-51.54
276.012	18.09
276.228	-22.87
276.444	26.28
276.659	36.52
276.875	-37.2
277.09	54.95
277.306	28.33
277.521	22.19
277.737	-20.82
277.952	42.67
278.168	36.52
278.383	40.62
278.599	34.47
278.814	-14.68
279.03	71.34
279.245	50.86
279.461	-57.68
279.676	54.95
279.892	54.95
280.107	67.24
280.322	-24.92
280.538	-0.34
280.753	46.76
280.969	77.48
281.184	73.39
281.399	61.1
281.615	34.47
281.83	81.58
282.045	-2.39
282.26	44.71
282.476	-12.63
282.691	79.53
282.906	20.14
283.122	46.76
283.337	-14.68
283.552	30.38
283.767	28.33
283.983	-2.39
284.198	-2.39
284.413	28.33
284.628	9.9
284.843	54.95
285.058	-24.92
285.274	11.95
285.489	-37.2
285.704	24.23
285.919	-0.34
286.134	50.86
286.349	-6.49
286.564	24.23
286.779	-22.87
286.995	9.9
287.21	-10.58
287.425	34.47
287.64	9.9
287.855	3.75
288.07	-0.34
288.285	65.19
288.5	22.19
288.715	18.09
288.93	3.75
289.145	-29.01
289.36	-4.44
289.575	5.8
289.79	-35.16
290.004	48.81
290.219	34.47
290.434	-35.16
290.649	-31.06
290.864	20.14
291.079	24.23
291.294	-10.58
291.509	97.96
291.724	-14.68
291.938	-4.44
292.153	11.95
292.368	7.85
292.583	59.05
292.798	108.2
293.012	32.43
293.227	26.28
293.442	-12.63
293.657	71.34
293.871	87.72
294.086	26.28
294.301	46.76
294.516	59.05
294.73	34.47
294.945	24.23
295.16	63.15
295.374	-8.53
295.589	124.58
295.804	18.09
296.018	118.44
296.233	-14.68
296.447	13.99
296.662	-100.69
296.877	-29.01
297.091	18.09
297.306	73.39
297.52	132.78
297.735	16.04
297.949	38.57
298.164	20.14
298.378	-2.39
298.593	18.09
298.807	22.19
299.022	16.04
299.236	26.28
299.451	61.1
299.665	65.19
299.88	13.99
300.094	-14.68
300.309	26.28
300.523	-61.78
300.737	44.71
300.952	28.33
301.166	100.01
301.381	26.28
301.595	38.57
301.809	16.04
302.024	-26.96
302.238	40.62
302.452	44.71
302.667	54.95
302.881	77.48
303.095	5.8
303.309	59.05
303.524	13.99
303.738	67.24
303.952	38.57
304.166	83.63
304.381	-43.35
304.595	24.23
304.809	1.71
305.023	5.8
305.237	44.71
305.452	30.38
305.666	30.38
305.88	44.71
306.094	48.81
306.308	50.86
306.522	34.47
306.736	46.76
306.95	46.76
307.164	-43.35
307.379	18.09
307.593	73.39
307.807	34.47
308.021	24.23
308.235	110.25
308.449	32.43
308.663	7.85
308.877	-4.44
309.091	108.2
309.305	102.06
309.519	30.38
309.733	13.99
309.947	30.38
310.161	65.19
310.374	42.67
310.588	26.28
310.802	24.23
311.016	48.81
311.23	87.72
311.444	54.95
311.658	26.28
311.872	-14.68
312.085	44.71
312.299	9.9
312.513	50.86
312.727	65.19
312.941	22.19
313.154	59.05
313.368	26.28
313.582	71.34
313.796	13.99
314.009	114.34
314.223	22.19
314.437	71.34
314.651	-29.01
314.864	69.29
315.078	36.52
315.292	-41.3
315.505	38.57
315.719	48.81
315.933	-59.73
316.146	22.19
316.36	-2.39
316.573	38.57
316.787	18.09
317.001	11.95
317.214	3.75
317.428	-33.11
317.641	-67.92
317.855	34.47
318.068	32.43
318.282	-43.35
318.495	9.9
318.709	-6.49
318.922	36.52
319.136	97.96
319.349	46.76
319.563	-31.06
319.776	30.38
319.99	-22.87
320.203	57
320.417	52.91
320.63	77.48
320.843	75.43
321.057	13.99
321.27	40.62
321.483	59.05
321.697	85.67
321.91	87.72
322.124	38.57
322.337	40.62
322.55	-0.34
322.763	-45.4
322.977	48.81
323.19	79.53
323.403	-12.63
323.617	73.39
323.83	28.33
324.043	57
324.256	75.43
324.469	-6.49
324.683	46.76
324.896	9.9
325.109	22.19
325.322	-31.06
325.535	1.71
325.748	67.24
325.962	5.8
326.175	-8.53
326.388	-2.39
326.601	59.05
326.814	44.71
327.027	34.47
327.24	71.34
327.453	13.99
327.666	67.24
327.879	85.67
328.092	20.14
328.305	50.86
328.518	5.8
328.731	-14.68
328.944	-45.4
329.157	30.38
329.37	34.47
329.583	100.01
329.796	110.25
330.009	24.23
330.222	-26.96
330.435	48.81
330.648	71.34
330.861	16.04
331.073	54.95
331.286	89.77
331.499	7.85
331.712	-14.68
331.925	59.05
332.138	13.99
332.35	75.43
332.563	73.39
332.776	24.23
332.989	-65.88
333.202	71.34
333.414	126.63
333.627	-0.34
333.84	108.2
334.053	44.71
334.265	-37.2
334.478	11.95
334.691	-4.44
334.903	40.62
335.116	9.9
335.329	28.33
335.541	100.01
335.754	36.52
335.966	-10.58
336.179	52.91
336.392	54.95
336.604	-53.59
336.817	87.72
337.029	-43.35
337.242	-31.06
337.454	36.52
337.667	52.91
337.88	145.06
338.092	48.81
338.305	22.19
338.517	1.71
338.729	118.44
338.942	26.28
339.154	26.28
339.367	-8.53
339.579	44.71
339.792	-39.25
340.004	-4.44
340.217	59.05
340.429	40.62
340.641	44.71
340.854	16.04
341.066	-0.34
341.278	95.91
341.491	40.62
341.703	50.86
341.915	-6.49
342.128	67.24
342.34	32.43
342.552	-35.16
342.764	28.33
342.977	34.47
343.189	87.72
343.401	38.57
343.613	59.05
343.826	32.43
344.038	16.04
344.25	65.19
344.462	61.1
344.674	7.85
344.886	54.95
345.099	65.19
345.311	34.47
345.523	30.38
345.735	22.19
345.947	63.15
346.159	30.38
346.371	48.81
346.583	18.09
346.795	71.34
347.007	32.43
347.219	1.71
347.431	120.49
347.643	91.82
347.855	16.04
348.067	-8.53
348.279	73.39
348.491	-33.11
348.703	83.63
348.915	79.53
349.127	7.85
349.339	77.48
349.551	-2.39
349.763	28.33
349.975	59.05
350.187	65.19
350.399	13.99
350.61	30.38
350.822	-6.49
351.034	87.72
351.246	26.28
351.458	3.75
351.669	26.28
351.881	30.38
352.093	87.72
352.305	87.72
352.517	57
352.728	40.62
352.94	18.09
353.152	3.75
353.363	20.14
353.575	-26.96
353.787	128.68
353.999	87.72
354.21	42.67
354.422	40.62
354.633	18.09
354.845	20.14
355.057	24.23
355.268	40.62
355.48	9.9
355.692	42.67
355.903	59.05
356.115	52.91
356.326	38.57
356.538	16.04
356.749	-10.58
356.961	20.14
357.172	87.72
357.384	1.71
357.595	77.48
357.807	28.33
358.018	-16.73
358.23	59.05
358.441	67.24
358.653	-29.01
358.864	28.33
359.075	26.28
359.287	52.91
359.498	-0.34
359.709	65.19
359.921	28.33
360.132	67.24
360.344	57
360.555	54.95
360.766	65.19
360.977	65.19
361.189	-8.53
361.4	38.57
361.611	102.06
361.823	34.47
362.034	7.85
362.245	22.19
362.456	79.53
362.667	102.06
362.879	54.95
363.09	7.85
363.301	102.06
363.512	28.33
363.723	-6.49
363.935	16.04
364.146	102.06
364.357	-10.58
364.568	-22.87
364.779	30.38
364.99	124.58
365.201	-22.87
365.412	130.73
365.623	-31.06
365.834	69.29
366.045	57
366.256	-10.58
366.467	71.34
366.678	34.47
366.889	46.76
367.1	-16.73
367.311	-18.77
367.522	36.52
367.733	73.39
367.944	-0.34
368.155	102.06
368.366	44.71
368.577	59.05
368.788	48.81
368.999	24.23
369.209	38.57
369.42	40.62
369.631	73.39
369.842	13.99
370.053	42.67
370.264	24.23
370.474	73.39
370.685	-22.87
370.896	65.19
371.107	75.43
371.317	-10.58
371.528	-92.5
371.739	65.19
371.95	93.87
372.16	93.87
372.371	26.28
372.582	-33.11
372.792	67.24
373.003	16.04
373.214	83.63
373.424	89.77
373.635	-10.58
373.846	93.87
374.056	71.34
374.267	3.75
374.477	71.34
374.688	11.95
374.898	40.62
375.109	-0.34
375.319	-20.82
375.53	116.39
375.74	83.63
375.951	-4.44
376.161	-12.63
376.372	91.82
376.582	30.38
376.793	102.06
377.003	59.05
377.214	54.95
377.424	40.62
377.635	16.04
377.845	42.67
378.055	71.34
378.266	95.91
378.476	-43.35
378.686	75.43
378.897	81.58
379.107	-6.49
379.317	36.52
379.528	91.82
379.738	81.58
379.948	11.95
380.158	67.24
380.369	69.29
380.579	71.34
380.789	-16.73
380.999	-10.58
381.21	108.2
381.42	57
381.63	87.72
381.84	69.29
382.05	-14.68
382.261	22.19
382.471	40.62
382.681	71.34
382.891	59.05
383.101	1.71
383.311	34.47
383.521	40.62
383.731	134.82
383.941	67.24
384.151	57
384.361	30.38
384.571	7.85
384.781	16.04
384.991	57
385.201	95.91
385.411	16.04
385.621	77.48
385.831	-31.06
386.041	63.15
386.251	44.71
386.461	65.19
386.671	36.52
386.881	75.43
387.091	13.99
387.301	38.57
387.511	-43.35
387.72	50.86
387.93	34.47
388.14	16.04
388.35	136.87
388.56	81.58
388.769	110.25
388.979	75.43
389.189	22.19
389.399	69.29
389.609	67.24
389.818	59.05
390.028	-12.63
390.238	83.63
390.447	13.99
390.657	114.34
390.867	79.53
391.076	-0.34
391.286	-33.11
391.496	52.91
391.705	97.96
391.915	48.81
392.125	83.63
392.334	50.86
392.544	63.15
392.753	104.11
392.963	75.43
393.172	22.19
393.382	63.15
393.591	50.86
393.801	85.67
394.01	61.1
394.22	40.62
394.429	85.67
394.639	48.81
394.848	112.3
395.058	108.2
395.267	28.33
395.477	108.2
395.686	20.14
395.895	120.49
396.105	91.82
396.314	165.54
396.524	147.11
396.733	44.71
396.942	124.58
397.152	116.39
397.361	102.06
397.57	54.95
397.78	36.52
397.989	52.91
398.198	173.74
398.407	140.97
398.617	120.49
398.826	30.38
399.035	112.3
399.244	143.02
399.453	59.05
399.663	67.24
399.872	122.54
400.081	75.43
400.29	61.1
400.499	95.91
400.708	61.1
400.917	42.67
401.127	7.85
401.336	159.4
401.545	181.93
401.754	128.68
401.963	91.82
402.172	145.06
402.381	118.44
402.59	81.58
402.799	132.78
403.008	116.39
403.217	177.83
403.426	145.06
403.635	112.3
403.844	159.4
404.053	120.49
404.262	69.29
404.471	186.02
404.68	181.93
404.888	79.53
405.097	124.58
405.306	120.49
405.515	145.06
405.724	104.11
405.933	153.26
406.142	165.54
406.35	140.97
406.559	130.73
406.768	167.59
406.977	161.45
407.185	157.35
407.394	116.39
407.603	179.88
407.812	202.41
408.02	169.64
408.229	224.94
408.438	261.8
408.646	181.93
408.855	259.75
409.064	229.03
409.272	222.89
409.481	272.04
409.69	200.36
409.898	276.13
410.107	345.77
410.315	331.43
410.524	317.09
410.733	335.53
410.941	358.05
411.15	362.15
411.358	362.15
411.567	368.29
411.775	368.29
411.984	358.05
412.192	427.68
412.401	480.93
412.609	491.17
412.818	454.31
413.026	427.68
413.234	503.46
413.443	452.26
413.651	562.85
413.86	556.71
414.068	589.47
414.276	593.57
414.485	556.71
414.693	689.82
414.901	640.67
415.11	681.63
415.318	626.34
415.526	818.85
415.734	831.13
415.943	767.65
416.151	749.22
416.359	822.94
416.567	816.8
416.776	839.33
416.984	970.4
417.192	947.87
417.4	923.29
417.608	892.57
417.817	1011.36
418.025	1089.18
418.233	1072.79
418.441	1054.36
418.649	1183.38
418.857	1203.86
419.065	1291.93
419.273	1238.68
419.481	1345.17
419.689	1361.56
419.897	1355.41
420.105	1468.05
420.313	1572.5
420.521	1597.07
420.729	1599.12
420.937	1633.94
421.145	1664.66
421.353	1875.6
421.561	1883.79
421.769	1939.09
421.977	2016.91
422.185	1930.89
422.393	2174.6
422.601	2223.75
422.809	2174.6
423.017	2207.37
423.224	2305.67
423.432	2432.65
423.64	2455.17
423.848	2666.11
424.056	2645.63
424.263	2766.46
424.471	2803.33
424.679	3151.48
424.887	2981.5
425.094	2997.88
425.302	3241.59
425.51	3202.68
425.718	3430.01
425.925	3313.27
426.133	3524.21
426.341	3614.32
426.548	3917.42
426.756	3915.37
426.964	3804.78
427.171	4062.83
427.379	4232.81
427.586	4243.05
427.794	4404.84
428.001	4615.78
428.209	4851.3
428.417	4851.3
428.624	5056.09
428.832	5031.52
429.039	4931.17
429.247	5211.74
429.454	5570.13
429.662	5901.9
429.869	5469.78
430.076	6100.56
430.284	5791.31
430.491	5989.97
430.699	6329.93
430.906	6434.38
431.114	6409.8
431.321	6778.44
431.528	6874.69
431.736	7206.46
431.943	7571
432.15	7212.6
432.358	7550.52
432.565	7736.88
432.772	7767.6
432.979	8089.14
433.187	8300.08
433.394	8463.91
433.601	9043.49
433.808	8955.43
434.016	9043.49
434.223	9451.03
434.43	10046.99
434.637	9592.34
434.844	10401.29
435.052	10651.14
435.259	10546.7
435.466	10692.1
435.673	10429.96
435.88	11296.25
436.087	11894.26
436.294	11793.91
436.501	11400.7
436.708	11703.8
436.915	12295.66
437.122	12619.24
437.329	12426.73
437.537	12967.4
437.743	13084.13
437.95	13149.67
438.157	13622.75
438.364	14185.94
438.571	14239.19
438.778	14269.9
438.985	15812.03
439.192	14908.87
439.399	15556.03
439.606	15011.27
439.813	16045.49
440.02	17229.22
440.227	16532.91
440.433	16367.02
440.64	17100.2
440.847	16893.35
441.054	17440.16
441.261	18599.31
441.467	18515.34
441.674	19008.9
441.881	19481.99
442.088	19223.94
442.294	19297.67
442.501	19692.93
442.708	20100.47
442.914	20804.97
443.121	21558.63
443.328	21349.73
443.534	22586.71
443.741	22013.27
443.948	21833.05
444.154	23491.91
444.361	23002.44
444.568	23379.27
444.774	23471.43
444.981	23725.38
445.187	24413.49
445.394	25197.87
445.6	25023.79
445.807	27344.14
446.013	26060.06
446.22	26780.95
446.426	27456.78
446.633	28073.21
446.839	28808.44
447.046	27442.44
447.252	29220.08
447.459	29240.56
447.665	28951.79
447.871	30584.02
448.078	31864
448.284	29912.29
448.491	30690.52
448.697	32066.75
448.903	32838.84
449.11	32720.06
449.316	32021.7
449.522	32863.41
449.728	33473.71
449.935	33645.74
450.141	33672.36
450.347	34897.05
450.553	33436.84
450.76	33979.56
450.966	35009.68
451.172	34651.29
451.378	35402.89
451.584	34575.52
451.791	35648.65
451.997	35693.71
452.203	35855.5
452.409	35691.66
452.615	36068.48
452.821	34260.13
453.027	34018.47
453.233	36050.05
453.44	34170.02
453.646	34940.05
453.852	34770.07
454.058	35462.29
454.264	34049.19
454.47	35093.65
454.676	34010.28
454.882	35077.27
455.088	31878.34
455.294	32646.33
455.5	32847.03
455.705	33418.41
455.911	32232.64
456.117	31237.33
456.323	30842.07
456.529	29111.53
456.735	30280.92
456.941	29738.21
457.147	29050.1
457.352	28556.53
457.558	27784.45
457.764	28017.92
457.97	27751.68
458.176	26742.03
458.381	27135.24
458.587	25722.15
458.793	25482.53
458.999	24206.65
459.204	26117.4
459.41	25320.74
459.616	23549.25
459.821	23672.13
460.027	23532.87
460.233	22945.1
460.438	21726.56
460.644	22330.71
460.85	21230.95
461.055	20870.51
461.261	20700.53
461.466	19135.88
461.672	18589.07
461.878	19942.78
462.083	18867.59
462.289	18513.3
462.494	18105.75
462.7	17515.94
462.905	16620.97
463.111	17511.84
463.316	17444.26
463.522	17024.42
463.727	17327.52
463.932	17173.92
464.138	16852.39
464.343	16975.27
464.549	16465.33
464.754	17051.05
464.959	17065.38
465.165	17008.04
465.37	16303.54
465.575	15832.51
465.781	16491.95
465.986	16344.5
466.191	16090.55
466.397	15623.61
466.602	14656.97
466.807	15662.52
467.012	15504.83
467.218	15437.25
467.423	15166.92
