Data from USB4F104151__209__11-10-22-657.txt Node

Date: Wed Mar 12 11:10:22 EDT 2025
User: louis
Spectrometer: USB4F10415
Trigger mode: 4
Integration Time (sec): 2.000000E-2
Scans to average: 1
Electric dark correction enabled: true
Nonlinearity correction enabled: false
Boxcar width: 0
XAxis mode: Wavelengths
Number of Pixels in Spectrum: 3648
>>>>>Begin Spectral Data<<<<<
178.204	-107.35
178.424	-107.35
178.644	-107.35
178.864	-105.3
179.084	-50
179.304	36.01
179.524	-56.15
179.744	5.29
179.964	81.07
180.184	-21.33
180.404	-25.43
180.624	-33.62
180.844	17.58
181.064	-80.72
181.283	44.2
181.503	54.44
181.723	-21.33
181.943	48.3
182.163	105.64
182.383	-7
182.602	56.49
182.822	83.11
183.042	-9.05
183.262	23.72
183.482	81.07
183.701	91.31
183.921	23.72
184.141	-52.05
184.361	101.55
184.58	13.48
184.8	25.77
185.02	52.39
185.239	38.06
185.459	83.11
185.679	50.35
185.898	-9.05
186.118	111.78
186.338	66.73
186.557	31.91
186.777	31.91
186.997	25.77
187.216	50.35
187.436	95.4
187.655	-0.85
187.875	74.92
188.095	-29.52
188.314	83.11
188.534	74.92
188.753	19.63
188.973	33.96
189.192	-7
189.412	60.59
189.631	64.68
189.851	-0.85
190.07	105.64
190.29	-33.62
190.509	74.92
190.729	68.78
190.948	27.82
191.168	58.54
191.387	38.06
191.607	50.35
191.826	40.11
192.045	38.06
192.265	60.59
192.484	9.39
192.704	93.35
192.923	-54.1
193.142	136.36
193.362	72.87
193.581	33.96
193.8	83.11
194.02	-39.76
194.239	70.83
194.458	89.26
194.678	68.78
194.897	25.77
195.116	115.88
195.335	83.11
195.555	79.02
195.774	72.87
195.993	54.44
196.212	72.87
196.432	46.25
196.651	150.7
196.87	52.39
197.089	72.87
197.308	25.77
197.528	62.63
197.747	25.77
197.966	21.67
198.185	85.16
198.404	87.21
198.623	25.77
198.842	31.91
199.062	70.83
199.281	68.78
199.5	83.11
199.719	85.16
199.938	-25.43
200.157	81.07
200.376	62.63
200.595	29.87
200.814	33.96
201.033	-19.29
201.252	66.73
201.471	11.43
201.69	42.15
201.909	29.87
202.128	33.96
202.347	-78.68
202.566	56.49
202.785	79.02
203.004	-13.14
203.223	33.96
203.442	-17.24
203.661	50.35
203.879	91.31
204.098	122.02
204.317	52.39
204.536	19.63
204.755	-66.39
204.974	46.25
205.193	5.29
205.411	107.69
205.63	36.01
205.849	50.35
206.068	-41.81
206.287	19.63
206.505	101.55
206.724	25.77
206.943	52.39
207.162	-15.19
207.381	-2.9
207.599	50.35
207.818	-11.09
208.037	11.43
208.255	-13.14
208.474	136.36
208.693	17.58
208.911	87.21
209.13	54.44
209.349	97.45
209.567	66.73
209.786	66.73
210.005	56.49
210.223	83.11
210.442	-33.62
210.661	91.31
210.879	113.83
211.098	11.43
211.316	72.87
211.535	95.4
211.753	56.49
211.972	19.63
212.191	31.91
212.409	91.31
212.628	31.91
212.846	3.24
213.065	99.5
213.283	54.44
213.502	48.3
213.72	40.11
213.938	107.69
214.157	33.96
214.375	38.06
214.594	46.25
214.812	56.49
215.031	23.72
215.249	54.44
215.467	93.35
215.686	27.82
215.904	79.02
216.122	58.54
216.341	124.07
216.559	46.25
216.778	46.25
216.996	54.44
217.214	25.77
217.432	54.44
217.651	31.91
217.869	38.06
218.087	5.29
218.306	58.54
218.524	91.31
218.742	58.54
218.96	29.87
219.179	3.24
219.397	56.49
219.615	124.07
219.833	29.87
220.051	70.83
220.27	56.49
220.488	21.67
220.706	81.07
220.924	1.19
221.142	72.87
221.36	87.21
221.578	87.21
221.796	3.24
222.015	-9.05
222.233	19.63
222.451	81.07
222.669	42.15
222.887	60.59
223.105	15.53
223.323	27.82
223.541	29.87
223.759	58.54
223.977	68.78
224.195	-7
224.413	83.11
224.631	93.35
224.849	66.73
225.067	138.41
225.285	83.11
225.503	72.87
225.721	-15.19
225.939	5.29
226.157	33.96
226.375	91.31
226.592	-25.43
226.81	79.02
227.028	7.34
227.246	144.55
227.464	-4.95
227.682	58.54
227.9	42.15
228.117	105.64
228.335	70.83
228.553	19.63
228.771	64.68
228.989	-27.48
229.206	111.78
229.424	64.68
229.642	36.01
229.86	15.53
230.077	33.96
230.295	25.77
230.513	21.67
230.731	70.83
230.948	107.69
231.166	130.22
231.384	46.25
231.601	83.11
231.819	13.48
232.037	31.91
232.254	-68.44
232.472	68.78
232.689	70.83
232.907	-2.9
233.125	91.31
233.342	58.54
233.56	40.11
233.777	-33.62
233.995	91.31
234.213	70.83
234.43	74.92
234.648	115.88
234.865	-37.72
235.083	60.59
235.3	79.02
235.518	52.39
235.735	148.65
235.953	38.06
236.17	101.55
236.388	21.67
236.605	107.69
236.822	-0.85
237.04	103.59
237.257	103.59
237.475	9.39
237.692	27.82
237.909	46.25
238.127	-29.52
238.344	-2.9
238.562	15.53
238.779	54.44
238.996	58.54
239.214	15.53
239.431	70.83
239.648	76.97
239.865	21.67
240.083	89.26
240.3	101.55
240.517	95.4
240.735	64.68
240.952	44.2
241.169	58.54
241.386	54.44
241.603	52.39
241.821	-45.91
242.038	99.5
242.255	-4.95
242.472	29.87
242.689	42.15
242.907	91.31
243.124	23.72
243.341	36.01
243.558	25.77
243.775	44.2
243.992	1.19
244.209	105.64
244.426	68.78
244.643	126.12
244.86	42.15
245.078	76.97
245.295	33.96
245.512	113.83
245.729	74.92
245.946	52.39
246.163	31.91
246.38	132.26
246.597	38.06
246.814	103.59
247.031	25.77
247.248	46.25
247.464	97.45
247.681	74.92
247.898	52.39
248.115	54.44
248.332	70.83
248.549	54.44
248.766	31.91
248.983	79.02
249.2	15.53
249.417	97.45
249.633	87.21
249.85	97.45
250.067	58.54
250.284	31.91
250.501	66.73
250.717	150.7
250.934	-2.9
251.151	15.53
251.368	23.72
251.585	13.48
251.801	19.63
252.018	5.29
252.235	74.92
252.451	48.3
252.668	64.68
252.885	76.97
253.102	54.44
253.318	60.59
253.535	-13.14
253.752	107.69
253.968	62.63
254.185	79.02
254.401	-9.05
254.618	97.45
254.835	74.92
255.051	91.31
255.268	44.2
255.484	58.54
255.701	13.48
255.917	74.92
256.134	81.07
256.351	62.63
256.567	13.48
256.784	44.2
257	1.19
257.217	21.67
257.433	81.07
257.65	11.43
257.866	70.83
258.082	25.77
258.299	52.39
258.515	64.68
258.732	-27.48
258.948	85.16
259.165	62.63
259.381	54.44
259.597	19.63
259.814	68.78
260.03	-17.24
260.246	74.92
260.463	83.11
260.679	115.88
260.895	46.25
261.112	103.59
261.328	54.44
261.544	33.96
261.761	138.41
261.977	-13.14
262.193	48.3
262.409	89.26
262.626	40.11
262.842	23.72
263.058	29.87
263.274	64.68
263.49	62.63
263.707	50.35
263.923	38.06
264.139	25.77
264.355	9.39
264.571	76.97
264.787	31.91
265.004	52.39
265.22	46.25
265.436	50.35
265.652	81.07
265.868	97.45
266.084	91.31
266.3	-43.86
266.516	-7
266.732	64.68
266.948	50.35
267.164	17.58
267.38	52.39
267.596	62.63
267.812	42.15
268.028	124.07
268.244	15.53
268.46	19.63
268.676	17.58
268.892	38.06
269.108	52.39
269.324	74.92
269.54	29.87
269.756	60.59
269.972	17.58
270.188	79.02
270.403	-15.19
270.619	-21.33
270.835	97.45
271.051	117.93
271.267	46.25
271.483	46.25
271.698	83.11
271.914	11.43
272.13	25.77
272.346	122.02
272.562	9.39
272.777	64.68
272.993	105.64
273.209	21.67
273.425	17.58
273.64	119.98
273.856	29.87
274.072	95.4
274.287	70.83
274.503	66.73
274.719	62.63
274.934	15.53
275.15	38.06
275.366	117.93
275.581	27.82
275.797	107.69
276.012	40.11
276.228	58.54
276.444	-7
276.659	52.39
276.875	74.92
277.09	38.06
277.306	44.2
277.521	50.35
277.737	17.58
277.952	21.67
278.168	42.15
278.383	74.92
278.599	126.12
278.814	50.35
279.03	-7
279.245	13.48
279.461	68.78
279.676	93.35
279.892	46.25
280.107	56.49
280.322	-15.19
280.538	56.49
280.753	27.82
280.969	66.73
281.184	58.54
281.399	74.92
281.615	7.34
281.83	-9.05
282.045	46.25
282.26	70.83
282.476	9.39
282.691	56.49
282.906	44.2
283.122	17.58
283.337	48.3
283.552	11.43
283.767	29.87
283.983	9.39
284.198	33.96
284.413	74.92
284.628	-27.48
284.843	58.54
285.058	95.4
285.274	62.63
285.489	66.73
285.704	62.63
285.919	5.29
286.134	33.96
286.349	72.87
286.564	119.98
286.779	62.63
286.995	128.17
287.21	38.06
287.425	85.16
287.64	33.96
287.855	58.54
288.07	-0.85
288.285	101.55
288.5	64.68
288.715	52.39
288.93	68.78
289.145	11.43
289.36	-0.85
289.575	-0.85
289.79	50.35
290.004	9.39
290.219	113.83
290.434	64.68
290.649	-29.52
290.864	3.24
291.079	99.5
291.294	81.07
291.509	13.48
291.724	70.83
291.938	70.83
292.153	136.36
292.368	83.11
292.583	72.87
292.798	70.83
293.012	56.49
293.227	25.77
293.442	56.49
293.657	9.39
293.871	64.68
294.086	70.83
294.301	83.11
294.516	38.06
294.73	36.01
294.945	40.11
295.16	-33.62
295.374	74.92
295.589	-7
295.804	44.2
296.018	-27.48
296.233	42.15
296.447	-2.9
296.662	72.87
296.877	97.45
297.091	115.88
297.306	-25.43
297.52	83.11
297.735	89.26
297.949	17.58
298.164	9.39
298.378	44.2
298.593	68.78
298.807	79.02
299.022	74.92
299.236	31.91
299.451	7.34
299.665	38.06
299.88	31.91
300.094	33.96
300.309	66.73
300.523	13.48
300.737	85.16
300.952	38.06
301.166	46.25
301.381	76.97
301.595	91.31
301.809	42.15
302.024	33.96
302.238	76.97
302.452	38.06
302.667	76.97
302.881	79.02
303.095	134.31
303.309	40.11
303.524	70.83
303.738	52.39
303.952	54.44
304.166	3.24
304.381	9.39
304.595	115.88
304.809	9.39
305.023	36.01
305.237	81.07
305.452	-11.09
305.666	60.59
305.88	128.17
306.094	74.92
306.308	62.63
306.522	62.63
306.736	72.87
306.95	115.88
307.164	-2.9
307.379	128.17
307.593	72.87
307.807	72.87
308.021	52.39
308.235	50.35
308.449	46.25
308.663	33.96
308.877	83.11
309.091	91.31
309.305	-7
309.519	-11.09
309.733	124.07
309.947	44.2
310.161	85.16
310.374	91.31
310.588	70.83
310.802	7.34
311.016	-39.76
311.23	74.92
311.444	48.3
311.658	119.98
311.872	56.49
312.085	117.93
312.299	-21.33
312.513	62.63
312.727	109.74
312.941	74.92
313.154	79.02
313.368	33.96
313.582	79.02
313.796	29.87
314.009	21.67
314.223	74.92
314.437	48.3
314.651	25.77
314.864	36.01
315.078	58.54
315.292	42.15
315.505	25.77
315.719	29.87
315.933	89.26
316.146	54.44
316.36	21.67
316.573	130.22
316.787	81.07
317.001	52.39
317.214	5.29
317.428	-7
317.641	-17.24
317.855	68.78
318.068	-25.43
318.282	85.16
318.495	-7
318.709	-19.29
318.922	29.87
319.136	33.96
319.349	87.21
319.563	91.31
319.776	23.72
319.99	33.96
320.203	74.92
320.417	27.82
320.63	58.54
320.843	83.11
321.057	42.15
321.27	56.49
321.483	72.87
321.697	68.78
321.91	101.55
322.124	72.87
322.337	33.96
322.55	58.54
322.763	101.55
322.977	81.07
323.19	68.78
323.403	38.06
323.617	68.78
323.83	101.55
324.043	17.58
324.256	42.15
324.469	-0.85
324.683	111.78
324.896	119.98
325.109	1.19
325.322	29.87
325.535	52.39
325.748	70.83
325.962	64.68
326.175	52.39
326.388	85.16
326.601	160.94
326.814	38.06
327.027	-15.19
327.24	54.44
327.453	-19.29
327.666	31.91
327.879	9.39
328.092	42.15
328.305	83.11
328.518	5.29
328.731	23.72
328.944	40.11
329.157	74.92
329.37	5.29
329.583	136.36
329.796	132.26
330.009	17.58
330.222	113.83
330.435	-9.05
330.648	58.54
330.861	46.25
331.073	76.97
331.286	58.54
331.499	48.3
331.712	50.35
331.925	70.83
332.138	21.67
332.35	36.01
332.563	56.49
332.776	79.02
332.989	52.39
333.202	40.11
333.414	3.24
333.627	17.58
333.84	64.68
334.053	19.63
334.265	23.72
334.478	66.73
334.691	66.73
334.903	103.59
335.116	21.67
335.329	-4.95
335.541	79.02
335.754	107.69
335.966	58.54
336.179	23.72
336.392	89.26
336.604	33.96
336.817	52.39
337.029	50.35
337.242	3.24
337.454	-23.38
337.667	13.48
337.88	99.5
338.092	185.51
338.305	66.73
338.517	66.73
338.729	122.02
338.942	29.87
339.154	36.01
339.367	50.35
339.579	31.91
339.792	-11.09
340.004	130.22
340.217	66.73
340.429	85.16
340.641	105.64
340.854	-13.14
341.066	17.58
341.278	115.88
341.491	140.46
341.703	9.39
341.915	56.49
342.128	126.12
342.34	31.91
342.552	56.49
342.764	103.59
342.977	58.54
343.189	38.06
343.401	91.31
343.613	50.35
343.826	66.73
344.038	15.53
344.25	68.78
344.462	64.68
344.674	42.15
344.886	7.34
345.099	91.31
345.311	11.43
345.523	74.92
345.735	-0.85
345.947	-9.05
346.159	17.58
346.371	-31.57
346.583	21.67
346.795	89.26
347.007	27.82
347.219	101.55
347.431	68.78
347.643	62.63
347.855	105.64
348.067	148.65
348.279	23.72
348.491	128.17
348.703	23.72
348.915	64.68
349.127	46.25
349.339	54.44
349.551	50.35
349.763	74.92
349.975	58.54
350.187	56.49
350.399	72.87
350.61	52.39
350.822	48.3
351.034	87.21
351.246	74.92
351.458	36.01
351.669	31.91
351.881	13.48
352.093	72.87
352.305	119.98
352.517	54.44
352.728	74.92
352.94	97.45
353.152	42.15
353.363	15.53
353.575	72.87
353.787	29.87
353.999	109.74
354.21	62.63
354.422	85.16
354.633	23.72
354.845	-9.05
355.057	103.59
355.268	87.21
355.48	42.15
355.692	54.44
355.903	95.4
356.115	29.87
356.326	48.3
356.538	72.87
356.749	56.49
356.961	99.5
357.172	40.11
357.384	25.77
357.595	83.11
357.807	85.16
358.018	23.72
358.23	58.54
358.441	70.83
358.653	115.88
358.864	33.96
359.075	40.11
359.287	29.87
359.498	83.11
359.709	109.74
359.921	111.78
360.132	60.59
360.344	83.11
360.555	19.63
360.766	-15.19
360.977	70.83
361.189	38.06
361.4	52.39
361.611	99.5
361.823	124.07
362.034	85.16
362.245	25.77
362.456	72.87
362.667	15.53
362.879	72.87
363.09	89.26
363.301	122.02
363.512	158.89
363.723	13.48
363.935	79.02
364.146	115.88
364.357	11.43
364.568	60.59
364.779	70.83
364.99	81.07
365.201	52.39
365.412	103.59
365.623	25.77
365.834	132.26
366.045	48.3
366.256	21.67
366.467	97.45
366.678	81.07
366.889	99.5
367.1	25.77
367.311	50.35
367.522	40.11
367.733	107.69
367.944	126.12
368.155	38.06
368.366	107.69
368.577	132.26
368.788	115.88
368.999	38.06
369.209	95.4
369.42	97.45
369.631	50.35
369.842	52.39
370.053	52.39
370.264	79.02
370.474	74.92
370.685	-0.85
370.896	9.39
371.107	97.45
371.317	11.43
371.528	87.21
371.739	122.02
371.95	23.72
372.16	68.78
372.371	105.64
372.582	97.45
372.792	23.72
373.003	17.58
373.214	134.31
373.424	126.12
373.635	70.83
373.846	58.54
374.056	89.26
374.267	122.02
374.477	11.43
374.688	76.97
374.898	109.74
375.109	36.01
375.319	48.3
375.53	29.87
375.74	21.67
375.951	36.01
376.161	83.11
376.372	72.87
376.582	91.31
376.793	132.26
377.003	9.39
377.214	70.83
377.424	64.68
377.635	60.59
377.845	15.53
378.055	54.44
378.266	134.31
378.476	31.91
378.686	152.74
378.897	70.83
379.107	68.78
379.317	83.11
379.528	95.4
379.738	79.02
379.948	31.91
380.158	117.93
380.369	36.01
380.579	50.35
380.789	33.96
380.999	7.34
381.21	36.01
381.42	107.69
381.63	50.35
381.84	48.3
382.05	50.35
382.261	105.64
382.471	122.02
382.681	50.35
382.891	91.31
383.101	142.5
383.311	33.96
383.521	52.39
383.731	81.07
383.941	107.69
384.151	58.54
384.361	97.45
384.571	91.31
384.781	128.17
384.991	97.45
385.201	25.77
385.411	107.69
385.621	103.59
385.831	83.11
386.041	111.78
386.251	70.83
386.461	29.87
386.671	66.73
386.881	60.59
387.091	97.45
387.301	126.12
387.511	52.39
387.72	122.02
387.93	95.4
388.14	66.73
388.35	60.59
388.56	9.39
388.769	79.02
388.979	130.22
389.189	89.26
389.399	126.12
389.609	70.83
389.818	70.83
390.028	99.5
390.238	64.68
390.447	33.96
390.657	124.07
390.867	117.93
391.076	36.01
391.286	46.25
391.496	140.46
391.705	99.5
391.915	111.78
392.125	62.63
392.334	81.07
392.544	89.26
392.753	54.44
392.963	124.07
393.172	42.15
393.382	85.16
393.591	105.64
393.801	83.11
394.01	160.94
394.22	76.97
394.429	99.5
394.639	113.83
394.848	99.5
395.058	87.21
395.267	101.55
395.477	99.5
395.686	107.69
395.895	85.16
396.105	175.27
396.314	72.87
396.524	76.97
396.733	72.87
396.942	138.41
397.152	136.36
397.361	144.55
397.57	54.44
397.78	148.65
397.989	128.17
398.198	144.55
398.407	66.73
398.617	162.98
398.826	197.8
399.035	38.06
399.244	111.78
399.453	142.5
399.663	103.59
399.872	152.74
400.081	165.03
400.29	103.59
400.499	144.55
400.708	171.18
400.917	187.56
401.127	115.88
401.336	107.69
401.545	130.22
401.754	144.55
401.963	152.74
402.172	150.7
402.381	132.26
402.59	150.7
402.799	109.74
403.008	107.69
403.217	124.07
403.426	165.03
403.635	93.35
403.844	103.59
404.053	193.7
404.262	148.65
404.471	234.66
404.68	142.5
404.888	197.8
405.097	138.41
405.306	222.38
405.515	150.7
405.724	150.7
405.933	181.42
406.142	160.94
406.35	183.46
406.559	173.22
406.768	214.18
406.977	205.99
407.185	210.09
407.394	162.98
407.603	214.18
407.812	195.75
408.02	306.34
408.229	230.57
408.438	304.29
408.646	226.47
408.855	232.62
409.064	257.19
409.272	212.14
409.481	214.18
409.69	283.81
409.898	306.34
410.107	294.05
410.315	283.81
410.524	292.01
410.733	255.14
410.941	294.05
411.15	410.79
411.358	423.08
411.567	359.59
411.775	404.64
411.984	427.17
412.192	529.57
412.401	392.36
412.609	404.64
412.818	527.52
413.026	492.71
413.234	523.43
413.443	496.8
413.651	509.09
413.86	521.38
414.068	593.06
414.276	683.17
414.485	644.26
414.693	668.83
414.901	767.13
415.11	658.59
415.318	664.74
415.526	736.42
415.734	644.26
415.943	816.29
416.151	793.76
416.359	857.25
416.567	844.96
416.776	904.35
416.984	988.32
417.192	935.07
417.4	877.73
417.608	945.31
417.817	1053.85
418.025	1066.14
418.233	1160.34
418.441	1152.15
418.649	1295.51
418.857	1164.44
419.065	1375.38
419.273	1213.59
419.481	1363.09
419.689	1414.29
419.897	1512.6
420.105	1500.31
420.313	1557.65
420.521	1641.62
420.729	1631.38
420.937	1639.57
421.145	1770.64
421.353	1811.6
421.561	1815.69
421.769	1946.76
421.977	2036.88
422.185	1948.81
422.393	2196.62
422.601	2290.82
422.809	2284.68
423.017	2319.5
423.224	2253.96
423.432	2479.24
423.64	2440.33
423.848	2602.11
424.056	2581.64
424.263	2788.48
424.471	2753.66
424.679	2899.07
424.887	3107.96
425.094	3159.16
425.302	3067
425.51	3255.42
425.718	3390.58
425.925	3257.46
426.133	3495.03
426.341	3658.87
426.548	3875.95
426.756	3718.26
426.964	3791.98
427.171	4117.61
427.379	4156.52
427.586	4316.26
427.794	4443.24
428.001	4643.94
428.209	4791.39
428.417	4748.39
428.624	5069.92
428.832	4998.24
429.039	4965.47
429.247	5096.54
429.454	5497.94
429.662	5801.04
429.869	5266.52
430.076	5776.47
430.284	5786.71
430.491	6093.9
430.699	6313.03
430.906	6288.46
431.114	6249.55
431.321	6446.15
431.528	6913.09
431.736	7068.73
431.943	7502.9
432.15	7275.58
432.358	7308.35
432.565	7935.03
432.772	7742.52
432.979	8096.82
433.187	8133.68
433.394	8129.58
433.601	9008.16
433.808	9059.36
434.016	8971.3
434.223	9174.05
434.43	9849.88
434.637	9798.68
434.844	10114.06
435.052	10574.86
435.259	10220.56
435.466	10310.67
435.673	10263.57
435.88	10890.24
436.087	11572.22
436.294	11615.23
436.501	11283.45
436.708	11590.65
436.915	12016.63
437.122	12383.21
437.329	12356.59
437.537	12731.37
437.743	12985.32
437.95	12833.77
438.157	13540.32
438.364	14121.94
438.571	13956.05
438.778	14054.36
438.985	15451.07
439.192	14875.59
439.399	15107.01
439.606	14805.96
439.813	15657.92
440.02	16368.56
440.227	16667.56
440.433	16223.16
440.64	16972.71
440.847	16640.94
441.054	17034.15
441.261	18330.51
441.467	17986.46
441.674	18402.19
441.881	18914.19
442.088	18969.48
442.294	18830.22
442.501	19321.73
442.708	19659.65
442.914	20441.97
443.121	21427.04
443.328	20724.59
443.534	22629.2
443.741	21461.86
443.948	21273.45
444.154	22803.28
444.361	22825.81
444.568	22772.56
444.774	22709.07
444.981	23053.13
445.187	23614.27
445.394	24798
445.6	24531.76
445.807	26428.18
446.013	25660.2
446.22	25998.11
446.426	27120.4
446.633	27243.27
446.839	28254.97
447.046	27091.73
447.252	28750.58
447.459	28652.28
447.665	28396.28
447.871	29530.86
448.078	30864.08
448.284	29467.37
448.491	30395.1
448.697	31369.93
448.903	31875.78
449.11	32139.97
449.316	31384.27
449.522	32445.12
449.728	32922.29
449.935	33233.58
450.141	33049.27
450.347	33735.34
450.553	32791.22
450.76	33002.16
450.966	34423.45
451.172	33733.29
451.378	34179.75
451.584	34073.25
451.791	35115.67
451.997	34529.95
452.203	35154.58
452.409	35084.95
452.615	34734.74
452.821	33718.95
453.027	33350.32
453.233	34773.66
453.44	33540.78
453.646	34138.79
453.852	34230.94
454.058	34624.15
454.264	33323.69
454.47	34333.34
454.676	33632.94
454.882	34568.86
455.088	31521.48
455.294	32410.3
455.5	32443.07
455.705	32637.62
455.911	31224.53
456.117	31101.65
456.323	30984.91
456.529	28990.19
456.735	29911.78
456.941	29090.54
457.147	28812.02
457.352	28297.98
457.558	27761.41
457.764	27321.1
457.97	27214.6
458.176	26639.12
458.381	26428.18
458.587	25230.12
458.793	25371.43
458.999	23817.02
459.204	25785.12
459.41	25232.17
459.616	23290.7
459.821	23319.37
460.027	23362.37
460.233	23018.32
460.438	21388.13
460.644	21959.52
460.85	20665.2
461.055	20587.38
461.261	20566.9
461.466	19164.04
461.672	18336.66
461.878	19809.15
462.083	18574.22
462.289	18426.77
462.494	17957.78
462.7	17173.41
462.905	16622.51
463.111	17374.11
463.316	17181.6
463.522	16909.22
463.727	16796.59
463.932	16976.81
464.138	16845.74
464.343	16925.61
464.549	16526.25
464.754	16886.7
464.959	16817.07
465.165	16683.95
465.37	16114.61
465.575	15489.98
465.781	16264.11
465.986	16165.81
466.191	15803.32
466.397	15332.29
466.602	14592.97
466.807	15188.93
467.012	15184.83
