Data from USB4F104151__64__11-06-03-645.txt Node

Date: Wed Mar 12 11:06:03 EDT 2025
User: louis
Spectrometer: USB4F10415
Trigger mode: 4
Integration Time (sec): 2.000000E-2
Scans to average: 1
Electric dark correction enabled: true
Nonlinearity correction enabled: false
Boxcar width: 0
XAxis mode: Wavelengths
Number of Pixels in Spectrum: 3648
>>>>>Begin Spectral Data<<<<<
178.204	-75.77
178.424	-75.77
178.644	-75.77
178.864	-36.86
179.084	-59.39
179.304	36.86
179.524	-43.01
179.744	-45.06
179.964	-26.62
180.184	10.24
180.404	8.19
180.624	-10.24
180.844	-34.82
181.064	18.43
181.283	24.58
181.503	38.91
181.723	22.53
181.943	-18.43
182.163	4.1
182.383	6.14
182.602	63.49
182.822	53.25
183.042	69.63
183.262	88.06
183.482	18.43
183.701	4.1
183.921	96.25
184.141	-67.58
184.361	104.45
184.58	57.34
184.8	-8.19
185.02	-12.29
185.239	-6.14
185.459	-18.43
185.679	-14.34
185.898	12.29
186.118	86.01
186.338	47.1
186.557	61.44
186.777	14.34
186.997	53.25
187.216	34.82
187.436	90.11
187.655	6.14
187.875	28.67
188.095	-18.43
188.314	65.54
188.534	94.21
188.753	47.1
188.973	34.82
189.192	34.82
189.412	-34.82
189.631	-4.1
189.851	24.58
190.07	40.96
190.29	100.35
190.509	2.05
190.729	22.53
190.948	81.92
191.168	86.01
191.387	65.54
191.607	28.67
191.826	90.11
192.045	120.83
192.265	75.77
192.484	4.1
192.704	26.62
192.923	24.58
193.142	83.97
193.362	-14.34
193.581	63.49
193.8	4.1
194.02	98.3
194.239	-6.14
194.458	65.54
194.678	32.77
194.897	153.6
195.116	43.01
195.335	28.67
195.555	63.49
195.774	2.05
195.993	47.1
196.212	14.34
196.432	32.77
196.651	22.53
196.87	71.68
197.089	169.98
197.308	55.3
197.528	-6.14
197.747	12.29
197.966	14.34
198.185	98.3
198.404	126.97
198.623	47.1
198.842	34.82
199.062	-20.48
199.281	86.01
199.5	16.38
199.719	49.15
199.938	53.25
200.157	18.43
200.376	12.29
200.595	-6.14
200.814	98.3
201.033	-32.77
201.252	61.44
201.471	77.82
201.69	8.19
201.909	79.87
202.128	112.64
202.347	34.82
202.566	83.97
202.785	-57.34
203.004	96.25
203.223	16.38
203.442	-14.34
203.661	77.82
203.879	32.77
204.098	6.14
204.317	28.67
204.536	24.58
204.755	0
204.974	2.05
205.193	71.68
205.411	110.59
205.63	124.93
205.849	51.2
206.068	63.49
206.287	12.29
206.505	4.1
206.724	83.97
206.943	92.16
207.162	98.3
207.381	-32.77
207.599	51.2
207.818	67.58
208.037	0
208.255	6.14
208.474	0
208.693	-6.14
208.911	102.4
209.13	-16.38
209.349	43.01
209.567	22.53
209.786	49.15
210.005	-16.38
210.223	77.82
210.442	24.58
210.661	28.67
210.879	34.82
211.098	55.3
211.316	57.34
211.535	108.54
211.753	22.53
211.972	71.68
212.191	38.91
212.409	20.48
212.628	40.96
212.846	-4.1
213.065	51.2
213.283	75.77
213.502	-4.1
213.72	40.96
213.938	2.05
214.157	40.96
214.375	0
214.594	-36.86
214.812	32.77
215.031	49.15
215.249	28.67
215.467	-24.58
215.686	0
215.904	65.54
216.122	-8.19
216.341	34.82
216.559	28.67
216.778	26.62
216.996	45.06
217.214	28.67
217.432	-28.67
217.651	18.43
217.869	96.25
218.087	67.58
218.306	57.34
218.524	59.39
218.742	-24.58
218.96	2.05
219.179	49.15
219.397	65.54
219.615	96.25
219.833	59.39
220.051	12.29
220.27	4.1
220.488	57.34
220.706	-2.05
220.924	18.43
221.142	43.01
221.36	57.34
221.578	36.86
221.796	-4.1
222.015	161.79
222.233	26.62
222.451	18.43
222.669	47.1
222.887	47.1
223.105	-71.68
223.323	45.06
223.541	-24.58
223.759	57.34
223.977	4.1
224.195	-12.29
224.413	-43.01
224.631	28.67
224.849	18.43
225.067	57.34
225.285	14.34
225.503	34.82
225.721	8.19
225.939	75.77
226.157	79.87
226.375	65.54
226.592	-8.19
226.81	30.72
227.028	45.06
227.246	67.58
227.464	38.91
227.682	63.49
227.9	38.91
228.117	22.53
228.335	34.82
228.553	-16.38
228.771	49.15
228.989	-40.96
229.206	120.83
229.424	32.77
229.642	16.38
229.86	61.44
230.077	57.34
230.295	-2.05
230.513	-8.19
230.731	53.25
230.948	106.49
231.166	36.86
231.384	2.05
231.601	57.34
231.819	126.97
232.037	-6.14
232.254	28.67
232.472	12.29
232.689	22.53
232.907	-16.38
233.125	96.25
233.342	8.19
233.56	4.1
233.777	40.96
233.995	22.53
234.213	104.45
234.43	67.58
234.648	22.53
234.865	0
235.083	112.64
235.3	90.11
235.518	20.48
235.735	106.49
235.953	108.54
236.17	-4.1
236.388	30.72
236.605	40.96
236.822	-6.14
237.04	63.49
237.257	36.86
237.475	122.88
237.692	24.58
237.909	122.88
238.127	24.58
238.344	94.21
238.562	36.86
238.779	40.96
238.996	20.48
239.214	4.1
239.431	77.82
239.648	-6.14
239.865	77.82
240.083	94.21
240.3	6.14
240.517	86.01
240.735	102.4
240.952	12.29
241.169	139.26
241.386	75.77
241.603	51.2
241.821	28.67
242.038	43.01
242.255	32.77
242.472	36.86
242.689	63.49
242.907	-28.67
243.124	94.21
243.341	73.73
243.558	-8.19
243.775	61.44
243.992	40.96
244.209	55.3
244.426	40.96
244.643	24.58
244.86	65.54
245.078	94.21
245.295	-40.96
245.512	73.73
245.729	22.53
245.946	65.54
246.163	22.53
246.38	47.1
246.597	38.91
246.814	63.49
247.031	2.05
247.248	77.82
247.464	-38.91
247.681	32.77
247.898	94.21
248.115	86.01
248.332	96.25
248.549	14.34
248.766	36.86
248.983	24.58
249.2	24.58
249.417	-22.53
249.633	92.16
249.85	77.82
250.067	4.1
250.284	-47.1
250.501	108.54
250.717	-6.14
250.934	4.1
251.151	-8.19
251.368	79.87
251.585	81.92
251.801	34.82
252.018	55.3
252.235	57.34
252.451	14.34
252.668	-2.05
252.885	86.01
253.102	6.14
253.318	51.2
253.535	30.72
253.752	10.24
253.968	61.44
254.185	-28.67
254.401	45.06
254.618	53.25
254.835	6.14
255.051	36.86
255.268	51.2
255.484	30.72
255.701	-45.06
255.917	-12.29
256.134	14.34
256.351	16.38
256.567	24.58
256.784	73.73
257	24.58
257.217	-2.05
257.433	51.2
257.65	24.58
257.866	77.82
258.082	28.67
258.299	0
258.515	24.58
258.732	-22.53
258.948	28.67
259.165	40.96
259.381	14.34
259.597	96.25
259.814	59.39
260.03	22.53
260.246	36.86
260.463	20.48
260.679	20.48
260.895	94.21
261.112	69.63
261.328	77.82
261.544	18.43
261.761	67.58
261.977	-32.77
262.193	53.25
262.409	63.49
262.626	51.2
262.842	114.69
263.058	36.86
263.274	110.59
263.49	28.67
263.707	67.58
263.923	-49.15
264.139	-20.48
264.355	6.14
264.571	36.86
264.787	28.67
265.004	106.49
265.22	55.3
265.436	4.1
265.652	79.87
265.868	61.44
266.084	-12.29
266.3	61.44
266.516	26.62
266.732	43.01
266.948	18.43
267.164	2.05
267.38	57.34
267.596	79.87
267.812	43.01
268.028	40.96
268.244	30.72
268.46	28.67
268.676	10.24
268.892	81.92
269.108	-24.58
269.324	30.72
269.54	81.92
269.756	24.58
269.972	8.19
270.188	71.68
270.403	47.1
270.619	57.34
270.835	40.96
271.051	108.54
271.267	-28.67
271.483	43.01
271.698	18.43
271.914	53.25
272.13	55.3
272.346	63.49
272.562	12.29
272.777	57.34
272.993	10.24
273.209	55.3
273.425	-4.1
273.64	40.96
273.856	94.21
274.072	20.48
274.287	-40.96
274.503	73.73
274.719	71.68
274.934	49.15
275.15	36.86
275.366	4.1
275.581	47.1
275.797	69.63
276.012	90.11
276.228	26.62
276.444	57.34
276.659	86.01
276.875	28.67
277.09	-47.1
277.306	10.24
277.521	122.88
277.737	38.91
277.952	49.15
278.168	-6.14
278.383	53.25
278.599	28.67
278.814	45.06
279.03	12.29
279.245	20.48
279.461	0
279.676	12.29
279.892	143.36
280.107	28.67
280.322	45.06
280.538	22.53
280.753	22.53
280.969	-12.29
281.184	45.06
281.399	-4.1
281.615	-30.72
281.83	12.29
282.045	-30.72
282.26	38.91
282.476	16.38
282.691	88.06
282.906	-20.48
283.122	63.49
283.337	71.68
283.552	63.49
283.767	26.62
283.983	6.14
284.198	-34.82
284.413	110.59
284.628	57.34
284.843	-4.1
285.058	77.82
285.274	59.39
285.489	24.58
285.704	96.25
285.919	57.34
286.134	57.34
286.349	45.06
286.564	63.49
286.779	100.35
286.995	-47.1
287.21	47.1
287.425	53.25
287.64	40.96
287.855	16.38
288.07	24.58
288.285	40.96
288.5	63.49
288.715	110.59
288.93	86.01
289.145	-18.43
289.36	32.77
289.575	38.91
289.79	34.82
290.004	-36.86
290.219	73.73
290.434	79.87
290.649	-8.19
290.864	32.77
291.079	61.44
291.294	63.49
291.509	-2.05
291.724	14.34
291.938	79.87
292.153	-4.1
292.368	30.72
292.583	2.05
292.798	106.49
293.012	10.24
293.227	112.64
293.442	-26.62
293.657	51.2
293.871	88.06
294.086	71.68
294.301	75.77
294.516	94.21
294.73	75.77
294.945	69.63
295.16	-32.77
295.374	26.62
295.589	88.06
295.804	63.49
296.018	-14.34
296.233	102.4
296.447	94.21
296.662	71.68
296.877	92.16
297.091	32.77
297.306	45.06
297.52	65.54
297.735	40.96
297.949	73.73
298.164	90.11
298.378	24.58
298.593	75.77
298.807	34.82
299.022	106.49
299.236	43.01
299.451	38.91
299.665	-63.49
299.88	-16.38
300.094	36.86
300.309	88.06
300.523	53.25
300.737	47.1
300.952	45.06
301.166	94.21
301.381	47.1
301.595	45.06
301.809	59.39
302.024	45.06
302.238	-12.29
302.452	92.16
302.667	75.77
302.881	108.54
303.095	24.58
303.309	45.06
303.524	6.14
303.738	-47.1
303.952	96.25
304.166	28.67
304.381	49.15
304.595	120.83
304.809	28.67
305.023	18.43
305.237	6.14
305.452	63.49
305.666	43.01
305.88	108.54
306.094	16.38
306.308	53.25
306.522	40.96
306.736	32.77
306.95	63.49
307.164	26.62
307.379	73.73
307.593	139.26
307.807	-51.2
308.021	79.87
308.235	26.62
308.449	-12.29
308.663	-4.1
308.877	49.15
309.091	104.45
309.305	63.49
309.519	83.97
309.733	86.01
309.947	14.34
310.161	126.97
310.374	77.82
310.588	38.91
310.802	-24.58
311.016	83.97
311.23	47.1
311.444	63.49
311.658	2.05
311.872	32.77
312.085	69.63
312.299	61.44
312.513	81.92
312.727	133.12
312.941	22.53
313.154	90.11
313.368	57.34
313.582	81.92
313.796	10.24
314.009	16.38
314.223	40.96
314.437	36.86
314.651	81.92
314.864	77.82
315.078	43.01
315.292	-10.24
315.505	79.87
315.719	10.24
315.933	45.06
316.146	69.63
316.36	59.39
316.573	26.62
316.787	8.19
317.001	114.69
317.214	94.21
317.428	102.4
317.641	12.29
317.855	65.54
318.068	18.43
318.282	43.01
318.495	51.2
318.709	24.58
318.922	-16.38
319.136	71.68
319.349	45.06
319.563	63.49
319.776	53.25
319.99	4.1
320.203	-6.14
320.417	88.06
320.63	-4.1
320.843	116.73
321.057	178.17
321.27	51.2
321.483	10.24
321.697	112.64
321.91	88.06
322.124	98.3
322.337	86.01
322.55	36.86
322.763	92.16
322.977	51.2
323.19	34.82
323.403	24.58
323.617	67.58
323.83	-16.38
324.043	65.54
324.256	73.73
324.469	22.53
324.683	63.49
324.896	112.64
325.109	106.49
325.322	28.67
325.535	-8.19
325.748	118.78
325.962	-4.1
326.175	34.82
326.388	112.64
326.601	81.92
326.814	83.97
327.027	67.58
327.24	98.3
327.453	86.01
327.666	94.21
327.879	67.58
328.092	18.43
328.305	49.15
328.518	2.05
328.731	4.1
328.944	53.25
329.157	38.91
329.37	45.06
329.583	110.59
329.796	-53.25
330.009	83.97
330.222	92.16
330.435	-28.67
330.648	61.44
330.861	47.1
331.073	45.06
331.286	49.15
331.499	4.1
331.712	45.06
331.925	75.77
332.138	0
332.35	51.2
332.563	40.96
332.776	118.78
332.989	65.54
333.202	86.01
333.414	30.72
333.627	-4.1
333.84	-55.3
334.053	16.38
334.265	40.96
334.478	49.15
334.691	51.2
334.903	24.58
335.116	61.44
335.329	14.34
335.541	-18.43
335.754	77.82
335.966	24.58
336.179	18.43
336.392	71.68
336.604	75.77
336.817	28.67
337.029	116.73
337.242	51.2
337.454	45.06
337.667	53.25
337.88	86.01
338.092	49.15
338.305	79.87
338.517	-14.34
338.729	79.87
338.942	102.4
339.154	38.91
339.367	16.38
339.579	96.25
339.792	55.3
340.004	49.15
340.217	14.34
340.429	118.78
340.641	53.25
340.854	102.4
341.066	14.34
341.278	73.73
341.491	45.06
341.703	57.34
341.915	-8.19
342.128	16.38
342.34	122.88
342.552	71.68
342.764	45.06
342.977	40.96
343.189	40.96
343.401	34.82
343.613	4.1
343.826	43.01
344.038	36.86
344.25	86.01
344.462	88.06
344.674	81.92
344.886	53.25
345.099	40.96
345.311	14.34
345.523	28.67
345.735	40.96
345.947	159.74
346.159	12.29
346.371	36.86
346.583	26.62
346.795	34.82
347.007	106.49
347.219	106.49
347.431	81.92
347.643	57.34
347.855	47.1
348.067	67.58
348.279	-10.24
348.491	57.34
348.703	151.55
348.915	88.06
349.127	59.39
349.339	32.77
349.551	30.72
349.763	71.68
349.975	59.39
350.187	71.68
350.399	57.34
350.61	12.29
350.822	18.43
351.034	14.34
351.246	120.83
351.458	81.92
351.669	86.01
351.881	69.63
352.093	8.19
352.305	59.39
352.517	73.73
352.728	45.06
352.94	75.77
353.152	106.49
353.363	-20.48
353.575	61.44
353.787	18.43
353.999	98.3
354.21	102.4
354.422	57.34
354.633	-36.86
354.845	49.15
355.057	98.3
355.268	65.54
355.48	30.72
355.692	8.19
355.903	61.44
356.115	-20.48
356.326	45.06
356.538	36.86
356.749	28.67
356.961	129.02
357.172	14.34
357.384	69.63
357.595	94.21
357.807	51.2
358.018	57.34
358.23	36.86
358.441	75.77
358.653	112.64
358.864	18.43
359.075	28.67
359.287	59.39
359.498	90.11
359.709	-32.77
359.921	59.39
360.132	45.06
360.344	83.97
360.555	75.77
360.766	81.92
360.977	26.62
361.189	49.15
361.4	32.77
361.611	57.34
361.823	10.24
362.034	32.77
362.245	63.49
362.456	73.73
362.667	49.15
362.879	88.06
363.09	-6.14
363.301	40.96
363.512	10.24
363.723	-24.58
363.935	24.58
364.146	83.97
364.357	20.48
364.568	120.83
364.779	4.1
364.99	180.22
365.201	40.96
365.412	69.63
365.623	61.44
365.834	49.15
366.045	73.73
366.256	86.01
366.467	16.38
366.678	63.49
366.889	65.54
367.1	30.72
367.311	116.73
367.522	45.06
367.733	26.62
367.944	61.44
368.155	83.97
368.366	98.3
368.577	22.53
368.788	53.25
368.999	106.49
369.209	45.06
369.42	114.69
369.631	40.96
369.842	88.06
370.053	8.19
370.264	6.14
370.474	34.82
370.685	38.91
370.896	61.44
371.107	69.63
371.317	96.25
371.528	55.3
371.739	34.82
371.95	73.73
372.16	53.25
372.371	43.01
372.582	90.11
372.792	59.39
373.003	63.49
373.214	83.97
373.424	-18.43
373.635	43.01
373.846	106.49
374.056	55.3
374.267	40.96
374.477	24.58
374.688	49.15
374.898	2.05
375.109	67.58
375.319	73.73
375.53	102.4
375.74	6.14
375.951	47.1
376.161	92.16
376.372	69.63
376.582	94.21
376.793	94.21
377.003	34.82
377.214	102.4
377.424	-2.05
377.635	51.2
377.845	40.96
378.055	90.11
378.266	45.06
378.476	-16.38
378.686	57.34
378.897	45.06
379.107	36.86
379.317	16.38
379.528	-2.05
379.738	124.93
379.948	28.67
380.158	22.53
380.369	36.86
380.579	53.25
380.789	57.34
380.999	88.06
381.21	20.48
381.42	32.77
381.63	98.3
381.84	43.01
382.05	-6.14
382.261	53.25
382.471	63.49
382.681	12.29
382.891	86.01
383.101	139.26
383.311	104.45
383.521	30.72
383.731	86.01
383.941	104.45
384.151	77.82
384.361	63.49
384.571	18.43
384.781	65.54
384.991	122.88
385.201	116.73
385.411	90.11
385.621	90.11
385.831	86.01
386.041	57.34
386.251	90.11
386.461	102.4
386.671	86.01
386.881	102.4
387.091	65.54
387.301	106.49
387.511	-8.19
387.72	79.87
387.93	49.15
388.14	43.01
388.35	47.1
388.56	122.88
388.769	79.87
388.979	90.11
389.189	32.77
389.399	53.25
389.609	20.48
389.818	112.64
390.028	57.34
390.238	69.63
390.447	51.2
390.657	53.25
390.867	49.15
391.076	32.77
391.286	90.11
391.496	126.97
391.705	81.92
391.915	126.97
392.125	71.68
392.334	65.54
392.544	90.11
392.753	120.83
392.963	45.06
393.172	30.72
393.382	73.73
393.591	110.59
393.801	90.11
394.01	79.87
394.22	161.79
394.429	106.49
394.639	40.96
394.848	86.01
395.058	112.64
395.267	122.88
395.477	90.11
395.686	120.83
395.895	196.61
396.105	81.92
396.314	-8.19
396.524	151.55
396.733	114.69
396.942	114.69
397.152	141.31
397.361	100.35
397.57	51.2
397.78	90.11
397.989	151.55
398.198	212.99
398.407	57.34
398.617	159.74
398.826	120.83
399.035	122.88
399.244	165.89
399.453	126.97
399.663	104.45
399.872	110.59
400.081	49.15
400.29	137.21
400.499	79.87
400.708	108.54
400.917	163.84
401.127	34.82
401.336	49.15
401.545	163.84
401.754	178.17
401.963	190.46
402.172	151.55
402.381	124.93
402.59	126.97
402.799	114.69
403.008	69.63
403.217	178.17
403.426	147.45
403.635	153.6
403.844	149.5
404.053	88.06
404.262	98.3
404.471	198.65
404.68	98.3
404.888	161.79
405.097	174.08
405.306	174.08
405.515	143.36
405.724	192.51
405.933	90.11
406.142	200.7
406.35	120.83
406.559	73.73
406.768	249.85
406.977	225.28
407.185	221.18
407.394	133.12
407.603	176.13
407.812	165.89
408.02	253.95
408.229	264.19
408.438	190.46
408.646	210.94
408.855	227.32
409.064	245.76
409.272	253.95
409.481	296.96
409.69	235.52
409.898	227.32
410.107	278.52
410.315	319.48
410.524	348.15
410.733	317.44
410.941	294.91
411.15	385.02
411.358	385.02
411.567	376.83
411.775	421.88
411.984	393.21
412.192	366.59
412.401	434.17
412.609	362.49
412.818	446.46
413.026	385.02
413.234	446.46
413.443	446.46
413.651	573.43
413.86	497.66
414.068	557.05
414.276	620.53
414.485	559.1
414.693	626.68
414.901	643.06
415.11	647.16
415.318	636.92
415.526	686.07
415.734	780.28
415.943	829.43
416.151	714.74
416.359	694.26
416.567	778.23
416.776	802.8
416.984	899.06
417.192	831.48
417.4	874.48
417.608	882.67
417.817	983.02
418.025	1001.46
418.233	1064.94
418.441	1064.94
418.649	1083.38
418.857	1118.19
419.065	1148.91
419.273	1122.29
419.481	1232.88
419.689	1327.08
419.897	1394.67
420.105	1304.56
420.313	1415.15
420.521	1445.87
420.729	1474.54
420.937	1486.83
421.145	1593.32
421.353	1689.57
421.561	1736.68
421.769	1775.59
421.977	1824.74
422.185	1826.79
422.393	1873.89
422.601	2064.35
422.809	2076.64
423.017	2058.21
423.224	2176.99
423.432	2299.87
423.64	2240.48
423.848	2392.03
424.056	2389.98
424.263	2547.67
424.471	2627.54
424.679	2654.17
424.887	2781.14
425.094	2834.39
425.302	2813.91
425.51	2947.03
425.718	3000.27
425.925	3014.61
426.133	3184.59
426.341	3323.85
426.548	3485.64
426.756	3504.07
426.964	3614.66
427.171	3760.07
427.379	3952.58
427.586	3921.86
427.794	4091.84
428.001	4274.11
428.209	4503.48
428.417	4419.52
428.624	4747.19
428.832	4626.36
429.039	4622.27
429.247	4657.08
429.454	5158.83
429.662	5466.03
429.869	5058.48
430.076	5562.28
430.284	5248.94
430.491	5529.52
430.699	6029.22
430.906	5894.05
431.114	6031.27
431.321	6182.82
431.528	6342.56
431.736	6659.99
431.943	6889.37
432.15	6872.98
432.358	6864.79
432.565	7266.19
432.772	7288.72
432.979	7643.02
433.187	7823.24
433.394	7737.23
433.601	8433.54
433.808	8228.74
434.016	8263.55
434.223	8810.36
434.43	9215.86
434.637	8890.23
434.844	9604.97
435.052	9938.79
435.259	9713.52
435.466	9590.64
435.673	9660.27
435.88	10323.81
436.087	11005.78
436.294	11089.75
436.501	10518.37
436.708	10743.64
436.915	11241.3
437.122	11749.2
437.329	11415.38
437.537	11976.52
437.743	12117.83
437.95	12068.68
438.157	12603.2
438.364	13238.07
438.571	12857.15
438.778	13393.72
438.985	14599.97
439.192	13903.66
439.399	14464.8
439.606	14176.04
439.813	14628.64
440.02	15609.62
440.227	15550.23
440.433	15419.16
440.64	15838.99
440.847	15503.12
441.054	16000.78
441.261	17194.75
441.467	17166.07
441.674	17514.23
441.881	18099.95
442.088	17700.59
442.294	17639.15
442.501	18169.58
442.708	18634.47
442.914	19302.11
443.121	20412.1
443.328	19719.89
443.534	20764.36
443.741	20514.5
443.948	20201.16
444.154	21753.52
444.361	21368.51
444.568	21839.54
444.774	21505.72
444.981	21827.25
445.187	22664.87
445.394	23529.11
445.6	23547.54
445.807	25452.16
446.013	24247.95
446.22	24938.12
446.426	25923.19
446.633	25943.67
446.839	26914.41
447.046	25808.5
447.252	27235.94
447.459	27170.4
447.665	26988.13
447.871	28331.6
448.078	29357.63
448.284	28180.05
448.491	28692.04
448.697	29996.6
448.903	30277.17
449.11	30232.11
449.316	29898.3
449.522	30449.2
449.728	31194.66
449.935	31503.9
450.141	31364.64
450.347	32405.01
450.553	31186.47
450.76	31462.94
450.966	32226.84
451.172	31929.88
451.378	32726.54
451.584	32063
451.791	33168.9
451.997	32806.41
452.203	33576.45
452.409	33322.5
452.615	33510.91
452.821	32155.16
453.027	31680.03
453.233	32968.2
453.44	31772.19
453.646	32032.28
453.852	32343.57
454.058	33109.51
454.264	31671.84
454.47	32249.36
454.676	31352.35
454.882	32720.4
455.088	29820.47
455.294	30678.57
455.5	30639.66
455.705	31430.18
455.911	29812.28
456.117	29210.18
456.323	28765.77
456.529	27256.42
456.735	28431.95
456.941	27702.87
457.147	27182.69
457.352	26281.58
457.558	25691.77
457.764	25845.37
457.97	25532.03
458.176	25192.06
458.381	24706.69
458.587	23807.64
458.793	23715.48
458.999	22390.44
459.204	24172.18
459.41	23664.28
459.616	21939.89
459.821	22089.39
460.027	21923.51
460.233	21567.16
460.438	20549.32
460.644	20358.86
460.85	19683.03
461.055	19242.71
461.261	19359.45
461.466	17923.82
461.672	17280.76
461.878	18591.46
462.083	17354.49
462.289	17008.38
462.494	16869.12
462.7	15920.91
462.905	15787.79
463.111	16387.85
463.316	16398.09
463.522	15882
463.727	16068.36
463.932	15945.48
464.138	15533.84
464.343	15892.24
464.549	15249.18
464.754	15816.46
464.959	15845.13
465.165	15861.52
465.37	15126.3
465.575	14630.69
465.781	15124.25
465.986	15499.03
466.191	14728.99
466.397	14448.42
466.602	13823.79
466.807	14554.91
467.012	14362.4
467.218	14317.35
467.423	13774.64
467.628	14395.17
467.833	14628.64
468.038	14327.59
