Data from USB4F104151__137__11-07-57-324.txt Node

Date: Wed Mar 12 11:07:57 EDT 2025
User: louis
Spectrometer: USB4F10415
Trigger mode: 4
Integration Time (sec): 2.000000E-2
Scans to average: 1
Electric dark correction enabled: true
Nonlinearity correction enabled: false
Boxcar width: 0
XAxis mode: Wavelengths
Number of Pixels in Spectrum: 3648
>>>>>Begin Spectral Data<<<<<
178.204	-131.24
178.424	-131.24
178.644	-131.24
178.864	-55.47
179.084	-127.14
179.304	34.64
179.524	-4.27
179.744	-34.99
179.964	48.98
180.184	-4.27
180.404	22.36
180.624	14.17
180.844	-22.7
181.064	-14.51
181.283	46.93
181.503	-18.6
181.723	-67.75
181.943	14.17
182.163	69.46
182.383	36.69
182.602	79.7
182.822	18.26
183.042	-26.79
183.262	22.36
183.482	-22.7
183.701	-26.79
183.921	63.32
184.141	-8.36
184.361	38.74
184.58	26.45
184.8	40.79
185.02	-4.27
185.239	75.6
185.459	20.31
185.679	51.03
185.898	-0.17
186.118	102.23
186.338	-8.36
186.557	-18.6
186.777	-53.42
186.997	-22.7
187.216	5.97
187.436	100.18
187.655	-55.47
187.875	67.41
188.095	-8.36
188.314	14.17
188.534	20.31
188.753	30.55
188.973	59.22
189.192	-63.66
189.412	57.17
189.631	-12.46
189.851	-55.47
190.07	36.69
190.29	-49.32
190.509	110.42
190.729	20.31
190.948	57.17
191.168	108.37
191.387	14.17
191.607	-26.79
191.826	48.98
192.045	-14.51
192.265	24.4
192.484	-18.6
192.704	10.07
192.923	1.88
193.142	22.36
193.362	42.84
193.581	51.03
193.8	42.84
194.02	12.12
194.239	55.12
194.458	-86.19
194.678	24.4
194.897	73.56
195.116	-10.41
195.335	18.26
195.555	16.21
195.774	67.41
195.993	10.07
196.212	-51.37
196.432	10.07
196.651	36.69
196.87	20.31
197.089	-20.65
197.308	-0.17
197.528	16.21
197.747	-96.43
197.966	12.12
198.185	85.84
198.404	-37.03
198.623	22.36
198.842	28.5
199.062	32.6
199.281	28.5
199.5	-69.8
199.719	-28.84
199.938	-6.31
200.157	34.64
200.376	18.26
200.595	16.21
200.814	46.93
201.033	-41.13
201.252	18.26
201.471	24.4
201.69	3.93
201.909	12.12
202.128	53.08
202.347	32.6
202.566	26.45
202.785	42.84
203.004	-14.51
203.223	57.17
203.442	28.5
203.661	12.12
203.879	36.69
204.098	91.99
204.317	-14.51
204.536	38.74
204.755	34.64
204.974	63.32
205.193	34.64
205.411	61.27
205.63	10.07
205.849	36.69
206.068	-10.41
206.287	34.64
206.505	59.22
206.724	-16.55
206.943	79.7
207.162	30.55
207.381	-8.36
207.599	38.74
207.818	38.74
208.037	-0.17
208.255	77.65
208.474	16.21
208.693	-18.6
208.911	-37.03
209.13	59.22
209.349	5.97
209.567	-30.89
209.786	-65.71
210.005	3.93
210.223	-45.23
210.442	-24.75
210.661	36.69
210.879	-8.36
211.098	46.93
211.316	-22.7
211.535	28.5
211.753	-57.51
211.972	-20.65
212.191	12.12
212.409	-20.65
212.628	28.5
212.846	46.93
213.065	-0.17
213.283	-8.36
213.502	-43.18
213.72	14.17
213.938	-49.32
214.157	-10.41
214.375	57.17
214.594	3.93
214.812	38.74
215.031	26.45
215.249	14.17
215.467	24.4
215.686	-47.27
215.904	-18.6
216.122	30.55
216.341	135
216.559	-14.51
216.778	-8.36
216.996	-0.17
217.214	1.88
217.432	-2.22
217.651	-30.89
217.869	-10.41
218.087	-18.6
218.306	53.08
218.524	18.26
218.742	46.93
218.96	51.03
219.179	63.32
219.397	-12.46
219.615	-37.03
219.833	42.84
220.051	59.22
220.27	26.45
220.488	44.88
220.706	26.45
220.924	1.88
221.142	-18.6
221.36	42.84
221.578	16.21
221.796	44.88
222.015	-51.37
222.233	1.88
222.451	57.17
222.669	-88.23
222.887	28.5
223.105	18.26
223.323	20.31
223.541	-22.7
223.759	61.27
223.977	-6.31
224.195	44.88
224.413	10.07
224.631	42.84
224.849	-49.32
225.067	40.79
225.285	14.17
225.503	75.6
225.721	-39.08
225.939	-16.55
226.157	-8.36
226.375	120.66
226.592	22.36
226.81	34.64
227.028	26.45
227.246	61.27
227.464	26.45
227.682	1.88
227.9	55.12
228.117	71.51
228.335	36.69
228.553	67.41
228.771	40.79
228.989	53.08
229.206	71.51
229.424	48.98
229.642	8.02
229.86	16.21
230.077	34.64
230.295	-2.22
230.513	55.12
230.731	32.6
230.948	18.26
231.166	-37.03
231.384	75.6
231.601	-14.51
231.819	46.93
232.037	26.45
232.254	-24.75
232.472	36.69
232.689	-30.89
232.907	36.69
233.125	24.4
233.342	24.4
233.56	-59.56
233.777	73.56
233.995	-65.71
234.213	24.4
234.43	40.79
234.648	38.74
234.865	-26.79
235.083	-34.99
235.3	57.17
235.518	42.84
235.735	38.74
235.953	59.22
236.17	65.36
236.388	38.74
236.605	65.36
236.822	67.41
237.04	59.22
237.257	18.26
237.475	-4.27
237.692	65.36
237.909	10.07
238.127	40.79
238.344	22.36
238.562	8.02
238.779	-6.31
238.996	-55.47
239.214	57.17
239.431	65.36
239.648	-51.37
239.865	-0.17
240.083	79.7
240.3	3.93
240.517	-71.85
240.735	22.36
240.952	14.17
241.169	-32.94
241.386	-12.46
241.603	26.45
241.821	-22.7
242.038	3.93
242.255	5.97
242.472	-61.61
242.689	91.99
242.907	51.03
243.124	12.12
243.341	-2.22
243.558	-14.51
243.775	42.84
243.992	-41.13
244.209	16.21
244.426	67.41
244.643	30.55
244.86	-22.7
245.078	44.88
245.295	30.55
245.512	3.93
245.729	5.97
245.946	34.64
246.163	-6.31
246.38	12.12
246.597	12.12
246.814	-43.18
247.031	3.93
247.248	53.08
247.464	26.45
247.681	61.27
247.898	61.27
248.115	-43.18
248.332	30.55
248.549	28.5
248.766	18.26
248.983	42.84
249.2	46.93
249.417	36.69
249.633	-6.31
249.85	12.12
250.067	8.02
250.284	77.65
250.501	-20.65
250.717	5.97
250.934	1.88
251.151	63.32
251.368	42.84
251.585	63.32
251.801	-2.22
252.018	14.17
252.235	22.36
252.451	26.45
252.668	-14.51
252.885	-12.46
253.102	48.98
253.318	-14.51
253.535	-2.22
253.752	-8.36
253.968	38.74
254.185	-53.42
254.401	-18.6
254.618	-14.51
254.835	38.74
255.051	65.36
255.268	16.21
255.484	69.46
255.701	8.02
255.917	30.55
256.134	-8.36
256.351	-22.7
256.567	-0.17
256.784	-28.84
257	-43.18
257.217	24.4
257.433	12.12
257.65	30.55
257.866	16.21
258.082	22.36
258.299	-8.36
258.515	8.02
258.732	83.8
258.948	46.93
259.165	-2.22
259.381	-69.8
259.597	34.64
259.814	61.27
260.03	91.99
260.246	32.6
260.463	46.93
260.679	102.23
260.895	-20.65
261.112	18.26
261.328	-6.31
261.544	12.12
261.761	75.6
261.977	18.26
262.193	-65.71
262.409	89.94
262.626	30.55
262.842	28.5
263.058	5.97
263.274	-0.17
263.49	22.36
263.707	120.66
263.923	-32.94
264.139	-39.08
264.355	40.79
264.571	16.21
264.787	100.18
265.004	98.13
265.22	77.65
265.436	65.36
265.652	-6.31
265.868	12.12
266.084	-55.47
266.3	38.74
266.516	14.17
266.732	48.98
266.948	-6.31
267.164	53.08
267.38	48.98
267.596	-34.99
267.812	20.31
268.028	-20.65
268.244	18.26
268.46	36.69
268.676	8.02
268.892	57.17
269.108	38.74
269.324	-6.31
269.54	38.74
269.756	-59.56
269.972	38.74
270.188	1.88
270.403	14.17
270.619	-14.51
270.835	32.6
271.051	26.45
271.267	3.93
271.483	26.45
271.698	12.12
271.914	79.7
272.13	67.41
272.346	96.08
272.562	26.45
272.777	24.4
272.993	1.88
273.209	30.55
273.425	36.69
273.64	-2.22
273.856	87.89
274.072	-4.27
274.287	26.45
274.503	28.5
274.719	69.46
274.934	-53.42
275.15	12.12
275.366	57.17
275.581	24.4
275.797	38.74
276.012	-2.22
276.228	-24.75
276.444	18.26
276.659	96.08
276.875	-20.65
277.09	28.5
277.306	-12.46
277.521	3.93
277.737	71.51
277.952	24.4
278.168	38.74
278.383	44.88
278.599	-39.08
278.814	73.56
279.03	12.12
279.245	32.6
279.461	-18.6
279.676	14.17
279.892	26.45
280.107	-22.7
280.322	-22.7
280.538	-22.7
280.753	51.03
280.969	-8.36
281.184	32.6
281.399	77.65
281.615	-28.84
281.83	16.21
282.045	-14.51
282.26	-14.51
282.476	1.88
282.691	26.45
282.906	14.17
283.122	18.26
283.337	-26.79
283.552	63.32
283.767	34.64
283.983	147.28
284.198	26.45
284.413	32.6
284.628	-10.41
284.843	-6.31
285.058	-8.36
285.274	-30.89
285.489	-30.89
285.704	-32.94
285.919	26.45
286.134	-55.47
286.349	-0.17
286.564	55.12
286.779	3.93
286.995	22.36
287.21	-71.85
287.425	16.21
287.64	18.26
287.855	1.88
288.07	48.98
288.285	10.07
288.5	116.56
288.715	67.41
288.93	30.55
289.145	-18.6
289.36	46.93
289.575	14.17
289.79	26.45
290.004	8.02
290.219	44.88
290.434	-6.31
290.649	10.07
290.864	26.45
291.079	8.02
291.294	12.12
291.509	36.69
291.724	30.55
291.938	-18.6
292.153	65.36
292.368	5.97
292.583	-0.17
292.798	73.56
293.012	34.64
293.227	-47.27
293.442	42.84
293.657	34.64
293.871	85.84
294.086	1.88
294.301	59.22
294.516	-20.65
294.73	38.74
294.945	22.36
295.16	20.31
295.374	69.46
295.589	38.74
295.804	67.41
296.018	14.17
296.233	65.36
296.447	38.74
296.662	-22.7
296.877	5.97
297.091	-6.31
297.306	26.45
297.52	42.84
297.735	12.12
297.949	46.93
298.164	147.28
298.378	-0.17
298.593	5.97
298.807	-55.47
299.022	26.45
299.236	-22.7
299.451	96.08
299.665	-0.17
299.88	1.88
300.094	-0.17
300.309	-26.79
300.523	57.17
300.737	22.36
300.952	-22.7
301.166	-24.75
301.381	22.36
301.595	28.5
301.809	-10.41
302.024	-6.31
302.238	63.32
302.452	36.69
302.667	-26.79
302.881	-24.75
303.095	14.17
303.309	10.07
303.524	22.36
303.738	-45.23
303.952	40.79
304.166	55.12
304.381	8.02
304.595	57.17
304.809	10.07
305.023	-39.08
305.237	-18.6
305.452	-6.31
305.666	53.08
305.88	-41.13
306.094	18.26
306.308	40.79
306.522	51.03
306.736	28.5
306.95	34.64
307.164	-4.27
307.379	-59.56
307.593	137.04
307.807	87.89
308.021	24.4
308.235	26.45
308.449	22.36
308.663	14.17
308.877	106.32
309.091	46.93
309.305	65.36
309.519	20.31
309.733	30.55
309.947	20.31
310.161	42.84
310.374	26.45
310.588	61.27
310.802	34.64
311.016	-26.79
311.23	-22.7
311.444	79.7
311.658	89.94
311.872	-12.46
312.085	124.76
312.299	38.74
312.513	-45.23
312.727	28.5
312.941	-20.65
313.154	26.45
313.368	55.12
313.582	-65.71
313.796	-30.89
314.009	89.94
314.223	83.8
314.437	-12.46
314.651	51.03
314.864	63.32
315.078	-32.94
315.292	30.55
315.505	-18.6
315.719	-14.51
315.933	59.22
316.146	-53.42
316.36	10.07
316.573	-4.27
316.787	-2.22
317.001	18.26
317.214	-32.94
317.428	53.08
317.641	1.88
317.855	-10.41
318.068	-22.7
318.282	18.26
318.495	26.45
318.709	38.74
318.922	-24.75
319.136	-2.22
319.349	69.46
319.563	-30.89
319.776	59.22
319.99	32.6
320.203	5.97
320.417	-34.99
320.63	-41.13
320.843	114.52
321.057	3.93
321.27	40.79
321.483	14.17
321.697	57.17
321.91	-32.94
322.124	91.99
322.337	100.18
322.55	81.75
322.763	73.56
322.977	-12.46
323.19	51.03
323.403	63.32
323.617	44.88
323.83	57.17
324.043	-14.51
324.256	104.28
324.469	5.97
324.683	63.32
324.896	30.55
325.109	1.88
325.322	5.97
325.535	24.4
325.748	-86.19
325.962	16.21
326.175	18.26
326.388	20.31
326.601	48.98
326.814	87.89
327.027	1.88
327.24	42.84
327.453	16.21
327.666	79.7
327.879	65.36
328.092	44.88
328.305	12.12
328.518	30.55
328.731	14.17
328.944	22.36
329.157	63.32
329.37	59.22
329.583	-32.94
329.796	55.12
330.009	51.03
330.222	-30.89
330.435	110.42
330.648	32.6
330.861	-0.17
331.073	-12.46
331.286	83.8
331.499	-10.41
331.712	28.5
331.925	10.07
332.138	-0.17
332.35	-0.17
332.563	32.6
332.776	55.12
332.989	30.55
333.202	14.17
333.414	18.26
333.627	5.97
333.84	38.74
334.053	83.8
334.265	24.4
334.478	69.46
334.691	69.46
334.903	44.88
335.116	30.55
335.329	30.55
335.541	16.21
335.754	85.84
335.966	-14.51
336.179	26.45
336.392	14.17
336.604	51.03
336.817	-0.17
337.029	20.31
337.242	-51.37
337.454	40.79
337.667	32.6
337.88	75.6
338.092	-2.22
338.305	83.8
338.517	16.21
338.729	3.93
338.942	108.37
339.154	-32.94
339.367	32.6
339.579	73.56
339.792	34.64
340.004	44.88
340.217	5.97
340.429	1.88
340.641	-24.75
340.854	-30.89
341.066	30.55
341.278	51.03
341.491	3.93
341.703	87.89
341.915	51.03
342.128	-26.79
342.34	32.6
342.552	30.55
342.764	5.97
342.977	96.08
343.189	-6.31
343.401	8.02
343.613	26.45
343.826	5.97
344.038	-14.51
344.25	124.76
344.462	12.12
344.674	12.12
344.886	71.51
345.099	14.17
345.311	57.17
345.523	3.93
345.735	53.08
345.947	81.75
346.159	59.22
346.371	8.02
346.583	1.88
346.795	42.84
347.007	32.6
347.219	12.12
347.431	48.98
347.643	8.02
347.855	42.84
348.067	-0.17
348.279	-98.47
348.491	69.46
348.703	-37.03
348.915	12.12
349.127	-22.7
349.339	48.98
349.551	20.31
349.763	30.55
349.975	28.5
350.187	44.88
350.399	63.32
350.61	3.93
350.822	18.26
351.034	71.51
351.246	77.65
351.458	30.55
351.669	32.6
351.881	36.69
352.093	51.03
352.305	87.89
352.517	104.28
352.728	30.55
352.94	-22.7
353.152	57.17
353.363	5.97
353.575	100.18
353.787	28.5
353.999	40.79
354.21	-8.36
354.422	-22.7
354.633	40.79
354.845	55.12
355.057	-20.65
355.268	63.32
355.48	-28.84
355.692	10.07
355.903	59.22
356.115	67.41
356.326	20.31
356.538	122.71
356.749	-6.31
356.961	79.7
357.172	-0.17
357.384	63.32
357.595	59.22
357.807	10.07
358.018	-65.71
358.23	46.93
358.441	40.79
358.653	55.12
358.864	51.03
359.075	-94.38
359.287	51.03
359.498	83.8
359.709	24.4
359.921	114.52
360.132	116.56
360.344	48.98
360.555	-34.99
360.766	51.03
360.977	67.41
361.189	55.12
361.4	28.5
361.611	42.84
361.823	63.32
362.034	20.31
362.245	3.93
362.456	40.79
362.667	14.17
362.879	-22.7
363.09	-8.36
363.301	-16.55
363.512	-0.17
363.723	40.79
363.935	26.45
364.146	3.93
364.357	5.97
364.568	-2.22
364.779	-20.65
364.99	106.32
365.201	-39.08
365.412	-6.31
365.623	12.12
365.834	38.74
366.045	-10.41
366.256	110.42
366.467	5.97
366.678	24.4
366.889	30.55
367.1	34.64
367.311	36.69
367.522	-20.65
367.733	38.74
367.944	102.23
368.155	48.98
368.366	44.88
368.577	42.84
368.788	46.93
368.999	8.02
369.209	24.4
369.42	22.36
369.631	42.84
369.842	51.03
370.053	38.74
370.264	75.6
370.474	-2.22
370.685	8.02
370.896	59.22
371.107	-8.36
371.317	100.18
371.528	-22.7
371.739	30.55
371.95	28.5
372.16	77.65
372.371	-57.51
372.582	48.98
372.792	5.97
373.003	32.6
373.214	108.37
373.424	63.32
373.635	5.97
373.846	44.88
374.056	61.27
374.267	30.55
374.477	16.21
374.688	-73.9
374.898	46.93
375.109	55.12
375.319	53.08
375.53	57.17
375.74	28.5
375.951	40.79
376.161	-14.51
376.372	40.79
376.582	-63.66
376.793	18.26
377.003	-0.17
377.214	16.21
377.424	85.84
377.635	55.12
377.845	-18.6
378.055	79.7
378.266	-0.17
378.476	57.17
378.686	1.88
378.897	36.69
379.107	-43.18
379.317	34.64
379.528	59.22
379.738	42.84
379.948	-10.41
380.158	38.74
380.369	-16.55
380.579	55.12
380.789	57.17
380.999	59.22
381.21	10.07
381.42	126.8
381.63	79.7
381.84	-10.41
382.05	55.12
382.261	85.84
382.471	-14.51
382.681	18.26
382.891	40.79
383.101	143.19
383.311	67.41
383.521	94.04
383.731	5.97
383.941	5.97
384.151	79.7
384.361	79.7
384.571	77.65
384.781	77.65
384.991	85.84
385.201	128.85
385.411	18.26
385.621	94.04
385.831	55.12
386.041	51.03
386.251	44.88
386.461	87.89
386.671	-20.65
386.881	69.46
387.091	57.17
387.301	1.88
387.511	61.27
387.72	14.17
387.93	51.03
388.14	59.22
388.35	83.8
388.56	-10.41
388.769	16.21
388.979	89.94
389.189	16.21
389.399	24.4
389.609	71.51
389.818	14.17
390.028	20.31
390.238	-0.17
390.447	42.84
390.657	116.56
390.867	-34.99
391.076	12.12
391.286	3.93
391.496	-2.22
391.705	30.55
391.915	-2.22
392.125	32.6
392.334	55.12
392.544	-14.51
392.753	-10.41
392.963	32.6
393.172	69.46
393.382	-14.51
393.591	145.24
393.801	38.74
394.01	14.17
394.22	79.7
394.429	53.08
394.639	38.74
394.848	53.08
395.058	26.45
395.267	57.17
395.477	67.41
395.686	48.98
395.895	63.32
396.105	118.61
396.314	24.4
396.524	22.36
396.733	10.07
396.942	108.37
397.152	100.18
397.361	53.08
397.57	40.79
397.78	69.46
397.989	42.84
398.198	104.28
398.407	24.4
398.617	51.03
398.826	42.84
399.035	75.6
399.244	91.99
399.453	94.04
399.663	-16.55
399.872	157.52
400.081	61.27
400.29	141.14
400.499	46.93
400.708	112.47
400.917	53.08
401.127	75.6
401.336	10.07
401.545	61.27
401.754	110.42
401.963	184.15
402.172	102.23
402.381	85.84
402.59	139.09
402.799	91.99
403.008	75.6
403.217	67.41
403.426	112.47
403.635	98.13
403.844	137.04
404.053	59.22
404.262	67.41
404.471	190.29
404.68	135
404.888	198.48
405.097	104.28
405.306	94.04
405.515	122.71
405.724	143.19
405.933	63.32
406.142	147.28
406.35	100.18
406.559	145.24
406.768	145.24
406.977	182.1
407.185	132.95
407.394	173.91
407.603	100.18
407.812	118.61
408.02	122.71
408.229	218.96
408.438	200.53
408.646	239.44
408.855	139.09
409.064	190.29
409.272	173.91
409.481	239.44
409.69	159.57
409.898	200.53
410.107	247.63
410.315	288.59
410.524	243.54
410.733	288.59
410.941	243.54
411.15	270.16
411.358	327.5
411.567	331.6
411.775	251.73
411.984	388.94
412.192	417.61
412.401	290.64
412.609	403.28
412.818	354.13
413.026	395.09
413.234	347.98
413.443	347.98
413.651	366.42
413.86	460.62
414.068	513.87
414.276	493.39
414.485	485.2
414.693	489.29
414.901	575.31
415.11	479.05
415.318	599.88
415.526	528.21
415.734	661.32
415.943	599.88
416.151	624.46
416.359	651.08
416.567	677.71
416.776	730.95
416.984	726.86
417.192	853.83
417.4	761.67
417.608	663.37
417.817	833.35
418.025	923.46
418.233	890.7
418.441	911.18
418.649	890.7
418.857	972.61
419.065	1089.35
419.273	1040.2
419.481	1095.49
419.689	1132.36
419.897	1156.93
420.105	1199.94
420.313	1238.85
420.521	1210.18
420.729	1326.91
420.937	1384.26
421.145	1304.39
421.353	1515.33
421.561	1476.41
421.769	1570.62
421.977	1601.34
422.185	1670.97
422.393	1656.64
422.601	1853.24
422.809	1857.34
423.017	1890.1
423.224	1963.83
423.432	1902.39
423.64	1894.2
423.848	2004.79
424.056	2103.09
424.263	2103.09
424.471	2303.79
424.679	2262.83
424.887	2352.95
425.094	2400.05
425.302	2438.96
425.51	2537.26
425.718	2660.14
425.925	2778.92
426.133	2780.97
426.341	2885.42
426.548	3022.63
426.756	2942.76
426.964	3165.99
427.171	3231.52
427.379	3303.2
427.586	3430.18
427.794	3534.62
428.001	3641.12
428.209	3774.24
428.417	3702.56
428.624	4038.42
428.832	4067.1
429.039	4077.34
429.247	4081.43
429.454	4423.44
429.662	4761.36
429.869	4448.02
430.076	4769.55
430.284	4425.49
430.491	4810.51
430.699	5152.52
430.906	5007.11
431.114	5062.41
431.321	5312.26
431.528	5224.2
431.736	5639.94
431.943	5734.14
432.15	5785.34
432.358	5879.55
432.565	6285.05
432.772	6184.69
432.979	6582
433.187	6545.14
433.394	6706.93
433.601	7116.52
433.808	7030.51
434.016	7085.8
434.223	7425.76
434.43	8009.44
434.637	7724.77
434.844	7939.8
435.052	8445.65
435.259	8339.16
435.466	8470.23
435.673	8148.7
435.88	8789.71
436.087	9277.13
436.294	9342.66
436.501	9205.45
436.708	9404.1
436.915	9543.36
437.122	10051.26
437.329	9975.49
437.537	10266.3
437.743	10630.84
437.95	10499.77
438.157	10872.5
438.364	11101.87
438.571	11347.62
438.778	11419.3
438.985	12304.03
439.192	11941.54
439.399	12289.69
439.606	11996.83
439.813	12607.12
440.02	13420.17
440.227	13145.74
440.433	12998.29
440.64	13674.12
440.847	13469.32
441.054	13719.17
441.261	14757.49
441.467	14585.46
441.674	14691.96
441.881	15156.85
442.088	15160.94
442.294	15195.76
442.501	15488.62
442.708	15783.52
442.914	16518.75
443.121	17204.81
443.328	16680.53
443.534	17882.69
443.741	17292.88
443.948	17196.62
444.154	18470.46
444.361	18273.85
444.568	18380.35
444.774	18284.09
444.981	18710.07
445.187	19340.85
445.394	20190.75
445.6	19652.14
445.807	21589.52
446.013	20866.58
446.22	21052.95
446.426	22070.79
446.633	22046.21
446.839	22818.3
447.046	22111.75
447.252	23080.44
447.459	23274.99
447.665	23121.4
447.871	24165.86
448.078	25011.67
448.284	23754.22
448.491	24747.48
448.697	25718.22
448.903	26136.01
449.11	25953.74
449.316	25304.53
449.522	25939.4
449.728	26682.81
449.935	26961.34
450.141	26977.72
450.347	27409.84
450.553	26430.91
450.76	26938.81
450.966	28038.57
451.172	27186.61
451.378	28282.28
451.584	27305.4
451.791	28517.79
451.997	28429.73
452.203	28843.42
452.409	28827.04
452.615	28589.47
452.821	27512.24
453.027	27076.02
453.233	28579.23
453.44	27536.82
453.646	27729.33
453.852	28022.19
454.058	28274.09
454.264	27387.32
454.47	28026.28
454.676	27581.87
454.882	28222.89
455.088	25832.91
455.294	26285.51
455.5	26672.57
455.705	26897.85
455.911	25722.32
456.117	25122.26
456.323	24810.97
456.529	23492.08
456.735	24767.96
456.941	23991.78
457.147	23752.17
457.352	22695.42
457.558	22719.99
457.764	22644.22
457.97	22236.67
458.176	21556.75
458.381	21712.39
458.587	20622.87
458.793	20629.02
458.999	19613.23
459.204	21048.85
459.41	20301.34
459.616	18921.01
459.821	18822.71
460.027	18882.1
460.233	18490.94
460.438	17638.98
460.644	17995.33
460.85	17012.31
461.055	16891.48
461.261	16727.64
461.466	15603.3
461.672	14919.28
461.878	15982.18
462.083	14984.82
462.289	14747.25
462.494	14909.04
462.7	14042.75
462.905	13647.49
463.111	14188.16
463.316	14233.21
463.522	13717.12
463.727	13874.82
463.932	13946.5
464.138	13672.07
464.343	13969.02
464.549	13481.61
464.754	13954.69
464.959	13702.79
465.165	13704.84
465.37	12942.99
465.575	12572.31
465.781	13366.92
465.986	13276.81
466.191	12910.22
466.397	12439.19
466.602	12312.22
466.807	12289.69
467.012	12508.82
467.218	12383.9
467.423	12250.78
467.628	12291.74
