Data from USB4F104151__260__11-11-55-255.txt Node

Date: Wed Mar 12 11:11:55 EDT 2025
User: louis
Spectrometer: USB4F10415
Trigger mode: 4
Integration Time (sec): 2.000000E-2
Scans to average: 1
Electric dark correction enabled: true
Nonlinearity correction enabled: false
Boxcar width: 0
XAxis mode: Wavelengths
Number of Pixels in Spectrum: 3648
>>>>>Begin Spectral Data<<<<<
178.204	-80.89
178.424	-80.89
178.644	-80.89
178.864	-44.03
179.084	-97.28
179.304	-19.46
179.524	-31.74
179.744	76.8
179.964	-23.55
180.184	-66.56
180.404	46.08
180.624	-5.12
180.844	-25.6
181.064	-52.22
181.283	25.6
181.503	7.17
181.723	68.61
181.943	-31.74
182.163	58.37
182.383	-13.31
182.602	9.22
182.822	-21.5
183.042	56.32
183.262	-19.46
183.482	-46.08
183.701	44.03
183.921	39.94
184.141	62.46
184.361	19.46
184.58	17.41
184.8	7.17
185.02	19.46
185.239	29.7
185.459	44.03
185.679	-1.02
185.898	-19.46
186.118	33.79
186.338	27.65
186.557	78.85
186.777	-3.07
186.997	21.5
187.216	33.79
187.436	-3.07
187.655	29.7
187.875	84.99
188.095	-21.5
188.314	21.5
188.534	11.26
188.753	41.98
188.973	27.65
189.192	54.27
189.412	-3.07
189.631	5.12
189.851	41.98
190.07	89.09
190.29	31.74
190.509	78.85
190.729	31.74
190.948	31.74
191.168	183.29
191.387	37.89
191.607	25.6
191.826	54.27
192.045	17.41
192.265	52.22
192.484	41.98
192.704	-35.84
192.923	33.79
193.142	84.99
193.362	58.37
193.581	11.26
193.8	70.65
194.02	74.75
194.239	74.75
194.458	62.46
194.678	39.94
194.897	15.36
195.116	35.84
195.335	62.46
195.555	17.41
195.774	111.61
195.993	-19.46
196.212	5.12
196.432	3.07
196.651	7.17
196.87	84.99
197.089	101.37
197.308	39.94
197.528	29.7
197.747	-15.36
197.966	21.5
198.185	-13.31
198.404	21.5
198.623	97.28
198.842	33.79
199.062	27.65
199.281	95.23
199.5	84.99
199.719	39.94
199.938	70.65
200.157	44.03
200.376	-21.5
200.595	29.7
200.814	9.22
201.033	11.26
201.252	39.94
201.471	31.74
201.69	78.85
201.909	19.46
202.128	84.99
202.347	39.94
202.566	46.08
202.785	39.94
203.004	50.18
203.223	56.32
203.442	29.7
203.661	-23.55
203.879	62.46
204.098	46.08
204.317	19.46
204.536	58.37
204.755	33.79
204.974	41.98
205.193	17.41
205.411	97.28
205.63	-19.46
205.849	33.79
206.068	33.79
206.287	33.79
206.505	39.94
206.724	56.32
206.943	44.03
207.162	80.89
207.381	29.7
207.599	23.55
207.818	25.6
208.037	48.13
208.255	21.5
208.474	5.12
208.693	11.26
208.911	9.22
209.13	37.89
209.349	72.7
209.567	19.46
209.786	35.84
210.005	-15.36
210.223	29.7
210.442	25.6
210.661	9.22
210.879	56.32
211.098	103.42
211.316	125.95
211.535	46.08
211.753	13.31
211.972	56.32
212.191	15.36
212.409	-5.12
212.628	37.89
212.846	9.22
213.065	-19.46
213.283	52.22
213.502	-17.41
213.72	-13.31
213.938	48.13
214.157	76.8
214.375	-13.31
214.594	56.32
214.812	64.51
215.031	68.61
215.249	-33.79
215.467	3.07
215.686	87.04
215.904	9.22
216.122	48.13
216.341	27.65
216.559	132.09
216.778	48.13
216.996	35.84
217.214	7.17
217.432	97.28
217.651	17.41
217.869	21.5
218.087	13.31
218.306	25.6
218.524	-56.32
218.742	37.89
218.96	37.89
219.179	17.41
219.397	-7.17
219.615	89.09
219.833	23.55
220.051	68.61
220.27	29.7
220.488	7.17
220.706	37.89
220.924	70.65
221.142	-1.02
221.36	-3.07
221.578	-9.22
221.796	109.57
222.015	62.46
222.233	3.07
222.451	-11.26
222.669	-1.02
222.887	5.12
223.105	-5.12
223.323	54.27
223.541	19.46
223.759	-52.22
223.977	91.13
224.195	54.27
224.413	-13.31
224.631	44.03
224.849	5.12
225.067	93.18
225.285	56.32
225.503	72.7
225.721	50.18
225.939	27.65
226.157	41.98
226.375	72.7
226.592	27.65
226.81	99.33
227.028	25.6
227.246	97.28
227.464	23.55
227.682	60.42
227.9	27.65
228.117	60.42
228.335	41.98
228.553	60.42
228.771	50.18
228.989	23.55
229.206	107.52
229.424	52.22
229.642	15.36
229.86	7.17
230.077	35.84
230.295	-15.36
230.513	44.03
230.731	97.28
230.948	-15.36
231.166	13.31
231.384	-1.02
231.601	35.84
231.819	37.89
232.037	-33.79
232.254	58.37
232.472	5.12
232.689	5.12
232.907	-13.31
233.125	62.46
233.342	70.65
233.56	19.46
233.777	41.98
233.995	27.65
234.213	132.09
234.43	52.22
234.648	-3.07
234.865	-35.84
235.083	95.23
235.3	103.42
235.518	17.41
235.735	60.42
235.953	29.7
236.17	17.41
236.388	-17.41
236.605	5.12
236.822	-3.07
237.04	78.85
237.257	64.51
237.475	-13.31
237.692	50.18
237.909	39.94
238.127	31.74
238.344	70.65
238.562	46.08
238.779	9.22
238.996	74.75
239.214	5.12
239.431	140.29
239.648	35.84
239.865	76.8
240.083	29.7
240.3	56.32
240.517	-70.65
240.735	-13.31
240.952	25.6
241.169	74.75
241.386	41.98
241.603	-15.36
241.821	27.65
242.038	74.75
242.255	80.89
242.472	5.12
242.689	66.56
242.907	48.13
243.124	-7.17
243.341	23.55
243.558	-52.22
243.775	-62.46
243.992	5.12
244.209	1.02
244.426	25.6
244.643	-13.31
244.86	31.74
245.078	31.74
245.295	37.89
245.512	7.17
245.729	33.79
245.946	35.84
246.163	46.08
246.38	50.18
246.597	-7.17
246.814	68.61
247.031	60.42
247.248	56.32
247.464	46.08
247.681	21.5
247.898	25.6
248.115	41.98
248.332	52.22
248.549	60.42
248.766	19.46
248.983	64.51
249.2	78.85
249.417	113.66
249.633	21.5
249.85	29.7
250.067	27.65
250.284	62.46
250.501	72.7
250.717	37.89
250.934	-39.94
251.151	3.07
251.368	37.89
251.585	-11.26
251.801	82.94
252.018	9.22
252.235	48.13
252.451	50.18
252.668	-35.84
252.885	41.98
253.102	21.5
253.318	68.61
253.535	-7.17
253.752	58.37
253.968	-11.26
254.185	-17.41
254.401	-27.65
254.618	33.79
254.835	19.46
255.051	-37.89
255.268	58.37
255.484	25.6
255.701	-35.84
255.917	62.46
256.134	-7.17
256.351	-1.02
256.567	-64.51
256.784	-27.65
257	35.84
257.217	46.08
257.433	15.36
257.65	-9.22
257.866	62.46
258.082	52.22
258.299	29.7
258.515	39.94
258.732	74.75
258.948	7.17
259.165	41.98
259.381	5.12
259.597	44.03
259.814	-23.55
260.03	84.99
260.246	31.74
260.463	35.84
260.679	9.22
260.895	46.08
261.112	46.08
261.328	11.26
261.544	21.5
261.761	46.08
261.977	91.13
262.193	46.08
262.409	1.02
262.626	29.7
262.842	50.18
263.058	-39.94
263.274	21.5
263.49	72.7
263.707	72.7
263.923	9.22
264.139	3.07
264.355	27.65
264.571	58.37
264.787	19.46
265.004	33.79
265.22	60.42
265.436	60.42
265.652	-3.07
265.868	74.75
266.084	-7.17
266.3	41.98
266.516	54.27
266.732	41.98
266.948	121.85
267.164	-7.17
267.38	-9.22
267.596	-19.46
267.812	50.18
268.028	56.32
268.244	3.07
268.46	107.52
268.676	27.65
268.892	21.5
269.108	15.36
269.324	-3.07
269.54	72.7
269.756	50.18
269.972	-44.03
270.188	44.03
270.403	-9.22
270.619	-27.65
270.835	109.57
271.051	66.56
271.267	7.17
271.483	74.75
271.698	70.65
271.914	84.99
272.13	-19.46
272.346	15.36
272.562	-27.65
272.777	152.57
272.993	-25.6
273.209	44.03
273.425	15.36
273.64	5.12
273.856	-31.74
274.072	15.36
274.287	23.55
274.503	107.52
274.719	35.84
274.934	76.8
275.15	11.26
275.366	17.41
275.581	1.02
275.797	82.94
276.012	-1.02
276.228	-15.36
276.444	64.51
276.659	68.61
276.875	-29.7
277.09	29.7
277.306	-44.03
277.521	66.56
277.737	-29.7
277.952	87.04
278.168	-7.17
278.383	48.13
278.599	84.99
278.814	3.07
279.03	31.74
279.245	21.5
279.461	-31.74
279.676	52.22
279.892	-13.31
280.107	-11.26
280.322	31.74
280.538	82.94
280.753	39.94
280.969	48.13
281.184	19.46
281.399	-39.94
281.615	-68.61
281.83	-41.98
282.045	9.22
282.26	48.13
282.476	37.89
282.691	39.94
282.906	48.13
283.122	52.22
283.337	25.6
283.552	21.5
283.767	50.18
283.983	70.65
284.198	39.94
284.413	66.56
284.628	-3.07
284.843	27.65
285.058	58.37
285.274	-11.26
285.489	-23.55
285.704	9.22
285.919	-11.26
286.134	50.18
286.349	-29.7
286.564	27.65
286.779	11.26
286.995	-33.79
287.21	17.41
287.425	19.46
287.64	52.22
287.855	44.03
288.07	1.02
288.285	68.61
288.5	41.98
288.715	101.37
288.93	17.41
289.145	27.65
289.36	78.85
289.575	39.94
289.79	64.51
290.004	3.07
290.219	31.74
290.434	60.42
290.649	21.5
290.864	50.18
291.079	37.89
291.294	29.7
291.509	9.22
291.724	89.09
291.938	23.55
292.153	48.13
292.368	19.46
292.583	31.74
292.798	66.56
293.012	-11.26
293.227	1.02
293.442	-3.07
293.657	25.6
293.871	41.98
294.086	35.84
294.301	101.37
294.516	60.42
294.73	15.36
294.945	-17.41
295.16	15.36
295.374	-78.85
295.589	41.98
295.804	54.27
296.018	64.51
296.233	68.61
296.447	-35.84
296.662	-17.41
296.877	7.17
297.091	35.84
297.306	19.46
297.52	29.7
297.735	27.65
297.949	41.98
298.164	-23.55
298.378	74.75
298.593	80.89
298.807	56.32
299.022	97.28
299.236	29.7
299.451	21.5
299.665	74.75
299.88	56.32
300.094	29.7
300.309	58.37
300.523	62.46
300.737	74.75
300.952	-27.65
301.166	9.22
301.381	25.6
301.595	46.08
301.809	21.5
302.024	27.65
302.238	17.41
302.452	107.52
302.667	62.46
302.881	66.56
303.095	99.33
303.309	25.6
303.524	9.22
303.738	70.65
303.952	44.03
304.166	68.61
304.381	13.31
304.595	72.7
304.809	66.56
305.023	19.46
305.237	11.26
305.452	9.22
305.666	25.6
305.88	68.61
306.094	144.38
306.308	29.7
306.522	19.46
306.736	39.94
306.95	29.7
307.164	91.13
307.379	-64.51
307.593	23.55
307.807	27.65
308.021	23.55
308.235	33.79
308.449	13.31
308.663	74.75
308.877	123.9
309.091	41.98
309.305	39.94
309.519	33.79
309.733	84.99
309.947	31.74
310.161	66.56
310.374	3.07
310.588	62.46
310.802	-11.26
311.016	15.36
311.23	52.22
311.444	27.65
311.658	60.42
311.872	-5.12
312.085	70.65
312.299	37.89
312.513	-1.02
312.727	39.94
312.941	-21.5
313.154	84.99
313.368	58.37
313.582	78.85
313.796	-1.02
314.009	7.17
314.223	54.27
314.437	-11.26
314.651	62.46
314.864	29.7
315.078	11.26
315.292	-15.36
315.505	27.65
315.719	33.79
315.933	68.61
316.146	37.89
316.36	-60.42
316.573	107.52
316.787	-44.03
317.001	9.22
317.214	5.12
317.428	-23.55
317.641	-50.18
317.855	31.74
318.068	48.13
318.282	46.08
318.495	136.19
318.709	52.22
318.922	-7.17
319.136	64.51
319.349	64.51
319.563	39.94
319.776	-35.84
319.99	33.79
320.203	82.94
320.417	-80.89
320.63	54.27
320.843	101.37
321.057	-37.89
321.27	11.26
321.483	21.5
321.697	46.08
321.91	56.32
322.124	70.65
322.337	48.13
322.55	78.85
322.763	89.09
322.977	52.22
323.19	19.46
323.403	33.79
323.617	7.17
323.83	52.22
324.043	46.08
324.256	35.84
324.469	3.07
324.683	70.65
324.896	25.6
325.109	-39.94
325.322	5.12
325.535	-5.12
325.748	5.12
325.962	25.6
326.175	62.46
326.388	31.74
326.601	11.26
326.814	41.98
327.027	-33.79
327.24	84.99
327.453	29.7
327.666	44.03
327.879	-23.55
328.092	37.89
328.305	103.42
328.518	11.26
328.731	-39.94
328.944	-9.22
329.157	31.74
329.37	13.31
329.583	70.65
329.796	91.13
330.009	62.46
330.222	-23.55
330.435	9.22
330.648	80.89
330.861	56.32
331.073	78.85
331.286	68.61
331.499	44.03
331.712	5.12
331.925	21.5
332.138	7.17
332.35	52.22
332.563	27.65
332.776	60.42
332.989	48.13
333.202	41.98
333.414	-17.41
333.627	103.42
333.84	-58.37
334.053	54.27
334.265	25.6
334.478	21.5
334.691	31.74
334.903	-37.89
335.116	31.74
335.329	105.47
335.541	62.46
335.754	128
335.966	-52.22
336.179	41.98
336.392	-29.7
336.604	-1.02
336.817	56.32
337.029	97.28
337.242	82.94
337.454	-9.22
337.667	-7.17
337.88	56.32
338.092	17.41
338.305	60.42
338.517	7.17
338.729	35.84
338.942	50.18
339.154	25.6
339.367	50.18
339.579	35.84
339.792	54.27
340.004	33.79
340.217	29.7
340.429	13.31
340.641	25.6
340.854	9.22
341.066	37.89
341.278	3.07
341.491	11.26
341.703	54.27
341.915	-23.55
342.128	117.76
342.34	37.89
342.552	66.56
342.764	99.33
342.977	66.56
343.189	37.89
343.401	80.89
343.613	-39.94
343.826	54.27
344.038	27.65
344.25	37.89
344.462	29.7
344.674	35.84
344.886	46.08
345.099	68.61
345.311	62.46
345.523	50.18
345.735	82.94
345.947	58.37
346.159	27.65
346.371	-19.46
346.583	-9.22
346.795	48.13
347.007	25.6
347.219	37.89
347.431	-11.26
347.643	48.13
347.855	50.18
348.067	44.03
348.279	15.36
348.491	64.51
348.703	54.27
348.915	80.89
349.127	-7.17
349.339	17.41
349.551	29.7
349.763	58.37
349.975	29.7
350.187	17.41
350.399	82.94
350.61	21.5
350.822	9.22
351.034	58.37
351.246	-11.26
351.458	-5.12
351.669	37.89
351.881	93.18
352.093	23.55
352.305	41.98
352.517	-11.26
352.728	17.41
352.94	21.5
353.152	78.85
353.363	-60.42
353.575	52.22
353.787	41.98
353.999	29.7
354.21	35.84
354.422	17.41
354.633	44.03
354.845	41.98
355.057	-17.41
355.268	56.32
355.48	9.22
355.692	-5.12
355.903	21.5
356.115	1.02
356.326	11.26
356.538	27.65
356.749	25.6
356.961	52.22
357.172	44.03
357.384	1.02
357.595	78.85
357.807	87.04
358.018	-23.55
358.23	50.18
358.441	44.03
358.653	82.94
358.864	7.17
359.075	27.65
359.287	54.27
359.498	58.37
359.709	89.09
359.921	97.28
360.132	35.84
360.344	-35.84
360.555	48.13
360.766	48.13
360.977	44.03
361.189	107.52
361.4	121.85
361.611	91.13
361.823	15.36
362.034	50.18
362.245	7.17
362.456	109.57
362.667	70.65
362.879	82.94
363.09	80.89
363.301	58.37
363.512	60.42
363.723	50.18
363.935	80.89
364.146	35.84
364.357	56.32
364.568	39.94
364.779	25.6
364.99	62.46
365.201	60.42
365.412	72.7
365.623	-44.03
365.834	33.79
366.045	33.79
366.256	44.03
366.467	84.99
366.678	-23.55
366.889	-31.74
367.1	62.46
367.311	19.46
367.522	11.26
367.733	-3.07
367.944	66.56
368.155	-35.84
368.366	54.27
368.577	19.46
368.788	11.26
368.999	64.51
369.209	78.85
369.42	17.41
369.631	50.18
369.842	-3.07
370.053	-7.17
370.264	56.32
370.474	44.03
370.685	80.89
370.896	33.79
371.107	58.37
371.317	80.89
371.528	62.46
371.739	33.79
371.95	68.61
372.16	97.28
372.371	41.98
372.582	44.03
372.792	21.5
373.003	25.6
373.214	-19.46
373.424	41.98
373.635	-31.74
373.846	103.42
374.056	44.03
374.267	-48.13
374.477	109.57
374.688	37.89
374.898	21.5
375.109	29.7
375.319	93.18
375.53	128
375.74	11.26
375.951	68.61
376.161	41.98
376.372	39.94
376.582	23.55
376.793	37.89
377.003	80.89
377.214	15.36
377.424	62.46
377.635	-33.79
377.845	-15.36
378.055	37.89
378.266	-19.46
378.476	111.61
378.686	15.36
378.897	-52.22
379.107	-5.12
379.317	21.5
379.528	29.7
379.738	60.42
379.948	1.02
380.158	128
380.369	78.85
380.579	56.32
380.789	39.94
380.999	25.6
381.21	11.26
381.42	60.42
381.63	76.8
381.84	48.13
382.05	-3.07
382.261	99.33
382.471	64.51
382.681	54.27
382.891	64.51
383.101	35.84
383.311	17.41
383.521	-66.56
383.731	138.24
383.941	74.75
384.151	56.32
384.361	37.89
384.571	62.46
384.781	11.26
384.991	21.5
385.201	117.76
385.411	13.31
385.621	37.89
385.831	89.09
386.041	48.13
386.251	35.84
386.461	132.09
386.671	44.03
386.881	58.37
387.091	109.57
387.301	72.7
387.511	62.46
387.72	62.46
387.93	19.46
388.14	7.17
388.35	78.85
388.56	87.04
388.769	89.09
388.979	70.65
389.189	107.52
389.399	19.46
389.609	5.12
389.818	93.18
390.028	-44.03
390.238	56.32
390.447	60.42
390.657	41.98
390.867	56.32
391.076	27.65
391.286	-23.55
391.496	27.65
391.705	-7.17
391.915	113.66
392.125	5.12
392.334	93.18
392.544	41.98
392.753	99.33
392.963	-41.98
393.172	11.26
393.382	56.32
393.591	74.75
393.801	66.56
394.01	27.65
394.22	19.46
394.429	9.22
394.639	-7.17
394.848	27.65
395.058	68.61
395.267	121.85
395.477	72.7
395.686	21.5
395.895	101.37
396.105	107.52
396.314	46.08
396.524	82.94
396.733	76.8
396.942	64.51
397.152	35.84
397.361	21.5
397.57	50.18
397.78	25.6
397.989	-44.03
398.198	144.38
398.407	117.76
398.617	117.76
398.826	140.29
399.035	74.75
399.244	93.18
399.453	84.99
399.663	25.6
399.872	29.7
400.081	117.76
400.29	125.95
400.499	-7.17
400.708	58.37
400.917	136.19
401.127	91.13
401.336	82.94
401.545	105.47
401.754	72.7
401.963	99.33
402.172	13.31
402.381	44.03
402.59	70.65
402.799	78.85
403.008	146.43
403.217	87.04
403.426	70.65
403.635	9.22
403.844	74.75
404.053	103.42
404.262	41.98
404.471	121.85
404.68	21.5
404.888	48.13
405.097	123.9
405.306	89.09
405.515	74.75
405.724	29.7
405.933	48.13
406.142	64.51
406.35	168.96
406.559	82.94
406.768	9.22
406.977	140.29
407.185	70.65
407.394	99.33
407.603	13.31
407.812	179.2
408.02	119.81
408.229	113.66
408.438	109.57
408.646	103.42
408.855	78.85
409.064	152.57
409.272	107.52
409.481	201.72
409.69	119.81
409.898	72.7
410.107	140.29
410.315	119.81
410.524	117.76
410.733	142.33
410.941	168.96
411.15	185.34
411.358	199.68
411.567	148.48
411.775	242.68
411.984	119.81
412.192	218.11
412.401	209.92
412.609	285.69
412.818	193.53
413.026	185.34
413.234	181.25
413.443	226.3
413.651	185.34
413.86	273.4
414.068	248.83
414.276	300.03
414.485	300.03
414.693	254.97
414.901	265.21
415.11	269.31
415.318	293.88
415.526	314.36
415.734	435.19
415.943	316.41
416.151	392.19
416.359	340.99
416.567	347.13
416.776	392.19
416.984	433.15
417.192	445.43
417.4	381.95
417.608	396.28
417.817	353.27
418.025	361.47
418.233	439.29
418.441	412.67
418.649	402.43
418.857	377.85
419.065	457.72
419.273	402.43
419.481	502.78
419.689	572.41
419.897	556.02
420.105	521.21
420.313	562.17
420.521	629.75
420.729	658.42
420.937	539.64
421.145	564.22
421.353	588.79
421.561	705.53
421.769	660.47
421.977	664.57
422.185	738.29
422.393	703.48
422.601	721.91
422.809	715.77
423.017	781.3
423.224	789.49
423.432	857.07
423.64	859.12
423.848	953.33
424.056	844.79
424.263	945.14
424.471	887.79
424.679	955.38
424.887	1039.34
425.094	1090.54
425.302	1068.02
425.51	1033.2
425.718	1100.78
425.925	1190.89
426.133	1154.03
426.341	1307.63
426.548	1289.2
426.756	1289.2
426.964	1299.44
427.171	1334.25
427.379	1389.55
427.586	1420.27
427.794	1412.07
428.001	1567.72
428.209	1639.4
428.417	1565.67
428.624	1651.69
428.832	1768.42
429.039	1631.21
429.247	1704.93
429.454	1919.97
429.662	2053.09
429.869	1833.96
430.076	1913.83
430.284	1838.05
430.491	1895.4
430.699	2122.72
430.906	2030.56
431.114	2182.11
431.321	2075.62
431.528	2165.73
431.736	2325.47
431.943	2358.24
432.15	2317.28
432.358	2474.97
432.565	2536.41
432.772	2511.83
432.979	2628.57
433.187	2782.17
433.394	2720.73
433.601	2890.71
433.808	2960.34
434.016	2921.43
434.223	2997.2
434.43	3105.74
434.637	3132.37
434.844	3365.84
435.052	3251.15
435.259	3380.17
435.466	3529.67
435.673	3337.17
435.88	3521.48
436.087	3746.76
436.294	3881.92
436.501	3675.08
436.708	3744.71
436.915	3853.25
437.122	4078.53
437.329	3941.32
437.537	4082.63
437.743	4225.98
437.95	4178.88
438.157	4488.12
438.364	4662.2
438.571	4633.53
438.778	4582.33
438.985	4858.81
439.192	4643.77
439.399	5026.74
439.606	4801.46
439.813	5211.06
440.02	5442.48
440.227	5288.88
440.433	5301.17
440.64	5448.62
440.847	5487.53
441.054	5432.24
441.261	6028.2
441.467	5845.93
441.674	5837.73
441.881	6134.69
442.088	6013.86
442.294	5970.85
442.501	6120.35
442.708	6407.07
442.914	6572.96
443.121	6904.73
443.328	6550.43
443.534	7084.95
443.741	7000.98
443.948	6884.25
444.154	7291.79
444.361	7375.76
444.568	7361.42
444.774	7404.43
444.981	7539.6
445.187	7639.95
445.394	8080.26
445.6	7951.24
445.807	8631.16
446.013	8235.91
446.22	8346.5
446.426	8711.04
446.633	8803.19
446.839	9147.25
447.046	8790.91
447.252	9165.68
447.459	9018.23
447.665	9286.51
447.871	9636.72
448.078	9939.82
448.284	9476.98
448.491	9724.78
448.697	10236.77
448.903	10445.66
449.11	10154.85
449.316	10072.93
449.522	10337.12
449.728	10492.77
449.935	10722.14
450.141	10857.31
450.347	10916.7
450.553	10517.34
450.76	10732.38
450.966	10935.13
451.172	10910.55
451.378	11320.15
451.584	10920.79
451.791	11139.93
451.997	11033.43
452.203	11498.32
452.409	11281.24
452.615	11440.98
452.821	10957.66
453.027	10900.31
453.233	11293.52
453.44	10726.24
453.646	10998.62
453.852	11047.77
454.058	11254.61
454.264	10869.59
454.47	10892.12
454.676	10914.65
454.882	11137.88
455.088	10138.47
455.294	10259.3
455.5	10439.52
455.705	10804.06
455.911	10220.39
456.117	10111.85
456.323	9859.95
456.529	9415.54
456.735	9892.71
456.941	9657.2
457.147	9417.58
457.352	9137.01
457.558	8891.26
457.764	8964.98
457.97	8582.01
458.176	8526.72
458.381	8786.81
458.587	8389.5
458.793	8434.56
458.999	7994.25
459.204	8299.39
459.41	8047.49
459.616	7607.18
459.821	7396.24
460.027	7555.98
460.233	7465.87
460.438	7218.07
460.644	7101.33
460.85	6656.92
461.055	6855.58
461.261	6718.36
461.466	6171.55
461.672	5985.19
461.878	6556.57
462.083	6044.58
462.289	5862.31
462.494	5827.5
462.7	5526.44
462.905	5327.79
463.111	5766.06
463.316	5706.66
463.522	5434.29
463.727	5407.66
463.932	5493.68
464.138	5456.81
464.343	5448.62
464.549	5393.33
464.754	5493.68
464.959	5540.78
465.165	5245.87
465.37	5067.7
465.575	4867
465.781	5131.19
465.986	5272.5
466.191	5088.18
466.397	5073.84
466.602	4879.29
466.807	5057.46
467.012	4844.47
467.218	4875.19
467.423	4789.17
467.628	4871.09
467.833	5079.99
468.038	4957.11
468.244	4723.64
468.449	4924.34
468.654	4701.11
468.859	4649.91
469.064	4727.74
469.269	4578.23
469.474	4465.6
469.679	4590.52
469.885	4465.6
470.09	4518.84
470.295	4574.14
470.5	4357.05
