Data from USB4F104151__73__11-06-19-304.txt Node

Date: Wed Mar 12 11:06:19 EDT 2025
User: louis
Spectrometer: USB4F10415
Trigger mode: 4
Integration Time (sec): 2.000000E-2
Scans to average: 1
Electric dark correction enabled: true
Nonlinearity correction enabled: false
Boxcar width: 0
XAxis mode: Wavelengths
Number of Pixels in Spectrum: 3648
>>>>>Begin Spectral Data<<<<<
178.204	-71.85
178.424	-71.85
178.644	-71.85
178.864	-96.43
179.084	-84.14
179.304	-32.94
179.524	16.21
179.744	-12.46
179.964	10.07
180.184	-45.23
180.404	28.5
180.624	44.88
180.844	24.4
181.064	16.21
181.283	3.93
181.503	-49.32
181.723	-4.27
181.943	-24.75
182.163	108.37
182.383	14.17
182.602	34.64
182.822	28.5
183.042	16.21
183.262	3.93
183.482	44.88
183.701	57.17
183.921	18.26
184.141	20.31
184.361	104.28
184.58	44.88
184.8	16.21
185.02	-12.46
185.239	28.5
185.459	12.12
185.679	69.46
185.898	-8.36
186.118	22.36
186.338	14.17
186.557	26.45
186.777	44.88
186.997	-24.75
187.216	46.93
187.436	94.04
187.655	63.32
187.875	61.27
188.095	42.84
188.314	75.6
188.534	22.36
188.753	-26.79
188.973	20.31
189.192	71.51
189.412	32.6
189.631	12.12
189.851	16.21
190.07	63.32
190.29	18.26
190.509	5.97
190.729	14.17
190.948	5.97
191.168	106.32
191.387	16.21
191.607	-12.46
191.826	14.17
192.045	20.31
192.265	63.32
192.484	87.89
192.704	14.17
192.923	51.03
193.142	112.47
193.362	-14.51
193.581	36.69
193.8	67.41
194.02	53.08
194.239	22.36
194.458	77.65
194.678	-8.36
194.897	32.6
195.116	3.93
195.335	-6.31
195.555	5.97
195.774	-2.22
195.993	89.94
196.212	28.5
196.432	36.69
196.651	-24.75
196.87	30.55
197.089	63.32
197.308	46.93
197.528	69.46
197.747	26.45
197.966	83.8
198.185	63.32
198.404	3.93
198.623	44.88
198.842	67.41
199.062	75.6
199.281	36.69
199.5	-22.7
199.719	106.32
199.938	112.47
200.157	94.04
200.376	79.7
200.595	46.93
200.814	63.32
201.033	-86.19
201.252	51.03
201.471	1.88
201.69	36.69
201.909	22.36
202.128	36.69
202.347	12.12
202.566	89.94
202.785	30.55
203.004	24.4
203.223	34.64
203.442	69.46
203.661	14.17
203.879	28.5
204.098	65.36
204.317	-10.41
204.536	89.94
204.755	1.88
204.974	63.32
205.193	44.88
205.411	87.89
205.63	57.17
205.849	14.17
206.068	67.41
206.287	28.5
206.505	32.6
206.724	40.79
206.943	-18.6
207.162	-43.18
207.381	26.45
207.599	18.26
207.818	108.37
208.037	98.13
208.255	26.45
208.474	34.64
208.693	44.88
208.911	34.64
209.13	-12.46
209.349	91.99
209.567	83.8
209.786	44.88
210.005	63.32
210.223	30.55
210.442	-39.08
210.661	91.99
210.879	53.08
211.098	28.5
211.316	1.88
211.535	16.21
211.753	46.93
211.972	14.17
212.191	67.41
212.409	14.17
212.628	18.26
212.846	24.4
213.065	79.7
213.283	28.5
213.502	14.17
213.72	53.08
213.938	87.89
214.157	59.22
214.375	-16.55
214.594	104.28
214.812	73.56
215.031	55.12
215.249	22.36
215.467	20.31
215.686	3.93
215.904	-2.22
216.122	36.69
216.341	83.8
216.559	57.17
216.778	22.36
216.996	69.46
217.214	48.98
217.432	71.51
217.651	1.88
217.869	42.84
218.087	-12.46
218.306	77.65
218.524	30.55
218.742	-10.41
218.96	8.02
219.179	55.12
219.397	10.07
219.615	106.32
219.833	122.71
220.051	24.4
220.27	114.52
220.488	-10.41
220.706	5.97
220.924	48.98
221.142	71.51
221.36	71.51
221.578	63.32
221.796	-0.17
222.015	22.36
222.233	65.36
222.451	12.12
222.669	44.88
222.887	12.12
223.105	-20.65
223.323	3.93
223.541	20.31
223.759	71.51
223.977	-37.03
224.195	32.6
224.413	79.7
224.631	51.03
224.849	-49.32
225.067	89.94
225.285	-22.7
225.503	130.9
225.721	38.74
225.939	108.37
226.157	26.45
226.375	57.17
226.592	16.21
226.81	20.31
227.028	-4.27
227.246	46.93
227.464	8.02
227.682	1.88
227.9	79.7
228.117	22.36
228.335	40.79
228.553	36.69
228.771	36.69
228.989	73.56
229.206	55.12
229.424	128.85
229.642	18.26
229.86	53.08
230.077	16.21
230.295	-39.08
230.513	128.85
230.731	-22.7
230.948	59.22
231.166	51.03
231.384	22.36
231.601	26.45
231.819	36.69
232.037	8.02
232.254	53.08
232.472	-32.94
232.689	16.21
232.907	91.99
233.125	34.64
233.342	30.55
233.56	96.08
233.777	46.93
233.995	98.13
234.213	28.5
234.43	79.7
234.648	102.23
234.865	-28.84
235.083	-6.31
235.3	44.88
235.518	32.6
235.735	-34.99
235.953	65.36
236.17	51.03
236.388	100.18
236.605	-16.55
236.822	28.5
237.04	34.64
237.257	20.31
237.475	32.6
237.692	61.27
237.909	36.69
238.127	36.69
238.344	36.69
238.562	46.93
238.779	32.6
238.996	63.32
239.214	48.98
239.431	79.7
239.648	32.6
239.865	126.8
240.083	32.6
240.3	-43.18
240.517	36.69
240.735	-28.84
240.952	26.45
241.169	28.5
241.386	-26.79
241.603	18.26
241.821	1.88
242.038	51.03
242.255	5.97
242.472	85.84
242.689	46.93
242.907	42.84
243.124	69.46
243.341	1.88
243.558	36.69
243.775	53.08
243.992	-14.51
244.209	34.64
244.426	61.27
244.643	32.6
244.86	57.17
245.078	81.75
245.295	40.79
245.512	38.74
245.729	46.93
245.946	85.84
246.163	87.89
246.38	30.55
246.597	12.12
246.814	36.69
247.031	48.98
247.248	-2.22
247.464	83.8
247.681	38.74
247.898	71.51
248.115	30.55
248.332	36.69
248.549	38.74
248.766	46.93
248.983	40.79
249.2	69.46
249.417	8.02
249.633	63.32
249.85	102.23
250.067	83.8
250.284	38.74
250.501	14.17
250.717	-0.17
250.934	3.93
251.151	-37.03
251.368	46.93
251.585	96.08
251.801	110.42
252.018	-14.51
252.235	67.41
252.451	-12.46
252.668	30.55
252.885	-2.22
253.102	53.08
253.318	-4.27
253.535	63.32
253.752	63.32
253.968	-2.22
254.185	-10.41
254.401	34.64
254.618	-6.31
254.835	46.93
255.051	12.12
255.268	69.46
255.484	132.95
255.701	18.26
255.917	57.17
256.134	59.22
256.351	100.18
256.567	-45.23
256.784	-47.27
257	-6.31
257.217	100.18
257.433	3.93
257.65	79.7
257.866	87.89
258.082	79.7
258.299	46.93
258.515	1.88
258.732	38.74
258.948	59.22
259.165	61.27
259.381	57.17
259.597	96.08
259.814	38.74
260.03	57.17
260.246	69.46
260.463	24.4
260.679	110.42
260.895	14.17
261.112	18.26
261.328	42.84
261.544	18.26
261.761	36.69
261.977	12.12
262.193	40.79
262.409	51.03
262.626	28.5
262.842	98.13
263.058	-28.84
263.274	59.22
263.49	-10.41
263.707	1.88
263.923	48.98
264.139	1.88
264.355	32.6
264.571	59.22
264.787	28.5
265.004	104.28
265.22	-45.23
265.436	44.88
265.652	100.18
265.868	94.04
266.084	44.88
266.3	85.84
266.516	46.93
266.732	75.6
266.948	20.31
267.164	3.93
267.38	51.03
267.596	61.27
267.812	110.42
268.028	71.51
268.244	-10.41
268.46	73.56
268.676	53.08
268.892	18.26
269.108	46.93
269.324	112.47
269.54	-12.46
269.756	18.26
269.972	69.46
270.188	-39.08
270.403	48.98
270.619	71.51
270.835	-32.94
271.051	65.36
271.267	44.88
271.483	28.5
271.698	91.99
271.914	71.51
272.13	104.28
272.346	102.23
272.562	10.07
272.777	1.88
272.993	-26.79
273.209	-57.51
273.425	98.13
273.64	5.97
273.856	110.42
274.072	69.46
274.287	-4.27
274.503	51.03
274.719	22.36
274.934	51.03
275.15	36.69
275.366	8.02
275.581	46.93
275.797	73.56
276.012	1.88
276.228	75.6
276.444	63.32
276.659	61.27
276.875	12.12
277.09	-61.61
277.306	-32.94
277.521	28.5
277.737	8.02
277.952	46.93
278.168	38.74
278.383	57.17
278.599	57.17
278.814	18.26
279.03	30.55
279.245	22.36
279.461	-2.22
279.676	83.8
279.892	20.31
280.107	75.6
280.322	-18.6
280.538	24.4
280.753	87.89
280.969	-16.55
281.184	44.88
281.399	32.6
281.615	61.27
281.83	61.27
282.045	122.71
282.26	26.45
282.476	48.98
282.691	51.03
282.906	89.94
283.122	44.88
283.337	61.27
283.552	77.65
283.767	-20.65
283.983	28.5
284.198	94.04
284.413	5.97
284.628	1.88
284.843	42.84
285.058	44.88
285.274	69.46
285.489	46.93
285.704	-26.79
285.919	40.79
286.134	-51.37
286.349	40.79
286.564	96.08
286.779	-24.75
286.995	28.5
287.21	79.7
287.425	18.26
287.64	63.32
287.855	14.17
288.07	120.66
288.285	59.22
288.5	59.22
288.715	75.6
288.93	53.08
289.145	71.51
289.36	114.52
289.575	1.88
289.79	85.84
290.004	55.12
290.219	-0.17
290.434	91.99
290.649	79.7
290.864	102.23
291.079	8.02
291.294	-0.17
291.509	61.27
291.724	71.51
291.938	32.6
292.153	-8.36
292.368	18.26
292.583	89.94
292.798	63.32
293.012	34.64
293.227	79.7
293.442	73.56
293.657	91.99
293.871	38.74
294.086	32.6
294.301	65.36
294.516	51.03
294.73	96.08
294.945	71.51
295.16	112.47
295.374	36.69
295.589	104.28
295.804	137.04
296.018	61.27
296.233	73.56
296.447	51.03
296.662	26.45
296.877	106.32
297.091	89.94
297.306	110.42
297.52	-8.36
297.735	30.55
297.949	55.12
298.164	24.4
298.378	32.6
298.593	16.21
298.807	-22.7
299.022	122.71
299.236	16.21
299.451	-2.22
299.665	24.4
299.88	73.56
300.094	57.17
300.309	20.31
300.523	28.5
300.737	104.28
300.952	89.94
301.166	69.46
301.381	-22.7
301.595	94.04
301.809	26.45
302.024	5.97
302.238	69.46
302.452	161.62
302.667	51.03
302.881	108.37
303.095	75.6
303.309	98.13
303.524	36.69
303.738	132.95
303.952	79.7
304.166	55.12
304.381	-6.31
304.595	85.84
304.809	30.55
305.023	100.18
305.237	104.28
305.452	65.36
305.666	53.08
305.88	22.36
306.094	96.08
306.308	20.31
306.522	48.98
306.736	48.98
306.95	20.31
307.164	32.6
307.379	16.21
307.593	16.21
307.807	81.75
308.021	100.18
308.235	42.84
308.449	12.12
308.663	145.24
308.877	40.79
309.091	34.64
309.305	34.64
309.519	38.74
309.733	32.6
309.947	-16.55
310.161	139.09
310.374	110.42
310.588	30.55
310.802	104.28
311.016	85.84
311.23	3.93
311.444	38.74
311.658	83.8
311.872	48.98
312.085	44.88
312.299	89.94
312.513	38.74
312.727	75.6
312.941	32.6
313.154	42.84
313.368	55.12
313.582	63.32
313.796	34.64
314.009	53.08
314.223	85.84
314.437	48.98
314.651	26.45
314.864	20.31
315.078	100.18
315.292	-2.22
315.505	8.02
315.719	55.12
315.933	28.5
316.146	85.84
316.36	42.84
316.573	46.93
316.787	67.41
317.001	10.07
317.214	24.4
317.428	100.18
317.641	77.65
317.855	59.22
318.068	77.65
318.282	59.22
318.495	120.66
318.709	34.64
318.922	36.69
319.136	126.8
319.349	16.21
319.563	75.6
319.776	34.64
319.99	53.08
320.203	16.21
320.417	12.12
320.63	63.32
320.843	55.12
321.057	122.71
321.27	-4.27
321.483	24.4
321.697	42.84
321.91	65.36
322.124	55.12
322.337	30.55
322.55	44.88
322.763	51.03
322.977	98.13
323.19	28.5
323.403	24.4
323.617	3.93
323.83	51.03
324.043	46.93
324.256	89.94
324.469	12.12
324.683	-4.27
324.896	46.93
325.109	79.7
325.322	28.5
325.535	51.03
325.748	40.79
325.962	34.64
326.175	65.36
326.388	46.93
326.601	118.61
326.814	69.46
327.027	46.93
327.24	55.12
327.453	67.41
327.666	61.27
327.879	112.47
328.092	46.93
328.305	65.36
328.518	26.45
328.731	104.28
328.944	91.99
329.157	79.7
329.37	20.31
329.583	67.41
329.796	126.8
330.009	53.08
330.222	83.8
330.435	100.18
330.648	63.32
330.861	-30.89
331.073	106.32
331.286	67.41
331.499	71.51
331.712	81.75
331.925	79.7
332.138	5.97
332.35	192.34
332.563	-14.51
332.776	38.74
332.989	87.89
333.202	42.84
333.414	28.5
333.627	-28.84
333.84	3.93
334.053	22.36
334.265	85.84
334.478	26.45
334.691	28.5
334.903	34.64
335.116	57.17
335.329	48.98
335.541	89.94
335.754	73.56
335.966	61.27
336.179	48.98
336.392	22.36
336.604	14.17
336.817	110.42
337.029	65.36
337.242	65.36
337.454	44.88
337.667	8.02
337.88	65.36
338.092	130.9
338.305	122.71
338.517	79.7
338.729	145.24
338.942	51.03
339.154	104.28
339.367	65.36
339.579	36.69
339.792	36.69
340.004	38.74
340.217	75.6
340.429	20.31
340.641	36.69
340.854	61.27
341.066	16.21
341.278	44.88
341.491	59.22
341.703	110.42
341.915	51.03
342.128	-4.27
342.34	94.04
342.552	67.41
342.764	116.56
342.977	102.23
343.189	26.45
343.401	-4.27
343.613	61.27
343.826	53.08
344.038	8.02
344.25	59.22
344.462	40.79
344.674	16.21
344.886	65.36
345.099	32.6
345.311	91.99
345.523	69.46
345.735	65.36
345.947	139.09
346.159	100.18
346.371	104.28
346.583	36.69
346.795	65.36
347.007	20.31
347.219	44.88
347.431	71.51
347.643	155.47
347.855	91.99
348.067	32.6
348.279	106.32
348.491	14.17
348.703	71.51
348.915	48.98
349.127	-0.17
349.339	73.56
349.551	46.93
349.763	110.42
349.975	77.65
350.187	149.33
350.399	137.04
350.61	59.22
350.822	42.84
351.034	71.51
351.246	61.27
351.458	61.27
351.669	67.41
351.881	89.94
352.093	42.84
352.305	63.32
352.517	163.67
352.728	51.03
352.94	12.12
353.152	46.93
353.363	-8.36
353.575	5.97
353.787	40.79
353.999	32.6
354.21	98.13
354.422	26.45
354.633	40.79
354.845	10.07
355.057	65.36
355.268	44.88
355.48	30.55
355.692	108.37
355.903	10.07
356.115	100.18
356.326	77.65
356.538	116.56
356.749	77.65
356.961	85.84
357.172	71.51
357.384	120.66
357.595	28.5
357.807	44.88
358.018	85.84
358.23	24.4
358.441	108.37
358.653	79.7
358.864	96.08
359.075	57.17
359.287	73.56
359.498	143.19
359.709	32.6
359.921	67.41
360.132	28.5
360.344	141.14
360.555	51.03
360.766	96.08
360.977	65.36
361.189	102.23
361.4	104.28
361.611	48.98
361.823	36.69
362.034	59.22
362.245	-4.27
362.456	32.6
362.667	102.23
362.879	75.6
363.09	96.08
363.301	69.46
363.512	40.79
363.723	69.46
363.935	87.89
364.146	48.98
364.357	-4.27
364.568	89.94
364.779	-37.03
364.99	77.65
365.201	69.46
365.412	85.84
365.623	53.08
365.834	65.36
366.045	12.12
366.256	102.23
366.467	67.41
366.678	57.17
366.889	77.65
367.1	5.97
367.311	89.94
367.522	87.89
367.733	94.04
367.944	42.84
368.155	69.46
368.366	81.75
368.577	53.08
368.788	73.56
368.999	59.22
369.209	57.17
369.42	102.23
369.631	114.52
369.842	153.43
370.053	67.41
370.264	63.32
370.474	53.08
370.685	104.28
370.896	10.07
371.107	61.27
371.317	77.65
371.528	124.76
371.739	124.76
371.95	79.7
372.16	59.22
372.371	83.8
372.582	118.61
372.792	48.98
373.003	91.99
373.214	79.7
373.424	116.56
373.635	36.69
373.846	46.93
374.056	87.89
374.267	55.12
374.477	122.71
374.688	73.56
374.898	67.41
375.109	85.84
375.319	87.89
375.53	48.98
375.74	36.69
375.951	98.13
376.161	79.7
376.372	73.56
376.582	48.98
376.793	26.45
377.003	48.98
377.214	85.84
377.424	16.21
377.635	94.04
377.845	26.45
378.055	89.94
378.266	87.89
378.476	65.36
378.686	46.93
378.897	153.43
379.107	71.51
379.317	44.88
379.528	36.69
379.738	71.51
379.948	-8.36
380.158	44.88
380.369	124.76
380.579	89.94
380.789	40.79
380.999	34.64
381.21	130.9
381.42	102.23
381.63	65.36
381.84	137.04
382.05	24.4
382.261	85.84
382.471	102.23
382.681	48.98
382.891	114.52
383.101	94.04
383.311	34.64
383.521	143.19
383.731	120.66
383.941	108.37
384.151	81.75
384.361	126.8
384.571	81.75
384.781	30.55
384.991	106.32
385.201	126.8
385.411	120.66
385.621	96.08
385.831	65.36
386.041	77.65
386.251	126.8
386.461	69.46
386.671	57.17
386.881	122.71
387.091	40.79
387.301	161.62
387.511	38.74
387.72	143.19
387.93	102.23
388.14	40.79
388.35	100.18
388.56	102.23
388.769	130.9
388.979	87.89
389.189	120.66
389.399	96.08
389.609	96.08
389.818	98.13
390.028	132.95
390.238	67.41
390.447	73.56
390.657	122.71
390.867	8.02
391.076	38.74
391.286	83.8
391.496	81.75
391.705	75.6
391.915	81.75
392.125	87.89
392.334	153.43
392.544	126.8
392.753	81.75
392.963	73.56
393.172	81.75
393.382	85.84
393.591	91.99
393.801	38.74
394.01	87.89
394.22	57.17
394.429	112.47
394.639	161.62
394.848	153.43
395.058	151.38
395.267	157.52
395.477	114.52
395.686	214.87
395.895	153.43
396.105	155.47
396.314	100.18
396.524	239.44
396.733	73.56
396.942	83.8
397.152	161.62
397.361	116.56
397.57	116.56
397.78	122.71
397.989	122.71
398.198	141.14
398.407	114.52
398.617	77.65
398.826	118.61
399.035	167.76
399.244	110.42
399.453	155.47
399.663	81.75
399.872	169.81
400.081	159.57
400.29	163.67
400.499	155.47
400.708	124.76
400.917	128.85
401.127	108.37
401.336	118.61
401.545	218.96
401.754	161.62
401.963	182.1
402.172	130.9
402.381	198.48
402.59	139.09
402.799	214.87
403.008	147.28
403.217	241.49
403.426	102.23
403.635	153.43
403.844	116.56
404.053	198.48
404.262	190.29
404.471	257.87
404.68	221.01
404.888	155.47
405.097	137.04
405.306	188.24
405.515	243.54
405.724	210.77
405.933	214.87
406.142	196.43
406.35	272.21
406.559	274.26
406.768	286.54
406.977	200.53
407.185	253.78
407.394	255.83
407.603	264.02
407.812	272.21
408.02	292.69
408.229	270.16
408.438	282.45
408.646	323.41
408.855	337.74
409.064	382.8
409.272	364.37
409.481	411.47
409.69	354.13
409.898	397.14
410.107	319.31
410.315	423.76
410.524	440.14
410.733	483.15
410.941	481.1
411.15	472.91
411.358	491.34
411.567	589.64
411.775	520.01
411.984	517.97
412.192	583.5
412.401	585.55
412.609	538.45
412.818	661.32
413.026	773.96
413.234	759.63
413.443	720.71
413.651	665.42
413.86	776.01
414.068	812.87
414.276	839.5
414.485	845.64
414.693	857.93
414.901	909.13
415.11	995.14
415.318	927.56
415.526	1040.2
415.734	1050.44
415.943	999.24
416.151	1099.59
416.359	1204.03
416.567	1132.36
416.776	1228.61
416.984	1267.52
417.192	1345.34
417.4	1224.51
417.608	1285.95
417.817	1441.6
418.025	1367.87
418.233	1593.15
418.441	1523.52
418.649	1560.38
418.857	1679.16
419.065	1857.34
419.273	1734.46
419.481	1847.1
419.689	1929.02
419.897	2062.13
420.105	2029.37
420.313	2088.76
420.521	2146.1
420.729	2268.98
420.937	2246.45
421.145	2354.99
421.353	2428.72
421.561	2608.94
421.769	2623.28
421.977	2715.44
422.185	2737.96
422.393	2801.45
422.601	2959.14
422.809	3110.69
423.017	3125.03
423.224	3241.76
423.432	3421.99
423.64	3329.83
423.848	3784.48
424.056	3508
424.263	3903.26
424.471	3862.3
424.679	3940.12
424.887	4106.01
425.094	4194.07
425.302	4275.99
425.51	4493.07
425.718	4525.84
425.925	4636.43
426.133	4849.42
426.341	5000.97
426.548	5203.72
426.756	5256.97
426.964	5342.98
427.171	5830.4
427.379	5781.25
427.586	5934.84
427.794	6074.1
428.001	6635.25
428.209	6592.24
428.417	6557.43
428.624	7196.39
428.832	7313.13
429.039	7077.61
429.247	6985.45
429.454	7798.49
429.662	8285.91
429.869	7771.87
430.076	8392.41
430.284	7978.72
430.491	8171.22
430.699	8847.05
430.906	8734.42
431.114	8933.07
431.321	9187.02
431.528	9545.41
431.736	9993.92
431.943	10671.79
432.15	10231.48
432.358	10436.28
432.565	11052.72
432.772	10829.49
432.979	11364.01
433.187	11650.72
433.394	11515.56
433.601	12289.69
433.808	12666.52
434.016	12355.22
434.223	13119.12
434.43	13856.39
434.637	13330.06
434.844	14331.51
435.052	14644.85
435.259	14429.82
435.466	14798.45
435.673	14521.98
435.88	15492.71
436.087	16467.55
436.294	16272.99
436.501	15990.37
436.708	16328.28
436.915	16809.56
437.122	17350.22
437.329	17200.72
437.537	17827.4
437.743	18544.19
437.95	18179.65
438.157	19131.95
438.364	19689
438.571	19488.3
438.778	19699.24
438.985	21814.79
439.192	20987.41
439.399	21745.16
439.606	20985.37
439.813	22353.41
440.02	23641.58
440.227	23229.94
440.433	22869.5
440.64	23836.14
440.847	23461.36
441.054	24366.56
441.261	26043.85
441.467	25279.96
441.674	25994.7
441.881	26899.9
442.088	26549.7
442.294	26533.31
442.501	27411.89
442.708	27817.39
442.914	28849.57
443.121	30029.2
443.328	29230.49
443.534	31538.55
443.741	30475.65
443.948	30016.91
444.154	32699.75
444.361	32228.71
444.568	32503.14
444.774	32564.58
444.981	32906.59
445.187	33631.57
445.394	35122.49
445.6	34649.41
445.807	37874.96
446.013	36293.93
446.22	36930.85
446.426	38339.85
446.633	38618.38
446.839	39953.65
447.046	38499.59
447.252	40652.01
447.459	40629.48
447.665	40330.48
447.871	42018
448.078	43515.07
448.284	41682.14
448.491	43064.52
448.697	44283.06
448.903	44874.92
449.11	45182.12
449.316	44311.73
449.522	44926.12
449.728	46216.34
449.935	46673.04
450.141	46736.52
450.347	47420.55
450.553	45608.09
450.76	46392.47
450.966	48219.25
451.172	47453.31
451.378	48553.07
451.584	47475.84
451.791	48952.43
451.997	48616.56
452.203	49259.62
452.409	49118.31
452.615	49316.96
452.821	47053.96
453.027	46679.18
453.233	49292.39
453.44	46636.17
453.646	47658.11
453.852	47393.92
454.058	48757.87
454.264	46965.9
454.47	47756.41
454.676	46779.53
454.882	48546.93
455.088	44463.28
455.294	44833.96
455.5	45171.88
455.705	45974.68
455.911	43816.12
456.117	43156.67
456.323	42411.21
456.529	40213.74
456.735	41790.68
456.941	40756.46
457.147	40103.15
457.352	38927.62
457.558	38440.2
457.764	38401.29
457.97	37618.97
458.176	37176.61
458.381	37023.01
458.587	35198.27
458.793	35085.63
458.999	33289.56
459.204	35745.08
459.41	34719.04
459.616	32609.64
459.821	32185.71
460.027	32142.7
460.233	31620.47
460.438	30033.29
460.644	30352.77
460.85	29216.15
461.055	28718.5
461.261	28667.3
461.466	26641.85
461.672	25890.25
461.878	27518.39
462.083	25712.08
462.289	25298.39
462.494	24946.14
462.7	24081.89
462.905	23365.1
463.111	24249.83
463.316	24114.66
463.522	23817.71
463.727	23981.54
463.932	23694.83
464.138	23467.5
464.343	23567.85
464.549	22760.95
464.754	23668.2
464.959	23461.36
465.165	23621.1
465.37	22521.34
465.575	21718.54
465.781	22758.91
465.986	23154.16
466.191	22029.83
466.397	21919.24
466.602	20659.74
466.807	21378.58
467.012	21532.17
467.218	21349.9
