Data from USB4F104151__90__11-06-43-562.txt Node

Date: Wed Mar 12 11:06:43 EDT 2025
User: louis
Spectrometer: USB4F10415
Trigger mode: 4
Integration Time (sec): 2.000000E-2
Scans to average: 1
Electric dark correction enabled: true
Nonlinearity correction enabled: false
Boxcar width: 0
XAxis mode: Wavelengths
Number of Pixels in Spectrum: 3648
>>>>>Begin Spectral Data<<<<<
178.204	-44.37
178.424	-44.37
178.644	-44.37
178.864	-103.76
179.084	-83.28
179.304	-15.7
179.524	0.68
179.744	-3.41
179.964	17.07
180.184	41.64
180.404	4.78
180.624	-44.37
180.844	-1.37
181.064	6.83
181.283	-52.56
181.503	6.83
181.723	39.59
181.943	-46.42
182.163	23.21
182.383	72.36
182.602	45.74
182.822	29.35
183.042	41.64
183.262	-21.85
183.482	-3.41
183.701	21.16
183.921	29.35
184.141	-27.99
184.361	-44.37
184.58	-40.28
184.8	-68.95
185.02	-30.04
185.239	78.51
185.459	27.31
185.679	2.73
185.898	-32.08
186.118	19.11
186.338	33.45
186.557	17.07
186.777	6.83
186.997	94.89
187.216	8.87
187.436	111.27
187.655	25.26
187.875	21.16
188.095	-52.56
188.314	47.79
188.534	31.4
188.753	-17.75
188.973	12.97
189.192	64.17
189.412	53.93
189.631	12.97
189.851	25.26
190.07	-9.56
190.29	23.21
190.509	33.45
190.729	31.4
190.948	15.02
191.168	137.9
191.387	68.27
191.607	-32.08
191.826	86.7
192.045	-25.94
192.265	17.07
192.484	41.64
192.704	-40.28
192.923	17.07
193.142	82.6
193.362	62.12
193.581	39.59
193.8	4.78
194.02	58.03
194.239	-56.66
194.458	33.45
194.678	2.73
194.897	62.12
195.116	-32.08
195.335	-11.61
195.555	-3.41
195.774	47.79
195.993	35.5
196.212	-7.51
196.432	-21.85
196.651	19.11
196.87	8.87
197.089	58.03
197.308	21.16
197.528	156.33
197.747	-111.96
197.966	6.83
198.185	90.79
198.404	-19.8
198.623	-3.41
198.842	105.13
199.062	8.87
199.281	90.79
199.5	64.17
199.719	6.83
199.938	12.97
200.157	15.02
200.376	66.22
200.595	-15.7
200.814	49.83
201.033	25.26
201.252	88.75
201.471	-3.41
201.69	51.88
201.909	-5.46
202.128	-56.66
202.347	15.02
202.566	105.13
202.785	111.27
203.004	2.73
203.223	70.31
203.442	-9.56
203.661	-7.51
203.879	0.68
204.098	19.11
204.317	-46.42
204.536	8.87
204.755	39.59
204.974	53.93
205.193	-44.37
205.411	96.94
205.63	33.45
205.849	80.55
206.068	0.68
206.287	12.97
206.505	43.69
206.724	90.79
206.943	-5.46
207.162	58.03
207.381	27.31
207.599	23.21
207.818	0.68
208.037	60.07
208.255	-30.04
208.474	10.92
208.693	25.26
208.911	-30.04
209.13	94.89
209.349	-21.85
209.567	47.79
209.786	39.59
210.005	-50.52
210.223	15.02
210.442	62.12
210.661	33.45
210.879	23.21
211.098	6.83
211.316	-5.46
211.535	78.51
211.753	29.35
211.972	60.07
212.191	33.45
212.409	19.11
212.628	2.73
212.846	17.07
213.065	-19.8
213.283	90.79
213.502	55.98
213.72	23.21
213.938	55.98
214.157	10.92
214.375	70.31
214.594	86.7
214.812	82.6
215.031	45.74
215.249	74.41
215.467	-9.56
215.686	53.93
215.904	21.16
216.122	-21.85
216.341	60.07
216.559	43.69
216.778	37.55
216.996	-9.56
217.214	29.35
217.432	-25.94
217.651	41.64
217.869	33.45
218.087	-9.56
218.306	17.07
218.524	21.16
218.742	2.73
218.96	8.87
219.179	53.93
219.397	51.88
219.615	43.69
219.833	6.83
220.051	6.83
220.27	51.88
220.488	2.73
220.706	17.07
220.924	-66.9
221.142	60.07
221.36	33.45
221.578	-7.51
221.796	2.73
222.015	21.16
222.233	15.02
222.451	21.16
222.669	29.35
222.887	45.74
223.105	41.64
223.323	92.84
223.541	21.16
223.759	-7.51
223.977	-56.66
224.195	33.45
224.413	21.16
224.631	76.46
224.849	19.11
225.067	31.4
225.285	49.83
225.503	70.31
225.721	-7.51
225.939	37.55
226.157	-21.85
226.375	31.4
226.592	86.7
226.81	47.79
227.028	62.12
227.246	60.07
227.464	45.74
227.682	25.26
227.9	25.26
228.117	31.4
228.335	78.51
228.553	29.35
228.771	21.16
228.989	35.5
229.206	15.02
229.424	-38.23
229.642	17.07
229.86	-50.52
230.077	113.32
230.295	123.56
230.513	21.16
230.731	74.41
230.948	33.45
231.166	25.26
231.384	12.97
231.601	55.98
231.819	62.12
232.037	35.5
232.254	-46.42
232.472	29.35
232.689	-9.56
232.907	37.55
233.125	4.78
233.342	90.79
233.56	51.88
233.777	23.21
233.995	15.02
234.213	8.87
234.43	92.84
234.648	82.6
234.865	15.02
235.083	-40.28
235.3	31.4
235.518	17.07
235.735	33.45
235.953	49.83
236.17	39.59
236.388	125.61
236.605	-40.28
236.822	45.74
237.04	29.35
237.257	-19.8
237.475	-27.99
237.692	33.45
237.909	23.21
238.127	29.35
238.344	23.21
238.562	47.79
238.779	45.74
238.996	35.5
239.214	-25.94
239.431	62.12
239.648	-56.66
239.865	51.88
240.083	-3.41
240.3	82.6
240.517	-11.61
240.735	-1.37
240.952	55.98
241.169	117.42
241.386	-23.89
241.603	45.74
241.821	8.87
242.038	58.03
242.255	60.07
242.472	4.78
242.689	-19.8
242.907	35.5
243.124	29.35
243.341	58.03
243.558	0.68
243.775	-13.65
243.992	82.6
244.209	76.46
244.426	53.93
244.643	90.79
244.86	37.55
245.078	21.16
245.295	45.74
245.512	21.16
245.729	27.31
245.946	19.11
246.163	94.89
246.38	33.45
246.597	96.94
246.814	39.59
247.031	62.12
247.248	113.32
247.464	-15.7
247.681	33.45
247.898	70.31
248.115	31.4
248.332	-7.51
248.549	68.27
248.766	35.5
248.983	35.5
249.2	-25.94
249.417	15.02
249.633	35.5
249.85	43.69
250.067	-15.7
250.284	78.51
250.501	33.45
250.717	6.83
250.934	-1.37
251.151	-27.99
251.368	-27.99
251.585	-17.75
251.801	41.64
252.018	-15.7
252.235	41.64
252.451	-56.66
252.668	8.87
252.885	47.79
253.102	0.68
253.318	78.51
253.535	10.92
253.752	-52.56
253.968	-1.37
254.185	-17.75
254.401	37.55
254.618	41.64
254.835	45.74
255.051	90.79
255.268	35.5
255.484	41.64
255.701	41.64
255.917	17.07
256.134	-9.56
256.351	10.92
256.567	29.35
256.784	-15.7
257	-7.51
257.217	90.79
257.433	78.51
257.65	82.6
257.866	-7.51
258.082	15.02
258.299	-38.23
258.515	10.92
258.732	-7.51
258.948	88.75
259.165	64.17
259.381	53.93
259.597	2.73
259.814	111.27
260.03	39.59
260.246	68.27
260.463	39.59
260.679	-3.41
260.895	-40.28
261.112	27.31
261.328	0.68
261.544	15.02
261.761	51.88
261.977	43.69
262.193	-11.61
262.409	29.35
262.626	15.02
262.842	-13.65
263.058	-23.89
263.274	47.79
263.49	31.4
263.707	33.45
263.923	6.83
264.139	6.83
264.355	62.12
264.571	47.79
264.787	25.26
265.004	68.27
265.22	0.68
265.436	27.31
265.652	86.7
265.868	62.12
266.084	51.88
266.3	92.84
266.516	39.59
266.732	31.4
266.948	51.88
267.164	39.59
267.38	6.83
267.596	-13.65
267.812	84.65
268.028	55.98
268.244	41.64
268.46	-27.99
268.676	41.64
268.892	8.87
269.108	-17.75
269.324	-38.23
269.54	58.03
269.756	37.55
269.972	47.79
270.188	-13.65
270.403	23.21
270.619	121.51
270.835	33.45
271.051	29.35
271.267	8.87
271.483	78.51
271.698	88.75
271.914	55.98
272.13	21.16
272.346	25.26
272.562	21.16
272.777	90.79
272.993	27.31
273.209	43.69
273.425	-48.47
273.64	-11.61
273.856	-7.51
274.072	90.79
274.287	8.87
274.503	84.65
274.719	88.75
274.934	64.17
275.15	15.02
275.366	12.97
275.581	4.78
275.797	15.02
276.012	2.73
276.228	15.02
276.444	45.74
276.659	29.35
276.875	12.97
277.09	45.74
277.306	-15.7
277.521	121.51
277.737	-38.23
277.952	45.74
278.168	-9.56
278.383	39.59
278.599	4.78
278.814	29.35
279.03	33.45
279.245	64.17
279.461	-7.51
279.676	-1.37
279.892	10.92
280.107	17.07
280.322	-97.62
280.538	29.35
280.753	27.31
280.969	47.79
281.184	35.5
281.399	45.74
281.615	47.79
281.83	25.26
282.045	8.87
282.26	33.45
282.476	31.4
282.691	37.55
282.906	58.03
283.122	29.35
283.337	-7.51
283.552	53.93
283.767	-1.37
283.983	-13.65
284.198	29.35
284.413	55.98
284.628	111.27
284.843	62.12
285.058	37.55
285.274	60.07
285.489	2.73
285.704	45.74
285.919	-44.37
286.134	96.94
286.349	-11.61
286.564	25.26
286.779	58.03
286.995	25.26
287.21	21.16
287.425	53.93
287.64	43.69
287.855	45.74
288.07	0.68
288.285	17.07
288.5	27.31
288.715	0.68
288.93	55.98
289.145	29.35
289.36	15.02
289.575	25.26
289.79	70.31
290.004	-17.75
290.219	12.97
290.434	29.35
290.649	39.59
290.864	-3.41
291.079	-21.85
291.294	2.73
291.509	70.31
291.724	-19.8
291.938	31.4
292.153	58.03
292.368	2.73
292.583	15.02
292.798	25.26
293.012	21.16
293.227	4.78
293.442	-15.7
293.657	25.26
293.871	0.68
294.086	84.65
294.301	49.83
294.516	74.41
294.73	19.11
294.945	-32.08
295.16	12.97
295.374	17.07
295.589	84.65
295.804	17.07
296.018	180.9
296.233	-27.99
296.447	41.64
296.662	29.35
296.877	96.94
297.091	92.84
297.306	-17.75
297.52	41.64
297.735	84.65
297.949	47.79
298.164	33.45
298.378	-3.41
298.593	-91.48
298.807	58.03
299.022	19.11
299.236	86.7
299.451	0.68
299.665	76.46
299.88	-11.61
300.094	6.83
300.309	78.51
300.523	78.51
300.737	-9.56
300.952	12.97
301.166	115.37
301.381	-13.65
301.595	4.78
301.809	-23.89
302.024	21.16
302.238	-52.56
302.452	37.55
302.667	-9.56
302.881	-7.51
303.095	49.83
303.309	76.46
303.524	-27.99
303.738	86.7
303.952	6.83
304.166	92.84
304.381	29.35
304.595	58.03
304.809	-11.61
305.023	4.78
305.237	-38.23
305.452	53.93
305.666	47.79
305.88	103.08
306.094	17.07
306.308	21.16
306.522	72.36
306.736	-7.51
306.95	21.16
307.164	0.68
307.379	27.31
307.593	29.35
307.807	8.87
308.021	78.51
308.235	25.26
308.449	-25.94
308.663	43.69
308.877	58.03
309.091	41.64
309.305	62.12
309.519	80.55
309.733	64.17
309.947	-27.99
310.161	66.22
310.374	66.22
310.588	31.4
310.802	-1.37
311.016	58.03
311.23	27.31
311.444	-7.51
311.658	-7.51
311.872	88.75
312.085	66.22
312.299	109.22
312.513	39.59
312.727	131.75
312.941	51.88
313.154	58.03
313.368	10.92
313.582	78.51
313.796	101.03
314.009	33.45
314.223	33.45
314.437	111.27
314.651	66.22
314.864	37.55
315.078	27.31
315.292	45.74
315.505	101.03
315.719	39.59
315.933	70.31
316.146	35.5
316.36	-25.94
316.573	74.41
316.787	86.7
317.001	60.07
317.214	10.92
317.428	33.45
317.641	39.59
317.855	15.02
318.068	-30.04
318.282	41.64
318.495	2.73
318.709	35.5
318.922	39.59
319.136	35.5
319.349	25.26
319.563	2.73
319.776	68.27
319.99	-58.71
320.203	90.79
320.417	78.51
320.63	-7.51
320.843	29.35
321.057	27.31
321.27	27.31
321.483	58.03
321.697	39.59
321.91	15.02
322.124	6.83
322.337	45.74
322.55	-3.41
322.763	86.7
322.977	25.26
323.19	8.87
323.403	-13.65
323.617	49.83
323.83	70.31
324.043	17.07
324.256	113.32
324.469	-50.52
324.683	92.84
324.896	45.74
325.109	80.55
325.322	39.59
325.535	19.11
325.748	-21.85
325.962	12.97
326.175	105.13
326.388	96.94
326.601	49.83
326.814	88.75
327.027	-7.51
327.24	55.98
327.453	-21.85
327.666	0.68
327.879	66.22
328.092	98.99
328.305	-7.51
328.518	-13.65
328.731	-9.56
328.944	49.83
329.157	17.07
329.37	66.22
329.583	121.51
329.796	10.92
330.009	31.4
330.222	64.17
330.435	43.69
330.648	94.89
330.861	-19.8
331.073	45.74
331.286	82.6
331.499	31.4
331.712	29.35
331.925	53.93
332.138	-5.46
332.35	92.84
332.563	49.83
332.776	64.17
332.989	-7.51
333.202	55.98
333.414	-13.65
333.627	45.74
333.84	-7.51
334.053	-13.65
334.265	6.83
334.478	43.69
334.691	53.93
334.903	-25.94
335.116	-13.65
335.329	64.17
335.541	25.26
335.754	107.18
335.966	6.83
336.179	47.79
336.392	64.17
336.604	76.46
336.817	41.64
337.029	25.26
337.242	-23.89
337.454	76.46
337.667	45.74
337.88	70.31
338.092	25.26
338.305	53.93
338.517	92.84
338.729	60.07
338.942	53.93
339.154	19.11
339.367	53.93
339.579	72.36
339.792	-17.75
340.004	37.55
340.217	8.87
340.429	109.22
340.641	29.35
340.854	47.79
341.066	47.79
341.278	41.64
341.491	103.08
341.703	86.7
341.915	4.78
342.128	10.92
342.34	23.21
342.552	53.93
342.764	68.27
342.977	49.83
343.189	33.45
343.401	29.35
343.613	51.88
343.826	41.64
344.038	33.45
344.25	55.98
344.462	-32.08
344.674	4.78
344.886	-32.08
345.099	4.78
345.311	55.98
345.523	90.79
345.735	17.07
345.947	27.31
346.159	103.08
346.371	45.74
346.583	62.12
346.795	105.13
347.007	-21.85
347.219	23.21
347.431	10.92
347.643	66.22
347.855	53.93
348.067	35.5
348.279	12.97
348.491	49.83
348.703	-56.66
348.915	98.99
349.127	10.92
349.339	111.27
349.551	-38.23
349.763	105.13
349.975	39.59
350.187	53.93
350.399	96.94
350.61	82.6
350.822	17.07
351.034	70.31
351.246	49.83
351.458	31.4
351.669	19.11
351.881	84.65
352.093	-30.04
352.305	27.31
352.517	58.03
352.728	76.46
352.94	74.41
353.152	64.17
353.363	19.11
353.575	51.88
353.787	49.83
353.999	62.12
354.21	76.46
354.422	29.35
354.633	43.69
354.845	-11.61
355.057	113.32
355.268	33.45
355.48	31.4
355.692	82.6
355.903	49.83
356.115	45.74
356.326	66.22
356.538	76.46
356.749	8.87
356.961	72.36
357.172	49.83
357.384	6.83
357.595	88.75
357.807	74.41
358.018	88.75
358.23	74.41
358.441	131.75
358.653	47.79
358.864	29.35
359.075	6.83
359.287	78.51
359.498	78.51
359.709	74.41
359.921	33.45
360.132	60.07
360.344	10.92
360.555	-19.8
360.766	43.69
360.977	80.55
361.189	88.75
361.4	-36.18
361.611	43.69
361.823	90.79
362.034	23.21
362.245	21.16
362.456	4.78
362.667	27.31
362.879	58.03
363.09	-25.94
363.301	123.56
363.512	-3.41
363.723	82.6
363.935	-1.37
364.146	96.94
364.357	115.37
364.568	29.35
364.779	49.83
364.99	12.97
365.201	12.97
365.412	45.74
365.623	62.12
365.834	10.92
366.045	47.79
366.256	49.83
366.467	12.97
366.678	21.16
366.889	-36.18
367.1	60.07
367.311	82.6
367.522	33.45
367.733	41.64
367.944	84.65
368.155	47.79
368.366	10.92
368.577	82.6
368.788	90.79
368.999	82.6
369.209	123.56
369.42	168.62
369.631	150.18
369.842	39.59
370.053	25.26
370.264	37.55
370.474	39.59
370.685	62.12
370.896	76.46
371.107	-3.41
371.317	62.12
371.528	74.41
371.739	86.7
371.95	78.51
372.16	101.03
372.371	-23.89
372.582	86.7
372.792	68.27
373.003	-11.61
373.214	72.36
373.424	96.94
373.635	70.31
373.846	2.73
374.056	8.87
374.267	27.31
374.477	58.03
374.688	76.46
374.898	45.74
375.109	62.12
375.319	80.55
375.53	21.16
375.74	60.07
375.951	19.11
376.161	58.03
376.372	115.37
376.582	82.6
376.793	117.42
377.003	-34.13
377.214	-3.41
377.424	74.41
377.635	51.88
377.845	47.79
378.055	62.12
378.266	33.45
378.476	-34.13
378.686	62.12
378.897	0.68
379.107	141.99
379.317	17.07
379.528	43.69
379.738	49.83
379.948	135.85
380.158	90.79
380.369	49.83
380.579	31.4
380.789	35.5
380.999	47.79
381.21	12.97
381.42	125.61
381.63	74.41
381.84	62.12
382.05	45.74
382.261	35.5
382.471	25.26
382.681	12.97
382.891	31.4
383.101	33.45
383.311	23.21
383.521	41.64
383.731	45.74
383.941	68.27
384.151	94.89
384.361	125.61
384.571	-58.71
384.781	131.75
384.991	60.07
385.201	172.71
385.411	86.7
385.621	139.94
385.831	25.26
386.041	8.87
386.251	115.37
386.461	62.12
386.671	-11.61
386.881	103.08
387.091	17.07
387.301	64.17
387.511	21.16
387.72	70.31
387.93	62.12
388.14	-11.61
388.35	109.22
388.56	88.75
388.769	98.99
388.979	90.79
389.189	107.18
389.399	39.59
389.609	109.22
389.818	47.79
390.028	12.97
390.238	135.85
390.447	-25.94
390.657	33.45
390.867	0.68
391.076	25.26
391.286	39.59
391.496	45.74
391.705	47.79
391.915	62.12
392.125	74.41
392.334	127.66
392.544	82.6
392.753	133.8
392.963	49.83
393.172	-21.85
393.382	58.03
393.591	98.99
393.801	47.79
394.01	141.99
394.22	39.59
394.429	39.59
394.639	33.45
394.848	84.65
395.058	107.18
395.267	47.79
395.477	49.83
395.686	137.9
395.895	0.68
396.105	121.51
396.314	133.8
396.524	101.03
396.733	58.03
396.942	137.9
397.152	172.71
397.361	109.22
397.57	82.6
397.78	90.79
397.989	115.37
398.198	60.07
398.407	121.51
398.617	86.7
398.826	117.42
399.035	66.22
399.244	88.75
399.453	90.79
399.663	96.94
399.872	150.18
400.081	158.38
400.29	133.8
400.499	111.27
400.708	156.33
400.917	84.65
401.127	164.52
401.336	123.56
401.545	187.05
401.754	94.89
401.963	45.74
402.172	60.07
402.381	123.56
402.59	131.75
402.799	98.99
403.008	86.7
403.217	164.52
403.426	131.75
403.635	109.22
403.844	23.21
404.053	64.17
404.262	117.42
404.471	131.75
404.68	162.47
404.888	152.23
405.097	164.52
405.306	125.61
405.515	197.29
405.724	150.18
405.933	133.8
406.142	113.32
406.35	135.85
406.559	240.29
406.768	129.7
406.977	199.34
407.185	193.19
407.394	225.96
407.603	254.63
407.812	193.19
408.02	189.1
408.229	219.82
408.438	232.1
408.646	262.82
408.855	189.1
409.064	260.77
409.272	211.62
409.481	254.63
409.69	293.54
409.898	248.49
410.107	307.88
410.315	307.88
410.524	277.16
410.733	281.25
410.941	336.55
411.15	375.46
411.358	363.17
411.567	387.75
411.775	408.23
411.984	359.08
412.192	340.65
412.401	395.94
412.609	467.62
412.818	463.52
413.026	574.11
413.234	531.11
413.443	426.66
413.651	598.69
413.86	535.2
414.068	545.44
414.276	555.68
414.485	617.12
414.693	633.5
414.901	748.19
415.11	672.42
415.318	680.61
415.526	737.95
415.734	731.81
415.943	817.82
416.151	836.25
416.359	869.02
416.567	840.35
416.776	877.21
416.984	922.27
417.192	940.7
417.4	965.28
417.608	991.9
417.817	996
418.025	1098.39
418.233	1051.29
418.441	1256.09
418.649	1161.88
418.857	1278.62
419.065	1262.23
419.273	1360.53
419.481	1378.97
419.689	1442.45
419.897	1520.28
420.105	1481.36
420.313	1563.28
420.521	1655.44
420.729	1630.87
420.937	1729.17
421.145	1704.59
421.353	1745.55
421.561	1909.39
421.769	1839.76
421.977	1987.21
422.185	1966.73
422.393	2075.27
422.601	2241.16
422.809	2222.73
423.017	2167.43
423.224	2318.98
423.432	2497.16
423.64	2517.64
423.848	2794.11
424.056	2775.68
424.263	2806.4
424.471	2884.22
424.679	2929.28
424.887	3109.5
425.094	3150.46
425.302	3132.03
425.51	3228.28
425.718	3259
425.925	3494.52
426.133	3572.34
426.341	3717.75
426.548	3938.93
426.756	3881.58
426.964	4012.65
427.171	4053.61
427.379	4309.61
427.586	4334.18
427.794	4446.82
428.001	4678.24
428.209	4893.28
428.417	4885.09
428.624	5218.91
428.832	5112.41
429.039	5186.14
429.247	5233.24
429.454	5679.7
429.662	6042.19
429.869	5620.31
430.076	6140.49
430.284	5925.46
430.491	6056.53
430.699	6404.68
430.906	6584.9
431.114	6627.91
431.321	6787.65
431.528	6902.34
431.736	7336.51
431.943	7522.87
432.15	7471.67
432.358	7445.05
432.565	7989.81
432.772	7932.47
432.979	8499.75
433.187	8612.39
433.394	8643.11
433.601	9017.89
433.808	9312.8
434.016	9249.31
434.223	9384.48
434.43	10215.95
434.637	9968.15
434.844	10428.94
435.052	10672.65
435.259	10566.15
435.466	10846.73
435.673	10740.23
435.88	11373.05
436.087	11688.44
436.294	11887.09
436.501	11776.5
436.708	12030.45
436.915	12292.59
437.122	12808.68
437.329	12579.31
437.537	13244.9
437.743	13461.98
437.95	13380.06
438.157	14010.84
438.364	14479.82
438.571	14492.11
438.778	14313.94
438.985	15927.74
439.192	15344.06
439.399	16073.14
439.606	15223.23
439.813	16333.23
440.02	17330.59
440.227	16767.4
440.433	16712.11
440.64	17533.34
440.847	17301.92
441.054	17791.39
441.261	19014.02
441.467	18612.62
441.674	18887.05
441.881	19741.05
442.088	19655.04
442.294	19616.13
442.501	19970.43
442.708	20328.82
442.914	21203.3
443.121	22171.99
443.328	21809.5
443.534	23152.97
443.741	22008.15
443.948	22016.35
444.154	23857.47
444.361	23372.1
444.568	23789.89
444.774	23759.17
444.981	23826.75
445.187	24650.03
445.394	25512.23
445.6	25514.28
445.807	28107.01
446.013	26581.27
446.22	26937.62
446.426	28010.75
446.633	28363
446.839	29094.13
447.046	28059.9
447.252	29597.93
447.459	29473
447.665	29327.6
447.871	30808.28
448.078	32100.54
448.284	30462.17
448.491	31578.31
448.697	32649.4
448.903	33476.78
449.11	33065.14
449.316	32370.88
449.522	33011.89
449.728	34496.67
449.935	34101.41
450.141	34287.78
450.347	34941.08
450.553	34320.54
450.76	34054.31
450.966	35199.12
451.172	34912.41
451.378	35840.14
451.584	35563.66
451.791	35821.7
451.997	35831.94
452.203	36432
452.409	36227.2
452.615	36219.01
452.821	34525.34
453.027	34334.88
453.233	36464.77
453.44	34511
453.646	34830.49
453.852	35393.68
454.058	35954.82
454.264	34175.14
454.47	35670.15
454.676	34635.93
454.882	35639.43
455.088	32147.65
455.294	32993.46
455.5	33257.65
455.705	34056.35
455.911	32426.17
456.117	31953.09
456.323	31256.78
456.529	29538.54
456.735	31060.18
456.941	30263.52
457.147	29884.64
457.352	28791.03
457.558	28207.36
457.764	28303.61
457.97	28004.61
458.176	27281.67
458.381	27156.75
458.587	26038.56
458.793	25938.21
458.999	24373.56
459.204	26104.09
459.41	25528.61
459.616	24148.28
459.821	23841.09
460.027	23773.5
460.233	23167.31
460.438	22409.56
460.644	22403.41
460.85	21317.99
461.055	21049.71
461.261	20926.83
461.466	19255.68
461.672	18858.38
461.878	20380.02
462.083	18747.79
462.289	18575.76
462.494	18135.45
462.7	17746.33
462.905	17033.64
463.111	17678.75
463.316	17615.26
463.522	17555.87
463.727	17500.58
463.932	17459.62
464.138	17508.77
464.343	17086.89
464.549	16687.53
464.754	17308.07
464.959	17246.63
465.165	17279.4
465.37	16404.91
465.575	16150.96
465.781	16468.4
465.986	16609.71
466.191	15921.59
466.397	15636.92
466.602	14997.96
466.807	15749.56
467.012	15673.79
467.218	15647.16
467.423	15233.47
467.628	15518.14
467.833	16036.28
