Data from USB4F104151__199__11-10-07-319.txt Node

Date: Wed Mar 12 11:10:07 EDT 2025
User: louis
Spectrometer: USB4F10415
Trigger mode: 4
Integration Time (sec): 2.000000E-2
Scans to average: 1
Electric dark correction enabled: true
Nonlinearity correction enabled: false
Boxcar width: 0
XAxis mode: Wavelengths
Number of Pixels in Spectrum: 3648
>>>>>Begin Spectral Data<<<<<
178.204	12.8
178.424	12.8
178.644	12.8
178.864	-28.16
179.084	-38.4
179.304	-40.45
179.524	84.48
179.744	-36.35
179.964	88.57
180.184	-26.11
180.404	-5.63
180.624	43.52
180.844	-13.82
181.064	-3.58
181.283	-34.3
181.503	-50.69
181.723	-5.63
181.943	-38.4
182.163	51.71
182.383	39.42
182.602	39.42
182.822	18.94
183.042	-1.54
183.262	51.71
183.482	-9.73
183.701	16.9
183.921	-3.58
184.141	-1.54
184.361	47.62
184.58	16.9
184.8	6.66
185.02	37.38
185.239	125.44
185.459	-5.63
185.679	68.09
185.898	-36.35
186.118	18.94
186.338	4.61
186.557	43.52
186.777	31.23
186.997	107.01
187.216	35.33
187.436	117.25
187.655	47.62
187.875	57.86
188.095	39.42
188.314	-26.11
188.534	102.91
188.753	61.95
188.973	41.47
189.192	119.29
189.412	53.76
189.631	104.96
189.851	51.71
190.07	47.62
190.29	78.33
190.509	-7.68
190.729	10.75
190.948	68.09
191.168	178.69
191.387	78.33
191.607	68.09
191.826	35.33
192.045	31.23
192.265	-9.73
192.484	43.52
192.704	-1.54
192.923	51.71
193.142	12.8
193.362	53.76
193.581	94.72
193.8	35.33
194.02	25.09
194.239	31.23
194.458	-3.58
194.678	2.56
194.897	4.61
195.116	111.1
195.335	23.04
195.555	84.48
195.774	16.9
195.993	37.38
196.212	27.14
196.432	61.95
196.651	-9.73
196.87	-3.58
197.089	109.05
197.308	61.95
197.528	55.81
197.747	55.81
197.966	0.51
198.185	92.67
198.404	4.61
198.623	39.42
198.842	59.9
199.062	39.42
199.281	66.05
199.5	39.42
199.719	2.56
199.938	-7.68
200.157	31.23
200.376	88.57
200.595	-13.82
200.814	43.52
201.033	29.18
201.252	78.33
201.471	6.66
201.69	82.43
201.909	70.14
202.128	6.66
202.347	66.05
202.566	16.9
202.785	6.66
203.004	37.38
203.223	98.81
203.442	-11.78
203.661	25.09
203.879	68.09
204.098	43.52
204.317	18.94
204.536	96.77
204.755	96.77
204.974	20.99
205.193	80.38
205.411	90.62
205.63	23.04
205.849	43.52
206.068	33.28
206.287	-46.59
206.505	-1.54
206.724	20.99
206.943	57.86
207.162	18.94
207.381	25.09
207.599	-17.92
207.818	37.38
208.037	72.19
208.255	18.94
208.474	35.33
208.693	68.09
208.911	57.86
209.13	27.14
209.349	68.09
209.567	64
209.786	16.9
210.005	20.99
210.223	41.47
210.442	12.8
210.661	61.95
210.879	10.75
211.098	47.62
211.316	43.52
211.535	82.43
211.753	-44.54
211.972	43.52
212.191	16.9
212.409	12.8
212.628	-60.93
212.846	49.66
213.065	68.09
213.283	100.86
213.502	-5.63
213.72	37.38
213.938	-24.06
214.157	41.47
214.375	12.8
214.594	-30.21
214.812	33.28
215.031	53.76
215.249	-5.63
215.467	64
215.686	20.99
215.904	23.04
216.122	-101.89
216.341	82.43
216.559	51.71
216.778	98.81
216.996	-30.21
217.214	66.05
217.432	31.23
217.651	-13.82
217.869	29.18
218.087	31.23
218.306	72.19
218.524	72.19
218.742	27.14
218.96	154.11
219.179	-65.02
219.397	14.85
219.615	70.14
219.833	41.47
220.051	35.33
220.27	-75.26
220.488	72.19
220.706	100.86
220.924	-26.11
221.142	-13.82
221.36	55.81
221.578	29.18
221.796	33.28
222.015	-7.68
222.233	111.1
222.451	66.05
222.669	27.14
222.887	61.95
223.105	-17.92
223.323	-7.68
223.541	-26.11
223.759	-5.63
223.977	70.14
224.195	25.09
224.413	53.76
224.631	-13.82
224.849	14.85
225.067	37.38
225.285	0.51
225.503	-34.3
225.721	20.99
225.939	72.19
226.157	43.52
226.375	176.64
226.592	-1.54
226.81	-15.87
227.028	27.14
227.246	10.75
227.464	55.81
227.682	-22.02
227.9	31.23
228.117	6.66
228.335	43.52
228.553	66.05
228.771	27.14
228.989	92.67
229.206	64
229.424	31.23
229.642	0.51
229.86	72.19
230.077	76.29
230.295	82.43
230.513	61.95
230.731	51.71
230.948	-7.68
231.166	-5.63
231.384	47.62
231.601	78.33
231.819	29.18
232.037	55.81
232.254	-3.58
232.472	18.94
232.689	20.99
232.907	23.04
233.125	-11.78
233.342	80.38
233.56	-36.35
233.777	0.51
233.995	43.52
234.213	33.28
234.43	25.09
234.648	-22.02
234.865	25.09
235.083	2.56
235.3	41.47
235.518	57.86
235.735	51.71
235.953	14.85
236.17	-36.35
236.388	53.76
236.605	55.81
236.822	20.99
237.04	49.66
237.257	57.86
237.475	53.76
237.692	37.38
237.909	-17.92
238.127	61.95
238.344	61.95
238.562	80.38
238.779	-9.73
238.996	-44.54
239.214	39.42
239.431	51.71
239.648	90.62
239.865	53.76
240.083	35.33
240.3	-28.16
240.517	-44.54
240.735	43.52
240.952	23.04
241.169	41.47
241.386	104.96
241.603	47.62
241.821	35.33
242.038	86.53
242.255	25.09
242.472	31.23
242.689	0.51
242.907	23.04
243.124	80.38
243.341	37.38
243.558	49.66
243.775	2.56
243.992	55.81
244.209	25.09
244.426	23.04
244.643	-5.63
244.86	18.94
245.078	104.96
245.295	86.53
245.512	31.23
245.729	39.42
245.946	-5.63
246.163	35.33
246.38	76.29
246.597	64
246.814	31.23
247.031	90.62
247.248	43.52
247.464	33.28
247.681	18.94
247.898	61.95
248.115	49.66
248.332	25.09
248.549	43.52
248.766	117.25
248.983	37.38
249.2	47.62
249.417	102.91
249.633	-46.59
249.85	20.99
250.067	8.7
250.284	39.42
250.501	43.52
250.717	39.42
250.934	45.57
251.151	47.62
251.368	-26.11
251.585	27.14
251.801	27.14
252.018	29.18
252.235	76.29
252.451	-30.21
252.668	16.9
252.885	164.35
253.102	27.14
253.318	-3.58
253.535	76.29
253.752	92.67
253.968	53.76
254.185	25.09
254.401	-11.78
254.618	119.29
254.835	96.77
255.051	121.34
255.268	-54.78
255.484	29.18
255.701	78.33
255.917	94.72
256.134	14.85
256.351	59.9
256.567	45.57
256.784	57.86
257	55.81
257.217	0.51
257.433	102.91
257.65	-24.06
257.866	-1.54
258.082	18.94
258.299	-3.58
258.515	80.38
258.732	61.95
258.948	-13.82
259.165	41.47
259.381	61.95
259.597	41.47
259.814	76.29
260.03	37.38
260.246	-1.54
260.463	35.33
260.679	61.95
260.895	-24.06
261.112	119.29
261.328	-13.82
261.544	-13.82
261.761	57.86
261.977	66.05
262.193	-54.78
262.409	129.53
262.626	31.23
262.842	27.14
263.058	25.09
263.274	14.85
263.49	35.33
263.707	68.09
263.923	57.86
264.139	35.33
264.355	76.29
264.571	80.38
264.787	25.09
265.004	43.52
265.22	-38.4
265.436	53.76
265.652	4.61
265.868	57.86
266.084	-1.54
266.3	23.04
266.516	41.47
266.732	115.2
266.948	-17.92
267.164	-17.92
267.38	29.18
267.596	94.72
267.812	29.18
268.028	66.05
268.244	64
268.46	100.86
268.676	16.9
268.892	31.23
269.108	66.05
269.324	57.86
269.54	6.66
269.756	57.86
269.972	92.67
270.188	61.95
270.403	12.8
270.619	-44.54
270.835	4.61
271.051	12.8
271.267	25.09
271.483	68.09
271.698	41.47
271.914	43.52
272.13	-5.63
272.346	51.71
272.562	80.38
272.777	88.57
272.993	76.29
273.209	29.18
273.425	33.28
273.64	14.85
273.856	43.52
274.072	-7.68
274.287	-17.92
274.503	4.61
274.719	70.14
274.934	76.29
275.15	4.61
275.366	43.52
275.581	31.23
275.797	35.33
276.012	20.99
276.228	96.77
276.444	35.33
276.659	82.43
276.875	18.94
277.09	55.81
277.306	70.14
277.521	59.9
277.737	37.38
277.952	61.95
278.168	0.51
278.383	-7.68
278.599	6.66
278.814	82.43
279.03	37.38
279.245	39.42
279.461	53.76
279.676	25.09
279.892	-7.68
280.107	29.18
280.322	2.56
280.538	25.09
280.753	37.38
280.969	68.09
281.184	-1.54
281.399	49.66
281.615	16.9
281.83	-36.35
282.045	72.19
282.26	25.09
282.476	49.66
282.691	51.71
282.906	49.66
283.122	70.14
283.337	-7.68
283.552	76.29
283.767	74.24
283.983	45.57
284.198	29.18
284.413	72.19
284.628	8.7
284.843	-5.63
285.058	53.76
285.274	64
285.489	45.57
285.704	107.01
285.919	35.33
286.134	31.23
286.349	4.61
286.564	-5.63
286.779	64
286.995	27.14
287.21	4.61
287.425	64
287.64	-30.21
287.855	64
288.07	33.28
288.285	74.24
288.5	59.9
288.715	68.09
288.93	-40.45
289.145	43.52
289.36	66.05
289.575	-26.11
289.79	104.96
290.004	16.9
290.219	41.47
290.434	88.57
290.649	64
290.864	88.57
291.079	14.85
291.294	64
291.509	-5.63
291.724	29.18
291.938	27.14
292.153	49.66
292.368	27.14
292.583	2.56
292.798	31.23
293.012	2.56
293.227	70.14
293.442	35.33
293.657	49.66
293.871	107.01
294.086	37.38
294.301	64
294.516	37.38
294.73	59.9
294.945	20.99
295.16	96.77
295.374	51.71
295.589	31.23
295.804	8.7
296.018	64
296.233	64
296.447	94.72
296.662	39.42
296.877	59.9
297.091	121.34
297.306	53.76
297.52	51.71
297.735	10.75
297.949	14.85
298.164	29.18
298.378	14.85
298.593	-1.54
298.807	25.09
299.022	35.33
299.236	78.33
299.451	27.14
299.665	66.05
299.88	66.05
300.094	-5.63
300.309	64
300.523	35.33
300.737	18.94
300.952	76.29
301.166	2.56
301.381	4.61
301.595	-24.06
301.809	35.33
302.024	86.53
302.238	-3.58
302.452	96.77
302.667	61.95
302.881	90.62
303.095	25.09
303.309	129.53
303.524	2.56
303.738	0.51
303.952	-34.3
304.166	-19.97
304.381	16.9
304.595	27.14
304.809	33.28
305.023	-15.87
305.237	31.23
305.452	-17.92
305.666	-44.54
305.88	57.86
306.094	68.09
306.308	53.76
306.522	27.14
306.736	12.8
306.95	78.33
307.164	51.71
307.379	70.14
307.593	188.93
307.807	12.8
308.021	88.57
308.235	29.18
308.449	18.94
308.663	4.61
308.877	104.96
309.091	-15.87
309.305	64
309.519	64
309.733	25.09
309.947	-26.11
310.161	61.95
310.374	45.57
310.588	-22.02
310.802	-9.73
311.016	39.42
311.23	33.28
311.444	-1.54
311.658	51.71
311.872	55.81
312.085	47.62
312.299	92.67
312.513	82.43
312.727	23.04
312.941	35.33
313.154	98.81
313.368	35.33
313.582	45.57
313.796	18.94
314.009	-24.06
314.223	70.14
314.437	-22.02
314.651	70.14
314.864	27.14
315.078	39.42
315.292	115.2
315.505	23.04
315.719	55.81
315.933	76.29
316.146	59.9
316.36	49.66
316.573	78.33
316.787	31.23
317.001	80.38
317.214	-17.92
317.428	18.94
317.641	94.72
317.855	59.9
318.068	104.96
318.282	113.15
318.495	49.66
318.709	64
318.922	35.33
319.136	31.23
319.349	78.33
319.563	64
319.776	64
319.99	-7.68
320.203	82.43
320.417	59.9
320.63	49.66
320.843	113.15
321.057	41.47
321.27	102.91
321.483	131.58
321.697	84.48
321.91	43.52
322.124	10.75
322.337	80.38
322.55	12.8
322.763	76.29
322.977	39.42
323.19	37.38
323.403	27.14
323.617	-17.92
323.83	76.29
324.043	-28.16
324.256	4.61
324.469	-24.06
324.683	104.96
324.896	27.14
325.109	41.47
325.322	-3.58
325.535	72.19
325.748	111.1
325.962	64
326.175	61.95
326.388	90.62
326.601	92.67
326.814	55.81
327.027	74.24
327.24	66.05
327.453	31.23
327.666	27.14
327.879	55.81
328.092	107.01
328.305	51.71
328.518	-1.54
328.731	68.09
328.944	29.18
329.157	31.23
329.37	20.99
329.583	127.49
329.796	39.42
330.009	2.56
330.222	90.62
330.435	39.42
330.648	39.42
330.861	31.23
331.073	25.09
331.286	92.67
331.499	39.42
331.712	51.71
331.925	43.52
332.138	61.95
332.35	23.04
332.563	74.24
332.776	57.86
332.989	47.62
333.202	53.76
333.414	82.43
333.627	37.38
333.84	-30.21
334.053	47.62
334.265	-5.63
334.478	102.91
334.691	-7.68
334.903	80.38
335.116	80.38
335.329	96.77
335.541	8.7
335.754	90.62
335.966	80.38
336.179	86.53
336.392	133.63
336.604	14.85
336.817	14.85
337.029	72.19
337.242	49.66
337.454	66.05
337.667	20.99
337.88	68.09
338.092	92.67
338.305	16.9
338.517	31.23
338.729	70.14
338.942	61.95
339.154	-46.59
339.367	-28.16
339.579	20.99
339.792	10.75
340.004	82.43
340.217	94.72
340.429	49.66
340.641	18.94
340.854	16.9
341.066	27.14
341.278	92.67
341.491	41.47
341.703	-17.92
341.915	66.05
342.128	66.05
342.34	107.01
342.552	27.14
342.764	43.52
342.977	64
343.189	-5.63
343.401	-17.92
343.613	39.42
343.826	61.95
344.038	-1.54
344.25	68.09
344.462	16.9
344.674	98.81
344.886	4.61
345.099	20.99
345.311	88.57
345.523	33.28
345.735	2.56
345.947	57.86
346.159	141.82
346.371	129.53
346.583	61.95
346.795	29.18
347.007	47.62
347.219	27.14
347.431	2.56
347.643	107.01
347.855	43.52
348.067	47.62
348.279	82.43
348.491	-13.82
348.703	72.19
348.915	23.04
349.127	86.53
349.339	31.23
349.551	29.18
349.763	18.94
349.975	88.57
350.187	88.57
350.399	59.9
350.61	27.14
350.822	51.71
351.034	68.09
351.246	43.52
351.458	12.8
351.669	84.48
351.881	35.33
352.093	41.47
352.305	43.52
352.517	33.28
352.728	131.58
352.94	66.05
353.152	80.38
353.363	39.42
353.575	76.29
353.787	94.72
353.999	96.77
354.21	88.57
354.422	31.23
354.633	72.19
354.845	4.61
355.057	8.7
355.268	53.76
355.48	125.44
355.692	-7.68
355.903	45.57
356.115	-48.64
356.326	33.28
356.538	59.9
356.749	129.53
356.961	33.28
357.172	-13.82
357.384	51.71
357.595	150.01
357.807	55.81
358.018	66.05
358.23	29.18
358.441	76.29
358.653	70.14
358.864	8.7
359.075	96.77
359.287	8.7
359.498	49.66
359.709	102.91
359.921	-22.02
360.132	33.28
360.344	39.42
360.555	41.47
360.766	29.18
360.977	55.81
361.189	133.63
361.4	64
361.611	123.39
361.823	43.52
362.034	45.57
362.245	37.38
362.456	51.71
362.667	18.94
362.879	29.18
363.09	53.76
363.301	20.99
363.512	51.71
363.723	-5.63
363.935	78.33
364.146	37.38
364.357	100.86
364.568	64
364.779	14.85
364.99	72.19
365.201	18.94
365.412	45.57
365.623	20.99
365.834	90.62
366.045	-7.68
366.256	76.29
366.467	64
366.678	16.9
366.889	78.33
367.1	31.23
367.311	88.57
367.522	51.71
367.733	64
367.944	96.77
368.155	39.42
368.366	23.04
368.577	31.23
368.788	-7.68
368.999	12.8
369.209	119.29
369.42	18.94
369.631	115.2
369.842	104.96
370.053	27.14
370.264	43.52
370.474	37.38
370.685	121.34
370.896	8.7
371.107	61.95
371.317	-1.54
371.528	59.9
371.739	55.81
371.95	47.62
372.16	76.29
372.371	29.18
372.582	43.52
372.792	27.14
373.003	-11.78
373.214	33.28
373.424	109.05
373.635	39.42
373.846	74.24
374.056	61.95
374.267	41.47
374.477	70.14
374.688	107.01
374.898	27.14
375.109	39.42
375.319	-15.87
375.53	25.09
375.74	107.01
375.951	45.57
376.161	23.04
376.372	98.81
376.582	37.38
376.793	82.43
377.003	39.42
377.214	80.38
377.424	39.42
377.635	41.47
377.845	47.62
378.055	57.86
378.266	14.85
378.476	127.49
378.686	68.09
378.897	27.14
379.107	102.91
379.317	59.9
379.528	31.23
379.738	6.66
379.948	84.48
380.158	47.62
380.369	145.92
380.579	39.42
380.789	86.53
380.999	29.18
381.21	72.19
381.42	92.67
381.63	59.9
381.84	78.33
382.05	18.94
382.261	80.38
382.471	66.05
382.681	37.38
382.891	125.44
383.101	29.18
383.311	6.66
383.521	70.14
383.731	182.78
383.941	47.62
384.151	74.24
384.361	109.05
384.571	68.09
384.781	57.86
384.991	68.09
385.201	72.19
385.411	49.66
385.621	51.71
385.831	12.8
386.041	121.34
386.251	43.52
386.461	109.05
386.671	59.9
386.881	135.68
387.091	-1.54
387.301	57.86
387.511	59.9
387.72	86.53
387.93	45.57
388.14	59.9
388.35	74.24
388.56	127.49
388.769	102.91
388.979	53.76
389.189	72.19
389.399	39.42
389.609	61.95
389.818	123.39
390.028	27.14
390.238	125.44
390.447	35.33
390.657	25.09
390.867	14.85
391.076	43.52
391.286	80.38
391.496	123.39
391.705	115.2
391.915	82.43
392.125	68.09
392.334	68.09
392.544	2.56
392.753	123.39
392.963	100.86
393.172	68.09
393.382	90.62
393.591	102.91
393.801	43.52
394.01	86.53
394.22	51.71
394.429	98.81
394.639	70.14
394.848	80.38
395.058	23.04
395.267	55.81
395.477	49.66
395.686	143.87
395.895	121.34
396.105	145.92
396.314	129.53
396.524	88.57
396.733	104.96
396.942	55.81
397.152	98.81
397.361	162.3
397.57	121.34
397.78	100.86
397.989	147.97
398.198	104.96
398.407	33.28
398.617	86.53
398.826	31.23
399.035	57.86
399.244	33.28
399.453	104.96
399.663	145.92
399.872	109.05
400.081	45.57
400.29	107.01
400.499	55.81
400.708	113.15
400.917	31.23
401.127	160.25
401.336	70.14
401.545	111.1
401.754	125.44
401.963	129.53
402.172	96.77
402.381	113.15
402.59	109.05
402.799	74.24
403.008	113.15
403.217	53.76
403.426	92.67
403.635	53.76
403.844	121.34
404.053	92.67
404.262	68.09
404.471	115.2
404.68	102.91
404.888	88.57
405.097	137.73
405.306	119.29
405.515	162.3
405.724	147.97
405.933	160.25
406.142	176.64
406.35	162.3
406.559	55.81
406.768	215.55
406.977	174.59
407.185	190.97
407.394	156.16
407.603	188.93
407.812	217.6
408.02	217.6
408.229	160.25
408.438	215.55
408.646	236.03
408.855	252.41
409.064	211.45
409.272	162.3
409.481	203.26
409.69	236.03
409.898	225.79
410.107	260.6
410.315	326.14
410.524	242.17
410.733	240.12
410.941	328.19
411.15	264.7
411.358	264.7
411.567	299.52
411.775	240.12
411.984	373.24
412.192	322.04
412.401	336.38
412.609	438.78
412.818	344.57
413.026	459.26
413.234	487.93
413.443	440.83
413.651	451.07
413.86	467.45
414.068	451.07
414.276	547.32
414.485	467.45
414.693	455.16
414.901	590.33
415.11	612.85
415.318	543.22
415.526	602.61
415.734	709.11
415.943	578.04
416.151	676.34
416.359	674.29
416.567	684.53
416.776	719.35
416.984	682.49
417.192	754.16
417.4	776.69
417.608	803.32
417.817	803.32
418.025	881.14
418.233	922.1
418.441	907.76
418.649	983.54
418.857	901.62
419.065	995.82
419.273	1018.35
419.481	997.87
419.689	1151.47
419.897	1163.76
420.105	1092.08
420.313	1196.53
420.521	1288.68
420.729	1249.77
420.937	1300.97
421.145	1323.5
421.353	1479.15
421.561	1372.65
421.769	1489.39
421.977	1636.84
422.185	1501.67
422.393	1626.6
422.601	1655.27
422.809	1591.78
423.017	1802.72
423.224	1843.68
423.432	1919.46
423.64	1894.88
423.848	2077.15
424.056	2040.29
424.263	2146.78
424.471	2103.78
424.679	2218.46
424.887	2253.28
425.094	2443.74
425.302	2423.26
425.51	2505.18
425.718	2607.58
425.925	2564.57
426.133	2781.65
426.341	2884.05
426.548	2922.96
426.756	3023.31
426.964	2974.16
427.171	3318.22
427.379	3318.22
427.586	3240.4
427.794	3447.24
428.001	3645.9
428.209	3793.35
428.417	3658.18
428.624	4131.26
428.832	4071.87
429.039	3830.21
429.247	3920.32
429.454	4315.58
429.662	4565.43
429.869	4334.01
430.076	4520.38
430.284	4516.28
430.491	4762.04
430.699	4956.6
430.906	4835.77
431.114	4882.87
431.321	5138.87
431.528	5351.85
431.736	5622.19
431.943	5980.58
432.15	5810.6
432.358	5835.17
432.565	5972.39
432.772	6062.5
432.979	6384.03
433.187	6525.34
433.394	6369.69
433.601	7031.19
433.808	6850.97
434.016	6879.64
434.223	7211.41
434.43	7786.89
434.637	7418.25
434.844	8020.36
435.052	8067.46
435.259	8143.24
435.466	8063.36
435.673	7856.52
435.88	8554.88
436.087	8976.76
436.294	9183.6
436.501	8794.49
436.708	9034.1
436.915	9165.17
437.122	9660.78
437.329	9640.3
437.537	10074.47
437.743	10242.4
437.95	9832.81
438.157	10496.35
438.364	10918.23
438.571	11026.78
438.778	10772.83
438.985	12044.62
439.192	11411.79
439.399	12093.77
439.606	11702.61
439.813	12374.34
440.02	12974.39
440.227	12810.56
440.433	12620.1
440.64	13166.9
440.847	13003.07
441.054	13322.55
441.261	14344.49
441.467	14002.47
441.674	14233.89
441.881	14889.24
442.088	14999.84
442.294	14498.08
442.501	15153.43
442.708	15472.92
442.914	16103.69
443.121	16709.89
443.328	16374.02
443.534	17256.7
443.741	16689.41
443.948	16476.42
444.154	17813.74
444.361	17592.56
444.568	17823.98
444.774	17596.66
444.981	17895.66
445.187	18520.29
445.394	19458.26
445.6	19177.69
445.807	21084.35
446.013	20084.94
446.22	20291.79
446.426	21018.82
446.633	21172.41
446.839	21831.86
447.046	21088.45
447.252	22358.19
447.459	22089.9
447.665	22100.14
447.871	23128.22
448.078	23914.64
448.284	22958.24
448.491	23609.5
448.697	24377.48
448.903	24764.55
449.11	24860.8
449.316	24424.59
449.522	25026.69
449.728	25460.86
449.935	25849.97
450.141	25557.11
450.347	26312.81
450.553	25229.44
450.76	25669.75
450.966	26325.1
451.172	26265.71
451.378	26863.72
451.584	26460.27
451.791	27148.39
451.997	26677.35
452.203	27498.59
452.409	27203.68
452.615	26939.49
452.821	26183.79
453.027	25720.95
453.233	26951.78
453.44	25974.9
453.646	26382.45
453.852	26546.28
454.058	26726.5
454.264	25723
454.47	26536.04
454.676	25886.84
454.882	26697.83
455.088	24174.74
455.294	24586.38
455.5	24995.97
455.705	25200.77
455.911	23933.07
456.117	24080.53
456.323	23169.18
456.529	22231.21
456.735	22898.85
456.941	22286.51
457.147	21979.31
457.352	21139.65
457.558	21018.82
457.764	21000.38
457.97	20762.82
458.176	20332.75
458.381	20283.59
458.587	19099.87
458.793	19071.2
458.999	18237.67
459.204	19374.3
459.41	18884.83
459.616	17754.35
459.821	17541.36
460.027	17484.02
460.233	17133.82
460.438	16599.3
460.644	16689.41
460.85	15726.86
461.055	15616.27
461.261	15659.28
461.466	14313.77
461.672	13959.47
461.878	15079.71
462.083	13936.94
462.289	14022.95
462.494	13820.21
462.7	13115.7
462.905	12536.13
463.111	13152.57
463.316	13361.46
463.522	12763.45
463.727	12814.65
463.932	12675.39
464.138	12872
464.343	12722.49
464.549	12513.6
464.754	12648.77
464.959	12949.82
465.165	12667.2
465.37	12028.23
465.575	11733.32
465.781	12372.29
465.986	12308.8
466.191	12144.97
466.397	11696.46
466.602	11258.2
466.807	11514.19
467.012	11583.82
467.218	11659.6
467.423	11364.69
467.628	11338.07
467.833	11893.07
468.038	11551.06
468.244	10987.86
468.449	11577.68
468.654	11217.24
468.859	11057.5
