Data from USB4F104151__55__11-05-44-848.txt Node

Date: Wed Mar 12 11:05:44 EDT 2025
User: louis
Spectrometer: USB4F10415
Trigger mode: 4
Integration Time (sec): 2.000000E-2
Scans to average: 1
Electric dark correction enabled: true
Nonlinearity correction enabled: false
Boxcar width: 0
XAxis mode: Wavelengths
Number of Pixels in Spectrum: 3648
>>>>>Begin Spectral Data<<<<<
178.204	13.82
178.424	13.82
178.644	13.82
178.864	-109.05
179.084	-94.72
179.304	-16.9
179.524	-0.51
179.744	-55.81
179.964	42.5
180.184	1.54
180.404	7.68
180.624	1.54
180.844	44.54
181.064	-2.56
181.283	7.68
181.503	-14.85
181.723	-14.85
181.943	-10.75
182.163	38.4
182.383	44.54
182.602	81.41
182.822	89.6
183.042	81.41
183.262	15.87
183.482	17.92
183.701	-16.9
183.921	93.69
184.141	65.02
184.361	26.11
184.58	-66.05
184.8	60.93
185.02	26.11
185.239	40.45
185.459	22.02
185.679	60.93
185.898	5.63
186.118	87.55
186.338	15.87
186.557	79.36
186.777	50.69
186.997	-16.9
187.216	50.69
187.436	24.06
187.655	77.31
187.875	42.5
188.095	7.68
188.314	77.31
188.534	67.07
188.753	-31.23
188.973	-27.14
189.192	36.35
189.412	65.02
189.631	13.82
189.851	62.98
190.07	48.64
190.29	-2.56
190.509	67.07
190.729	13.82
190.948	34.3
191.168	165.37
191.387	67.07
191.607	99.84
191.826	58.88
192.045	-23.04
192.265	-18.94
192.484	13.82
192.704	3.58
192.923	50.69
193.142	58.88
193.362	13.82
193.581	1.54
193.8	30.21
194.02	124.41
194.239	56.83
194.458	-2.56
194.678	46.59
194.897	-0.51
195.116	32.26
195.335	-37.38
195.555	54.78
195.774	-20.99
195.993	58.88
196.212	19.97
196.432	48.64
196.651	22.02
196.87	-12.8
197.089	36.35
197.308	28.16
197.528	3.58
197.747	17.92
197.966	-10.75
198.185	50.69
198.404	58.88
198.623	11.78
198.842	42.5
199.062	40.45
199.281	87.55
199.5	54.78
199.719	81.41
199.938	32.26
200.157	67.07
200.376	81.41
200.595	52.74
200.814	46.59
201.033	60.93
201.252	48.64
201.471	56.83
201.69	85.5
201.909	-6.66
202.128	38.4
202.347	46.59
202.566	7.68
202.785	40.45
203.004	58.88
203.223	101.89
203.442	-27.14
203.661	-4.61
203.879	56.83
204.098	97.79
204.317	46.59
204.536	110.08
204.755	-2.56
204.974	73.21
205.193	15.87
205.411	99.84
205.63	24.06
205.849	-2.56
206.068	69.12
206.287	22.02
206.505	40.45
206.724	48.64
206.943	19.97
207.162	114.17
207.381	93.69
207.599	148.99
207.818	11.78
208.037	-12.8
208.255	48.64
208.474	30.21
208.693	7.68
208.911	71.17
209.13	85.5
209.349	58.88
209.567	30.21
209.786	79.36
210.005	34.3
210.223	5.63
210.442	-27.14
210.661	3.58
210.879	-72.19
211.098	79.36
211.316	-49.66
211.535	54.78
211.753	-39.42
211.972	79.36
212.191	-43.52
212.409	3.58
212.628	24.06
212.846	5.63
213.065	-16.9
213.283	71.17
213.502	69.12
213.72	32.26
213.938	24.06
214.157	26.11
214.375	19.97
214.594	56.83
214.812	-14.85
215.031	108.03
215.249	22.02
215.467	71.17
215.686	48.64
215.904	48.64
216.122	26.11
216.341	-37.38
216.559	-6.66
216.778	50.69
216.996	-14.85
217.214	62.98
217.432	-12.8
217.651	-25.09
217.869	5.63
218.087	-0.51
218.306	24.06
218.524	75.26
218.742	38.4
218.96	97.79
219.179	11.78
219.397	62.98
219.615	7.68
219.833	17.92
220.051	67.07
220.27	62.98
220.488	-14.85
220.706	56.83
220.924	5.63
221.142	34.3
221.36	-37.38
221.578	48.64
221.796	-96.77
222.015	-31.23
222.233	36.35
222.451	83.45
222.669	44.54
222.887	122.37
223.105	-0.51
223.323	40.45
223.541	9.73
223.759	130.56
223.977	-49.66
224.195	112.13
224.413	91.65
224.631	71.17
224.849	48.64
225.067	89.6
225.285	9.73
225.503	-53.76
225.721	-6.66
225.939	-35.33
226.157	40.45
226.375	103.93
226.592	17.92
226.81	13.82
227.028	-6.66
227.246	75.26
227.464	50.69
227.682	62.98
227.9	58.88
228.117	73.21
228.335	56.83
228.553	30.21
228.771	22.02
228.989	9.73
229.206	73.21
229.424	30.21
229.642	-18.94
229.86	7.68
230.077	50.69
230.295	34.3
230.513	79.36
230.731	48.64
230.948	89.6
231.166	89.6
231.384	75.26
231.601	26.11
231.819	26.11
232.037	101.89
232.254	-14.85
232.472	28.16
232.689	-41.47
232.907	-0.51
233.125	24.06
233.342	-14.85
233.56	56.83
233.777	85.5
233.995	56.83
234.213	44.54
234.43	56.83
234.648	15.87
234.865	9.73
235.083	105.98
235.3	-20.99
235.518	95.74
235.735	130.56
235.953	34.3
236.17	38.4
236.388	46.59
236.605	38.4
236.822	73.21
237.04	62.98
237.257	22.02
237.475	24.06
237.692	87.55
237.909	54.78
238.127	83.45
238.344	71.17
238.562	28.16
238.779	34.3
238.996	-27.14
239.214	34.3
239.431	101.89
239.648	89.6
239.865	91.65
240.083	62.98
240.3	15.87
240.517	28.16
240.735	38.4
240.952	-0.51
241.169	95.74
241.386	67.07
241.603	122.37
241.821	34.3
242.038	36.35
242.255	67.07
242.472	56.83
242.689	58.88
242.907	79.36
243.124	1.54
243.341	-18.94
243.558	11.78
243.775	73.21
243.992	17.92
244.209	17.92
244.426	9.73
244.643	77.31
244.86	32.26
245.078	58.88
245.295	65.02
245.512	40.45
245.729	-20.99
245.946	-29.18
246.163	81.41
246.38	60.93
246.597	93.69
246.814	-8.7
247.031	22.02
247.248	19.97
247.464	30.21
247.681	52.74
247.898	42.5
248.115	58.88
248.332	34.3
248.549	89.6
248.766	65.02
248.983	52.74
249.2	24.06
249.417	34.3
249.633	11.78
249.85	77.31
250.067	3.58
250.284	46.59
250.501	42.5
250.717	-2.56
250.934	17.92
251.151	110.08
251.368	42.5
251.585	-8.7
251.801	-29.18
252.018	75.26
252.235	93.69
252.451	48.64
252.668	13.82
252.885	71.17
253.102	50.69
253.318	11.78
253.535	-8.7
253.752	22.02
253.968	-27.14
254.185	-43.52
254.401	36.35
254.618	112.13
254.835	122.37
255.051	-12.8
255.268	108.03
255.484	46.59
255.701	26.11
255.917	108.03
256.134	13.82
256.351	15.87
256.567	22.02
256.784	75.26
257	9.73
257.217	62.98
257.433	112.13
257.65	3.58
257.866	89.6
258.082	-4.61
258.299	97.79
258.515	62.98
258.732	-8.7
258.948	75.26
259.165	-47.62
259.381	54.78
259.597	5.63
259.814	56.83
260.03	11.78
260.246	95.74
260.463	46.59
260.679	40.45
260.895	-49.66
261.112	7.68
261.328	-23.04
261.544	99.84
261.761	85.5
261.977	38.4
262.193	50.69
262.409	3.58
262.626	67.07
262.842	3.58
263.058	58.88
263.274	54.78
263.49	77.31
263.707	-2.56
263.923	77.31
264.139	65.02
264.355	56.83
264.571	69.12
264.787	112.13
265.004	79.36
265.22	-18.94
265.436	36.35
265.652	1.54
265.868	-14.85
266.084	-20.99
266.3	42.5
266.516	71.17
266.732	30.21
266.948	38.4
267.164	87.55
267.38	19.97
267.596	138.75
267.812	71.17
268.028	-4.61
268.244	-12.8
268.46	89.6
268.676	85.5
268.892	108.03
269.108	79.36
269.324	-29.18
269.54	13.82
269.756	77.31
269.972	9.73
270.188	9.73
270.403	-0.51
270.619	97.79
270.835	-18.94
271.051	24.06
271.267	32.26
271.483	138.75
271.698	65.02
271.914	99.84
272.13	30.21
272.346	38.4
272.562	-2.56
272.777	85.5
272.993	58.88
273.209	58.88
273.425	91.65
273.64	22.02
273.856	42.5
274.072	69.12
274.287	-43.52
274.503	62.98
274.719	42.5
274.934	13.82
275.15	-2.56
275.366	50.69
275.581	46.59
275.797	-4.61
276.012	-6.66
276.228	40.45
276.444	-4.61
276.659	73.21
276.875	105.98
277.09	177.66
277.306	50.69
277.521	-16.9
277.737	58.88
277.952	50.69
278.168	48.64
278.383	40.45
278.599	-6.66
278.814	99.84
279.03	71.17
279.245	97.79
279.461	28.16
279.676	153.09
279.892	105.98
280.107	44.54
280.322	-14.85
280.538	58.88
280.753	-6.66
280.969	73.21
281.184	42.5
281.399	116.22
281.615	24.06
281.83	42.5
282.045	17.92
282.26	62.98
282.476	38.4
282.691	69.12
282.906	40.45
283.122	60.93
283.337	77.31
283.552	75.26
283.767	15.87
283.983	7.68
284.198	103.93
284.413	69.12
284.628	32.26
284.843	44.54
285.058	40.45
285.274	30.21
285.489	-14.85
285.704	5.63
285.919	36.35
286.134	26.11
286.349	54.78
286.564	103.93
286.779	46.59
286.995	93.69
287.21	44.54
287.425	44.54
287.64	56.83
287.855	67.07
288.07	-4.61
288.285	58.88
288.5	93.69
288.715	65.02
288.93	5.63
289.145	15.87
289.36	24.06
289.575	28.16
289.79	54.78
290.004	58.88
290.219	56.83
290.434	17.92
290.649	1.54
290.864	-6.66
291.079	-12.8
291.294	17.92
291.509	77.31
291.724	130.56
291.938	67.07
292.153	87.55
292.368	-0.51
292.583	67.07
292.798	9.73
293.012	56.83
293.227	73.21
293.442	50.69
293.657	46.59
293.871	132.61
294.086	52.74
294.301	48.64
294.516	28.16
294.73	58.88
294.945	28.16
295.16	-2.56
295.374	97.79
295.589	65.02
295.804	42.5
296.018	30.21
296.233	69.12
296.447	85.5
296.662	56.83
296.877	99.84
297.091	52.74
297.306	48.64
297.52	38.4
297.735	67.07
297.949	-33.28
298.164	105.98
298.378	56.83
298.593	67.07
298.807	1.54
299.022	65.02
299.236	67.07
299.451	15.87
299.665	40.45
299.88	22.02
300.094	7.68
300.309	58.88
300.523	75.26
300.737	1.54
300.952	26.11
301.166	112.13
301.381	-45.57
301.595	85.5
301.809	52.74
302.024	101.89
302.238	42.5
302.452	65.02
302.667	114.17
302.881	67.07
303.095	89.6
303.309	73.21
303.524	-10.75
303.738	5.63
303.952	-47.62
304.166	60.93
304.381	-6.66
304.595	108.03
304.809	-18.94
305.023	67.07
305.237	17.92
305.452	54.78
305.666	30.21
305.88	56.83
306.094	95.74
306.308	48.64
306.522	15.87
306.736	42.5
306.95	91.65
307.164	69.12
307.379	52.74
307.593	101.89
307.807	75.26
308.021	40.45
308.235	134.65
308.449	15.87
308.663	42.5
308.877	95.74
309.091	58.88
309.305	101.89
309.519	30.21
309.733	204.28
309.947	24.06
310.161	114.17
310.374	28.16
310.588	28.16
310.802	26.11
311.016	54.78
311.23	89.6
311.444	-23.04
311.658	38.4
311.872	85.5
312.085	91.65
312.299	97.79
312.513	65.02
312.727	-8.7
312.941	3.58
313.154	101.89
313.368	13.82
313.582	79.36
313.796	71.17
314.009	58.88
314.223	40.45
314.437	126.46
314.651	40.45
314.864	30.21
315.078	58.88
315.292	50.69
315.505	75.26
315.719	108.03
315.933	-0.51
316.146	46.59
316.36	73.21
316.573	-16.9
316.787	83.45
317.001	81.41
317.214	-10.75
317.428	69.12
317.641	7.68
317.855	116.22
318.068	-10.75
318.282	22.02
318.495	24.06
318.709	128.51
318.922	3.58
319.136	138.75
319.349	36.35
319.563	52.74
319.776	5.63
319.99	75.26
320.203	118.27
320.417	48.64
320.63	67.07
320.843	50.69
321.057	34.3
321.27	81.41
321.483	3.58
321.697	101.89
321.91	87.55
322.124	97.79
322.337	71.17
322.55	54.78
322.763	75.26
322.977	87.55
323.19	46.59
323.403	-6.66
323.617	99.84
323.83	30.21
324.043	36.35
324.256	62.98
324.469	-16.9
324.683	110.08
324.896	24.06
325.109	46.59
325.322	-20.99
325.535	26.11
325.748	87.55
325.962	97.79
326.175	5.63
326.388	128.51
326.601	26.11
326.814	58.88
327.027	-0.51
327.24	93.69
327.453	17.92
327.666	65.02
327.879	38.4
328.092	62.98
328.305	32.26
328.518	-47.62
328.731	34.3
328.944	1.54
329.157	81.41
329.37	52.74
329.583	26.11
329.796	108.03
330.009	-23.04
330.222	110.08
330.435	22.02
330.648	46.59
330.861	79.36
331.073	85.5
331.286	46.59
331.499	65.02
331.712	34.3
331.925	60.93
332.138	79.36
332.35	75.26
332.563	-18.94
332.776	101.89
332.989	17.92
333.202	52.74
333.414	42.5
333.627	71.17
333.84	30.21
334.053	48.64
334.265	62.98
334.478	32.26
334.691	48.64
334.903	95.74
335.116	30.21
335.329	101.89
335.541	60.93
335.754	95.74
335.966	19.97
336.179	3.58
336.392	34.3
336.604	175.61
336.817	30.21
337.029	26.11
337.242	44.54
337.454	67.07
337.667	60.93
337.88	103.93
338.092	17.92
338.305	105.98
338.517	62.98
338.729	124.41
338.942	62.98
339.154	46.59
339.367	34.3
339.579	108.03
339.792	3.58
340.004	79.36
340.217	42.5
340.429	108.03
340.641	81.41
340.854	138.75
341.066	69.12
341.278	52.74
341.491	42.5
341.703	103.93
341.915	3.58
342.128	73.21
342.34	60.93
342.552	155.13
342.764	79.36
342.977	9.73
343.189	136.7
343.401	54.78
343.613	77.31
343.826	26.11
344.038	50.69
344.25	42.5
344.462	-10.75
344.674	17.92
344.886	93.69
345.099	24.06
345.311	3.58
345.523	50.69
345.735	103.93
345.947	-6.66
346.159	-6.66
346.371	58.88
346.583	52.74
346.795	130.56
347.007	-25.09
347.219	87.55
347.431	13.82
347.643	99.84
347.855	-14.85
348.067	54.78
348.279	38.4
348.491	24.06
348.703	163.33
348.915	-12.8
349.127	-4.61
349.339	46.59
349.551	36.35
349.763	58.88
349.975	-0.51
350.187	71.17
350.399	30.21
350.61	87.55
350.822	38.4
351.034	22.02
351.246	26.11
351.458	-2.56
351.669	120.32
351.881	17.92
352.093	62.98
352.305	62.98
352.517	-10.75
352.728	42.5
352.94	142.85
353.152	75.26
353.363	9.73
353.575	30.21
353.787	-12.8
353.999	81.41
354.21	71.17
354.422	95.74
354.633	7.68
354.845	161.28
355.057	62.98
355.268	-4.61
355.48	87.55
355.692	60.93
355.903	32.26
356.115	120.32
356.326	-23.04
356.538	91.65
356.749	13.82
356.961	38.4
357.172	116.22
357.384	116.22
357.595	105.98
357.807	56.83
358.018	-18.94
358.23	165.37
358.441	128.51
358.653	17.92
358.864	136.7
359.075	24.06
359.287	24.06
359.498	99.84
359.709	58.88
359.921	42.5
360.132	52.74
360.344	112.13
360.555	71.17
360.766	101.89
360.977	52.74
361.189	95.74
361.4	120.32
361.611	17.92
361.823	71.17
362.034	56.83
362.245	42.5
362.456	99.84
362.667	42.5
362.879	79.36
363.09	-12.8
363.301	151.04
363.512	89.6
363.723	-27.14
363.935	19.97
364.146	89.6
364.357	58.88
364.568	24.06
364.779	67.07
364.99	48.64
365.201	75.26
365.412	112.13
365.623	13.82
365.834	83.45
366.045	56.83
366.256	58.88
366.467	54.78
366.678	26.11
366.889	15.87
367.1	65.02
367.311	73.21
367.522	34.3
367.733	17.92
367.944	-12.8
368.155	65.02
368.366	89.6
368.577	101.89
368.788	134.65
368.999	40.45
369.209	58.88
369.42	126.46
369.631	75.26
369.842	60.93
370.053	73.21
370.264	56.83
370.474	105.98
370.685	-2.56
370.896	-6.66
371.107	99.84
371.317	-51.71
371.528	3.58
371.739	44.54
371.95	56.83
372.16	48.64
372.371	26.11
372.582	97.79
372.792	91.65
373.003	157.18
373.214	85.5
373.424	83.45
373.635	44.54
373.846	91.65
374.056	79.36
374.267	32.26
374.477	50.69
374.688	22.02
374.898	157.18
375.109	-0.51
375.319	132.61
375.53	26.11
375.74	17.92
375.951	128.51
376.161	22.02
376.372	73.21
376.582	36.35
376.793	95.74
377.003	58.88
377.214	13.82
377.424	1.54
377.635	77.31
377.845	1.54
378.055	24.06
378.266	46.59
378.476	44.54
378.686	-14.85
378.897	22.02
379.107	40.45
379.317	83.45
379.528	54.78
379.738	67.07
379.948	48.64
380.158	122.37
380.369	120.32
380.579	87.55
380.789	73.21
380.999	114.17
381.21	126.46
381.42	89.6
381.63	62.98
381.84	97.79
382.05	89.6
382.261	58.88
382.471	79.36
382.681	48.64
382.891	77.31
383.101	91.65
383.311	79.36
383.521	-0.51
383.731	46.59
383.941	40.45
384.151	110.08
384.361	87.55
384.571	46.59
384.781	97.79
384.991	101.89
385.201	99.84
385.411	15.87
385.621	36.35
385.831	99.84
386.041	42.5
386.251	108.03
386.461	116.22
386.671	52.74
386.881	67.07
387.091	75.26
387.301	103.93
387.511	56.83
387.72	44.54
387.93	85.5
388.14	9.73
388.35	40.45
388.56	58.88
388.769	95.74
388.979	99.84
389.189	28.16
389.399	56.83
389.609	134.65
389.818	95.74
390.028	52.74
390.238	73.21
390.447	89.6
390.657	30.21
390.867	112.13
391.076	52.74
391.286	34.3
391.496	73.21
391.705	56.83
391.915	65.02
392.125	95.74
392.334	95.74
392.544	71.17
392.753	130.56
392.963	-4.61
393.172	52.74
393.382	67.07
393.591	138.75
393.801	54.78
394.01	95.74
394.22	155.13
394.429	77.31
394.639	44.54
394.848	134.65
395.058	124.41
395.267	79.36
395.477	91.65
395.686	208.38
395.895	146.94
396.105	118.27
396.314	87.55
396.524	79.36
396.733	62.98
396.942	144.89
397.152	79.36
397.361	136.7
397.57	116.22
397.78	151.04
397.989	103.93
398.198	144.89
398.407	75.26
398.617	26.11
398.826	54.78
399.035	79.36
399.244	103.93
399.453	144.89
399.663	171.52
399.872	138.75
400.081	157.18
400.29	124.41
400.499	85.5
400.708	157.18
400.917	73.21
401.127	138.75
401.336	140.8
401.545	79.36
401.754	136.7
401.963	151.04
402.172	140.8
402.381	140.8
402.59	105.98
402.799	146.94
403.008	120.32
403.217	83.45
403.426	169.47
403.635	148.99
403.844	169.47
404.053	194.05
404.262	202.24
404.471	214.52
404.68	183.81
404.888	194.05
405.097	153.09
405.306	181.76
405.515	99.84
405.724	93.69
405.933	175.61
406.142	142.85
406.35	144.89
406.559	206.33
406.768	155.13
406.977	218.62
407.185	259.58
407.394	196.09
407.603	179.71
407.812	290.3
408.02	261.63
408.229	214.52
408.438	282.11
408.646	255.48
408.855	249.34
409.064	235
409.272	284.16
409.481	302.59
409.69	337.4
409.898	376.31
410.107	376.31
410.315	304.64
410.524	300.54
410.733	386.55
410.941	411.13
411.15	329.21
411.358	419.32
411.567	423.42
411.775	452.09
411.984	441.85
412.192	419.32
412.401	515.58
412.609	468.47
412.818	540.15
413.026	552.44
413.234	484.86
413.443	544.25
413.651	538.1
413.86	620.02
414.068	591.35
414.276	699.89
414.485	648.69
414.693	628.21
414.901	794.1
415.11	687.61
415.318	753.14
415.526	712.18
415.734	859.63
415.943	843.25
416.151	884.21
416.359	835.06
416.567	902.64
416.776	1017.33
416.984	1009.14
417.192	959.99
417.4	1056.24
417.608	1029.62
417.817	1146.35
418.025	1086.96
418.233	1197.55
418.441	1195.5
418.649	1318.38
418.857	1422.83
419.065	1349.1
419.273	1424.87
419.481	1396.2
419.689	1535.46
419.897	1590.76
420.105	1582.57
420.313	1652.2
420.521	1689.06
420.729	1668.58
420.937	1826.28
421.145	1834.47
421.353	1998.31
421.561	1996.26
421.769	1957.35
421.977	2188.77
422.185	2170.33
422.393	2319.84
422.601	2459.1
422.809	2280.93
423.017	2387.42
423.224	2571.74
423.432	2647.51
423.64	2700.76
423.848	2811.35
424.056	2784.73
424.263	3122.64
424.471	3007.95
424.679	3118.54
424.887	3192.27
425.094	3288.53
425.302	3450.32
425.51	3429.84
425.718	3673.54
425.925	3663.3
426.133	3775.94
426.341	4093.38
426.548	4085.19
426.756	4144.58
426.964	4236.74
427.171	4459.96
427.379	4529.59
427.586	4730.3
427.794	4826.55
428.001	5002.68
428.209	5217.71
428.417	5156.27
428.624	5537.2
428.832	5461.42
429.039	5453.23
429.247	5639.59
429.454	5987.75
429.662	6426.01
429.869	6026.66
430.076	6376.86
430.284	6305.18
430.491	6589.85
430.699	6970.77
430.906	6784.41
431.114	6995.35
431.321	7406.99
431.528	7327.12
431.736	7755.15
431.943	8283.52
432.15	7835.02
432.358	8023.43
432.565	8568.19
432.772	8428.93
432.979	8985.97
433.187	9239.92
433.394	9100.66
433.601	9665.9
433.808	9629.04
434.016	9694.57
434.223	10188.13
434.43	10679.65
434.637	10489.18
434.844	11062.62
435.052	11396.43
435.259	11281.75
435.466	11455.83
435.673	11414.87
435.88	12137.8
436.087	12684.61
436.294	12555.58
436.501	12258.63
436.708	12641.6
436.915	13010.23
437.122	13661.49
437.329	13563.19
437.537	14148.9
437.743	14294.31
437.95	14040.36
438.157	15035.67
438.364	15269.14
438.571	15338.77
438.778	15719.7
438.985	16807.17
439.192	16143.63
439.399	16809.22
439.606	16385.29
439.813	17427.7
440.02	18044.14
440.227	17894.64
440.433	17720.56
440.64	18300.14
440.847	18164.97
441.054	18744.55
441.261	19885.26
441.467	19408.09
441.674	20456.65
441.881	20993.22
442.088	21083.33
442.294	20751.56
442.501	21087.42
442.708	21789.88
442.914	22525.1
443.121	23291.04
443.328	22932.64
443.534	24425.61
443.741	23977.11
443.948	23368.86
444.154	25164.93
444.361	25052.29
444.568	25115.78
444.774	24937.6
444.981	25330.81
445.187	26074.23
445.394	27223.14
445.6	26887.27
445.807	29566.01
446.013	28216.4
446.22	29248.58
446.426	29688.89
446.633	29989.94
446.839	30790.7
447.046	29819.96
447.252	31618.08
447.459	31417.38
447.665	31300.64
447.871	32801.8
448.078	33833.98
448.284	32230.42
448.491	33465.35
448.697	34495.47
448.903	35036.14
449.11	35138.54
449.316	34442.23
449.522	35398.63
449.728	36170.71
449.935	36355.03
450.141	36164.57
450.347	37243.85
450.553	35910.62
450.76	36260.82
450.966	37632.96
451.172	37153.74
451.378	37874.62
451.584	37186.5
451.791	38050.75
451.997	38087.61
452.203	38255.54
452.409	38042.56
452.615	38230.97
452.821	36625.36
453.027	36537.3
453.233	38329.27
453.44	36379.6
453.646	36973.52
453.852	37272.52
454.058	37753.79
454.264	36600.79
454.47	37221.32
454.676	36441.04
454.882	37649.35
455.088	34489.33
455.294	34892.78
455.5	35466.21
455.705	35232.74
455.911	34049.02
456.117	33594.37
456.323	33057.8
456.529	30723.12
456.735	32687.12
456.941	31656.99
457.147	31116.33
457.352	30123.06
457.558	29750.33
457.764	29797.43
457.97	29340.74
458.176	28671.05
458.381	28462.16
458.587	27221.09
458.793	27184.23
458.999	25820.28
459.204	27567.2
459.41	26977.38
459.616	24994.95
459.821	24816.77
460.027	25005.19
460.233	24302.73
460.438	23266.46
460.644	23540.89
460.85	22076.59
461.055	22144.17
461.261	21798.07
461.466	20294.86
461.672	19817.68
461.878	21245.12
462.083	19737.81
462.289	19676.37
462.494	19123.42
462.7	18420.97
462.905	17956.08
463.111	18638.05
463.316	18846.94
463.522	18384.1
463.727	18273.51
463.932	18152.68
464.138	17898.73
464.343	17833.2
464.549	17521.91
464.754	18081
464.959	17949.93
465.165	17704.18
465.37	17345.78
465.575	16696.58
465.781	17458.42
465.986	17347.83
466.191	16700.67
466.397	16409.86
466.602	15844.62
466.807	16487.68
467.012	16168.2
467.218	16207.11
467.423	15856.91
467.628	16096.52
