Data from USB4F104151__258__11-11-49-608.txt Node

Date: Wed Mar 12 11:11:49 EDT 2025
User: louis
Spectrometer: USB4F10415
Trigger mode: 4
Integration Time (sec): 2.000000E-2
Scans to average: 1
Electric dark correction enabled: true
Nonlinearity correction enabled: false
Boxcar width: 0
XAxis mode: Wavelengths
Number of Pixels in Spectrum: 3648
>>>>>Begin Spectral Data<<<<<
178.204	-10.07
178.424	-10.07
178.644	-10.07
178.864	-65.36
179.084	-42.84
179.304	45.23
179.524	10.41
179.744	-24.4
179.964	-18.26
180.184	39.08
180.404	-26.45
180.624	-3.93
180.844	57.51
181.064	-46.93
181.283	-10.07
181.503	-46.93
181.723	24.75
181.943	-34.64
182.163	47.27
182.383	24.75
182.602	49.32
182.822	94.38
183.042	37.03
183.262	75.95
183.482	57.51
183.701	69.8
183.921	20.65
184.141	22.7
184.361	24.75
184.58	-12.12
184.8	28.84
185.02	4.27
185.239	16.55
185.459	-61.27
185.679	45.23
185.898	-65.36
186.118	18.6
186.338	100.52
186.557	12.46
186.777	32.94
186.997	67.75
187.216	49.32
187.436	53.42
187.655	28.84
187.875	37.03
188.095	24.75
188.314	2.22
188.534	131.24
188.753	18.6
188.973	41.13
189.192	55.47
189.412	45.23
189.631	22.7
189.851	16.55
190.07	104.62
190.29	39.08
190.509	-14.17
190.729	-22.36
190.948	-40.79
191.168	118.95
191.387	104.62
191.607	24.75
191.826	16.55
192.045	-14.17
192.265	88.23
192.484	-10.07
192.704	37.03
192.923	-44.88
193.142	57.51
193.362	30.89
193.581	67.75
193.8	49.32
194.02	41.13
194.239	-42.84
194.458	88.23
194.678	55.47
194.897	71.85
195.116	-42.84
195.335	-8.02
195.555	51.37
195.774	30.89
195.993	88.23
196.212	-12.12
196.432	6.31
196.651	39.08
196.87	-8.02
197.089	88.23
197.308	-20.31
197.528	94.38
197.747	28.84
197.966	90.28
198.185	8.36
198.404	20.65
198.623	59.56
198.842	61.61
199.062	4.27
199.281	0.17
199.5	51.37
199.719	26.79
199.938	-3.93
200.157	-32.6
200.376	-42.84
200.595	-22.36
200.814	84.14
201.033	-24.4
201.252	-18.26
201.471	73.9
201.69	34.99
201.909	80.04
202.128	37.03
202.347	90.28
202.566	34.99
202.785	51.37
203.004	61.61
203.223	106.67
203.442	8.36
203.661	55.47
203.879	37.03
204.098	86.19
204.317	32.94
204.536	63.66
204.755	-32.6
204.974	32.94
205.193	-8.02
205.411	133.29
205.63	37.03
205.849	67.75
206.068	-30.55
206.287	84.14
206.505	71.85
206.724	65.71
206.943	28.84
207.162	8.36
207.381	34.99
207.599	88.23
207.818	10.41
208.037	-63.32
208.255	-26.45
208.474	16.55
208.693	18.6
208.911	49.32
209.13	-44.88
209.349	49.32
209.567	-3.93
209.786	32.94
210.005	24.75
210.223	82.09
210.442	8.36
210.661	98.47
210.879	28.84
211.098	69.8
211.316	43.18
211.535	80.04
211.753	71.85
211.972	8.36
212.191	94.38
212.409	12.46
212.628	59.56
212.846	41.13
213.065	51.37
213.283	2.22
213.502	-3.93
213.72	6.31
213.938	6.31
214.157	-44.88
214.375	53.42
214.594	67.75
214.812	133.29
215.031	73.9
215.249	-3.93
215.467	-1.88
215.686	82.09
215.904	57.51
216.122	32.94
216.341	22.7
216.559	47.27
216.778	-10.07
216.996	145.58
217.214	49.32
217.432	16.55
217.651	20.65
217.869	82.09
218.087	-36.69
218.306	-8.02
218.524	86.19
218.742	12.46
218.96	90.28
219.179	-1.88
219.397	39.08
219.615	63.66
219.833	75.95
220.051	-3.93
220.27	8.36
220.488	16.55
220.706	12.46
220.924	-12.12
221.142	37.03
221.36	24.75
221.578	45.23
221.796	104.62
222.015	24.75
222.233	-42.84
222.451	71.85
222.669	0.17
222.887	127.14
223.105	32.94
223.323	10.41
223.541	34.99
223.759	61.61
223.977	20.65
224.195	-16.21
224.413	106.67
224.631	0.17
224.849	30.89
225.067	125.1
225.285	30.89
225.503	-8.02
225.721	30.89
225.939	51.37
226.157	37.03
226.375	24.75
226.592	73.9
226.81	-26.45
227.028	147.62
227.246	32.94
227.464	4.27
227.682	39.08
227.9	65.71
228.117	47.27
228.335	94.38
228.553	16.55
228.771	-12.12
228.989	57.51
229.206	-12.12
229.424	-26.45
229.642	34.99
229.86	-57.17
230.077	43.18
230.295	37.03
230.513	10.41
230.731	180.39
230.948	39.08
231.166	55.47
231.384	14.51
231.601	-26.45
231.819	32.94
232.037	-67.41
232.254	-26.45
232.472	61.61
232.689	-18.26
232.907	57.51
233.125	59.56
233.342	20.65
233.56	47.27
233.777	22.7
233.995	61.61
234.213	92.33
234.43	57.51
234.648	-8.02
234.865	41.13
235.083	-67.41
235.3	45.23
235.518	12.46
235.735	37.03
235.953	53.42
236.17	6.31
236.388	39.08
236.605	8.36
236.822	14.51
237.04	18.6
237.257	0.17
237.475	-18.26
237.692	12.46
237.909	-40.79
238.127	69.8
238.344	75.95
238.562	-24.4
238.779	80.04
238.996	37.03
239.214	34.99
239.431	8.36
239.648	69.8
239.865	65.71
240.083	-24.4
240.3	73.9
240.517	57.51
240.735	-8.02
240.952	28.84
241.169	90.28
241.386	41.13
241.603	86.19
241.821	80.04
242.038	22.7
242.255	-14.17
242.472	-30.55
242.689	45.23
242.907	4.27
243.124	-18.26
243.341	2.22
243.558	-61.27
243.775	-26.45
243.992	6.31
244.209	16.55
244.426	28.84
244.643	28.84
244.86	51.37
245.078	24.75
245.295	4.27
245.512	4.27
245.729	-40.79
245.946	110.76
246.163	37.03
246.38	24.75
246.597	-36.69
246.814	34.99
247.031	41.13
247.248	41.13
247.464	55.47
247.681	22.7
247.898	-3.93
248.115	12.46
248.332	0.17
248.549	55.47
248.766	32.94
248.983	20.65
249.2	77.99
249.417	53.42
249.633	100.52
249.85	102.57
250.067	32.94
250.284	57.51
250.501	28.84
250.717	116.9
250.934	67.75
251.151	100.52
251.368	-14.17
251.585	57.51
251.801	39.08
252.018	39.08
252.235	30.89
252.451	20.65
252.668	30.89
252.885	28.84
253.102	24.75
253.318	69.8
253.535	18.6
253.752	-3.93
253.968	82.09
254.185	34.99
254.401	84.14
254.618	-1.88
254.835	-20.31
255.051	61.61
255.268	12.46
255.484	6.31
255.701	14.51
255.917	-10.07
256.134	-46.93
256.351	39.08
256.567	28.84
256.784	82.09
257	-14.17
257.217	61.61
257.433	37.03
257.65	-14.17
257.866	80.04
258.082	4.27
258.299	20.65
258.515	96.43
258.732	37.03
258.948	65.71
259.165	63.66
259.381	-16.21
259.597	20.65
259.814	61.61
260.03	32.94
260.246	39.08
260.463	16.55
260.679	69.8
260.895	41.13
261.112	84.14
261.328	12.46
261.544	-12.12
261.761	90.28
261.977	-12.12
262.193	-12.12
262.409	0.17
262.626	37.03
262.842	28.84
263.058	-8.02
263.274	57.51
263.49	41.13
263.707	-3.93
263.923	45.23
264.139	45.23
264.355	26.79
264.571	110.76
264.787	28.84
265.004	61.61
265.22	45.23
265.436	84.14
265.652	24.75
265.868	69.8
266.084	-24.4
266.3	28.84
266.516	16.55
266.732	51.37
266.948	34.99
267.164	53.42
267.38	6.31
267.596	75.95
267.812	45.23
268.028	-32.6
268.244	-44.88
268.46	24.75
268.676	34.99
268.892	2.22
269.108	49.32
269.324	51.37
269.54	20.65
269.756	121
269.972	-1.88
270.188	30.89
270.403	-55.12
270.619	-16.21
270.835	14.51
271.051	61.61
271.267	6.31
271.483	75.95
271.698	49.32
271.914	-3.93
272.13	10.41
272.346	-38.74
272.562	-28.5
272.777	75.95
272.993	8.36
273.209	53.42
273.425	20.65
273.64	61.61
273.856	0.17
274.072	67.75
274.287	32.94
274.503	67.75
274.719	0.17
274.934	96.43
275.15	-42.84
275.366	28.84
275.581	28.84
275.797	2.22
276.012	10.41
276.228	-40.79
276.444	88.23
276.659	32.94
276.875	37.03
277.09	94.38
277.306	12.46
277.521	90.28
277.737	39.08
277.952	-1.88
278.168	16.55
278.383	65.71
278.599	20.65
278.814	57.51
279.03	41.13
279.245	75.95
279.461	30.89
279.676	30.89
279.892	47.27
280.107	41.13
280.322	-30.55
280.538	65.71
280.753	37.03
280.969	-3.93
281.184	28.84
281.399	71.85
281.615	43.18
281.83	14.51
282.045	59.56
282.26	-5.97
282.476	28.84
282.691	118.95
282.906	69.8
283.122	53.42
283.337	-14.17
283.552	69.8
283.767	22.7
283.983	80.04
284.198	12.46
284.413	-8.02
284.628	-16.21
284.843	53.42
285.058	37.03
285.274	65.71
285.489	2.22
285.704	51.37
285.919	-3.93
286.134	-40.79
286.349	53.42
286.564	14.51
286.779	-3.93
286.995	49.32
287.21	34.99
287.425	67.75
287.64	98.47
287.855	32.94
288.07	-12.12
288.285	69.8
288.5	53.42
288.715	84.14
288.93	10.41
289.145	30.89
289.36	-1.88
289.575	-40.79
289.79	20.65
290.004	61.61
290.219	39.08
290.434	30.89
290.649	28.84
290.864	98.47
291.079	73.9
291.294	45.23
291.509	-48.98
291.724	55.47
291.938	45.23
292.153	26.79
292.368	-28.5
292.583	28.84
292.798	26.79
293.012	-16.21
293.227	84.14
293.442	-26.45
293.657	39.08
293.871	14.51
294.086	24.75
294.301	-1.88
294.516	47.27
294.73	110.76
294.945	-28.5
295.16	51.37
295.374	8.36
295.589	39.08
295.804	-44.88
296.018	55.47
296.233	88.23
296.447	-1.88
296.662	102.57
296.877	47.27
297.091	121
297.306	108.71
297.52	41.13
297.735	28.84
297.949	90.28
298.164	-57.17
298.378	-16.21
298.593	41.13
298.807	61.61
299.022	12.46
299.236	55.47
299.451	8.36
299.665	-8.02
299.88	-18.26
300.094	12.46
300.309	90.28
300.523	-1.88
300.737	-8.02
300.952	63.66
301.166	106.67
301.381	-36.69
301.595	-53.08
301.809	12.46
302.024	-36.69
302.238	28.84
302.452	121
302.667	30.89
302.881	86.19
303.095	57.51
303.309	45.23
303.524	-10.07
303.738	61.61
303.952	-53.08
304.166	59.56
304.381	-16.21
304.595	51.37
304.809	22.7
305.023	24.75
305.237	118.95
305.452	106.67
305.666	26.79
305.88	43.18
306.094	65.71
306.308	39.08
306.522	45.23
306.736	-48.98
306.95	0.17
307.164	59.56
307.379	69.8
307.593	92.33
307.807	18.6
308.021	8.36
308.235	-5.97
308.449	88.23
308.663	-12.12
308.877	26.79
309.091	102.57
309.305	65.71
309.519	18.6
309.733	51.37
309.947	2.22
310.161	-1.88
310.374	88.23
310.588	67.75
310.802	69.8
311.016	-34.64
311.23	-30.55
311.444	-3.93
311.658	16.55
311.872	45.23
312.085	71.85
312.299	18.6
312.513	80.04
312.727	32.94
312.941	43.18
313.154	53.42
313.368	20.65
313.582	47.27
313.796	61.61
314.009	39.08
314.223	20.65
314.437	41.13
314.651	12.46
314.864	-10.07
315.078	-14.17
315.292	30.89
315.505	6.31
315.719	45.23
315.933	92.33
316.146	4.27
316.36	-1.88
316.573	41.13
316.787	6.31
317.001	108.71
317.214	12.46
317.428	32.94
317.641	-32.6
317.855	65.71
318.068	75.95
318.282	47.27
318.495	51.37
318.709	-30.55
318.922	-20.31
319.136	8.36
319.349	32.94
319.563	39.08
319.776	98.47
319.99	30.89
320.203	61.61
320.417	24.75
320.63	69.8
320.843	75.95
321.057	34.99
321.27	-48.98
321.483	55.47
321.697	69.8
321.91	30.89
322.124	-1.88
322.337	10.41
322.55	86.19
322.763	43.18
322.977	24.75
323.19	-30.55
323.403	65.71
323.617	37.03
323.83	51.37
324.043	63.66
324.256	24.75
324.469	43.18
324.683	84.14
324.896	65.71
325.109	55.47
325.322	-3.93
325.535	110.76
325.748	67.75
325.962	-8.02
326.175	24.75
326.388	6.31
326.601	26.79
326.814	147.62
327.027	45.23
327.24	114.86
327.453	49.32
327.666	49.32
327.879	41.13
328.092	77.99
328.305	94.38
328.518	16.55
328.731	16.55
328.944	51.37
329.157	24.75
329.37	39.08
329.583	55.47
329.796	141.48
330.009	-30.55
330.222	65.71
330.435	34.99
330.648	47.27
330.861	71.85
331.073	-8.02
331.286	28.84
331.499	-32.6
331.712	34.99
331.925	39.08
332.138	10.41
332.35	106.67
332.563	63.66
332.776	82.09
332.989	-30.55
333.202	32.94
333.414	53.42
333.627	26.79
333.84	41.13
334.053	-61.27
334.265	28.84
334.478	20.65
334.691	75.95
334.903	75.95
335.116	12.46
335.329	2.22
335.541	30.89
335.754	28.84
335.966	6.31
336.179	59.56
336.392	37.03
336.604	80.04
336.817	4.27
337.029	39.08
337.242	-59.22
337.454	71.85
337.667	73.9
337.88	63.66
338.092	53.42
338.305	96.43
338.517	24.75
338.729	20.65
338.942	104.62
339.154	-1.88
339.367	92.33
339.579	34.99
339.792	-28.5
340.004	51.37
340.217	0.17
340.429	43.18
340.641	-5.97
340.854	129.19
341.066	32.94
341.278	67.75
341.491	16.55
341.703	47.27
341.915	12.46
342.128	84.14
342.34	-75.6
342.552	30.89
342.764	16.55
342.977	71.85
343.189	63.66
343.401	14.51
343.613	39.08
343.826	53.42
344.038	55.47
344.25	-38.74
344.462	73.9
344.674	-5.97
344.886	0.17
345.099	49.32
345.311	28.84
345.523	22.7
345.735	47.27
345.947	67.75
346.159	-10.07
346.371	18.6
346.583	24.75
346.795	112.81
347.007	-12.12
347.219	28.84
347.431	67.75
347.643	90.28
347.855	-20.31
348.067	51.37
348.279	67.75
348.491	-30.55
348.703	80.04
348.915	-3.93
349.127	28.84
349.339	18.6
349.551	57.51
349.763	63.66
349.975	110.76
350.187	55.47
350.399	67.75
350.61	12.46
350.822	49.32
351.034	-5.97
351.246	34.99
351.458	4.27
351.669	45.23
351.881	-44.88
352.093	26.79
352.305	108.71
352.517	37.03
352.728	49.32
352.94	32.94
353.152	53.42
353.363	45.23
353.575	26.79
353.787	100.52
353.999	65.71
354.21	57.51
354.422	-8.02
354.633	51.37
354.845	16.55
355.057	-28.5
355.268	57.51
355.48	73.9
355.692	73.9
355.903	20.65
356.115	-20.31
356.326	16.55
356.538	4.27
356.749	63.66
356.961	77.99
357.172	51.37
357.384	4.27
357.595	202.92
357.807	61.61
358.018	2.22
358.23	77.99
358.441	94.38
358.653	4.27
358.864	8.36
359.075	-18.26
359.287	6.31
359.498	77.99
359.709	43.18
359.921	39.08
360.132	71.85
360.344	20.65
360.555	-3.93
360.766	98.47
360.977	-42.84
361.189	-24.4
361.4	-22.36
361.611	28.84
361.823	110.76
362.034	88.23
362.245	77.99
362.456	71.85
362.667	24.75
362.879	114.86
363.09	82.09
363.301	10.41
363.512	30.89
363.723	55.47
363.935	65.71
364.146	41.13
364.357	-10.07
364.568	61.61
364.779	-14.17
364.99	80.04
365.201	86.19
365.412	118.95
365.623	16.55
365.834	61.61
366.045	18.6
366.256	49.32
366.467	-20.31
366.678	104.62
366.889	80.04
367.1	67.75
367.311	84.14
367.522	18.6
367.733	71.85
367.944	82.09
368.155	47.27
368.366	32.94
368.577	53.42
368.788	10.41
368.999	98.47
369.209	65.71
369.42	114.86
369.631	108.71
369.842	86.19
370.053	61.61
370.264	-28.5
370.474	90.28
370.685	53.42
370.896	20.65
371.107	114.86
371.317	20.65
371.528	59.56
371.739	92.33
371.95	82.09
372.16	75.95
372.371	67.75
372.582	53.42
372.792	57.51
373.003	0.17
373.214	43.18
373.424	39.08
373.635	63.66
373.846	104.62
374.056	84.14
374.267	16.55
374.477	26.79
374.688	-14.17
374.898	32.94
375.109	88.23
375.319	4.27
375.53	112.81
375.74	73.9
375.951	-8.02
376.161	59.56
376.372	75.95
376.582	41.13
376.793	37.03
377.003	41.13
377.214	32.94
377.424	-3.93
377.635	63.66
377.845	6.31
378.055	98.47
378.266	-5.97
378.476	94.38
378.686	37.03
378.897	37.03
379.107	61.61
379.317	67.75
379.528	-12.12
379.738	10.41
379.948	28.84
380.158	106.67
380.369	28.84
380.579	49.32
380.789	-3.93
380.999	90.28
381.21	41.13
381.42	61.61
381.63	67.75
381.84	49.32
382.05	69.8
382.261	24.75
382.471	67.75
382.681	45.23
382.891	61.61
383.101	37.03
383.311	37.03
383.521	34.99
383.731	110.76
383.941	12.46
384.151	67.75
384.361	92.33
384.571	-3.93
384.781	94.38
384.991	77.99
385.201	57.51
385.411	30.89
385.621	8.36
385.831	90.28
386.041	80.04
386.251	12.46
386.461	51.37
386.671	37.03
386.881	92.33
387.091	61.61
387.301	96.43
387.511	55.47
387.72	34.99
387.93	84.14
388.14	18.6
388.35	92.33
388.56	18.6
388.769	43.18
388.979	55.47
389.189	45.23
389.399	28.84
389.609	69.8
389.818	12.46
390.028	57.51
390.238	75.95
390.447	65.71
390.657	80.04
390.867	49.32
391.076	-36.69
391.286	92.33
391.496	110.76
391.705	102.57
391.915	20.65
392.125	39.08
392.334	-24.4
392.544	82.09
392.753	92.33
392.963	24.75
393.172	18.6
393.382	80.04
393.591	80.04
393.801	45.23
394.01	90.28
394.22	110.76
394.429	45.23
394.639	102.57
394.848	69.8
395.058	-5.97
395.267	39.08
395.477	98.47
395.686	63.66
395.895	65.71
396.105	178.34
396.314	75.95
396.524	47.27
396.733	8.36
396.942	96.43
397.152	90.28
397.361	139.43
397.57	26.79
397.78	65.71
397.989	84.14
398.198	65.71
398.407	18.6
398.617	168.1
398.826	100.52
399.035	92.33
399.244	65.71
399.453	92.33
399.663	37.03
399.872	86.19
400.081	77.99
400.29	45.23
400.499	45.23
400.708	174.25
400.917	86.19
401.127	-3.93
401.336	47.27
401.545	96.43
401.754	123.05
401.963	114.86
402.172	-5.97
402.381	69.8
402.59	18.6
402.799	86.19
403.008	149.67
403.217	118.95
403.426	90.28
403.635	69.8
403.844	121
404.053	106.67
404.262	118.95
404.471	116.9
404.68	100.52
404.888	155.82
405.097	63.66
405.306	153.77
405.515	141.48
405.724	139.43
405.933	69.8
406.142	123.05
406.35	159.91
406.559	118.95
406.768	186.54
406.977	96.43
407.185	90.28
407.394	217.26
407.603	180.39
407.812	159.91
408.02	174.25
408.229	180.39
408.438	116.9
408.646	180.39
408.855	161.96
409.064	223.4
409.272	104.62
409.481	245.93
409.69	133.29
409.898	198.82
410.107	215.21
410.315	213.16
410.524	174.25
410.733	278.69
410.941	256.17
411.15	327.85
411.358	356.52
411.567	235.69
411.775	227.5
411.984	237.74
412.192	278.69
412.401	313.51
412.609	290.98
412.818	305.32
413.026	336.04
413.234	266.41
413.443	354.47
413.651	391.33
413.86	383.14
414.068	475.3
414.276	352.42
414.485	336.04
414.693	440.48
414.901	508.07
415.11	438.44
415.318	463.01
415.526	438.44
415.734	538.79
415.943	538.79
416.151	538.79
416.359	573.6
416.567	542.88
416.776	632.99
416.984	635.04
417.192	600.23
417.4	618.66
417.608	653.47
417.817	725.15
418.025	719.01
418.233	759.97
418.441	725.15
418.649	821.41
418.857	874.65
419.065	766.11
419.273	884.89
419.481	944.28
419.689	991.39
419.897	925.85
420.105	1036.44
420.313	929.95
420.521	1044.63
420.729	1132.7
420.937	1120.41
421.145	1056.92
421.353	1249.43
421.561	1196.18
421.769	1317.01
421.977	1347.73
422.185	1370.26
422.393	1331.35
422.601	1460.37
422.809	1521.81
423.017	1470.61
423.224	1593.49
423.432	1708.18
423.64	1628.31
423.848	1738.9
424.056	1634.45
424.263	1800.34
424.471	1927.31
424.679	1908.88
424.887	2015.37
425.094	2007.18
425.302	2064.52
425.51	2121.87
425.718	2142.35
425.925	2293.9
426.133	2386.05
426.341	2527.36
426.548	2517.12
426.756	2611.33
426.964	2662.53
427.171	2668.67
427.379	2756.74
427.586	2965.63
427.794	2941.05
428.001	3076.22
428.209	3242.11
428.417	3225.72
428.624	3430.52
428.832	3305.59
429.039	3467.38
429.247	3258.49
429.454	3756.15
429.662	3842.16
429.869	3702.9
430.076	3989.61
430.284	3639.41
430.491	4032.62
430.699	4075.63
430.906	4159.6
431.114	4200.55
431.321	4477.03
431.528	4415.59
431.736	4767.84
431.943	4989.02
432.15	4726.88
432.358	4935.78
432.565	5199.96
432.772	5208.16
432.979	5617.75
433.187	5515.35
433.394	5568.6
433.601	5812.31
433.808	5849.17
434.016	5849.17
434.223	6232.14
434.43	6504.52
434.637	6477.9
434.844	6654.02
435.052	6789.19
435.259	6836.29
435.466	7020.61
435.673	6852.67
435.88	7272.51
436.087	7637.05
436.294	7551.03
436.501	7647.29
436.708	7630.9
436.915	8005.68
437.122	8155.18
437.329	8083.5
437.537	8615.98
437.743	8710.18
437.95	8558.63
438.157	9015.33
438.364	9388.06
438.571	9365.53
438.778	9347.1
438.985	10237.97
439.192	9777.17
439.399	10018.83
439.606	9828.37
439.813	10403.85
440.02	11077.63
440.227	10868.74
440.433	10649.61
440.64	11218.94
440.847	10958.85
441.054	11321.34
441.261	11978.74
441.467	11886.58
441.674	12265.46
441.881	12402.67
442.088	12503.02
442.294	12199.92
442.501	12617.71
442.708	13103.07
442.914	13647.83
443.121	14155.73
443.328	13625.31
443.534	14692.3
443.741	14215.12
443.948	14157.78
444.154	15282.11
444.361	14979.01
444.568	15308.74
444.774	15007.69
444.981	15112.13
445.187	15871.93
445.394	16342.96
445.6	16068.53
445.807	17641.37
446.013	16912.3
446.22	17401.76
446.426	17936.28
446.633	18112.41
446.839	18560.91
447.046	17883.03
447.252	18868.11
447.459	18810.76
447.665	18864.01
447.871	19392.39
448.078	20346.74
448.284	19632
448.491	19937.15
448.697	20785.01
448.903	21133.16
449.11	21124.97
449.316	20846.44
449.522	21340.01
449.728	21858.14
449.935	22040.41
450.141	21735.26
450.347	22357.85
450.553	21620.58
450.76	21919.58
450.966	22574.93
451.172	22081.37
451.378	22679.38
451.584	22390.61
451.791	23107.4
451.997	22863.69
452.203	23101.26
452.409	23127.88
452.615	23306.06
452.821	22241.11
453.027	22151
453.233	22933.32
453.44	22253.4
453.646	22282.07
453.852	22583.12
454.058	22777.68
454.264	21989.21
454.47	22656.85
454.676	22073.18
454.882	22634.32
455.088	20735.85
455.294	21127.02
455.5	21086.06
455.705	21653.34
455.911	20705.13
456.117	20313.97
456.323	20107.13
456.529	18562.96
456.735	19920.76
456.941	19208.07
457.147	18845.58
457.352	18483.09
457.558	17915.8
457.764	18100.12
457.97	17782.68
458.176	17428.38
458.381	17373.09
458.587	16619.44
458.793	16252.85
458.999	15919.03
459.204	16783.27
459.41	16545.71
459.616	15155.14
459.821	15306.69
460.027	14987.21
460.233	14800.84
460.438	14231.51
460.644	14456.78
460.85	13684.7
461.055	13387.74
461.261	13445.09
461.466	12156.91
461.672	12118
461.878	12822.5
462.083	11960.31
462.289	11950.07
462.494	11667.45
462.7	11524.09
462.905	10921.99
463.111	11139.07
463.316	11237.38
463.522	11380.73
463.727	11120.64
463.932	10948.61
464.138	10971.14
464.343	11130.88
464.549	10713.1
464.754	10971.14
464.959	10995.71
465.165	10915.84
465.37	10450.96
465.575	10231.82
465.781	10299.41
465.986	10618.89
466.191	10184.72
466.397	10090.51
466.602	9678.87
466.807	10145.81
467.012	9930.77
467.218	9725.97
467.423	9723.93
467.628	9967.63
467.833	10258.45
468.038	9998.35
