Data from USB4F104151__271__11-12-07-445.txt Node

Date: Wed Mar 12 11:12:07 EDT 2025
User: louis
Spectrometer: USB4F10415
Trigger mode: 4
Integration Time (sec): 2.000000E-2
Scans to average: 1
Electric dark correction enabled: true
Nonlinearity correction enabled: false
Boxcar width: 0
XAxis mode: Wavelengths
Number of Pixels in Spectrum: 3648
>>>>>Begin Spectral Data<<<<<
178.204	-69.8
178.424	-69.8
178.644	-69.8
178.864	-94.38
179.084	-73.9
179.304	-59.56
179.524	-28.84
179.744	-10.41
179.964	16.21
180.184	8.02
180.404	-71.85
180.624	24.4
180.844	36.69
181.064	57.17
181.283	-14.51
181.503	-41.13
181.723	83.8
181.943	-4.27
182.163	57.17
182.383	-14.51
182.602	22.36
182.822	20.31
183.042	-6.31
183.262	22.36
183.482	10.07
183.701	-24.75
183.921	10.07
184.141	-41.13
184.361	65.36
184.58	28.5
184.8	16.21
185.02	1.88
185.239	34.64
185.459	14.17
185.679	83.8
185.898	-39.08
186.118	46.93
186.338	-24.75
186.557	-43.18
186.777	-2.22
186.997	40.79
187.216	-20.65
187.436	28.5
187.655	5.97
187.875	18.26
188.095	32.6
188.314	83.8
188.534	32.6
188.753	51.03
188.973	24.4
189.192	-26.79
189.412	24.4
189.631	20.31
189.851	-10.41
190.07	44.88
190.29	-75.95
190.509	-2.22
190.729	-28.84
190.948	71.51
191.168	112.47
191.387	5.97
191.607	5.97
191.826	40.79
192.045	48.98
192.265	40.79
192.484	-47.27
192.704	34.64
192.923	-41.13
193.142	69.46
193.362	42.84
193.581	51.03
193.8	34.64
194.02	12.12
194.239	10.07
194.458	12.12
194.678	48.98
194.897	38.74
195.116	18.26
195.335	-34.99
195.555	5.97
195.774	22.36
195.993	-0.17
196.212	-51.37
196.432	1.88
196.651	12.12
196.87	-114.86
197.089	79.7
197.308	-0.17
197.528	38.74
197.747	48.98
197.966	5.97
198.185	5.97
198.404	-10.41
198.623	34.64
198.842	10.07
199.062	48.98
199.281	36.69
199.5	8.02
199.719	53.08
199.938	36.69
200.157	40.79
200.376	57.17
200.595	-34.99
200.814	34.64
201.033	-14.51
201.252	20.31
201.471	-8.36
201.69	81.75
201.909	40.79
202.128	-10.41
202.347	-2.22
202.566	22.36
202.785	71.51
203.004	34.64
203.223	81.75
203.442	91.99
203.661	3.93
203.879	57.17
204.098	59.22
204.317	-30.89
204.536	65.36
204.755	36.69
204.974	55.12
205.193	8.02
205.411	1.88
205.63	106.32
205.849	18.26
206.068	-24.75
206.287	46.93
206.505	65.36
206.724	63.32
206.943	8.02
207.162	20.31
207.381	3.93
207.599	-10.41
207.818	24.4
208.037	3.93
208.255	-14.51
208.474	38.74
208.693	-0.17
208.911	-4.27
209.13	-26.79
209.349	8.02
209.567	34.64
209.786	112.47
210.005	61.27
210.223	3.93
210.442	-0.17
210.661	-28.84
210.879	55.12
211.098	20.31
211.316	-28.84
211.535	85.84
211.753	12.12
211.972	-63.66
212.191	59.22
212.409	-20.65
212.628	44.88
212.846	5.97
213.065	-4.27
213.283	135
213.502	16.21
213.72	-32.94
213.938	55.12
214.157	-4.27
214.375	38.74
214.594	-43.18
214.812	85.84
215.031	40.79
215.249	36.69
215.467	-24.75
215.686	-14.51
215.904	40.79
216.122	51.03
216.341	5.97
216.559	44.88
216.778	32.6
216.996	73.56
217.214	55.12
217.432	-2.22
217.651	-0.17
217.869	-12.46
218.087	22.36
218.306	-22.7
218.524	36.69
218.742	65.36
218.96	5.97
219.179	24.4
219.397	-45.23
219.615	10.07
219.833	98.13
220.051	16.21
220.27	42.84
220.488	73.56
220.706	44.88
220.924	3.93
221.142	16.21
221.36	5.97
221.578	34.64
221.796	20.31
222.015	16.21
222.233	-6.31
222.451	-0.17
222.669	3.93
222.887	1.88
223.105	-26.79
223.323	-51.37
223.541	16.21
223.759	5.97
223.977	-20.65
224.195	94.04
224.413	63.32
224.631	20.31
224.849	22.36
225.067	40.79
225.285	48.98
225.503	75.6
225.721	1.88
225.939	-4.27
226.157	65.36
226.375	75.6
226.592	5.97
226.81	12.12
227.028	42.84
227.246	28.5
227.464	-4.27
227.682	16.21
227.9	57.17
228.117	-30.89
228.335	5.97
228.553	-28.84
228.771	63.32
228.989	32.6
229.206	-22.7
229.424	8.02
229.642	12.12
229.86	-30.89
230.077	-65.71
230.295	71.51
230.513	77.65
230.731	26.45
230.948	40.79
231.166	34.64
231.384	-2.22
231.601	51.03
231.819	-18.6
232.037	-43.18
232.254	-2.22
232.472	69.46
232.689	30.55
232.907	63.32
233.125	26.45
233.342	69.46
233.56	24.4
233.777	1.88
233.995	-18.6
234.213	28.5
234.43	-16.55
234.648	104.28
234.865	-45.23
235.083	42.84
235.3	18.26
235.518	22.36
235.735	14.17
235.953	10.07
236.17	32.6
236.388	24.4
236.605	-49.32
236.822	38.74
237.04	-39.08
237.257	59.22
237.475	16.21
237.692	89.94
237.909	5.97
238.127	-0.17
238.344	-2.22
238.562	8.02
238.779	-41.13
238.996	-28.84
239.214	22.36
239.431	38.74
239.648	1.88
239.865	28.5
240.083	32.6
240.3	77.65
240.517	14.17
240.735	24.4
240.952	-20.65
241.169	63.32
241.386	34.64
241.603	5.97
241.821	-30.89
242.038	55.12
242.255	55.12
242.472	48.98
242.689	-34.99
242.907	59.22
243.124	-49.32
243.341	26.45
243.558	102.23
243.775	-2.22
243.992	32.6
244.209	59.22
244.426	51.03
244.643	67.41
244.86	48.98
245.078	53.08
245.295	-16.55
245.512	55.12
245.729	-16.55
245.946	-16.55
246.163	14.17
246.38	-30.89
246.597	75.6
246.814	36.69
247.031	73.56
247.248	67.41
247.464	26.45
247.681	-18.6
247.898	-16.55
248.115	-49.32
248.332	3.93
248.549	91.99
248.766	69.46
248.983	83.8
249.2	26.45
249.417	137.04
249.633	75.6
249.85	67.41
250.067	30.55
250.284	87.89
250.501	12.12
250.717	40.79
250.934	-12.46
251.151	10.07
251.368	-49.32
251.585	22.36
251.801	77.65
252.018	59.22
252.235	-18.6
252.451	5.97
252.668	-30.89
252.885	48.98
253.102	-30.89
253.318	20.31
253.535	65.36
253.752	12.12
253.968	-16.55
254.185	-55.47
254.401	34.64
254.618	-20.65
254.835	3.93
255.051	48.98
255.268	75.6
255.484	18.26
255.701	24.4
255.917	16.21
256.134	28.5
256.351	46.93
256.567	36.69
256.784	91.99
257	-18.6
257.217	-6.31
257.433	-10.41
257.65	-16.55
257.866	12.12
258.082	81.75
258.299	-32.94
258.515	100.18
258.732	-45.23
258.948	20.31
259.165	34.64
259.381	-2.22
259.597	24.4
259.814	-14.51
260.03	16.21
260.246	53.08
260.463	32.6
260.679	65.36
260.895	55.12
261.112	69.46
261.328	24.4
261.544	8.02
261.761	-0.17
261.977	36.69
262.193	-10.41
262.409	48.98
262.626	24.4
262.842	8.02
263.058	-2.22
263.274	-2.22
263.49	-0.17
263.707	69.46
263.923	44.88
264.139	51.03
264.355	46.93
264.571	63.32
264.787	-14.51
265.004	24.4
265.22	-26.79
265.436	32.6
265.652	-20.65
265.868	32.6
266.084	-0.17
266.3	42.84
266.516	22.36
266.732	-26.79
266.948	-24.75
267.164	26.45
267.38	-0.17
267.596	44.88
267.812	61.27
268.028	32.6
268.244	-8.36
268.46	-0.17
268.676	-30.89
268.892	32.6
269.108	3.93
269.324	26.45
269.54	1.88
269.756	20.31
269.972	30.55
270.188	28.5
270.403	79.7
270.619	16.21
270.835	14.17
271.051	48.98
271.267	3.93
271.483	51.03
271.698	20.31
271.914	1.88
272.13	-16.55
272.346	-45.23
272.562	87.89
272.777	55.12
272.993	-30.89
273.209	18.26
273.425	16.21
273.64	-16.55
273.856	32.6
274.072	48.98
274.287	-53.42
274.503	5.97
274.719	77.65
274.934	61.27
275.15	-59.56
275.366	24.4
275.581	-16.55
275.797	71.51
276.012	-6.31
276.228	59.22
276.444	-24.75
276.659	38.74
276.875	48.98
277.09	16.21
277.306	34.64
277.521	61.27
277.737	-4.27
277.952	112.47
278.168	10.07
278.383	-0.17
278.599	36.69
278.814	65.36
279.03	-8.36
279.245	20.31
279.461	-59.56
279.676	55.12
279.892	32.6
280.107	36.69
280.322	8.02
280.538	26.45
280.753	-26.79
280.969	10.07
281.184	-6.31
281.399	20.31
281.615	-32.94
281.83	18.26
282.045	-30.89
282.26	87.89
282.476	-20.65
282.691	100.18
282.906	10.07
283.122	-0.17
283.337	8.02
283.552	28.5
283.767	61.27
283.983	-18.6
284.198	5.97
284.413	89.94
284.628	-4.27
284.843	8.02
285.058	-10.41
285.274	102.23
285.489	20.31
285.704	36.69
285.919	-43.18
286.134	-4.27
286.349	32.6
286.564	5.97
286.779	87.89
286.995	28.5
287.21	36.69
287.425	12.12
287.64	-12.46
287.855	36.69
288.07	53.08
288.285	14.17
288.5	40.79
288.715	-41.13
288.93	24.4
289.145	42.84
289.36	3.93
289.575	51.03
289.79	-14.51
290.004	-2.22
290.219	53.08
290.434	1.88
290.649	36.69
290.864	42.84
291.079	8.02
291.294	38.74
291.509	53.08
291.724	-47.27
291.938	61.27
292.153	59.22
292.368	57.17
292.583	51.03
292.798	-6.31
293.012	55.12
293.227	28.5
293.442	5.97
293.657	110.42
293.871	83.8
294.086	61.27
294.301	-2.22
294.516	63.32
294.73	1.88
294.945	32.6
295.16	8.02
295.374	3.93
295.589	40.79
295.804	34.64
296.018	104.28
296.233	24.4
296.447	79.7
296.662	34.64
296.877	57.17
297.091	-12.46
297.306	73.56
297.52	10.07
297.735	53.08
297.949	40.79
298.164	40.79
298.378	-10.41
298.593	30.55
298.807	-8.36
299.022	10.07
299.236	28.5
299.451	-10.41
299.665	100.18
299.88	94.04
300.094	83.8
300.309	-8.36
300.523	24.4
300.737	28.5
300.952	69.46
301.166	51.03
301.381	-2.22
301.595	22.36
301.809	32.6
302.024	32.6
302.238	57.17
302.452	12.12
302.667	-41.13
302.881	16.21
303.095	24.4
303.309	22.36
303.524	24.4
303.738	106.32
303.952	40.79
304.166	42.84
304.381	-20.65
304.595	32.6
304.809	-10.41
305.023	100.18
305.237	-12.46
305.452	77.65
305.666	-53.42
305.88	65.36
306.094	40.79
306.308	36.69
306.522	55.12
306.736	48.98
306.95	38.74
307.164	40.79
307.379	59.22
307.593	8.02
307.807	-28.84
308.021	-4.27
308.235	69.46
308.449	26.45
308.663	22.36
308.877	81.75
309.091	-18.6
309.305	55.12
309.519	-14.51
309.733	55.12
309.947	34.64
310.161	38.74
310.374	24.4
310.588	124.76
310.802	73.56
311.016	46.93
311.23	1.88
311.444	53.08
311.658	26.45
311.872	100.18
312.085	24.4
312.299	94.04
312.513	-6.31
312.727	-10.41
312.941	-8.36
313.154	85.84
313.368	20.31
313.582	8.02
313.796	26.45
314.009	28.5
314.223	61.27
314.437	24.4
314.651	-34.99
314.864	16.21
315.078	-16.55
315.292	16.21
315.505	38.74
315.719	14.17
315.933	-32.94
316.146	55.12
316.36	89.94
316.573	22.36
316.787	14.17
317.001	40.79
317.214	8.02
317.428	26.45
317.641	16.21
317.855	20.31
318.068	71.51
318.282	48.98
318.495	63.32
318.709	98.13
318.922	67.41
319.136	59.22
319.349	34.64
319.563	22.36
319.776	98.13
319.99	-4.27
320.203	98.13
320.417	32.6
320.63	67.41
320.843	55.12
321.057	-6.31
321.27	40.79
321.483	-12.46
321.697	61.27
321.91	24.4
322.124	38.74
322.337	12.12
322.55	61.27
322.763	-18.6
322.977	61.27
323.19	-43.18
323.403	16.21
323.617	-8.36
323.83	112.47
324.043	-8.36
324.256	40.79
324.469	-30.89
324.683	55.12
324.896	26.45
325.109	55.12
325.322	-10.41
325.535	44.88
325.748	34.64
325.962	79.7
326.175	63.32
326.388	106.32
326.601	44.88
326.814	65.36
327.027	42.84
327.24	61.27
327.453	-43.18
327.666	28.5
327.879	155.47
328.092	53.08
328.305	-0.17
328.518	14.17
328.731	16.21
328.944	102.23
329.157	-12.46
329.37	24.4
329.583	67.41
329.796	20.31
330.009	61.27
330.222	-22.7
330.435	16.21
330.648	102.23
330.861	1.88
331.073	53.08
331.286	61.27
331.499	16.21
331.712	63.32
331.925	-0.17
332.138	120.66
332.35	69.46
332.563	63.32
332.776	16.21
332.989	24.4
333.202	-2.22
333.414	32.6
333.627	-30.89
333.84	91.99
334.053	12.12
334.265	61.27
334.478	46.93
334.691	38.74
334.903	5.97
335.116	100.18
335.329	34.64
335.541	10.07
335.754	91.99
335.966	1.88
336.179	69.46
336.392	57.17
336.604	57.17
336.817	36.69
337.029	44.88
337.242	30.55
337.454	69.46
337.667	3.93
337.88	-4.27
338.092	16.21
338.305	38.74
338.517	26.45
338.729	-30.89
338.942	59.22
339.154	36.69
339.367	36.69
339.579	-0.17
339.792	10.07
340.004	42.84
340.217	36.69
340.429	22.36
340.641	3.93
340.854	12.12
341.066	1.88
341.278	40.79
341.491	77.65
341.703	38.74
341.915	34.64
342.128	3.93
342.34	42.84
342.552	10.07
342.764	-2.22
342.977	-0.17
343.189	51.03
343.401	18.26
343.613	42.84
343.826	77.65
344.038	-20.65
344.25	24.4
344.462	8.02
344.674	79.7
344.886	8.02
345.099	-2.22
345.311	44.88
345.523	14.17
345.735	10.07
345.947	71.51
346.159	18.26
346.371	61.27
346.583	98.13
346.795	89.94
347.007	8.02
347.219	81.75
347.431	-14.51
347.643	18.26
347.855	14.17
348.067	155.47
348.279	44.88
348.491	34.64
348.703	48.98
348.915	-18.6
349.127	38.74
349.339	48.98
349.551	3.93
349.763	36.69
349.975	36.69
350.187	65.36
350.399	34.64
350.61	48.98
350.822	91.99
351.034	51.03
351.246	-37.03
351.458	10.07
351.669	87.89
351.881	-0.17
352.093	48.98
352.305	57.17
352.517	-16.55
352.728	53.08
352.94	57.17
353.152	36.69
353.363	71.51
353.575	8.02
353.787	28.5
353.999	71.51
354.21	42.84
354.422	77.65
354.633	83.8
354.845	63.32
355.057	36.69
355.268	65.36
355.48	77.65
355.692	32.6
355.903	32.6
356.115	55.12
356.326	-0.17
356.538	28.5
356.749	73.56
356.961	69.46
357.172	22.36
357.384	26.45
357.595	118.61
357.807	1.88
358.018	57.17
358.23	24.4
358.441	104.28
358.653	36.69
358.864	42.84
359.075	67.41
359.287	65.36
359.498	55.12
359.709	30.55
359.921	3.93
360.132	114.52
360.344	40.79
360.555	57.17
360.766	48.98
360.977	-4.27
361.189	26.45
361.4	-47.27
361.611	18.26
361.823	71.51
362.034	65.36
362.245	-26.79
362.456	36.69
362.667	77.65
362.879	26.45
363.09	40.79
363.301	-0.17
363.512	63.32
363.723	14.17
363.935	89.94
364.146	69.46
364.357	22.36
364.568	73.56
364.779	87.89
364.99	75.6
365.201	106.32
365.412	124.76
365.623	61.27
365.834	57.17
366.045	26.45
366.256	46.93
366.467	48.98
366.678	91.99
366.889	3.93
367.1	77.65
367.311	38.74
367.522	1.88
367.733	57.17
367.944	32.6
368.155	-4.27
368.366	1.88
368.577	118.61
368.788	32.6
368.999	32.6
369.209	48.98
369.42	77.65
369.631	42.84
369.842	24.4
370.053	1.88
370.264	38.74
370.474	106.32
370.685	81.75
370.896	22.36
371.107	34.64
371.317	28.5
371.528	-39.08
371.739	77.65
371.95	-8.36
372.16	48.98
372.371	-43.18
372.582	18.26
372.792	77.65
373.003	24.4
373.214	114.52
373.424	91.99
373.635	104.28
373.846	20.31
374.056	-0.17
374.267	67.41
374.477	63.32
374.688	42.84
374.898	55.12
375.109	55.12
375.319	5.97
375.53	-14.51
375.74	14.17
375.951	-43.18
376.161	98.13
376.372	-6.31
376.582	-26.79
376.793	-14.51
377.003	75.6
377.214	16.21
377.424	20.31
377.635	79.7
377.845	-0.17
378.055	46.93
378.266	30.55
378.476	-6.31
378.686	48.98
378.897	-16.55
379.107	-4.27
379.317	89.94
379.528	38.74
379.738	53.08
379.948	65.36
380.158	65.36
380.369	44.88
380.579	38.74
380.789	61.27
380.999	63.32
381.21	16.21
381.42	96.08
381.63	28.5
381.84	91.99
382.05	51.03
382.261	12.12
382.471	51.03
382.681	-4.27
382.891	98.13
383.101	38.74
383.311	36.69
383.521	44.88
383.731	18.26
383.941	-0.17
384.151	20.31
384.361	3.93
384.571	24.4
384.781	48.98
384.991	106.32
385.201	12.12
385.411	26.45
385.621	59.22
385.831	48.98
386.041	61.27
386.251	24.4
386.461	16.21
386.671	53.08
386.881	135
387.091	-37.03
387.301	5.97
387.511	94.04
387.72	-10.41
387.93	65.36
388.14	69.46
388.35	83.8
388.56	102.23
388.769	83.8
388.979	20.31
389.189	65.36
389.399	36.69
389.609	71.51
389.818	22.36
390.028	20.31
390.238	57.17
390.447	24.4
390.657	94.04
390.867	34.64
391.076	53.08
391.286	65.36
391.496	91.99
391.705	10.07
391.915	32.6
392.125	65.36
392.334	22.36
392.544	122.71
392.753	153.43
392.963	51.03
393.172	87.89
393.382	91.99
393.591	114.52
393.801	28.5
394.01	130.9
394.22	106.32
394.429	38.74
394.639	18.26
394.848	53.08
395.058	106.32
395.267	102.23
395.477	28.5
395.686	8.02
395.895	151.38
396.105	161.62
396.314	94.04
396.524	122.71
396.733	22.36
396.942	96.08
397.152	44.88
397.361	44.88
397.57	91.99
397.78	102.23
397.989	96.08
398.198	110.42
398.407	67.41
398.617	81.75
398.826	208.72
399.035	128.85
399.244	5.97
399.453	73.56
399.663	48.98
399.872	159.57
400.081	128.85
400.29	28.5
400.499	34.64
400.708	173.91
400.917	61.27
401.127	51.03
401.336	46.93
401.545	114.52
401.754	137.04
401.963	77.65
402.172	85.84
402.381	104.28
402.59	114.52
402.799	87.89
403.008	106.32
403.217	141.14
403.426	116.56
403.635	28.5
403.844	40.79
404.053	159.57
404.262	57.17
404.471	137.04
404.68	100.18
404.888	91.99
405.097	100.18
405.306	112.47
405.515	188.24
405.724	169.81
405.933	180.05
406.142	102.23
406.35	198.48
406.559	194.39
406.768	180.05
406.977	245.59
407.185	171.86
407.394	192.34
407.603	135
407.812	233.3
408.02	171.86
408.229	151.38
408.438	208.72
408.646	223.06
408.855	171.86
409.064	223.06
409.272	175.95
409.481	270.16
409.69	165.71
409.898	257.87
410.107	280.4
410.315	288.59
410.524	221.01
410.733	331.6
410.941	298.83
411.15	311.12
411.358	292.69
411.567	335.7
411.775	296.78
411.984	323.41
412.192	388.94
412.401	462.67
412.609	462.67
412.818	397.14
413.026	448.33
413.234	366.42
413.443	423.76
413.651	595.79
413.86	448.33
414.068	462.67
414.276	497.49
414.485	513.87
414.693	595.79
414.901	522.06
415.11	710.47
415.318	558.92
415.526	608.08
415.734	665.42
415.943	679.75
416.151	677.71
416.359	714.57
416.567	739.15
416.776	800.59
416.984	776.01
417.192	923.46
417.4	702.28
417.608	821.06
417.817	911.18
418.025	956.23
418.233	1044.29
418.441	958.28
418.649	1062.73
418.857	1120.07
419.065	1154.88
419.273	1095.49
419.481	1183.56
419.689	1177.41
419.897	1273.67
420.105	1290.05
420.313	1269.57
420.521	1441.6
420.729	1394.5
420.937	1369.92
421.145	1476.41
421.353	1650.49
421.561	1568.57
421.769	1709.88
421.977	1697.6
422.185	1734.46
422.393	1847.1
422.601	1898.3
422.809	1904.44
423.017	1992.5
423.224	2012.98
423.432	2164.53
423.64	2205.49
423.848	2414.38
424.056	2238.26
424.263	2430.77
424.471	2586.41
424.679	2510.64
424.887	2699.05
425.094	2668.33
425.302	2772.78
425.51	2770.73
425.718	2858.79
425.925	2922.28
426.133	3014.44
426.341	3147.56
426.548	3264.29
426.756	3338.02
426.964	3358.5
427.171	3612.45
427.379	3686.17
427.586	3757.85
427.794	3843.87
428.001	4075.29
428.209	4171.54
428.417	4106.01
428.624	4572.94
428.832	4331.28
429.039	4445.97
429.247	4521.74
429.454	4773.64
429.662	5117.7
429.869	4853.52
430.076	5185.29
430.284	4949.77
430.491	5074.7
430.699	5560.06
430.906	5377.8
431.114	5627.65
431.321	5801.72
431.528	5854.97
431.736	6242.04
431.943	6739.69
432.15	6295.29
432.358	6360.82
432.565	6815.47
432.772	6792.94
432.979	7124.71
433.187	7356.13
433.394	7407.33
433.601	7907.04
433.808	7909.08
434.016	7653.09
434.223	8007.39
434.43	8486.61
434.637	8359.64
434.844	8838.86
435.052	9236.17
435.259	8883.92
435.466	9189.07
435.673	8957.64
435.88	9504.45
436.087	10055.36
436.294	10026.68
436.501	9764.54
436.708	10071.74
436.915	10344.12
437.122	10909.36
437.329	10802.86
437.537	11144.88
437.743	11372.2
437.95	11110.06
438.157	11787.94
438.364	12261.02
438.571	12269.21
438.778	12289.69
438.985	13346.44
439.192	12859.03
439.399	13348.49
439.606	12762.77
439.813	13676.16
440.02	14337.66
440.227	14091.9
440.433	14120.57
440.64	14780.02
440.847	14515.83
441.054	15072.88
441.261	15818.34
441.467	15797.86
441.674	15996.51
441.881	16440.92
442.088	16336.48
442.294	16320.09
442.501	17116.75
442.708	17112.66
442.914	17710.66
443.121	18564.67
443.328	18167.36
443.534	19471.92
443.741	18773.56
443.948	18693.69
444.154	19992.1
444.361	19861.03
444.568	19918.37
444.774	19848.74
444.981	20084.26
445.187	20653.59
445.394	21464.59
445.6	21288.46
445.807	23309.81
446.013	22177.28
446.22	22713.85
446.426	23604.72
446.633	23719.4
446.839	24565.21
447.046	23358.96
447.252	24985.05
447.459	24964.57
447.665	24647.13
447.871	26013.13
448.078	27102.65
448.284	25560.53
448.491	26637.76
448.697	27643.31
448.903	27604.4
449.11	28106.15
449.316	27252.15
449.522	28050.86
449.728	28589.47
449.935	28962.2
450.141	28958.11
450.347	29517.2
450.553	28419.49
450.76	28718.5
450.966	29762.96
451.172	29576.59
451.378	30242.18
451.584	29466
451.791	30408.07
451.997	30248.33
452.203	30827.9
452.409	30655.87
452.615	30518.66
452.821	29123.99
453.027	29228.44
453.233	30489.99
453.44	29089.18
453.646	29619.6
453.852	29724.05
454.058	30582.15
454.264	29427.09
454.47	30098.83
454.676	29304.21
454.882	30014.86
455.088	27526.58
455.294	27964.84
455.5	28456.36
455.705	28681.63
455.911	27463.09
456.117	26992.06
456.323	26691.01
456.529	25114.07
456.735	26246.6
456.941	25773.52
457.147	25241.04
457.352	24536.54
457.558	24270.31
457.764	24022.5
457.97	23885.29
458.176	23053.81
458.381	23090.68
458.587	22152.71
458.793	21868.04
458.999	20960.79
459.204	22404.61
459.41	21771.79
459.616	20393.5
459.821	20137.51
460.027	20217.38
460.233	19932.71
460.438	18722.36
460.644	18941.49
460.85	18583.1
461.055	18026.05
461.261	17870.4
461.466	16535.13
461.672	16176.73
461.878	17215.05
462.083	16047.71
462.289	15912.55
462.494	15863.4
462.7	15148.65
462.905	14546.55
463.111	15097.45
463.316	15283.82
463.522	14937.71
463.727	14886.51
463.932	14902.9
464.138	14638.71
464.343	14671.48
464.549	14329.47
464.754	15070.83
464.959	14546.55
465.165	14544.5
465.37	13860.48
465.575	13610.63
465.781	14022.27
465.986	14245.5
466.191	13860.48
466.397	13434.5
466.602	12832.4
466.807	13158.03
467.012	13387.4
467.218	13280.91
467.423	13061.77
467.628	13346.44
467.833	13688.45
468.038	13278.86
468.244	12668.56
