Data from USB4F104151__203__11-10-14-678.txt Node

Date: Wed Mar 12 11:10:14 EDT 2025
User: louis
Spectrometer: USB4F10415
Trigger mode: 4
Integration Time (sec): 2.000000E-2
Scans to average: 1
Electric dark correction enabled: true
Nonlinearity correction enabled: false
Boxcar width: 0
XAxis mode: Wavelengths
Number of Pixels in Spectrum: 3648
>>>>>Begin Spectral Data<<<<<
178.204	-84.65
178.424	-84.65
178.644	-84.65
178.864	-90.79
179.084	-21.16
179.304	64.85
179.524	30.04
179.744	54.61
179.964	17.75
180.184	-55.98
180.404	-4.78
180.624	-31.4
180.844	-4.78
181.064	1.37
181.283	-35.5
181.503	-39.59
181.723	3.41
181.943	-25.26
182.163	19.8
182.383	-12.97
182.602	27.99
182.822	25.94
183.042	68.95
183.262	7.51
183.482	-21.16
183.701	-45.74
183.921	85.33
184.141	32.08
184.361	73.04
184.58	93.52
184.8	21.84
185.02	-0.68
185.239	30.04
185.459	23.89
185.679	27.99
185.898	60.76
186.118	71
186.338	36.18
186.557	-2.73
186.777	7.51
186.997	79.19
187.216	9.56
187.436	64.85
187.655	66.9
187.875	48.47
188.095	9.56
188.314	66.9
188.534	93.52
188.753	9.56
188.973	38.23
189.192	-21.16
189.412	11.61
189.631	-39.59
189.851	7.51
190.07	85.33
190.29	9.56
190.509	38.23
190.729	-8.87
190.948	-15.02
191.168	93.52
191.387	97.62
191.607	32.08
191.826	75.09
192.045	5.46
192.265	19.8
192.484	62.8
192.704	71
192.923	50.52
193.142	200.02
193.362	50.52
193.581	13.65
193.8	17.75
194.02	42.32
194.239	52.56
194.458	5.46
194.678	-33.45
194.897	1.37
195.116	30.04
195.335	44.37
195.555	75.09
195.774	50.52
195.993	40.28
196.212	83.28
196.432	-6.83
196.651	27.99
196.87	-8.87
197.089	46.42
197.308	7.51
197.528	-51.88
197.747	48.47
197.966	15.7
198.185	48.47
198.404	-60.07
198.623	9.56
198.842	77.14
199.062	-0.68
199.281	17.75
199.5	85.33
199.719	71
199.938	75.09
200.157	144.72
200.376	3.41
200.595	89.43
200.814	21.84
201.033	3.41
201.252	3.41
201.471	50.52
201.69	3.41
201.909	52.56
202.128	52.56
202.347	46.42
202.566	-17.07
202.785	66.9
203.004	5.46
203.223	15.7
203.442	-4.78
203.661	50.52
203.879	19.8
204.098	13.65
204.317	9.56
204.536	114
204.755	42.32
204.974	60.76
205.193	1.37
205.411	107.86
205.63	11.61
205.849	13.65
206.068	85.33
206.287	11.61
206.505	27.99
206.724	-33.45
206.943	-10.92
207.162	27.99
207.381	21.84
207.599	9.56
207.818	54.61
208.037	11.61
208.255	21.84
208.474	52.56
208.693	-0.68
208.911	-29.35
209.13	36.18
209.349	3.41
209.567	52.56
209.786	89.43
210.005	44.37
210.223	60.76
210.442	11.61
210.661	42.32
210.879	23.89
211.098	44.37
211.316	5.46
211.535	-8.87
211.753	48.47
211.972	50.52
212.191	62.8
212.409	66.9
212.628	17.75
212.846	-8.87
213.065	27.99
213.283	-6.83
213.502	36.18
213.72	-4.78
213.938	19.8
214.157	91.48
214.375	93.52
214.594	1.37
214.812	30.04
215.031	1.37
215.249	54.61
215.467	48.47
215.686	71
215.904	77.14
216.122	27.99
216.341	68.95
216.559	44.37
216.778	36.18
216.996	-23.21
217.214	62.8
217.432	40.28
217.651	25.94
217.869	38.23
218.087	42.32
218.306	-21.16
218.524	25.94
218.742	23.89
218.96	23.89
219.179	75.09
219.397	-19.11
219.615	27.99
219.833	56.66
220.051	-0.68
220.27	52.56
220.488	7.51
220.706	23.89
220.924	-33.45
221.142	68.95
221.36	-8.87
221.578	11.61
221.796	42.32
222.015	-0.68
222.233	62.8
222.451	87.38
222.669	3.41
222.887	58.71
223.105	19.8
223.323	97.62
223.541	44.37
223.759	52.56
223.977	-33.45
224.195	75.09
224.413	27.99
224.631	97.62
224.849	-45.74
225.067	93.52
225.285	-15.02
225.503	34.13
225.721	34.13
225.939	54.61
226.157	83.28
226.375	46.42
226.592	38.23
226.81	48.47
227.028	17.75
227.246	142.68
227.464	62.8
227.682	44.37
227.9	17.75
228.117	109.91
228.335	-19.11
228.553	42.32
228.771	58.71
228.989	-37.55
229.206	46.42
229.424	-21.16
229.642	36.18
229.86	-10.92
230.077	44.37
230.295	27.99
230.513	-4.78
230.731	27.99
230.948	52.56
231.166	15.7
231.384	1.37
231.601	-19.11
231.819	-10.92
232.037	79.19
232.254	-82.6
232.472	114
232.689	105.81
232.907	-17.07
233.125	-70.31
233.342	21.84
233.56	-35.5
233.777	42.32
233.995	1.37
234.213	9.56
234.43	58.71
234.648	-17.07
234.865	27.99
235.083	128.34
235.3	-60.07
235.518	17.75
235.735	71
235.953	89.43
236.17	-17.07
236.388	1.37
236.605	-29.35
236.822	58.71
237.04	-6.83
237.257	11.61
237.475	-29.35
237.692	32.08
237.909	32.08
238.127	60.76
238.344	27.99
238.562	36.18
238.779	30.04
238.996	30.04
239.214	15.7
239.431	-10.92
239.648	13.65
239.865	34.13
240.083	54.61
240.3	64.85
240.517	21.84
240.735	48.47
240.952	3.41
241.169	66.9
241.386	-78.51
241.603	11.61
241.821	-37.55
242.038	32.08
242.255	68.95
242.472	25.94
242.689	44.37
242.907	62.8
243.124	79.19
243.341	40.28
243.558	36.18
243.775	64.85
243.992	-45.74
244.209	19.8
244.426	21.84
244.643	52.56
244.86	-10.92
245.078	-27.31
245.295	17.75
245.512	42.32
245.729	-37.55
245.946	3.41
246.163	81.24
246.38	17.75
246.597	60.76
246.814	75.09
247.031	34.13
247.248	52.56
247.464	-8.87
247.681	73.04
247.898	48.47
248.115	25.94
248.332	3.41
248.549	103.76
248.766	60.76
248.983	130.39
249.2	68.95
249.417	50.52
249.633	36.18
249.85	27.99
250.067	48.47
250.284	15.7
250.501	50.52
250.717	77.14
250.934	23.89
251.151	68.95
251.368	103.76
251.585	15.7
251.801	-78.51
252.018	60.76
252.235	103.76
252.451	7.51
252.668	87.38
252.885	42.32
253.102	19.8
253.318	38.23
253.535	13.65
253.752	75.09
253.968	-35.5
254.185	-88.75
254.401	1.37
254.618	40.28
254.835	-21.16
255.051	138.58
255.268	79.19
255.484	-49.83
255.701	7.51
255.917	56.66
256.134	50.52
256.351	36.18
256.567	-78.51
256.784	-47.79
257	64.85
257.217	-8.87
257.433	66.9
257.65	114
257.866	-70.31
258.082	-2.73
258.299	52.56
258.515	40.28
258.732	23.89
258.948	23.89
259.165	56.66
259.381	81.24
259.597	-8.87
259.814	120.15
260.03	48.47
260.246	46.42
260.463	7.51
260.679	79.19
260.895	60.76
261.112	48.47
261.328	15.7
261.544	-21.16
261.761	54.61
261.977	-4.78
262.193	-35.5
262.409	56.66
262.626	17.75
262.842	73.04
263.058	-10.92
263.274	148.82
263.49	87.38
263.707	38.23
263.923	27.99
264.139	54.61
264.355	23.89
264.571	27.99
264.787	-31.4
265.004	95.57
265.22	15.7
265.436	105.81
265.652	32.08
265.868	17.75
266.084	30.04
266.3	36.18
266.516	3.41
266.732	89.43
266.948	44.37
267.164	58.71
267.38	19.8
267.596	-58.03
267.812	13.65
268.028	-21.16
268.244	7.51
268.46	3.41
268.676	1.37
268.892	-2.73
269.108	60.76
269.324	-49.83
269.54	-33.45
269.756	114
269.972	-35.5
270.188	23.89
270.403	48.47
270.619	83.28
270.835	62.8
271.051	-33.45
271.267	44.37
271.483	3.41
271.698	17.75
271.914	54.61
272.13	44.37
272.346	75.09
272.562	81.24
272.777	15.7
272.993	-37.55
273.209	81.24
273.425	60.76
273.64	7.51
273.856	36.18
274.072	11.61
274.287	85.33
274.503	64.85
274.719	11.61
274.934	-6.83
275.15	89.43
275.366	1.37
275.581	-17.07
275.797	34.13
276.012	42.32
276.228	17.75
276.444	71
276.659	144.72
276.875	11.61
277.09	-41.64
277.306	46.42
277.521	118.1
277.737	13.65
277.952	-2.73
278.168	109.91
278.383	-0.68
278.599	30.04
278.814	36.18
279.03	56.66
279.245	62.8
279.461	-27.31
279.676	83.28
279.892	50.52
280.107	13.65
280.322	-15.02
280.538	48.47
280.753	17.75
280.969	77.14
281.184	7.51
281.399	85.33
281.615	-6.83
281.83	95.57
282.045	66.9
282.26	38.23
282.476	60.76
282.691	77.14
282.906	-19.11
283.122	11.61
283.337	34.13
283.552	34.13
283.767	93.52
283.983	11.61
284.198	-4.78
284.413	118.1
284.628	23.89
284.843	7.51
285.058	-15.02
285.274	-2.73
285.489	23.89
285.704	85.33
285.919	32.08
286.134	21.84
286.349	21.84
286.564	171.35
286.779	56.66
286.995	42.32
287.21	56.66
287.425	13.65
287.64	36.18
287.855	30.04
288.07	36.18
288.285	15.7
288.5	97.62
288.715	48.47
288.93	9.56
289.145	89.43
289.36	19.8
289.575	34.13
289.79	25.94
290.004	52.56
290.219	81.24
290.434	11.61
290.649	50.52
290.864	42.32
291.079	27.99
291.294	111.96
291.509	11.61
291.724	3.41
291.938	87.38
292.153	-29.35
292.368	40.28
292.583	21.84
292.798	-15.02
293.012	11.61
293.227	-29.35
293.442	64.85
293.657	48.47
293.871	9.56
294.086	60.76
294.301	52.56
294.516	11.61
294.73	-0.68
294.945	11.61
295.16	40.28
295.374	-25.26
295.589	19.8
295.804	34.13
296.018	-41.64
296.233	34.13
296.447	71
296.662	-23.21
296.877	21.84
297.091	21.84
297.306	17.75
297.52	40.28
297.735	89.43
297.949	-12.97
298.164	64.85
298.378	1.37
298.593	-37.55
298.807	-33.45
299.022	-0.68
299.236	124.24
299.451	-0.68
299.665	17.75
299.88	38.23
300.094	73.04
300.309	71
300.523	66.9
300.737	30.04
300.952	-33.45
301.166	122.2
301.381	-12.97
301.595	73.04
301.809	40.28
302.024	25.94
302.238	21.84
302.452	15.7
302.667	60.76
302.881	44.37
303.095	48.47
303.309	52.56
303.524	13.65
303.738	32.08
303.952	19.8
304.166	42.32
304.381	38.23
304.595	52.56
304.809	75.09
305.023	71
305.237	81.24
305.452	38.23
305.666	66.9
305.88	60.76
306.094	52.56
306.308	64.85
306.522	9.56
306.736	114
306.95	81.24
307.164	32.08
307.379	30.04
307.593	62.8
307.807	-4.78
308.021	77.14
308.235	27.99
308.449	42.32
308.663	97.62
308.877	99.67
309.091	-4.78
309.305	38.23
309.519	34.13
309.733	71
309.947	27.99
310.161	60.76
310.374	54.61
310.588	17.75
310.802	36.18
311.016	3.41
311.23	40.28
311.444	9.56
311.658	25.94
311.872	75.09
312.085	56.66
312.299	38.23
312.513	95.57
312.727	21.84
312.941	-49.83
313.154	122.2
313.368	32.08
313.582	48.47
313.796	30.04
314.009	48.47
314.223	15.7
314.437	38.23
314.651	64.85
314.864	5.46
315.078	58.71
315.292	-19.11
315.505	21.84
315.719	52.56
315.933	64.85
316.146	-17.07
316.36	75.09
316.573	5.46
316.787	38.23
317.001	11.61
317.214	23.89
317.428	56.66
317.641	9.56
317.855	116.05
318.068	83.28
318.282	91.48
318.495	140.63
318.709	62.8
318.922	-0.68
319.136	71
319.349	66.9
319.563	25.94
319.776	32.08
319.99	17.75
320.203	-35.5
320.417	21.84
320.63	9.56
320.843	40.28
321.057	13.65
321.27	62.8
321.483	-0.68
321.697	95.57
321.91	103.76
322.124	64.85
322.337	34.13
322.55	77.14
322.763	60.76
322.977	32.08
323.19	38.23
323.403	40.28
323.617	3.41
323.83	68.95
324.043	52.56
324.256	54.61
324.469	17.75
324.683	-19.11
324.896	68.95
325.109	58.71
325.322	23.89
325.535	79.19
325.748	79.19
325.962	48.47
326.175	95.57
326.388	-33.45
326.601	83.28
326.814	46.42
327.027	66.9
327.24	97.62
327.453	38.23
327.666	-25.26
327.879	40.28
328.092	130.39
328.305	48.47
328.518	34.13
328.731	52.56
328.944	85.33
329.157	25.94
329.37	46.42
329.583	118.1
329.796	48.47
330.009	13.65
330.222	54.61
330.435	-23.21
330.648	23.89
330.861	46.42
331.073	19.8
331.286	101.72
331.499	75.09
331.712	17.75
331.925	-17.07
332.138	30.04
332.35	85.33
332.563	-8.87
332.776	-6.83
332.989	11.61
333.202	-33.45
333.414	126.29
333.627	83.28
333.84	52.56
334.053	52.56
334.265	19.8
334.478	19.8
334.691	30.04
334.903	48.47
335.116	-4.78
335.329	27.99
335.541	44.37
335.754	81.24
335.966	99.67
336.179	48.47
336.392	3.41
336.604	105.81
336.817	3.41
337.029	-21.16
337.242	54.61
337.454	97.62
337.667	23.89
337.88	62.8
338.092	42.32
338.305	34.13
338.517	36.18
338.729	-10.92
338.942	114
339.154	46.42
339.367	25.94
339.579	87.38
339.792	25.94
340.004	62.8
340.217	32.08
340.429	60.76
340.641	81.24
340.854	60.76
341.066	66.9
341.278	48.47
341.491	83.28
341.703	54.61
341.915	46.42
342.128	-0.68
342.34	97.62
342.552	44.37
342.764	-8.87
342.977	17.75
343.189	68.95
343.401	142.68
343.613	48.47
343.826	89.43
344.038	27.99
344.25	68.95
344.462	50.52
344.674	52.56
344.886	-2.73
345.099	68.95
345.311	48.47
345.523	11.61
345.735	-43.69
345.947	62.8
346.159	85.33
346.371	109.91
346.583	44.37
346.795	32.08
347.007	-6.83
347.219	81.24
347.431	50.52
347.643	71
347.855	15.7
348.067	91.48
348.279	-0.68
348.491	7.51
348.703	40.28
348.915	-27.31
349.127	23.89
349.339	89.43
349.551	23.89
349.763	44.37
349.975	60.76
350.187	7.51
350.399	25.94
350.61	-0.68
350.822	52.56
351.034	30.04
351.246	15.7
351.458	58.71
351.669	87.38
351.881	-25.26
352.093	85.33
352.305	58.71
352.517	91.48
352.728	75.09
352.94	91.48
353.152	36.18
353.363	32.08
353.575	68.95
353.787	79.19
353.999	116.05
354.21	89.43
354.422	7.51
354.633	11.61
354.845	109.91
355.057	54.61
355.268	64.85
355.48	122.2
355.692	-33.45
355.903	7.51
356.115	15.7
356.326	64.85
356.538	132.44
356.749	48.47
356.961	68.95
357.172	5.46
357.384	46.42
357.595	71
357.807	52.56
358.018	62.8
358.23	11.61
358.441	138.58
358.653	7.51
358.864	21.84
359.075	87.38
359.287	66.9
359.498	152.91
359.709	1.37
359.921	36.18
360.132	21.84
360.344	81.24
360.555	9.56
360.766	60.76
360.977	42.32
361.189	109.91
361.4	77.14
361.611	25.94
361.823	56.66
362.034	148.82
362.245	-66.22
362.456	83.28
362.667	-17.07
362.879	83.28
363.09	81.24
363.301	52.56
363.512	91.48
363.723	77.14
363.935	13.65
364.146	75.09
364.357	19.8
364.568	21.84
364.779	60.76
364.99	68.95
365.201	7.51
365.412	105.81
365.623	44.37
365.834	58.71
366.045	71
366.256	36.18
366.467	101.72
366.678	93.52
366.889	77.14
367.1	23.89
367.311	56.66
367.522	9.56
367.733	30.04
367.944	50.52
368.155	89.43
368.366	81.24
368.577	36.18
368.788	126.29
368.999	77.14
369.209	79.19
369.42	122.2
369.631	89.43
369.842	52.56
370.053	64.85
370.264	64.85
370.474	77.14
370.685	103.76
370.896	75.09
371.107	-10.92
371.317	79.19
371.528	-8.87
371.739	107.86
371.95	83.28
372.16	111.96
372.371	19.8
372.582	13.65
372.792	21.84
373.003	11.61
373.214	40.28
373.424	81.24
373.635	58.71
373.846	46.42
374.056	32.08
374.267	48.47
374.477	140.63
374.688	134.48
374.898	-27.31
375.109	19.8
375.319	79.19
375.53	68.95
375.74	75.09
375.951	89.43
376.161	109.91
376.372	75.09
376.582	19.8
376.793	97.62
377.003	60.76
377.214	32.08
377.424	85.33
377.635	73.04
377.845	-27.31
378.055	95.57
378.266	-43.69
378.476	79.19
378.686	32.08
378.897	62.8
379.107	36.18
379.317	85.33
379.528	71
379.738	103.76
379.948	5.46
380.158	101.72
380.369	77.14
380.579	91.48
380.789	30.04
380.999	27.99
381.21	71
381.42	40.28
381.63	81.24
381.84	-0.68
382.05	91.48
382.261	73.04
382.471	89.43
382.681	32.08
382.891	60.76
383.101	23.89
383.311	146.77
383.521	77.14
383.731	95.57
383.941	87.38
384.151	42.32
384.361	42.32
384.571	66.9
384.781	138.58
384.991	89.43
385.201	83.28
385.411	60.76
385.621	73.04
385.831	93.52
386.041	124.24
386.251	103.76
386.461	134.48
386.671	48.47
386.881	89.43
387.091	99.67
387.301	99.67
387.511	68.95
387.72	48.47
387.93	75.09
388.14	46.42
388.35	40.28
388.56	77.14
388.769	93.52
388.979	56.66
389.189	15.7
389.399	97.62
389.609	93.52
389.818	93.52
390.028	-17.07
390.238	114
390.447	17.75
390.657	128.34
390.867	-23.21
391.076	40.28
391.286	99.67
391.496	120.15
391.705	71
391.915	144.72
392.125	107.86
392.334	120.15
392.544	124.24
392.753	95.57
392.963	13.65
393.172	95.57
393.382	87.38
393.591	132.44
393.801	77.14
394.01	132.44
394.22	48.47
394.429	71
394.639	62.8
394.848	71
395.058	68.95
395.267	157.01
395.477	111.96
395.686	116.05
395.895	101.72
396.105	152.91
396.314	73.04
396.524	58.71
396.733	87.38
396.942	87.38
397.152	42.32
397.361	138.58
397.57	87.38
397.78	126.29
397.989	120.15
398.198	124.24
398.407	142.68
398.617	91.48
398.826	130.39
399.035	126.29
399.244	81.24
399.453	40.28
399.663	103.76
399.872	146.77
400.081	101.72
400.29	195.92
400.499	83.28
400.708	124.24
400.917	118.1
401.127	38.23
401.336	114
401.545	99.67
401.754	120.15
401.963	144.72
402.172	114
402.381	99.67
402.59	163.15
402.799	144.72
403.008	146.77
403.217	107.86
403.426	208.21
403.635	146.77
403.844	107.86
404.053	171.35
404.262	130.39
404.471	167.25
404.68	163.15
404.888	228.69
405.097	193.87
405.306	204.11
405.515	208.21
405.724	185.68
405.933	197.97
406.142	163.15
406.35	240.98
406.559	212.31
406.768	279.89
406.977	263.51
407.185	197.97
407.394	202.07
407.603	277.84
407.812	214.35
408.02	304.46
408.229	212.31
408.438	163.15
408.646	234.83
408.855	230.74
409.064	286.03
409.272	318.8
409.481	343.38
409.69	275.79
409.898	245.07
410.107	269.65
410.315	318.8
410.524	247.12
410.733	378.19
410.941	380.24
411.15	429.39
411.358	404.82
411.567	410.96
411.775	398.67
411.984	468.3
412.192	451.92
412.401	423.25
412.609	447.82
412.818	490.83
413.026	656.72
413.234	445.77
413.443	601.42
413.651	535.89
413.86	634.19
414.068	587.08
414.276	740.68
414.485	669
414.693	660.81
414.901	742.73
415.11	693.58
415.318	789.83
415.526	816.46
415.734	841.03
415.943	763.21
416.151	945.48
416.359	994.63
416.567	965.96
416.776	1080.64
416.984	1092.93
417.192	1103.17
417.4	1101.12
417.608	1094.98
417.817	1125.7
418.025	1224
418.233	1301.83
418.441	1246.53
418.649	1334.59
418.857	1367.36
419.065	1363.26
419.273	1398.08
419.481	1475.9
419.689	1600.83
419.897	1590.59
420.105	1688.89
420.313	1647.93
420.521	1715.52
420.729	1807.67
420.937	1750.33
421.145	1830.2
421.353	1965.37
421.561	2202.93
421.769	2155.83
421.977	2161.97
422.185	2121.01
422.393	2430.26
422.601	2532.65
422.809	2485.55
423.017	2487.6
423.224	2600.24
423.432	2805.03
423.64	2665.77
423.848	2932.01
424.056	2823.47
424.263	3130.66
424.471	2979.11
424.679	3075.37
424.887	3360.03
425.094	3466.53
425.302	3538.21
425.51	3456.29
425.718	3869.98
425.925	3876.12
426.133	3919.13
426.341	4001.05
426.548	4283.67
426.756	4324.63
426.964	4306.2
427.171	4474.13
427.379	4660.49
427.586	4494.61
427.794	4840.72
428.001	5043.46
428.209	5360.9
428.417	5324.04
428.624	5657.85
428.832	5639.42
429.039	5483.78
429.247	5676.29
429.454	6055.16
429.662	6477.04
429.869	6110.46
430.076	6687.98
430.284	6438.13
430.491	6919.4
430.699	7128.3
430.906	7126.25
431.114	7073
431.321	7275.75
431.528	7482.6
431.736	8019.16
431.943	8414.42
432.15	7959.77
432.358	8086.75
432.565	8647.89
432.772	8742.1
432.979	8975.56
433.187	9262.28
433.394	9329.86
433.601	9970.88
433.808	9931.97
434.016	10110.14
434.223	10144.95
434.43	10894.51
434.637	10742.96
434.844	11441.32
435.052	11656.36
435.259	11564.2
435.466	11639.97
435.673	11498.66
435.88	12334.23
436.087	12885.14
436.294	12956.82
436.501	12498.07
436.708	12709.01
436.915	13264.01
437.122	14050.43
437.329	13915.26
437.537	14271.61
437.743	14414.97
437.95	14550.14
438.157	15162.48
438.364	15715.43
438.571	15684.71
438.778	15514.73
438.985	17445.96
439.192	16637.02
439.399	16858.2
439.606	16618.58
439.813	17830.98
440.02	18732.09
440.227	18220.1
440.433	17960
440.64	18814.01
440.847	18666.55
441.054	19162.16
441.261	20349.98
441.467	20085.79
441.674	20579.36
441.881	21173.27
442.088	21294.1
442.294	21068.82
442.501	21562.38
442.708	21976.07
442.914	22903.8
443.121	23935.98
443.328	23266.29
443.534	24806.36
443.741	23944.17
443.948	23872.49
444.154	25545.68
444.361	25652.17
444.568	25301.97
444.774	25541.58
444.981	25703.37
445.187	26657.73
445.394	27753.39
445.6	27065.27
445.807	30462.85
446.013	28890.01
446.22	29098.91
446.426	30419.85
446.633	30002.06
446.839	31460.21
447.046	30571.39
447.252	31767.41
447.459	32095.08
447.665	31722.35
447.871	33430.36
448.078	34468.68
448.284	33024.86
448.491	33784.66
448.697	35115.84
448.903	35752.76
449.11	35529.53
449.316	35269.44
449.522	35650.36
449.728	36518.7
449.935	37104.42
450.141	36735.78
450.347	37786.39
450.553	36453.16
450.76	37071.65
450.966	38048.53
451.172	37683.99
451.378	38490.89
451.584	37577.5
451.791	38693.64
451.997	38310.67
452.203	39441.15
452.409	39187.2
452.615	38664.97
452.821	37559.06
453.027	37192.48
453.233	39164.67
453.44	37415.71
453.646	37980.95
453.852	37831.44
454.058	38712.07
454.264	37516.06
454.47	38406.92
454.676	37370.65
454.882	38609.67
455.088	35111.74
455.294	35541.82
455.5	36057.9
455.705	36772.64
455.911	35210.04
456.117	34378.57
456.323	33903.44
456.529	31525.75
456.735	33239.9
456.941	32494.44
457.147	31761.26
457.352	30837.63
457.558	31021.95
457.764	30827.39
457.97	30137.23
458.176	29586.32
458.381	29293.46
458.587	27829.16
458.793	27947.95
458.999	26756.03
459.204	28363.68
459.41	27919.28
459.616	25682.89
459.821	26018.76
460.027	25754.57
460.233	25209.81
460.438	23884.78
460.644	24314.85
460.85	23503.85
461.055	22752.25
461.261	22727.67
461.466	20984.85
461.672	20276.26
461.878	21926.92
462.083	20558.88
462.289	20077.6
462.494	20022.31
462.7	19321.9
462.905	18594.87
463.111	19448.88
463.316	19282.99
463.522	18805.81
463.727	18730.04
463.932	18854.97
464.138	18736.18
464.343	18709.56
464.549	17992.77
464.754	18752.57
464.959	18709.56
465.165	18668.6
465.37	17695.82
465.575	17226.83
465.781	17976.39
465.986	18164.8
466.191	17366.09
466.397	17101.9
466.602	16411.74
466.807	16962.64
467.012	16766.04
467.218	16809.04
467.423	16548.95
467.628	16800.85
467.833	17466.44
468.038	16780.37
468.244	16338.01
468.449	17017.94
