Data from USB4F104151__19__11-04-52-013.txt Node

Date: Wed Mar 12 11:04:52 EDT 2025
User: louis
Spectrometer: USB4F10415
Trigger mode: 4
Integration Time (sec): 2.000000E-2
Scans to average: 1
Electric dark correction enabled: true
Nonlinearity correction enabled: false
Boxcar width: 0
XAxis mode: Wavelengths
Number of Pixels in Spectrum: 3648
>>>>>Begin Spectral Data<<<<<
178.204	-40.45
178.424	-40.45
178.644	-40.45
178.864	-81.41
179.084	-114.17
179.304	4.61
179.524	-1.54
179.744	-11.78
179.964	0.51
180.184	76.29
180.404	12.8
180.624	-19.97
180.844	-7.68
181.064	-93.69
181.283	35.33
181.503	-11.78
181.723	16.9
181.943	-44.54
182.163	25.09
182.383	-15.87
182.602	33.28
182.822	53.76
183.042	66.05
183.262	-7.68
183.482	25.09
183.701	-11.78
183.921	43.52
184.141	-36.35
184.361	33.28
184.58	0.51
184.8	43.52
185.02	-28.16
185.239	27.14
185.459	6.66
185.679	-28.16
185.898	-7.68
186.118	57.86
186.338	14.85
186.557	-24.06
186.777	51.71
186.997	-11.78
187.216	-52.74
187.436	-3.58
187.655	53.76
187.875	51.71
188.095	57.86
188.314	41.47
188.534	18.94
188.753	82.43
188.973	29.18
189.192	2.56
189.412	-56.83
189.631	68.09
189.851	45.57
190.07	0.51
190.29	27.14
190.509	20.99
190.729	-9.73
190.948	-9.73
191.168	139.77
191.387	43.52
191.607	-1.54
191.826	23.04
192.045	33.28
192.265	41.47
192.484	57.86
192.704	100.86
192.923	23.04
193.142	35.33
193.362	49.66
193.581	16.9
193.8	88.57
194.02	12.8
194.239	-13.82
194.458	14.85
194.678	-15.87
194.897	45.57
195.116	-19.97
195.335	33.28
195.555	-1.54
195.774	-38.4
195.993	10.75
196.212	8.7
196.432	0.51
196.651	16.9
196.87	-3.58
197.089	6.66
197.308	35.33
197.528	70.14
197.747	-40.45
197.966	70.14
198.185	45.57
198.404	6.66
198.623	84.48
198.842	47.62
199.062	25.09
199.281	88.57
199.5	-1.54
199.719	43.52
199.938	-32.26
200.157	14.85
200.376	37.38
200.595	43.52
200.814	-50.69
201.033	-22.02
201.252	76.29
201.471	12.8
201.69	6.66
201.909	51.71
202.128	20.99
202.347	78.33
202.566	-54.78
202.785	18.94
203.004	-67.07
203.223	80.38
203.442	109.05
203.661	16.9
203.879	10.75
204.098	100.86
204.317	43.52
204.536	41.47
204.755	16.9
204.974	2.56
205.193	-30.21
205.411	51.71
205.63	-75.26
205.849	-3.58
206.068	92.67
206.287	-1.54
206.505	57.86
206.724	10.75
206.943	12.8
207.162	33.28
207.381	33.28
207.599	-7.68
207.818	27.14
208.037	8.7
208.255	-13.82
208.474	2.56
208.693	39.42
208.911	-13.82
209.13	-24.06
209.349	70.14
209.567	66.05
209.786	45.57
210.005	-30.21
210.223	18.94
210.442	61.95
210.661	49.66
210.879	29.18
211.098	-7.68
211.316	74.24
211.535	16.9
211.753	12.8
211.972	55.81
212.191	33.28
212.409	23.04
212.628	16.9
212.846	25.09
213.065	-13.82
213.283	66.05
213.502	-13.82
213.72	47.62
213.938	-11.78
214.157	74.24
214.375	84.48
214.594	27.14
214.812	8.7
215.031	39.42
215.249	12.8
215.467	14.85
215.686	86.53
215.904	49.66
216.122	23.04
216.341	-83.45
216.559	0.51
216.778	39.42
216.996	18.94
217.214	-42.5
217.432	31.23
217.651	8.7
217.869	33.28
218.087	61.95
218.306	-17.92
218.524	49.66
218.742	45.57
218.96	20.99
219.179	78.33
219.397	37.38
219.615	43.52
219.833	27.14
220.051	57.86
220.27	55.81
220.488	41.47
220.706	35.33
220.924	-79.36
221.142	47.62
221.36	-15.87
221.578	25.09
221.796	-9.73
222.015	-50.69
222.233	-17.92
222.451	74.24
222.669	66.05
222.887	-22.02
223.105	-24.06
223.323	10.75
223.541	23.04
223.759	70.14
223.977	25.09
224.195	61.95
224.413	37.38
224.631	-7.68
224.849	37.38
225.067	74.24
225.285	10.75
225.503	6.66
225.721	47.62
225.939	27.14
226.157	16.9
226.375	86.53
226.592	6.66
226.81	43.52
227.028	-13.82
227.246	51.71
227.464	12.8
227.682	-11.78
227.9	-17.92
228.117	35.33
228.335	-11.78
228.553	8.7
228.771	53.76
228.989	8.7
229.206	0.51
229.424	47.62
229.642	41.47
229.86	53.76
230.077	35.33
230.295	66.05
230.513	68.09
230.731	33.28
230.948	37.38
231.166	68.09
231.384	18.94
231.601	0.51
231.819	12.8
232.037	39.42
232.254	-34.3
232.472	27.14
232.689	57.86
232.907	57.86
233.125	41.47
233.342	14.85
233.56	-28.16
233.777	-17.92
233.995	-15.87
234.213	98.81
234.43	25.09
234.648	27.14
234.865	8.7
235.083	53.76
235.3	0.51
235.518	-13.82
235.735	78.33
235.953	66.05
236.17	4.61
236.388	82.43
236.605	0.51
236.822	8.7
237.04	66.05
237.257	-24.06
237.475	43.52
237.692	0.51
237.909	66.05
238.127	20.99
238.344	35.33
238.562	-36.35
238.779	25.09
238.996	4.61
239.214	49.66
239.431	53.76
239.648	12.8
239.865	29.18
240.083	-56.83
240.3	-32.26
240.517	12.8
240.735	-44.54
240.952	57.86
241.169	10.75
241.386	70.14
241.603	37.38
241.821	-17.92
242.038	-15.87
242.255	31.23
242.472	12.8
242.689	16.9
242.907	74.24
243.124	29.18
243.341	-1.54
243.558	-9.73
243.775	-28.16
243.992	-1.54
244.209	37.38
244.426	12.8
244.643	33.28
244.86	43.52
245.078	47.62
245.295	59.9
245.512	10.75
245.729	47.62
245.946	-7.68
246.163	68.09
246.38	37.38
246.597	-7.68
246.814	-15.87
247.031	27.14
247.248	72.19
247.464	90.62
247.681	59.9
247.898	16.9
248.115	66.05
248.332	-22.02
248.549	121.34
248.766	-24.06
248.983	84.48
249.2	20.99
249.417	78.33
249.633	-17.92
249.85	0.51
250.067	0.51
250.284	16.9
250.501	23.04
250.717	14.85
250.934	66.05
251.151	27.14
251.368	43.52
251.585	-11.78
251.801	92.67
252.018	27.14
252.235	-9.73
252.451	-26.11
252.668	14.85
252.885	98.81
253.102	55.81
253.318	49.66
253.535	8.7
253.752	18.94
253.968	31.23
254.185	59.9
254.401	-19.97
254.618	57.86
254.835	16.9
255.051	64
255.268	-60.93
255.484	66.05
255.701	8.7
255.917	-3.58
256.134	-11.78
256.351	23.04
256.567	-19.97
256.784	-32.26
257	25.09
257.217	53.76
257.433	18.94
257.65	8.7
257.866	14.85
258.082	-11.78
258.299	23.04
258.515	29.18
258.732	-22.02
258.948	-50.69
259.165	23.04
259.381	18.94
259.597	35.33
259.814	76.29
260.03	23.04
260.246	121.34
260.463	41.47
260.679	57.86
260.895	31.23
261.112	-22.02
261.328	39.42
261.544	47.62
261.761	121.34
261.977	18.94
262.193	14.85
262.409	2.56
262.626	61.95
262.842	90.62
263.058	-17.92
263.274	70.14
263.49	8.7
263.707	35.33
263.923	-30.21
264.139	74.24
264.355	0.51
264.571	53.76
264.787	6.66
265.004	78.33
265.22	-24.06
265.436	-9.73
265.652	18.94
265.868	-22.02
266.084	6.66
266.3	-38.4
266.516	-22.02
266.732	20.99
266.948	-9.73
267.164	20.99
267.38	35.33
267.596	57.86
267.812	74.24
268.028	86.53
268.244	27.14
268.46	4.61
268.676	14.85
268.892	6.66
269.108	14.85
269.324	-42.5
269.54	-3.58
269.756	102.91
269.972	45.57
270.188	6.66
270.403	-24.06
270.619	45.57
270.835	-1.54
271.051	68.09
271.267	14.85
271.483	23.04
271.698	33.28
271.914	-3.58
272.13	49.66
272.346	29.18
272.562	2.56
272.777	33.28
272.993	14.85
273.209	-52.74
273.425	64
273.64	-24.06
273.856	49.66
274.072	-1.54
274.287	-5.63
274.503	43.52
274.719	-15.87
274.934	64
275.15	29.18
275.366	-11.78
275.581	70.14
275.797	35.33
276.012	-1.54
276.228	86.53
276.444	33.28
276.659	66.05
276.875	33.28
277.09	47.62
277.306	-3.58
277.521	18.94
277.737	4.61
277.952	31.23
278.168	16.9
278.383	74.24
278.599	-19.97
278.814	43.52
279.03	57.86
279.245	107.01
279.461	51.71
279.676	-15.87
279.892	53.76
280.107	88.57
280.322	-56.83
280.538	-36.35
280.753	20.99
280.969	45.57
281.184	53.76
281.399	109.05
281.615	43.52
281.83	70.14
282.045	-7.68
282.26	37.38
282.476	45.57
282.691	-26.11
282.906	0.51
283.122	86.53
283.337	41.47
283.552	37.38
283.767	23.04
283.983	41.47
284.198	-17.92
284.413	29.18
284.628	-34.3
284.843	47.62
285.058	2.56
285.274	4.61
285.489	-32.26
285.704	2.56
285.919	64
286.134	49.66
286.349	-42.5
286.564	-22.02
286.779	45.57
286.995	43.52
287.21	18.94
287.425	82.43
287.64	-3.58
287.855	-1.54
288.07	41.47
288.285	-9.73
288.5	47.62
288.715	8.7
288.93	72.19
289.145	6.66
289.36	41.47
289.575	68.09
289.79	-40.45
290.004	49.66
290.219	84.48
290.434	45.57
290.649	39.42
290.864	8.7
291.079	20.99
291.294	-11.78
291.509	23.04
291.724	16.9
291.938	47.62
292.153	37.38
292.368	8.7
292.583	51.71
292.798	59.9
293.012	53.76
293.227	-32.26
293.442	78.33
293.657	55.81
293.871	8.7
294.086	14.85
294.301	-9.73
294.516	82.43
294.73	49.66
294.945	-7.68
295.16	45.57
295.374	18.94
295.589	57.86
295.804	53.76
296.018	61.95
296.233	61.95
296.447	57.86
296.662	27.14
296.877	-5.63
297.091	51.71
297.306	29.18
297.52	-26.11
297.735	23.04
297.949	-32.26
298.164	27.14
298.378	10.75
298.593	35.33
298.807	-34.3
299.022	68.09
299.236	70.14
299.451	-15.87
299.665	47.62
299.88	29.18
300.094	-1.54
300.309	59.9
300.523	133.63
300.737	59.9
300.952	-24.06
301.166	45.57
301.381	12.8
301.595	-11.78
301.809	25.09
302.024	49.66
302.238	-9.73
302.452	90.62
302.667	47.62
302.881	-19.97
303.095	57.86
303.309	41.47
303.524	57.86
303.738	-7.68
303.952	0.51
304.166	20.99
304.381	37.38
304.595	147.97
304.809	29.18
305.023	96.77
305.237	14.85
305.452	20.99
305.666	-30.21
305.88	41.47
306.094	53.76
306.308	-11.78
306.522	57.86
306.736	90.62
306.95	39.42
307.164	33.28
307.379	-19.97
307.593	33.28
307.807	27.14
308.021	-15.87
308.235	-11.78
308.449	-48.64
308.663	-9.73
308.877	96.77
309.091	12.8
309.305	45.57
309.519	55.81
309.733	-13.82
309.947	-36.35
310.161	23.04
310.374	82.43
310.588	74.24
310.802	74.24
311.016	41.47
311.23	43.52
311.444	80.38
311.658	16.9
311.872	78.33
312.085	33.28
312.299	43.52
312.513	45.57
312.727	102.91
312.941	18.94
313.154	-22.02
313.368	25.09
313.582	78.33
313.796	33.28
314.009	-11.78
314.223	29.18
314.437	25.09
314.651	29.18
314.864	59.9
315.078	31.23
315.292	-1.54
315.505	25.09
315.719	68.09
315.933	16.9
316.146	29.18
316.36	-56.83
316.573	35.33
316.787	72.19
317.001	-7.68
317.214	61.95
317.428	0.51
317.641	23.04
317.855	39.42
318.068	8.7
318.282	82.43
318.495	47.62
318.709	-17.92
318.922	-30.21
319.136	61.95
319.349	121.34
319.563	0.51
319.776	2.56
319.99	-48.64
320.203	51.71
320.417	-24.06
320.63	20.99
320.843	96.77
321.057	-1.54
321.27	88.57
321.483	33.28
321.697	51.71
321.91	51.71
322.124	49.66
322.337	72.19
322.55	-44.54
322.763	33.28
322.977	-15.87
323.19	8.7
323.403	18.94
323.617	23.04
323.83	2.56
324.043	98.81
324.256	88.57
324.469	45.57
324.683	31.23
324.896	-40.45
325.109	29.18
325.322	-54.78
325.535	53.76
325.748	39.42
325.962	55.81
326.175	18.94
326.388	23.04
326.601	29.18
326.814	-5.63
327.027	-1.54
327.24	166.4
327.453	4.61
327.666	18.94
327.879	107.01
328.092	29.18
328.305	74.24
328.518	35.33
328.731	41.47
328.944	4.61
329.157	2.56
329.37	78.33
329.583	49.66
329.796	18.94
330.009	0.51
330.222	121.34
330.435	43.52
330.648	61.95
330.861	49.66
331.073	107.01
331.286	70.14
331.499	23.04
331.712	12.8
331.925	-17.92
332.138	49.66
332.35	86.53
332.563	49.66
332.776	16.9
332.989	14.85
333.202	23.04
333.414	20.99
333.627	-13.82
333.84	53.76
334.053	64
334.265	25.09
334.478	27.14
334.691	-7.68
334.903	80.38
335.116	-3.58
335.329	27.14
335.541	12.8
335.754	10.75
335.966	-22.02
336.179	16.9
336.392	35.33
336.604	-26.11
336.817	12.8
337.029	-34.3
337.242	25.09
337.454	0.51
337.667	-30.21
337.88	39.42
338.092	57.86
338.305	41.47
338.517	18.94
338.729	139.77
338.942	-30.21
339.154	33.28
339.367	4.61
339.579	66.05
339.792	37.38
340.004	12.8
340.217	53.76
340.429	45.57
340.641	47.62
340.854	20.99
341.066	66.05
341.278	96.77
341.491	88.57
341.703	-40.45
341.915	12.8
342.128	37.38
342.34	72.19
342.552	-24.06
342.764	25.09
342.977	64
343.189	43.52
343.401	47.62
343.613	16.9
343.826	88.57
344.038	-15.87
344.25	-3.58
344.462	4.61
344.674	61.95
344.886	-17.92
345.099	20.99
345.311	47.62
345.523	-9.73
345.735	4.61
345.947	51.71
346.159	-7.68
346.371	-26.11
346.583	20.99
346.795	-1.54
347.007	37.38
347.219	49.66
347.431	82.43
347.643	27.14
347.855	8.7
348.067	-11.78
348.279	37.38
348.491	-7.68
348.703	61.95
348.915	27.14
349.127	-56.83
349.339	-5.63
349.551	10.75
349.763	84.48
349.975	49.66
350.187	51.71
350.399	78.33
350.61	78.33
350.822	-5.63
351.034	-22.02
351.246	70.14
351.458	39.42
351.669	47.62
351.881	20.99
352.093	51.71
352.305	35.33
352.517	0.51
352.728	25.09
352.94	41.47
353.152	51.71
353.363	20.99
353.575	10.75
353.787	23.04
353.999	49.66
354.21	61.95
354.422	43.52
354.633	92.67
354.845	29.18
355.057	33.28
355.268	72.19
355.48	43.52
355.692	72.19
355.903	8.7
356.115	-1.54
356.326	-9.73
356.538	39.42
356.749	76.29
356.961	55.81
357.172	37.38
357.384	-28.16
357.595	47.62
357.807	53.76
358.018	4.61
358.23	-5.63
358.441	78.33
358.653	49.66
358.864	27.14
359.075	-56.83
359.287	96.77
359.498	66.05
359.709	64
359.921	0.51
360.132	74.24
360.344	-46.59
360.555	0.51
360.766	37.38
360.977	45.57
361.189	86.53
361.4	33.28
361.611	72.19
361.823	76.29
362.034	39.42
362.245	-60.93
362.456	107.01
362.667	-19.97
362.879	12.8
363.09	-44.54
363.301	23.04
363.512	57.86
363.723	-9.73
363.935	76.29
364.146	33.28
364.357	45.57
364.568	-9.73
364.779	70.14
364.99	66.05
365.201	27.14
365.412	88.57
365.623	-19.97
365.834	23.04
366.045	-24.06
366.256	117.25
366.467	51.71
366.678	94.72
366.889	55.81
367.1	78.33
367.311	-5.63
367.522	37.38
367.733	-13.82
367.944	-5.63
368.155	47.62
368.366	8.7
368.577	70.14
368.788	10.75
368.999	8.7
369.209	59.9
369.42	20.99
369.631	109.05
369.842	55.81
370.053	57.86
370.264	61.95
370.474	27.14
370.685	55.81
370.896	72.19
371.107	27.14
371.317	102.91
371.528	12.8
371.739	51.71
371.95	37.38
372.16	-1.54
372.371	90.62
372.582	84.48
372.792	-40.45
373.003	-17.92
373.214	64
373.424	-19.97
373.635	43.52
373.846	18.94
374.056	61.95
374.267	53.76
374.477	74.24
374.688	100.86
374.898	74.24
375.109	37.38
375.319	29.18
375.53	39.42
375.74	45.57
375.951	86.53
376.161	-54.78
376.372	70.14
376.582	72.19
376.793	39.42
377.003	-24.06
377.214	23.04
377.424	20.99
377.635	41.47
377.845	12.8
378.055	82.43
378.266	2.56
378.476	51.71
378.686	43.52
378.897	70.14
379.107	29.18
379.317	0.51
379.528	29.18
379.738	145.92
379.948	14.85
380.158	78.33
380.369	-3.58
380.579	57.86
380.789	8.7
380.999	12.8
381.21	68.09
381.42	109.05
381.63	33.28
381.84	-1.54
382.05	23.04
382.261	20.99
382.471	76.29
382.681	-3.58
382.891	-7.68
383.101	51.71
383.311	90.62
383.521	86.53
383.731	64
383.941	55.81
384.151	64
384.361	57.86
384.571	66.05
384.781	47.62
384.991	8.7
385.201	90.62
385.411	-5.63
385.621	43.52
385.831	90.62
386.041	33.28
386.251	-5.63
386.461	76.29
386.671	-1.54
386.881	66.05
387.091	43.52
387.301	119.29
387.511	37.38
387.72	86.53
387.93	37.38
388.14	18.94
388.35	82.43
388.56	39.42
388.769	33.28
388.979	4.61
389.189	78.33
389.399	49.66
389.609	86.53
389.818	12.8
390.028	72.19
390.238	88.57
390.447	82.43
390.657	23.04
390.867	-32.26
391.076	14.85
391.286	49.66
391.496	35.33
391.705	66.05
391.915	20.99
392.125	12.8
392.334	57.86
392.544	41.47
392.753	88.57
392.963	29.18
393.172	0.51
393.382	-28.16
393.591	131.58
393.801	68.09
394.01	53.76
394.22	74.24
394.429	41.47
394.639	-15.87
394.848	51.71
395.058	76.29
395.267	96.77
395.477	55.81
395.686	61.95
395.895	94.72
396.105	92.67
396.314	45.57
396.524	88.57
396.733	78.33
396.942	-11.78
397.152	80.38
397.361	90.62
397.57	78.33
397.78	72.19
397.989	98.81
398.198	162.3
398.407	64
398.617	100.86
398.826	53.76
399.035	107.01
399.244	82.43
399.453	74.24
399.663	64
399.872	107.01
400.081	113.15
400.29	115.2
400.499	55.81
400.708	70.14
400.917	147.97
401.127	76.29
401.336	90.62
401.545	123.39
401.754	8.7
401.963	51.71
402.172	64
402.381	104.96
402.59	129.53
402.799	115.2
403.008	133.63
403.217	53.76
403.426	119.29
403.635	72.19
403.844	109.05
404.053	104.96
404.262	102.91
404.471	133.63
404.68	139.77
404.888	74.24
405.097	98.81
405.306	121.34
405.515	33.28
405.724	162.3
405.933	119.29
406.142	66.05
406.35	127.49
406.559	152.06
406.768	55.81
406.977	72.19
407.185	127.49
407.394	172.54
407.603	70.14
407.812	154.11
408.02	125.44
408.229	188.93
408.438	266.75
408.646	51.71
408.855	180.73
409.064	229.88
409.272	68.09
409.481	211.45
409.69	229.88
409.898	162.3
410.107	221.69
410.315	258.56
410.524	180.73
410.733	227.84
410.941	254.46
411.15	262.65
411.358	252.41
411.567	260.6
411.775	256.51
411.984	248.32
412.192	309.76
412.401	272.89
412.609	324.09
412.818	338.43
413.026	383.48
413.234	324.09
413.443	365.05
413.651	336.38
413.86	412.15
414.068	393.72
414.276	426.49
414.485	379.39
414.693	479.74
414.901	500.22
415.11	463.35
415.318	410.11
415.526	479.74
415.734	541.18
415.943	516.6
416.151	547.32
416.359	547.32
416.567	596.47
416.776	582.14
416.984	672.25
417.192	688.63
417.4	684.53
417.608	731.64
417.817	610.81
418.025	702.97
418.233	770.55
418.441	768.5
418.649	715.25
418.857	815.6
419.065	844.28
419.273	909.81
419.481	836.08
419.689	1008.11
419.897	1032.69
420.105	958.96
420.313	1106.42
420.521	1087.98
420.729	1090.03
420.937	1120.75
421.145	1083.89
421.353	1223.15
421.561	1255.92
421.769	1343.98
421.977	1493.48
422.185	1370.6
422.393	1391.08
422.601	1520.1
422.809	1563.11
423.017	1536.49
423.224	1575.4
423.432	1718.76
423.64	1714.66
423.848	1804.77
424.056	1761.77
424.263	1884.64
424.471	1870.31
424.679	1980.9
424.887	2189.79
425.094	2118.11
425.302	2152.93
425.51	2251.23
425.718	2288.09
425.925	2439.64
426.133	2255.33
426.341	2533.85
426.548	2568.66
426.756	2636.25
426.964	2664.92
427.171	2980.31
427.379	3015.12
427.586	2900.44
427.794	3054.03
428.001	3144.14
428.209	3127.76
428.417	3260.88
428.624	3568.07
428.832	3496.39
429.039	3477.96
429.247	3514.83
429.454	3953.09
429.662	4030.91
429.869	3840.45
430.076	4026.82
430.284	4114.88
430.491	4204.99
430.699	4338.11
430.906	4272.57
431.114	4334.01
431.321	4571.58
431.528	4727.22
431.736	4972.98
431.943	5331.37
432.15	5097.91
432.358	5073.33
432.565	5482.92
432.772	5542.32
432.979	5566.89
433.187	5620.14
433.394	5800.36
433.601	5990.82
433.808	6250.91
434.016	6183.33
434.223	6396.32
434.43	6705.56
434.637	6644.12
434.844	7154.07
435.052	7422.35
435.259	7246.23
435.466	7207.31
435.673	7180.69
435.88	7737.74
436.087	8026.5
436.294	8100.23
436.501	7885.19
436.708	8053.13
436.915	8446.34
437.122	8690.04
437.329	8610.17
437.537	9087.35
437.743	9146.74
437.95	9093.49
438.157	9529.71
438.364	9724.27
438.571	9767.27
438.778	9646.44
438.985	10670.43
439.192	10215.78
439.399	10754.4
439.606	10365.28
439.813	11018.58
440.02	11630.93
440.227	11342.16
440.433	11458.9
440.64	11831.63
440.847	11665.74
441.054	11940.17
441.261	12867.9
441.467	12777.79
441.674	12900.67
441.881	13330.74
442.088	13238.58
442.294	13195.57
442.501	13666.61
442.708	13803.82
442.914	14422.31
443.121	15114.52
443.328	14872.86
443.534	15495.44
443.741	15221.02
443.948	14698.78
444.154	16197.9
444.361	16197.9
444.568	15964.43
444.774	15978.76
444.981	16646.4
445.187	16769.28
445.394	17647.86
445.6	17287.42
445.807	18778.34
446.013	17873.14
446.22	18188.52
446.426	19024.09
446.633	19200.22
446.839	19869.9
447.046	19183.84
447.252	20109.52
447.459	20441.29
447.665	19996.88
447.871	21104.83
448.078	21878.96
448.284	20863.17
448.491	21268.67
448.697	22100.14
448.903	22700.2
449.11	22429.87
449.316	22278.32
449.522	22399.15
449.728	23449.75
449.935	23300.25
450.141	23378.08
450.347	23865.49
450.553	22870.18
450.76	23480.47
450.966	24041.62
451.172	23879.83
451.378	24223.89
451.584	23847.06
451.791	24391.82
451.997	24502.41
452.203	24674.44
452.409	24322.19
452.615	24387.72
452.821	23398.55
453.027	23484.57
453.233	24557.71
453.44	23462.04
453.646	23791.76
453.852	23869.59
454.058	24332.43
454.264	23337.12
454.47	24078.48
454.676	23541.91
454.882	23986.32
455.088	21676.21
455.294	22083.76
455.5	22423.72
455.705	22620.33
455.911	21668.02
456.117	21264.57
456.323	21010.62
456.529	19822.8
456.735	20529.35
456.941	20146.38
457.147	19730.64
457.352	19036.38
457.558	18497.77
457.764	18647.27
457.97	18458.85
458.176	18354.41
458.381	18399.46
458.587	17398.01
458.793	17311.99
458.999	16392.45
459.204	17598.71
459.41	16937.21
459.616	15894.8
459.821	15995.15
460.027	15776.02
460.233	15532.31
460.438	14459.17
460.644	14874.91
460.85	14342.44
461.055	13990.19
461.261	13943.08
461.466	12837.18
461.672	12534.08
461.878	13537.59
462.083	12538.18
462.289	12374.34
462.494	12013.9
462.7	11786.57
462.905	11458.9
463.111	11809.1
463.316	11645.26
463.522	11616.59
463.727	11573.58
463.932	11559.25
464.138	11360.59
464.343	11485.52
464.549	11215.19
464.754	11549.01
464.959	11405.65
465.165	11133.27
465.37	10924.38
465.575	10551.65
465.781	11041.11
465.986	11168.09
466.191	10557.79
466.397	10330.47
466.602	10125.67
466.807	10424.67
467.012	10381.67
467.218	10400.1
467.423	10125.67
467.628	10205.54
467.833	10565.98
468.038	10252.64
468.244	10080.61
468.449	10223.97
468.654	10023.27
