Data from USB4F104151__179__11-09-30-823.txt Node

Date: Wed Mar 12 11:09:30 EDT 2025
User: louis
Spectrometer: USB4F10415
Trigger mode: 4
Integration Time (sec): 2.000000E-2
Scans to average: 1
Electric dark correction enabled: true
Nonlinearity correction enabled: false
Boxcar width: 0
XAxis mode: Wavelengths
Number of Pixels in Spectrum: 3648
>>>>>Begin Spectral Data<<<<<
178.204	-88.75
178.424	-88.75
178.644	-88.75
178.864	-51.88
179.084	-0.68
179.304	-6.83
179.524	-29.35
179.744	62.8
179.964	19.8
180.184	-25.26
180.404	15.7
180.624	11.61
180.844	-2.73
181.064	-15.02
181.283	-27.31
181.503	-17.07
181.723	13.65
181.943	-17.07
182.163	17.75
182.383	42.32
182.602	-31.4
182.822	-0.68
183.042	34.13
183.262	-31.4
183.482	21.84
183.701	79.19
183.921	42.32
184.141	-27.31
184.361	-10.92
184.58	-10.92
184.8	56.66
185.02	-37.55
185.239	9.56
185.459	7.51
185.679	-0.68
185.898	-31.4
186.118	15.7
186.338	-0.68
186.557	44.37
186.777	15.7
186.997	-0.68
187.216	1.37
187.436	38.23
187.655	52.56
187.875	-6.83
188.095	-55.98
188.314	38.23
188.534	60.76
188.753	17.75
188.973	-10.92
189.192	71
189.412	-60.07
189.631	-0.68
189.851	-8.87
190.07	-35.5
190.29	-72.36
190.509	-8.87
190.729	-47.79
190.948	17.75
191.168	13.65
191.387	-4.78
191.607	32.08
191.826	-6.83
192.045	7.51
192.265	-115.37
192.484	32.08
192.704	-113.32
192.923	5.46
193.142	116.05
193.362	46.42
193.581	81.24
193.8	17.75
194.02	34.13
194.239	-19.11
194.458	13.65
194.678	-45.74
194.897	-0.68
195.116	42.32
195.335	-15.02
195.555	-45.74
195.774	46.42
195.993	7.51
196.212	-53.93
196.432	-86.7
196.651	-51.88
196.87	13.65
197.089	-25.26
197.308	34.13
197.528	-12.97
197.747	-76.46
197.966	-15.02
198.185	-27.31
198.404	-25.26
198.623	27.99
198.842	23.89
199.062	1.37
199.281	52.56
199.5	-27.31
199.719	7.51
199.938	-23.21
200.157	-72.36
200.376	-2.73
200.595	54.61
200.814	48.47
201.033	-15.02
201.252	-0.68
201.471	30.04
201.69	48.47
201.909	15.7
202.128	21.84
202.347	38.23
202.566	9.56
202.785	-62.12
203.004	34.13
203.223	58.71
203.442	11.61
203.661	-37.55
203.879	32.08
204.098	-35.5
204.317	-70.31
204.536	68.95
204.755	-19.11
204.974	-19.11
205.193	-0.68
205.411	81.24
205.63	71
205.849	-55.98
206.068	-64.17
206.287	60.76
206.505	21.84
206.724	23.89
206.943	-2.73
207.162	-19.11
207.381	25.94
207.599	-17.07
207.818	36.18
208.037	7.51
208.255	-29.35
208.474	-70.31
208.693	-33.45
208.911	36.18
209.13	56.66
209.349	62.8
209.567	48.47
209.786	7.51
210.005	5.46
210.223	42.32
210.442	-64.17
210.661	30.04
210.879	-41.64
211.098	23.89
211.316	-29.35
211.535	62.8
211.753	-35.5
211.972	46.42
212.191	-103.08
212.409	-15.02
212.628	9.56
212.846	-43.69
213.065	9.56
213.283	81.24
213.502	-72.36
213.72	13.65
213.938	-21.16
214.157	46.42
214.375	42.32
214.594	73.04
214.812	9.56
215.031	3.41
215.249	9.56
215.467	25.94
215.686	-6.83
215.904	19.8
216.122	-49.83
216.341	50.52
216.559	17.75
216.778	54.61
216.996	38.23
217.214	-41.64
217.432	-10.92
217.651	-4.78
217.869	-4.78
218.087	23.89
218.306	1.37
218.524	40.28
218.742	23.89
218.96	-10.92
219.179	46.42
219.397	-35.5
219.615	-10.92
219.833	30.04
220.051	11.61
220.27	11.61
220.488	44.37
220.706	-6.83
220.924	56.66
221.142	-10.92
221.36	-19.11
221.578	40.28
221.796	-17.07
222.015	58.71
222.233	-35.5
222.451	48.47
222.669	-27.31
222.887	-4.78
223.105	25.94
223.323	30.04
223.541	19.8
223.759	9.56
223.977	-68.27
224.195	36.18
224.413	46.42
224.631	-4.78
224.849	11.61
225.067	48.47
225.285	-72.36
225.503	-31.4
225.721	30.04
225.939	-6.83
226.157	-8.87
226.375	50.52
226.592	-29.35
226.81	7.51
227.028	15.7
227.246	-2.73
227.464	36.18
227.682	13.65
227.9	-8.87
228.117	-6.83
228.335	81.24
228.553	21.84
228.771	32.08
228.989	83.28
229.206	-25.26
229.424	34.13
229.642	-31.4
229.86	-8.87
230.077	27.99
230.295	-35.5
230.513	-12.97
230.731	46.42
230.948	32.08
231.166	103.76
231.384	-27.31
231.601	-27.31
231.819	50.52
232.037	7.51
232.254	-10.92
232.472	64.85
232.689	-15.02
232.907	7.51
233.125	13.65
233.342	23.89
233.56	-6.83
233.777	62.8
233.995	-43.69
234.213	36.18
234.43	15.7
234.648	11.61
234.865	-33.45
235.083	34.13
235.3	46.42
235.518	23.89
235.735	62.8
235.953	40.28
236.17	-4.78
236.388	11.61
236.605	27.99
236.822	13.65
237.04	25.94
237.257	-39.59
237.475	-12.97
237.692	5.46
237.909	-25.26
238.127	-2.73
238.344	50.52
238.562	7.51
238.779	5.46
238.996	30.04
239.214	-27.31
239.431	1.37
239.648	-17.07
239.865	-0.68
240.083	-33.45
240.3	17.75
240.517	-21.16
240.735	-15.02
240.952	54.61
241.169	-27.31
241.386	17.75
241.603	5.46
241.821	-55.98
242.038	1.37
242.255	32.08
242.472	60.76
242.689	34.13
242.907	-6.83
243.124	64.85
243.341	-8.87
243.558	-49.83
243.775	5.46
243.992	9.56
244.209	7.51
244.426	-29.35
244.643	-2.73
244.86	7.51
245.078	13.65
245.295	-31.4
245.512	32.08
245.729	-2.73
245.946	15.7
246.163	1.37
246.38	-55.98
246.597	-31.4
246.814	13.65
247.031	79.19
247.248	-10.92
247.464	-76.46
247.681	-29.35
247.898	13.65
248.115	-0.68
248.332	21.84
248.549	81.24
248.766	68.95
248.983	21.84
249.2	17.75
249.417	40.28
249.633	21.84
249.85	87.38
250.067	-10.92
250.284	23.89
250.501	21.84
250.717	30.04
250.934	1.37
251.151	44.37
251.368	-80.55
251.585	40.28
251.801	-10.92
252.018	-33.45
252.235	34.13
252.451	-2.73
252.668	34.13
252.885	-68.27
253.102	40.28
253.318	25.94
253.535	-51.88
253.752	25.94
253.968	-45.74
254.185	-55.98
254.401	-8.87
254.618	-35.5
254.835	-15.02
255.051	-37.55
255.268	-12.97
255.484	23.89
255.701	-21.16
255.917	36.18
256.134	-21.16
256.351	77.14
256.567	9.56
256.784	-17.07
257	-25.26
257.217	-62.12
257.433	-17.07
257.65	11.61
257.866	5.46
258.082	27.99
258.299	-35.5
258.515	-2.73
258.732	9.56
258.948	9.56
259.165	9.56
259.381	5.46
259.597	3.41
259.814	3.41
260.03	-15.02
260.246	-15.02
260.463	19.8
260.679	46.42
260.895	66.9
261.112	13.65
261.328	-39.59
261.544	25.94
261.761	19.8
261.977	-15.02
262.193	-23.21
262.409	-49.83
262.626	-51.88
262.842	-23.21
263.058	11.61
263.274	13.65
263.49	27.99
263.707	-78.51
263.923	-2.73
264.139	-101.03
264.355	5.46
264.571	21.84
264.787	-41.64
265.004	-6.83
265.22	-10.92
265.436	-0.68
265.652	-21.16
265.868	-23.21
266.084	1.37
266.3	23.89
266.516	-53.93
266.732	-15.02
266.948	-33.45
267.164	-31.4
267.38	50.52
267.596	21.84
267.812	42.32
268.028	15.7
268.244	-31.4
268.46	-45.74
268.676	-47.79
268.892	-19.11
269.108	-55.98
269.324	-10.92
269.54	-51.88
269.756	58.71
269.972	-23.21
270.188	25.94
270.403	-66.22
270.619	-6.83
270.835	71
271.051	-15.02
271.267	-6.83
271.483	-17.07
271.698	38.23
271.914	68.95
272.13	-8.87
272.346	-15.02
272.562	-2.73
272.777	-10.92
272.993	-84.65
273.209	-29.35
273.425	9.56
273.64	1.37
273.856	27.99
274.072	-19.11
274.287	-82.6
274.503	52.56
274.719	21.84
274.934	42.32
275.15	21.84
275.366	36.18
275.581	-8.87
275.797	-12.97
276.012	-43.69
276.228	-55.98
276.444	-2.73
276.659	21.84
276.875	5.46
277.09	-33.45
277.306	-25.26
277.521	30.04
277.737	-43.69
277.952	27.99
278.168	15.7
278.383	-10.92
278.599	3.41
278.814	7.51
279.03	71
279.245	7.51
279.461	3.41
279.676	9.56
279.892	-10.92
280.107	1.37
280.322	-58.03
280.538	64.85
280.753	23.89
280.969	9.56
281.184	-37.55
281.399	52.56
281.615	19.8
281.83	44.37
282.045	23.89
282.26	48.47
282.476	-23.21
282.691	42.32
282.906	-21.16
283.122	-10.92
283.337	-37.55
283.552	-23.21
283.767	-6.83
283.983	17.75
284.198	-15.02
284.413	-27.31
284.628	-53.93
284.843	-21.16
285.058	99.67
285.274	-29.35
285.489	-10.92
285.704	-19.11
285.919	42.32
286.134	66.9
286.349	-0.68
286.564	-51.88
286.779	-33.45
286.995	19.8
287.21	5.46
287.425	89.43
287.64	-43.69
287.855	21.84
288.07	-62.12
288.285	75.09
288.5	-23.21
288.715	-45.74
288.93	-35.5
289.145	32.08
289.36	40.28
289.575	-51.88
289.79	5.46
290.004	-39.59
290.219	-2.73
290.434	-4.78
290.649	-15.02
290.864	-6.83
291.079	-12.97
291.294	-70.31
291.509	25.94
291.724	-21.16
291.938	17.75
292.153	-27.31
292.368	-17.07
292.583	7.51
292.798	21.84
293.012	32.08
293.227	21.84
293.442	-4.78
293.657	-31.4
293.871	44.37
294.086	1.37
294.301	93.52
294.516	9.56
294.73	50.52
294.945	-29.35
295.16	-29.35
295.374	-10.92
295.589	17.75
295.804	42.32
296.018	-12.97
296.233	44.37
296.447	5.46
296.662	-31.4
296.877	44.37
297.091	30.04
297.306	25.94
297.52	-15.02
297.735	54.61
297.949	34.13
298.164	75.09
298.378	25.94
298.593	38.23
298.807	60.76
299.022	-10.92
299.236	60.76
299.451	-47.79
299.665	-4.78
299.88	21.84
300.094	17.75
300.309	23.89
300.523	40.28
300.737	13.65
300.952	19.8
301.166	19.8
301.381	1.37
301.595	81.24
301.809	58.71
302.024	-45.74
302.238	7.51
302.452	52.56
302.667	68.95
302.881	-60.07
303.095	73.04
303.309	-27.31
303.524	23.89
303.738	21.84
303.952	23.89
304.166	62.8
304.381	-51.88
304.595	1.37
304.809	-37.55
305.023	68.95
305.237	-111.27
305.452	-21.16
305.666	42.32
305.88	-25.26
306.094	19.8
306.308	-6.83
306.522	5.46
306.736	25.94
306.95	-8.87
307.164	38.23
307.379	25.94
307.593	44.37
307.807	48.47
308.021	52.56
308.235	17.75
308.449	5.46
308.663	-27.31
308.877	3.41
309.091	42.32
309.305	79.19
309.519	-49.83
309.733	75.09
309.947	48.47
310.161	-0.68
310.374	-33.45
310.588	3.41
310.802	-74.41
311.016	-21.16
311.23	-23.21
311.444	-68.27
311.658	52.56
311.872	-8.87
312.085	-29.35
312.299	13.65
312.513	21.84
312.727	34.13
312.941	-43.69
313.154	11.61
313.368	30.04
313.582	-12.97
313.796	3.41
314.009	-17.07
314.223	-15.02
314.437	103.76
314.651	19.8
314.864	30.04
315.078	-47.79
315.292	32.08
315.505	-41.64
315.719	83.28
315.933	-4.78
316.146	42.32
316.36	-37.55
316.573	73.04
316.787	64.85
317.001	-6.83
317.214	30.04
317.428	60.76
317.641	-2.73
317.855	-6.83
318.068	52.56
318.282	42.32
318.495	-8.87
318.709	50.52
318.922	9.56
319.136	58.71
319.349	46.42
319.563	44.37
319.776	-21.16
319.99	25.94
320.203	-21.16
320.417	-17.07
320.63	30.04
320.843	-33.45
321.057	66.9
321.27	79.19
321.483	-33.45
321.697	25.94
321.91	17.75
322.124	34.13
322.337	36.18
322.55	-10.92
322.763	42.32
322.977	19.8
323.19	11.61
323.403	79.19
323.617	5.46
323.83	-25.26
324.043	3.41
324.256	27.99
324.469	-19.11
324.683	56.66
324.896	38.23
325.109	-12.97
325.322	-23.21
325.535	-6.83
325.748	3.41
325.962	-64.17
326.175	11.61
326.388	48.47
326.601	34.13
326.814	34.13
327.027	32.08
327.24	-23.21
327.453	-64.17
327.666	-21.16
327.879	46.42
328.092	58.71
328.305	9.56
328.518	15.7
328.731	5.46
328.944	1.37
329.157	46.42
329.37	1.37
329.583	114
329.796	7.51
330.009	-72.36
330.222	66.9
330.435	-21.16
330.648	60.76
330.861	60.76
331.073	23.89
331.286	48.47
331.499	19.8
331.712	40.28
331.925	66.9
332.138	-19.11
332.35	46.42
332.563	-25.26
332.776	77.14
332.989	-23.21
333.202	-53.93
333.414	-29.35
333.627	42.32
333.84	19.8
334.053	-15.02
334.265	-45.74
334.478	62.8
334.691	7.51
334.903	-4.78
335.116	13.65
335.329	-39.59
335.541	-43.69
335.754	58.71
335.966	-41.64
336.179	-43.69
336.392	68.95
336.604	44.37
336.817	66.9
337.029	5.46
337.242	1.37
337.454	52.56
337.667	91.48
337.88	23.89
338.092	25.94
338.305	-6.83
338.517	36.18
338.729	46.42
338.942	25.94
339.154	19.8
339.367	15.7
339.579	-0.68
339.792	-47.79
340.004	23.89
340.217	-45.74
340.429	-2.73
340.641	-23.21
340.854	30.04
341.066	11.61
341.278	-4.78
341.491	17.75
341.703	-21.16
341.915	13.65
342.128	-62.12
342.34	-51.88
342.552	56.66
342.764	5.46
342.977	75.09
343.189	-25.26
343.401	15.7
343.613	11.61
343.826	15.7
344.038	-35.5
344.25	58.71
344.462	13.65
344.674	13.65
344.886	48.47
345.099	17.75
345.311	62.8
345.523	-4.78
345.735	7.51
345.947	-25.26
346.159	-8.87
346.371	9.56
346.583	32.08
346.795	50.52
347.007	23.89
347.219	40.28
347.431	-17.07
347.643	50.52
347.855	-10.92
348.067	13.65
348.279	-39.59
348.491	-31.4
348.703	-8.87
348.915	17.75
349.127	-27.31
349.339	52.56
349.551	25.94
349.763	-41.64
349.975	34.13
350.187	15.7
350.399	48.47
350.61	81.24
350.822	66.9
351.034	5.46
351.246	27.99
351.458	73.04
351.669	50.52
351.881	21.84
352.093	23.89
352.305	-25.26
352.517	114
352.728	62.8
352.94	-25.26
353.152	5.46
353.363	5.46
353.575	34.13
353.787	-45.74
353.999	23.89
354.21	7.51
354.422	62.8
354.633	-37.55
354.845	13.65
355.057	-27.31
355.268	13.65
355.48	23.89
355.692	-31.4
355.903	75.09
356.115	-23.21
356.326	-27.31
356.538	-4.78
356.749	-0.68
356.961	30.04
357.172	75.09
357.384	-15.02
357.595	71
357.807	-41.64
358.018	-55.98
358.23	64.85
358.441	89.43
358.653	-2.73
358.864	-8.87
359.075	-17.07
359.287	50.52
359.498	-6.83
359.709	15.7
359.921	1.37
360.132	75.09
360.344	5.46
360.555	-0.68
360.766	40.28
360.977	48.47
361.189	89.43
361.4	71
361.611	-64.17
361.823	-8.87
362.034	7.51
362.245	-37.55
362.456	54.61
362.667	64.85
362.879	42.32
363.09	-76.46
363.301	38.23
363.512	21.84
363.723	5.46
363.935	75.09
364.146	54.61
364.357	23.89
364.568	-41.64
364.779	-62.12
364.99	79.19
365.201	-43.69
365.412	56.66
365.623	-8.87
365.834	40.28
366.045	3.41
366.256	91.48
366.467	46.42
366.678	38.23
366.889	21.84
367.1	62.8
367.311	-29.35
367.522	54.61
367.733	-6.83
367.944	40.28
368.155	-4.78
368.366	5.46
368.577	-43.69
368.788	25.94
368.999	30.04
369.209	3.41
369.42	97.62
369.631	66.9
369.842	-2.73
370.053	30.04
370.264	60.76
370.474	-27.31
370.685	-4.78
370.896	48.47
371.107	11.61
371.317	27.99
371.528	54.61
371.739	95.57
371.95	5.46
372.16	7.51
372.371	-33.45
372.582	-15.02
372.792	3.41
373.003	107.86
373.214	-29.35
373.424	71
373.635	-29.35
373.846	50.52
374.056	46.42
374.267	132.44
374.477	111.96
374.688	-17.07
374.898	-19.11
375.109	50.52
375.319	-23.21
375.53	21.84
375.74	-25.26
375.951	-64.17
376.161	60.76
376.372	27.99
376.582	-62.12
376.793	7.51
377.003	-0.68
377.214	25.94
377.424	5.46
377.635	44.37
377.845	38.23
378.055	-29.35
378.266	-33.45
378.476	-17.07
378.686	34.13
378.897	58.71
379.107	7.51
379.317	3.41
379.528	56.66
379.738	-0.68
379.948	-84.65
380.158	75.09
380.369	19.8
380.579	1.37
380.789	48.47
380.999	77.14
381.21	40.28
381.42	56.66
381.63	40.28
381.84	27.99
382.05	56.66
382.261	44.37
382.471	73.04
382.681	11.61
382.891	25.94
383.101	7.51
383.311	-2.73
383.521	-31.4
383.731	5.46
383.941	66.9
384.151	-4.78
384.361	-12.97
384.571	38.23
384.781	13.65
384.991	30.04
385.201	32.08
385.411	89.43
385.621	52.56
385.831	19.8
386.041	-8.87
386.251	44.37
386.461	48.47
386.671	-27.31
386.881	11.61
387.091	107.86
387.301	30.04
387.511	77.14
387.72	-60.07
387.93	34.13
388.14	71
388.35	73.04
388.56	7.51
388.769	95.57
388.979	-2.73
389.189	-80.55
389.399	46.42
389.609	46.42
389.818	17.75
390.028	89.43
390.238	-58.03
390.447	1.37
390.657	9.56
390.867	5.46
391.076	-25.26
391.286	5.46
391.496	36.18
391.705	109.91
391.915	42.32
392.125	64.85
392.334	23.89
392.544	77.14
392.753	-39.59
392.963	-51.88
393.172	30.04
393.382	5.46
393.591	62.8
393.801	-19.11
394.01	27.99
394.22	52.56
394.429	17.75
394.639	-35.5
394.848	79.19
395.058	40.28
395.267	17.75
395.477	17.75
395.686	-8.87
395.895	116.05
396.105	103.76
396.314	30.04
396.524	15.7
396.733	40.28
396.942	30.04
397.152	32.08
397.361	111.96
397.57	50.52
397.78	48.47
397.989	71
398.198	-8.87
398.407	58.71
398.617	-0.68
398.826	75.09
399.035	95.57
399.244	120.15
399.453	11.61
399.663	13.65
399.872	83.28
400.081	34.13
400.29	62.8
400.499	-25.26
400.708	54.61
400.917	40.28
401.127	73.04
401.336	32.08
401.545	48.47
401.754	21.84
401.963	25.94
402.172	40.28
402.381	62.8
402.59	11.61
402.799	114
403.008	95.57
403.217	93.52
403.426	44.37
403.635	89.43
403.844	48.47
404.053	44.37
404.262	120.15
404.471	101.72
404.68	136.53
404.888	42.32
405.097	50.52
405.306	116.05
405.515	89.43
405.724	34.13
405.933	79.19
406.142	56.66
406.35	99.67
406.559	68.95
406.768	87.38
406.977	120.15
407.185	109.91
407.394	111.96
407.603	58.71
407.812	111.96
408.02	179.54
408.229	103.76
408.438	109.91
408.646	105.81
408.855	169.3
409.064	128.34
409.272	140.63
409.481	181.59
409.69	136.53
409.898	148.82
410.107	122.2
410.315	177.49
410.524	107.86
410.733	193.87
410.941	187.73
411.15	181.59
411.358	288.08
411.567	249.17
411.775	236.88
411.984	195.92
412.192	236.88
412.401	306.51
412.609	243.03
412.818	238.93
413.026	259.41
413.234	275.79
413.443	304.46
413.651	310.61
413.86	288.08
414.068	404.82
414.276	382.29
414.485	337.23
414.693	343.38
414.901	337.23
415.11	314.7
415.318	382.29
415.526	343.38
415.734	433.49
415.943	490.83
416.151	435.53
416.359	476.49
416.567	515.41
416.776	494.93
416.984	486.73
417.192	519.5
417.4	519.5
417.608	546.12
417.817	537.93
418.025	664.91
418.233	681.29
418.441	648.52
418.649	673.1
418.857	703.82
419.065	793.93
419.273	730.44
419.481	707.91
419.689	757.07
419.897	904.52
420.105	865.61
420.313	908.62
420.521	830.79
420.729	943.43
420.937	968.01
421.145	949.57
421.353	1031.49
421.561	1070.4
421.769	1092.93
421.977	1234.24
422.185	1121.6
422.393	1244.48
422.601	1336.64
422.809	1346.88
423.017	1254.72
423.224	1381.7
423.432	1418.56
423.64	1445.18
423.848	1606.97
424.056	1545.53
424.263	1703.23
424.471	1639.74
424.679	1635.64
424.887	1658.17
425.094	1815.87
425.302	1738.04
425.51	1934.65
425.718	1953.08
425.925	1893.69
426.133	1983.8
426.341	2086.2
426.548	2340.15
426.756	2231.6
426.964	2194.74
427.171	2473.26
427.379	2438.45
427.586	2592.05
427.794	2651.44
428.001	2678.06
428.209	2856.23
428.417	2757.93
428.624	3048.74
428.832	2932.01
429.039	2981.16
429.247	2997.54
429.454	3317.03
429.662	3472.67
429.869	3253.54
430.076	3511.58
430.284	3376.42
430.491	3468.58
430.699	3689.76
430.906	3566.88
431.114	3843.35
431.321	3849.5
431.528	3917.08
431.736	4306.2
431.943	4326.68
432.15	4257.04
432.358	4420.88
432.565	4490.51
432.772	4506.9
432.979	4900.11
433.187	4883.72
433.394	5031.18
433.601	5059.85
433.808	5233.93
434.016	5125.38
434.223	5293.32
434.43	5778.69
434.637	5666.05
434.844	6014.2
435.052	6163.7
435.259	6098.17
435.466	6067.45
435.673	5969.15
435.88	6382.84
436.087	6778.09
436.294	6630.64
436.501	6616.3
436.708	6698.22
436.915	6898.92
437.122	7189.74
437.329	7300.33
437.537	7640.29
437.743	7566.56
437.95	7605.47
438.157	7924.96
438.364	8068.31
438.571	8146.14
438.778	8195.29
438.985	8948.94
439.192	8535.25
439.399	8912.08
439.606	8711.38
439.813	9256.14
440.02	9477.32
440.227	9725.12
440.433	9471.17
440.64	9653.44
440.847	9764.03
441.054	10042.56
441.261	10695.86
441.467	10544.31
441.674	10624.18
441.881	11150.51
442.088	11058.35
442.294	11209.9
442.501	11257
442.708	11670.69
442.914	11904.16
443.121	12514.45
443.328	12250.27
443.534	12905.62
443.741	12577.94
443.948	12364.95
444.154	13233.29
444.361	13251.72
444.568	13450.38
444.774	13411.46
444.981	13567.11
445.187	13816.96
445.394	14367.87
445.6	14318.71
445.807	15553.64
446.013	15260.78
446.22	15426.67
446.426	15834.21
446.633	16024.67
446.839	16710.74
447.046	15948.9
447.252	16647.26
447.459	16860.24
447.665	16602.2
447.871	17265.74
448.078	18070.59
448.284	17439.82
448.491	17607.75
448.697	18717.75
448.903	18930.74
449.11	18574.39
449.316	18533.43
449.522	18889.78
449.728	19145.78
449.935	19563.56
450.141	19659.82
450.347	19901.48
450.553	19217.46
450.76	19397.68
450.966	20155.43
451.172	19864.61
451.378	20462.62
451.584	19794.98
451.791	20548.64
451.997	20382.75
452.203	20622.36
452.409	20450.33
452.615	20556.83
452.821	19778.6
453.027	19629.1
453.233	20499.48
453.44	19645.48
453.646	20141.09
453.852	20241.44
454.058	20589.6
454.264	19698.73
454.47	20147.23
454.676	19780.65
454.882	20454.43
455.088	18885.69
455.294	18746.42
455.5	18928.69
455.705	19289.13
455.911	18656.31
456.117	18015.3
456.323	17925.19
456.529	16944.21
456.735	17718.34
456.941	16940.11
457.147	16884.82
457.352	16569.43
457.558	16262.24
457.764	16260.19
457.97	16026.72
458.176	15686.76
458.381	15750.24
458.587	14703.73
458.793	14929.01
458.999	14265.47
459.204	15125.61
459.41	14720.12
459.616	13730.95
459.821	13788.29
460.027	13679.75
460.233	13497.48
460.438	12706.96
460.644	13149.32
460.85	12092.57
461.055	12108.96
461.261	11877.54
461.466	11207.85
461.672	11037.87
461.878	11558.05
462.083	10798.26
462.289	10585.27
462.494	10489.01
462.7	10028.22
462.905	9874.62
463.111	10130.62
463.316	10136.76
463.522	10134.71
463.727	10060.99
463.932	9843.9
464.138	9921.73
464.343	9747.65
464.549	9563.33
464.754	10013.88
464.959	9661.63
465.165	9778.37
465.37	9518.28
465.575	8965.32
465.781	9489.6
465.986	9567.43
466.191	9196.74
466.397	8881.36
466.602	8721.62
466.807	8946.89
467.012	9024.72
467.218	8844.49
467.423	8701.14
467.628	8733.9
467.833	8928.46
