Data from USB4F104151__48__11-05-37-269.txt Node

Date: Wed Mar 12 11:05:37 EDT 2025
User: louis
Spectrometer: USB4F10415
Trigger mode: 4
Integration Time (sec): 2.000000E-2
Scans to average: 1
Electric dark correction enabled: true
Nonlinearity correction enabled: false
Boxcar width: 0
XAxis mode: Wavelengths
Number of Pixels in Spectrum: 3648
>>>>>Begin Spectral Data<<<<<
178.204	-0
178.424	-0
178.644	-0
178.864	-104.45
179.084	-47.1
179.304	-14.34
179.524	-67.58
179.744	-43.01
179.964	8.19
180.184	18.43
180.404	2.05
180.624	10.24
180.844	36.86
181.064	-32.77
181.283	55.3
181.503	-6.14
181.723	32.77
181.943	-14.34
182.163	79.87
182.383	-10.24
182.602	34.82
182.822	-16.38
183.042	47.1
183.262	24.58
183.482	71.68
183.701	-8.19
183.921	38.91
184.141	69.63
184.361	26.62
184.58	98.3
184.8	16.38
185.02	24.58
185.239	55.3
185.459	71.68
185.679	79.87
185.898	20.48
186.118	104.45
186.338	-6.14
186.557	34.82
186.777	10.24
186.997	36.86
187.216	43.01
187.436	94.21
187.655	71.68
187.875	-8.19
188.095	32.77
188.314	8.19
188.534	36.86
188.753	51.2
188.973	30.72
189.192	77.82
189.412	-45.06
189.631	32.77
189.851	16.38
190.07	86.01
190.29	-53.25
190.509	12.29
190.729	32.77
190.948	-6.14
191.168	53.25
191.387	20.48
191.607	20.48
191.826	16.38
192.045	24.58
192.265	49.15
192.484	67.58
192.704	-22.53
192.923	-49.15
193.142	-2.05
193.362	51.2
193.581	-45.06
193.8	90.11
194.02	-0
194.239	28.67
194.458	-34.82
194.678	22.53
194.897	43.01
195.116	34.82
195.335	-83.97
195.555	26.62
195.774	59.39
195.993	49.15
196.212	22.53
196.432	-38.91
196.651	-34.82
196.87	4.1
197.089	61.44
197.308	75.77
197.528	45.06
197.747	4.1
197.966	47.1
198.185	26.62
198.404	-47.1
198.623	4.1
198.842	16.38
199.062	24.58
199.281	-2.05
199.5	-10.24
199.719	81.92
199.938	-0
200.157	71.68
200.376	22.53
200.595	55.3
200.814	-20.48
201.033	71.68
201.252	16.38
201.471	16.38
201.69	53.25
201.909	47.1
202.128	102.4
202.347	-20.48
202.566	63.49
202.785	2.05
203.004	12.29
203.223	55.3
203.442	131.07
203.661	-26.62
203.879	20.48
204.098	-8.19
204.317	-4.1
204.536	96.25
204.755	-83.97
204.974	83.97
205.193	2.05
205.411	102.4
205.63	30.72
205.849	36.86
206.068	79.87
206.287	22.53
206.505	30.72
206.724	55.3
206.943	18.43
207.162	83.97
207.381	16.38
207.599	32.77
207.818	14.34
208.037	65.53
208.255	-16.38
208.474	71.68
208.693	18.43
208.911	-28.67
209.13	-24.58
209.349	-4.1
209.567	8.19
209.786	36.86
210.005	73.73
210.223	10.24
210.442	-63.49
210.661	45.06
210.879	-61.44
211.098	71.68
211.316	12.29
211.535	-36.86
211.753	14.34
211.972	131.07
212.191	-30.72
212.409	28.67
212.628	24.58
212.846	47.1
213.065	14.34
213.283	55.3
213.502	-18.43
213.72	36.86
213.938	30.72
214.157	-73.73
214.375	45.06
214.594	55.3
214.812	4.1
215.031	12.29
215.249	-16.38
215.467	-45.06
215.686	57.34
215.904	38.91
216.122	-20.48
216.341	94.21
216.559	-22.53
216.778	67.58
216.996	-0
217.214	-0
217.432	-32.77
217.651	-45.06
217.869	65.53
218.087	8.19
218.306	-34.82
218.524	73.73
218.742	-67.58
218.96	83.97
219.179	-45.06
219.397	20.48
219.615	14.34
219.833	51.2
220.051	4.1
220.27	79.87
220.488	12.29
220.706	67.58
220.924	83.97
221.142	-30.72
221.36	-20.48
221.578	16.38
221.796	8.19
222.015	4.1
222.233	12.29
222.451	83.97
222.669	14.34
222.887	83.97
223.105	92.16
223.323	-47.1
223.541	-55.3
223.759	112.64
223.977	12.29
224.195	63.49
224.413	88.06
224.631	10.24
224.849	-12.29
225.067	100.35
225.285	38.91
225.503	-18.43
225.721	-14.34
225.939	63.49
226.157	22.53
226.375	98.3
226.592	-32.77
226.81	24.58
227.028	-12.29
227.246	-65.54
227.464	4.1
227.682	40.96
227.9	24.58
228.117	-16.38
228.335	34.82
228.553	14.34
228.771	12.29
228.989	-32.77
229.206	-32.77
229.424	22.53
229.642	34.82
229.86	6.14
230.077	69.63
230.295	43.01
230.513	69.63
230.731	96.25
230.948	-8.19
231.166	26.62
231.384	53.25
231.601	-2.05
231.819	-36.86
232.037	61.44
232.254	45.06
232.472	-18.43
232.689	40.96
232.907	57.34
233.125	14.34
233.342	8.19
233.56	2.05
233.777	-2.05
233.995	28.67
234.213	69.63
234.43	69.63
234.648	40.96
234.865	-12.29
235.083	-40.96
235.3	-16.38
235.518	40.96
235.735	34.82
235.953	96.25
236.17	88.06
236.388	-18.43
236.605	22.53
236.822	-26.62
237.04	22.53
237.257	59.39
237.475	28.67
237.692	49.15
237.909	-4.1
238.127	51.2
238.344	75.77
238.562	73.73
238.779	-10.24
238.996	22.53
239.214	6.14
239.431	81.92
239.648	26.62
239.865	77.82
240.083	14.34
240.3	65.53
240.517	-8.19
240.735	81.92
240.952	81.92
241.169	55.3
241.386	2.05
241.603	59.39
241.821	49.15
242.038	24.58
242.255	65.53
242.472	-0
242.689	55.3
242.907	43.01
243.124	53.25
243.341	-10.24
243.558	18.43
243.775	26.62
243.992	24.58
244.209	-69.63
244.426	-16.38
244.643	75.77
244.86	26.62
245.078	57.34
245.295	-36.86
245.512	-34.82
245.729	10.24
245.946	12.29
246.163	-4.1
246.38	14.34
246.597	24.58
246.814	-10.24
247.031	-4.1
247.248	-32.77
247.464	36.86
247.681	30.72
247.898	73.73
248.115	51.2
248.332	-4.1
248.549	4.1
248.766	10.24
248.983	18.43
249.2	28.67
249.417	30.72
249.633	28.67
249.85	18.43
250.067	-6.14
250.284	55.3
250.501	-2.05
250.717	92.16
250.934	57.34
251.151	2.05
251.368	86.01
251.585	61.44
251.801	67.58
252.018	-12.29
252.235	32.77
252.451	34.82
252.668	30.72
252.885	2.05
253.102	-10.24
253.318	38.91
253.535	10.24
253.752	-12.29
253.968	-22.53
254.185	57.34
254.401	-14.34
254.618	20.48
254.835	8.19
255.051	77.82
255.268	69.63
255.484	104.45
255.701	51.2
255.917	45.06
256.134	-2.05
256.351	94.21
256.567	45.06
256.784	-24.58
257	71.68
257.217	73.73
257.433	-8.19
257.65	43.01
257.866	-26.62
258.082	16.38
258.299	-24.58
258.515	81.92
258.732	34.82
258.948	16.38
259.165	6.14
259.381	8.19
259.597	22.53
259.814	12.29
260.03	16.38
260.246	18.43
260.463	-6.14
260.679	-6.14
260.895	2.05
261.112	18.43
261.328	45.06
261.544	36.86
261.761	45.06
261.977	40.96
262.193	-28.67
262.409	-30.72
262.626	36.86
262.842	28.67
263.058	43.01
263.274	81.92
263.49	57.34
263.707	6.14
263.923	65.53
264.139	-34.82
264.355	57.34
264.571	83.97
264.787	30.72
265.004	16.38
265.22	32.77
265.436	18.43
265.652	79.87
265.868	65.53
266.084	12.29
266.3	61.44
266.516	-69.63
266.732	-8.19
266.948	-6.14
267.164	102.4
267.38	61.44
267.596	4.1
267.812	106.49
268.028	75.77
268.244	14.34
268.46	24.58
268.676	-20.48
268.892	30.72
269.108	-0
269.324	4.1
269.54	22.53
269.756	-16.38
269.972	-2.05
270.188	26.62
270.403	16.38
270.619	36.86
270.835	49.15
271.051	8.19
271.267	88.06
271.483	86.01
271.698	6.14
271.914	-10.24
272.13	86.01
272.346	-8.19
272.562	-45.06
272.777	16.38
272.993	-8.19
273.209	43.01
273.425	38.91
273.64	-22.53
273.856	94.21
274.072	45.06
274.287	4.1
274.503	18.43
274.719	34.82
274.934	26.62
275.15	-38.91
275.366	-45.06
275.581	-6.14
275.797	40.96
276.012	10.24
276.228	92.16
276.444	-0
276.659	49.15
276.875	32.77
277.09	65.53
277.306	65.53
277.521	-0
277.737	-0
277.952	-0
278.168	10.24
278.383	-26.62
278.599	55.3
278.814	-16.38
279.03	38.91
279.245	75.77
279.461	75.77
279.676	49.15
279.892	-8.19
280.107	28.67
280.322	-26.62
280.538	-4.1
280.753	16.38
280.969	34.82
281.184	24.58
281.399	8.19
281.615	83.97
281.83	28.67
282.045	-16.38
282.26	4.1
282.476	32.77
282.691	81.92
282.906	22.53
283.122	49.15
283.337	75.77
283.552	8.19
283.767	8.19
283.983	34.82
284.198	14.34
284.413	24.58
284.628	-34.82
284.843	43.01
285.058	36.86
285.274	47.1
285.489	28.67
285.704	2.05
285.919	-36.86
286.134	-34.82
286.349	12.29
286.564	59.39
286.779	-12.29
286.995	28.67
287.21	6.14
287.425	53.25
287.64	-2.05
287.855	-26.62
288.07	-49.15
288.285	22.53
288.5	57.34
288.715	83.97
288.93	59.39
289.145	22.53
289.36	24.58
289.575	14.34
289.79	-16.38
290.004	43.01
290.219	45.06
290.434	24.58
290.649	-4.1
290.864	32.77
291.079	12.29
291.294	18.43
291.509	-16.38
291.724	-49.15
291.938	14.34
292.153	55.3
292.368	-4.1
292.583	10.24
292.798	75.77
293.012	36.86
293.227	38.91
293.442	-47.1
293.657	49.15
293.871	24.58
294.086	-4.1
294.301	55.3
294.516	61.44
294.73	30.72
294.945	20.48
295.16	-12.29
295.374	79.87
295.589	14.34
295.804	8.19
296.018	14.34
296.233	71.68
296.447	40.96
296.662	26.62
296.877	-12.29
297.091	20.48
297.306	32.77
297.52	-2.05
297.735	-2.05
297.949	-18.43
298.164	55.3
298.378	69.63
298.593	4.1
298.807	77.82
299.022	81.92
299.236	86.01
299.451	-18.43
299.665	-18.43
299.88	10.24
300.094	102.4
300.309	-16.38
300.523	32.77
300.737	28.67
300.952	-24.58
301.166	32.77
301.381	36.86
301.595	14.34
301.809	16.38
302.024	-18.43
302.238	18.43
302.452	14.34
302.667	6.14
302.881	57.34
303.095	69.63
303.309	20.48
303.524	-0
303.738	-10.24
303.952	26.62
304.166	16.38
304.381	-22.53
304.595	53.25
304.809	-6.14
305.023	59.39
305.237	36.86
305.452	8.19
305.666	73.73
305.88	10.24
306.094	20.48
306.308	81.92
306.522	61.44
306.736	43.01
306.95	-6.14
307.164	59.39
307.379	32.77
307.593	77.82
307.807	51.2
308.021	59.39
308.235	-36.86
308.449	8.19
308.663	24.58
308.877	163.84
309.091	12.29
309.305	69.63
309.519	-4.1
309.733	75.77
309.947	10.24
310.161	65.53
310.374	30.72
310.588	14.34
310.802	14.34
311.016	-45.06
311.23	118.78
311.444	-8.19
311.658	65.53
311.872	38.91
312.085	36.86
312.299	77.82
312.513	36.86
312.727	10.24
312.941	-4.1
313.154	30.72
313.368	32.77
313.582	55.3
313.796	57.34
314.009	65.53
314.223	53.25
314.437	26.62
314.651	108.54
314.864	-16.38
315.078	-28.67
315.292	86.01
315.505	77.82
315.719	45.06
315.933	8.19
316.146	-32.77
316.36	65.53
316.573	36.86
316.787	14.34
317.001	18.43
317.214	-28.67
317.428	67.58
317.641	-88.06
317.855	26.62
318.068	30.72
318.282	8.19
318.495	83.97
318.709	-16.38
318.922	38.91
319.136	165.89
319.349	20.48
319.563	92.16
319.776	67.58
319.99	-22.53
320.203	-30.72
320.417	-18.43
320.63	-16.38
320.843	26.62
321.057	-18.43
321.27	-4.1
321.483	45.06
321.697	57.34
321.91	26.62
322.124	-16.38
322.337	-36.86
322.55	22.53
322.763	71.68
322.977	57.34
323.19	36.86
323.403	-12.29
323.617	83.97
323.83	86.01
324.043	-28.67
324.256	-2.05
324.469	-14.34
324.683	122.88
324.896	73.73
325.109	12.29
325.322	24.58
325.535	-0
325.748	-20.48
325.962	67.58
326.175	26.62
326.388	49.15
326.601	32.77
326.814	-32.77
327.027	-32.77
327.24	114.69
327.453	-36.86
327.666	22.53
327.879	24.58
328.092	43.01
328.305	10.24
328.518	-79.87
328.731	-40.96
328.944	90.11
329.157	6.14
329.37	6.14
329.583	55.3
329.796	12.29
330.009	-10.24
330.222	83.97
330.435	32.77
330.648	51.2
330.861	88.06
331.073	53.25
331.286	16.38
331.499	71.68
331.712	-22.53
331.925	67.58
332.138	20.48
332.35	65.53
332.563	65.53
332.776	71.68
332.989	10.24
333.202	65.53
333.414	2.05
333.627	-6.14
333.84	49.15
334.053	-8.19
334.265	-36.86
334.478	-12.29
334.691	6.14
334.903	40.96
335.116	-4.1
335.329	-34.82
335.541	26.62
335.754	57.34
335.966	43.01
336.179	104.45
336.392	34.82
336.604	94.21
336.817	-14.34
337.029	18.43
337.242	77.82
337.454	71.68
337.667	28.67
337.88	36.86
338.092	8.19
338.305	28.67
338.517	59.39
338.729	32.77
338.942	86.01
339.154	40.96
339.367	-26.62
339.579	55.3
339.792	77.82
340.004	51.2
340.217	32.77
340.429	4.1
340.641	-0
340.854	-8.19
341.066	4.1
341.278	34.82
341.491	90.11
341.703	51.2
341.915	61.44
342.128	4.1
342.34	32.77
342.552	16.38
342.764	40.96
342.977	8.19
343.189	110.59
343.401	108.54
343.613	-18.43
343.826	79.87
344.038	4.1
344.25	120.83
344.462	-40.96
344.674	20.48
344.886	67.58
345.099	55.3
345.311	14.34
345.523	4.1
345.735	-26.62
345.947	-2.05
346.159	102.4
346.371	10.24
346.583	65.53
346.795	90.11
347.007	65.53
347.219	67.58
347.431	43.01
347.643	8.19
347.855	100.35
348.067	14.34
348.279	2.05
348.491	6.14
348.703	57.34
348.915	12.29
349.127	12.29
349.339	-12.29
349.551	-38.91
349.763	79.87
349.975	28.67
350.187	47.1
350.399	43.01
350.61	69.63
350.822	22.53
351.034	71.68
351.246	34.82
351.458	38.91
351.669	73.73
351.881	-4.1
352.093	77.82
352.305	26.62
352.517	8.19
352.728	104.45
352.94	14.34
353.152	-2.05
353.363	57.34
353.575	94.21
353.787	59.39
353.999	36.86
354.21	-2.05
354.422	32.77
354.633	18.43
354.845	-30.72
355.057	-24.58
355.268	92.16
355.48	26.62
355.692	86.01
355.903	10.24
356.115	-28.67
356.326	73.73
356.538	40.96
356.749	36.86
356.961	73.73
357.172	30.72
357.384	65.53
357.595	40.96
357.807	49.15
358.018	51.2
358.23	12.29
358.441	47.1
358.653	24.58
358.864	24.58
359.075	30.72
359.287	45.06
359.498	40.96
359.709	32.77
359.921	92.16
360.132	26.62
360.344	69.63
360.555	12.29
360.766	12.29
360.977	12.29
361.189	79.87
361.4	-57.34
361.611	32.77
361.823	20.48
362.034	28.67
362.245	77.82
362.456	102.4
362.667	34.82
362.879	-0
363.09	75.77
363.301	16.38
363.512	-36.86
363.723	55.3
363.935	45.06
364.146	38.91
364.357	12.29
364.568	98.3
364.779	106.49
364.99	40.96
365.201	47.1
365.412	51.2
365.623	-8.19
365.834	24.58
366.045	88.06
366.256	36.86
366.467	2.05
366.678	20.48
366.889	20.48
367.1	49.15
367.311	53.25
367.522	55.3
367.733	51.2
367.944	6.14
368.155	28.67
368.366	38.91
368.577	36.86
368.788	-8.19
368.999	65.53
369.209	26.62
369.42	102.4
369.631	38.91
369.842	32.77
370.053	126.97
370.264	36.86
370.474	43.01
370.685	26.62
370.896	51.2
371.107	49.15
371.317	69.63
371.528	-30.72
371.739	24.58
371.95	90.11
372.16	69.63
372.371	43.01
372.582	40.96
372.792	16.38
373.003	-4.1
373.214	10.24
373.424	61.44
373.635	38.91
373.846	-8.19
374.056	100.35
374.267	116.73
374.477	49.15
374.688	20.48
374.898	59.39
375.109	20.48
375.319	34.82
375.53	10.24
375.74	63.49
375.951	36.86
376.161	-47.1
376.372	47.1
376.582	-0
376.793	28.67
377.003	-26.62
377.214	98.3
377.424	61.44
377.635	-0
377.845	57.34
378.055	147.45
378.266	57.34
378.476	14.34
378.686	22.53
378.897	49.15
379.107	24.58
379.317	34.82
379.528	-16.38
379.738	49.15
379.948	-26.62
380.158	71.68
380.369	86.01
380.579	34.82
380.789	40.96
380.999	112.64
381.21	112.64
381.42	94.21
381.63	12.29
381.84	32.77
382.05	2.05
382.261	45.06
382.471	71.68
382.681	-10.24
382.891	63.49
383.101	112.64
383.311	-22.53
383.521	-24.58
383.731	63.49
383.941	-12.29
384.151	81.92
384.361	16.38
384.571	51.2
384.781	36.86
384.991	94.21
385.201	51.2
385.411	59.39
385.621	-0
385.831	-67.58
386.041	43.01
386.251	-36.86
386.461	26.62
386.671	65.53
386.881	47.1
387.091	94.21
387.301	32.77
387.511	94.21
387.72	47.1
387.93	83.97
388.14	24.58
388.35	45.06
388.56	61.44
388.769	79.87
388.979	65.53
389.189	-4.1
389.399	83.97
389.609	36.86
389.818	96.25
390.028	47.1
390.238	10.24
390.447	2.05
390.657	61.44
390.867	28.67
391.076	18.43
391.286	104.45
391.496	61.44
391.705	28.67
391.915	71.68
392.125	51.2
392.334	98.3
392.544	75.77
392.753	59.39
392.963	53.25
393.172	135.17
393.382	8.19
393.591	28.67
393.801	63.49
394.01	126.97
394.22	65.53
394.429	36.86
394.639	10.24
394.848	57.34
395.058	-8.19
395.267	73.73
395.477	4.1
395.686	65.53
395.895	112.64
396.105	133.12
396.314	104.45
396.524	40.96
396.733	12.29
396.942	2.05
397.152	129.02
397.361	108.54
397.57	34.82
397.78	83.97
397.989	69.63
398.198	22.53
398.407	57.34
398.617	88.06
398.826	-20.48
399.035	108.54
399.244	57.34
399.453	143.36
399.663	49.15
399.872	63.49
400.081	88.06
400.29	69.63
400.499	40.96
400.708	202.75
400.917	98.3
401.127	47.1
401.336	67.58
401.545	92.16
401.754	122.88
401.963	86.01
402.172	147.45
402.381	94.21
402.59	102.4
402.799	188.41
403.008	100.35
403.217	65.53
403.426	98.3
403.635	26.62
403.844	124.93
404.053	149.5
404.262	81.92
404.471	135.17
404.68	131.07
404.888	98.3
405.097	88.06
405.306	114.69
405.515	108.54
405.724	124.93
405.933	135.17
406.142	120.83
406.35	196.6
406.559	100.35
406.768	98.3
406.977	180.22
407.185	192.51
407.394	126.97
407.603	163.84
407.812	145.41
408.02	178.17
408.229	143.36
408.438	180.22
408.646	174.08
408.855	118.78
409.064	206.84
409.272	235.52
409.481	280.57
409.69	247.8
409.898	221.18
410.107	258.04
410.315	247.8
410.524	294.91
410.733	278.52
410.941	264.19
411.15	274.43
411.358	286.72
411.567	362.49
411.775	331.77
411.984	251.9
412.192	407.55
412.401	315.39
412.609	350.2
412.818	301.05
413.026	483.32
413.234	391.16
413.443	432.12
413.651	452.6
413.86	403.45
414.068	511.99
414.276	477.18
414.485	450.55
414.693	561.14
414.901	561.14
415.11	628.73
415.318	552.95
415.526	632.82
415.734	667.64
415.943	595.96
416.151	620.53
416.359	665.59
416.567	712.69
416.776	645.11
416.984	772.08
417.192	811
417.4	802.8
417.608	675.83
417.817	774.13
418.025	876.53
418.233	942.07
418.441	798.71
418.649	1007.6
418.857	882.67
419.065	1011.7
419.273	1028.08
419.481	995.31
419.689	1114.09
419.897	1239.02
420.105	1140.72
420.313	1277.93
420.521	1255.4
420.729	1273.84
420.937	1228.78
421.145	1378.28
421.353	1415.15
421.561	1583.08
421.769	1452.01
421.977	1531.88
422.185	1591.27
422.393	1632.23
422.601	1771.49
422.809	1671.14
423.017	1697.77
423.224	1843.17
423.432	1933.28
423.64	1937.38
423.848	2176.99
424.056	2117.6
424.263	2238.43
424.471	2248.67
424.679	2306.01
424.887	2416.6
425.094	2557.91
425.302	2504.67
425.51	2553.82
425.718	2656.22
425.925	2625.5
426.133	2731.99
426.341	2932.69
426.548	3071.95
426.756	3035.09
426.964	3133.39
427.171	3342.28
427.379	3463.12
427.586	3356.62
427.794	3483.59
428.001	3710.92
428.209	3885
428.417	3755.97
428.624	3954.63
428.832	4046.79
429.039	4007.87
429.247	3989.44
429.454	4399.04
429.662	4734.9
429.869	4409.28
430.076	4804.53
430.284	4603.83
430.491	4751.29
430.699	4958.13
430.906	4995
431.114	5013.43
431.321	5302.19
431.528	5332.91
431.736	5846.95
431.943	6066.08
432.15	5742.5
432.358	6045.6
432.565	6170.53
432.772	6375.33
432.979	6655.9
433.187	6629.27
433.394	6539.16
433.601	7016.34
433.808	7186.32
434.016	7118.74
434.223	7589.77
434.43	7950.21
434.637	7622.54
434.844	8200.07
435.052	8277.89
435.259	8296.32
435.466	8533.89
435.673	8382.34
435.88	8976.25
436.087	9408.37
436.294	9271.15
436.501	9219.96
436.708	9324.4
436.915	9590.64
437.122	10104.68
437.329	9957.22
437.537	10272.61
437.743	10518.37
437.95	10475.36
438.157	10968.92
438.364	11118.42
438.571	11212.63
438.778	11274.07
438.985	12375.88
439.192	11824.97
439.399	12429.12
439.606	11986.76
439.813	12693.31
440.02	13569.84
440.227	13143.86
440.433	13094.71
440.64	13770.54
440.847	13553.46
441.054	13750.06
441.261	14862.11
441.467	14327.59
441.674	14952.22
441.881	15462.16
442.088	15226.65
442.294	15240.98
442.501	15642.39
442.708	15927.05
442.914	16613.12
443.121	16940.8
443.328	16895.74
443.534	18061.04
443.741	17327.86
443.948	17032.96
444.154	18613.99
444.361	18263.79
444.568	18458.34
444.774	18556.64
444.981	18773.73
445.187	19322.59
445.394	20029.13
445.6	19603.16
445.807	21726.9
446.013	20764.36
446.22	21053.12
446.426	21718.71
446.633	22081.2
446.839	22593.19
447.046	21823.15
447.252	23094.94
447.459	23082.66
447.665	22857.38
447.871	24073.87
448.078	24751.75
448.284	24069.78
448.491	24491.66
448.697	25661.05
448.903	25687.67
449.11	25804.41
449.316	25388.67
449.522	25915
449.728	26488.43
449.935	26660.46
450.141	26689.13
450.347	27471.45
450.553	26517.1
450.76	26877.54
450.966	27418.21
451.172	27143.78
451.378	27541.08
451.584	27158.11
451.791	27674.2
451.997	27745.88
452.203	28075.6
452.409	28073.56
452.615	28036.69
452.821	26945.12
453.027	26334.83
453.233	27936.34
453.44	26793.58
453.646	27221.6
453.852	27328.09
454.058	27670.11
454.264	26723.94
454.47	27219.55
454.676	26685.03
454.882	27506.27
455.088	25114.24
455.294	25712.25
455.5	25906.8
455.705	25882.23
455.911	24690.31
456.117	24604.3
456.323	24163.98
456.529	22933.15
456.735	23649.94
456.941	23025.31
457.147	22664.87
457.352	21991.09
457.558	22007.47
457.764	21968.56
457.97	21513.91
458.176	21030.59
458.381	20963.01
458.587	19828.43
458.793	19861.2
458.999	18636.52
459.204	20014.8
459.41	19517.14
459.616	18271.98
459.821	18224.87
460.027	18130.67
460.233	17796.85
460.438	16830.21
460.644	17108.73
460.85	16283.4
461.055	15951.63
461.261	15787.79
461.466	15175.45
461.672	14497.57
461.878	15382.29
462.083	14442.28
462.289	14118.7
462.494	14067.5
462.7	13358.9
462.905	13049.66
463.111	13348.66
463.316	13528.88
463.522	13219.64
463.727	13375.28
463.932	13123.38
464.138	13428.53
464.343	13031.23
464.549	12691.26
464.754	13158.2
464.959	13262.65
465.165	13023.03
465.37	12322.63
465.575	12269.38
465.781	12535.62
465.986	12685.12
466.191	12091.21
466.397	12019.53
466.602	11392.85
466.807	11761.48
467.012	11814.73
467.218	11654.99
467.423	11517.78
467.628	11775.82
467.833	12144.45
468.038	11724.62
468.244	11577.17
468.449	11743.05
468.654	11401.04
468.859	11349.84
