Data from USB4F104151__206__11-10-16-358.txt Node

Date: Wed Mar 12 11:10:16 EDT 2025
User: louis
Spectrometer: USB4F10415
Trigger mode: 4
Integration Time (sec): 2.000000E-2
Scans to average: 1
Electric dark correction enabled: true
Nonlinearity correction enabled: false
Boxcar width: 0
XAxis mode: Wavelengths
Number of Pixels in Spectrum: 3648
>>>>>Begin Spectral Data<<<<<
178.204	-26.62
178.424	-26.62
178.644	-26.62
178.864	-22.53
179.084	-30.72
179.304	-47.1
179.524	-16.38
179.744	34.82
179.964	40.96
180.184	28.67
180.404	-22.53
180.624	-96.25
180.844	38.91
181.064	-38.91
181.283	-20.48
181.503	51.2
181.723	47.1
181.943	-51.2
182.163	-4.1
182.383	8.19
182.602	45.06
182.822	36.86
183.042	43.01
183.262	-18.43
183.482	8.19
183.701	71.68
183.921	22.53
184.141	-14.34
184.361	55.3
184.58	32.77
184.8	0
185.02	36.86
185.239	108.54
185.459	-36.86
185.679	-61.44
185.898	2.05
186.118	20.48
186.338	28.67
186.557	-14.34
186.777	20.48
186.997	51.2
187.216	57.34
187.436	79.87
187.655	-6.14
187.875	55.3
188.095	14.34
188.314	34.82
188.534	45.06
188.753	81.92
188.973	36.86
189.192	92.16
189.412	4.1
189.631	59.39
189.851	51.2
190.07	90.11
190.29	-6.14
190.509	0
190.729	-12.29
190.948	-10.24
191.168	178.17
191.387	0
191.607	-26.62
191.826	61.44
192.045	16.38
192.265	47.1
192.484	18.43
192.704	67.58
192.923	-10.24
193.142	96.25
193.362	-30.72
193.581	86.01
193.8	73.73
194.02	34.82
194.239	40.96
194.458	30.72
194.678	14.34
194.897	-8.19
195.116	22.53
195.335	67.58
195.555	102.4
195.774	-51.2
195.993	-8.19
196.212	10.24
196.432	22.53
196.651	8.19
196.87	20.48
197.089	47.1
197.308	16.38
197.528	24.58
197.747	10.24
197.966	16.38
198.185	108.54
198.404	71.68
198.623	-4.1
198.842	6.14
199.062	47.1
199.281	77.82
199.5	-2.05
199.719	-43.01
199.938	32.77
200.157	81.92
200.376	36.86
200.595	12.29
200.814	36.86
201.033	47.1
201.252	28.67
201.471	14.34
201.69	-4.1
201.909	-10.24
202.128	34.82
202.347	106.49
202.566	32.77
202.785	40.96
203.004	12.29
203.223	71.68
203.442	22.53
203.661	28.67
203.879	22.53
204.098	98.3
204.317	61.44
204.536	45.06
204.755	112.64
204.974	2.05
205.193	26.62
205.411	10.24
205.63	43.01
205.849	2.05
206.068	4.1
206.287	10.24
206.505	26.62
206.724	18.43
206.943	53.25
207.162	63.49
207.381	63.49
207.599	30.72
207.818	-10.24
208.037	38.91
208.255	47.1
208.474	61.44
208.693	83.97
208.911	16.38
209.13	-32.77
209.349	92.16
209.567	71.68
209.786	47.1
210.005	-12.29
210.223	86.01
210.442	28.67
210.661	51.2
210.879	92.16
211.098	16.38
211.316	8.19
211.535	10.24
211.753	51.2
211.972	43.01
212.191	32.77
212.409	55.3
212.628	30.72
212.846	51.2
213.065	79.87
213.283	118.78
213.502	14.34
213.72	104.45
213.938	47.1
214.157	-16.38
214.375	55.3
214.594	-30.72
214.812	16.38
215.031	32.77
215.249	-24.58
215.467	88.06
215.686	-34.82
215.904	79.87
216.122	2.05
216.341	73.73
216.559	94.21
216.778	83.97
216.996	83.97
217.214	-10.24
217.432	-2.05
217.651	34.82
217.869	61.44
218.087	-6.14
218.306	12.29
218.524	2.05
218.742	43.01
218.96	28.67
219.179	30.72
219.397	-16.38
219.615	75.77
219.833	65.54
220.051	36.86
220.27	61.44
220.488	61.44
220.706	43.01
220.924	81.92
221.142	16.38
221.36	40.96
221.578	55.3
221.796	-2.05
222.015	96.25
222.233	-8.19
222.451	100.35
222.669	-92.16
222.887	4.1
223.105	30.72
223.323	71.68
223.541	-18.43
223.759	57.34
223.977	36.86
224.195	98.3
224.413	59.39
224.631	47.1
224.849	88.06
225.067	57.34
225.285	4.1
225.503	43.01
225.721	18.43
225.939	12.29
226.157	61.44
226.375	53.25
226.592	-30.72
226.81	26.62
227.028	104.45
227.246	110.59
227.464	104.45
227.682	26.62
227.9	67.58
228.117	57.34
228.335	26.62
228.553	88.06
228.771	32.77
228.989	28.67
229.206	-34.82
229.424	96.25
229.642	-24.58
229.86	-30.72
230.077	79.87
230.295	71.68
230.513	63.49
230.731	47.1
230.948	77.82
231.166	63.49
231.384	45.06
231.601	2.05
231.819	77.82
232.037	36.86
232.254	-18.43
232.472	-2.05
232.689	24.58
232.907	49.15
233.125	28.67
233.342	14.34
233.56	55.3
233.777	61.44
233.995	55.3
234.213	73.73
234.43	51.2
234.648	65.54
234.865	34.82
235.083	34.82
235.3	63.49
235.518	16.38
235.735	75.77
235.953	16.38
236.17	45.06
236.388	55.3
236.605	6.14
236.822	53.25
237.04	-16.38
237.257	34.82
237.475	38.91
237.692	2.05
237.909	20.48
238.127	43.01
238.344	77.82
238.562	38.91
238.779	-22.53
238.996	34.82
239.214	24.58
239.431	47.1
239.648	-38.91
239.865	81.92
240.083	53.25
240.3	4.1
240.517	-16.38
240.735	43.01
240.952	38.91
241.169	4.1
241.386	10.24
241.603	6.14
241.821	34.82
242.038	59.39
242.255	36.86
242.472	88.06
242.689	10.24
242.907	30.72
243.124	-10.24
243.341	8.19
243.558	65.54
243.775	32.77
243.992	-10.24
244.209	-30.72
244.426	151.55
244.643	77.82
244.86	98.3
245.078	6.14
245.295	-18.43
245.512	57.34
245.729	18.43
245.946	86.01
246.163	83.97
246.38	45.06
246.597	20.48
246.814	-4.1
247.031	75.77
247.248	49.15
247.464	8.19
247.681	61.44
247.898	63.49
248.115	4.1
248.332	18.43
248.549	61.44
248.766	75.77
248.983	96.25
249.2	26.62
249.417	38.91
249.633	59.39
249.85	-36.86
250.067	24.58
250.284	94.21
250.501	81.92
250.717	47.1
250.934	2.05
251.151	43.01
251.368	-6.14
251.585	24.58
251.801	36.86
252.018	30.72
252.235	22.53
252.451	-28.67
252.668	20.48
252.885	28.67
253.102	-12.29
253.318	-28.67
253.535	36.86
253.752	88.06
253.968	14.34
254.185	-47.1
254.401	22.53
254.618	131.07
254.835	-43.01
255.051	32.77
255.268	51.2
255.484	22.53
255.701	-4.1
255.917	94.21
256.134	4.1
256.351	47.1
256.567	57.34
256.784	32.77
257	12.29
257.217	14.34
257.433	4.1
257.65	34.82
257.866	36.86
258.082	-24.58
258.299	67.58
258.515	26.62
258.732	12.29
258.948	51.2
259.165	30.72
259.381	30.72
259.597	10.24
259.814	-14.34
260.03	28.67
260.246	92.16
260.463	61.44
260.679	38.91
260.895	24.58
261.112	98.3
261.328	2.05
261.544	-22.53
261.761	22.53
261.977	59.39
262.193	81.92
262.409	38.91
262.626	-8.19
262.842	126.97
263.058	24.58
263.274	24.58
263.49	-18.43
263.707	28.67
263.923	106.49
264.139	-34.82
264.355	45.06
264.571	10.24
264.787	32.77
265.004	51.2
265.22	75.77
265.436	49.15
265.652	67.58
265.868	71.68
266.084	-12.29
266.3	55.3
266.516	24.58
266.732	49.15
266.948	47.1
267.164	94.21
267.38	22.53
267.596	96.25
267.812	98.3
268.028	61.44
268.244	63.49
268.46	65.54
268.676	22.53
268.892	-18.43
269.108	-47.1
269.324	43.01
269.54	-2.05
269.756	22.53
269.972	67.58
270.188	26.62
270.403	8.19
270.619	18.43
270.835	61.44
271.051	67.58
271.267	-47.1
271.483	28.67
271.698	51.2
271.914	51.2
272.13	-14.34
272.346	73.73
272.562	20.48
272.777	83.97
272.993	-24.58
273.209	6.14
273.425	32.77
273.64	32.77
273.856	24.58
274.072	40.96
274.287	2.05
274.503	96.25
274.719	51.2
274.934	-36.86
275.15	2.05
275.366	-12.29
275.581	12.29
275.797	10.24
276.012	71.68
276.228	24.58
276.444	71.68
276.659	-36.86
276.875	79.87
277.09	30.72
277.306	49.15
277.521	96.25
277.737	-75.77
277.952	71.68
278.168	49.15
278.383	51.2
278.599	53.25
278.814	40.96
279.03	55.3
279.245	20.48
279.461	8.19
279.676	77.82
279.892	-26.62
280.107	-53.25
280.322	40.96
280.538	20.48
280.753	-10.24
280.969	59.39
281.184	59.39
281.399	45.06
281.615	40.96
281.83	36.86
282.045	-2.05
282.26	30.72
282.476	24.58
282.691	75.77
282.906	47.1
283.122	36.86
283.337	40.96
283.552	51.2
283.767	-10.24
283.983	-24.58
284.198	47.1
284.413	122.88
284.628	-34.82
284.843	40.96
285.058	8.19
285.274	-30.72
285.489	-28.67
285.704	81.92
285.919	2.05
286.134	-22.53
286.349	-55.3
286.564	55.3
286.779	51.2
286.995	53.25
287.21	-18.43
287.425	100.35
287.64	40.96
287.855	88.06
288.07	32.77
288.285	61.44
288.5	51.2
288.715	51.2
288.93	36.86
289.145	4.1
289.36	102.4
289.575	47.1
289.79	24.58
290.004	30.72
290.219	116.73
290.434	32.77
290.649	86.01
290.864	14.34
291.079	18.43
291.294	114.69
291.509	67.58
291.724	51.2
291.938	28.67
292.153	14.34
292.368	38.91
292.583	63.49
292.798	-18.43
293.012	77.82
293.227	30.72
293.442	-20.48
293.657	32.77
293.871	30.72
294.086	22.53
294.301	77.82
294.516	51.2
294.73	129.02
294.945	-4.1
295.16	-18.43
295.374	22.53
295.589	67.58
295.804	63.49
296.018	45.06
296.233	47.1
296.447	10.24
296.662	65.54
296.877	16.38
297.091	45.06
297.306	69.63
297.52	4.1
297.735	14.34
297.949	6.14
298.164	77.82
298.378	-47.1
298.593	-4.1
298.807	4.1
299.022	40.96
299.236	69.63
299.451	83.97
299.665	47.1
299.88	-18.43
300.094	96.25
300.309	59.39
300.523	28.67
300.737	45.06
300.952	-8.19
301.166	110.59
301.381	94.21
301.595	38.91
301.809	55.3
302.024	61.44
302.238	47.1
302.452	116.73
302.667	10.24
302.881	106.49
303.095	108.54
303.309	53.25
303.524	32.77
303.738	-30.72
303.952	12.29
304.166	57.34
304.381	-59.39
304.595	14.34
304.809	20.48
305.023	53.25
305.237	20.48
305.452	94.21
305.666	102.4
305.88	69.63
306.094	22.53
306.308	22.53
306.522	69.63
306.736	75.77
306.95	47.1
307.164	0
307.379	55.3
307.593	55.3
307.807	59.39
308.021	-4.1
308.235	118.78
308.449	-30.72
308.663	38.91
308.877	71.68
309.091	30.72
309.305	83.97
309.519	-12.29
309.733	75.77
309.947	69.63
310.161	47.1
310.374	69.63
310.588	18.43
310.802	38.91
311.016	-20.48
311.23	34.82
311.444	2.05
311.658	59.39
311.872	96.25
312.085	57.34
312.299	69.63
312.513	2.05
312.727	6.14
312.941	26.62
313.154	114.69
313.368	-2.05
313.582	90.11
313.796	75.77
314.009	96.25
314.223	57.34
314.437	71.68
314.651	47.1
314.864	32.77
315.078	79.87
315.292	-2.05
315.505	30.72
315.719	112.64
315.933	49.15
316.146	-12.29
316.36	43.01
316.573	102.4
316.787	6.14
317.001	110.59
317.214	79.87
317.428	51.2
317.641	43.01
317.855	6.14
318.068	38.91
318.282	2.05
318.495	57.34
318.709	86.01
318.922	57.34
319.136	63.49
319.349	75.77
319.563	26.62
319.776	-12.29
319.99	57.34
320.203	4.1
320.417	4.1
320.63	28.67
320.843	81.92
321.057	88.06
321.27	28.67
321.483	131.07
321.697	-34.82
321.91	47.1
322.124	18.43
322.337	59.39
322.55	73.73
322.763	86.01
322.977	-43.01
323.19	34.82
323.403	120.83
323.617	28.67
323.83	79.87
324.043	63.49
324.256	108.54
324.469	14.34
324.683	63.49
324.896	61.44
325.109	94.21
325.322	-2.05
325.535	45.06
325.748	0
325.962	49.15
326.175	6.14
326.388	71.68
326.601	73.73
326.814	71.68
327.027	2.05
327.24	88.06
327.453	86.01
327.666	22.53
327.879	40.96
328.092	47.1
328.305	-32.77
328.518	63.49
328.731	71.68
328.944	14.34
329.157	-36.86
329.37	2.05
329.583	34.82
329.796	73.73
330.009	-53.25
330.222	59.39
330.435	24.58
330.648	12.29
330.861	-2.05
331.073	24.58
331.286	10.24
331.499	67.58
331.712	4.1
331.925	116.73
332.138	73.73
332.35	77.82
332.563	-20.48
332.776	63.49
332.989	77.82
333.202	-10.24
333.414	53.25
333.627	90.11
333.84	20.48
334.053	59.39
334.265	30.72
334.478	53.25
334.691	45.06
334.903	34.82
335.116	55.3
335.329	61.44
335.541	47.1
335.754	92.16
335.966	45.06
336.179	73.73
336.392	38.91
336.604	65.54
336.817	77.82
337.029	-14.34
337.242	55.3
337.454	43.01
337.667	73.73
337.88	129.02
338.092	10.24
338.305	22.53
338.517	28.67
338.729	88.06
338.942	55.3
339.154	61.44
339.367	51.2
339.579	2.05
339.792	-26.62
340.004	14.34
340.217	49.15
340.429	22.53
340.641	12.29
340.854	14.34
341.066	-18.43
341.278	69.63
341.491	55.3
341.703	-4.1
341.915	12.29
342.128	-4.1
342.34	26.62
342.552	124.93
342.764	53.25
342.977	63.49
343.189	63.49
343.401	20.48
343.613	22.53
343.826	-30.72
344.038	57.34
344.25	8.19
344.462	-18.43
344.674	110.59
344.886	92.16
345.099	104.45
345.311	4.1
345.523	63.49
345.735	4.1
345.947	98.3
346.159	6.14
346.371	16.38
346.583	67.58
346.795	14.34
347.007	-2.05
347.219	45.06
347.431	40.96
347.643	86.01
347.855	79.87
348.067	131.07
348.279	47.1
348.491	14.34
348.703	-69.63
348.915	30.72
349.127	118.78
349.339	45.06
349.551	67.58
349.763	108.54
349.975	-43.01
350.187	-8.19
350.399	51.2
350.61	28.67
350.822	102.4
351.034	61.44
351.246	57.34
351.458	116.73
351.669	30.72
351.881	36.86
352.093	71.68
352.305	57.34
352.517	96.25
352.728	59.39
352.94	-14.34
353.152	114.69
353.363	22.53
353.575	83.97
353.787	-2.05
353.999	30.72
354.21	92.16
354.422	53.25
354.633	26.62
354.845	45.06
355.057	22.53
355.268	14.34
355.48	-28.67
355.692	63.49
355.903	83.97
356.115	55.3
356.326	18.43
356.538	79.87
356.749	49.15
356.961	112.64
357.172	26.62
357.384	71.68
357.595	61.44
357.807	71.68
358.018	-45.06
358.23	65.54
358.441	63.49
358.653	104.45
358.864	16.38
359.075	-32.77
359.287	43.01
359.498	51.2
359.709	61.44
359.921	83.97
360.132	96.25
360.344	61.44
360.555	61.44
360.766	34.82
360.977	71.68
361.189	53.25
361.4	94.21
361.611	92.16
361.823	69.63
362.034	-20.48
362.245	43.01
362.456	10.24
362.667	49.15
362.879	6.14
363.09	36.86
363.301	57.34
363.512	98.3
363.723	79.87
363.935	-4.1
364.146	96.25
364.357	86.01
364.568	6.14
364.779	26.62
364.99	110.59
365.201	20.48
365.412	43.01
365.623	22.53
365.834	20.48
366.045	53.25
366.256	81.92
366.467	104.45
366.678	32.77
366.889	53.25
367.1	-2.05
367.311	98.3
367.522	24.58
367.733	49.15
367.944	94.21
368.155	16.38
368.366	26.62
368.577	14.34
368.788	81.92
368.999	63.49
369.209	88.06
369.42	22.53
369.631	133.12
369.842	51.2
370.053	59.39
370.264	71.68
370.474	49.15
370.685	120.83
370.896	57.34
371.107	30.72
371.317	90.11
371.528	20.48
371.739	79.87
371.95	63.49
372.16	71.68
372.371	28.67
372.582	-4.1
372.792	120.83
373.003	137.21
373.214	83.97
373.424	51.2
373.635	28.67
373.846	100.35
374.056	8.19
374.267	75.77
374.477	79.87
374.688	22.53
374.898	116.73
375.109	55.3
375.319	36.86
375.53	77.82
375.74	104.45
375.951	57.34
376.161	38.91
376.372	14.34
376.582	81.92
376.793	51.2
377.003	77.82
377.214	55.3
377.424	53.25
377.635	69.63
377.845	94.21
378.055	98.3
378.266	34.82
378.476	49.15
378.686	59.39
378.897	40.96
379.107	67.58
379.317	55.3
379.528	36.86
379.738	55.3
379.948	96.25
380.158	18.43
380.369	63.49
380.579	153.6
380.789	0
380.999	90.11
381.21	-20.48
381.42	118.78
381.63	-4.1
381.84	86.01
382.05	30.72
382.261	77.82
382.471	104.45
382.681	12.29
382.891	-28.67
383.101	26.62
383.311	-6.14
383.521	65.54
383.731	57.34
383.941	86.01
384.151	43.01
384.361	-30.72
384.571	65.54
384.781	43.01
384.991	141.31
385.201	161.79
385.411	63.49
385.621	147.45
385.831	96.25
386.041	83.97
386.251	92.16
386.461	53.25
386.671	34.82
386.881	67.58
387.091	28.67
387.301	112.64
387.511	83.97
387.72	32.77
387.93	77.82
388.14	-6.14
388.35	47.1
388.56	96.25
388.769	96.25
388.979	4.1
389.189	98.3
389.399	120.83
389.609	55.3
389.818	71.68
390.028	102.4
390.238	77.82
390.447	49.15
390.657	45.06
390.867	118.78
391.076	47.1
391.286	12.29
391.496	100.35
391.705	65.54
391.915	151.55
392.125	126.97
392.334	45.06
392.544	86.01
392.753	141.31
392.963	32.77
393.172	20.48
393.382	22.53
393.591	71.68
393.801	94.21
394.01	149.5
394.22	30.72
394.429	118.78
394.639	71.68
394.848	57.34
395.058	133.12
395.267	145.41
395.477	83.97
395.686	118.78
395.895	104.45
396.105	161.79
396.314	112.64
396.524	102.4
396.733	83.97
396.942	114.69
397.152	133.12
397.361	73.73
397.57	122.88
397.78	178.17
397.989	114.69
398.198	165.89
398.407	143.36
398.617	100.35
398.826	88.06
399.035	55.3
399.244	71.68
399.453	139.26
399.663	167.93
399.872	141.31
400.081	104.45
400.29	88.06
400.499	143.36
400.708	98.3
400.917	112.64
401.127	110.59
401.336	102.4
401.545	182.27
401.754	151.55
401.963	180.22
402.172	159.74
402.381	118.78
402.59	86.01
402.799	137.21
403.008	178.17
403.217	135.17
403.426	65.54
403.635	106.49
403.844	186.37
404.053	163.84
404.262	202.75
404.471	116.73
404.68	75.77
404.888	184.32
405.097	143.36
405.306	165.89
405.515	200.7
405.724	139.26
405.933	174.08
406.142	208.89
406.35	172.03
406.559	212.99
406.768	149.5
406.977	180.22
407.185	186.37
407.394	139.26
407.603	202.75
407.812	296.96
408.02	223.23
408.229	272.38
408.438	256
408.646	221.18
408.855	241.66
409.064	268.28
409.272	315.39
409.481	329.72
409.69	307.2
409.898	321.53
410.107	323.58
410.315	350.2
410.524	362.49
410.733	385.02
410.941	362.49
411.15	370.68
411.358	354.3
411.567	446.46
411.775	423.93
411.984	399.35
412.192	530.42
412.401	462.84
412.609	483.32
412.818	571.38
413.026	540.66
413.234	473.08
413.443	485.37
413.651	608.25
413.86	579.58
414.068	671.73
414.276	620.53
414.485	718.84
414.693	696.31
414.901	722.93
415.11	747.51
415.318	712.69
415.526	884.72
415.734	854
415.943	847.86
416.151	978.93
416.359	837.62
416.567	995.31
416.776	935.92
416.984	999.41
417.192	1028.08
417.4	1103.86
417.608	1023.98
417.817	1073.14
418.025	1249.26
418.233	1218.54
418.441	1150.96
418.649	1222.64
418.857	1390.57
419.065	1390.57
419.273	1300.46
419.481	1376.24
419.689	1531.88
419.897	1662.95
420.105	1665
420.313	1681.38
420.521	1861.6
420.729	1722.34
420.937	1834.98
421.145	1941.47
421.353	1886.18
421.561	2267.1
421.769	2220
421.977	2181.09
422.185	2240.48
422.393	2303.96
422.601	2410.46
422.809	2414.56
423.017	2426.84
423.224	2607.06
423.432	2668.5
423.64	2719.7
423.848	2940.88
424.056	3002.32
424.263	3065.81
424.471	2899.92
424.679	3125.2
424.887	3403.72
425.094	3473.36
425.302	3454.92
425.51	3602.38
425.718	3547.08
425.925	3735.5
426.133	3780.55
426.341	4065.22
426.548	4251.58
426.756	4122.56
426.964	4374.46
427.171	4542.39
427.379	4493.24
427.586	4812.73
427.794	4911.03
428.001	5167.03
428.209	5357.49
428.417	5308.34
428.624	5570.48
428.832	5640.11
429.039	5576.62
429.247	5439.41
429.454	6225.83
429.662	6371.23
429.869	6053.8
430.076	6571.93
430.284	6424.48
430.491	6698.91
430.699	6913.94
430.906	7081.88
431.114	7073.68
431.321	7413.65
431.528	7643.02
431.736	7962.5
431.943	8259.46
432.15	7864.2
432.358	8320.9
432.565	8605.56
432.772	8531.84
432.979	9054.07
433.187	9111.41
433.394	9287.54
433.601	9838.44
433.808	9793.39
434.016	9811.82
434.223	10385.25
434.43	10766.17
434.637	10860.38
434.844	11427.67
435.052	11659.09
435.259	11566.93
435.466	11634.51
435.673	11364.18
435.88	12236.61
436.087	12838.72
436.294	12883.77
436.501	12277.57
436.708	12738.37
436.915	13072.18
437.122	14049.07
437.329	13772.59
437.537	14180.14
437.743	14501.67
437.95	14176.04
438.157	15189.78
438.364	15345.43
438.571	15515.41
438.778	15640.34
438.985	17035
439.192	16316.17
439.399	17217.27
439.606	16738.05
439.813	17430.26
440.02	18632.42
440.227	18231.02
440.433	18093.8
440.64	18706.15
440.847	18431.72
441.054	18951.9
441.261	20106.96
441.467	19734.23
441.674	20451.02
441.881	21071.55
442.088	20856.51
442.294	20887.23
442.501	21325.5
442.708	21939.89
442.914	22668.97
443.121	23897.75
443.328	23082.66
443.534	24653.45
443.741	24137.36
443.948	23926.42
444.154	25489.02
444.361	24962.69
444.568	25460.35
444.774	25114.24
444.981	25579.13
445.187	26482.28
445.394	27405.92
445.6	27395.68
445.807	29742.65
446.013	28509.77
446.22	29156.93
446.426	29969.97
446.633	30281.27
446.839	31159.84
447.046	30002.74
447.252	31671.84
447.459	31870.49
447.665	31372.83
447.871	33000.97
448.078	34151.93
448.284	32652.81
448.491	33572.35
448.697	34838
448.903	35489.25
449.11	35642.85
449.316	34893.29
449.522	35382.76
449.728	36527.57
449.935	36777.42
450.141	36730.32
450.347	37868.99
450.553	36163.03
450.76	36595.15
450.966	37799.36
451.172	37266.89
451.378	38002.11
451.584	37588.42
451.791	38915.5
451.997	38522.29
452.203	39251.37
452.409	38714.8
452.615	38493.62
452.821	37141.96
453.027	36703.7
453.233	38915.5
453.44	37101
453.646	37649.86
453.852	37559.75
454.058	38546.87
454.264	36974.03
454.47	37588.42
454.676	37027.27
454.882	38215.1
455.088	34815.47
455.294	35272.17
455.5	35954.14
455.705	36498.9
455.911	35044.84
456.117	33947.13
456.323	33603.07
456.529	31829.53
456.735	33240.58
456.941	32509.46
457.147	31641.12
457.352	30752.3
457.558	30475.82
457.764	30400.05
457.97	30142
458.176	29097.54
458.381	29386.3
458.587	27647.58
458.793	27567.71
458.999	26496.62
459.204	28249.68
459.41	27786.84
459.616	25720.44
459.821	25669.24
460.027	25464.44
460.233	25083.52
460.438	23738.01
460.644	24196.75
460.85	22757.03
461.055	22816.42
461.261	22582.95
461.466	20745.92
461.672	20395.72
461.878	21771.96
462.083	20334.28
462.289	20014.8
462.494	19576.53
462.7	18835.17
462.905	18360.04
463.111	18994.91
463.316	19052.25
463.522	18609.89
463.727	18693.86
463.932	18589.41
464.138	18626.28
464.343	18460.39
464.549	18028.27
464.754	18796.26
464.959	18548.45
465.165	18376.42
465.37	17755.89
465.575	17200.89
465.781	17651.44
465.986	18028.27
466.191	17321.72
466.397	16946.94
466.602	16193.29
466.807	16918.27
467.012	16805.63
467.218	16512.77
467.423	16525.06
467.628	16541.44
467.833	17583.86
468.038	16652.03
468.244	15974.16
468.449	16998.14
