Data from USB4F104151__231__11-11-00-813.txt Node

Date: Wed Mar 12 11:11:00 EDT 2025
User: louis
Spectrometer: USB4F10415
Trigger mode: 4
Integration Time (sec): 2.000000E-2
Scans to average: 1
Electric dark correction enabled: true
Nonlinearity correction enabled: false
Boxcar width: 0
XAxis mode: Wavelengths
Number of Pixels in Spectrum: 3648
>>>>>Begin Spectral Data<<<<<
178.204	-11.43
178.424	-11.43
178.644	-11.43
178.864	-29.87
179.084	-93.35
179.304	-33.96
179.524	4.95
179.744	17.24
179.964	11.09
180.184	25.43
180.404	-21.67
180.624	31.57
180.844	0.85
181.064	-9.39
181.283	27.48
181.503	-1.19
181.723	-52.39
181.943	70.48
182.163	97.11
182.383	-1.19
182.602	131.92
182.822	80.72
183.042	13.14
183.262	21.33
183.482	29.52
183.701	4.95
183.921	-29.87
184.141	-1.19
184.361	72.53
184.58	-9.39
184.8	58.2
185.02	21.33
185.239	60.24
185.459	-9.39
185.679	103.25
185.898	74.58
186.118	29.52
186.338	-15.53
186.557	2.9
186.777	4.95
186.997	-25.77
187.216	7
187.436	52.05
187.655	25.43
187.875	-3.24
188.095	2.9
188.314	56.15
188.534	33.62
188.753	17.24
188.973	84.82
189.192	58.2
189.412	43.86
189.631	9.05
189.851	56.15
190.07	7
190.29	-21.67
190.509	21.33
190.729	-23.72
190.948	97.11
191.168	107.35
191.387	56.15
191.607	-21.67
191.826	-19.63
192.045	66.39
192.265	-25.77
192.484	90.96
192.704	11.09
192.923	4.95
193.142	138.07
193.362	2.9
193.581	43.86
193.8	47.96
194.02	47.96
194.239	17.24
194.458	41.81
194.678	-19.63
194.897	21.33
195.116	47.96
195.335	23.38
195.555	2.9
195.774	11.09
195.993	127.83
196.212	-15.53
196.432	19.29
196.651	82.77
196.87	-25.77
197.089	105.3
197.308	50
197.528	15.19
197.747	-42.15
197.966	2.9
198.185	35.67
198.404	19.29
198.623	-1.19
198.842	111.44
199.062	68.44
199.281	66.39
199.5	31.57
199.719	15.19
199.938	66.39
200.157	82.77
200.376	39.76
200.595	7
200.814	-29.87
201.033	50
201.252	86.87
201.471	41.81
201.69	-7.34
201.909	66.39
202.128	45.91
202.347	41.81
202.566	52.05
202.785	52.05
203.004	15.19
203.223	72.53
203.442	50
203.661	9.05
203.879	17.24
204.098	82.77
204.317	-85.16
204.536	64.34
204.755	-40.11
204.974	-1.19
205.193	138.07
205.411	125.78
205.63	45.91
205.849	29.52
206.068	-11.43
206.287	66.39
206.505	27.48
206.724	60.24
206.943	52.05
207.162	-11.43
207.381	35.67
207.599	9.05
207.818	25.43
208.037	37.72
208.255	-9.39
208.474	64.34
208.693	68.44
208.911	66.39
209.13	50
209.349	76.63
209.567	17.24
209.786	45.91
210.005	80.72
210.223	21.33
210.442	-23.72
210.661	41.81
210.879	72.53
211.098	23.38
211.316	21.33
211.535	58.2
211.753	17.24
211.972	31.57
212.191	-3.24
212.409	-44.2
212.628	17.24
212.846	0.85
213.065	15.19
213.283	52.05
213.502	23.38
213.72	-17.58
213.938	58.2
214.157	56.15
214.375	13.14
214.594	43.86
214.812	41.81
215.031	-1.19
215.249	-50.35
215.467	101.2
215.686	27.48
215.904	78.68
216.122	31.57
216.341	37.72
216.559	25.43
216.778	-19.63
216.996	43.86
217.214	56.15
217.432	41.81
217.651	-17.58
217.869	7
218.087	15.19
218.306	-3.24
218.524	27.48
218.742	58.2
218.96	-15.53
219.179	23.38
219.397	62.29
219.615	19.29
219.833	-25.77
220.051	62.29
220.27	54.1
220.488	54.1
220.706	66.39
220.924	60.24
221.142	76.63
221.36	52.05
221.578	47.96
221.796	7
222.015	72.53
222.233	41.81
222.451	99.16
222.669	19.29
222.887	-25.77
223.105	29.52
223.323	70.48
223.541	-60.59
223.759	68.44
223.977	11.09
224.195	41.81
224.413	54.1
224.631	62.29
224.849	47.96
225.067	62.29
225.285	45.91
225.503	21.33
225.721	45.91
225.939	-3.24
226.157	117.59
226.375	72.53
226.592	-11.43
226.81	54.1
227.028	31.57
227.246	76.63
227.464	47.96
227.682	-5.29
227.9	60.24
228.117	52.05
228.335	131.92
228.553	7
228.771	29.52
228.989	29.52
229.206	35.67
229.424	56.15
229.642	41.81
229.86	2.9
230.077	60.24
230.295	-38.06
230.513	39.76
230.731	50
230.948	41.81
231.166	68.44
231.384	-9.39
231.601	23.38
231.819	97.11
232.037	56.15
232.254	64.34
232.472	62.29
232.689	11.09
232.907	82.77
233.125	70.48
233.342	78.68
233.56	-21.67
233.777	21.33
233.995	35.67
234.213	74.58
234.43	109.4
234.648	27.48
234.865	35.67
235.083	56.15
235.3	-36.01
235.518	45.91
235.735	115.54
235.953	4.95
236.17	25.43
236.388	37.72
236.605	95.06
236.822	84.82
237.04	31.57
237.257	-9.39
237.475	23.38
237.692	84.82
237.909	-27.82
238.127	7
238.344	35.67
238.562	11.09
238.779	-5.29
238.996	-54.44
239.214	-27.82
239.431	103.25
239.648	62.29
239.865	60.24
240.083	31.57
240.3	21.33
240.517	-13.48
240.735	-11.43
240.952	13.14
241.169	58.2
241.386	-17.58
241.603	11.09
241.821	31.57
242.038	88.92
242.255	66.39
242.472	-13.48
242.689	50
242.907	47.96
243.124	60.24
243.341	23.38
243.558	31.57
243.775	52.05
243.992	47.96
244.209	21.33
244.426	43.86
244.643	68.44
244.86	17.24
245.078	74.58
245.295	47.96
245.512	68.44
245.729	19.29
245.946	27.48
246.163	17.24
246.38	-42.15
246.597	58.2
246.814	17.24
247.031	7
247.248	54.1
247.464	50
247.681	86.87
247.898	27.48
248.115	13.14
248.332	31.57
248.549	54.1
248.766	82.77
248.983	19.29
249.2	19.29
249.417	54.1
249.633	-72.87
249.85	-9.39
250.067	33.62
250.284	-17.58
250.501	86.87
250.717	43.86
250.934	97.11
251.151	76.63
251.368	25.43
251.585	-15.53
251.801	105.3
252.018	35.67
252.235	-19.63
252.451	68.44
252.668	31.57
252.885	0.85
253.102	4.95
253.318	23.38
253.535	90.96
253.752	45.91
253.968	2.9
254.185	37.72
254.401	21.33
254.618	50
254.835	35.67
255.051	43.86
255.268	90.96
255.484	37.72
255.701	0.85
255.917	45.91
256.134	-9.39
256.351	15.19
256.567	52.05
256.784	45.91
257	-27.82
257.217	60.24
257.433	43.86
257.65	88.92
257.866	76.63
258.082	27.48
258.299	4.95
258.515	-1.19
258.732	19.29
258.948	37.72
259.165	7
259.381	-15.53
259.597	103.25
259.814	56.15
260.03	43.86
260.246	78.68
260.463	88.92
260.679	45.91
260.895	52.05
261.112	66.39
261.328	76.63
261.544	68.44
261.761	74.58
261.977	23.38
262.193	41.81
262.409	21.33
262.626	7
262.842	54.1
263.058	56.15
263.274	52.05
263.49	88.92
263.707	43.86
263.923	56.15
264.139	27.48
264.355	74.58
264.571	41.81
264.787	2.9
265.004	105.3
265.22	31.57
265.436	-40.11
265.652	-58.54
265.868	70.48
266.084	47.96
266.3	50
266.516	52.05
266.732	25.43
266.948	72.53
267.164	50
267.38	21.33
267.596	72.53
267.812	115.54
268.028	21.33
268.244	4.95
268.46	54.1
268.676	47.96
268.892	19.29
269.108	84.82
269.324	-33.96
269.54	37.72
269.756	7
269.972	25.43
270.188	60.24
270.403	31.57
270.619	-7.34
270.835	47.96
271.051	19.29
271.267	-1.19
271.483	25.43
271.698	21.33
271.914	31.57
272.13	-40.11
272.346	-9.39
272.562	0.85
272.777	84.82
272.993	31.57
273.209	-13.48
273.425	109.4
273.64	66.39
273.856	35.67
274.072	13.14
274.287	31.57
274.503	133.97
274.719	45.91
274.934	86.87
275.15	50
275.366	13.14
275.581	7
275.797	80.72
276.012	-60.59
276.228	52.05
276.444	-33.96
276.659	80.72
276.875	-1.19
277.09	152.4
277.306	37.72
277.521	54.1
277.737	37.72
277.952	-17.58
278.168	27.48
278.383	27.48
278.599	179.03
278.814	19.29
279.03	27.48
279.245	72.53
279.461	0.85
279.676	-15.53
279.892	39.76
280.107	76.63
280.322	31.57
280.538	-5.29
280.753	21.33
280.969	54.1
281.184	47.96
281.399	133.97
281.615	-5.29
281.83	-21.67
282.045	-11.43
282.26	72.53
282.476	-21.67
282.691	119.64
282.906	33.62
283.122	39.76
283.337	23.38
283.552	-9.39
283.767	0.85
283.983	-5.29
284.198	4.95
284.413	62.29
284.628	41.81
284.843	52.05
285.058	50
285.274	52.05
285.489	66.39
285.704	52.05
285.919	88.92
286.134	45.91
286.349	15.19
286.564	37.72
286.779	88.92
286.995	7
287.21	27.48
287.425	-9.39
287.64	58.2
287.855	70.48
288.07	35.67
288.285	64.34
288.5	70.48
288.715	82.77
288.93	43.86
289.145	82.77
289.36	-15.53
289.575	47.96
289.79	7
290.004	-64.68
290.219	23.38
290.434	101.2
290.649	23.38
290.864	-9.39
291.079	58.2
291.294	41.81
291.509	45.91
291.724	35.67
291.938	29.52
292.153	25.43
292.368	7
292.583	17.24
292.798	62.29
293.012	35.67
293.227	78.68
293.442	23.38
293.657	50
293.871	-42.15
294.086	93.01
294.301	115.54
294.516	2.9
294.73	62.29
294.945	-13.48
295.16	2.9
295.374	113.49
295.589	41.81
295.804	39.76
296.018	45.91
296.233	86.87
296.447	60.24
296.662	47.96
296.877	101.2
297.091	35.67
297.306	58.2
297.52	21.33
297.735	56.15
297.949	72.53
298.164	47.96
298.378	58.2
298.593	15.19
298.807	54.1
299.022	62.29
299.236	86.87
299.451	47.96
299.665	-21.67
299.88	-1.19
300.094	64.34
300.309	99.16
300.523	99.16
300.737	0.85
300.952	50
301.166	50
301.381	109.4
301.595	15.19
301.809	52.05
302.024	68.44
302.238	68.44
302.452	68.44
302.667	47.96
302.881	35.67
303.095	52.05
303.309	17.24
303.524	17.24
303.738	47.96
303.952	29.52
304.166	25.43
304.381	11.09
304.595	60.24
304.809	33.62
305.023	93.01
305.237	4.95
305.452	105.3
305.666	88.92
305.88	19.29
306.094	54.1
306.308	33.62
306.522	0.85
306.736	62.29
306.95	54.1
307.164	17.24
307.379	-5.29
307.593	29.52
307.807	35.67
308.021	70.48
308.235	45.91
308.449	45.91
308.663	37.72
308.877	74.58
309.091	80.72
309.305	64.34
309.519	2.9
309.733	146.26
309.947	2.9
310.161	47.96
310.374	37.72
310.588	45.91
310.802	60.24
311.016	25.43
311.23	27.48
311.444	62.29
311.658	39.76
311.872	68.44
312.085	105.3
312.299	78.68
312.513	19.29
312.727	107.35
312.941	-21.67
313.154	95.06
313.368	58.2
313.582	-15.53
313.796	31.57
314.009	66.39
314.223	113.49
314.437	93.01
314.651	35.67
314.864	29.52
315.078	66.39
315.292	0.85
315.505	54.1
315.719	-11.43
315.933	19.29
316.146	7
316.36	78.68
316.573	41.81
316.787	-17.58
317.001	62.29
317.214	21.33
317.428	115.54
317.641	-23.72
317.855	27.48
318.068	43.86
318.282	109.4
318.495	80.72
318.709	95.06
318.922	66.39
319.136	62.29
319.349	74.58
319.563	39.76
319.776	66.39
319.99	45.91
320.203	17.24
320.417	23.38
320.63	84.82
320.843	111.44
321.057	43.86
321.27	54.1
321.483	29.52
321.697	-25.77
321.91	47.96
322.124	29.52
322.337	158.55
322.55	29.52
322.763	86.87
322.977	27.48
323.19	23.38
323.403	43.86
323.617	88.92
323.83	52.05
324.043	52.05
324.256	47.96
324.469	66.39
324.683	37.72
324.896	19.29
325.109	95.06
325.322	11.09
325.535	72.53
325.748	72.53
325.962	-9.39
326.175	86.87
326.388	29.52
326.601	27.48
326.814	-9.39
327.027	27.48
327.24	127.83
327.453	0.85
327.666	2.9
327.879	35.67
328.092	27.48
328.305	60.24
328.518	-5.29
328.731	-13.48
328.944	105.3
329.157	56.15
329.37	33.62
329.583	47.96
329.796	74.58
330.009	35.67
330.222	58.2
330.435	109.4
330.648	50
330.861	9.05
331.073	2.9
331.286	84.82
331.499	9.05
331.712	117.59
331.925	99.16
332.138	9.05
332.35	45.91
332.563	-23.72
332.776	39.76
332.989	35.67
333.202	15.19
333.414	41.81
333.627	23.38
333.84	19.29
334.053	41.81
334.265	31.57
334.478	11.09
334.691	17.24
334.903	11.09
335.116	-15.53
335.329	52.05
335.541	113.49
335.754	74.58
335.966	13.14
336.179	90.96
336.392	70.48
336.604	39.76
336.817	33.62
337.029	54.1
337.242	-3.24
337.454	64.34
337.667	11.09
337.88	82.77
338.092	41.81
338.305	27.48
338.517	115.54
338.729	45.91
338.942	119.64
339.154	60.24
339.367	25.43
339.579	43.86
339.792	-13.48
340.004	76.63
340.217	-3.24
340.429	101.2
340.641	33.62
340.854	101.2
341.066	47.96
341.278	-5.29
341.491	47.96
341.703	58.2
341.915	-15.53
342.128	23.38
342.34	50
342.552	35.67
342.764	52.05
342.977	11.09
343.189	82.77
343.401	-9.39
343.613	-1.19
343.826	25.43
344.038	29.52
344.25	29.52
344.462	62.29
344.674	45.91
344.886	47.96
345.099	11.09
345.311	47.96
345.523	58.2
345.735	0.85
345.947	88.92
346.159	11.09
346.371	62.29
346.583	33.62
346.795	50
347.007	74.58
347.219	84.82
347.431	82.77
347.643	23.38
347.855	72.53
348.067	174.93
348.279	45.91
348.491	43.86
348.703	82.77
348.915	-29.87
349.127	21.33
349.339	39.76
349.551	19.29
349.763	39.76
349.975	60.24
350.187	113.49
350.399	45.91
350.61	29.52
350.822	0.85
351.034	7
351.246	56.15
351.458	105.3
351.669	-19.63
351.881	72.53
352.093	29.52
352.305	80.72
352.517	47.96
352.728	29.52
352.94	74.58
353.152	66.39
353.363	27.48
353.575	31.57
353.787	84.82
353.999	27.48
354.21	99.16
354.422	4.95
354.633	105.3
354.845	-27.82
355.057	7
355.268	19.29
355.48	90.96
355.692	101.2
355.903	7
356.115	-23.72
356.326	4.95
356.538	-1.19
356.749	88.92
356.961	99.16
357.172	-13.48
357.384	21.33
357.595	90.96
357.807	29.52
358.018	-48.3
358.23	9.05
358.441	80.72
358.653	60.24
358.864	39.76
359.075	43.86
359.287	82.77
359.498	97.11
359.709	60.24
359.921	70.48
360.132	-7.34
360.344	56.15
360.555	84.82
360.766	58.2
360.977	11.09
361.189	109.4
361.4	41.81
361.611	66.39
361.823	109.4
362.034	11.09
362.245	74.58
362.456	17.24
362.667	52.05
362.879	4.95
363.09	99.16
363.301	78.68
363.512	-48.3
363.723	82.77
363.935	35.67
364.146	52.05
364.357	80.72
364.568	95.06
364.779	-36.01
364.99	76.63
365.201	-66.73
365.412	21.33
365.623	54.1
365.834	17.24
366.045	93.01
366.256	58.2
366.467	4.95
366.678	-3.24
366.889	97.11
367.1	115.54
367.311	39.76
367.522	-13.48
367.733	78.68
367.944	70.48
368.155	13.14
368.366	52.05
368.577	58.2
368.788	136.02
368.999	39.76
369.209	95.06
369.42	115.54
369.631	72.53
369.842	142.16
370.053	66.39
370.264	60.24
370.474	93.01
370.685	0.85
370.896	35.67
371.107	29.52
371.317	66.39
371.528	35.67
371.739	86.87
371.95	-11.43
372.16	84.82
372.371	113.49
372.582	-11.43
372.792	23.38
373.003	64.34
373.214	60.24
373.424	84.82
373.635	39.76
373.846	15.19
374.056	11.09
374.267	101.2
374.477	119.64
374.688	23.38
374.898	82.77
375.109	33.62
375.319	47.96
375.53	74.58
375.74	62.29
375.951	97.11
376.161	88.92
376.372	64.34
376.582	39.76
376.793	80.72
377.003	90.96
377.214	131.92
377.424	-13.48
377.635	76.63
377.845	47.96
378.055	60.24
378.266	15.19
378.476	84.82
378.686	101.2
378.897	54.1
379.107	95.06
379.317	60.24
379.528	119.64
379.738	11.09
379.948	31.57
380.158	7
380.369	45.91
380.579	93.01
380.789	66.39
380.999	41.81
381.21	88.92
381.42	103.25
381.63	62.29
381.84	101.2
382.05	-19.63
382.261	60.24
382.471	56.15
382.681	-3.24
382.891	41.81
383.101	88.92
383.311	-21.67
383.521	21.33
383.731	11.09
383.941	68.44
384.151	33.62
384.361	78.68
384.571	117.59
384.781	93.01
384.991	93.01
385.201	27.48
385.411	66.39
385.621	146.26
385.831	52.05
386.041	74.58
386.251	13.14
386.461	97.11
386.671	72.53
386.881	74.58
387.091	56.15
387.301	13.14
387.511	39.76
387.72	125.78
387.93	56.15
388.14	72.53
388.35	-13.48
388.56	117.59
388.769	74.58
388.979	52.05
389.189	181.07
389.399	105.3
389.609	23.38
389.818	58.2
390.028	56.15
390.238	105.3
390.447	-42.15
390.657	31.57
390.867	84.82
391.076	43.86
391.286	74.58
391.496	119.64
391.705	90.96
391.915	21.33
392.125	125.78
392.334	97.11
392.544	70.48
392.753	88.92
392.963	74.58
393.172	86.87
393.382	31.57
393.591	111.44
393.801	72.53
394.01	95.06
394.22	78.68
394.429	99.16
394.639	64.34
394.848	144.21
395.058	82.77
395.267	45.91
395.477	133.97
395.686	37.72
395.895	162.64
396.105	60.24
396.314	127.83
396.524	45.91
396.733	15.19
396.942	58.2
397.152	93.01
397.361	133.97
397.57	54.1
397.78	105.3
397.989	113.49
398.198	203.6
398.407	136.02
398.617	107.35
398.826	181.07
399.035	152.4
399.244	103.25
399.453	33.62
399.663	144.21
399.872	144.21
400.081	41.81
400.29	125.78
400.499	142.16
400.708	191.31
400.917	133.97
401.127	74.58
401.336	93.01
401.545	154.45
401.754	105.3
401.963	119.64
402.172	103.25
402.381	41.81
402.59	76.63
402.799	121.68
403.008	150.36
403.217	80.72
403.426	90.96
403.635	138.07
403.844	107.35
404.053	181.07
404.262	127.83
404.471	121.68
404.68	199.51
404.888	187.22
405.097	111.44
405.306	144.21
405.515	140.12
405.724	199.51
405.933	111.44
406.142	115.54
406.35	207.7
406.559	176.98
406.768	197.46
406.977	215.89
407.185	211.79
407.394	228.18
407.603	215.89
407.812	197.46
408.02	123.73
408.229	191.31
408.438	226.13
408.646	222.03
408.855	213.84
409.064	252.75
409.272	226.13
409.481	336.72
409.69	314.19
409.898	236.37
410.107	277.33
410.315	252.75
410.524	332.62
410.733	340.82
410.941	299.86
411.15	336.72
411.358	373.58
411.567	422.73
411.775	369.49
411.984	299.86
412.192	389.97
412.401	416.59
412.609	465.74
412.818	449.36
413.026	445.26
413.234	453.45
413.443	484.17
413.651	484.17
413.86	539.47
414.068	547.66
414.276	543.57
414.485	566.09
414.693	631.63
414.901	674.64
415.11	693.07
415.318	682.83
415.526	697.16
415.734	648.01
415.943	746.31
416.151	756.55
416.359	748.36
416.567	766.79
416.776	867.14
416.984	957.25
417.192	865.1
417.4	873.29
417.608	873.29
417.817	977.73
418.025	934.73
418.233	1084.23
418.441	1039.17
418.649	1123.14
418.857	1207.11
419.065	1215.3
419.273	1194.82
419.481	1227.59
419.689	1311.55
419.897	1356.61
420.105	1395.52
420.313	1465.15
420.521	1403.71
420.729	1497.92
420.937	1481.53
421.145	1616.7
421.353	1688.38
421.561	1868.6
421.769	1856.31
421.977	1889.08
422.185	1919.8
422.393	2020.15
422.601	2091.83
422.809	2167.6
423.017	2104.12
423.224	2251.57
423.432	2233.14
423.64	2210.61
423.848	2599.73
424.056	2495.28
424.263	2698.03
424.471	2585.39
424.679	2708.27
424.887	2874.15
425.094	3066.66
425.302	2923.3
425.51	2990.89
425.718	3179.3
425.925	3146.53
426.133	3220.26
426.341	3490.59
426.548	3523.36
426.756	3535.65
426.964	3724.06
427.171	3867.42
427.379	3904.28
427.586	4012.82
427.794	4053.78
428.001	4442.9
428.209	4418.32
428.417	4502.29
428.624	4668.17
428.832	4746
429.039	4758.28
429.247	4813.58
429.454	5098.25
429.662	5530.37
429.869	5137.16
430.076	5546.75
430.284	5407.49
430.491	5647.1
430.699	6109.94
430.906	5829.37
431.114	5856
431.321	6404.85
431.528	6370.04
431.736	6765.29
431.943	7142.12
432.15	7054.06
432.358	6888.17
432.565	7475.94
432.772	7301.86
432.979	7619.3
433.187	7830.24
433.394	7817.95
433.601	8495.83
433.808	8594.13
434.016	8229.59
434.223	8749.78
434.43	9237.19
434.637	8923.85
434.844	9323.21
435.052	9626.31
435.259	9716.42
435.466	9845.44
435.673	9593.54
435.88	10379.96
436.087	11078.32
436.294	10887.86
436.501	10605.24
436.708	10586.8
436.915	11340.46
437.122	11676.32
437.329	11586.21
437.537	11868.83
437.743	12200.6
437.95	12186.27
438.157	12671.64
438.364	13058.7
438.571	12984.98
438.778	13312.65
438.985	14600.82
439.192	14021.25
439.399	14180.99
439.606	14129.79
439.813	14830.2
440.02	15594.09
440.227	15258.22
440.433	15313.52
440.64	15790.69
440.847	15481.45
441.054	16091.74
441.261	16855.64
441.467	16704.09
441.674	17476.17
441.881	17975.88
442.088	17726.02
442.294	17603.14
442.501	18180.67
442.708	18348.61
442.914	19204.66
443.121	19900.97
443.328	19431.98
443.534	20718.11
443.741	20189.73
443.948	19946.02
444.154	21420.56
444.361	21293.58
444.568	21537.29
444.774	21336.59
444.981	22014.47
445.187	22258.18
445.394	23126.52
445.6	23017.97
445.807	25045.46
446.013	23935.46
446.22	24508.9
446.426	25395.67
446.633	25313.75
446.839	26311.11
447.046	25563.6
447.252	26698.17
447.459	26802.62
447.665	26362.31
447.871	27851.18
448.078	28844.45
448.284	27460.02
448.491	28436.9
448.697	29432.21
448.903	30183.82
449.11	29532.56
449.316	29243.8
449.522	29694.35
449.728	30724.48
449.935	30523.78
450.141	30833.02
450.347	31646.07
450.553	30378.37
450.76	30990.72
450.966	32053.61
451.172	31486.32
451.378	32307.56
451.584	31822.19
451.791	32276.84
451.997	32162.15
452.203	32964.96
452.409	32901.47
452.615	32612.71
452.821	31357.3
453.027	30720.38
453.233	32588.13
453.44	31125.88
453.646	31789.42
453.852	31836.53
454.058	31893.87
454.264	30966.14
454.47	31838.58
454.676	31086.97
454.882	32311.66
455.088	29102.49
455.294	29626.77
455.5	30128.52
455.705	30044.55
455.911	29333.91
456.117	28692.9
456.323	28406.18
456.529	26583.49
456.735	27996.59
456.941	27455.92
457.147	26524.1
457.352	25913.8
457.558	25336.27
457.764	25489.87
457.97	24924.63
458.176	24336.87
458.381	24586.72
458.587	22985.21
458.793	23265.78
458.999	22245.89
459.204	23712.24
459.41	22766.07
459.616	21520.91
459.821	21545.48
460.027	21420.56
460.233	20828.7
460.438	20165.15
460.644	20222.5
460.85	19421.74
461.055	18752.06
461.261	18954.8
461.466	17496.65
461.672	17037.91
461.878	18301.5
462.083	16736.85
462.289	16800.34
462.494	16446.04
462.7	15778.4
462.905	15413.87
463.111	15952.48
463.316	15997.54
463.522	15573.61
463.727	15610.47
463.932	15579.75
464.138	15307.37
464.343	15563.37
464.549	15151.73
464.754	15401.58
464.959	15514.22
465.165	15340.14
465.37	14772.85
465.575	14467.7
465.781	14854.77
465.986	14850.67
466.191	14338.68
466.397	13963.9
466.602	13595.27
466.807	13943.42
467.012	14078.59
467.218	14070.4
467.423	13783.68
467.628	13957.76
467.833	14584.44
468.038	14000.77
468.244	13501.06
468.449	14082.69
468.654	13562.5
468.859	13560.45
469.064	13441.67
469.269	12950.16
