Data from USB4F104151__144__11-08-12-251.txt Node

Date: Wed Mar 12 11:08:12 EDT 2025
User: louis
Spectrometer: USB4F10415
Trigger mode: 4
Integration Time (sec): 2.000000E-2
Scans to average: 1
Electric dark correction enabled: true
Nonlinearity correction enabled: false
Boxcar width: 0
XAxis mode: Wavelengths
Number of Pixels in Spectrum: 3648
>>>>>Begin Spectral Data<<<<<
178.204	-108.03
178.424	-108.03
178.644	-108.03
178.864	-97.79
179.084	-153.09
179.304	-17.92
179.524	16.9
179.744	6.66
179.964	20.99
180.184	-26.11
180.404	-15.87
180.624	-13.82
180.844	23.04
181.064	-7.68
181.283	14.85
181.503	-17.92
181.723	16.9
181.943	-9.73
182.163	78.33
182.383	6.66
182.602	4.61
182.822	55.81
183.042	-3.58
183.262	-3.58
183.482	-5.63
183.701	16.9
183.921	-7.68
184.141	2.56
184.361	4.61
184.58	31.23
184.8	43.52
185.02	10.75
185.239	61.95
185.459	-3.58
185.679	-38.4
185.898	-67.07
186.118	68.09
186.338	-1.54
186.557	18.94
186.777	-3.58
186.997	8.7
187.216	27.14
187.436	-9.73
187.655	29.18
187.875	10.75
188.095	31.23
188.314	20.99
188.534	41.47
188.753	35.33
188.973	14.85
189.192	12.8
189.412	49.66
189.631	-36.35
189.851	18.94
190.07	4.61
190.29	100.86
190.509	12.8
190.729	70.14
190.948	-32.26
191.168	76.29
191.387	86.53
191.607	47.62
191.826	6.66
192.045	55.81
192.265	4.61
192.484	-17.92
192.704	-28.16
192.923	29.18
193.142	18.94
193.362	-34.3
193.581	68.09
193.8	10.75
194.02	25.09
194.239	-15.87
194.458	18.94
194.678	-1.54
194.897	117.25
195.116	18.94
195.335	-15.87
195.555	90.62
195.774	10.75
195.993	27.14
196.212	84.48
196.432	-9.73
196.651	66.05
196.87	-3.58
197.089	41.47
197.308	27.14
197.528	-28.16
197.747	-19.97
197.966	98.81
198.185	37.38
198.404	29.18
198.623	27.14
198.842	-65.02
199.062	23.04
199.281	84.48
199.5	-24.06
199.719	33.28
199.938	14.85
200.157	127.49
200.376	-40.45
200.595	55.81
200.814	64
201.033	107.01
201.252	59.9
201.471	0.51
201.69	41.47
201.909	55.81
202.128	43.52
202.347	45.57
202.566	6.66
202.785	6.66
203.004	-9.73
203.223	104.96
203.442	-30.21
203.661	-48.64
203.879	4.61
204.098	37.38
204.317	64
204.536	57.86
204.755	-24.06
204.974	78.33
205.193	45.57
205.411	66.05
205.63	6.66
205.849	76.29
206.068	31.23
206.287	33.28
206.505	27.14
206.724	4.61
206.943	-1.54
207.162	39.42
207.381	113.15
207.599	-7.68
207.818	43.52
208.037	59.9
208.255	-30.21
208.474	33.28
208.693	14.85
208.911	20.99
209.13	84.48
209.349	49.66
209.567	43.52
209.786	51.71
210.005	31.23
210.223	-11.78
210.442	-42.5
210.661	102.91
210.879	29.18
211.098	14.85
211.316	-17.92
211.535	55.81
211.753	47.62
211.972	59.9
212.191	25.09
212.409	49.66
212.628	70.14
212.846	14.85
213.065	70.14
213.283	59.9
213.502	23.04
213.72	80.38
213.938	-89.6
214.157	27.14
214.375	-42.5
214.594	23.04
214.812	20.99
215.031	6.66
215.249	92.67
215.467	31.23
215.686	27.14
215.904	64
216.122	25.09
216.341	100.86
216.559	16.9
216.778	45.57
216.996	37.38
217.214	64
217.432	-19.97
217.651	25.09
217.869	61.95
218.087	20.99
218.306	18.94
218.524	51.71
218.742	72.19
218.96	37.38
219.179	-1.54
219.397	25.09
219.615	127.49
219.833	57.86
220.051	16.9
220.27	49.66
220.488	43.52
220.706	39.42
220.924	8.7
221.142	16.9
221.36	-17.92
221.578	55.81
221.796	-26.11
222.015	43.52
222.233	35.33
222.451	29.18
222.669	27.14
222.887	16.9
223.105	18.94
223.323	104.96
223.541	20.99
223.759	90.62
223.977	12.8
224.195	68.09
224.413	84.48
224.631	61.95
224.849	31.23
225.067	125.44
225.285	43.52
225.503	86.53
225.721	-1.54
225.939	41.47
226.157	74.24
226.375	76.29
226.592	-1.54
226.81	-7.68
227.028	61.95
227.246	31.23
227.464	4.61
227.682	-28.16
227.9	6.66
228.117	25.09
228.335	39.42
228.553	12.8
228.771	55.81
228.989	33.28
229.206	-15.87
229.424	76.29
229.642	-7.68
229.86	51.71
230.077	18.94
230.295	57.86
230.513	68.09
230.731	78.33
230.948	64
231.166	-36.35
231.384	0.51
231.601	-7.68
231.819	76.29
232.037	43.52
232.254	33.28
232.472	23.04
232.689	-58.88
232.907	-13.82
233.125	-9.73
233.342	-24.06
233.56	18.94
233.777	35.33
233.995	10.75
234.213	72.19
234.43	2.56
234.648	-50.69
234.865	59.9
235.083	45.57
235.3	31.23
235.518	41.47
235.735	10.75
235.953	-54.78
236.17	-7.68
236.388	-50.69
236.605	88.57
236.822	125.44
237.04	-30.21
237.257	61.95
237.475	-32.26
237.692	45.57
237.909	6.66
238.127	16.9
238.344	-44.54
238.562	29.18
238.779	35.33
238.996	-28.16
239.214	64
239.431	35.33
239.648	-101.89
239.865	8.7
240.083	18.94
240.3	-9.73
240.517	2.56
240.735	35.33
240.952	37.38
241.169	0.51
241.386	61.95
241.603	25.09
241.821	-11.78
242.038	31.23
242.255	27.14
242.472	2.56
242.689	6.66
242.907	59.9
243.124	14.85
243.341	66.05
243.558	-13.82
243.775	45.57
243.992	20.99
244.209	-34.3
244.426	6.66
244.643	-17.92
244.86	57.86
245.078	2.56
245.295	53.76
245.512	64
245.729	20.99
245.946	43.52
246.163	88.57
246.38	43.52
246.597	57.86
246.814	12.8
247.031	-87.55
247.248	41.47
247.464	72.19
247.681	-42.5
247.898	18.94
248.115	117.25
248.332	51.71
248.549	25.09
248.766	66.05
248.983	31.23
249.2	47.62
249.417	25.09
249.633	-3.58
249.85	96.77
250.067	37.38
250.284	37.38
250.501	84.48
250.717	35.33
250.934	10.75
251.151	31.23
251.368	-38.4
251.585	0.51
251.801	72.19
252.018	20.99
252.235	-44.54
252.451	-30.21
252.668	0.51
252.885	29.18
253.102	51.71
253.318	47.62
253.535	-9.73
253.752	16.9
253.968	-30.21
254.185	27.14
254.401	47.62
254.618	94.72
254.835	4.61
255.051	70.14
255.268	-5.63
255.484	-7.68
255.701	4.61
255.917	78.33
256.134	0.51
256.351	-19.97
256.567	92.67
256.784	-3.58
257	-24.06
257.217	61.95
257.433	31.23
257.65	57.86
257.866	47.62
258.082	16.9
258.299	6.66
258.515	-40.45
258.732	33.28
258.948	18.94
259.165	74.24
259.381	-5.63
259.597	25.09
259.814	35.33
260.03	78.33
260.246	-9.73
260.463	37.38
260.679	2.56
260.895	6.66
261.112	82.43
261.328	29.18
261.544	-17.92
261.761	35.33
261.977	68.09
262.193	16.9
262.409	72.19
262.626	20.99
262.842	6.66
263.058	27.14
263.274	35.33
263.49	74.24
263.707	-22.02
263.923	-46.59
264.139	12.8
264.355	-7.68
264.571	78.33
264.787	-15.87
265.004	14.85
265.22	-15.87
265.436	27.14
265.652	33.28
265.868	31.23
266.084	-9.73
266.3	43.52
266.516	12.8
266.732	0.51
266.948	45.57
267.164	23.04
267.38	35.33
267.596	68.09
267.812	100.86
268.028	53.76
268.244	55.81
268.46	82.43
268.676	-17.92
268.892	-7.68
269.108	-17.92
269.324	4.61
269.54	6.66
269.756	10.75
269.972	12.8
270.188	39.42
270.403	47.62
270.619	12.8
270.835	20.99
271.051	18.94
271.267	16.9
271.483	86.53
271.698	16.9
271.914	45.57
272.13	113.15
272.346	57.86
272.562	2.56
272.777	33.28
272.993	-1.54
273.209	53.76
273.425	64
273.64	37.38
273.856	18.94
274.072	70.14
274.287	-11.78
274.503	49.66
274.719	47.62
274.934	66.05
275.15	-1.54
275.366	27.14
275.581	66.05
275.797	-13.82
276.012	23.04
276.228	113.15
276.444	61.95
276.659	86.53
276.875	37.38
277.09	31.23
277.306	29.18
277.521	-56.83
277.737	20.99
277.952	51.71
278.168	35.33
278.383	-13.82
278.599	64
278.814	53.76
279.03	-13.82
279.245	39.42
279.461	-34.3
279.676	16.9
279.892	43.52
280.107	10.75
280.322	43.52
280.538	20.99
280.753	31.23
280.969	23.04
281.184	12.8
281.399	37.38
281.615	41.47
281.83	43.52
282.045	-24.06
282.26	-50.69
282.476	29.18
282.691	39.42
282.906	-38.4
283.122	47.62
283.337	53.76
283.552	145.92
283.767	45.57
283.983	92.67
284.198	-5.63
284.413	27.14
284.628	12.8
284.843	12.8
285.058	76.29
285.274	27.14
285.489	-50.69
285.704	64
285.919	70.14
286.134	4.61
286.349	33.28
286.564	113.15
286.779	-60.93
286.995	41.47
287.21	-62.98
287.425	43.52
287.64	-30.21
287.855	47.62
288.07	-22.02
288.285	31.23
288.5	68.09
288.715	72.19
288.93	80.38
289.145	-3.58
289.36	35.33
289.575	39.42
289.79	51.71
290.004	51.71
290.219	53.76
290.434	25.09
290.649	-34.3
290.864	53.76
291.079	-28.16
291.294	2.56
291.509	-26.11
291.724	-22.02
291.938	66.05
292.153	96.77
292.368	-38.4
292.583	14.85
292.798	78.33
293.012	70.14
293.227	18.94
293.442	61.95
293.657	55.81
293.871	14.85
294.086	49.66
294.301	86.53
294.516	57.86
294.73	70.14
294.945	-99.84
295.16	-52.74
295.374	41.47
295.589	41.47
295.804	49.66
296.018	72.19
296.233	43.52
296.447	23.04
296.662	23.04
296.877	25.09
297.091	27.14
297.306	64
297.52	12.8
297.735	-1.54
297.949	0.51
298.164	35.33
298.378	4.61
298.593	25.09
298.807	76.29
299.022	68.09
299.236	33.28
299.451	41.47
299.665	27.14
299.88	55.81
300.094	53.76
300.309	25.09
300.523	49.66
300.737	6.66
300.952	2.56
301.166	12.8
301.381	0.51
301.595	14.85
301.809	29.18
302.024	-30.21
302.238	27.14
302.452	55.81
302.667	33.28
302.881	47.62
303.095	16.9
303.309	16.9
303.524	72.19
303.738	70.14
303.952	49.66
304.166	31.23
304.381	-30.21
304.595	55.81
304.809	59.9
305.023	51.71
305.237	53.76
305.452	53.76
305.666	45.57
305.88	12.8
306.094	23.04
306.308	35.33
306.522	80.38
306.736	25.09
306.95	92.67
307.164	137.73
307.379	98.81
307.593	47.62
307.807	20.99
308.021	-17.92
308.235	74.24
308.449	29.18
308.663	61.95
308.877	68.09
309.091	29.18
309.305	37.38
309.519	14.85
309.733	-13.82
309.947	23.04
310.161	70.14
310.374	51.71
310.588	39.42
310.802	8.7
311.016	35.33
311.23	49.66
311.444	18.94
311.658	39.42
311.872	84.48
312.085	88.57
312.299	-38.4
312.513	-17.92
312.727	145.92
312.941	12.8
313.154	39.42
313.368	8.7
313.582	104.96
313.796	72.19
314.009	-1.54
314.223	90.62
314.437	-1.54
314.651	14.85
314.864	4.61
315.078	8.7
315.292	25.09
315.505	35.33
315.719	27.14
315.933	-26.11
316.146	-28.16
316.36	-32.26
316.573	31.23
316.787	70.14
317.001	98.81
317.214	-83.45
317.428	94.72
317.641	45.57
317.855	47.62
318.068	33.28
318.282	94.72
318.495	82.43
318.709	68.09
318.922	51.71
319.136	78.33
319.349	51.71
319.563	23.04
319.776	2.56
319.99	2.56
320.203	-3.58
320.417	-3.58
320.63	20.99
320.843	66.05
321.057	16.9
321.27	4.61
321.483	68.09
321.697	96.77
321.91	43.52
322.124	39.42
322.337	51.71
322.55	-15.87
322.763	23.04
322.977	39.42
323.19	25.09
323.403	25.09
323.617	47.62
323.83	53.76
324.043	70.14
324.256	41.47
324.469	39.42
324.683	64
324.896	29.18
325.109	127.49
325.322	14.85
325.535	-42.5
325.748	104.96
325.962	70.14
326.175	92.67
326.388	61.95
326.601	-19.97
326.814	14.85
327.027	109.05
327.24	55.81
327.453	14.85
327.666	12.8
327.879	-17.92
328.092	96.77
328.305	39.42
328.518	18.94
328.731	51.71
328.944	115.2
329.157	-17.92
329.37	127.49
329.583	39.42
329.796	55.81
330.009	33.28
330.222	53.76
330.435	137.73
330.648	6.66
330.861	47.62
331.073	-7.68
331.286	47.62
331.499	88.57
331.712	47.62
331.925	68.09
332.138	92.67
332.35	100.86
332.563	18.94
332.776	82.43
332.989	25.09
333.202	14.85
333.414	90.62
333.627	49.66
333.84	-9.73
334.053	53.76
334.265	12.8
334.478	10.75
334.691	2.56
334.903	59.9
335.116	14.85
335.329	59.9
335.541	57.86
335.754	70.14
335.966	78.33
336.179	49.66
336.392	29.18
336.604	43.52
336.817	-1.54
337.029	29.18
337.242	72.19
337.454	41.47
337.667	35.33
337.88	43.52
338.092	41.47
338.305	72.19
338.517	35.33
338.729	12.8
338.942	70.14
339.154	39.42
339.367	-32.26
339.579	27.14
339.792	8.7
340.004	70.14
340.217	0.51
340.429	150.01
340.641	-34.3
340.854	49.66
341.066	31.23
341.278	72.19
341.491	88.57
341.703	78.33
341.915	57.86
342.128	100.86
342.34	78.33
342.552	-9.73
342.764	-3.58
342.977	41.47
343.189	53.76
343.401	43.52
343.613	-13.82
343.826	72.19
344.038	6.66
344.25	64
344.462	29.18
344.674	45.57
344.886	14.85
345.099	31.23
345.311	64
345.523	55.81
345.735	33.28
345.947	57.86
346.159	45.57
346.371	70.14
346.583	31.23
346.795	51.71
347.007	0.51
347.219	68.09
347.431	39.42
347.643	109.05
347.855	6.66
348.067	51.71
348.279	64
348.491	14.85
348.703	12.8
348.915	78.33
349.127	-17.92
349.339	47.62
349.551	78.33
349.763	88.57
349.975	39.42
350.187	94.72
350.399	88.57
350.61	113.15
350.822	88.57
351.034	84.48
351.246	-17.92
351.458	78.33
351.669	55.81
351.881	41.47
352.093	80.38
352.305	-40.45
352.517	-7.68
352.728	27.14
352.94	45.57
353.152	64
353.363	43.52
353.575	35.33
353.787	100.86
353.999	2.56
354.21	45.57
354.422	23.04
354.633	2.56
354.845	29.18
355.057	20.99
355.268	29.18
355.48	121.34
355.692	0.51
355.903	37.38
356.115	51.71
356.326	-11.78
356.538	80.38
356.749	41.47
356.961	16.9
357.172	49.66
357.384	31.23
357.595	74.24
357.807	37.38
358.018	-3.58
358.23	27.14
358.441	49.66
358.653	68.09
358.864	2.56
359.075	29.18
359.287	29.18
359.498	47.62
359.709	45.57
359.921	64
360.132	59.9
360.344	94.72
360.555	66.05
360.766	64
360.977	31.23
361.189	27.14
361.4	43.52
361.611	53.76
361.823	8.7
362.034	47.62
362.245	-1.54
362.456	61.95
362.667	74.24
362.879	-11.78
363.09	23.04
363.301	76.29
363.512	94.72
363.723	72.19
363.935	47.62
364.146	41.47
364.357	57.86
364.568	12.8
364.779	98.81
364.99	45.57
365.201	14.85
365.412	41.47
365.623	45.57
365.834	76.29
366.045	23.04
366.256	27.14
366.467	27.14
366.678	16.9
366.889	6.66
367.1	76.29
367.311	64
367.522	2.56
367.733	39.42
367.944	39.42
368.155	-1.54
368.366	55.81
368.577	98.81
368.788	82.43
368.999	33.28
369.209	53.76
369.42	0.51
369.631	115.2
369.842	27.14
370.053	57.86
370.264	-9.73
370.474	55.81
370.685	72.19
370.896	18.94
371.107	84.48
371.317	43.52
371.528	37.38
371.739	94.72
371.95	14.85
372.16	14.85
372.371	-54.78
372.582	-69.12
372.792	55.81
373.003	90.62
373.214	6.66
373.424	68.09
373.635	88.57
373.846	88.57
374.056	35.33
374.267	74.24
374.477	47.62
374.688	20.99
374.898	31.23
375.109	78.33
375.319	23.04
375.53	66.05
375.74	53.76
375.951	29.18
376.161	-17.92
376.372	100.86
376.582	31.23
376.793	-7.68
377.003	23.04
377.214	23.04
377.424	59.9
377.635	37.38
377.845	64
378.055	29.18
378.266	43.52
378.476	10.75
378.686	41.47
378.897	143.87
379.107	43.52
379.317	102.91
379.528	10.75
379.738	70.14
379.948	78.33
380.158	76.29
380.369	84.48
380.579	98.81
380.789	55.81
380.999	94.72
381.21	49.66
381.42	45.57
381.63	0.51
381.84	10.75
382.05	76.29
382.261	23.04
382.471	78.33
382.681	23.04
382.891	29.18
383.101	82.43
383.311	49.66
383.521	-3.58
383.731	61.95
383.941	0.51
384.151	41.47
384.361	84.48
384.571	84.48
384.781	31.23
384.991	31.23
385.201	76.29
385.411	51.71
385.621	47.62
385.831	33.28
386.041	61.95
386.251	-1.54
386.461	125.44
386.671	78.33
386.881	72.19
387.091	100.86
387.301	125.44
387.511	78.33
387.72	66.05
387.93	90.62
388.14	-85.5
388.35	100.86
388.56	35.33
388.769	86.53
388.979	107.01
389.189	31.23
389.399	49.66
389.609	115.2
389.818	12.8
390.028	113.15
390.238	78.33
390.447	68.09
390.657	43.52
390.867	80.38
391.076	111.1
391.286	29.18
391.496	0.51
391.705	64
391.915	96.77
392.125	12.8
392.334	61.95
392.544	49.66
392.753	57.86
392.963	25.09
393.172	47.62
393.382	68.09
393.591	147.97
393.801	82.43
394.01	55.81
394.22	133.63
394.429	121.34
394.639	70.14
394.848	33.28
395.058	76.29
395.267	43.52
395.477	152.06
395.686	121.34
395.895	111.1
396.105	127.49
396.314	143.87
396.524	162.3
396.733	100.86
396.942	143.87
397.152	102.91
397.361	154.11
397.57	133.63
397.78	-7.68
397.989	88.57
398.198	131.58
398.407	197.12
398.617	98.81
398.826	135.68
399.035	100.86
399.244	76.29
399.453	98.81
399.663	100.86
399.872	102.91
400.081	88.57
400.29	139.77
400.499	80.38
400.708	117.25
400.917	111.1
401.127	113.15
401.336	117.25
401.545	182.78
401.754	166.4
401.963	86.53
402.172	139.77
402.381	45.57
402.59	18.94
402.799	135.68
403.008	96.77
403.217	68.09
403.426	201.21
403.635	125.44
403.844	162.3
404.053	125.44
404.262	86.53
404.471	178.69
404.68	133.63
404.888	92.67
405.097	104.96
405.306	156.16
405.515	172.54
405.724	195.07
405.933	168.45
406.142	166.4
406.35	168.45
406.559	250.36
406.768	139.77
406.977	137.73
407.185	160.25
407.394	172.54
407.603	248.32
407.812	188.93
408.02	248.32
408.229	145.92
408.438	223.74
408.646	166.4
408.855	231.93
409.064	274.94
409.272	279.04
409.481	197.12
409.69	260.6
409.898	184.83
410.107	276.99
410.315	309.76
410.524	258.56
410.733	330.23
410.941	264.7
411.15	358.91
411.358	387.58
411.567	334.33
411.775	363
411.984	340.47
412.192	430.59
412.401	375.29
412.609	430.59
412.818	473.59
413.026	420.35
413.234	375.29
413.443	399.87
413.651	406.01
413.86	475.64
414.068	514.55
414.276	481.78
414.485	588.28
414.693	545.27
414.901	664.05
415.11	619
415.318	621.05
415.526	580.09
415.734	743.92
415.943	664.05
416.151	739.83
416.359	694.77
416.567	784.88
416.776	764.4
416.984	764.4
417.192	852.47
417.4	854.51
417.608	911.86
417.817	881.14
418.025	946.67
418.233	1012.21
418.441	1020.4
418.649	1014.26
418.857	1153.52
419.065	1176.05
419.273	1133.04
419.481	1124.85
419.689	1210.86
419.897	1278.44
420.105	1339.88
420.313	1395.18
420.521	1454.57
420.729	1448.43
420.937	1333.74
421.145	1516.01
421.353	1503.72
421.561	1749.48
421.769	1634.79
421.977	1663.46
422.185	1790.44
422.393	1819.11
422.601	2011.62
422.809	2038.24
423.017	1976.8
423.224	2101.73
423.432	2195.93
423.64	2200.03
423.848	2363.87
424.056	2327
424.263	2474.46
424.471	2470.36
424.679	2449.88
424.887	2705.88
425.094	2628.06
425.302	2767.32
425.51	2808.28
425.718	2941.4
425.925	2998.74
426.133	3078.61
426.341	3228.11
426.548	3299.79
426.756	3541.45
426.964	3441.1
427.171	3645.9
427.379	3709.38
427.586	3762.63
427.794	3832.26
428.001	4086.21
428.209	4090.31
428.417	4135.36
428.624	4395.45
428.832	4442.56
429.039	4460.99
429.247	4563.39
429.454	4989.36
429.662	5130.67
429.869	4823.48
430.076	5343.66
430.284	5073.33
430.491	5278.13
430.699	5599.66
430.906	5532.08
431.114	5603.75
431.321	5876.13
431.528	5923.24
431.736	6212
431.943	6558.11
432.15	6338.98
432.358	6529.44
432.565	6801.82
432.772	6799.77
432.979	7156.11
433.187	7393.68
433.394	7215.51
433.601	7739.79
433.808	7717.26
434.016	7907.72
434.223	8034.69
434.43	8702.33
434.637	8442.24
434.844	9105.78
435.052	9199.99
435.259	8993.14
435.466	9277.81
435.673	8984.95
435.88	9828.71
436.087	10246.5
436.294	10129.77
436.501	9783.66
436.708	10279.27
436.915	10654.05
437.122	10871.13
437.329	10678.62
437.537	11368.79
437.743	11338.07
437.95	11254.1
438.157	11919.69
438.364	12286.28
438.571	12321.09
438.778	12286.28
438.985	13562.16
439.192	12880.19
439.399	13441.33
439.606	13293.88
439.813	13713.71
440.02	14821.66
440.227	14281
440.433	14309.67
440.64	14844.19
440.847	14514.47
441.054	15237.4
441.261	16075.02
441.467	15943.95
441.674	15995.15
441.881	16666.88
442.088	16603.39
442.294	16439.56
442.501	17180.92
442.708	17266.94
442.914	17889.52
443.121	18667.75
443.328	18231.53
443.534	19439.83
443.741	19067.1
443.948	18653.41
444.154	20244.68
444.361	20295.88
444.568	19849.43
444.774	19814.61
444.981	20037.84
445.187	20857.03
445.394	21731.51
445.6	21446.84
445.807	23570.58
446.013	22605.99
446.22	22720.68
446.426	24008.85
446.633	24076.43
446.839	24692.87
447.046	23781.53
447.252	24975.49
447.459	25176.19
447.665	25133.18
447.871	26515.56
448.078	27205.73
448.284	25845.88
448.491	26689.64
448.697	27383.9
448.903	28065.88
449.11	28325.97
449.316	27676.76
449.522	28332.11
449.728	29184.07
449.935	29196.35
450.141	28971.08
450.347	30257.2
450.553	28825.67
450.76	29179.97
450.966	30195.76
451.172	29839.42
451.378	30119.99
451.584	30076.98
451.791	30771.24
451.997	30648.36
452.203	30986.28
452.409	31479.84
452.615	30783.53
452.821	29935.67
453.027	29489.21
453.233	30980.14
453.44	29835.32
453.646	30122.04
453.852	29950.01
454.058	30621.74
454.264	29589.56
454.47	30144.56
454.676	28966.98
454.882	30642.22
455.088	27846.74
455.294	28242
455.5	28661.83
455.705	28860.49
455.911	27492.44
456.117	27148.39
456.323	26871.91
456.529	25389.18
456.735	26159.22
456.941	25411.71
457.147	25557.11
457.352	24758.41
457.558	24019.09
457.764	24297.61
457.97	23711.89
458.176	23507.1
458.381	23392.41
458.587	22055.09
458.793	22044.85
458.999	21010.62
459.204	22399.15
459.41	21999.79
459.616	20676.8
459.821	20496.58
460.027	20467.91
460.233	20175.05
460.438	18876.64
460.644	19454.17
460.85	18276.59
461.055	18098.41
461.261	17957.1
461.466	16574.72
461.672	16367.88
461.878	17281.27
462.083	16140.55
462.289	16079.11
462.494	15696.14
462.7	15128.86
462.905	14395.68
463.111	15073.56
463.316	15249.69
463.522	14745.89
463.727	14874.91
463.932	14885.15
464.138	14555.43
464.343	14840.09
464.549	14532.9
464.754	14967.07
464.959	14762.27
465.165	14346.53
465.37	14123.3
465.575	13578.54
465.781	14264.61
465.986	14438.69
466.191	13402.42
466.397	13363.51
466.602	12738.88
466.807	13381.94
467.012	13263.16
467.218	13199.67
467.423	13146.42
467.628	13234.49
467.833	13547.83
468.038	13265.21
468.244	12978.49
468.449	13375.8
468.654	12783.93
