Data from USB4F104151__274__11-12-14-725.txt Node

Date: Wed Mar 12 11:12:14 EDT 2025
User: louis
Spectrometer: USB4F10415
Trigger mode: 4
Integration Time (sec): 2.000000E-2
Scans to average: 1
Electric dark correction enabled: true
Nonlinearity correction enabled: false
Boxcar width: 0
XAxis mode: Wavelengths
Number of Pixels in Spectrum: 3648
>>>>>Begin Spectral Data<<<<<
178.204	-140.29
178.424	-140.29
178.644	-140.29
178.864	-74.75
179.084	-35.84
179.304	3.07
179.524	29.7
179.744	-44.03
179.964	39.94
180.184	-48.13
180.404	-11.26
180.624	44.03
180.844	21.5
181.064	-66.56
181.283	-74.75
181.503	44.03
181.723	62.46
181.943	-19.46
182.163	-3.07
182.383	9.22
182.602	54.27
182.822	13.31
183.042	-19.46
183.262	-46.08
183.482	19.46
183.701	11.26
183.921	78.85
184.141	-23.55
184.361	97.28
184.58	9.22
184.8	13.31
185.02	-35.84
185.239	46.08
185.459	1.02
185.679	46.08
185.898	-37.89
186.118	37.89
186.338	64.51
186.557	27.65
186.777	-27.65
186.997	13.31
187.216	33.79
187.436	50.18
187.655	9.22
187.875	-21.5
188.095	-25.6
188.314	37.89
188.534	13.31
188.753	-11.26
188.973	-23.55
189.192	3.07
189.412	-60.42
189.631	-25.6
189.851	-17.41
190.07	-1.02
190.29	41.98
190.509	62.46
190.729	-41.98
190.948	19.46
191.168	70.65
191.387	7.17
191.607	13.31
191.826	17.41
192.045	-13.31
192.265	19.46
192.484	56.32
192.704	-91.13
192.923	3.07
193.142	50.18
193.362	58.37
193.581	11.26
193.8	-1.02
194.02	29.7
194.239	58.37
194.458	11.26
194.678	15.36
194.897	48.13
195.116	-44.03
195.335	-70.65
195.555	-29.7
195.774	-3.07
195.993	23.55
196.212	33.79
196.432	-72.7
196.651	19.46
196.87	-35.84
197.089	33.79
197.308	50.18
197.528	-25.6
197.747	-48.13
197.966	41.98
198.185	54.27
198.404	-82.94
198.623	27.65
198.842	5.12
199.062	-7.17
199.281	11.26
199.5	15.36
199.719	-39.94
199.938	-5.12
200.157	39.94
200.376	44.03
200.595	7.17
200.814	31.74
201.033	-54.27
201.252	62.46
201.471	-11.26
201.69	-27.65
201.909	13.31
202.128	1.02
202.347	29.7
202.566	-64.51
202.785	-21.5
203.004	21.5
203.223	37.89
203.442	64.51
203.661	-19.46
203.879	54.27
204.098	29.7
204.317	-35.84
204.536	-23.55
204.755	50.18
204.974	37.89
205.193	-35.84
205.411	41.98
205.63	-35.84
205.849	68.61
206.068	29.7
206.287	19.46
206.505	82.94
206.724	-3.07
206.943	15.36
207.162	25.6
207.381	21.5
207.599	66.56
207.818	37.89
208.037	-3.07
208.255	-23.55
208.474	27.65
208.693	-44.03
208.911	-3.07
209.13	-13.31
209.349	-5.12
209.567	-50.18
209.786	27.65
210.005	39.94
210.223	60.42
210.442	-17.41
210.661	-41.98
210.879	111.61
211.098	-1.02
211.316	-56.32
211.535	52.22
211.753	-48.13
211.972	-35.84
212.191	-56.32
212.409	-11.26
212.628	-15.36
212.846	11.26
213.065	50.18
213.283	84.99
213.502	-66.56
213.72	1.02
213.938	-15.36
214.157	35.84
214.375	33.79
214.594	-31.74
214.812	-11.26
215.031	91.13
215.249	23.55
215.467	-11.26
215.686	46.08
215.904	62.46
216.122	-23.55
216.341	91.13
216.559	33.79
216.778	48.13
216.996	-15.36
217.214	56.32
217.432	-11.26
217.651	-5.12
217.869	68.61
218.087	15.36
218.306	19.46
218.524	56.32
218.742	-41.98
218.96	27.65
219.179	-5.12
219.397	9.22
219.615	-17.41
219.833	39.94
220.051	17.41
220.27	-31.74
220.488	76.8
220.706	25.6
220.924	-35.84
221.142	44.03
221.36	15.36
221.578	13.31
221.796	-15.36
222.015	-15.36
222.233	9.22
222.451	-5.12
222.669	48.13
222.887	54.27
223.105	-48.13
223.323	3.07
223.541	-25.6
223.759	50.18
223.977	-17.41
224.195	-7.17
224.413	-31.74
224.631	-29.7
224.849	7.17
225.067	78.85
225.285	5.12
225.503	-1.02
225.721	33.79
225.939	-1.02
226.157	1.02
226.375	125.95
226.592	29.7
226.81	46.08
227.028	21.5
227.246	-29.7
227.464	31.74
227.682	-13.31
227.9	15.36
228.117	-27.65
228.335	-13.31
228.553	39.94
228.771	25.6
228.989	54.27
229.206	33.79
229.424	17.41
229.642	-17.41
229.86	39.94
230.077	13.31
230.295	33.79
230.513	35.84
230.731	9.22
230.948	64.51
231.166	44.03
231.384	-15.36
231.601	-62.46
231.819	64.51
232.037	-11.26
232.254	-25.6
232.472	72.7
232.689	60.42
232.907	-23.55
233.125	-33.79
233.342	25.6
233.56	-78.85
233.777	52.22
233.995	31.74
234.213	-11.26
234.43	19.46
234.648	50.18
234.865	21.5
235.083	35.84
235.3	-33.79
235.518	-23.55
235.735	70.65
235.953	58.37
236.17	89.09
236.388	44.03
236.605	-21.5
236.822	1.02
237.04	19.46
237.257	58.37
237.475	44.03
237.692	-23.55
237.909	-9.22
238.127	-7.17
238.344	23.55
238.562	29.7
238.779	-1.02
238.996	17.41
239.214	-17.41
239.431	80.89
239.648	-39.94
239.865	58.37
240.083	-17.41
240.3	39.94
240.517	1.02
240.735	46.08
240.952	27.65
241.169	27.65
241.386	33.79
241.603	31.74
241.821	-29.7
242.038	37.89
242.255	58.37
242.472	5.12
242.689	11.26
242.907	-33.79
243.124	72.7
243.341	-31.74
243.558	60.42
243.775	17.41
243.992	11.26
244.209	41.98
244.426	-1.02
244.643	-3.07
244.86	-60.42
245.078	56.32
245.295	70.65
245.512	-1.02
245.729	-52.22
245.946	-23.55
246.163	-25.6
246.38	11.26
246.597	13.31
246.814	-7.17
247.031	-56.32
247.248	62.46
247.464	-23.55
247.681	-48.13
247.898	37.89
248.115	21.5
248.332	29.7
248.549	-17.41
248.766	11.26
248.983	109.57
249.2	-52.22
249.417	7.17
249.633	17.41
249.85	15.36
250.067	48.13
250.284	1.02
250.501	21.5
250.717	-3.07
250.934	5.12
251.151	-9.22
251.368	15.36
251.585	35.84
251.801	15.36
252.018	58.37
252.235	33.79
252.451	-1.02
252.668	76.8
252.885	-1.02
253.102	66.56
253.318	-7.17
253.535	-25.6
253.752	3.07
253.968	-48.13
254.185	-19.46
254.401	27.65
254.618	-5.12
254.835	23.55
255.051	35.84
255.268	101.37
255.484	44.03
255.701	-11.26
255.917	95.23
256.134	-23.55
256.351	23.55
256.567	-11.26
256.784	13.31
257	29.7
257.217	3.07
257.433	-15.36
257.65	7.17
257.866	89.09
258.082	-27.65
258.299	-31.74
258.515	52.22
258.732	-33.79
258.948	11.26
259.165	46.08
259.381	-52.22
259.597	-9.22
259.814	13.31
260.03	25.6
260.246	1.02
260.463	-62.46
260.679	17.41
260.895	-72.7
261.112	5.12
261.328	29.7
261.544	-29.7
261.761	39.94
261.977	54.27
262.193	-17.41
262.409	-17.41
262.626	17.41
262.842	27.65
263.058	-5.12
263.274	-27.65
263.49	148.48
263.707	91.13
263.923	-3.07
264.139	50.18
264.355	-13.31
264.571	91.13
264.787	39.94
265.004	-5.12
265.22	-68.61
265.436	9.22
265.652	7.17
265.868	-7.17
266.084	-7.17
266.3	35.84
266.516	-70.65
266.732	-35.84
266.948	-54.27
267.164	-1.02
267.38	44.03
267.596	25.6
267.812	58.37
268.028	33.79
268.244	-23.55
268.46	-9.22
268.676	13.31
268.892	76.8
269.108	50.18
269.324	25.6
269.54	-3.07
269.756	52.22
269.972	-19.46
270.188	27.65
270.403	-7.17
270.619	74.75
270.835	-29.7
271.051	33.79
271.267	-13.31
271.483	48.13
271.698	50.18
271.914	-48.13
272.13	23.55
272.346	3.07
272.562	58.37
272.777	-11.26
272.993	-35.84
273.209	-5.12
273.425	-23.55
273.64	-19.46
273.856	-25.6
274.072	25.6
274.287	62.46
274.503	54.27
274.719	-5.12
274.934	41.98
275.15	-13.31
275.366	5.12
275.581	-56.32
275.797	9.22
276.012	27.65
276.228	7.17
276.444	29.7
276.659	-48.13
276.875	-9.22
277.09	39.94
277.306	33.79
277.521	11.26
277.737	5.12
277.952	29.7
278.168	62.46
278.383	95.23
278.599	1.02
278.814	64.51
279.03	64.51
279.245	13.31
279.461	-1.02
279.676	29.7
279.892	-13.31
280.107	-19.46
280.322	-37.89
280.538	-19.46
280.753	-31.74
280.969	50.18
281.184	11.26
281.399	-37.89
281.615	21.5
281.83	62.46
282.045	1.02
282.26	-37.89
282.476	64.51
282.691	78.85
282.906	21.5
283.122	68.61
283.337	-78.85
283.552	15.36
283.767	56.32
283.983	-23.55
284.198	25.6
284.413	33.79
284.628	-29.7
284.843	-56.32
285.058	-35.84
285.274	-9.22
285.489	-27.65
285.704	80.89
285.919	9.22
286.134	44.03
286.349	-15.36
286.564	-37.89
286.779	21.5
286.995	25.6
287.21	-48.13
287.425	-48.13
287.64	25.6
287.855	39.94
288.07	-5.12
288.285	89.09
288.5	82.94
288.715	54.27
288.93	27.65
289.145	5.12
289.36	62.46
289.575	29.7
289.79	54.27
290.004	25.6
290.219	44.03
290.434	46.08
290.649	29.7
290.864	-29.7
291.079	5.12
291.294	-15.36
291.509	60.42
291.724	13.31
291.938	29.7
292.153	-37.89
292.368	-5.12
292.583	39.94
292.798	33.79
293.012	82.94
293.227	-9.22
293.442	15.36
293.657	-37.89
293.871	105.47
294.086	-74.75
294.301	97.28
294.516	-70.65
294.73	37.89
294.945	78.85
295.16	56.32
295.374	9.22
295.589	74.75
295.804	-13.31
296.018	31.74
296.233	1.02
296.447	-1.02
296.662	44.03
296.877	54.27
297.091	-39.94
297.306	25.6
297.52	-74.75
297.735	58.37
297.949	-39.94
298.164	25.6
298.378	-19.46
298.593	-27.65
298.807	19.46
299.022	7.17
299.236	5.12
299.451	35.84
299.665	-11.26
299.88	-15.36
300.094	-29.7
300.309	21.5
300.523	-7.17
300.737	13.31
300.952	111.61
301.166	1.02
301.381	-5.12
301.595	-41.98
301.809	-7.17
302.024	-48.13
302.238	-35.84
302.452	78.85
302.667	21.5
302.881	-5.12
303.095	9.22
303.309	-76.8
303.524	1.02
303.738	3.07
303.952	-31.74
304.166	-21.5
304.381	13.31
304.595	15.36
304.809	-15.36
305.023	-25.6
305.237	19.46
305.452	-19.46
305.666	-17.41
305.88	21.5
306.094	-21.5
306.308	-3.07
306.522	5.12
306.736	31.74
306.95	9.22
307.164	-44.03
307.379	-9.22
307.593	107.52
307.807	-31.74
308.021	31.74
308.235	13.31
308.449	-1.02
308.663	-3.07
308.877	95.23
309.091	-15.36
309.305	1.02
309.519	7.17
309.733	27.65
309.947	93.18
310.161	25.6
310.374	17.41
310.588	50.18
310.802	-60.42
311.016	7.17
311.23	60.42
311.444	15.36
311.658	82.94
311.872	35.84
312.085	144.38
312.299	39.94
312.513	-27.65
312.727	35.84
312.941	-35.84
313.154	-35.84
313.368	13.31
313.582	-9.22
313.796	-56.32
314.009	23.55
314.223	29.7
314.437	27.65
314.651	-1.02
314.864	37.89
315.078	5.12
315.292	9.22
315.505	9.22
315.719	9.22
315.933	-17.41
316.146	-19.46
316.36	17.41
316.573	60.42
316.787	17.41
317.001	37.89
317.214	68.61
317.428	37.89
317.641	11.26
317.855	1.02
318.068	25.6
318.282	64.51
318.495	25.6
318.709	-44.03
318.922	15.36
319.136	119.81
319.349	29.7
319.563	15.36
319.776	-33.79
319.99	44.03
320.203	19.46
320.417	48.13
320.63	37.89
320.843	41.98
321.057	46.08
321.27	58.37
321.483	-23.55
321.697	25.6
321.91	15.36
322.124	33.79
322.337	21.5
322.55	-23.55
322.763	-29.7
322.977	-29.7
323.19	5.12
323.403	72.7
323.617	-15.36
323.83	-15.36
324.043	41.98
324.256	9.22
324.469	15.36
324.683	68.61
324.896	29.7
325.109	56.32
325.322	68.61
325.535	31.74
325.748	-13.31
325.962	119.81
326.175	99.33
326.388	31.74
326.601	-7.17
326.814	35.84
327.027	-7.17
327.24	29.7
327.453	-35.84
327.666	37.89
327.879	-19.46
328.092	-44.03
328.305	37.89
328.518	1.02
328.731	46.08
328.944	66.56
329.157	-54.27
329.37	23.55
329.583	23.55
329.796	60.42
330.009	5.12
330.222	-13.31
330.435	-25.6
330.648	29.7
330.861	27.65
331.073	91.13
331.286	62.46
331.499	-27.65
331.712	39.94
331.925	-44.03
332.138	-29.7
332.35	7.17
332.563	5.12
332.776	39.94
332.989	-82.94
333.202	-3.07
333.414	-44.03
333.627	-13.31
333.84	-21.5
334.053	35.84
334.265	13.31
334.478	-7.17
334.691	19.46
334.903	35.84
335.116	-93.18
335.329	-5.12
335.541	-39.94
335.754	39.94
335.966	3.07
336.179	72.7
336.392	54.27
336.604	64.51
336.817	-21.5
337.029	-27.65
337.242	117.76
337.454	27.65
337.667	-54.27
337.88	48.13
338.092	29.7
338.305	68.61
338.517	35.84
338.729	-31.74
338.942	109.57
339.154	-23.55
339.367	21.5
339.579	31.74
339.792	17.41
340.004	9.22
340.217	-56.32
340.429	1.02
340.641	-5.12
340.854	-15.36
341.066	46.08
341.278	5.12
341.491	64.51
341.703	29.7
341.915	-33.79
342.128	66.56
342.34	-5.12
342.552	9.22
342.764	-3.07
342.977	-39.94
343.189	29.7
343.401	58.37
343.613	25.6
343.826	39.94
344.038	3.07
344.25	33.79
344.462	15.36
344.674	5.12
344.886	29.7
345.099	46.08
345.311	-48.13
345.523	-19.46
345.735	-35.84
345.947	84.99
346.159	23.55
346.371	9.22
346.583	46.08
346.795	103.42
347.007	-15.36
347.219	56.32
347.431	23.55
347.643	3.07
347.855	-29.7
348.067	91.13
348.279	29.7
348.491	27.65
348.703	-41.98
348.915	7.17
349.127	13.31
349.339	91.13
349.551	25.6
349.763	60.42
349.975	-7.17
350.187	27.65
350.399	5.12
350.61	64.51
350.822	5.12
351.034	56.32
351.246	70.65
351.458	25.6
351.669	25.6
351.881	39.94
352.093	-21.5
352.305	5.12
352.517	17.41
352.728	29.7
352.94	3.07
353.152	7.17
353.363	-23.55
353.575	48.13
353.787	76.8
353.999	21.5
354.21	-25.6
354.422	17.41
354.633	-39.94
354.845	48.13
355.057	19.46
355.268	95.23
355.48	-23.55
355.692	29.7
355.903	5.12
356.115	21.5
356.326	33.79
356.538	46.08
356.749	13.31
356.961	80.89
357.172	-15.36
357.384	29.7
357.595	56.32
357.807	-21.5
358.018	80.89
358.23	9.22
358.441	21.5
358.653	29.7
358.864	17.41
359.075	-13.31
359.287	13.31
359.498	11.26
359.709	-1.02
359.921	17.41
360.132	54.27
360.344	48.13
360.555	-31.74
360.766	-15.36
360.977	-7.17
361.189	1.02
361.4	7.17
361.611	74.75
361.823	-27.65
362.034	39.94
362.245	41.98
362.456	-13.31
362.667	74.75
362.879	50.18
363.09	115.71
363.301	5.12
363.512	27.65
363.723	44.03
363.935	-19.46
364.146	-3.07
364.357	82.94
364.568	-25.6
364.779	-39.94
364.99	54.27
365.201	23.55
365.412	82.94
365.623	-9.22
365.834	35.84
366.045	-1.02
366.256	62.46
366.467	15.36
366.678	29.7
366.889	-3.07
367.1	48.13
367.311	-31.74
367.522	68.61
367.733	-27.65
367.944	54.27
368.155	3.07
368.366	-1.02
368.577	44.03
368.788	-60.42
368.999	23.55
369.209	11.26
369.42	-21.5
369.631	93.18
369.842	-5.12
370.053	74.75
370.264	7.17
370.474	23.55
370.685	41.98
370.896	29.7
371.107	93.18
371.317	1.02
371.528	64.51
371.739	13.31
371.95	23.55
372.16	3.07
372.371	-1.02
372.582	39.94
372.792	25.6
373.003	5.12
373.214	44.03
373.424	-13.31
373.635	64.51
373.846	109.57
374.056	58.37
374.267	70.65
374.477	7.17
374.688	29.7
374.898	-13.31
375.109	54.27
375.319	7.17
375.53	19.46
375.74	21.5
375.951	11.26
376.161	25.6
376.372	17.41
376.582	76.8
376.793	44.03
377.003	5.12
377.214	-7.17
377.424	64.51
377.635	50.18
377.845	-11.26
378.055	52.22
378.266	-29.7
378.476	29.7
378.686	33.79
378.897	23.55
379.107	66.56
379.317	105.47
379.528	9.22
379.738	82.94
379.948	19.46
380.158	35.84
380.369	3.07
380.579	62.46
380.789	-50.18
380.999	91.13
381.21	48.13
381.42	19.46
381.63	19.46
381.84	15.36
382.05	-15.36
382.261	78.85
382.471	-37.89
382.681	-46.08
382.891	50.18
383.101	48.13
383.311	23.55
383.521	-19.46
383.731	99.33
383.941	37.89
384.151	72.7
384.361	5.12
384.571	-3.07
384.781	56.32
384.991	68.61
385.201	1.02
385.411	29.7
385.621	35.84
385.831	-19.46
386.041	87.04
386.251	58.37
386.461	74.75
386.671	52.22
386.881	13.31
387.091	-50.18
387.301	109.57
387.511	23.55
387.72	29.7
387.93	89.09
388.14	37.89
388.35	-19.46
388.56	138.24
388.769	66.56
388.979	-37.89
389.189	-15.36
389.399	25.6
389.609	52.22
389.818	29.7
390.028	5.12
390.238	21.5
390.447	23.55
390.657	15.36
390.867	23.55
391.076	74.75
391.286	93.18
391.496	93.18
391.705	48.13
391.915	72.7
392.125	107.52
392.334	58.37
392.544	-3.07
392.753	-1.02
392.963	103.42
393.172	1.02
393.382	17.41
393.591	46.08
393.801	95.23
394.01	84.99
394.22	-15.36
394.429	62.46
394.639	41.98
394.848	111.61
395.058	21.5
395.267	31.74
395.477	107.52
395.686	52.22
395.895	113.66
396.105	117.76
396.314	70.65
396.524	97.28
396.733	74.75
396.942	95.23
397.152	105.47
397.361	123.9
397.57	82.94
397.78	74.75
397.989	58.37
398.198	82.94
398.407	35.84
398.617	70.65
398.826	76.8
399.035	5.12
399.244	76.8
399.453	46.08
399.663	60.42
399.872	115.71
400.081	33.79
400.29	95.23
400.499	25.6
400.708	156.67
400.917	50.18
401.127	70.65
401.336	103.42
401.545	164.86
401.754	66.56
401.963	95.23
402.172	173.05
402.381	68.61
402.59	99.33
402.799	121.85
403.008	156.67
403.217	97.28
403.426	138.24
403.635	33.79
403.844	99.33
404.053	82.94
404.262	101.37
404.471	119.81
404.68	74.75
404.888	115.71
405.097	140.29
405.306	119.81
405.515	97.28
405.724	107.52
405.933	74.75
406.142	158.72
406.35	134.14
406.559	201.72
406.768	128
406.977	203.77
407.185	140.29
407.394	224.25
407.603	185.34
407.812	175.1
408.02	144.38
408.229	109.57
408.438	164.86
408.646	201.72
408.855	168.96
409.064	148.48
409.272	199.68
409.481	181.25
409.69	238.59
409.898	226.3
410.107	273.4
410.315	269.31
410.524	328.7
410.733	318.46
410.941	230.4
411.15	316.41
411.358	318.46
411.567	408.57
411.775	257.02
411.984	336.89
412.192	355.32
412.401	359.42
412.609	340.99
412.818	431.1
413.026	394.23
413.234	410.62
413.443	410.62
413.651	467.96
413.86	556.02
414.068	594.93
414.276	592.89
414.485	480.25
414.693	586.74
414.901	586.74
415.11	566.26
415.318	607.22
415.526	670.71
415.734	576.5
415.943	830.45
416.151	740.34
416.359	740.34
416.567	801.78
416.776	685.05
416.984	783.35
417.192	861.17
417.4	863.22
417.608	805.88
417.817	926.71
418.025	977.91
418.233	1088.5
418.441	1020.91
418.649	1043.44
418.857	1092.59
419.065	1123.31
419.273	1022.96
419.481	1258.48
419.689	1278.96
419.897	1383.4
420.105	1313.77
420.313	1477.61
420.521	1418.22
420.729	1428.46
420.937	1537
421.145	1547.24
421.353	1620.97
421.561	1663.97
421.769	1719.27
421.977	1797.09
422.185	1825.76
422.393	1876.96
422.601	1911.78
422.809	2094.05
423.017	2073.57
423.224	2075.62
423.432	2155.49
423.64	2307.04
423.848	2481.11
424.056	2364.38
424.263	2655.19
424.471	2577.37
424.679	2542.55
424.887	2761.69
425.094	2780.12
425.302	2843.6
425.51	2943.96
425.718	2972.63
425.925	2913.24
426.133	3212.24
426.341	3281.87
426.548	3451.85
426.756	3474.38
426.964	3490.76
427.171	3685.32
427.379	3781.57
427.586	3849.16
427.794	4125.63
428.001	4070.34
428.209	4420.54
428.417	4228.03
428.624	4567.99
428.832	4508.6
429.039	4598.71
429.247	4686.78
429.454	5084.08
429.662	5391.28
429.869	4963.25
430.076	5448.62
430.284	5352.37
430.491	5602.22
430.699	5688.23
430.906	5745.58
431.114	5931.94
431.321	6054.82
431.528	6214.56
431.736	6542.24
431.943	6843.29
432.15	6615.96
432.358	6925.21
432.565	6990.74
432.772	7130
432.979	7539.6
433.187	7588.75
433.394	7527.31
433.601	7979.91
433.808	8151.94
434.016	8121.22
434.223	8452.99
434.43	8829.82
434.637	8573.82
434.844	9360.24
435.052	9489.26
435.259	9268.08
435.466	9321.33
435.673	9356.15
435.88	10115.94
436.087	10593.12
436.294	10328.93
436.501	10257.25
436.708	10482.53
436.915	10984.28
437.122	11307.86
437.329	11498.32
437.537	11772.75
437.743	11959.11
437.95	11873.1
438.157	12327.75
438.364	12702.53
438.571	12847.93
438.778	12708.67
438.985	14166.82
439.192	13364.02
439.399	13974.31
439.606	13511.47
439.813	14596.9
440.02	15090.46
440.227	15143.7
440.433	14785.31
440.64	15295.25
440.847	15127.32
441.054	15469.33
441.261	16395.01
441.467	15946.51
441.674	16745.22
441.881	17320.7
442.088	17341.18
442.294	17226.49
442.501	17650.42
442.708	17922.8
442.914	18729.7
443.121	19014.37
443.328	18914.02
443.534	20323.02
443.741	19880.66
443.948	19591.89
444.154	20937.41
444.361	20366.03
444.568	20892.35
444.774	20814.53
444.981	21052.09
445.187	21643.96
445.394	22590.12
445.6	22317.74
445.807	24412.81
446.013	23196.32
446.22	23786.13
446.426	24793.73
446.633	24818.31
446.839	25393.79
447.046	24640.14
447.252	26075.76
447.459	25987.7
447.665	25733.75
447.871	26929.77
448.078	27968.09
448.284	26661.48
448.491	27345.5
448.697	28426.83
448.903	29020.74
449.11	29131.33
449.316	28424.78
449.522	29061.7
449.728	30087.73
449.935	30132.79
450.141	30253.62
450.347	30356.02
450.553	29930.04
450.76	29866.55
450.966	30978.6
451.172	30880.3
451.378	31332.9
451.584	30820.91
451.791	31603.23
451.997	31599.13
452.203	31805.98
452.409	32129.56
452.615	31711.77
452.821	30405.17
453.027	30089.78
453.233	31873.56
453.44	30675.5
453.646	30741.03
453.852	30929.45
454.058	31486.5
454.264	30566.96
454.47	31216.16
454.676	30366.26
454.882	31302.18
455.088	28588.62
455.294	29071.94
455.5	29346.37
455.705	29659.71
455.911	28541.52
456.117	28248.66
456.323	27470.43
456.529	26102.39
456.735	26991.2
456.941	26503.79
457.147	26380.91
457.352	25293.44
457.558	25041.54
457.764	24990.34
457.97	24576.65
458.176	23997.07
458.381	23970.45
458.587	22713
458.793	22647.46
458.999	21854.9
459.204	23278.24
459.41	22502.06
459.616	21162.69
459.821	20939.46
460.027	20740.8
460.233	20714.18
460.438	19612.37
460.644	19897.04
460.85	18875.1
461.055	18598.63
461.261	18531.05
461.466	17287.93
461.672	16861.95
461.878	17814.26
462.083	16859.9
462.289	16425.73
462.494	16077.58
462.7	15586.07
462.905	14973.72
463.111	15696.66
463.316	15493.91
463.522	15242.01
463.727	15266.58
463.932	15215.38
464.138	15049.5
464.343	15131.42
464.549	14916.38
464.754	15479.57
464.959	15160.09
465.165	15059.74
465.37	14388
465.575	14101.29
465.781	14533.41
465.986	14859.04
466.191	14066.47
466.397	13841.2
466.602	13167.42
466.807	13818.67
467.012	13669.17
467.218	13773.61
467.423	13470.51
467.628	13767.47
