Data from USB4F104151__292__11-13-03-300.txt Node

Date: Wed Mar 12 11:13:03 EDT 2025
User: louis
Spectrometer: USB4F10415
Trigger mode: 4
Integration Time (sec): 2.000000E-2
Scans to average: 1
Electric dark correction enabled: true
Nonlinearity correction enabled: false
Boxcar width: 0
XAxis mode: Wavelengths
Number of Pixels in Spectrum: 3648
>>>>>Begin Spectral Data<<<<<
178.204	-82.43
178.424	-82.43
178.644	-82.43
178.864	-133.63
179.084	-47.62
179.304	-31.23
179.524	13.82
179.744	3.58
179.964	9.73
180.184	-18.94
180.404	-8.7
180.624	9.73
180.844	-23.04
181.064	-51.71
181.283	73.21
181.503	-8.7
181.723	32.26
181.943	7.68
182.163	40.45
182.383	26.11
182.602	9.73
182.822	69.12
183.042	-20.99
183.262	7.68
183.482	-14.85
183.701	105.98
183.921	36.35
184.141	19.97
184.361	67.07
184.58	-23.04
184.8	22.02
185.02	-10.75
185.239	-23.04
185.459	62.98
185.679	38.4
185.898	19.97
186.118	19.97
186.338	69.12
186.557	-18.94
186.777	22.02
186.997	-59.9
187.216	13.82
187.436	62.98
187.655	71.17
187.875	38.4
188.095	-16.9
188.314	24.06
188.534	15.87
188.753	-14.85
188.973	28.16
189.192	134.65
189.412	-35.33
189.631	-74.24
189.851	38.4
190.07	58.88
190.29	5.63
190.509	79.36
190.729	79.36
190.948	28.16
191.168	62.98
191.387	42.5
191.607	-31.23
191.826	-12.8
192.045	-18.94
192.265	-14.85
192.484	40.45
192.704	7.68
192.923	24.06
193.142	85.5
193.362	40.45
193.581	54.78
193.8	1.54
194.02	62.98
194.239	52.74
194.458	-59.9
194.678	-35.33
194.897	-18.94
195.116	-8.7
195.335	26.11
195.555	-14.85
195.774	93.69
195.993	26.11
196.212	60.93
196.432	30.21
196.651	32.26
196.87	40.45
197.089	101.89
197.308	13.82
197.528	40.45
197.747	7.68
197.966	5.63
198.185	83.45
198.404	44.54
198.623	-68.09
198.842	15.87
199.062	1.54
199.281	34.3
199.5	13.82
199.719	44.54
199.938	-51.71
200.157	54.78
200.376	65.02
200.595	-4.61
200.814	95.74
201.033	3.58
201.252	67.07
201.471	5.63
201.69	26.11
201.909	50.69
202.128	5.63
202.347	62.98
202.566	-12.8
202.785	-20.99
203.004	-29.18
203.223	87.55
203.442	15.87
203.661	83.45
203.879	89.6
204.098	-8.7
204.317	-2.56
204.536	54.78
204.755	46.59
204.974	42.5
205.193	54.78
205.411	110.08
205.63	26.11
205.849	-25.09
206.068	-29.18
206.287	58.88
206.505	36.35
206.724	81.41
206.943	-51.71
207.162	71.17
207.381	50.69
207.599	75.26
207.818	38.4
208.037	11.78
208.255	26.11
208.474	7.68
208.693	67.07
208.911	-14.85
209.13	17.92
209.349	50.69
209.567	54.78
209.786	108.03
210.005	28.16
210.223	81.41
210.442	-0.51
210.661	93.69
210.879	-29.18
211.098	44.54
211.316	30.21
211.535	-0.51
211.753	-27.14
211.972	48.64
212.191	-2.56
212.409	54.78
212.628	46.59
212.846	1.54
213.065	48.64
213.283	75.26
213.502	30.21
213.72	-64
213.938	15.87
214.157	-51.71
214.375	-0.51
214.594	-6.66
214.812	32.26
215.031	-27.14
215.249	-0.51
215.467	32.26
215.686	32.26
215.904	93.69
216.122	97.79
216.341	30.21
216.559	50.69
216.778	77.31
216.996	112.13
217.214	38.4
217.432	13.82
217.651	38.4
217.869	38.4
218.087	28.16
218.306	26.11
218.524	44.54
218.742	-31.23
218.96	85.5
219.179	5.63
219.397	60.93
219.615	24.06
219.833	89.6
220.051	17.92
220.27	71.17
220.488	46.59
220.706	91.65
220.924	79.36
221.142	9.73
221.36	7.68
221.578	17.92
221.796	3.58
222.015	28.16
222.233	-12.8
222.451	89.6
222.669	19.97
222.887	54.78
223.105	-31.23
223.323	7.68
223.541	-4.61
223.759	69.12
223.977	5.63
224.195	65.02
224.413	-0.51
224.631	95.74
224.849	71.17
225.067	148.99
225.285	5.63
225.503	7.68
225.721	13.82
225.939	-0.51
226.157	48.64
226.375	54.78
226.592	-8.7
226.81	105.98
227.028	44.54
227.246	48.64
227.464	-4.61
227.682	75.26
227.9	48.64
228.117	9.73
228.335	44.54
228.553	105.98
228.771	26.11
228.989	40.45
229.206	69.12
229.424	34.3
229.642	50.69
229.86	50.69
230.077	50.69
230.295	-10.75
230.513	-0.51
230.731	65.02
230.948	60.93
231.166	13.82
231.384	32.26
231.601	-29.18
231.819	38.4
232.037	42.5
232.254	-14.85
232.472	9.73
232.689	-8.7
232.907	56.83
233.125	34.3
233.342	3.58
233.56	67.07
233.777	83.45
233.995	34.3
234.213	58.88
234.43	71.17
234.648	-6.66
234.865	11.78
235.083	-0.51
235.3	38.4
235.518	95.74
235.735	13.82
235.953	62.98
236.17	52.74
236.388	22.02
236.605	19.97
236.822	62.98
237.04	103.93
237.257	-33.28
237.475	-25.09
237.692	15.87
237.909	-53.76
238.127	-2.56
238.344	-33.28
238.562	24.06
238.779	-31.23
238.996	40.45
239.214	19.97
239.431	11.78
239.648	32.26
239.865	24.06
240.083	81.41
240.3	79.36
240.517	11.78
240.735	69.12
240.952	97.79
241.169	50.69
241.386	44.54
241.603	30.21
241.821	15.87
242.038	62.98
242.255	50.69
242.472	-0.51
242.689	67.07
242.907	17.92
243.124	69.12
243.341	28.16
243.558	17.92
243.775	5.63
243.992	-64
244.209	5.63
244.426	126.46
244.643	54.78
244.86	65.02
245.078	1.54
245.295	-0.51
245.512	-23.04
245.729	50.69
245.946	52.74
246.163	30.21
246.38	71.17
246.597	46.59
246.814	-0.51
247.031	3.58
247.248	44.54
247.464	50.69
247.681	13.82
247.898	26.11
248.115	73.21
248.332	-16.9
248.549	124.41
248.766	73.21
248.983	103.93
249.2	42.5
249.417	28.16
249.633	83.45
249.85	44.54
250.067	36.35
250.284	24.06
250.501	3.58
250.717	114.17
250.934	-0.51
251.151	32.26
251.368	38.4
251.585	24.06
251.801	56.83
252.018	30.21
252.235	75.26
252.451	-33.28
252.668	3.58
252.885	120.32
253.102	30.21
253.318	40.45
253.535	1.54
253.752	69.12
253.968	50.69
254.185	-14.85
254.401	-16.9
254.618	65.02
254.835	13.82
255.051	136.7
255.268	1.54
255.484	38.4
255.701	50.69
255.917	15.87
256.134	40.45
256.351	24.06
256.567	54.78
256.784	87.55
257	54.78
257.217	75.26
257.433	77.31
257.65	38.4
257.866	58.88
258.082	-6.66
258.299	42.5
258.515	79.36
258.732	60.93
258.948	42.5
259.165	28.16
259.381	15.87
259.597	-20.99
259.814	85.5
260.03	44.54
260.246	-10.75
260.463	91.65
260.679	65.02
260.895	65.02
261.112	34.3
261.328	32.26
261.544	30.21
261.761	5.63
261.977	44.54
262.193	-43.52
262.409	60.93
262.626	79.36
262.842	17.92
263.058	56.83
263.274	73.21
263.49	-12.8
263.707	54.78
263.923	26.11
264.139	11.78
264.355	15.87
264.571	126.46
264.787	3.58
265.004	99.84
265.22	65.02
265.436	17.92
265.652	44.54
265.868	89.6
266.084	56.83
266.3	-35.33
266.516	19.97
266.732	52.74
266.948	-37.38
267.164	-10.75
267.38	58.88
267.596	93.69
267.812	79.36
268.028	83.45
268.244	38.4
268.46	60.93
268.676	17.92
268.892	58.88
269.108	-29.18
269.324	11.78
269.54	-20.99
269.756	24.06
269.972	28.16
270.188	114.17
270.403	19.97
270.619	19.97
270.835	3.58
271.051	26.11
271.267	-23.04
271.483	9.73
271.698	13.82
271.914	77.31
272.13	42.5
272.346	62.98
272.562	58.88
272.777	-0.51
272.993	19.97
273.209	-41.47
273.425	1.54
273.64	95.74
273.856	75.26
274.072	28.16
274.287	24.06
274.503	67.07
274.719	36.35
274.934	32.26
275.15	-27.14
275.366	-16.9
275.581	-6.66
275.797	24.06
276.012	-23.04
276.228	40.45
276.444	89.6
276.659	81.41
276.875	42.5
277.09	54.78
277.306	130.56
277.521	97.79
277.737	93.69
277.952	28.16
278.168	-4.61
278.383	77.31
278.599	60.93
278.814	97.79
279.03	19.97
279.245	67.07
279.461	89.6
279.676	-27.14
279.892	81.41
280.107	52.74
280.322	50.69
280.538	73.21
280.753	62.98
280.969	93.69
281.184	65.02
281.399	99.84
281.615	69.12
281.83	105.98
282.045	34.3
282.26	-4.61
282.476	-12.8
282.691	71.17
282.906	56.83
283.122	24.06
283.337	-14.85
283.552	73.21
283.767	-8.7
283.983	71.17
284.198	40.45
284.413	48.64
284.628	13.82
284.843	1.54
285.058	75.26
285.274	22.02
285.489	3.58
285.704	87.55
285.919	28.16
286.134	17.92
286.349	3.58
286.564	161.28
286.779	13.82
286.995	46.59
287.21	36.35
287.425	3.58
287.64	22.02
287.855	40.45
288.07	-8.7
288.285	34.3
288.5	22.02
288.715	44.54
288.93	26.11
289.145	-2.56
289.36	112.13
289.575	-4.61
289.79	-16.9
290.004	46.59
290.219	19.97
290.434	-18.94
290.649	19.97
290.864	77.31
291.079	-29.18
291.294	112.13
291.509	77.31
291.724	34.3
291.938	85.5
292.153	52.74
292.368	28.16
292.583	-53.76
292.798	77.31
293.012	52.74
293.227	-18.94
293.442	28.16
293.657	7.68
293.871	69.12
294.086	22.02
294.301	-6.66
294.516	11.78
294.73	46.59
294.945	-51.71
295.16	62.98
295.374	103.93
295.589	58.88
295.804	34.3
296.018	91.65
296.233	60.93
296.447	40.45
296.662	26.11
296.877	58.88
297.091	81.41
297.306	11.78
297.52	-27.14
297.735	56.83
297.949	7.68
298.164	81.41
298.378	24.06
298.593	-2.56
298.807	19.97
299.022	79.36
299.236	44.54
299.451	79.36
299.665	79.36
299.88	40.45
300.094	38.4
300.309	34.3
300.523	11.78
300.737	60.93
300.952	54.78
301.166	42.5
301.381	28.16
301.595	-47.62
301.809	-45.57
302.024	52.74
302.238	13.82
302.452	-4.61
302.667	60.93
302.881	67.07
303.095	46.59
303.309	48.64
303.524	30.21
303.738	69.12
303.952	36.35
304.166	69.12
304.381	15.87
304.595	46.59
304.809	11.78
305.023	42.5
305.237	56.83
305.452	105.98
305.666	56.83
305.88	83.45
306.094	71.17
306.308	19.97
306.522	13.82
306.736	71.17
306.95	110.08
307.164	1.54
307.379	52.74
307.593	17.92
307.807	85.5
308.021	50.69
308.235	54.78
308.449	44.54
308.663	40.45
308.877	44.54
309.091	36.35
309.305	140.8
309.519	-6.66
309.733	50.69
309.947	-18.94
310.161	87.55
310.374	-10.75
310.588	50.69
310.802	24.06
311.016	5.63
311.23	50.69
311.444	38.4
311.658	34.3
311.872	99.84
312.085	65.02
312.299	40.45
312.513	48.64
312.727	42.5
312.941	-0.51
313.154	126.46
313.368	22.02
313.582	126.46
313.796	11.78
314.009	95.74
314.223	22.02
314.437	56.83
314.651	30.21
314.864	54.78
315.078	58.88
315.292	50.69
315.505	30.21
315.719	17.92
315.933	-78.33
316.146	50.69
316.36	36.35
316.573	118.27
316.787	36.35
317.001	54.78
317.214	-14.85
317.428	26.11
317.641	-35.33
317.855	11.78
318.068	38.4
318.282	42.5
318.495	54.78
318.709	75.26
318.922	54.78
319.136	24.06
319.349	26.11
319.563	7.68
319.776	1.54
319.99	62.98
320.203	50.69
320.417	89.6
320.63	52.74
320.843	124.41
321.057	75.26
321.27	140.8
321.483	54.78
321.697	81.41
321.91	62.98
322.124	50.69
322.337	11.78
322.55	103.93
322.763	85.5
322.977	73.21
323.19	75.26
323.403	46.59
323.617	75.26
323.83	83.45
324.043	28.16
324.256	13.82
324.469	52.74
324.683	48.64
324.896	-33.28
325.109	-6.66
325.322	22.02
325.535	30.21
325.748	-14.85
325.962	50.69
326.175	54.78
326.388	116.22
326.601	95.74
326.814	22.02
327.027	19.97
327.24	62.98
327.453	32.26
327.666	1.54
327.879	126.46
328.092	85.5
328.305	69.12
328.518	95.74
328.731	62.98
328.944	5.63
329.157	3.58
329.37	26.11
329.583	15.87
329.796	101.89
330.009	60.93
330.222	87.55
330.435	91.65
330.648	40.45
330.861	3.58
331.073	60.93
331.286	40.45
331.499	44.54
331.712	46.59
331.925	93.69
332.138	-2.56
332.35	32.26
332.563	38.4
332.776	24.06
332.989	-4.61
333.202	5.63
333.414	1.54
333.627	58.88
333.84	34.3
334.053	75.26
334.265	32.26
334.478	75.26
334.691	54.78
334.903	52.74
335.116	28.16
335.329	75.26
335.541	48.64
335.754	17.92
335.966	34.3
336.179	54.78
336.392	-59.9
336.604	67.07
336.817	87.55
337.029	146.94
337.242	-6.66
337.454	40.45
337.667	79.36
337.88	103.93
338.092	-4.61
338.305	17.92
338.517	87.55
338.729	42.5
338.942	36.35
339.154	46.59
339.367	54.78
339.579	105.98
339.792	7.68
340.004	26.11
340.217	5.63
340.429	-12.8
340.641	89.6
340.854	-43.52
341.066	-76.29
341.278	103.93
341.491	-14.85
341.703	38.4
341.915	-27.14
342.128	71.17
342.34	101.89
342.552	-27.14
342.764	151.04
342.977	140.8
343.189	19.97
343.401	5.63
343.613	-23.04
343.826	46.59
344.038	69.12
344.25	60.93
344.462	19.97
344.674	32.26
344.886	56.83
345.099	30.21
345.311	73.21
345.523	38.4
345.735	132.61
345.947	-10.75
346.159	85.5
346.371	3.58
346.583	50.69
346.795	50.69
347.007	50.69
347.219	95.74
347.431	17.92
347.643	-4.61
347.855	73.21
348.067	15.87
348.279	73.21
348.491	-6.66
348.703	54.78
348.915	44.54
349.127	46.59
349.339	46.59
349.551	46.59
349.763	71.17
349.975	11.78
350.187	85.5
350.399	75.26
350.61	58.88
350.822	-27.14
351.034	22.02
351.246	17.92
351.458	48.64
351.669	28.16
351.881	24.06
352.093	42.5
352.305	85.5
352.517	116.22
352.728	69.12
352.94	71.17
353.152	56.83
353.363	77.31
353.575	67.07
353.787	79.36
353.999	93.69
354.21	62.98
354.422	62.98
354.633	67.07
354.845	44.54
355.057	50.69
355.268	89.6
355.48	5.63
355.692	62.98
355.903	97.79
356.115	114.17
356.326	62.98
356.538	105.98
356.749	73.21
356.961	11.78
357.172	36.35
357.384	-57.86
357.595	128.51
357.807	34.3
358.018	52.74
358.23	71.17
358.441	103.93
358.653	30.21
358.864	79.36
359.075	101.89
359.287	-12.8
359.498	79.36
359.709	136.7
359.921	75.26
360.132	1.54
360.344	42.5
360.555	22.02
360.766	77.31
360.977	22.02
361.189	34.3
361.4	69.12
361.611	67.07
361.823	46.59
362.034	5.63
362.245	-25.09
362.456	50.69
362.667	56.83
362.879	81.41
363.09	116.22
363.301	71.17
363.512	26.11
363.723	105.98
363.935	34.3
364.146	44.54
364.357	87.55
364.568	89.6
364.779	67.07
364.99	62.98
365.201	54.78
365.412	93.69
365.623	-10.75
365.834	122.37
366.045	11.78
366.256	36.35
366.467	44.54
366.678	67.07
366.889	26.11
367.1	34.3
367.311	48.64
367.522	62.98
367.733	42.5
367.944	112.13
368.155	73.21
368.366	79.36
368.577	42.5
368.788	87.55
368.999	34.3
369.209	7.68
369.42	75.26
369.631	42.5
369.842	81.41
370.053	105.98
370.264	85.5
370.474	9.73
370.685	44.54
370.896	46.59
371.107	112.13
371.317	3.58
371.528	19.97
371.739	62.98
371.95	77.31
372.16	56.83
372.371	32.26
372.582	69.12
372.792	17.92
373.003	87.55
373.214	73.21
373.424	116.22
373.635	60.93
373.846	52.74
374.056	34.3
374.267	62.98
374.477	36.35
374.688	71.17
374.898	46.59
375.109	15.87
375.319	91.65
375.53	81.41
375.74	91.65
375.951	134.65
376.161	77.31
376.372	97.79
376.582	69.12
376.793	46.59
377.003	30.21
377.214	44.54
377.424	36.35
377.635	34.3
377.845	26.11
378.055	40.45
378.266	75.26
378.476	56.83
378.686	52.74
378.897	-18.94
379.107	81.41
379.317	56.83
379.528	95.74
379.738	38.4
379.948	40.45
380.158	50.69
380.369	15.87
380.579	40.45
380.789	30.21
380.999	42.5
381.21	87.55
381.42	146.94
381.63	11.78
381.84	50.69
382.05	75.26
382.261	40.45
382.471	36.35
382.681	91.65
382.891	136.7
383.101	26.11
383.311	-6.66
383.521	65.02
383.731	42.5
383.941	105.98
384.151	-25.09
384.361	89.6
384.571	-27.14
384.781	81.41
384.991	69.12
385.201	69.12
385.411	17.92
385.621	26.11
385.831	103.93
386.041	52.74
386.251	50.69
386.461	67.07
386.671	71.17
386.881	56.83
387.091	5.63
387.301	126.46
387.511	81.41
387.72	50.69
387.93	91.65
388.14	75.26
388.35	48.64
388.56	62.98
388.769	42.5
388.979	34.3
389.189	-14.85
389.399	75.26
389.609	136.7
389.818	81.41
390.028	112.13
390.238	105.98
390.447	54.78
390.657	99.84
390.867	9.73
391.076	-6.66
391.286	-8.7
391.496	67.07
391.705	91.65
391.915	108.03
392.125	99.84
392.334	62.98
392.544	30.21
392.753	30.21
392.963	26.11
393.172	30.21
393.382	110.08
393.591	93.69
393.801	103.93
394.01	99.84
394.22	114.17
394.429	58.88
394.639	124.41
394.848	89.6
395.058	46.59
395.267	105.98
395.477	99.84
395.686	79.36
395.895	87.55
396.105	138.75
396.314	44.54
396.524	99.84
396.733	105.98
396.942	97.79
397.152	99.84
397.361	38.4
397.57	71.17
397.78	126.46
397.989	116.22
398.198	218.62
398.407	116.22
398.617	167.42
398.826	93.69
399.035	108.03
399.244	169.47
399.453	171.52
399.663	112.13
399.872	124.41
400.081	130.56
400.29	77.31
400.499	181.76
400.708	138.75
400.917	71.17
401.127	179.71
401.336	136.7
401.545	116.22
401.754	124.41
401.963	140.8
402.172	136.7
402.381	132.61
402.59	103.93
402.799	69.12
403.008	187.9
403.217	50.69
403.426	128.51
403.635	91.65
403.844	132.61
404.053	110.08
404.262	171.52
404.471	218.62
404.68	196.09
404.888	181.76
405.097	181.76
405.306	153.09
405.515	187.9
405.724	237.05
405.933	136.7
406.142	226.81
406.35	216.57
406.559	171.52
406.768	230.91
406.977	224.76
407.185	235
407.394	249.34
407.603	185.85
407.812	206.33
408.02	235
408.229	251.39
408.438	239.1
408.646	235
408.855	294.4
409.064	271.87
409.272	298.49
409.481	296.44
409.69	267.77
409.898	347.64
410.107	402.94
410.315	314.88
410.524	407.03
410.733	349.69
410.941	351.74
411.15	355.83
411.358	353.79
411.567	407.03
411.775	396.79
411.984	398.84
412.192	421.37
412.401	511.48
412.609	447.99
412.818	548.34
413.026	482.81
413.234	519.67
413.443	628.21
413.651	607.73
413.86	523.77
414.068	656.89
414.276	601.59
414.485	681.46
414.693	736.76
414.901	732.66
415.11	734.71
415.318	736.76
415.526	833.01
415.734	808.44
415.943	724.47
416.151	861.68
416.359	822.77
416.567	818.68
416.776	873.97
416.984	871.92
417.192	988.66
417.4	1041.9
417.608	966.13
417.817	1052.14
418.025	1080.82
418.233	1172.97
418.441	1218.03
418.649	1261.04
418.857	1279.47
419.065	1353.2
419.273	1287.66
419.481	1418.73
419.689	1494.51
419.897	1605.1
420.105	1668.58
420.313	1711.59
420.521	1684.97
420.729	1709.54
420.937	1775.08
421.145	1877.48
421.353	2037.22
421.561	2029.03
421.769	1871.33
421.977	2117.09
422.185	2217.44
422.393	2164.19
422.601	2295.26
422.809	2405.85
423.017	2407.9
423.224	2508.25
423.432	2627.03
423.64	2706.9
423.848	2876.88
424.056	2809.3
424.263	3003.86
424.471	3077.59
424.679	3055.06
424.887	3175.89
425.094	3192.27
425.302	3278.29
425.51	3380.68
425.718	3550.67
425.925	3481.03
426.133	3651.02
426.341	4003.27
426.548	4056.51
426.756	4042.18
426.964	4152.77
427.171	4384.19
427.379	4470.2
427.586	4560.31
427.794	4736.44
428.001	4806.07
428.209	5168.56
428.417	4961.72
428.624	5547.44
428.832	5510.57
429.039	5275.06
429.247	5305.78
429.454	5832.1
429.662	6319.52
429.869	5789.1
430.076	6204.83
430.284	6170.02
430.491	6442.4
430.699	6655.39
430.906	6778.26
431.114	6847.9
431.321	7255.44
431.528	7253.39
431.736	7679.37
431.943	7871.88
432.15	7712.14
432.358	7849.35
432.565	8435.07
432.772	8406.4
432.979	8856.95
433.187	8809.85
433.394	8795.51
433.601	9706.86
433.808	9477.49
434.016	9543.02
434.223	9772.39
434.43	10583.39
434.637	10251.62
434.844	10943.83
435.052	11122.01
435.259	10941.79
435.466	11339.09
435.673	11009.37
435.88	11775.31
436.087	12281.16
436.294	12295.49
436.501	12158.28
436.708	12340.55
436.915	12725.57
437.122	13395.25
437.329	13671.73
437.537	13466.93
437.743	14003.5
437.95	13958.44
438.157	14429.48
438.364	14912.8
438.571	15242.52
438.778	15033.63
438.985	16522.5
439.192	15715.6
439.399	16225.54
439.606	15590.67
439.813	16659.71
440.02	17927.41
440.227	17743.09
440.433	17546.48
440.64	17984.75
440.847	17710.32
441.054	18257.13
441.261	19576.02
441.467	19160.28
441.674	19651.8
441.881	20571.33
442.088	20192.46
442.294	20006.09
442.501	20675.78
442.708	21157.05
442.914	21707.96
443.121	22850.72
443.328	22207.66
443.534	23614.62
443.741	23002.27
443.948	22967.46
444.154	24394.89
444.361	24319.12
444.568	24634.5
444.774	24325.26
444.981	24947.84
445.187	25621.63
445.394	26260.59
445.6	26084.47
445.807	28515.4
446.013	27669.59
446.22	27886.68
446.426	29086.79
446.633	29588.54
446.839	30241.84
447.046	29332.54
447.252	30379.06
447.459	30139.44
447.665	30321.71
447.871	31962.14
448.078	33039.37
448.284	31099.94
448.491	32562.19
448.697	33977.34
448.903	34499.57
449.11	34251.77
449.316	33684.48
449.522	34505.71
449.728	35017.71
449.935	35482.59
450.141	35222.5
450.347	36117.46
450.553	34841.58
450.76	35372
450.966	36615.12
451.172	36152.28
451.378	36785.1
451.584	36244.44
451.791	37358.53
451.997	37161.93
452.203	37559.23
452.409	37268.42
452.615	37505.99
452.821	35941.34
453.027	35773.41
453.233	37342.15
453.44	35808.22
453.646	36393.94
453.852	36658.13
454.058	37051.34
454.264	35886.04
454.47	36778.96
454.676	35812.32
454.882	37065.67
455.088	33815.55
455.294	34003.96
455.5	34843.63
455.705	35216.36
455.911	33788.92
456.117	33100.81
456.323	32373.78
456.529	30686.25
456.735	32093.21
456.941	31267.87
457.147	30684.2
457.352	29924.41
457.558	29754.43
457.764	29598.78
457.97	28824.65
458.176	28453.97
458.381	28527.69
458.587	27100.26
458.793	27034.72
458.999	25533.56
459.204	27628.63
459.41	26899.56
459.616	25347.2
459.821	25320.57
460.027	24892.55
460.233	24329.36
460.438	23006.37
460.644	23426.2
460.85	22373.55
461.055	22072.5
461.261	21972.14
461.466	20647.11
461.672	19991.76
461.878	21105.85
462.083	19985.62
462.289	19461.34
462.494	19168.48
462.7	18142.44
462.905	18091.24
463.111	18619.62
463.316	18617.57
463.522	18259.18
463.727	18210.03
463.932	18093.29
464.138	18103.53
464.343	18076.91
464.549	17540.34
464.754	18277.61
464.959	17779.95
465.165	17546.48
465.37	17247.48
465.575	16663.81
465.781	17196.28
465.986	17724.66
466.191	16747.78
466.397	16403.72
466.602	15768.85
466.807	16176.39
467.012	16258.31
467.218	16043.28
467.423	15766.8
467.628	16141.58
467.833	16971.01
468.038	16149.77
