Data from USB4F104151__128__11-07-37-995.txt Node

Date: Wed Mar 12 11:07:37 EDT 2025
User: louis
Spectrometer: USB4F10415
Trigger mode: 4
Integration Time (sec): 2.000000E-2
Scans to average: 1
Electric dark correction enabled: true
Nonlinearity correction enabled: false
Boxcar width: 0
XAxis mode: Wavelengths
Number of Pixels in Spectrum: 3648
>>>>>Begin Spectral Data<<<<<
178.204	-40.45
178.424	-40.45
178.644	-40.45
178.864	-79.36
179.084	-62.98
179.304	-17.92
179.524	55.81
179.744	-7.68
179.964	23.04
180.184	-15.87
180.404	-5.63
180.624	-15.87
180.844	4.61
181.064	33.28
181.283	-42.5
181.503	-58.88
181.723	47.62
181.943	8.7
182.163	27.14
182.383	12.8
182.602	25.09
182.822	61.95
183.042	33.28
183.262	47.62
183.482	74.24
183.701	51.71
183.921	-1.54
184.141	39.42
184.361	57.86
184.58	39.42
184.8	-11.78
185.02	29.18
185.239	4.61
185.459	82.43
185.679	6.66
185.898	31.23
186.118	102.91
186.338	-44.54
186.557	49.66
186.777	47.62
186.997	55.81
187.216	0.51
187.436	72.19
187.655	45.57
187.875	41.47
188.095	100.86
188.314	33.28
188.534	8.7
188.753	-32.26
188.973	78.33
189.192	-3.58
189.412	23.04
189.631	86.53
189.851	20.99
190.07	84.48
190.29	25.09
190.509	8.7
190.729	70.14
190.948	25.09
191.168	125.44
191.387	70.14
191.607	6.66
191.826	33.28
192.045	33.28
192.265	-56.83
192.484	39.42
192.704	10.75
192.923	33.28
193.142	94.72
193.362	-28.16
193.581	70.14
193.8	-3.58
194.02	23.04
194.239	29.18
194.458	76.29
194.678	-5.63
194.897	6.66
195.116	68.09
195.335	-36.35
195.555	68.09
195.774	-40.45
195.993	51.71
196.212	10.75
196.432	43.52
196.651	84.48
196.87	-19.97
197.089	39.42
197.308	55.81
197.528	66.05
197.747	-5.63
197.966	-17.92
198.185	4.61
198.404	33.28
198.623	80.38
198.842	94.72
199.062	51.71
199.281	64
199.5	33.28
199.719	23.04
199.938	20.99
200.157	100.86
200.376	41.47
200.595	47.62
200.814	-3.58
201.033	31.23
201.252	37.38
201.471	31.23
201.69	18.94
201.909	27.14
202.128	68.09
202.347	94.72
202.566	-26.11
202.785	-60.93
203.004	-5.63
203.223	111.1
203.442	33.28
203.661	57.86
203.879	-44.54
204.098	6.66
204.317	29.18
204.536	51.71
204.755	16.9
204.974	82.43
205.193	16.9
205.411	-11.78
205.63	-5.63
205.849	18.94
206.068	35.33
206.287	27.14
206.505	39.42
206.724	84.48
206.943	-24.06
207.162	66.05
207.381	68.09
207.599	43.52
207.818	45.57
208.037	84.48
208.255	29.18
208.474	84.48
208.693	64
208.911	10.75
209.13	-11.78
209.349	27.14
209.567	45.57
209.786	72.19
210.005	41.47
210.223	51.71
210.442	66.05
210.661	12.8
210.879	66.05
211.098	-15.87
211.316	33.28
211.535	96.77
211.753	6.66
211.972	29.18
212.191	74.24
212.409	23.04
212.628	-50.69
212.846	59.9
213.065	86.53
213.283	16.9
213.502	-3.58
213.72	4.61
213.938	14.85
214.157	41.47
214.375	64
214.594	-1.54
214.812	66.05
215.031	57.86
215.249	-22.02
215.467	-22.02
215.686	25.09
215.904	10.75
216.122	-71.17
216.341	84.48
216.559	35.33
216.778	49.66
216.996	23.04
217.214	27.14
217.432	-15.87
217.651	39.42
217.869	45.57
218.087	47.62
218.306	68.09
218.524	57.86
218.742	-1.54
218.96	8.7
219.179	66.05
219.397	57.86
219.615	59.9
219.833	12.8
220.051	12.8
220.27	92.67
220.488	104.96
220.706	76.29
220.924	-69.12
221.142	45.57
221.36	6.66
221.578	53.76
221.796	41.47
222.015	68.09
222.233	12.8
222.451	59.9
222.669	16.9
222.887	119.29
223.105	18.94
223.323	-9.73
223.541	45.57
223.759	51.71
223.977	47.62
224.195	57.86
224.413	53.76
224.631	-9.73
224.849	29.18
225.067	96.77
225.285	47.62
225.503	41.47
225.721	-22.02
225.939	4.61
226.157	25.09
226.375	66.05
226.592	20.99
226.81	88.57
227.028	90.62
227.246	127.49
227.464	111.1
227.682	53.76
227.9	27.14
228.117	29.18
228.335	39.42
228.553	31.23
228.771	25.09
228.989	82.43
229.206	12.8
229.424	-34.3
229.642	49.66
229.86	12.8
230.077	18.94
230.295	141.82
230.513	33.28
230.731	53.76
230.948	64
231.166	125.44
231.384	8.7
231.601	39.42
231.819	51.71
232.037	12.8
232.254	2.56
232.472	59.9
232.689	-28.16
232.907	68.09
233.125	49.66
233.342	23.04
233.56	-28.16
233.777	37.38
233.995	-60.93
234.213	29.18
234.43	45.57
234.648	82.43
234.865	8.7
235.083	-34.3
235.3	80.38
235.518	10.75
235.735	39.42
235.953	16.9
236.17	-13.82
236.388	27.14
236.605	8.7
236.822	82.43
237.04	-7.68
237.257	14.85
237.475	31.23
237.692	121.34
237.909	43.52
238.127	6.66
238.344	27.14
238.562	-32.26
238.779	66.05
238.996	-17.92
239.214	72.19
239.431	82.43
239.648	-5.63
239.865	94.72
240.083	61.95
240.3	47.62
240.517	-38.4
240.735	14.85
240.952	53.76
241.169	68.09
241.386	84.48
241.603	12.8
241.821	80.38
242.038	45.57
242.255	55.81
242.472	-24.06
242.689	18.94
242.907	80.38
243.124	-24.06
243.341	14.85
243.558	23.04
243.775	64
243.992	49.66
244.209	29.18
244.426	12.8
244.643	47.62
244.86	6.66
245.078	70.14
245.295	59.9
245.512	61.95
245.729	6.66
245.946	43.52
246.163	61.95
246.38	2.56
246.597	55.81
246.814	18.94
247.031	25.09
247.248	31.23
247.464	-19.97
247.681	-13.82
247.898	27.14
248.115	59.9
248.332	2.56
248.549	90.62
248.766	59.9
248.983	43.52
249.2	-13.82
249.417	41.47
249.633	53.76
249.85	-7.68
250.067	-28.16
250.284	-15.87
250.501	64
250.717	86.53
250.934	-11.78
251.151	12.8
251.368	8.7
251.585	29.18
251.801	43.52
252.018	35.33
252.235	74.24
252.451	104.96
252.668	-1.54
252.885	68.09
253.102	45.57
253.318	94.72
253.535	76.29
253.752	70.14
253.968	23.04
254.185	16.9
254.401	53.76
254.618	-17.92
254.835	51.71
255.051	64
255.268	55.81
255.484	41.47
255.701	12.8
255.917	59.9
256.134	6.66
256.351	72.19
256.567	4.61
256.784	37.38
257	-24.06
257.217	10.75
257.433	45.57
257.65	47.62
257.866	12.8
258.082	12.8
258.299	82.43
258.515	74.24
258.732	6.66
258.948	47.62
259.165	23.04
259.381	78.33
259.597	70.14
259.814	41.47
260.03	88.57
260.246	59.9
260.463	80.38
260.679	37.38
260.895	23.04
261.112	43.52
261.328	-24.06
261.544	35.33
261.761	35.33
261.977	-26.11
262.193	-19.97
262.409	66.05
262.626	70.14
262.842	29.18
263.058	49.66
263.274	78.33
263.49	16.9
263.707	-3.58
263.923	23.04
264.139	8.7
264.355	4.61
264.571	31.23
264.787	-11.78
265.004	80.38
265.22	78.33
265.436	53.76
265.652	55.81
265.868	74.24
266.084	33.28
266.3	23.04
266.516	31.23
266.732	74.24
266.948	-48.64
267.164	8.7
267.38	10.75
267.596	-30.21
267.812	104.96
268.028	23.04
268.244	41.47
268.46	29.18
268.676	8.7
268.892	-1.54
269.108	53.76
269.324	-22.02
269.54	2.56
269.756	45.57
269.972	20.99
270.188	74.24
270.403	51.71
270.619	61.95
270.835	53.76
271.051	78.33
271.267	35.33
271.483	45.57
271.698	27.14
271.914	51.71
272.13	61.95
272.346	27.14
272.562	47.62
272.777	35.33
272.993	55.81
273.209	18.94
273.425	66.05
273.64	84.48
273.856	123.39
274.072	66.05
274.287	90.62
274.503	2.56
274.719	90.62
274.934	39.42
275.15	-24.06
275.366	39.42
275.581	-17.92
275.797	78.33
276.012	14.85
276.228	76.29
276.444	43.52
276.659	37.38
276.875	37.38
277.09	70.14
277.306	82.43
277.521	80.38
277.737	66.05
277.952	129.53
278.168	86.53
278.383	-1.54
278.599	59.9
278.814	20.99
279.03	107.01
279.245	29.18
279.461	4.61
279.676	10.75
279.892	20.99
280.107	100.86
280.322	33.28
280.538	156.16
280.753	2.56
280.969	-19.97
281.184	25.09
281.399	25.09
281.615	61.95
281.83	119.29
282.045	4.61
282.26	41.47
282.476	39.42
282.691	41.47
282.906	45.57
283.122	90.62
283.337	31.23
283.552	61.95
283.767	25.09
283.983	47.62
284.198	4.61
284.413	-1.54
284.628	72.19
284.843	31.23
285.058	125.44
285.274	20.99
285.489	18.94
285.704	121.34
285.919	29.18
286.134	64
286.349	0.51
286.564	90.62
286.779	47.62
286.995	16.9
287.21	12.8
287.425	90.62
287.64	37.38
287.855	74.24
288.07	29.18
288.285	2.56
288.5	31.23
288.715	76.29
288.93	68.09
289.145	78.33
289.36	41.47
289.575	2.56
289.79	61.95
290.004	0.51
290.219	18.94
290.434	33.28
290.649	61.95
290.864	45.57
291.079	88.57
291.294	0.51
291.509	45.57
291.724	51.71
291.938	57.86
292.153	66.05
292.368	70.14
292.583	131.58
292.798	16.9
293.012	64
293.227	100.86
293.442	78.33
293.657	78.33
293.871	80.38
294.086	-9.73
294.301	127.49
294.516	29.18
294.73	20.99
294.945	25.09
295.16	43.52
295.374	74.24
295.589	25.09
295.804	-36.35
296.018	41.47
296.233	61.95
296.447	76.29
296.662	72.19
296.877	43.52
297.091	68.09
297.306	39.42
297.52	72.19
297.735	92.67
297.949	41.47
298.164	14.85
298.378	10.75
298.593	41.47
298.807	-48.64
299.022	-13.82
299.236	49.66
299.451	8.7
299.665	-28.16
299.88	29.18
300.094	33.28
300.309	70.14
300.523	45.57
300.737	111.1
300.952	-7.68
301.166	25.09
301.381	43.52
301.595	25.09
301.809	4.61
302.024	43.52
302.238	29.18
302.452	-1.54
302.667	43.52
302.881	47.62
303.095	18.94
303.309	35.33
303.524	8.7
303.738	64
303.952	25.09
304.166	23.04
304.381	-48.64
304.595	104.96
304.809	35.33
305.023	37.38
305.237	117.25
305.452	27.14
305.666	72.19
305.88	92.67
306.094	86.53
306.308	59.9
306.522	18.94
306.736	18.94
306.95	27.14
307.164	74.24
307.379	-22.02
307.593	43.52
307.807	14.85
308.021	23.04
308.235	37.38
308.449	-22.02
308.663	4.61
308.877	57.86
309.091	72.19
309.305	143.87
309.519	23.04
309.733	-22.02
309.947	80.38
310.161	23.04
310.374	70.14
310.588	66.05
310.802	49.66
311.016	107.01
311.23	78.33
311.444	39.42
311.658	-1.54
311.872	-5.63
312.085	68.09
312.299	43.52
312.513	37.38
312.727	82.43
312.941	14.85
313.154	92.67
313.368	41.47
313.582	113.15
313.796	49.66
314.009	31.23
314.223	82.43
314.437	35.33
314.651	4.61
314.864	113.15
315.078	2.56
315.292	41.47
315.505	82.43
315.719	70.14
315.933	111.1
316.146	45.57
316.36	86.53
316.573	39.42
316.787	25.09
317.001	43.52
317.214	10.75
317.428	10.75
317.641	12.8
317.855	16.9
318.068	-3.58
318.282	66.05
318.495	10.75
318.709	47.62
318.922	102.91
319.136	8.7
319.349	33.28
319.563	6.66
319.776	66.05
319.99	107.01
320.203	6.66
320.417	0.51
320.63	35.33
320.843	123.39
321.057	23.04
321.27	86.53
321.483	29.18
321.697	131.58
321.91	20.99
322.124	55.81
322.337	66.05
322.55	33.28
322.763	2.56
322.977	33.28
323.19	-22.02
323.403	98.81
323.617	14.85
323.83	39.42
324.043	-7.68
324.256	-5.63
324.469	33.28
324.683	61.95
324.896	14.85
325.109	4.61
325.322	37.38
325.535	27.14
325.748	45.57
325.962	4.61
326.175	78.33
326.388	43.52
326.601	41.47
326.814	41.47
327.027	66.05
327.24	121.34
327.453	33.28
327.666	61.95
327.879	68.09
328.092	16.9
328.305	80.38
328.518	39.42
328.731	16.9
328.944	12.8
329.157	-46.59
329.37	29.18
329.583	92.67
329.796	72.19
330.009	35.33
330.222	84.48
330.435	51.71
330.648	41.47
330.861	-3.58
331.073	53.76
331.286	4.61
331.499	121.34
331.712	47.62
331.925	43.52
332.138	33.28
332.35	4.61
332.563	-1.54
332.776	88.57
332.989	39.42
333.202	23.04
333.414	92.67
333.627	72.19
333.84	-62.98
334.053	0.51
334.265	0.51
334.478	78.33
334.691	20.99
334.903	2.56
335.116	66.05
335.329	4.61
335.541	113.15
335.754	33.28
335.966	35.33
336.179	78.33
336.392	12.8
336.604	35.33
336.817	14.85
337.029	117.25
337.242	145.92
337.454	102.91
337.667	84.48
337.88	49.66
338.092	45.57
338.305	92.67
338.517	-11.78
338.729	16.9
338.942	88.57
339.154	100.86
339.367	-3.58
339.579	64
339.792	72.19
340.004	47.62
340.217	16.9
340.429	61.95
340.641	74.24
340.854	6.66
341.066	16.9
341.278	90.62
341.491	76.29
341.703	61.95
341.915	0.51
342.128	20.99
342.34	76.29
342.552	147.97
342.764	37.38
342.977	41.47
343.189	57.86
343.401	31.23
343.613	-19.97
343.826	78.33
344.038	35.33
344.25	39.42
344.462	66.05
344.674	37.38
344.886	61.95
345.099	-11.78
345.311	-15.87
345.523	78.33
345.735	45.57
345.947	27.14
346.159	43.52
346.371	53.76
346.583	74.24
346.795	94.72
347.007	61.95
347.219	20.99
347.431	12.8
347.643	35.33
347.855	10.75
348.067	25.09
348.279	4.61
348.491	61.95
348.703	35.33
348.915	27.14
349.127	27.14
349.339	18.94
349.551	61.95
349.763	20.99
349.975	47.62
350.187	90.62
350.399	-11.78
350.61	59.9
350.822	78.33
351.034	64
351.246	74.24
351.458	70.14
351.669	64
351.881	125.44
352.093	33.28
352.305	117.25
352.517	29.18
352.728	53.76
352.94	-19.97
353.152	8.7
353.363	-54.78
353.575	53.76
353.787	-22.02
353.999	39.42
354.21	35.33
354.422	35.33
354.633	-24.06
354.845	76.29
355.057	123.39
355.268	59.9
355.48	74.24
355.692	-11.78
355.903	37.38
356.115	12.8
356.326	16.9
356.538	184.83
356.749	2.56
356.961	-22.02
357.172	27.14
357.384	47.62
357.595	107.01
357.807	23.04
358.018	-28.16
358.23	45.57
358.441	16.9
358.653	37.38
358.864	74.24
359.075	16.9
359.287	119.29
359.498	72.19
359.709	45.57
359.921	113.15
360.132	29.18
360.344	-17.92
360.555	68.09
360.766	66.05
360.977	25.09
361.189	82.43
361.4	29.18
361.611	10.75
361.823	37.38
362.034	96.77
362.245	-26.11
362.456	29.18
362.667	45.57
362.879	12.8
363.09	49.66
363.301	47.62
363.512	51.71
363.723	37.38
363.935	20.99
364.146	51.71
364.357	51.71
364.568	12.8
364.779	102.91
364.99	76.29
365.201	45.57
365.412	61.95
365.623	94.72
365.834	-15.87
366.045	100.86
366.256	4.61
366.467	14.85
366.678	23.04
366.889	84.48
367.1	39.42
367.311	-1.54
367.522	84.48
367.733	121.34
367.944	55.81
368.155	49.66
368.366	39.42
368.577	31.23
368.788	92.67
368.999	10.75
369.209	39.42
369.42	45.57
369.631	86.53
369.842	53.76
370.053	74.24
370.264	119.29
370.474	35.33
370.685	82.43
370.896	78.33
371.107	84.48
371.317	45.57
371.528	-38.4
371.739	-1.54
371.95	37.38
372.16	117.25
372.371	53.76
372.582	94.72
372.792	41.47
373.003	117.25
373.214	45.57
373.424	41.47
373.635	20.99
373.846	39.42
374.056	25.09
374.267	61.95
374.477	66.05
374.688	0.51
374.898	111.1
375.109	18.94
375.319	10.75
375.53	35.33
375.74	78.33
375.951	74.24
376.161	39.42
376.372	113.15
376.582	23.04
376.793	49.66
377.003	64
377.214	102.91
377.424	43.52
377.635	61.95
377.845	39.42
378.055	53.76
378.266	23.04
378.476	76.29
378.686	76.29
378.897	92.67
379.107	57.86
379.317	68.09
379.528	45.57
379.738	107.01
379.948	2.56
380.158	104.96
380.369	127.49
380.579	104.96
380.789	66.05
380.999	41.47
381.21	84.48
381.42	119.29
381.63	41.47
381.84	35.33
382.05	29.18
382.261	55.81
382.471	123.39
382.681	145.92
382.891	129.53
383.101	29.18
383.311	10.75
383.521	92.67
383.731	43.52
383.941	23.04
384.151	68.09
384.361	61.95
384.571	104.96
384.781	68.09
384.991	64
385.201	66.05
385.411	57.86
385.621	41.47
385.831	2.56
386.041	31.23
386.251	57.86
386.461	64
386.671	27.14
386.881	92.67
387.091	70.14
387.301	57.86
387.511	115.2
387.72	43.52
387.93	92.67
388.14	25.09
388.35	78.33
388.56	25.09
388.769	135.68
388.979	-26.11
389.189	70.14
389.399	66.05
389.609	133.63
389.818	10.75
390.028	80.38
390.238	86.53
390.447	82.43
390.657	14.85
390.867	98.81
391.076	80.38
391.286	72.19
391.496	90.62
391.705	55.81
391.915	100.86
392.125	119.29
392.334	37.38
392.544	68.09
392.753	18.94
392.963	14.85
393.172	127.49
393.382	47.62
393.591	90.62
393.801	57.86
394.01	68.09
394.22	127.49
394.429	68.09
394.639	100.86
394.848	61.95
395.058	92.67
395.267	111.1
395.477	80.38
395.686	43.52
395.895	64
396.105	45.57
396.314	131.58
396.524	90.62
396.733	82.43
396.942	100.86
397.152	74.24
397.361	117.25
397.57	66.05
397.78	72.19
397.989	111.1
398.198	195.07
398.407	86.53
398.617	100.86
398.826	82.43
399.035	131.58
399.244	162.3
399.453	72.19
399.663	156.16
399.872	8.7
400.081	100.86
400.29	100.86
400.499	119.29
400.708	78.33
400.917	78.33
401.127	109.05
401.336	51.71
401.545	123.39
401.754	123.39
401.963	107.01
402.172	127.49
402.381	100.86
402.59	133.63
402.799	119.29
403.008	160.25
403.217	98.81
403.426	25.09
403.635	31.23
403.844	104.96
404.053	197.12
404.262	143.87
404.471	156.16
404.68	166.4
404.888	164.35
405.097	119.29
405.306	164.35
405.515	107.01
405.724	156.16
405.933	109.05
406.142	94.72
406.35	213.5
406.559	135.68
406.768	193.02
406.977	201.21
407.185	182.78
407.394	188.93
407.603	135.68
407.812	125.44
408.02	184.83
408.229	217.6
408.438	219.64
408.646	143.87
408.855	274.94
409.064	256.51
409.272	231.93
409.481	250.36
409.69	233.98
409.898	246.27
410.107	272.89
410.315	262.65
410.524	242.17
410.733	311.8
410.941	322.04
411.15	317.95
411.358	340.47
411.567	297.47
411.775	424.44
411.984	340.47
412.192	432.63
412.401	360.95
412.609	352.76
412.818	463.35
413.026	539.13
413.234	457.21
413.443	444.92
413.651	442.87
413.86	487.93
414.068	612.85
414.276	543.22
414.485	608.76
414.693	547.32
414.901	575.99
415.11	606.71
415.318	528.89
415.526	604.66
415.734	643.57
415.943	662.01
416.151	735.73
416.359	619
416.567	633.33
416.776	762.36
416.984	926.19
417.192	817.65
417.4	756.21
417.608	922.1
417.817	928.24
418.025	887.28
418.233	1014.26
418.441	985.58
418.649	1044.98
418.857	1135.09
419.065	1110.51
419.273	1067.5
419.481	1104.37
419.689	1206.77
419.897	1217.01
420.105	1366.51
420.313	1374.7
420.521	1350.12
420.729	1448.43
420.937	1415.66
421.145	1466.86
421.353	1511.91
421.561	1630.7
421.769	1642.98
421.977	1843.68
422.185	1802.72
422.393	1763.81
422.601	1964.51
422.809	1997.28
423.017	1989.09
423.224	2179.55
423.432	2171.36
423.64	2050.53
423.848	2441.69
424.056	2259.42
424.263	2603.48
424.471	2435.55
424.679	2552.28
424.887	2632.15
425.094	2656.73
425.302	2806.23
425.51	2863.57
425.718	2914.77
425.925	2961.87
426.133	2943.44
426.341	3215.82
426.548	3328.46
426.756	3387.85
426.964	3406.28
427.171	3609.03
427.379	3613.13
427.586	3701.19
427.794	3817.93
428.001	3951.04
428.209	4264.38
428.417	3977.67
428.624	4432.32
428.832	4385.21
429.039	4415.93
429.247	4340.16
429.454	4854.2
429.662	5208.5
429.869	4835.77
430.076	5151.15
430.284	4944.31
430.491	5345.71
430.699	5589.42
430.906	5509.55
431.114	5710.25
431.321	5921.19
431.528	5896.61
431.736	6273.44
431.943	6490.52
432.15	6390.17
432.358	6365.6
432.565	6855.06
432.772	6834.58
432.979	7082.39
433.187	7252.37
433.394	7440.78
433.601	7686.54
433.808	7786.89
434.016	7844.23
434.223	8143.24
434.43	8679.8
434.637	8397.18
434.844	8966.52
435.052	9265.52
435.259	9181.56
435.466	9156.98
435.673	9089.4
435.88	9546.09
436.087	10021.22
436.294	10197.35
436.501	10088.81
436.708	10213.73
436.915	10635.61
437.122	10774.88
437.329	10899.8
437.537	11284.82
437.743	11450.71
437.95	11368.79
438.157	11940.17
438.364	12267.84
438.571	12394.82
438.778	12345.67
438.985	13324.6
439.192	12824.89
439.399	13539.63
439.606	13113.66
439.813	13842.73
440.02	14876.96
440.227	14688.54
440.433	14481.7
440.64	14813.47
440.847	14842.14
441.054	15155.48
441.261	16179.47
441.467	15712.53
441.674	16380.17
441.881	16974.08
442.088	16593.15
442.294	16767.23
442.501	17131.77
442.708	17305.85
442.914	17918.19
443.121	18974.94
443.328	18508.01
443.534	19423.45
443.741	18895.07
443.948	18835.68
444.154	20285.64
444.361	20117.71
444.568	20185.29
444.774	20469.96
444.981	20541.64
445.187	20938.94
445.394	21964.98
445.6	21561.53
445.807	23720.09
446.013	22620.33
446.22	23120.03
446.426	23998.61
446.633	24203.41
446.839	24989.83
447.046	24035.47
447.252	25442.43
447.459	25360.51
447.665	25409.66
447.871	26534
448.078	27287.65
448.284	26040.43
448.491	26663.02
448.697	28045.4
448.903	28115.03
449.11	28526.67
449.316	27914.33
449.522	28395.6
449.728	29132.87
449.935	29452.35
450.141	29171.78
450.347	30074.93
450.553	28885.06
450.76	29610.04
450.966	30236.72
451.172	29868.09
451.378	30949.42
451.584	30177.33
451.791	31105.06
451.997	30509.1
452.203	31109.16
452.409	31565.85
452.615	30924.84
452.821	29888.57
453.027	29659.2
453.233	31242.28
453.44	29687.87
453.646	30144.56
453.852	30107.7
454.058	30840.87
454.264	29833.27
454.47	30281.78
454.676	29530.17
454.882	30900.26
455.088	28110.93
455.294	28371.02
455.5	28960.84
455.705	28862.54
455.911	27967.57
456.117	27504.73
456.323	26880.1
456.529	25723
456.735	26521.71
456.941	25979
457.147	25464.96
457.352	24651.91
457.558	24307.85
457.764	24582.28
457.97	23994.51
458.176	23367.84
458.381	23232.67
458.587	22214.83
458.793	22452.39
458.999	20900.03
459.204	23007.39
459.41	22141.1
459.616	20740.29
459.821	20601.03
460.027	20574.41
460.233	20273.35
460.438	19028.19
460.644	19497.17
460.85	18530.53
461.055	18491.62
461.261	18329.83
461.466	17017.08
461.672	16511.24
461.878	17690.87
462.083	16433.41
462.289	15907.09
462.494	15997.2
462.7	15257.88
462.905	14909.72
463.111	15735.06
463.316	15376.66
463.522	15055.13
463.727	14969.12
463.932	15061.27
464.138	14997.79
464.343	14807.33
464.549	14518.56
464.754	14999.84
464.959	14911.77
465.165	14874.91
465.37	14211.37
465.575	13814.06
465.781	14559.52
465.986	14590.24
466.191	14092.58
466.397	13775.15
466.602	13050.17
466.807	13545.78
467.012	13429.04
467.218	13404.47
467.423	13392.18
467.628	13496.63
467.833	13910.32
468.038	13330.74
468.244	13037.88
468.449	13521.2
468.654	13156.66
