Data from USB4F104151__229__11-10-59-673.txt Node

Date: Wed Mar 12 11:10:59 EDT 2025
User: louis
Spectrometer: USB4F10415
Trigger mode: 4
Integration Time (sec): 2.000000E-2
Scans to average: 1
Electric dark correction enabled: true
Nonlinearity correction enabled: false
Boxcar width: 0
XAxis mode: Wavelengths
Number of Pixels in Spectrum: 3648
>>>>>Begin Spectral Data<<<<<
178.204	27.48
178.424	27.48
178.644	27.48
178.864	-38.06
179.084	-74.92
179.304	31.57
179.524	-46.25
179.744	2.9
179.964	7
180.184	23.38
180.404	-52.39
180.624	-13.48
180.844	-3.24
181.064	9.05
181.283	-40.11
181.503	45.91
181.723	35.67
181.943	-33.96
182.163	52.05
182.383	19.29
182.602	133.97
182.822	15.19
183.042	-76.97
183.262	37.72
183.482	9.05
183.701	-3.24
183.921	35.67
184.141	2.9
184.361	62.29
184.58	21.33
184.8	-27.82
185.02	-13.48
185.239	33.62
185.459	4.95
185.679	82.77
185.898	25.43
186.118	56.15
186.338	15.19
186.557	68.44
186.777	-27.82
186.997	11.09
187.216	-5.29
187.436	33.62
187.655	15.19
187.875	7
188.095	-15.53
188.314	117.59
188.534	74.58
188.753	74.58
188.973	-48.3
189.192	-62.63
189.412	27.48
189.631	50
189.851	76.63
190.07	-9.39
190.29	-58.54
190.509	39.76
190.729	-50.35
190.948	148.31
191.168	80.72
191.387	60.24
191.607	2.9
191.826	-17.58
192.045	-13.48
192.265	64.34
192.484	19.29
192.704	80.72
192.923	-33.96
193.142	39.76
193.362	72.53
193.581	-29.87
193.8	17.24
194.02	76.63
194.239	84.82
194.458	13.14
194.678	-13.48
194.897	-17.58
195.116	2.9
195.335	80.72
195.555	29.52
195.774	9.05
195.993	-1.19
196.212	52.05
196.432	-3.24
196.651	-11.43
196.87	41.81
197.089	62.29
197.308	47.96
197.528	27.48
197.747	25.43
197.966	107.35
198.185	84.82
198.404	60.24
198.623	107.35
198.842	78.68
199.062	9.05
199.281	-5.29
199.5	56.15
199.719	0.85
199.938	50
200.157	15.19
200.376	-23.72
200.595	68.44
200.814	-21.67
201.033	11.09
201.252	97.11
201.471	39.76
201.69	72.53
201.909	37.72
202.128	-21.67
202.347	138.07
202.566	60.24
202.785	35.67
203.004	19.29
203.223	54.1
203.442	-36.01
203.661	74.58
203.879	21.33
204.098	56.15
204.317	-50.35
204.536	13.14
204.755	80.72
204.974	84.82
205.193	19.29
205.411	64.34
205.63	27.48
205.849	-46.25
206.068	56.15
206.287	41.81
206.505	35.67
206.724	50
206.943	-21.67
207.162	72.53
207.381	-13.48
207.599	-9.39
207.818	25.43
208.037	39.76
208.255	45.91
208.474	39.76
208.693	117.59
208.911	17.24
209.13	72.53
209.349	15.19
209.567	-42.15
209.786	105.3
210.005	70.48
210.223	97.11
210.442	68.44
210.661	39.76
210.879	35.67
211.098	15.19
211.316	72.53
211.535	-7.34
211.753	58.2
211.972	11.09
212.191	-5.29
212.409	15.19
212.628	47.96
212.846	47.96
213.065	52.05
213.283	-56.49
213.502	-21.67
213.72	19.29
213.938	62.29
214.157	0.85
214.375	115.54
214.594	17.24
214.812	15.19
215.031	52.05
215.249	11.09
215.467	9.05
215.686	29.52
215.904	-25.77
216.122	2.9
216.341	43.86
216.559	19.29
216.778	37.72
216.996	-5.29
217.214	37.72
217.432	43.86
217.651	-15.53
217.869	103.25
218.087	11.09
218.306	-7.34
218.524	-27.82
218.742	11.09
218.96	68.44
219.179	-27.82
219.397	-3.24
219.615	35.67
219.833	-13.48
220.051	-44.2
220.27	41.81
220.488	39.76
220.706	-3.24
220.924	2.9
221.142	0.85
221.36	23.38
221.578	-46.25
221.796	39.76
222.015	-25.77
222.233	50
222.451	27.48
222.669	33.62
222.887	105.3
223.105	13.14
223.323	19.29
223.541	-5.29
223.759	50
223.977	58.2
224.195	-25.77
224.413	50
224.631	54.1
224.849	2.9
225.067	80.72
225.285	39.76
225.503	41.81
225.721	27.48
225.939	39.76
226.157	68.44
226.375	84.82
226.592	35.67
226.81	50
227.028	35.67
227.246	99.16
227.464	25.43
227.682	45.91
227.9	54.1
228.117	62.29
228.335	7
228.553	52.05
228.771	39.76
228.989	23.38
229.206	7
229.424	33.62
229.642	25.43
229.86	4.95
230.077	90.96
230.295	15.19
230.513	47.96
230.731	39.76
230.948	25.43
231.166	29.52
231.384	74.58
231.601	-64.68
231.819	74.58
232.037	27.48
232.254	25.43
232.472	-3.24
232.689	-11.43
232.907	68.44
233.125	23.38
233.342	-1.19
233.56	-29.87
233.777	23.38
233.995	62.29
234.213	103.25
234.43	90.96
234.648	37.72
234.865	47.96
235.083	43.86
235.3	35.67
235.518	27.48
235.735	76.63
235.953	17.24
236.17	13.14
236.388	-1.19
236.605	56.15
236.822	-7.34
237.04	7
237.257	76.63
237.475	-23.72
237.692	78.68
237.909	72.53
238.127	-60.59
238.344	86.87
238.562	66.39
238.779	-25.77
238.996	23.38
239.214	43.86
239.431	27.48
239.648	45.91
239.865	80.72
240.083	95.06
240.3	45.91
240.517	23.38
240.735	-13.48
240.952	23.38
241.169	7
241.386	82.77
241.603	2.9
241.821	47.96
242.038	11.09
242.255	80.72
242.472	35.67
242.689	107.35
242.907	13.14
243.124	70.48
243.341	29.52
243.558	-21.67
243.775	23.38
243.992	-9.39
244.209	4.95
244.426	47.96
244.643	-3.24
244.86	37.72
245.078	52.05
245.295	117.59
245.512	60.24
245.729	27.48
245.946	23.38
246.163	37.72
246.38	50
246.597	95.06
246.814	107.35
247.031	58.2
247.248	33.62
247.464	13.14
247.681	25.43
247.898	23.38
248.115	43.86
248.332	7
248.549	58.2
248.766	76.63
248.983	31.57
249.2	111.44
249.417	2.9
249.633	13.14
249.85	54.1
250.067	78.68
250.284	23.38
250.501	39.76
250.717	60.24
250.934	90.96
251.151	27.48
251.368	13.14
251.585	68.44
251.801	74.58
252.018	17.24
252.235	17.24
252.451	74.58
252.668	-87.21
252.885	25.43
253.102	17.24
253.318	45.91
253.535	-38.06
253.752	-23.72
253.968	-25.77
254.185	27.48
254.401	58.2
254.618	11.09
254.835	50
255.051	105.3
255.268	-38.06
255.484	-36.01
255.701	11.09
255.917	37.72
256.134	7
256.351	-23.72
256.567	84.82
256.784	23.38
257	58.2
257.217	58.2
257.433	37.72
257.65	50
257.866	23.38
258.082	31.57
258.299	90.96
258.515	56.15
258.732	27.48
258.948	64.34
259.165	56.15
259.381	47.96
259.597	2.9
259.814	29.52
260.03	19.29
260.246	37.72
260.463	25.43
260.679	90.96
260.895	23.38
261.112	111.44
261.328	27.48
261.544	31.57
261.761	74.58
261.977	7
262.193	27.48
262.409	62.29
262.626	35.67
262.842	15.19
263.058	41.81
263.274	23.38
263.49	19.29
263.707	7
263.923	62.29
264.139	35.67
264.355	60.24
264.571	27.48
264.787	76.63
265.004	54.1
265.22	15.19
265.436	-17.58
265.652	-19.63
265.868	37.72
266.084	-7.34
266.3	84.82
266.516	45.91
266.732	58.2
266.948	47.96
267.164	37.72
267.38	31.57
267.596	95.06
267.812	101.2
268.028	37.72
268.244	-9.39
268.46	35.67
268.676	15.19
268.892	115.54
269.108	4.95
269.324	7
269.54	29.52
269.756	88.92
269.972	-5.29
270.188	68.44
270.403	-33.96
270.619	19.29
270.835	-38.06
271.051	60.24
271.267	0.85
271.483	41.81
271.698	47.96
271.914	39.76
272.13	-9.39
272.346	19.29
272.562	-17.58
272.777	60.24
272.993	27.48
273.209	21.33
273.425	70.48
273.64	25.43
273.856	58.2
274.072	68.44
274.287	-11.43
274.503	31.57
274.719	138.07
274.934	31.57
275.15	-13.48
275.366	23.38
275.581	-9.39
275.797	-17.58
276.012	-15.53
276.228	-1.19
276.444	-33.96
276.659	62.29
276.875	-15.53
277.09	25.43
277.306	21.33
277.521	4.95
277.737	21.33
277.952	97.11
278.168	78.68
278.383	21.33
278.599	47.96
278.814	84.82
279.03	7
279.245	-68.78
279.461	90.96
279.676	41.81
279.892	13.14
280.107	13.14
280.322	43.86
280.538	29.52
280.753	13.14
280.969	74.58
281.184	13.14
281.399	11.09
281.615	72.53
281.83	52.05
282.045	-11.43
282.26	-23.72
282.476	62.29
282.691	31.57
282.906	37.72
283.122	9.05
283.337	11.09
283.552	41.81
283.767	15.19
283.983	72.53
284.198	11.09
284.413	88.92
284.628	-50.35
284.843	-17.58
285.058	-3.24
285.274	33.62
285.489	27.48
285.704	45.91
285.919	-83.11
286.134	17.24
286.349	111.44
286.564	7
286.779	25.43
286.995	39.76
287.21	70.48
287.425	140.12
287.64	-29.87
287.855	23.38
288.07	33.62
288.285	-9.39
288.5	33.62
288.715	11.09
288.93	29.52
289.145	-21.67
289.36	33.62
289.575	70.48
289.79	-5.29
290.004	-3.24
290.219	15.19
290.434	-3.24
290.649	27.48
290.864	56.15
291.079	7
291.294	68.44
291.509	39.76
291.724	62.29
291.938	7
292.153	76.63
292.368	45.91
292.583	-21.67
292.798	68.44
293.012	97.11
293.227	84.82
293.442	21.33
293.657	9.05
293.871	76.63
294.086	19.29
294.301	-21.67
294.516	125.78
294.73	52.05
294.945	45.91
295.16	78.68
295.374	88.92
295.589	39.76
295.804	43.86
296.018	23.38
296.233	25.43
296.447	39.76
296.662	-54.44
296.877	2.9
297.091	95.06
297.306	-3.24
297.52	-27.82
297.735	56.15
297.949	33.62
298.164	58.2
298.378	7
298.593	47.96
298.807	72.53
299.022	-5.29
299.236	13.14
299.451	33.62
299.665	68.44
299.88	80.72
300.094	62.29
300.309	7
300.523	50
300.737	82.77
300.952	39.76
301.166	-44.2
301.381	43.86
301.595	39.76
301.809	99.16
302.024	43.86
302.238	9.05
302.452	60.24
302.667	72.53
302.881	78.68
303.095	52.05
303.309	70.48
303.524	45.91
303.738	39.76
303.952	39.76
304.166	-5.29
304.381	33.62
304.595	88.92
304.809	31.57
305.023	17.24
305.237	58.2
305.452	47.96
305.666	29.52
305.88	66.39
306.094	103.25
306.308	78.68
306.522	101.2
306.736	52.05
306.95	21.33
307.164	-1.19
307.379	-5.29
307.593	66.39
307.807	88.92
308.021	39.76
308.235	31.57
308.449	35.67
308.663	29.52
308.877	95.06
309.091	7
309.305	-5.29
309.519	54.1
309.733	54.1
309.947	0.85
310.161	52.05
310.374	27.48
310.588	35.67
310.802	64.34
311.016	52.05
311.23	103.25
311.444	23.38
311.658	7
311.872	54.1
312.085	33.62
312.299	52.05
312.513	80.72
312.727	45.91
312.941	15.19
313.154	148.31
313.368	19.29
313.582	-17.58
313.796	-5.29
314.009	9.05
314.223	84.82
314.437	54.1
314.651	35.67
314.864	23.38
315.078	78.68
315.292	27.48
315.505	-25.77
315.719	27.48
315.933	-5.29
316.146	-27.82
316.36	11.09
316.573	31.57
316.787	84.82
317.001	54.1
317.214	78.68
317.428	60.24
317.641	-7.34
317.855	27.48
318.068	-11.43
318.282	-1.19
318.495	68.44
318.709	47.96
318.922	19.29
319.136	93.01
319.349	80.72
319.563	66.39
319.776	0.85
319.99	11.09
320.203	15.19
320.417	50
320.63	13.14
320.843	39.76
321.057	25.43
321.27	23.38
321.483	72.53
321.697	39.76
321.91	39.76
322.124	39.76
322.337	-31.91
322.55	-31.91
322.763	9.05
322.977	35.67
323.19	78.68
323.403	39.76
323.617	-19.63
323.83	45.91
324.043	0.85
324.256	9.05
324.469	19.29
324.683	37.72
324.896	39.76
325.109	43.86
325.322	33.62
325.535	13.14
325.748	17.24
325.962	148.31
326.175	35.67
326.388	-1.19
326.601	54.1
326.814	13.14
327.027	25.43
327.24	41.81
327.453	11.09
327.666	-11.43
327.879	33.62
328.092	52.05
328.305	13.14
328.518	-7.34
328.731	64.34
328.944	17.24
329.157	41.81
329.37	97.11
329.583	25.43
329.796	115.54
330.009	7
330.222	0.85
330.435	31.57
330.648	11.09
330.861	88.92
331.073	11.09
331.286	21.33
331.499	62.29
331.712	78.68
331.925	39.76
332.138	66.39
332.35	52.05
332.563	105.3
332.776	35.67
332.989	27.48
333.202	78.68
333.414	9.05
333.627	95.06
333.84	15.19
334.053	66.39
334.265	-7.34
334.478	-21.67
334.691	13.14
334.903	29.52
335.116	-89.26
335.329	-27.82
335.541	15.19
335.754	90.96
335.966	4.95
336.179	90.96
336.392	4.95
336.604	84.82
336.817	121.68
337.029	62.29
337.242	50
337.454	33.62
337.667	35.67
337.88	31.57
338.092	43.86
338.305	72.53
338.517	-25.77
338.729	23.38
338.942	7
339.154	58.2
339.367	-7.34
339.579	41.81
339.792	-7.34
340.004	86.87
340.217	31.57
340.429	39.76
340.641	15.19
340.854	82.77
341.066	35.67
341.278	84.82
341.491	74.58
341.703	31.57
341.915	97.11
342.128	47.96
342.34	90.96
342.552	45.91
342.764	84.82
342.977	80.72
343.189	-9.39
343.401	45.91
343.613	-11.43
343.826	21.33
344.038	-29.87
344.25	84.82
344.462	29.52
344.674	74.58
344.886	35.67
345.099	-23.72
345.311	-50.35
345.523	9.05
345.735	17.24
345.947	11.09
346.159	4.95
346.371	64.34
346.583	37.72
346.795	111.44
347.007	82.77
347.219	52.05
347.431	58.2
347.643	80.72
347.855	39.76
348.067	154.45
348.279	21.33
348.491	90.96
348.703	25.43
348.915	52.05
349.127	4.95
349.339	119.64
349.551	-25.77
349.763	111.44
349.975	47.96
350.187	88.92
350.399	62.29
350.61	43.86
350.822	29.52
351.034	0.85
351.246	56.15
351.458	60.24
351.669	41.81
351.881	74.58
352.093	107.35
352.305	97.11
352.517	27.48
352.728	119.64
352.94	25.43
353.152	52.05
353.363	35.67
353.575	113.49
353.787	35.67
353.999	76.63
354.21	31.57
354.422	31.57
354.633	54.1
354.845	31.57
355.057	39.76
355.268	86.87
355.48	90.96
355.692	-5.29
355.903	35.67
356.115	21.33
356.326	-19.63
356.538	99.16
356.749	74.58
356.961	43.86
357.172	15.19
357.384	52.05
357.595	86.87
357.807	125.78
358.018	52.05
358.23	27.48
358.441	93.01
358.653	117.59
358.864	31.57
359.075	58.2
359.287	29.52
359.498	19.29
359.709	29.52
359.921	113.49
360.132	47.96
360.344	21.33
360.555	37.72
360.766	115.54
360.977	7
361.189	25.43
361.4	15.19
361.611	72.53
361.823	43.86
362.034	60.24
362.245	-3.24
362.456	-5.29
362.667	97.11
362.879	97.11
363.09	133.97
363.301	21.33
363.512	97.11
363.723	101.2
363.935	56.15
364.146	35.67
364.357	103.25
364.568	-23.72
364.779	-66.73
364.99	13.14
365.201	-21.67
365.412	136.02
365.623	-3.24
365.834	66.39
366.045	11.09
366.256	101.2
366.467	9.05
366.678	15.19
366.889	21.33
367.1	52.05
367.311	82.77
367.522	52.05
367.733	39.76
367.944	88.92
368.155	-13.48
368.366	68.44
368.577	133.97
368.788	58.2
368.999	101.2
369.209	68.44
369.42	121.68
369.631	64.34
369.842	9.05
370.053	-40.11
370.264	136.02
370.474	56.15
370.685	33.62
370.896	43.86
371.107	17.24
371.317	64.34
371.528	82.77
371.739	45.91
371.95	19.29
372.16	27.48
372.371	29.52
372.582	-13.48
372.792	93.01
373.003	43.86
373.214	80.72
373.424	72.53
373.635	19.29
373.846	66.39
374.056	11.09
374.267	101.2
374.477	29.52
374.688	-17.58
374.898	52.05
375.109	23.38
375.319	68.44
375.53	58.2
375.74	101.2
375.951	-66.73
376.161	68.44
376.372	37.72
376.582	21.33
376.793	58.2
377.003	31.57
377.214	-1.19
377.424	-1.19
377.635	84.82
377.845	68.44
378.055	64.34
378.266	-97.45
378.476	68.44
378.686	35.67
378.897	82.77
379.107	62.29
379.317	72.53
379.528	35.67
379.738	80.72
379.948	-17.58
380.158	29.52
380.369	15.19
380.579	11.09
380.789	78.68
380.999	52.05
381.21	66.39
381.42	58.2
381.63	50
381.84	41.81
382.05	2.9
382.261	68.44
382.471	56.15
382.681	90.96
382.891	60.24
383.101	-27.82
383.311	121.68
383.521	11.09
383.731	37.72
383.941	205.65
384.151	66.39
384.361	58.2
384.571	88.92
384.781	68.44
384.991	84.82
385.201	56.15
385.411	23.38
385.621	90.96
385.831	50
386.041	47.96
386.251	66.39
386.461	115.54
386.671	54.1
386.881	35.67
387.091	97.11
387.301	35.67
387.511	35.67
387.72	35.67
387.93	64.34
388.14	56.15
388.35	107.35
388.56	41.81
388.769	62.29
388.979	56.15
389.189	-27.82
389.399	-5.29
389.609	35.67
389.818	95.06
390.028	97.11
390.238	136.02
390.447	70.48
390.657	101.2
390.867	50
391.076	64.34
391.286	2.9
391.496	76.63
391.705	37.72
391.915	93.01
392.125	95.06
392.334	50
392.544	119.64
392.753	105.3
392.963	99.16
393.172	68.44
393.382	76.63
393.591	82.77
393.801	93.01
394.01	11.09
394.22	54.1
394.429	25.43
394.639	101.2
394.848	56.15
395.058	56.15
395.267	99.16
395.477	74.58
395.686	2.9
395.895	195.41
396.105	111.44
396.314	93.01
396.524	95.06
396.733	105.3
396.942	88.92
397.152	84.82
397.361	72.53
397.57	50
397.78	105.3
397.989	97.11
398.198	117.59
398.407	119.64
398.617	58.2
398.826	111.44
399.035	138.07
399.244	84.82
399.453	99.16
399.663	58.2
399.872	103.25
400.081	54.1
400.29	197.46
400.499	121.68
400.708	109.4
400.917	68.44
401.127	93.01
401.336	86.87
401.545	125.78
401.754	88.92
401.963	58.2
402.172	70.48
402.381	103.25
402.59	131.92
402.799	97.11
403.008	150.36
403.217	95.06
403.426	158.55
403.635	93.01
403.844	162.64
404.053	148.31
404.262	136.02
404.471	111.44
404.68	115.54
404.888	133.97
405.097	179.03
405.306	82.77
405.515	121.68
405.724	170.83
405.933	150.36
406.142	125.78
406.35	209.75
406.559	103.25
406.768	158.55
406.977	217.94
407.185	209.75
407.394	193.36
407.603	205.65
407.812	199.51
408.02	248.66
408.229	240.47
408.438	185.17
408.646	232.27
408.855	236.37
409.064	232.27
409.272	297.81
409.481	213.84
409.69	310.1
409.898	230.23
410.107	203.6
410.315	314.19
410.524	420.69
410.733	336.72
410.941	416.59
411.15	260.95
411.358	414.54
411.567	330.58
411.775	357.2
411.984	408.4
412.192	349.01
412.401	441.17
412.609	486.22
412.818	432.97
413.026	465.74
413.234	453.45
413.443	547.66
413.651	500.56
413.86	535.37
414.068	600.91
414.276	566.09
414.485	502.61
414.693	654.16
414.901	588.62
415.11	652.11
415.318	691.02
415.526	643.92
415.734	834.38
415.943	715.59
416.151	766.79
416.359	703.31
416.567	719.69
416.776	744.27
416.984	930.63
417.192	920.39
417.4	940.87
417.608	1000.26
417.817	961.35
418.025	1018.69
418.233	1104.71
418.441	1067.85
418.649	1078.08
418.857	1190.72
419.065	1196.87
419.273	1186.63
419.481	1248.07
419.689	1356.61
419.897	1375.04
420.105	1432.38
420.313	1379.14
420.521	1493.82
420.729	1411.9
420.937	1555.26
421.145	1696.57
421.353	1645.37
421.561	1831.74
421.769	1891.13
421.977	1983.29
422.185	1868.6
422.393	2032.44
422.601	2087.73
422.809	2138.93
423.017	2145.08
423.224	2132.79
423.432	2177.84
423.64	2210.61
423.848	2429.74
424.056	2460.46
424.263	2638.64
424.471	2636.59
424.679	2636.59
424.887	2812.71
425.094	2937.64
425.302	3015.46
425.51	2988.84
425.718	2992.94
425.925	3189.54
426.133	3279.65
426.341	3482.4
426.548	3642.14
426.756	3638.05
426.964	3738.4
427.171	3853.08
427.379	3928.86
427.586	4059.93
427.794	4193.05
428.001	4381.46
428.209	4514.58
428.417	4348.69
428.624	4809.48
428.832	4840.2
429.039	4672.27
429.247	4772.62
429.454	5171.97
429.662	5565.18
429.869	5004.04
430.076	5608.19
430.284	5425.92
430.491	5479.17
430.699	5858.04
430.906	5997.31
431.114	6052.6
431.321	6232.82
431.528	6300.41
431.736	6740.72
431.943	7074.54
432.15	6773.49
432.358	6898.41
432.565	7318.25
432.772	7215.85
432.979	7768.8
433.187	7885.53
433.394	7852.77
433.601	8549.07
433.808	8485.59
434.016	8370.9
434.223	8649.43
434.43	9263.82
434.637	8917.71
434.844	9536.2
435.052	9702.08
435.259	9630.4
435.466	9798.34
435.673	9675.46
435.88	10265.27
436.087	10910.38
436.294	10715.83
436.501	10431.16
436.708	10889.9
436.915	11221.67
437.122	11768.48
437.329	11309.74
437.537	11932.32
437.743	12098.2
437.95	12112.54
438.157	12642.96
438.364	13015.69
438.571	13128.33
438.778	13042.32
438.985	14195.32
439.192	13638.28
439.399	14183.04
439.606	13906.56
439.813	14666.36
440.02	15667.81
440.227	15186.54
440.433	15331.95
440.64	15669.86
440.847	15473.26
441.054	16122.46
441.261	16734.81
441.467	16806.48
441.674	17224.27
441.881	17631.82
442.088	17697.35
442.294	17533.51
442.501	18039.36
442.708	18252.35
442.914	19110.45
443.121	19980.84
443.328	19397.17
443.534	20783.64
443.741	20189.73
443.948	20021.8
444.154	21488.14
444.361	21219.86
444.568	21264.91
444.774	21389.84
444.981	21613.07
445.187	22061.57
445.394	22981.11
445.6	23149.04
445.807	25033.18
446.013	23900.65
446.22	24422.88
446.426	25346.51
446.633	25254.36
446.839	26259.91
447.046	25006.55
447.252	26628.54
447.459	26452.42
447.665	26599.87
447.871	27636.14
448.078	28682.66
448.284	27582.9
448.491	28287.4
448.697	29245.85
448.903	29839.76
449.11	29897.1
449.316	29116.83
449.522	29729.17
449.728	30630.27
449.935	30773.63
450.141	30747.01
450.347	31363.45
450.553	30540.16
450.76	31013.24
450.966	31578.48
451.172	31476.09
451.378	31889.77
451.584	31619.44
451.791	32178.54
451.997	32227.69
452.203	32776.55
452.409	32493.93
452.615	32797.02
452.821	30916.99
453.027	30929.28
453.233	32627.04
453.44	31459.7
453.646	32014.7
453.852	31613.3
454.058	32010.6
454.264	30716.29
454.47	31654.26
454.676	30871.93
454.882	32029.04
455.088	29045.15
455.294	29858.19
455.5	30275.98
455.705	30476.68
455.911	29034.91
456.117	28242.34
456.323	28352.93
456.529	26294.72
456.735	27513.27
456.941	27109.82
457.147	26753.47
457.352	25584.08
457.558	25465.3
457.764	25602.51
457.97	24781.28
458.176	24623.58
458.381	24244.71
458.587	23136.76
458.793	23181.81
458.999	22299.14
459.204	23609.84
459.41	23056.89
459.616	21578.25
459.821	21266.96
460.027	21512.72
460.233	20818.46
460.438	20021.8
460.644	20169.25
460.85	19264.05
461.055	19106.35
461.261	18719.29
461.466	17285.71
461.672	16955.99
461.878	18133.57
462.083	17113.68
462.289	16466.52
462.494	16360.03
462.7	15759.97
462.905	15366.76
463.111	15858.28
463.316	15878.76
463.522	15727.21
463.727	15567.46
463.932	15784.55
464.138	15489.64
464.343	15356.52
464.549	14998.13
464.754	15471.21
464.959	15596.14
465.165	15360.62
465.37	14817.91
465.575	14142.08
465.781	15094.38
465.986	15012.46
466.191	14484.09
466.397	14350.97
466.602	13365.9
466.807	13955.71
467.012	14080.64
467.218	13617.8
467.423	13628.04
467.628	13888.13
467.833	14412.41
468.038	14002.82
468.244	13353.61
468.449	14246.52
468.654	13478.54
468.859	13290.12
469.064	13359.75
