Data from USB4F104151__287__11-12-58-041.txt Node

Date: Wed Mar 12 11:12:58 EDT 2025
User: louis
Spectrometer: USB4F10415
Trigger mode: 4
Integration Time (sec): 2.000000E-2
Scans to average: 1
Electric dark correction enabled: true
Nonlinearity correction enabled: false
Boxcar width: 0
XAxis mode: Wavelengths
Number of Pixels in Spectrum: 3648
>>>>>Begin Spectral Data<<<<<
178.204	-79.87
178.424	-79.87
178.644	-79.87
178.864	-40.96
179.084	-36.86
179.304	8.19
179.524	-2.05
179.744	24.58
179.964	28.67
180.184	36.86
180.404	32.77
180.624	-28.67
180.844	2.05
181.064	-32.77
181.283	-20.48
181.503	-43.01
181.723	-6.14
181.943	-14.34
182.163	63.49
182.383	0
182.602	20.48
182.822	63.49
183.042	63.49
183.262	-65.54
183.482	143.36
183.701	43.01
183.921	16.38
184.141	30.72
184.361	67.58
184.58	12.29
184.8	43.01
185.02	-79.87
185.239	24.58
185.459	40.96
185.679	57.34
185.898	8.19
186.118	36.86
186.338	16.38
186.557	73.73
186.777	-75.77
186.997	4.1
187.216	45.06
187.436	26.62
187.655	81.92
187.875	77.82
188.095	-2.05
188.314	73.73
188.534	32.77
188.753	98.3
188.973	0
189.192	49.15
189.412	65.54
189.631	-10.24
189.851	18.43
190.07	88.06
190.29	53.25
190.509	8.19
190.729	47.1
190.948	94.21
191.168	133.12
191.387	49.15
191.607	24.58
191.826	51.2
192.045	-10.24
192.265	49.15
192.484	-16.38
192.704	18.43
192.923	-26.62
193.142	61.44
193.362	12.29
193.581	24.58
193.8	-53.25
194.02	24.58
194.239	8.19
194.458	49.15
194.678	6.14
194.897	12.29
195.116	-20.48
195.335	34.82
195.555	67.58
195.774	4.1
195.993	47.1
196.212	61.44
196.432	10.24
196.651	122.88
196.87	38.91
197.089	94.21
197.308	40.96
197.528	94.21
197.747	18.43
197.966	57.34
198.185	81.92
198.404	57.34
198.623	92.16
198.842	69.63
199.062	61.44
199.281	40.96
199.5	32.77
199.719	43.01
199.938	38.91
200.157	38.91
200.376	28.67
200.595	57.34
200.814	49.15
201.033	4.1
201.252	71.68
201.471	75.77
201.69	90.11
201.909	32.77
202.128	4.1
202.347	10.24
202.566	83.97
202.785	38.91
203.004	32.77
203.223	106.49
203.442	-24.58
203.661	65.54
203.879	-20.48
204.098	108.54
204.317	10.24
204.536	36.86
204.755	-22.53
204.974	86.01
205.193	114.69
205.411	98.3
205.63	-20.48
205.849	8.19
206.068	40.96
206.287	6.14
206.505	77.82
206.724	77.82
206.943	53.25
207.162	20.48
207.381	32.77
207.599	6.14
207.818	-6.14
208.037	22.53
208.255	20.48
208.474	6.14
208.693	92.16
208.911	45.06
209.13	108.54
209.349	51.2
209.567	59.39
209.786	61.44
210.005	16.38
210.223	120.83
210.442	22.53
210.661	22.53
210.879	8.19
211.098	-38.91
211.316	22.53
211.535	88.06
211.753	14.34
211.972	118.78
212.191	32.77
212.409	-2.05
212.628	16.38
212.846	8.19
213.065	28.67
213.283	71.68
213.502	53.25
213.72	24.58
213.938	65.54
214.157	47.1
214.375	122.88
214.594	38.91
214.812	28.67
215.031	34.82
215.249	77.82
215.467	43.01
215.686	110.59
215.904	75.77
216.122	4.1
216.341	90.11
216.559	45.06
216.778	-8.19
216.996	43.01
217.214	55.3
217.432	67.58
217.651	16.38
217.869	71.68
218.087	-6.14
218.306	61.44
218.524	139.26
218.742	53.25
218.96	61.44
219.179	67.58
219.397	96.25
219.615	88.06
219.833	92.16
220.051	30.72
220.27	63.49
220.488	67.58
220.706	51.2
220.924	18.43
221.142	-12.29
221.36	-34.82
221.578	24.58
221.796	-16.38
222.015	49.15
222.233	-24.58
222.451	36.86
222.669	30.72
222.887	16.38
223.105	61.44
223.323	36.86
223.541	22.53
223.759	16.38
223.977	47.1
224.195	47.1
224.413	131.07
224.631	77.82
224.849	47.1
225.067	122.88
225.285	53.25
225.503	-4.1
225.721	6.14
225.939	40.96
226.157	-12.29
226.375	81.92
226.592	65.54
226.81	65.54
227.028	14.34
227.246	116.73
227.464	16.38
227.682	96.25
227.9	30.72
228.117	77.82
228.335	79.87
228.553	-10.24
228.771	18.43
228.989	34.82
229.206	69.63
229.424	53.25
229.642	88.06
229.86	12.29
230.077	0
230.295	36.86
230.513	0
230.731	63.49
230.948	73.73
231.166	14.34
231.384	6.14
231.601	-8.19
231.819	28.67
232.037	18.43
232.254	-24.58
232.472	63.49
232.689	45.06
232.907	131.07
233.125	24.58
233.342	49.15
233.56	18.43
233.777	-26.62
233.995	14.34
234.213	32.77
234.43	86.01
234.648	18.43
234.865	55.3
235.083	131.07
235.3	24.58
235.518	75.77
235.735	55.3
235.953	106.49
236.17	65.54
236.388	30.72
236.605	40.96
236.822	6.14
237.04	28.67
237.257	59.39
237.475	26.62
237.692	75.77
237.909	81.92
238.127	-18.43
238.344	81.92
238.562	18.43
238.779	-32.77
238.996	12.29
239.214	2.05
239.431	57.34
239.648	47.1
239.865	-4.1
240.083	61.44
240.3	-4.1
240.517	53.25
240.735	-40.96
240.952	61.44
241.169	65.54
241.386	14.34
241.603	0
241.821	-12.29
242.038	96.25
242.255	34.82
242.472	49.15
242.689	36.86
242.907	75.77
243.124	98.3
243.341	69.63
243.558	67.58
243.775	18.43
243.992	-14.34
244.209	94.21
244.426	94.21
244.643	51.2
244.86	75.77
245.078	65.54
245.295	-10.24
245.512	49.15
245.729	43.01
245.946	0
246.163	4.1
246.38	53.25
246.597	67.58
246.814	-28.67
247.031	75.77
247.248	90.11
247.464	12.29
247.681	69.63
247.898	73.73
248.115	45.06
248.332	20.48
248.549	81.92
248.766	69.63
248.983	155.65
249.2	-45.06
249.417	71.68
249.633	28.67
249.85	61.44
250.067	65.54
250.284	8.19
250.501	75.77
250.717	67.58
250.934	-8.19
251.151	147.45
251.368	49.15
251.585	151.55
251.801	45.06
252.018	18.43
252.235	38.91
252.451	59.39
252.668	4.1
252.885	43.01
253.102	98.3
253.318	45.06
253.535	73.73
253.752	22.53
253.968	30.72
254.185	67.58
254.401	53.25
254.618	45.06
254.835	28.67
255.051	61.44
255.268	57.34
255.484	79.87
255.701	43.01
255.917	133.12
256.134	-18.43
256.351	18.43
256.567	88.06
256.784	-8.19
257	-26.62
257.217	141.31
257.433	-6.14
257.65	34.82
257.866	86.01
258.082	57.34
258.299	-18.43
258.515	108.54
258.732	40.96
258.948	36.86
259.165	16.38
259.381	47.1
259.597	51.2
259.814	51.2
260.03	-6.14
260.246	96.25
260.463	112.64
260.679	90.11
260.895	73.73
261.112	-26.62
261.328	88.06
261.544	0
261.761	198.65
261.977	53.25
262.193	6.14
262.409	67.58
262.626	43.01
262.842	40.96
263.058	47.1
263.274	-6.14
263.49	32.77
263.707	59.39
263.923	4.1
264.139	43.01
264.355	53.25
264.571	143.36
264.787	26.62
265.004	51.2
265.22	22.53
265.436	45.06
265.652	8.19
265.868	110.59
266.084	-26.62
266.3	57.34
266.516	-63.49
266.732	108.54
266.948	77.82
267.164	14.34
267.38	81.92
267.596	-22.53
267.812	57.34
268.028	53.25
268.244	49.15
268.46	0
268.676	63.49
268.892	47.1
269.108	-10.24
269.324	43.01
269.54	116.73
269.756	6.14
269.972	-16.38
270.188	69.63
270.403	-14.34
270.619	-59.39
270.835	0
271.051	47.1
271.267	14.34
271.483	14.34
271.698	61.44
271.914	77.82
272.13	-4.1
272.346	12.29
272.562	116.73
272.777	83.97
272.993	6.14
273.209	63.49
273.425	10.24
273.64	51.2
273.856	61.44
274.072	30.72
274.287	59.39
274.503	49.15
274.719	14.34
274.934	53.25
275.15	38.91
275.366	45.06
275.581	40.96
275.797	36.86
276.012	24.58
276.228	81.92
276.444	43.01
276.659	122.88
276.875	63.49
277.09	0
277.306	51.2
277.521	20.48
277.737	57.34
277.952	32.77
278.168	28.67
278.383	49.15
278.599	88.06
278.814	45.06
279.03	135.17
279.245	49.15
279.461	28.67
279.676	32.77
279.892	-2.05
280.107	16.38
280.322	-6.14
280.538	0
280.753	0
280.969	6.14
281.184	38.91
281.399	53.25
281.615	-8.19
281.83	38.91
282.045	59.39
282.26	24.58
282.476	63.49
282.691	51.2
282.906	-18.43
283.122	51.2
283.337	14.34
283.552	47.1
283.767	28.67
283.983	73.73
284.198	135.17
284.413	38.91
284.628	43.01
284.843	20.48
285.058	69.63
285.274	90.11
285.489	57.34
285.704	53.25
285.919	32.77
286.134	43.01
286.349	-16.38
286.564	51.2
286.779	8.19
286.995	65.54
287.21	20.48
287.425	18.43
287.64	69.63
287.855	69.63
288.07	-57.34
288.285	61.44
288.5	40.96
288.715	26.62
288.93	8.19
289.145	40.96
289.36	90.11
289.575	18.43
289.79	59.39
290.004	79.87
290.219	73.73
290.434	14.34
290.649	-22.53
290.864	18.43
291.079	47.1
291.294	57.34
291.509	45.06
291.724	102.4
291.938	28.67
292.153	86.01
292.368	43.01
292.583	26.62
292.798	47.1
293.012	83.97
293.227	159.74
293.442	71.68
293.657	81.92
293.871	75.77
294.086	28.67
294.301	67.58
294.516	14.34
294.73	79.87
294.945	-49.15
295.16	24.58
295.374	79.87
295.589	38.91
295.804	-2.05
296.018	45.06
296.233	55.3
296.447	65.54
296.662	28.67
296.877	92.16
297.091	32.77
297.306	-40.96
297.52	-4.1
297.735	28.67
297.949	-38.91
298.164	96.25
298.378	14.34
298.593	47.1
298.807	2.05
299.022	40.96
299.236	77.82
299.451	36.86
299.665	45.06
299.88	38.91
300.094	122.88
300.309	34.82
300.523	55.3
300.737	-8.19
300.952	38.91
301.166	98.3
301.381	16.38
301.595	10.24
301.809	90.11
302.024	51.2
302.238	57.34
302.452	-10.24
302.667	61.44
302.881	53.25
303.095	75.77
303.309	112.64
303.524	96.25
303.738	43.01
303.952	18.43
304.166	20.48
304.381	10.24
304.595	92.16
304.809	51.2
305.023	124.93
305.237	51.2
305.452	49.15
305.666	28.67
305.88	-24.58
306.094	110.59
306.308	45.06
306.522	43.01
306.736	22.53
306.95	36.86
307.164	36.86
307.379	30.72
307.593	55.3
307.807	102.4
308.021	65.54
308.235	55.3
308.449	86.01
308.663	45.06
308.877	133.12
309.091	38.91
309.305	73.73
309.519	-16.38
309.733	92.16
309.947	-2.05
310.161	126.97
310.374	94.21
310.588	79.87
310.802	-10.24
311.016	10.24
311.23	40.96
311.444	57.34
311.658	59.39
311.872	120.83
312.085	102.4
312.299	157.69
312.513	10.24
312.727	55.3
312.941	36.86
313.154	86.01
313.368	49.15
313.582	8.19
313.796	57.34
314.009	-12.29
314.223	133.12
314.437	-24.58
314.651	26.62
314.864	55.3
315.078	77.82
315.292	55.3
315.505	40.96
315.719	14.34
315.933	-2.05
316.146	40.96
316.36	51.2
316.573	59.39
316.787	59.39
317.001	73.73
317.214	-40.96
317.428	83.97
317.641	20.48
317.855	57.34
318.068	-49.15
318.282	73.73
318.495	63.49
318.709	61.44
318.922	36.86
319.136	104.45
319.349	65.54
319.563	131.07
319.776	63.49
319.99	-40.96
320.203	69.63
320.417	40.96
320.63	53.25
320.843	65.54
321.057	57.34
321.27	36.86
321.483	104.45
321.697	133.12
321.91	36.86
322.124	94.21
322.337	104.45
322.55	38.91
322.763	34.82
322.977	32.77
323.19	73.73
323.403	30.72
323.617	61.44
323.83	90.11
324.043	88.06
324.256	18.43
324.469	-12.29
324.683	88.06
324.896	40.96
325.109	34.82
325.322	73.73
325.535	88.06
325.748	69.63
325.962	63.49
326.175	81.92
326.388	-28.67
326.601	83.97
326.814	73.73
327.027	100.35
327.24	118.78
327.453	26.62
327.666	30.72
327.879	61.44
328.092	90.11
328.305	45.06
328.518	73.73
328.731	16.38
328.944	73.73
329.157	-30.72
329.37	79.87
329.583	59.39
329.796	88.06
330.009	-26.62
330.222	71.68
330.435	63.49
330.648	73.73
330.861	26.62
331.073	59.39
331.286	47.1
331.499	53.25
331.712	2.05
331.925	-43.01
332.138	77.82
332.35	104.45
332.563	32.77
332.776	28.67
332.989	71.68
333.202	43.01
333.414	69.63
333.627	63.49
333.84	2.05
334.053	65.54
334.265	34.82
334.478	73.73
334.691	-8.19
334.903	-16.38
335.116	47.1
335.329	73.73
335.541	88.06
335.754	63.49
335.966	110.59
336.179	30.72
336.392	26.62
336.604	38.91
336.817	102.4
337.029	88.06
337.242	71.68
337.454	2.05
337.667	-2.05
337.88	73.73
338.092	94.21
338.305	90.11
338.517	22.53
338.729	61.44
338.942	73.73
339.154	36.86
339.367	73.73
339.579	8.19
339.792	79.87
340.004	71.68
340.217	-8.19
340.429	116.73
340.641	-4.1
340.854	61.44
341.066	88.06
341.278	61.44
341.491	75.77
341.703	47.1
341.915	77.82
342.128	40.96
342.34	14.34
342.552	49.15
342.764	14.34
342.977	104.45
343.189	10.24
343.401	57.34
343.613	20.48
343.826	45.06
344.038	-10.24
344.25	47.1
344.462	40.96
344.674	106.49
344.886	-8.19
345.099	83.97
345.311	61.44
345.523	79.87
345.735	14.34
345.947	79.87
346.159	67.58
346.371	69.63
346.583	65.54
346.795	90.11
347.007	-4.1
347.219	108.54
347.431	-6.14
347.643	-4.1
347.855	14.34
348.067	151.55
348.279	61.44
348.491	61.44
348.703	57.34
348.915	139.26
349.127	71.68
349.339	45.06
349.551	-2.05
349.763	49.15
349.975	106.49
350.187	71.68
350.399	67.58
350.61	86.01
350.822	59.39
351.034	30.72
351.246	131.07
351.458	61.44
351.669	88.06
351.881	182.27
352.093	71.68
352.305	77.82
352.517	77.82
352.728	155.65
352.94	67.58
353.152	104.45
353.363	57.34
353.575	24.58
353.787	61.44
353.999	145.41
354.21	100.35
354.422	71.68
354.633	92.16
354.845	90.11
355.057	16.38
355.268	-4.1
355.48	43.01
355.692	-18.43
355.903	57.34
356.115	6.14
356.326	-8.19
356.538	110.59
356.749	49.15
356.961	-14.34
357.172	65.54
357.384	30.72
357.595	124.93
357.807	71.68
358.018	40.96
358.23	-12.29
358.441	114.69
358.653	124.93
358.864	45.06
359.075	79.87
359.287	90.11
359.498	36.86
359.709	49.15
359.921	22.53
360.132	10.24
360.344	131.07
360.555	28.67
360.766	47.1
360.977	28.67
361.189	90.11
361.4	108.54
361.611	71.68
361.823	100.35
362.034	83.97
362.245	65.54
362.456	147.45
362.667	32.77
362.879	94.21
363.09	92.16
363.301	22.53
363.512	36.86
363.723	-18.43
363.935	24.58
364.146	75.77
364.357	45.06
364.568	81.92
364.779	0
364.99	83.97
365.201	20.48
365.412	141.31
365.623	-36.86
365.834	77.82
366.045	73.73
366.256	69.63
366.467	100.35
366.678	0
366.889	120.83
367.1	67.58
367.311	77.82
367.522	63.49
367.733	126.97
367.944	77.82
368.155	40.96
368.366	77.82
368.577	94.21
368.788	65.54
368.999	40.96
369.209	-12.29
369.42	83.97
369.631	112.64
369.842	102.4
370.053	30.72
370.264	69.63
370.474	47.1
370.685	90.11
370.896	59.39
371.107	4.1
371.317	88.06
371.528	43.01
371.739	118.78
371.95	108.54
372.16	71.68
372.371	-10.24
372.582	6.14
372.792	12.29
373.003	149.5
373.214	133.12
373.424	53.25
373.635	102.4
373.846	38.91
374.056	16.38
374.267	18.43
374.477	108.54
374.688	96.25
374.898	102.4
375.109	-4.1
375.319	40.96
375.53	59.39
375.74	77.82
375.951	38.91
376.161	43.01
376.372	79.87
376.582	26.62
376.793	122.88
377.003	55.3
377.214	69.63
377.424	2.05
377.635	47.1
377.845	-4.1
378.055	38.91
378.266	43.01
378.476	81.92
378.686	79.87
378.897	-24.58
379.107	73.73
379.317	106.49
379.528	36.86
379.738	81.92
379.948	16.38
380.158	81.92
380.369	16.38
380.579	61.44
380.789	0
380.999	81.92
381.21	90.11
381.42	147.45
381.63	-4.1
381.84	26.62
382.05	110.59
382.261	59.39
382.471	90.11
382.681	49.15
382.891	137.21
383.101	40.96
383.311	-6.14
383.521	77.82
383.731	94.21
383.941	77.82
384.151	18.43
384.361	30.72
384.571	63.49
384.781	65.54
384.991	90.11
385.201	118.78
385.411	14.34
385.621	81.92
385.831	22.53
386.041	-40.96
386.251	-47.1
386.461	67.58
386.671	43.01
386.881	83.97
387.091	94.21
387.301	118.78
387.511	75.77
387.72	67.58
387.93	53.25
388.14	-26.62
388.35	59.39
388.56	90.11
388.769	110.59
388.979	90.11
389.189	73.73
389.399	86.01
389.609	83.97
389.818	61.44
390.028	90.11
390.238	110.59
390.447	22.53
390.657	77.82
390.867	8.19
391.076	145.41
391.286	79.87
391.496	102.4
391.705	32.77
391.915	106.49
392.125	102.4
392.334	65.54
392.544	139.26
392.753	116.73
392.963	102.4
393.172	153.6
393.382	92.16
393.591	86.01
393.801	86.01
394.01	143.36
394.22	141.31
394.429	79.87
394.639	86.01
394.848	116.73
395.058	79.87
395.267	73.73
395.477	116.73
395.686	96.25
395.895	143.36
396.105	157.69
396.314	81.92
396.524	102.4
396.733	118.78
396.942	114.69
397.152	53.25
397.361	133.12
397.57	131.07
397.78	96.25
397.989	79.87
398.198	167.93
398.407	38.91
398.617	86.01
398.826	94.21
399.035	135.17
399.244	8.19
399.453	63.49
399.663	45.06
399.872	112.64
400.081	129.02
400.29	139.26
400.499	88.06
400.708	28.67
400.917	75.77
401.127	106.49
401.336	120.83
401.545	153.6
401.754	169.98
401.963	161.79
402.172	114.69
402.381	106.49
402.59	88.06
402.799	110.59
403.008	122.88
403.217	180.22
403.426	188.41
403.635	200.7
403.844	167.93
404.053	116.73
404.262	141.31
404.471	153.6
404.68	131.07
404.888	200.7
405.097	215.04
405.306	151.55
405.515	188.41
405.724	122.88
405.933	126.97
406.142	188.41
406.35	253.95
406.559	178.17
406.768	155.65
406.977	280.57
407.185	243.71
407.394	165.89
407.603	210.94
407.812	165.89
408.02	200.7
408.229	276.48
408.438	239.61
408.646	270.33
408.855	307.2
409.064	188.41
409.272	280.57
409.481	360.44
409.69	294.91
409.898	165.89
410.107	327.67
410.315	321.53
410.524	354.3
410.733	307.2
410.941	272.38
411.15	419.83
411.358	423.93
411.567	452.6
411.775	342.01
411.984	421.88
412.192	505.85
412.401	464.89
412.609	446.46
412.818	493.56
413.026	471.03
413.234	530.42
413.443	598.01
413.651	552.95
413.86	626.68
414.068	630.77
414.276	641.01
414.485	622.58
414.693	741.36
414.901	786.42
415.11	741.36
415.318	757.75
415.526	712.69
415.734	727.03
415.943	811
416.151	811
416.359	899.06
416.567	905.2
416.776	919.54
416.984	946.16
417.192	1032.18
417.4	1026.03
417.608	913.39
417.817	1007.6
418.025	1054.7
418.233	1091.57
418.441	1230.83
418.649	1275.88
418.857	1263.6
419.065	1253.36
419.273	1298.41
419.481	1353.71
419.689	1458.15
419.897	1523.69
420.105	1546.22
420.313	1607.66
420.521	1654.76
420.729	1595.37
420.937	1751.01
421.145	1810.4
421.353	1845.22
421.561	1937.38
421.769	2035.68
421.977	2007.01
422.185	2037.73
422.393	2254.81
422.601	2322.4
422.809	2346.97
423.017	2318.3
423.224	2367.45
423.432	2453.47
423.64	2480.09
423.848	2686.94
424.056	2699.22
424.263	2856.92
424.471	2869.2
424.679	2871.25
424.887	3139.54
425.094	3170.26
425.302	3215.31
425.51	3319.76
425.718	3344.33
425.925	3485.64
426.133	3631.05
426.341	3870.66
426.548	3948.48
426.756	3852.23
426.964	4063.17
427.171	4202.43
427.379	4304.83
427.586	4239.3
427.794	4433.85
428.001	4634.55
428.209	5091.25
428.417	4947.89
428.624	5193.65
428.832	5261.23
429.039	5193.65
429.247	5244.85
429.454	5801.9
429.662	6045.6
429.869	5615.53
430.076	6100.9
430.284	5871.53
430.491	6055.84
430.699	6481.82
430.906	6537.12
431.114	6733.72
431.321	6688.67
431.528	7059.35
431.736	7282.58
431.943	7526.29
432.15	7520.14
432.358	7649.16
432.565	8050.57
432.772	8075.14
432.979	8519.55
433.187	8392.58
433.394	8662.91
433.601	9289.59
433.808	9265.01
434.016	9068.41
434.223	9385.84
434.43	9953.13
434.637	9994.09
434.844	10346.34
435.052	10729.31
435.259	10588
435.466	10714.97
435.673	10663.77
435.88	11396.95
436.087	11960.14
436.294	11888.46
436.501	11638.61
436.708	11933.51
436.915	12427.07
437.122	12595.01
437.329	12676.93
437.537	13180.73
437.743	13371.19
437.95	13254.45
438.157	14040.87
438.364	14602.02
438.571	14065.45
438.778	14702.37
438.985	15976.2
439.192	15359.77
439.399	15453.97
439.606	15406.87
439.813	16324.36
440.02	17176.31
440.227	16717.57
440.433	16690.95
440.64	17123.07
440.847	17168.12
441.054	17473.27
441.261	18712.29
441.467	18433.77
441.674	18710.24
441.881	19549.91
442.088	19408.6
442.294	18990.81
442.501	19893.97
442.708	20082.38
442.914	21141.18
443.121	21829.3
443.328	21157.57
443.534	22709.93
443.741	22042.29
443.948	21724.85
444.154	23482.01
444.361	23187.1
444.568	23318.17
444.774	23783.06
444.981	23568.02
445.187	24516.23
445.394	25208.45
445.6	25200.26
445.807	27539.04
446.013	26359.41
446.22	26908.26
446.426	27889.24
446.633	28038.74
446.839	28675.66
447.046	27727.45
447.252	29054.53
447.459	29070.92
447.665	28831.3
447.871	30244.4
448.078	31524.38
448.284	29910.58
448.491	30991.91
448.697	32255.51
448.903	32892.43
449.11	32925.19
449.316	32048.66
449.522	32859.66
449.728	33795.58
449.935	33910.27
450.141	33697.28
450.347	34745.84
450.553	33598.98
450.76	33904.12
450.966	34850.28
451.172	34530.8
451.378	35300.84
451.584	34838
451.791	35505.63
451.997	35546.59
452.203	36013.53
452.409	35982.81
452.615	35771.87
452.821	34516.47
453.027	34067.96
453.233	36046.3
453.44	34729.45
453.646	34495.99
453.852	35024.36
454.058	35562.98
454.264	34074.1
454.47	35085.8
454.676	34350.58
454.882	35296.74
455.088	32382.48
455.294	32544.27
455.5	33181.19
455.705	33703.42
455.911	32077.33
456.117	31508
456.323	30789.16
456.529	29509.18
456.735	30500.4
456.941	29746.75
457.147	29267.52
457.352	28268.11
457.558	28003.92
457.764	28124.75
457.97	27633.24
458.176	27031.14
458.381	26881.64
458.587	25888.37
458.793	25460.35
458.999	24293.01
459.204	26429.04
459.41	25536.12
459.616	23637.66
459.821	23451.29
460.027	23568.02
460.233	23168.67
460.438	22087.34
460.644	22263.47
460.85	21065.41
461.055	20618.95
461.261	20815.55
461.466	19201.75
461.672	18788.07
461.878	20219.6
462.083	18683.62
462.289	18470.63
462.494	18292.46
462.7	17700.59
462.905	17067.77
463.111	17733.36
463.316	17370.87
463.522	17354.49
463.727	17102.59
463.932	17235.7
464.138	17262.33
464.343	17116.92
464.549	16574.21
464.754	17254.14
464.959	16854.78
465.165	17080.06
465.37	16258.82
465.575	15873.81
465.781	16459.52
465.986	16594.69
466.191	15787.79
466.397	15793.93
466.602	14872.35
466.807	15267.61
467.012	15437.59
467.218	15212.31
467.423	14991.13
467.628	15423.25
467.833	15963.92
468.038	15392.53
