Data from USB4F104151__208__11-10-22-077.txt Node

Date: Wed Mar 12 11:10:22 EDT 2025
User: louis
Spectrometer: USB4F10415
Trigger mode: 4
Integration Time (sec): 2.000000E-2
Scans to average: 1
Electric dark correction enabled: true
Nonlinearity correction enabled: false
Boxcar width: 0
XAxis mode: Wavelengths
Number of Pixels in Spectrum: 3648
>>>>>Begin Spectral Data<<<<<
178.204	-102.57
178.424	-102.57
178.644	-102.57
178.864	-123.05
179.084	-84.14
179.304	-28.84
179.524	-10.41
179.744	-69.8
179.964	57.17
180.184	40.79
180.404	-14.51
180.624	63.32
180.844	10.07
181.064	-80.04
181.283	-26.79
181.503	14.17
181.723	44.88
181.943	-43.18
182.163	18.26
182.383	-102.57
182.602	36.69
182.822	81.75
183.042	-86.19
183.262	53.08
183.482	-0.17
183.701	-57.51
183.921	-32.94
184.141	-39.08
184.361	30.55
184.58	-28.84
184.8	20.31
185.02	-51.37
185.239	-43.18
185.459	-10.41
185.679	1.88
185.898	-32.94
186.118	-22.7
186.338	12.12
186.557	-30.89
186.777	-4.27
186.997	18.26
187.216	-0.17
187.436	38.74
187.655	30.55
187.875	98.13
188.095	32.6
188.314	63.32
188.534	-47.27
188.753	20.31
188.973	89.94
189.192	42.84
189.412	-0.17
189.631	63.32
189.851	-12.46
190.07	16.21
190.29	-20.65
190.509	-67.75
190.729	8.02
190.948	1.88
191.168	151.38
191.387	18.26
191.607	-20.65
191.826	-43.18
192.045	-16.55
192.265	20.31
192.484	-41.13
192.704	36.69
192.923	10.07
193.142	48.98
193.362	8.02
193.581	-2.22
193.8	-43.18
194.02	26.45
194.239	-26.79
194.458	20.31
194.678	-39.08
194.897	5.97
195.116	38.74
195.335	5.97
195.555	-32.94
195.774	-24.75
195.993	18.26
196.212	-26.79
196.432	-32.94
196.651	-65.71
196.87	-57.51
197.089	36.69
197.308	32.6
197.528	81.75
197.747	-16.55
197.966	12.12
198.185	59.22
198.404	8.02
198.623	12.12
198.842	18.26
199.062	-0.17
199.281	10.07
199.5	12.12
199.719	46.93
199.938	-4.27
200.157	-20.65
200.376	-10.41
200.595	-16.55
200.814	1.88
201.033	-16.55
201.252	-4.27
201.471	44.88
201.69	-34.99
201.909	36.69
202.128	-0.17
202.347	-32.94
202.566	-63.66
202.785	8.02
203.004	-18.6
203.223	28.5
203.442	38.74
203.661	-61.61
203.879	-22.7
204.098	61.27
204.317	8.02
204.536	-14.51
204.755	-73.9
204.974	51.03
205.193	22.36
205.411	40.79
205.63	-67.75
205.849	-8.36
206.068	12.12
206.287	42.84
206.505	28.5
206.724	12.12
206.943	-59.56
207.162	69.46
207.381	3.93
207.599	-8.36
207.818	89.94
208.037	18.26
208.255	20.31
208.474	48.98
208.693	-43.18
208.911	5.97
209.13	53.08
209.349	-16.55
209.567	51.03
209.786	18.26
210.005	-18.6
210.223	-24.75
210.442	57.17
210.661	-12.46
210.879	48.98
211.098	53.08
211.316	-51.37
211.535	65.36
211.753	57.17
211.972	3.93
212.191	-49.32
212.409	1.88
212.628	-2.22
212.846	-10.41
213.065	14.17
213.283	28.5
213.502	36.69
213.72	-65.71
213.938	16.21
214.157	42.84
214.375	61.27
214.594	-6.31
214.812	44.88
215.031	-6.31
215.249	1.88
215.467	48.98
215.686	14.17
215.904	16.21
216.122	36.69
216.341	16.21
216.559	8.02
216.778	-2.22
216.996	-20.65
217.214	30.55
217.432	53.08
217.651	106.32
217.869	-16.55
218.087	-20.65
218.306	48.98
218.524	-43.18
218.742	-77.99
218.96	40.79
219.179	46.93
219.397	22.36
219.615	48.98
219.833	3.93
220.051	8.02
220.27	-2.22
220.488	-41.13
220.706	18.26
220.924	48.98
221.142	24.4
221.36	-2.22
221.578	38.74
221.796	5.97
222.015	5.97
222.233	-6.31
222.451	96.08
222.669	-84.14
222.887	71.51
223.105	-2.22
223.323	10.07
223.541	59.22
223.759	24.4
223.977	-0.17
224.195	16.21
224.413	102.23
224.631	-86.19
224.849	71.51
225.067	16.21
225.285	-80.04
225.503	30.55
225.721	-16.55
225.939	-16.55
226.157	3.93
226.375	44.88
226.592	-0.17
226.81	-2.22
227.028	28.5
227.246	87.89
227.464	12.12
227.682	83.8
227.9	77.65
228.117	-2.22
228.335	-10.41
228.553	14.17
228.771	63.32
228.989	55.12
229.206	83.8
229.424	5.97
229.642	-14.51
229.86	-73.9
230.077	77.65
230.295	28.5
230.513	-39.08
230.731	22.36
230.948	104.28
231.166	16.21
231.384	-43.18
231.601	22.36
231.819	-6.31
232.037	-59.56
232.254	30.55
232.472	-8.36
232.689	36.69
232.907	14.17
233.125	38.74
233.342	-16.55
233.56	-37.03
233.777	22.36
233.995	-22.7
234.213	61.27
234.43	51.03
234.648	-14.51
234.865	20.31
235.083	18.26
235.3	12.12
235.518	42.84
235.735	46.93
235.953	-28.84
236.17	1.88
236.388	42.84
236.605	8.02
236.822	46.93
237.04	-18.6
237.257	24.4
237.475	-82.09
237.692	32.6
237.909	28.5
238.127	1.88
238.344	-14.51
238.562	-4.27
238.779	-37.03
238.996	-30.89
239.214	-55.47
239.431	38.74
239.648	-2.22
239.865	-26.79
240.083	48.98
240.3	-14.51
240.517	-59.56
240.735	-8.36
240.952	69.46
241.169	28.5
241.386	-4.27
241.603	-10.41
241.821	32.6
242.038	69.46
242.255	3.93
242.472	1.88
242.689	28.5
242.907	24.4
243.124	5.97
243.341	-26.79
243.558	34.64
243.775	-84.14
243.992	-61.61
244.209	5.97
244.426	87.89
244.643	28.5
244.86	-57.51
245.078	-4.27
245.295	12.12
245.512	-20.65
245.729	-0.17
245.946	-6.31
246.163	32.6
246.38	51.03
246.597	-12.46
246.814	59.22
247.031	-34.99
247.248	14.17
247.464	61.27
247.681	51.03
247.898	-10.41
248.115	116.56
248.332	-20.65
248.549	-10.41
248.766	-14.51
248.983	-2.22
249.2	-14.51
249.417	65.36
249.633	1.88
249.85	20.31
250.067	-6.31
250.284	-20.65
250.501	18.26
250.717	75.6
250.934	-41.13
251.151	38.74
251.368	12.12
251.585	-28.84
251.801	81.75
252.018	40.79
252.235	-55.47
252.451	55.12
252.668	1.88
252.885	51.03
253.102	22.36
253.318	3.93
253.535	46.93
253.752	-45.23
253.968	40.79
254.185	-30.89
254.401	18.26
254.618	-30.89
254.835	-86.19
255.051	12.12
255.268	32.6
255.484	-14.51
255.701	89.94
255.917	83.8
256.134	-14.51
256.351	18.26
256.567	-2.22
256.784	28.5
257	-8.36
257.217	20.31
257.433	-49.32
257.65	12.12
257.866	63.32
258.082	48.98
258.299	-6.31
258.515	18.26
258.732	36.69
258.948	16.21
259.165	-26.79
259.381	55.12
259.597	-51.37
259.814	-6.31
260.03	-18.6
260.246	110.42
260.463	-8.36
260.679	1.88
260.895	-0.17
261.112	26.45
261.328	-28.84
261.544	38.74
261.761	44.88
261.977	8.02
262.193	-45.23
262.409	59.22
262.626	12.12
262.842	18.26
263.058	-0.17
263.274	-2.22
263.49	46.93
263.707	12.12
263.923	10.07
264.139	10.07
264.355	36.69
264.571	53.08
264.787	98.13
265.004	20.31
265.22	16.21
265.436	12.12
265.652	-12.46
265.868	-6.31
266.084	61.27
266.3	-43.18
266.516	-49.32
266.732	42.84
266.948	44.88
267.164	32.6
267.38	20.31
267.596	57.17
267.812	108.37
268.028	-10.41
268.244	-41.13
268.46	-12.46
268.676	22.36
268.892	12.12
269.108	-32.94
269.324	75.6
269.54	5.97
269.756	1.88
269.972	-37.03
270.188	8.02
270.403	40.79
270.619	-14.51
270.835	96.08
271.051	20.31
271.267	10.07
271.483	48.98
271.698	42.84
271.914	59.22
272.13	-0.17
272.346	10.07
272.562	55.12
272.777	-24.75
272.993	57.17
273.209	18.26
273.425	42.84
273.64	-37.03
273.856	20.31
274.072	75.6
274.287	3.93
274.503	118.61
274.719	1.88
274.934	55.12
275.15	-22.7
275.366	59.22
275.581	-34.99
275.797	38.74
276.012	-0.17
276.228	-51.37
276.444	5.97
276.659	8.02
276.875	-14.51
277.09	12.12
277.306	-37.03
277.521	36.69
277.737	24.4
277.952	-90.28
278.168	59.22
278.383	-6.31
278.599	59.22
278.814	34.64
279.03	-49.32
279.245	42.84
279.461	5.97
279.676	-10.41
279.892	-20.65
280.107	81.75
280.322	-10.41
280.538	32.6
280.753	22.36
280.969	24.4
281.184	20.31
281.399	81.75
281.615	-43.18
281.83	1.88
282.045	-14.51
282.26	40.79
282.476	8.02
282.691	-0.17
282.906	-8.36
283.122	-34.99
283.337	-12.46
283.552	34.64
283.767	18.26
283.983	-14.51
284.198	22.36
284.413	5.97
284.628	-49.32
284.843	-2.22
285.058	-34.99
285.274	-16.55
285.489	-18.6
285.704	-12.46
285.919	48.98
286.134	59.22
286.349	-32.94
286.564	-43.18
286.779	83.8
286.995	18.26
287.21	-20.65
287.425	32.6
287.64	67.41
287.855	-51.37
288.07	-75.95
288.285	-18.6
288.5	69.46
288.715	38.74
288.93	-20.65
289.145	63.32
289.36	28.5
289.575	16.21
289.79	28.5
290.004	32.6
290.219	51.03
290.434	94.04
290.649	5.97
290.864	-2.22
291.079	51.03
291.294	1.88
291.509	32.6
291.724	12.12
291.938	-73.9
292.153	96.08
292.368	85.84
292.583	36.69
292.798	42.84
293.012	22.36
293.227	77.65
293.442	-20.65
293.657	-14.51
293.871	-73.9
294.086	69.46
294.301	81.75
294.516	-8.36
294.73	-49.32
294.945	1.88
295.16	81.75
295.374	1.88
295.589	38.74
295.804	-4.27
296.018	46.93
296.233	18.26
296.447	36.69
296.662	-0.17
296.877	55.12
297.091	1.88
297.306	-14.51
297.52	-61.61
297.735	67.41
297.949	38.74
298.164	51.03
298.378	-22.7
298.593	36.69
298.807	32.6
299.022	-4.27
299.236	3.93
299.451	1.88
299.665	12.12
299.88	-20.65
300.094	46.93
300.309	36.69
300.523	100.18
300.737	46.93
300.952	-53.42
301.166	30.55
301.381	-16.55
301.595	-73.9
301.809	24.4
302.024	-12.46
302.238	-84.14
302.452	28.5
302.667	98.13
302.881	36.69
303.095	22.36
303.309	42.84
303.524	106.32
303.738	16.21
303.952	40.79
304.166	32.6
304.381	-6.31
304.595	26.45
304.809	61.27
305.023	-26.79
305.237	81.75
305.452	-12.46
305.666	63.32
305.88	71.51
306.094	44.88
306.308	-39.08
306.522	-26.79
306.736	-20.65
306.95	16.21
307.164	-24.75
307.379	87.89
307.593	40.79
307.807	8.02
308.021	28.5
308.235	38.74
308.449	-73.9
308.663	-8.36
308.877	-10.41
309.091	-10.41
309.305	10.07
309.519	-10.41
309.733	-26.79
309.947	-14.51
310.161	8.02
310.374	-0.17
310.588	3.93
310.802	40.79
311.016	57.17
311.23	1.88
311.444	73.56
311.658	-77.99
311.872	12.12
312.085	106.32
312.299	3.93
312.513	14.17
312.727	46.93
312.941	-82.09
313.154	48.98
313.368	-34.99
313.582	-16.55
313.796	10.07
314.009	-24.75
314.223	-32.94
314.437	46.93
314.651	8.02
314.864	24.4
315.078	44.88
315.292	-6.31
315.505	-2.22
315.719	-16.55
315.933	-47.27
316.146	12.12
316.36	24.4
316.573	38.74
316.787	71.51
317.001	53.08
317.214	-43.18
317.428	42.84
317.641	-22.7
317.855	8.02
318.068	14.17
318.282	1.88
318.495	96.08
318.709	38.74
318.922	-37.03
319.136	61.27
319.349	81.75
319.563	-37.03
319.776	3.93
319.99	61.27
320.203	32.6
320.417	3.93
320.63	26.45
320.843	28.5
321.057	-2.22
321.27	48.98
321.483	-14.51
321.697	51.03
321.91	22.36
322.124	10.07
322.337	57.17
322.55	46.93
322.763	8.02
322.977	-2.22
323.19	-24.75
323.403	-51.37
323.617	-24.75
323.83	94.04
324.043	-8.36
324.256	8.02
324.469	48.98
324.683	-37.03
324.896	-34.99
325.109	30.55
325.322	-43.18
325.535	81.75
325.748	46.93
325.962	34.64
326.175	87.89
326.388	16.21
326.601	116.56
326.814	-18.6
327.027	-8.36
327.24	38.74
327.453	-0.17
327.666	22.36
327.879	30.55
328.092	-12.46
328.305	-8.36
328.518	40.79
328.731	36.69
328.944	-55.47
329.157	44.88
329.37	42.84
329.583	104.28
329.796	73.56
330.009	28.5
330.222	69.46
330.435	-37.03
330.648	63.32
330.861	22.36
331.073	73.56
331.286	22.36
331.499	3.93
331.712	-49.32
331.925	55.12
332.138	53.08
332.35	1.88
332.563	-24.75
332.776	85.84
332.989	-16.55
333.202	36.69
333.414	8.02
333.627	53.08
333.84	-39.08
334.053	79.7
334.265	30.55
334.478	18.26
334.691	24.4
334.903	-0.17
335.116	-18.6
335.329	18.26
335.541	65.36
335.754	98.13
335.966	-8.36
336.179	32.6
336.392	-0.17
336.604	40.79
336.817	36.69
337.029	10.07
337.242	-0.17
337.454	48.98
337.667	-0.17
337.88	102.23
338.092	40.79
338.305	-18.6
338.517	-8.36
338.729	10.07
338.942	24.4
339.154	24.4
339.367	38.74
339.579	44.88
339.792	28.5
340.004	24.4
340.217	-24.75
340.429	-18.6
340.641	48.98
340.854	40.79
341.066	-24.75
341.278	28.5
341.491	42.84
341.703	126.8
341.915	69.46
342.128	30.55
342.34	34.64
342.552	-16.55
342.764	42.84
342.977	-39.08
343.189	40.79
343.401	34.64
343.613	-2.22
343.826	34.64
344.038	61.27
344.25	14.17
344.462	-34.99
344.674	102.23
344.886	-51.37
345.099	81.75
345.311	24.4
345.523	5.97
345.735	18.26
345.947	116.56
346.159	24.4
346.371	1.88
346.583	-49.32
346.795	55.12
347.007	18.26
347.219	28.5
347.431	5.97
347.643	-67.75
347.855	-22.7
348.067	26.45
348.279	-10.41
348.491	10.07
348.703	10.07
348.915	-10.41
349.127	-16.55
349.339	-8.36
349.551	40.79
349.763	69.46
349.975	22.36
350.187	30.55
350.399	77.65
350.61	38.74
350.822	61.27
351.034	12.12
351.246	38.74
351.458	53.08
351.669	14.17
351.881	69.46
352.093	8.02
352.305	28.5
352.517	5.97
352.728	55.12
352.94	69.46
353.152	51.03
353.363	-55.47
353.575	77.65
353.787	44.88
353.999	32.6
354.21	14.17
354.422	71.51
354.633	-39.08
354.845	-10.41
355.057	55.12
355.268	61.27
355.48	53.08
355.692	40.79
355.903	-0.17
356.115	96.08
356.326	61.27
356.538	-2.22
356.749	-20.65
356.961	5.97
357.172	-30.89
357.384	55.12
357.595	120.66
357.807	-22.7
358.018	-0.17
358.23	61.27
358.441	83.8
358.653	51.03
358.864	-4.27
359.075	42.84
359.287	57.17
359.498	71.51
359.709	16.21
359.921	-28.84
360.132	18.26
360.344	85.84
360.555	53.08
360.766	-4.27
360.977	34.64
361.189	10.07
361.4	8.02
361.611	18.26
361.823	89.94
362.034	3.93
362.245	32.6
362.456	20.31
362.667	-37.03
362.879	-12.46
363.09	44.88
363.301	40.79
363.512	10.07
363.723	10.07
363.935	-80.04
364.146	53.08
364.357	48.98
364.568	12.12
364.779	36.69
364.99	-0.17
365.201	-8.36
365.412	77.65
365.623	61.27
365.834	81.75
366.045	42.84
366.256	110.42
366.467	59.22
366.678	81.75
366.889	36.69
367.1	69.46
367.311	55.12
367.522	100.18
367.733	10.07
367.944	1.88
368.155	-2.22
368.366	77.65
368.577	53.08
368.788	38.74
368.999	46.93
369.209	40.79
369.42	59.22
369.631	85.84
369.842	55.12
370.053	28.5
370.264	14.17
370.474	24.4
370.685	55.12
370.896	42.84
371.107	28.5
371.317	-2.22
371.528	46.93
371.739	120.66
371.95	46.93
372.16	65.36
372.371	32.6
372.582	-59.56
372.792	26.45
373.003	57.17
373.214	51.03
373.424	20.31
373.635	28.5
373.846	8.02
374.056	-86.19
374.267	51.03
374.477	83.8
374.688	-14.51
374.898	-30.89
375.109	100.18
375.319	40.79
375.53	30.55
375.74	28.5
375.951	14.17
376.161	42.84
376.372	55.12
376.582	-18.6
376.793	81.75
377.003	-39.08
377.214	32.6
377.424	120.66
377.635	-51.37
377.845	75.6
378.055	18.26
378.266	8.02
378.476	65.36
378.686	83.8
378.897	-14.51
379.107	14.17
379.317	34.64
379.528	12.12
379.738	40.79
379.948	3.93
380.158	48.98
380.369	30.55
380.579	38.74
380.789	36.69
380.999	112.47
381.21	-43.18
381.42	94.04
381.63	81.75
381.84	28.5
382.05	40.79
382.261	5.97
382.471	10.07
382.681	36.69
382.891	106.32
383.101	-32.94
383.311	40.79
383.521	-26.79
383.731	42.84
383.941	71.51
384.151	34.64
384.361	34.64
384.571	71.51
384.781	24.4
384.991	81.75
385.201	94.04
385.411	10.07
385.621	110.42
385.831	38.74
386.041	75.6
386.251	91.99
386.461	48.98
386.671	8.02
386.881	40.79
387.091	-22.7
387.301	61.27
387.511	42.84
387.72	-43.18
387.93	67.41
388.14	94.04
388.35	30.55
388.56	-41.13
388.769	42.84
388.979	46.93
389.189	24.4
389.399	28.5
389.609	12.12
389.818	75.6
390.028	81.75
390.238	59.22
390.447	36.69
390.657	61.27
390.867	87.89
391.076	71.51
391.286	73.56
391.496	57.17
391.705	81.75
391.915	102.23
392.125	71.51
392.334	8.02
392.544	71.51
392.753	110.42
392.963	-8.36
393.172	16.21
393.382	5.97
393.591	106.32
393.801	12.12
394.01	102.23
394.22	63.32
394.429	73.56
394.639	44.88
394.848	20.31
395.058	48.98
395.267	110.42
395.477	89.94
395.686	44.88
395.895	94.04
396.105	96.08
396.314	112.47
396.524	-20.65
396.733	12.12
396.942	114.52
397.152	73.56
397.361	118.61
397.57	65.36
397.78	44.88
397.989	130.9
398.198	130.9
398.407	38.74
398.617	110.42
398.826	122.71
399.035	83.8
399.244	108.37
399.453	118.61
399.663	128.85
399.872	139.09
400.081	57.17
400.29	110.42
400.499	40.79
400.708	108.37
400.917	96.08
401.127	139.09
401.336	71.51
401.545	149.33
401.754	83.8
401.963	89.94
402.172	81.75
402.381	128.85
402.59	79.7
402.799	89.94
403.008	89.94
403.217	104.28
403.426	122.71
403.635	114.52
403.844	69.46
404.053	85.84
404.262	122.71
404.471	171.86
404.68	139.09
404.888	118.61
405.097	114.52
405.306	85.84
405.515	59.22
405.724	135
405.933	175.95
406.142	130.9
406.35	141.14
406.559	96.08
406.768	175.95
406.977	237.39
407.185	190.29
407.394	200.53
407.603	175.95
407.812	194.39
408.02	186.19
408.229	210.77
408.438	206.67
408.646	282.45
408.855	155.47
409.064	190.29
409.272	143.19
409.481	257.87
409.69	264.02
409.898	253.78
410.107	268.11
410.315	327.5
410.524	249.68
410.733	343.89
410.941	300.88
411.15	282.45
411.358	366.42
411.567	343.89
411.775	390.99
411.984	395.09
412.192	350.03
412.401	436.05
412.609	456.53
412.818	546.64
413.026	434
413.234	450.38
413.443	532.3
413.651	440.14
413.86	579.4
414.068	587.6
414.276	612.17
414.485	511.82
414.693	657.23
414.901	675.66
415.11	618.32
415.318	698.19
415.526	665.42
415.734	749.39
415.943	841.54
416.151	900.94
416.359	792.39
416.567	792.39
416.776	794.44
416.984	1064.77
417.192	978.76
417.4	948.04
417.608	941.89
417.817	989
418.025	1109.83
418.233	1152.84
418.441	1044.29
418.649	1128.26
418.857	1236.8
419.065	1197.89
419.273	1308.48
419.481	1369.92
419.689	1308.48
419.897	1468.22
420.105	1427.26
420.313	1445.7
420.521	1529.66
420.729	1562.43
420.937	1603.39
421.145	1652.54
421.353	1742.65
421.561	1802.04
421.769	1853.24
421.977	2045.75
422.185	1978.17
422.393	2135.86
422.601	2137.91
422.809	2215.73
423.017	2238.26
423.224	2201.4
423.432	2381.62
423.64	2395.95
423.848	2709.29
424.056	2565.93
424.263	2793.26
424.471	2735.92
424.679	2731.82
424.887	2977.58
425.094	3086.12
425.302	3084.07
425.51	3082.02
425.718	3223.33
425.925	3317.54
426.133	3372.83
426.341	3538.72
426.548	3745.56
426.756	3684.13
426.964	3850.01
427.171	4034.33
427.379	4112.15
427.586	4149.01
427.794	4359.95
428.001	4521.74
428.209	4888.33
428.417	4669.2
428.624	4914.95
428.832	5031.69
429.039	5021.45
429.247	4974.35
429.454	5437.19
429.662	5730.05
429.869	5469.95
430.076	5746.43
430.284	5658.37
430.491	5934.84
430.699	6385.4
430.906	6213.37
431.114	6276.85
431.321	6637.3
431.528	6625.01
431.736	7120.62
431.943	7540.45
432.15	7104.23
432.358	7352.04
432.565	7859.93
432.772	7771.87
432.979	7894.75
433.187	8261.34
433.394	8230.62
433.601	8697.55
433.808	8906.45
434.016	8802
434.223	9238.22
434.43	9739.97
434.637	9526.98
434.844	10157.75
435.052	10237.63
435.259	10206.91
435.466	10413.75
435.673	10235.58
435.88	10874.54
436.087	11409.06
436.294	11466.41
436.501	11402.92
436.708	11366.06
436.915	11890.34
437.122	12308.12
437.329	12398.23
437.537	12594.84
437.743	12979.86
437.95	12777.11
438.157	13153.93
438.364	13880.96
438.571	13880.96
438.778	14026.37
438.985	15359.59
439.192	14632.57
439.399	15308.4
439.606	14919.28
439.813	15634.02
440.02	16637.53
440.227	16238.17
440.433	15976.03
440.64	16625.24
440.847	16598.62
441.054	17262.16
441.261	17925.7
441.467	17712.71
441.674	18218.56
441.881	18826.81
442.088	18832.95
442.294	18521.66
442.501	18957.88
442.708	19439.15
442.914	20514.33
443.121	21331.47
443.328	20692.51
443.534	21982.73
443.741	21655.05
443.948	20975.13
444.154	22742.52
444.361	22570.49
444.568	22873.59
444.774	22849.02
444.981	22971.89
445.187	23662.06
445.394	24724.96
445.6	24237.54
445.807	26836.41
446.013	25445.84
446.22	25902.54
446.426	26875.32
446.633	27334.07
446.839	28173.74
447.046	27225.53
447.252	28843.42
447.459	28384.68
447.665	28343.72
447.871	29525.39
448.078	30516.61
448.284	29068.7
448.491	29910.41
448.697	31190.39
448.903	31905.13
449.11	32337.26
449.316	31442.29
449.522	31966.57
449.728	32777.57
449.935	33109.34
450.141	33029.47
450.347	33359.19
450.553	32869.73
450.76	33162.59
450.966	34241.87
451.172	33676.63
451.378	34354.51
451.584	33813.84
451.791	34878.79
451.997	34483.53
452.203	34813.25
452.409	35155.26
452.615	34891.07
452.821	33465.69
453.027	33459.54
453.233	34989.38
453.44	33510.74
453.646	34196.81
453.852	33860.94
454.058	34760
454.264	33553.75
454.47	34461
454.676	33363.29
454.882	34520.39
455.088	31305.08
455.294	31980.91
455.5	32497
455.705	32644.45
455.911	31313.27
456.117	30981.5
456.323	30152.07
456.529	28730.78
456.735	30107.02
456.941	29369.75
457.147	29085.08
457.352	27760.05
457.558	27719.09
457.764	27465.14
457.97	27190.71
458.176	26332.61
458.381	26500.54
458.587	24839.64
458.793	25210.32
458.999	23901.67
459.204	25445.84
459.41	24849.88
459.616	23285.23
459.821	23283.19
460.027	23242.23
460.233	22386.18
460.438	21534.22
460.644	22144.52
460.85	20622.87
461.055	20710.94
461.261	20502.04
461.466	19381.81
461.672	18523.71
461.878	19600.94
462.083	18433.6
462.289	17919.56
462.494	18058.82
462.7	17034.83
462.905	16586.33
463.111	17231.44
463.316	17450.57
463.522	16723.54
463.727	16997.97
463.932	17081.94
464.138	16610.9
464.343	16883.28
464.549	16246.37
464.754	16975.44
464.959	16789.08
465.165	16404.06
465.37	15881.83
465.575	15453.8
465.781	16191.07
465.986	16148.06
466.191	15574.63
466.397	15138.41
466.602	14442.1
466.807	15103.6
467.012	14995.06
