Data from USB4F104151__6__11-04-34-376.txt Node

Date: Wed Mar 12 11:04:34 EDT 2025
User: louis
Spectrometer: USB4F10415
Trigger mode: 4
Integration Time (sec): 2.000000E-2
Scans to average: 1
Electric dark correction enabled: true
Nonlinearity correction enabled: false
Boxcar width: 0
XAxis mode: Wavelengths
Number of Pixels in Spectrum: 3648
>>>>>Begin Spectral Data<<<<<
178.204	-40.45
178.424	-40.45
178.644	-40.45
178.864	-122.37
179.084	-46.59
179.304	0.51
179.524	-9.73
179.744	-13.82
179.964	53.76
180.184	-65.02
180.404	55.81
180.624	20.99
180.844	-3.58
181.064	-77.31
181.283	39.42
181.503	14.85
181.723	-15.87
181.943	49.66
182.163	53.76
182.383	-17.92
182.602	-28.16
182.822	12.8
183.042	-1.54
183.262	37.38
183.482	64
183.701	61.95
183.921	39.42
184.141	57.86
184.361	109.05
184.58	39.42
184.8	20.99
185.02	-28.16
185.239	51.71
185.459	33.28
185.679	127.49
185.898	78.33
186.118	104.96
186.338	20.99
186.557	14.85
186.777	53.76
186.997	-3.58
187.216	-24.06
187.436	16.9
187.655	68.09
187.875	6.66
188.095	57.86
188.314	113.15
188.534	66.05
188.753	27.14
188.973	55.81
189.192	100.86
189.412	27.14
189.631	20.99
189.851	29.18
190.07	119.29
190.29	-13.82
190.509	43.52
190.729	82.43
190.948	113.15
191.168	160.25
191.387	39.42
191.607	49.66
191.826	37.38
192.045	16.9
192.265	20.99
192.484	74.24
192.704	35.33
192.923	-38.4
193.142	82.43
193.362	-38.4
193.581	37.38
193.8	51.71
194.02	43.52
194.239	-7.68
194.458	-15.87
194.678	45.57
194.897	41.47
195.116	72.19
195.335	41.47
195.555	94.72
195.774	37.38
195.993	76.29
196.212	43.52
196.432	-5.63
196.651	53.76
196.87	33.28
197.089	33.28
197.308	111.1
197.528	123.39
197.747	-7.68
197.966	25.09
198.185	86.53
198.404	-1.54
198.623	64
198.842	45.57
199.062	25.09
199.281	137.73
199.5	33.28
199.719	64
199.938	84.48
200.157	92.67
200.376	49.66
200.595	51.71
200.814	31.23
201.033	-26.11
201.252	41.47
201.471	10.75
201.69	59.9
201.909	29.18
202.128	37.38
202.347	25.09
202.566	39.42
202.785	-36.35
203.004	-26.11
203.223	150.01
203.442	74.24
203.661	127.49
203.879	66.05
204.098	82.43
204.317	59.9
204.536	45.57
204.755	6.66
204.974	131.58
205.193	41.47
205.411	98.81
205.63	37.38
205.849	49.66
206.068	94.72
206.287	78.33
206.505	33.28
206.724	84.48
206.943	16.9
207.162	39.42
207.381	74.24
207.599	82.43
207.818	37.38
208.037	55.81
208.255	49.66
208.474	74.24
208.693	-26.11
208.911	74.24
209.13	59.9
209.349	18.94
209.567	35.33
209.786	66.05
210.005	74.24
210.223	88.57
210.442	-28.16
210.661	31.23
210.879	23.04
211.098	43.52
211.316	8.7
211.535	74.24
211.753	20.99
211.972	53.76
212.191	0.51
212.409	119.29
212.628	90.62
212.846	72.19
213.065	64
213.283	31.23
213.502	70.14
213.72	25.09
213.938	39.42
214.157	25.09
214.375	-7.68
214.594	-7.68
214.812	43.52
215.031	61.95
215.249	47.62
215.467	70.14
215.686	133.63
215.904	70.14
216.122	31.23
216.341	96.77
216.559	66.05
216.778	4.61
216.996	98.81
217.214	12.8
217.432	45.57
217.651	14.85
217.869	31.23
218.087	-19.97
218.306	18.94
218.524	49.66
218.742	96.77
218.96	-65.02
219.179	16.9
219.397	-9.73
219.615	90.62
219.833	-54.78
220.051	35.33
220.27	33.28
220.488	-24.06
220.706	20.99
220.924	127.49
221.142	51.71
221.36	82.43
221.578	41.47
221.796	8.7
222.015	111.1
222.233	51.71
222.451	131.58
222.669	35.33
222.887	27.14
223.105	29.18
223.323	27.14
223.541	84.48
223.759	-1.54
223.977	6.66
224.195	61.95
224.413	43.52
224.631	53.76
224.849	90.62
225.067	156.16
225.285	31.23
225.503	16.9
225.721	84.48
225.939	33.28
226.157	39.42
226.375	55.81
226.592	8.7
226.81	27.14
227.028	111.1
227.246	96.77
227.464	-26.11
227.682	49.66
227.9	29.18
228.117	49.66
228.335	6.66
228.553	16.9
228.771	131.58
228.989	2.56
229.206	14.85
229.424	59.9
229.642	96.77
229.86	8.7
230.077	25.09
230.295	41.47
230.513	39.42
230.731	49.66
230.948	31.23
231.166	135.68
231.384	0.51
231.601	-19.97
231.819	129.53
232.037	27.14
232.254	37.38
232.472	70.14
232.689	8.7
232.907	82.43
233.125	23.04
233.342	4.61
233.56	86.53
233.777	-5.63
233.995	47.62
234.213	61.95
234.43	57.86
234.648	57.86
234.865	31.23
235.083	47.62
235.3	2.56
235.518	104.96
235.735	49.66
235.953	43.52
236.17	94.72
236.388	104.96
236.605	70.14
236.822	41.47
237.04	-13.82
237.257	-30.21
237.475	18.94
237.692	45.57
237.909	35.33
238.127	107.01
238.344	131.58
238.562	4.61
238.779	29.18
238.996	47.62
239.214	43.52
239.431	16.9
239.648	39.42
239.865	12.8
240.083	72.19
240.3	-7.68
240.517	41.47
240.735	45.57
240.952	55.81
241.169	20.99
241.386	0.51
241.603	102.91
241.821	-28.16
242.038	107.01
242.255	57.86
242.472	66.05
242.689	107.01
242.907	25.09
243.124	29.18
243.341	-15.87
243.558	10.75
243.775	-30.21
243.992	-58.88
244.209	92.67
244.426	111.1
244.643	12.8
244.86	10.75
245.078	55.81
245.295	74.24
245.512	37.38
245.729	23.04
245.946	115.2
246.163	-7.68
246.38	59.9
246.597	14.85
246.814	41.47
247.031	82.43
247.248	12.8
247.464	55.81
247.681	39.42
247.898	123.39
248.115	47.62
248.332	68.09
248.549	82.43
248.766	25.09
248.983	96.77
249.2	-11.78
249.417	14.85
249.633	18.94
249.85	131.58
250.067	31.23
250.284	78.33
250.501	96.77
250.717	57.86
250.934	-9.73
251.151	109.05
251.368	-50.69
251.585	45.57
251.801	-11.78
252.018	84.48
252.235	109.05
252.451	57.86
252.668	29.18
252.885	53.76
253.102	82.43
253.318	90.62
253.535	119.29
253.752	57.86
253.968	102.91
254.185	33.28
254.401	31.23
254.618	84.48
254.835	78.33
255.051	-17.92
255.268	-7.68
255.484	82.43
255.701	92.67
255.917	43.52
256.134	72.19
256.351	20.99
256.567	20.99
256.784	121.34
257	33.28
257.217	4.61
257.433	-15.87
257.65	16.9
257.866	61.95
258.082	27.14
258.299	14.85
258.515	47.62
258.732	53.76
258.948	61.95
259.165	100.86
259.381	109.05
259.597	57.86
259.814	-32.26
260.03	113.15
260.246	27.14
260.463	-7.68
260.679	84.48
260.895	18.94
261.112	31.23
261.328	100.86
261.544	70.14
261.761	53.76
261.977	125.44
262.193	-15.87
262.409	45.57
262.626	12.8
262.842	102.91
263.058	-17.92
263.274	45.57
263.49	94.72
263.707	59.9
263.923	-42.5
264.139	61.95
264.355	25.09
264.571	102.91
264.787	43.52
265.004	64
265.22	-7.68
265.436	70.14
265.652	57.86
265.868	115.2
266.084	-28.16
266.3	55.81
266.516	-73.21
266.732	82.43
266.948	29.18
267.164	51.71
267.38	-5.63
267.596	14.85
267.812	41.47
268.028	23.04
268.244	33.28
268.46	82.43
268.676	-48.64
268.892	16.9
269.108	64
269.324	10.75
269.54	25.09
269.756	49.66
269.972	57.86
270.188	104.96
270.403	70.14
270.619	111.1
270.835	119.29
271.051	80.38
271.267	23.04
271.483	39.42
271.698	90.62
271.914	-3.58
272.13	25.09
272.346	80.38
272.562	66.05
272.777	61.95
272.993	86.53
273.209	31.23
273.425	25.09
273.64	90.62
273.856	37.38
274.072	49.66
274.287	82.43
274.503	61.95
274.719	14.85
274.934	59.9
275.15	33.28
275.366	113.15
275.581	51.71
275.797	57.86
276.012	10.75
276.228	74.24
276.444	35.33
276.659	129.53
276.875	0.51
277.09	16.9
277.306	53.76
277.521	23.04
277.737	57.86
277.952	43.52
278.168	49.66
278.383	96.77
278.599	57.86
278.814	51.71
279.03	-11.78
279.245	168.45
279.461	59.9
279.676	-7.68
279.892	4.61
280.107	27.14
280.322	-13.82
280.538	37.38
280.753	8.7
280.969	98.81
281.184	41.47
281.399	16.9
281.615	57.86
281.83	70.14
282.045	64
282.26	23.04
282.476	121.34
282.691	68.09
282.906	84.48
283.122	66.05
283.337	49.66
283.552	90.62
283.767	0.51
283.983	74.24
284.198	43.52
284.413	10.75
284.628	29.18
284.843	39.42
285.058	123.39
285.274	72.19
285.489	14.85
285.704	37.38
285.919	90.62
286.134	39.42
286.349	68.09
286.564	84.48
286.779	70.14
286.995	57.86
287.21	45.57
287.425	55.81
287.64	39.42
287.855	45.57
288.07	49.66
288.285	72.19
288.5	49.66
288.715	111.1
288.93	119.29
289.145	10.75
289.36	88.57
289.575	104.96
289.79	0.51
290.004	37.38
290.219	35.33
290.434	133.63
290.649	123.39
290.864	80.38
291.079	29.18
291.294	51.71
291.509	47.62
291.724	109.05
291.938	66.05
292.153	33.28
292.368	68.09
292.583	6.66
292.798	57.86
293.012	45.57
293.227	72.19
293.442	-19.97
293.657	113.15
293.871	111.1
294.086	84.48
294.301	84.48
294.516	31.23
294.73	109.05
294.945	66.05
295.16	68.09
295.374	31.23
295.589	88.57
295.804	117.25
296.018	145.92
296.233	29.18
296.447	45.57
296.662	41.47
296.877	115.2
297.091	82.43
297.306	104.96
297.52	72.19
297.735	-7.68
297.949	100.86
298.164	76.29
298.378	31.23
298.593	111.1
298.807	4.61
299.022	64
299.236	82.43
299.451	-1.54
299.665	41.47
299.88	86.53
300.094	33.28
300.309	45.57
300.523	76.29
300.737	51.71
300.952	4.61
301.166	123.39
301.381	45.57
301.595	-15.87
301.809	2.56
302.024	57.86
302.238	-26.11
302.452	59.9
302.667	74.24
302.881	57.86
303.095	45.57
303.309	41.47
303.524	94.72
303.738	-22.02
303.952	43.52
304.166	20.99
304.381	64
304.595	0.51
304.809	31.23
305.023	78.33
305.237	49.66
305.452	82.43
305.666	41.47
305.88	68.09
306.094	57.86
306.308	74.24
306.522	96.77
306.736	37.38
306.95	45.57
307.164	29.18
307.379	41.47
307.593	98.81
307.807	43.52
308.021	74.24
308.235	104.96
308.449	90.62
308.663	35.33
308.877	66.05
309.091	78.33
309.305	92.67
309.519	66.05
309.733	100.86
309.947	18.94
310.161	47.62
310.374	37.38
310.588	131.58
310.802	51.71
311.016	55.81
311.23	33.28
311.444	-54.78
311.658	8.7
311.872	10.75
312.085	100.86
312.299	94.72
312.513	86.53
312.727	96.77
312.941	25.09
313.154	90.62
313.368	59.9
313.582	107.01
313.796	33.28
314.009	16.9
314.223	78.33
314.437	78.33
314.651	94.72
314.864	84.48
315.078	41.47
315.292	29.18
315.505	53.76
315.719	-7.68
315.933	61.95
316.146	43.52
316.36	61.95
316.573	45.57
316.787	45.57
317.001	68.09
317.214	86.53
317.428	94.72
317.641	72.19
317.855	51.71
318.068	64
318.282	-28.16
318.495	119.29
318.709	27.14
318.922	37.38
319.136	109.05
319.349	84.48
319.563	18.94
319.776	43.52
319.99	49.66
320.203	94.72
320.417	31.23
320.63	20.99
320.843	57.86
321.057	-15.87
321.27	78.33
321.483	-11.78
321.697	115.2
321.91	80.38
322.124	-5.63
322.337	76.29
322.55	-15.87
322.763	-24.06
322.977	29.18
323.19	82.43
323.403	96.77
323.617	90.62
323.83	33.28
324.043	37.38
324.256	29.18
324.469	18.94
324.683	127.49
324.896	90.62
325.109	29.18
325.322	-11.78
325.535	64
325.748	117.25
325.962	125.44
326.175	66.05
326.388	66.05
326.601	72.19
326.814	96.77
327.027	-17.92
327.24	123.39
327.453	14.85
327.666	25.09
327.879	129.53
328.092	98.81
328.305	107.01
328.518	76.29
328.731	-48.64
328.944	49.66
329.157	64
329.37	27.14
329.583	137.73
329.796	86.53
330.009	78.33
330.222	64
330.435	70.14
330.648	57.86
330.861	35.33
331.073	90.62
331.286	55.81
331.499	66.05
331.712	104.96
331.925	16.9
332.138	102.91
332.35	104.96
332.563	55.81
332.776	107.01
332.989	64
333.202	102.91
333.414	49.66
333.627	72.19
333.84	12.8
334.053	123.39
334.265	57.86
334.478	12.8
334.691	18.94
334.903	121.34
335.116	66.05
335.329	43.52
335.541	27.14
335.754	35.33
335.966	49.66
336.179	33.28
336.392	16.9
336.604	33.28
336.817	115.2
337.029	84.48
337.242	98.81
337.454	66.05
337.667	-5.63
337.88	64
338.092	-3.58
338.305	49.66
338.517	-9.73
338.729	100.86
338.942	90.62
339.154	27.14
339.367	16.9
339.579	70.14
339.792	68.09
340.004	90.62
340.217	14.85
340.429	125.44
340.641	-38.4
340.854	49.66
341.066	59.9
341.278	96.77
341.491	88.57
341.703	107.01
341.915	29.18
342.128	51.71
342.34	117.25
342.552	96.77
342.764	37.38
342.977	53.76
343.189	107.01
343.401	25.09
343.613	55.81
343.826	70.14
344.038	33.28
344.25	74.24
344.462	49.66
344.674	133.63
344.886	33.28
345.099	100.86
345.311	61.95
345.523	51.71
345.735	-15.87
345.947	82.43
346.159	-1.54
346.371	86.53
346.583	92.67
346.795	139.77
347.007	49.66
347.219	145.92
347.431	82.43
347.643	74.24
347.855	-38.4
348.067	133.63
348.279	8.7
348.491	109.05
348.703	6.66
348.915	53.76
349.127	37.38
349.339	88.57
349.551	55.81
349.763	100.86
349.975	29.18
350.187	78.33
350.399	102.91
350.61	82.43
350.822	47.62
351.034	94.72
351.246	86.53
351.458	31.23
351.669	127.49
351.881	88.57
352.093	88.57
352.305	33.28
352.517	55.81
352.728	47.62
352.94	29.18
353.152	113.15
353.363	23.04
353.575	98.81
353.787	82.43
353.999	45.57
354.21	104.96
354.422	37.38
354.633	61.95
354.845	78.33
355.057	39.42
355.268	145.92
355.48	123.39
355.692	137.73
355.903	57.86
356.115	104.96
356.326	16.9
356.538	39.42
356.749	127.49
356.961	53.76
357.172	12.8
357.384	27.14
357.595	141.82
357.807	43.52
358.018	84.48
358.23	76.29
358.441	66.05
358.653	31.23
358.864	31.23
359.075	51.71
359.287	61.95
359.498	127.49
359.709	94.72
359.921	70.14
360.132	66.05
360.344	18.94
360.555	82.43
360.766	41.47
360.977	14.85
361.189	131.58
361.4	37.38
361.611	94.72
361.823	125.44
362.034	86.53
362.245	33.28
362.456	92.67
362.667	51.71
362.879	66.05
363.09	88.57
363.301	37.38
363.512	41.47
363.723	66.05
363.935	33.28
364.146	127.49
364.357	98.81
364.568	35.33
364.779	59.9
364.99	100.86
365.201	82.43
365.412	6.66
365.623	66.05
365.834	35.33
366.045	12.8
366.256	121.34
366.467	117.25
366.678	84.48
366.889	117.25
367.1	57.86
367.311	90.62
367.522	78.33
367.733	41.47
367.944	121.34
368.155	113.15
368.366	111.1
368.577	86.53
368.788	57.86
368.999	135.68
369.209	137.73
369.42	160.25
369.631	102.91
369.842	72.19
370.053	107.01
370.264	45.57
370.474	64
370.685	23.04
370.896	119.29
371.107	-15.87
371.317	82.43
371.528	66.05
371.739	139.77
371.95	12.8
372.16	80.38
372.371	59.9
372.582	145.92
372.792	64
373.003	41.47
373.214	115.2
373.424	53.76
373.635	57.86
373.846	92.67
374.056	27.14
374.267	147.97
374.477	72.19
374.688	29.18
374.898	57.86
375.109	47.62
375.319	84.48
375.53	16.9
375.74	59.9
375.951	12.8
376.161	45.57
376.372	92.67
376.582	70.14
376.793	92.67
377.003	55.81
377.214	139.77
377.424	98.81
377.635	70.14
377.845	16.9
378.055	92.67
378.266	88.57
378.476	100.86
378.686	92.67
378.897	104.96
379.107	66.05
379.317	45.57
379.528	78.33
379.738	88.57
379.948	47.62
380.158	98.81
380.369	188.93
380.579	123.39
380.789	115.2
380.999	23.04
381.21	61.95
381.42	102.91
381.63	80.38
381.84	152.06
382.05	70.14
382.261	129.53
382.471	117.25
382.681	111.1
382.891	139.77
383.101	88.57
383.311	102.91
383.521	86.53
383.731	59.9
383.941	51.71
384.151	61.95
384.361	70.14
384.571	43.52
384.781	84.48
384.991	115.2
385.201	127.49
385.411	107.01
385.621	72.19
385.831	90.62
386.041	57.86
386.251	49.66
386.461	115.2
386.671	107.01
386.881	70.14
387.091	61.95
387.301	86.53
387.511	49.66
387.72	68.09
387.93	107.01
388.14	115.2
388.35	70.14
388.56	164.35
388.769	16.9
388.979	16.9
389.189	111.1
389.399	121.34
389.609	74.24
389.818	127.49
390.028	84.48
390.238	107.01
390.447	188.93
390.657	135.68
390.867	45.57
391.076	102.91
391.286	141.82
391.496	51.71
391.705	29.18
391.915	86.53
392.125	123.39
392.334	129.53
392.544	98.81
392.753	61.95
392.963	8.7
393.172	78.33
393.382	64
393.591	123.39
393.801	98.81
394.01	125.44
394.22	137.73
394.429	94.72
394.639	111.1
394.848	86.53
395.058	113.15
395.267	137.73
395.477	129.53
395.686	147.97
395.895	43.52
396.105	119.29
396.314	115.2
396.524	115.2
396.733	53.76
396.942	53.76
397.152	221.69
397.361	162.3
397.57	104.96
397.78	141.82
397.989	152.06
398.198	162.3
398.407	150.01
398.617	131.58
398.826	66.05
399.035	111.1
399.244	154.11
399.453	195.07
399.663	117.25
399.872	131.58
400.081	100.86
400.29	168.45
400.499	156.16
400.708	117.25
400.917	84.48
401.127	133.63
401.336	74.24
401.545	236.03
401.754	213.5
401.963	242.17
402.172	168.45
402.381	154.11
402.59	172.54
402.799	137.73
403.008	176.64
403.217	119.29
403.426	184.83
403.635	137.73
403.844	131.58
404.053	147.97
404.262	180.73
404.471	236.03
404.68	156.16
404.888	147.97
405.097	145.92
405.306	174.59
405.515	197.12
405.724	211.45
405.933	154.11
406.142	244.22
406.35	213.5
406.559	195.07
406.768	221.69
406.977	305.66
407.185	213.5
407.394	229.88
407.603	209.4
407.812	276.99
408.02	242.17
408.229	240.12
408.438	299.52
408.646	320
408.855	377.34
409.064	215.55
409.272	279.04
409.481	283.13
409.69	295.42
409.898	311.8
410.107	287.23
410.315	444.92
410.524	395.77
410.733	334.33
410.941	401.91
411.15	403.96
411.358	514.55
411.567	500.22
411.775	455.16
411.984	475.64
412.192	518.65
412.401	510.46
412.609	508.41
412.818	555.51
413.026	580.09
413.234	528.89
413.443	514.55
413.651	657.91
413.86	643.57
414.068	721.4
414.276	700.92
414.485	670.2
414.693	772.6
414.901	795.12
415.11	819.7
415.318	733.68
415.526	852.47
415.734	899.57
415.943	893.43
416.151	967.15
416.359	946.67
416.567	977.39
416.776	1055.22
416.984	1051.12
417.192	1200.62
417.4	1071.6
417.608	1116.65
417.817	1235.44
418.025	1223.15
418.233	1358.32
418.441	1343.98
418.649	1391.08
418.857	1491.43
419.065	1421.8
419.273	1436.14
419.481	1565.16
419.689	1636.84
419.897	1757.67
420.105	1737.19
420.313	1671.65
420.521	1819.11
420.729	1868.26
420.937	2019.81
421.145	1923.55
421.353	2161.12
421.561	2261.47
421.769	2333.15
421.977	2390.49
422.185	2320.86
422.393	2464.22
422.601	2605.53
422.809	2636.25
423.017	2634.2
423.224	2752.98
423.432	2978.26
423.64	3021.27
423.848	3138
424.056	3131.86
424.263	3183.06
424.471	3420.62
424.679	3391.95
424.887	3469.77
425.094	3703.24
425.302	3690.95
425.51	3922.37
425.718	3963.33
425.925	3965.38
426.133	4045.25
426.341	4329.92
426.548	4542.91
426.756	4553.15
426.964	4460.99
427.171	4958.64
427.379	5011.89
427.586	5134.77
427.794	5147.06
428.001	5394.86
428.209	5806.5
428.417	5579.18
428.624	6046.12
428.832	5980.58
429.039	5845.41
429.247	6025.64
429.454	6508.96
429.662	6953.37
429.869	6515.1
430.076	6984.09
430.284	6971.8
430.491	7123.35
430.699	7473.55
430.906	7457.17
431.114	7651.72
431.321	8008.07
431.528	8036.74
431.736	8513.92
431.943	8991.09
432.15	8675.71
432.358	8982.9
432.565	9314.67
432.772	9507.18
432.979	9763.18
433.187	10170.72
433.394	10189.16
433.601	10735.96
433.808	10678.62
434.016	10479.97
434.223	11198.81
434.43	11661.65
434.637	11458.9
434.844	12218.69
435.052	12456.26
435.259	12417.35
435.466	12570.94
435.673	12345.67
435.88	13332.79
436.087	13844.78
436.294	13832.49
436.501	13472.05
436.708	13850.92
436.915	14403.88
437.122	15184.15
437.329	14801.18
437.537	15540.5
437.743	16023.82
437.95	15636.75
438.157	16421.13
438.364	17008.89
438.571	16967.93
438.778	16808.19
438.985	18794.72
439.192	17852.66
439.399	18616.55
439.606	18204.91
439.813	18960.61
440.02	20209.87
440.227	19929.3
440.433	19957.97
440.64	20562.12
440.847	20261.07
441.054	20605.13
441.261	22157.49
441.467	21719.22
441.674	22290.6
441.881	23158.94
442.088	22968.48
442.294	22835.36
442.501	23459.99
442.708	24375.44
442.914	24940.68
443.121	26128.5
443.328	25331.84
443.534	27093.09
443.741	26243.18
443.948	25731.19
444.154	28108.88
444.361	27469.92
444.568	27990.1
444.774	28164.18
444.981	28307.54
445.187	29018.18
445.394	30275.63
445.6	29843.51
445.807	32499.73
446.013	30842.92
446.22	31954.97
446.426	33085.45
446.633	33484.8
446.839	34340.85
447.046	33011.72
447.252	34969.58
447.459	35022.83
447.665	35014.63
447.871	36179.93
448.078	37738.43
448.284	36179.93
448.491	36925.39
448.697	38266.81
448.903	39290.79
449.11	38686.64
449.316	38610.87
449.522	38737.84
449.728	39853.98
449.935	40578.96
450.141	39847.84
450.347	41070.48
450.553	39360.42
450.76	39905.18
450.966	41068.43
451.172	41267.08
451.378	41973.63
451.584	41168.78
451.791	41910.14
451.997	41742.21
452.203	42848.11
452.409	42071.93
452.615	42166.14
452.821	40540.05
453.027	39921.57
453.233	42043.26
453.44	40408.98
453.646	40925.07
453.852	40832.91
454.058	41480.07
454.264	40146.84
454.47	40998.8
454.676	39520.16
454.882	41043.85
455.088	37455.81
455.294	38037.44
455.5	38442.93
455.705	38766.51
455.911	36956.11
456.117	37142.47
456.323	36278.23
456.529	34136.06
456.735	35424.23
456.941	34498.55
457.147	33900.54
457.352	32880.65
457.558	32217.11
457.764	32778.25
457.97	31578.14
458.176	31004.71
458.381	31010.85
458.587	29431.87
458.793	29270.08
458.999	27947.09
459.204	29839.42
459.41	29317.18
459.616	27271.26
459.821	26986.6
460.027	27029.6
460.233	26124.4
460.438	24957.06
460.644	25690.23
460.85	24481.93
461.055	23802
461.261	23867.54
461.466	22306.99
461.672	21631.16
461.878	23201.95
462.083	21680.31
462.289	21211.32
462.494	21020.86
462.7	19910.86
462.905	19294.43
463.111	20226.25
463.316	20242.64
463.522	19781.84
463.727	19777.75
463.932	19699.92
464.138	19681.49
464.343	19824.85
464.549	19120.35
464.754	19810.51
464.959	19384.54
465.165	19878.1
465.37	18575.59
465.575	18088.17
465.781	18888.93
465.986	19007.71
466.191	18196.71
466.397	17805.55
466.602	17090.81
466.807	17936.62
