Data from USB4F104151__273__11-12-14-125.txt Node

Date: Wed Mar 12 11:12:14 EDT 2025
User: louis
Spectrometer: USB4F10415
Trigger mode: 4
Integration Time (sec): 2.000000E-2
Scans to average: 1
Electric dark correction enabled: true
Nonlinearity correction enabled: false
Boxcar width: 0
XAxis mode: Wavelengths
Number of Pixels in Spectrum: 3648
>>>>>Begin Spectral Data<<<<<
178.204	-65.02
178.424	-65.02
178.644	-65.02
178.864	-136.7
179.084	-99.84
179.304	-1.54
179.524	-7.68
179.744	12.8
179.964	-7.68
180.184	-44.54
180.404	47.62
180.624	-3.58
180.844	47.62
181.064	-52.74
181.283	45.57
181.503	23.04
181.723	-58.88
181.943	-9.73
182.163	72.19
182.383	-5.63
182.602	45.57
182.822	53.76
183.042	-9.73
183.262	-44.54
183.482	10.75
183.701	-3.58
183.921	14.85
184.141	8.7
184.361	64
184.58	109.05
184.8	14.85
185.02	-13.82
185.239	29.18
185.459	-1.54
185.679	61.95
185.898	10.75
186.118	61.95
186.338	-3.58
186.557	55.81
186.777	51.71
186.997	47.62
187.216	2.56
187.436	10.75
187.655	45.57
187.875	27.14
188.095	78.33
188.314	39.42
188.534	152.06
188.753	18.94
188.973	55.81
189.192	57.86
189.412	72.19
189.631	57.86
189.851	23.04
190.07	68.09
190.29	-9.73
190.509	-46.59
190.729	39.42
190.948	68.09
191.168	102.91
191.387	8.7
191.607	-1.54
191.826	14.85
192.045	-1.54
192.265	-13.82
192.484	57.86
192.704	31.23
192.923	23.04
193.142	61.95
193.362	-24.06
193.581	8.7
193.8	-34.3
194.02	31.23
194.239	20.99
194.458	29.18
194.678	-3.58
194.897	55.81
195.116	43.52
195.335	12.8
195.555	-11.78
195.774	39.42
195.993	20.99
196.212	68.09
196.432	8.7
196.651	53.76
196.87	12.8
197.089	76.29
197.308	31.23
197.528	43.52
197.747	35.33
197.966	0.51
198.185	25.09
198.404	82.43
198.623	76.29
198.842	66.05
199.062	4.61
199.281	68.09
199.5	33.28
199.719	23.04
199.938	4.61
200.157	41.47
200.376	55.81
200.595	33.28
200.814	23.04
201.033	25.09
201.252	-5.63
201.471	49.66
201.69	33.28
201.909	43.52
202.128	-11.78
202.347	39.42
202.566	-50.69
202.785	84.48
203.004	-71.17
203.223	59.9
203.442	41.47
203.661	16.9
203.879	12.8
204.098	43.52
204.317	-24.06
204.536	45.57
204.755	111.1
204.974	33.28
205.193	33.28
205.411	98.81
205.63	-26.11
205.849	8.7
206.068	78.33
206.287	-44.54
206.505	92.67
206.724	0.51
206.943	4.61
207.162	43.52
207.381	61.95
207.599	84.48
207.818	31.23
208.037	-52.74
208.255	33.28
208.474	33.28
208.693	41.47
208.911	41.47
209.13	-17.92
209.349	80.38
209.567	-9.73
209.786	27.14
210.005	57.86
210.223	37.38
210.442	27.14
210.661	64
210.879	-3.58
211.098	-24.06
211.316	-19.97
211.535	47.62
211.753	-46.59
211.972	16.9
212.191	-1.54
212.409	18.94
212.628	23.04
212.846	27.14
213.065	47.62
213.283	20.99
213.502	61.95
213.72	51.71
213.938	-13.82
214.157	80.38
214.375	-40.45
214.594	4.61
214.812	12.8
215.031	-58.88
215.249	2.56
215.467	39.42
215.686	-1.54
215.904	35.33
216.122	-3.58
216.341	12.8
216.559	64
216.778	43.52
216.996	35.33
217.214	16.9
217.432	8.7
217.651	61.95
217.869	-26.11
218.087	29.18
218.306	31.23
218.524	109.05
218.742	16.9
218.96	-1.54
219.179	59.9
219.397	23.04
219.615	104.96
219.833	29.18
220.051	-19.97
220.27	64
220.488	59.9
220.706	74.24
220.924	4.61
221.142	55.81
221.36	29.18
221.578	37.38
221.796	10.75
222.015	10.75
222.233	-22.02
222.451	-3.58
222.669	18.94
222.887	4.61
223.105	2.56
223.323	43.52
223.541	23.04
223.759	55.81
223.977	-1.54
224.195	51.71
224.413	8.7
224.631	72.19
224.849	82.43
225.067	53.76
225.285	14.85
225.503	49.66
225.721	12.8
225.939	31.23
226.157	8.7
226.375	84.48
226.592	6.66
226.81	-17.92
227.028	55.81
227.246	49.66
227.464	68.09
227.682	29.18
227.9	41.47
228.117	-22.02
228.335	80.38
228.553	37.38
228.771	92.67
228.989	49.66
229.206	47.62
229.424	-11.78
229.642	-48.64
229.86	55.81
230.077	12.8
230.295	55.81
230.513	35.33
230.731	27.14
230.948	96.77
231.166	43.52
231.384	45.57
231.601	6.66
231.819	-3.58
232.037	-13.82
232.254	39.42
232.472	16.9
232.689	8.7
232.907	100.86
233.125	70.14
233.342	8.7
233.56	35.33
233.777	-9.73
233.995	-36.35
234.213	41.47
234.43	14.85
234.648	70.14
234.865	8.7
235.083	100.86
235.3	14.85
235.518	39.42
235.735	45.57
235.953	82.43
236.17	27.14
236.388	-48.64
236.605	33.28
236.822	66.05
237.04	80.38
237.257	20.99
237.475	-13.82
237.692	76.29
237.909	82.43
238.127	31.23
238.344	35.33
238.562	115.2
238.779	14.85
238.996	37.38
239.214	61.95
239.431	68.09
239.648	51.71
239.865	57.86
240.083	45.57
240.3	-15.87
240.517	-26.11
240.735	23.04
240.952	-11.78
241.169	94.72
241.386	-36.35
241.603	23.04
241.821	25.09
242.038	35.33
242.255	37.38
242.472	113.15
242.689	-9.73
242.907	59.9
243.124	35.33
243.341	61.95
243.558	-30.21
243.775	14.85
243.992	27.14
244.209	39.42
244.426	23.04
244.643	-17.92
244.86	12.8
245.078	23.04
245.295	-13.82
245.512	45.57
245.729	57.86
245.946	82.43
246.163	31.23
246.38	14.85
246.597	43.52
246.814	18.94
247.031	-26.11
247.248	29.18
247.464	-3.58
247.681	78.33
247.898	16.9
248.115	70.14
248.332	31.23
248.549	88.57
248.766	129.53
248.983	68.09
249.2	74.24
249.417	154.11
249.633	37.38
249.85	4.61
250.067	84.48
250.284	66.05
250.501	-7.68
250.717	25.09
250.934	39.42
251.151	45.57
251.368	64
251.585	98.81
251.801	-11.78
252.018	43.52
252.235	2.56
252.451	-15.87
252.668	18.94
252.885	47.62
253.102	-7.68
253.318	102.91
253.535	6.66
253.752	14.85
253.968	66.05
254.185	49.66
254.401	-3.58
254.618	2.56
254.835	6.66
255.051	74.24
255.268	-19.97
255.484	25.09
255.701	31.23
255.917	78.33
256.134	4.61
256.351	66.05
256.567	14.85
256.784	74.24
257	31.23
257.217	35.33
257.433	27.14
257.65	109.05
257.866	64
258.082	35.33
258.299	59.9
258.515	92.67
258.732	55.81
258.948	45.57
259.165	-38.4
259.381	27.14
259.597	-24.06
259.814	-34.3
260.03	41.47
260.246	-11.78
260.463	68.09
260.679	98.81
260.895	20.99
261.112	29.18
261.328	59.9
261.544	-13.82
261.761	-34.3
261.977	-1.54
262.193	-19.97
262.409	113.15
262.626	55.81
262.842	-13.82
263.058	-30.21
263.274	49.66
263.49	68.09
263.707	43.52
263.923	37.38
264.139	10.75
264.355	10.75
264.571	74.24
264.787	35.33
265.004	6.66
265.22	4.61
265.436	49.66
265.652	31.23
265.868	57.86
266.084	43.52
266.3	41.47
266.516	-7.68
266.732	-30.21
266.948	12.8
267.164	66.05
267.38	0.51
267.596	84.48
267.812	139.77
268.028	80.38
268.244	64
268.46	14.85
268.676	61.95
268.892	88.57
269.108	49.66
269.324	8.7
269.54	14.85
269.756	41.47
269.972	-9.73
270.188	86.53
270.403	49.66
270.619	76.29
270.835	104.96
271.051	49.66
271.267	33.28
271.483	23.04
271.698	-19.97
271.914	-26.11
272.13	70.14
272.346	94.72
272.562	10.75
272.777	4.61
272.993	-1.54
273.209	59.9
273.425	10.75
273.64	-1.54
273.856	2.56
274.072	35.33
274.287	6.66
274.503	33.28
274.719	-65.02
274.934	72.19
275.15	10.75
275.366	-40.45
275.581	37.38
275.797	-44.54
276.012	27.14
276.228	57.86
276.444	8.7
276.659	6.66
276.875	33.28
277.09	23.04
277.306	23.04
277.521	39.42
277.737	70.14
277.952	35.33
278.168	74.24
278.383	86.53
278.599	57.86
278.814	49.66
279.03	27.14
279.245	29.18
279.461	8.7
279.676	113.15
279.892	-28.16
280.107	-28.16
280.322	31.23
280.538	80.38
280.753	31.23
280.969	74.24
281.184	100.86
281.399	78.33
281.615	12.8
281.83	-28.16
282.045	-44.54
282.26	39.42
282.476	61.95
282.691	78.33
282.906	70.14
283.122	57.86
283.337	43.52
283.552	45.57
283.767	51.71
283.983	82.43
284.198	82.43
284.413	14.85
284.628	23.04
284.843	66.05
285.058	53.76
285.274	-32.26
285.489	-17.92
285.704	66.05
285.919	59.9
286.134	39.42
286.349	43.52
286.564	135.68
286.779	43.52
286.995	-9.73
287.21	10.75
287.425	61.95
287.64	0.51
287.855	74.24
288.07	-13.82
288.285	113.15
288.5	90.62
288.715	68.09
288.93	31.23
289.145	0.51
289.36	78.33
289.575	88.57
289.79	39.42
290.004	23.04
290.219	-30.21
290.434	35.33
290.649	41.47
290.864	51.71
291.079	-24.06
291.294	-17.92
291.509	70.14
291.724	45.57
291.938	39.42
292.153	107.01
292.368	-1.54
292.583	12.8
292.798	-50.69
293.012	37.38
293.227	-13.82
293.442	51.71
293.657	82.43
293.871	70.14
294.086	66.05
294.301	31.23
294.516	64
294.73	31.23
294.945	-56.83
295.16	49.66
295.374	84.48
295.589	51.71
295.804	-9.73
296.018	6.66
296.233	25.09
296.447	51.71
296.662	-46.59
296.877	10.75
297.091	86.53
297.306	33.28
297.52	33.28
297.735	57.86
297.949	64
298.164	14.85
298.378	61.95
298.593	57.86
298.807	-3.58
299.022	37.38
299.236	88.57
299.451	14.85
299.665	6.66
299.88	121.34
300.094	-1.54
300.309	45.57
300.523	29.18
300.737	33.28
300.952	8.7
301.166	55.81
301.381	41.47
301.595	23.04
301.809	-17.92
302.024	27.14
302.238	86.53
302.452	12.8
302.667	-26.11
302.881	0.51
303.095	55.81
303.309	0.51
303.524	-36.35
303.738	18.94
303.952	66.05
304.166	41.47
304.381	-81.41
304.595	80.38
304.809	51.71
305.023	31.23
305.237	-22.02
305.452	49.66
305.666	72.19
305.88	76.29
306.094	39.42
306.308	-22.02
306.522	23.04
306.736	27.14
306.95	64
307.164	-32.26
307.379	-24.06
307.593	25.09
307.807	41.47
308.021	-38.4
308.235	-11.78
308.449	90.62
308.663	74.24
308.877	12.8
309.091	16.9
309.305	-26.11
309.519	-11.78
309.733	35.33
309.947	31.23
310.161	61.95
310.374	96.77
310.588	66.05
310.802	-19.97
311.016	53.76
311.23	49.66
311.444	6.66
311.658	6.66
311.872	-17.92
312.085	78.33
312.299	92.67
312.513	80.38
312.727	80.38
312.941	-5.63
313.154	-32.26
313.368	49.66
313.582	43.52
313.796	66.05
314.009	70.14
314.223	133.63
314.437	51.71
314.651	61.95
314.864	2.56
315.078	6.66
315.292	117.25
315.505	23.04
315.719	141.82
315.933	78.33
316.146	35.33
316.36	6.66
316.573	102.91
316.787	25.09
317.001	-1.54
317.214	39.42
317.428	72.19
317.641	37.38
317.855	-15.87
318.068	47.62
318.282	72.19
318.495	64
318.709	61.95
318.922	6.66
319.136	84.48
319.349	61.95
319.563	68.09
319.776	96.77
319.99	43.52
320.203	94.72
320.417	57.86
320.63	0.51
320.843	78.33
321.057	29.18
321.27	90.62
321.483	55.81
321.697	35.33
321.91	113.15
322.124	29.18
322.337	49.66
322.55	2.56
322.763	39.42
322.977	70.14
323.19	12.8
323.403	37.38
323.617	16.9
323.83	41.47
324.043	59.9
324.256	8.7
324.469	57.86
324.683	88.57
324.896	51.71
325.109	47.62
325.322	45.57
325.535	84.48
325.748	90.62
325.962	129.53
326.175	33.28
326.388	82.43
326.601	127.49
326.814	61.95
327.027	84.48
327.24	55.81
327.453	18.94
327.666	49.66
327.879	0.51
328.092	16.9
328.305	70.14
328.518	55.81
328.731	80.38
328.944	53.76
329.157	45.57
329.37	-3.58
329.583	92.67
329.796	16.9
330.009	41.47
330.222	45.57
330.435	64
330.648	61.95
330.861	68.09
331.073	133.63
331.286	29.18
331.499	4.61
331.712	23.04
331.925	68.09
332.138	29.18
332.35	10.75
332.563	-28.16
332.776	-22.02
332.989	-17.92
333.202	72.19
333.414	-40.45
333.627	61.95
333.84	10.75
334.053	96.77
334.265	14.85
334.478	27.14
334.691	57.86
334.903	61.95
335.116	82.43
335.329	31.23
335.541	102.91
335.754	33.28
335.966	31.23
336.179	-32.26
336.392	96.77
336.604	61.95
336.817	76.29
337.029	23.04
337.242	4.61
337.454	35.33
337.667	96.77
337.88	45.57
338.092	100.86
338.305	35.33
338.517	-30.21
338.729	61.95
338.942	98.81
339.154	18.94
339.367	53.76
339.579	51.71
339.792	55.81
340.004	20.99
340.217	107.01
340.429	96.77
340.641	51.71
340.854	72.19
341.066	45.57
341.278	27.14
341.491	8.7
341.703	92.67
341.915	72.19
342.128	111.1
342.34	-1.54
342.552	-67.07
342.764	27.14
342.977	49.66
343.189	37.38
343.401	27.14
343.613	0.51
343.826	29.18
344.038	61.95
344.25	96.77
344.462	76.29
344.674	37.38
344.886	45.57
345.099	33.28
345.311	-11.78
345.523	31.23
345.735	-9.73
345.947	68.09
346.159	80.38
346.371	80.38
346.583	61.95
346.795	53.76
347.007	18.94
347.219	61.95
347.431	35.33
347.643	59.9
347.855	66.05
348.067	70.14
348.279	-5.63
348.491	51.71
348.703	2.56
348.915	76.29
349.127	-13.82
349.339	84.48
349.551	100.86
349.763	113.15
349.975	49.66
350.187	74.24
350.399	115.2
350.61	41.47
350.822	43.52
351.034	51.71
351.246	119.29
351.458	107.01
351.669	25.09
351.881	96.77
352.093	55.81
352.305	14.85
352.517	78.33
352.728	25.09
352.94	51.71
353.152	-71.17
353.363	-13.82
353.575	82.43
353.787	90.62
353.999	39.42
354.21	18.94
354.422	59.9
354.633	39.42
354.845	57.86
355.057	43.52
355.268	70.14
355.48	57.86
355.692	12.8
355.903	53.76
356.115	20.99
356.326	2.56
356.538	143.87
356.749	61.95
356.961	111.1
357.172	82.43
357.384	-22.02
357.595	29.18
357.807	39.42
358.018	-1.54
358.23	86.53
358.441	57.86
358.653	80.38
358.864	-1.54
359.075	55.81
359.287	-36.35
359.498	78.33
359.709	-5.63
359.921	41.47
360.132	33.28
360.344	37.38
360.555	10.75
360.766	20.99
360.977	70.14
361.189	66.05
361.4	35.33
361.611	137.73
361.823	43.52
362.034	-36.35
362.245	20.99
362.456	53.76
362.667	72.19
362.879	12.8
363.09	80.38
363.301	100.86
363.512	35.33
363.723	104.96
363.935	72.19
364.146	70.14
364.357	35.33
364.568	29.18
364.779	-19.97
364.99	68.09
365.201	35.33
365.412	57.86
365.623	4.61
365.834	23.04
366.045	10.75
366.256	47.62
366.467	20.99
366.678	74.24
366.889	84.48
367.1	20.99
367.311	-15.87
367.522	94.72
367.733	31.23
367.944	68.09
368.155	72.19
368.366	57.86
368.577	55.81
368.788	61.95
368.999	18.94
369.209	35.33
369.42	70.14
369.631	18.94
369.842	57.86
370.053	23.04
370.264	16.9
370.474	45.57
370.685	111.1
370.896	61.95
371.107	39.42
371.317	70.14
371.528	-5.63
371.739	37.38
371.95	37.38
372.16	61.95
372.371	31.23
372.582	72.19
372.792	100.86
373.003	57.86
373.214	68.09
373.424	18.94
373.635	-15.87
373.846	104.96
374.056	156.16
374.267	104.96
374.477	66.05
374.688	80.38
374.898	94.72
375.109	66.05
375.319	25.09
375.53	51.71
375.74	111.1
375.951	84.48
376.161	-9.73
376.372	88.57
376.582	113.15
376.793	45.57
377.003	33.28
377.214	90.62
377.424	41.47
377.635	88.57
377.845	6.66
378.055	16.9
378.266	88.57
378.476	70.14
378.686	70.14
378.897	64
379.107	43.52
379.317	39.42
379.528	-24.06
379.738	-30.21
379.948	0.51
380.158	127.49
380.369	55.81
380.579	14.85
380.789	61.95
380.999	47.62
381.21	49.66
381.42	131.58
381.63	27.14
381.84	125.44
382.05	96.77
382.261	35.33
382.471	72.19
382.681	80.38
382.891	4.61
383.101	104.96
383.311	27.14
383.521	109.05
383.731	20.99
383.941	96.77
384.151	51.71
384.361	82.43
384.571	64
384.781	129.53
384.991	74.24
385.201	57.86
385.411	51.71
385.621	6.66
385.831	49.66
386.041	68.09
386.251	4.61
386.461	72.19
386.671	70.14
386.881	127.49
387.091	78.33
387.301	94.72
387.511	8.7
387.72	37.38
387.93	29.18
388.14	18.94
388.35	23.04
388.56	47.62
388.769	-7.68
388.979	137.73
389.189	-7.68
389.399	109.05
389.609	14.85
389.818	76.29
390.028	16.9
390.238	10.75
390.447	10.75
390.657	94.72
390.867	47.62
391.076	72.19
391.286	80.38
391.496	27.14
391.705	51.71
391.915	43.52
392.125	29.18
392.334	51.71
392.544	47.62
392.753	70.14
392.963	59.9
393.172	74.24
393.382	51.71
393.591	53.76
393.801	86.53
394.01	98.81
394.22	80.38
394.429	113.15
394.639	78.33
394.848	90.62
395.058	68.09
395.267	37.38
395.477	88.57
395.686	111.1
395.895	131.58
396.105	121.34
396.314	115.2
396.524	96.77
396.733	29.18
396.942	115.2
397.152	143.87
397.361	107.01
397.57	64
397.78	145.92
397.989	131.58
398.198	98.81
398.407	84.48
398.617	45.57
398.826	104.96
399.035	143.87
399.244	104.96
399.453	178.69
399.663	86.53
399.872	84.48
400.081	68.09
400.29	115.2
400.499	145.92
400.708	139.77
400.917	4.61
401.127	84.48
401.336	117.25
401.545	193.02
401.754	78.33
401.963	100.86
402.172	127.49
402.381	80.38
402.59	188.93
402.799	78.33
403.008	57.86
403.217	141.82
403.426	72.19
403.635	113.15
403.844	102.91
404.053	107.01
404.262	82.43
404.471	90.62
404.68	129.53
404.888	160.25
405.097	88.57
405.306	90.62
405.515	180.73
405.724	113.15
405.933	80.38
406.142	248.32
406.35	201.21
406.559	156.16
406.768	154.11
406.977	203.26
407.185	178.69
407.394	188.93
407.603	193.02
407.812	160.25
408.02	219.64
408.229	201.21
408.438	211.45
408.646	186.88
408.855	150.01
409.064	199.16
409.272	285.18
409.481	262.65
409.69	274.94
409.898	276.99
410.107	313.85
410.315	322.04
410.524	330.23
410.733	315.9
410.941	330.23
411.15	256.51
411.358	414.2
411.567	334.33
411.775	381.43
411.984	375.29
412.192	338.43
412.401	424.44
412.609	350.71
412.818	510.46
413.026	530.94
413.234	432.63
413.443	430.59
413.651	492.02
413.86	487.93
414.068	530.94
414.276	535.03
414.485	496.12
414.693	592.37
414.901	594.42
415.11	666.1
415.318	627.19
415.526	639.48
415.734	690.68
415.943	725.49
416.151	690.68
416.359	752.12
416.567	786.93
416.776	813.56
416.984	834.04
417.192	715.25
417.4	825.84
417.608	930.29
417.817	979.44
418.025	918
418.233	999.92
418.441	1038.83
418.649	1063.41
418.857	1096.18
419.065	1157.61
419.273	1096.18
419.481	1165.81
419.689	1280.49
419.897	1337.84
420.105	1325.55
420.313	1343.98
420.521	1485.29
420.729	1438.19
420.937	1448.43
421.145	1661.41
421.353	1634.79
421.561	1739.24
421.769	1745.38
421.977	1825.25
422.185	1917.41
422.393	1905.12
422.601	2075.1
422.809	1991.14
423.017	2159.07
423.224	2265.57
423.432	2261.47
423.64	2193.89
423.848	2251.23
424.056	2374.11
424.263	2435.55
424.471	2521.56
424.679	2515.42
424.887	2830.8
425.094	2732.5
425.302	2808.28
425.51	2922.96
425.718	2918.87
425.925	3017.17
426.133	3125.71
426.341	3275.21
426.548	3545.55
426.756	3439.05
426.964	3627.46
427.171	3881.41
427.379	3797.45
427.586	3985.86
427.794	3862.98
428.001	4258.24
428.209	4481.47
428.417	4231.62
428.624	4499.9
428.832	4669.88
429.039	4567.48
429.247	4569.53
429.454	4970.93
429.662	5314.99
429.869	4981.17
430.076	5333.42
430.284	5271.98
430.491	5411.25
430.699	5765.54
430.906	5732.78
431.114	5820.84
431.321	6097.31
431.528	5966.24
431.736	6635.93
431.943	6918.55
432.15	6635.93
432.358	6758.81
432.565	7092.63
432.772	7043.48
432.979	7526.8
433.187	7594.38
433.394	7561.61
433.601	8227.2
433.808	8063.36
434.016	8089.99
434.223	8339.84
434.43	8964.47
434.637	8706.43
434.844	9296.24
435.052	9308.53
435.259	9398.64
435.466	9353.59
435.673	9294.19
435.88	9980.26
436.087	10686.81
436.294	10486.11
436.501	10150.25
436.708	10277.22
436.915	10748.25
437.122	11284.82
437.329	11141.46
437.537	11503.95
437.743	11936.07
437.95	11749.71
438.157	12339.52
438.364	12579.14
438.571	12628.29
438.778	12769.6
438.985	13754.67
439.192	13304.12
439.399	13543.73
439.606	13537.59
439.813	14541.09
440.02	15026.46
440.227	14774.56
440.433	14770.46
440.64	15182.1
440.847	15184.15
441.054	15444.24
441.261	16548.1
441.467	16304.39
441.674	16554.24
441.881	17131.77
442.088	16892.16
442.294	17099
442.501	17469.69
442.708	17813.74
442.914	18497.77
443.121	19308.76
443.328	18534.63
443.534	19886.29
443.741	19456.22
443.948	19278.04
444.154	20832.45
444.361	20838.59
444.568	20523.21
444.774	20875.46
444.981	20916.42
445.187	21405.88
445.394	22390.95
445.6	22147.25
445.807	24283.28
446.013	23031.97
446.22	23427.23
446.426	24545.42
446.633	24430.73
446.839	25565.31
447.046	24277.13
447.252	25979
447.459	25784.44
447.665	25804.92
447.871	26800.23
448.078	27916.37
448.284	26701.93
448.491	27308.13
448.697	28530.76
448.903	28880.97
449.11	29169.73
449.316	28301.39
449.522	28874.82
449.728	29794.36
449.935	29976.63
450.141	29796.41
450.347	30218.29
450.553	29560.89
450.76	29974.58
450.966	30695.47
451.172	30216.24
451.378	31154.21
451.584	30629.93
451.791	31434.78
451.997	31150.12
452.203	31703.07
452.409	31784.99
452.615	31627.29
452.821	30562.35
453.027	30091.32
453.233	31541.28
453.44	30103.6
453.646	30976.04
453.852	30992.42
454.058	31322.15
454.264	30355.5
454.47	31143.97
454.676	30197.81
454.882	31361.06
455.088	28594.25
455.294	29038.66
455.5	28971.08
455.705	29597.76
455.911	28598.35
456.117	27906.13
456.323	27631.71
456.529	26361.97
456.735	27349.09
456.941	26546.28
457.147	25913.46
457.352	25213.06
457.558	24877.19
457.764	24733.83
457.97	24270.99
458.176	23849.11
458.381	23908.5
458.587	22605.99
458.793	22573.22
458.999	21397.69
459.204	23183.52
459.41	22378.67
459.616	20859.07
459.821	20893.89
460.027	20863.17
460.233	20408.52
460.438	19478.74
460.644	19564.76
460.85	18630.88
461.055	18432.23
461.261	18587.88
461.466	17129.72
461.672	16560.39
461.878	17983.73
462.083	16859.39
462.289	16195.85
462.494	16021.77
462.7	15368.47
462.905	15167.77
463.111	15538.45
463.316	15665.42
463.522	15288.6
463.727	15233.3
463.932	15208.73
464.138	15063.32
464.343	15190.3
464.549	14844.19
464.754	14928.16
464.959	15094.04
465.165	14969.12
465.37	14192.94
465.575	13867.31
465.781	14444.84
465.986	14475.56
466.191	14035.24
466.397	13758.77
466.602	13275.45
466.807	13549.87
467.012	13642.03
467.218	13685.04
467.423	13429.04
467.628	13596.98
467.833	14000.43
468.038	13701.42
468.244	13150.52
