Data from USB4F104151__222__11-10-47-954.txt Node

Date: Wed Mar 12 11:10:47 EDT 2025
User: louis
Spectrometer: USB4F10415
Trigger mode: 4
Integration Time (sec): 2.000000E-2
Scans to average: 1
Electric dark correction enabled: true
Nonlinearity correction enabled: false
Boxcar width: 0
XAxis mode: Wavelengths
Number of Pixels in Spectrum: 3648
>>>>>Begin Spectral Data<<<<<
178.204	-112.47
178.424	-112.47
178.644	-112.47
178.864	-130.9
179.084	-40.79
179.304	32.94
179.524	-22.36
179.744	-20.31
179.964	41.13
180.184	-5.97
180.404	100.52
180.624	-28.5
180.844	24.75
181.064	12.46
181.283	-5.97
181.503	-55.12
181.723	-73.56
181.943	-18.26
182.163	30.89
182.383	-22.36
182.602	16.55
182.822	90.28
183.042	-14.17
183.262	57.51
183.482	22.7
183.701	16.55
183.921	59.56
184.141	-63.32
184.361	110.76
184.58	-65.36
184.8	8.36
185.02	49.32
185.239	34.99
185.459	-20.31
185.679	-30.55
185.898	-20.31
186.118	-48.98
186.338	-36.69
186.557	4.27
186.777	16.55
186.997	94.38
187.216	-89.94
187.436	14.51
187.655	71.85
187.875	18.6
188.095	16.55
188.314	75.95
188.534	39.08
188.753	-1.88
188.973	30.89
189.192	67.75
189.412	77.99
189.631	55.47
189.851	53.42
190.07	26.79
190.29	-67.41
190.509	34.99
190.729	32.94
190.948	57.51
191.168	108.71
191.387	24.75
191.607	-46.93
191.826	-94.04
192.045	14.51
192.265	-12.12
192.484	6.31
192.704	75.95
192.923	55.47
193.142	63.66
193.362	49.32
193.581	53.42
193.8	-18.26
194.02	63.66
194.239	47.27
194.458	92.33
194.678	26.79
194.897	6.31
195.116	14.51
195.335	12.46
195.555	26.79
195.774	18.6
195.993	-14.17
196.212	37.03
196.432	43.18
196.651	10.41
196.87	51.37
197.089	88.23
197.308	26.79
197.528	8.36
197.747	10.41
197.966	47.27
198.185	57.51
198.404	-51.03
198.623	65.71
198.842	84.14
199.062	51.37
199.281	4.27
199.5	24.75
199.719	14.51
199.938	53.42
200.157	26.79
200.376	20.65
200.595	10.41
200.814	90.28
201.033	20.65
201.252	-16.21
201.471	47.27
201.69	53.42
201.909	34.99
202.128	16.55
202.347	49.32
202.566	30.89
202.785	22.7
203.004	-34.64
203.223	24.75
203.442	47.27
203.661	18.6
203.879	84.14
204.098	-10.07
204.317	39.08
204.536	84.14
204.755	90.28
204.974	73.9
205.193	28.84
205.411	112.81
205.63	26.79
205.849	-57.17
206.068	-42.84
206.287	39.08
206.505	114.86
206.724	10.41
206.943	55.47
207.162	0.17
207.381	22.7
207.599	-14.17
207.818	-3.93
208.037	14.51
208.255	37.03
208.474	20.65
208.693	71.85
208.911	104.62
209.13	26.79
209.349	55.47
209.567	4.27
209.786	20.65
210.005	45.23
210.223	4.27
210.442	18.6
210.661	51.37
210.879	26.79
211.098	14.51
211.316	71.85
211.535	4.27
211.753	-10.07
211.972	59.56
212.191	4.27
212.409	26.79
212.628	2.22
212.846	18.6
213.065	37.03
213.283	41.13
213.502	10.41
213.72	67.75
213.938	59.56
214.157	10.41
214.375	26.79
214.594	-1.88
214.812	-22.36
215.031	14.51
215.249	10.41
215.467	86.19
215.686	88.23
215.904	18.6
216.122	28.84
216.341	22.7
216.559	55.47
216.778	10.41
216.996	8.36
217.214	8.36
217.432	14.51
217.651	-22.36
217.869	30.89
218.087	30.89
218.306	14.51
218.524	37.03
218.742	24.75
218.96	14.51
219.179	26.79
219.397	41.13
219.615	30.89
219.833	92.33
220.051	-22.36
220.27	86.19
220.488	59.56
220.706	39.08
220.924	57.51
221.142	4.27
221.36	2.22
221.578	24.75
221.796	4.27
222.015	18.6
222.233	82.09
222.451	34.99
222.669	30.89
222.887	32.94
223.105	51.37
223.323	-8.02
223.541	14.51
223.759	80.04
223.977	-5.97
224.195	55.47
224.413	71.85
224.631	26.79
224.849	10.41
225.067	55.47
225.285	37.03
225.503	-1.88
225.721	-12.12
225.939	30.89
226.157	2.22
226.375	137.38
226.592	37.03
226.81	2.22
227.028	-20.31
227.246	77.99
227.464	61.61
227.682	-20.31
227.9	28.84
228.117	51.37
228.335	-8.02
228.553	10.41
228.771	14.51
228.989	-26.45
229.206	39.08
229.424	59.56
229.642	14.51
229.86	45.23
230.077	96.43
230.295	39.08
230.513	14.51
230.731	22.7
230.948	63.66
231.166	73.9
231.384	45.23
231.601	-34.64
231.819	86.19
232.037	6.31
232.254	-14.17
232.472	80.04
232.689	-42.84
232.907	49.32
233.125	-34.64
233.342	32.94
233.56	49.32
233.777	22.7
233.995	2.22
234.213	32.94
234.43	49.32
234.648	0.17
234.865	14.51
235.083	-20.31
235.3	-10.07
235.518	65.71
235.735	55.47
235.953	69.8
236.17	0.17
236.388	53.42
236.605	28.84
236.822	61.61
237.04	-5.97
237.257	30.89
237.475	6.31
237.692	12.46
237.909	73.9
238.127	16.55
238.344	6.31
238.562	75.95
238.779	-40.79
238.996	-12.12
239.214	-26.45
239.431	51.37
239.648	-1.88
239.865	-12.12
240.083	32.94
240.3	-28.5
240.517	18.6
240.735	20.65
240.952	-3.93
241.169	80.04
241.386	45.23
241.603	-22.36
241.821	8.36
242.038	-44.88
242.255	53.42
242.472	63.66
242.689	26.79
242.907	8.36
243.124	51.37
243.341	2.22
243.558	-3.93
243.775	67.75
243.992	34.99
244.209	26.79
244.426	22.7
244.643	20.65
244.86	6.31
245.078	90.28
245.295	22.7
245.512	86.19
245.729	8.36
245.946	-14.17
246.163	34.99
246.38	14.51
246.597	-1.88
246.814	84.14
247.031	-8.02
247.248	14.51
247.464	127.14
247.681	-5.97
247.898	32.94
248.115	8.36
248.332	-40.79
248.549	16.55
248.766	47.27
248.983	-5.97
249.2	14.51
249.417	82.09
249.633	2.22
249.85	45.23
250.067	32.94
250.284	90.28
250.501	6.31
250.717	-12.12
250.934	-26.45
251.151	32.94
251.368	45.23
251.585	0.17
251.801	-3.93
252.018	26.79
252.235	0.17
252.451	32.94
252.668	24.75
252.885	69.8
253.102	37.03
253.318	37.03
253.535	73.9
253.752	86.19
253.968	2.22
254.185	-36.69
254.401	-10.07
254.618	-40.79
254.835	41.13
255.051	67.75
255.268	0.17
255.484	43.18
255.701	24.75
255.917	37.03
256.134	-16.21
256.351	10.41
256.567	-26.45
256.784	55.47
257	2.22
257.217	63.66
257.433	-42.84
257.65	-26.45
257.866	61.61
258.082	-22.36
258.299	4.27
258.515	37.03
258.732	-36.69
258.948	55.47
259.165	30.89
259.381	45.23
259.597	16.55
259.814	43.18
260.03	37.03
260.246	2.22
260.463	18.6
260.679	45.23
260.895	6.31
261.112	59.56
261.328	-16.21
261.544	-44.88
261.761	34.99
261.977	20.65
262.193	-34.64
262.409	28.84
262.626	22.7
262.842	14.51
263.058	12.46
263.274	4.27
263.49	4.27
263.707	24.75
263.923	-32.6
264.139	-5.97
264.355	30.89
264.571	-3.93
264.787	39.08
265.004	8.36
265.22	20.65
265.436	49.32
265.652	-14.17
265.868	67.75
266.084	4.27
266.3	69.8
266.516	20.65
266.732	-1.88
266.948	4.27
267.164	32.94
267.38	53.42
267.596	22.7
267.812	92.33
268.028	24.75
268.244	49.32
268.46	65.71
268.676	-10.07
268.892	112.81
269.108	30.89
269.324	-22.36
269.54	39.08
269.756	4.27
269.972	-30.55
270.188	67.75
270.403	-26.45
270.619	90.28
270.835	67.75
271.051	8.36
271.267	-79.7
271.483	6.31
271.698	69.8
271.914	63.66
272.13	6.31
272.346	-48.98
272.562	26.79
272.777	4.27
272.993	14.51
273.209	77.99
273.425	34.99
273.64	-24.4
273.856	51.37
274.072	57.51
274.287	-24.4
274.503	41.13
274.719	61.61
274.934	37.03
275.15	-18.26
275.366	32.94
275.581	82.09
275.797	39.08
276.012	18.6
276.228	55.47
276.444	47.27
276.659	34.99
276.875	28.84
277.09	6.31
277.306	14.51
277.521	37.03
277.737	8.36
277.952	30.89
278.168	-1.88
278.383	82.09
278.599	-1.88
278.814	22.7
279.03	32.94
279.245	61.61
279.461	-3.93
279.676	77.99
279.892	-61.27
280.107	22.7
280.322	8.36
280.538	24.75
280.753	61.61
280.969	34.99
281.184	10.41
281.399	-8.02
281.615	-1.88
281.83	30.89
282.045	34.99
282.26	0.17
282.476	39.08
282.691	41.13
282.906	-20.31
283.122	32.94
283.337	8.36
283.552	2.22
283.767	-14.17
283.983	59.56
284.198	26.79
284.413	90.28
284.628	-16.21
284.843	-10.07
285.058	55.47
285.274	88.23
285.489	34.99
285.704	61.61
285.919	20.65
286.134	32.94
286.349	4.27
286.564	18.6
286.779	30.89
286.995	77.99
287.21	-14.17
287.425	80.04
287.64	14.51
287.855	100.52
288.07	39.08
288.285	80.04
288.5	55.47
288.715	4.27
288.93	-26.45
289.145	12.46
289.36	-32.6
289.575	-10.07
289.79	12.46
290.004	-14.17
290.219	-10.07
290.434	69.8
290.649	-12.12
290.864	-14.17
291.079	86.19
291.294	-10.07
291.509	71.85
291.724	24.75
291.938	0.17
292.153	84.14
292.368	24.75
292.583	75.95
292.798	-10.07
293.012	53.42
293.227	6.31
293.442	100.52
293.657	65.71
293.871	59.56
294.086	88.23
294.301	6.31
294.516	39.08
294.73	14.51
294.945	-34.64
295.16	-5.97
295.374	39.08
295.589	41.13
295.804	-34.64
296.018	28.84
296.233	20.65
296.447	26.79
296.662	-12.12
296.877	41.13
297.091	53.42
297.306	26.79
297.52	51.37
297.735	51.37
297.949	-40.79
298.164	51.37
298.378	53.42
298.593	-42.84
298.807	-28.5
299.022	24.75
299.236	-10.07
299.451	-89.94
299.665	22.7
299.88	20.65
300.094	-8.02
300.309	-12.12
300.523	-18.26
300.737	47.27
300.952	20.65
301.166	18.6
301.381	24.75
301.595	4.27
301.809	45.23
302.024	47.27
302.238	51.37
302.452	-12.12
302.667	63.66
302.881	116.9
303.095	-48.98
303.309	8.36
303.524	-26.45
303.738	32.94
303.952	-10.07
304.166	22.7
304.381	22.7
304.595	59.56
304.809	-38.74
305.023	2.22
305.237	43.18
305.452	34.99
305.666	4.27
305.88	129.19
306.094	39.08
306.308	-26.45
306.522	18.6
306.736	14.51
306.95	-1.88
307.164	-5.97
307.379	-16.21
307.593	59.56
307.807	8.36
308.021	20.65
308.235	45.23
308.449	18.6
308.663	-53.08
308.877	106.67
309.091	39.08
309.305	84.14
309.519	-8.02
309.733	-5.97
309.947	8.36
310.161	98.47
310.374	6.31
310.588	32.94
310.802	-28.5
311.016	26.79
311.23	-16.21
311.444	37.03
311.658	41.13
311.872	6.31
312.085	-30.55
312.299	69.8
312.513	-44.88
312.727	37.03
312.941	47.27
313.154	65.71
313.368	10.41
313.582	116.9
313.796	-20.31
314.009	0.17
314.223	4.27
314.437	43.18
314.651	16.55
314.864	32.94
315.078	0.17
315.292	14.51
315.505	41.13
315.719	24.75
315.933	14.51
316.146	92.33
316.36	34.99
316.573	14.51
316.787	47.27
317.001	26.79
317.214	6.31
317.428	100.52
317.641	-18.26
317.855	37.03
318.068	6.31
318.282	8.36
318.495	84.14
318.709	94.38
318.922	-51.03
319.136	86.19
319.349	18.6
319.563	6.31
319.776	26.79
319.99	26.79
320.203	129.19
320.417	26.79
320.63	41.13
320.843	53.42
321.057	34.99
321.27	69.8
321.483	63.66
321.697	53.42
321.91	51.37
322.124	0.17
322.337	18.6
322.55	32.94
322.763	47.27
322.977	41.13
323.19	6.31
323.403	39.08
323.617	71.85
323.83	61.61
324.043	47.27
324.256	16.55
324.469	28.84
324.683	41.13
324.896	77.99
325.109	16.55
325.322	8.36
325.535	39.08
325.748	18.6
325.962	4.27
326.175	-20.31
326.388	4.27
326.601	82.09
326.814	37.03
327.027	10.41
327.24	41.13
327.453	-63.32
327.666	4.27
327.879	47.27
328.092	55.47
328.305	0.17
328.518	51.37
328.731	-1.88
328.944	59.56
329.157	39.08
329.37	57.51
329.583	32.94
329.796	92.33
330.009	-12.12
330.222	43.18
330.435	14.51
330.648	80.04
330.861	14.51
331.073	28.84
331.286	18.6
331.499	80.04
331.712	63.66
331.925	67.75
332.138	-44.88
332.35	49.32
332.563	20.65
332.776	84.14
332.989	6.31
333.202	55.47
333.414	0.17
333.627	45.23
333.84	18.6
334.053	43.18
334.265	6.31
334.478	22.7
334.691	12.46
334.903	-44.88
335.116	20.65
335.329	10.41
335.541	51.37
335.754	57.51
335.966	-53.08
336.179	-18.26
336.392	57.51
336.604	82.09
336.817	26.79
337.029	30.89
337.242	53.42
337.454	69.8
337.667	-46.93
337.88	77.99
338.092	22.7
338.305	28.84
338.517	49.32
338.729	41.13
338.942	4.27
339.154	-16.21
339.367	16.55
339.579	116.9
339.792	14.51
340.004	43.18
340.217	-12.12
340.429	51.37
340.641	59.56
340.854	26.79
341.066	61.61
341.278	39.08
341.491	98.47
341.703	18.6
341.915	32.94
342.128	8.36
342.34	45.23
342.552	14.51
342.764	18.6
342.977	47.27
343.189	51.37
343.401	57.51
343.613	2.22
343.826	-18.26
344.038	-59.22
344.25	92.33
344.462	-34.64
344.674	88.23
344.886	75.95
345.099	18.6
345.311	61.61
345.523	80.04
345.735	-51.03
345.947	-36.69
346.159	61.61
346.371	22.7
346.583	22.7
346.795	84.14
347.007	-18.26
347.219	84.14
347.431	0.17
347.643	8.36
347.855	-77.65
348.067	77.99
348.279	18.6
348.491	69.8
348.703	34.99
348.915	49.32
349.127	53.42
349.339	80.04
349.551	47.27
349.763	22.7
349.975	69.8
350.187	80.04
350.399	39.08
350.61	24.75
350.822	-1.88
351.034	86.19
351.246	51.37
351.458	71.85
351.669	69.8
351.881	53.42
352.093	71.85
352.305	63.66
352.517	43.18
352.728	37.03
352.94	30.89
353.152	94.38
353.363	47.27
353.575	112.81
353.787	57.51
353.999	4.27
354.21	32.94
354.422	-10.07
354.633	14.51
354.845	53.42
355.057	10.41
355.268	37.03
355.48	49.32
355.692	-65.36
355.903	26.79
356.115	37.03
356.326	37.03
356.538	43.18
356.749	-18.26
356.961	55.47
357.172	-30.55
357.384	18.6
357.595	30.89
357.807	18.6
358.018	100.52
358.23	61.61
358.441	75.95
358.653	96.43
358.864	61.61
359.075	69.8
359.287	-26.45
359.498	12.46
359.709	57.51
359.921	-36.69
360.132	57.51
360.344	145.58
360.555	59.56
360.766	43.18
360.977	77.99
361.189	24.75
361.4	-3.93
361.611	41.13
361.823	82.09
362.034	18.6
362.245	12.46
362.456	12.46
362.667	116.9
362.879	41.13
363.09	67.75
363.301	47.27
363.512	4.27
363.723	-34.64
363.935	69.8
364.146	57.51
364.357	4.27
364.568	6.31
364.779	45.23
364.99	90.28
365.201	18.6
365.412	77.99
365.623	51.37
365.834	45.23
366.045	96.43
366.256	77.99
366.467	75.95
366.678	47.27
366.889	41.13
367.1	16.55
367.311	37.03
367.522	2.22
367.733	20.65
367.944	-51.03
368.155	71.85
368.366	77.99
368.577	86.19
368.788	86.19
368.999	49.32
369.209	63.66
369.42	32.94
369.631	88.23
369.842	0.17
370.053	-18.26
370.264	43.18
370.474	24.75
370.685	-12.12
370.896	34.99
371.107	45.23
371.317	43.18
371.528	8.36
371.739	69.8
371.95	71.85
372.16	51.37
372.371	24.75
372.582	22.7
372.792	39.08
373.003	73.9
373.214	71.85
373.424	41.13
373.635	49.32
373.846	94.38
374.056	108.71
374.267	57.51
374.477	51.37
374.688	26.79
374.898	-38.74
375.109	69.8
375.319	4.27
375.53	88.23
375.74	129.19
375.951	24.75
376.161	43.18
376.372	88.23
376.582	34.99
376.793	-14.17
377.003	47.27
377.214	43.18
377.424	34.99
377.635	77.99
377.845	-46.93
378.055	112.81
378.266	20.65
378.476	30.89
378.686	51.37
378.897	65.71
379.107	114.86
379.317	121
379.528	2.22
379.738	75.95
379.948	96.43
380.158	61.61
380.369	37.03
380.579	32.94
380.789	6.31
380.999	47.27
381.21	49.32
381.42	129.19
381.63	73.9
381.84	8.36
382.05	77.99
382.261	41.13
382.471	53.42
382.681	80.04
382.891	26.79
383.101	92.33
383.311	10.41
383.521	39.08
383.731	112.81
383.941	53.42
384.151	41.13
384.361	47.27
384.571	28.84
384.781	65.71
384.991	57.51
385.201	114.86
385.411	69.8
385.621	53.42
385.831	10.41
386.041	88.23
386.251	96.43
386.461	18.6
386.671	80.04
386.881	41.13
387.091	-53.08
387.301	51.37
387.511	96.43
387.72	80.04
387.93	88.23
388.14	14.51
388.35	65.71
388.56	114.86
388.769	16.55
388.979	16.55
389.189	28.84
389.399	0.17
389.609	37.03
389.818	45.23
390.028	53.42
390.238	84.14
390.447	65.71
390.657	14.51
390.867	8.36
391.076	59.56
391.286	63.66
391.496	86.19
391.705	63.66
391.915	26.79
392.125	98.47
392.334	88.23
392.544	61.61
392.753	-3.93
392.963	2.22
393.172	47.27
393.382	112.81
393.591	121
393.801	30.89
394.01	63.66
394.22	133.29
394.429	26.79
394.639	61.61
394.848	32.94
395.058	106.67
395.267	-24.4
395.477	32.94
395.686	45.23
395.895	84.14
396.105	141.48
396.314	43.18
396.524	80.04
396.733	28.84
396.942	98.47
397.152	96.43
397.361	123.05
397.57	88.23
397.78	112.81
397.989	104.62
398.198	75.95
398.407	121
398.617	82.09
398.826	114.86
399.035	45.23
399.244	121
399.453	125.1
399.663	129.19
399.872	94.38
400.081	116.9
400.29	63.66
400.499	96.43
400.708	108.71
400.917	2.22
401.127	125.1
401.336	12.46
401.545	67.75
401.754	147.62
401.963	98.47
402.172	129.19
402.381	53.42
402.59	112.81
402.799	125.1
403.008	125.1
403.217	82.09
403.426	98.47
403.635	51.37
403.844	145.58
404.053	77.99
404.262	96.43
404.471	135.34
404.68	108.71
404.888	118.95
405.097	164.01
405.306	190.63
405.515	121
405.724	192.68
405.933	121
406.142	184.49
406.35	135.34
406.559	161.96
406.768	137.38
406.977	188.58
407.185	106.67
407.394	149.67
407.603	186.54
407.812	131.24
408.02	207.02
408.229	229.54
408.438	125.1
408.646	182.44
408.855	188.58
409.064	213.16
409.272	260.26
409.481	239.78
409.69	288.93
409.898	254.12
410.107	280.74
410.315	315.56
410.524	264.36
410.733	327.85
410.941	299.17
411.15	342.18
411.358	303.27
411.567	395.43
411.775	385.19
411.984	366.76
412.192	366.76
412.401	387.24
412.609	463.01
412.818	391.33
413.026	477.35
413.234	395.43
413.443	434.34
413.651	409.76
413.86	436.39
414.068	530.59
414.276	516.26
414.485	567.46
414.693	512.16
414.901	506.02
415.11	575.65
415.318	686.24
415.526	698.53
415.734	692.38
415.943	700.58
416.151	663.71
416.359	798.88
416.567	729.25
416.776	737.44
416.984	835.74
417.192	903.32
417.4	903.32
417.608	880.8
417.817	884.89
418.025	962.72
418.233	1052.83
418.441	915.61
418.649	1079.45
418.857	1069.21
419.065	1161.37
419.273	1003.68
419.481	1171.61
419.689	1288.34
419.897	1288.34
420.105	1255.58
420.313	1349.78
420.521	1413.27
420.729	1419.41
420.937	1372.31
421.145	1673.36
421.353	1552.53
421.561	1677.46
421.769	1704.08
421.977	1845.39
422.185	1816.72
422.393	1919.12
422.601	1896.59
422.809	1949.84
423.017	2074.76
423.224	2001.04
423.432	2150.54
423.64	2095.24
423.848	2355.33
424.056	2384.01
424.263	2486.4
424.471	2500.74
424.679	2553.99
424.887	2818.18
425.094	2662.53
425.302	2703.49
425.51	2734.21
425.718	2904.19
425.925	2885.76
426.133	3047.55
426.341	3201.15
426.548	3381.37
426.756	3424.37
426.964	3504.25
427.171	3782.77
427.379	3582.07
427.586	3764.34
427.794	4014.19
428.001	4034.67
428.209	4388.97
428.417	4274.28
428.624	4321.38
428.832	4524.13
429.039	4348.01
429.247	4583.52
429.454	4821.09
429.662	5179.48
429.869	4745.31
430.076	5335.13
430.284	5077.09
430.491	5544.02
430.699	5378.14
430.906	5634.13
431.114	5660.76
431.321	5765.2
431.528	5886.03
431.736	6322.25
431.943	6721.6
432.15	6412.36
432.358	6518.86
432.565	6989.89
432.772	7020.61
432.979	7268.41
433.187	7346.23
433.394	7475.26
433.601	7749.68
433.808	7712.82
434.016	7864.37
434.223	8138.8
434.43	8665.13
434.637	8683.56
434.844	8968.23
435.052	9277.47
435.259	9330.72
435.466	9166.88
435.673	9191.45
435.88	9742.36
436.087	10283.02
436.294	10272.78
436.501	10047.51
436.708	10270.73
436.915	10657.8
437.122	11016.19
437.329	10993.67
437.537	11526.14
437.743	11546.62
437.95	11350.01
438.157	11993.08
438.364	12414.96
438.571	12132.34
438.778	12408.81
438.985	13672.41
439.192	13111.27
439.399	13553.63
439.606	13121.51
439.813	13879.25
440.02	14860.23
440.227	14536.65
440.433	14501.84
440.64	14919.62
440.847	14856.14
441.054	15300.55
441.261	15978.42
441.467	16078.77
441.674	16347.06
441.881	16762.79
442.088	16846.76
442.294	16453.55
442.501	17446.82
442.708	17434.53
442.914	18194.33
443.121	18792.33
443.328	18493.33
443.534	19662.72
443.741	18999.18
443.948	18716.56
444.154	20637.55
444.361	20223.86
444.568	20264.82
444.774	20432.75
444.981	20565.87
445.187	20989.8
445.394	22142.81
445.6	21538.66
445.807	23752.51
446.013	22421.33
446.22	23154.51
446.426	24100.67
446.633	24516.4
446.839	25093.93
447.046	23590.72
447.252	25239.34
447.459	25177.9
447.665	25421.61
447.871	26498.84
448.078	27205.39
448.284	25808.67
448.491	27059.98
448.697	27819.78
448.903	28309.24
449.11	28618.49
449.316	28108.54
449.522	28434.17
449.728	28970.74
449.935	29220.59
450.141	29376.23
450.347	29996.77
450.553	28913.39
450.76	28905.2
450.966	29966.05
451.172	29720.29
451.378	30639.83
451.584	30080.74
451.791	30830.29
451.997	30392.03
452.203	31022.8
452.409	31190.73
452.615	30703.32
452.821	30031.58
453.027	29691.62
453.233	31090.38
453.44	29597.42
453.646	30025.44
453.852	30295.77
454.058	30834.39
454.264	29638.37
454.47	30537.43
454.676	29224.68
454.882	30564.06
455.088	27520.77
455.294	28292.86
455.5	28864.24
455.705	28733.17
455.911	27688.71
456.117	27225.87
456.323	26892.05
456.529	25376.55
456.735	26459.93
456.941	25663.27
457.147	25202.47
457.352	24420.15
457.558	24282.94
457.764	24479.54
457.97	24112.95
458.176	23426.89
458.381	23490.37
458.587	22333.27
458.793	22417.24
458.999	21049.19
459.204	22349.65
459.41	21925.72
459.616	20483.95
459.821	20477.81
460.027	20453.23
460.233	19881.85
460.438	19072.9
460.644	19429.25
460.85	18446.23
461.055	18233.24
461.261	18276.24
461.466	16740.27
461.672	16011.19
461.878	17510.3
462.083	16138.16
462.289	16228.28
462.494	15869.88
462.7	15083.46
462.905	14811.08
463.111	14999.49
463.316	15208.39
463.522	14837.7
463.727	14763.98
463.932	15091.65
464.138	14841.8
464.343	14866.38
464.549	14415.82
464.754	14909.38
464.959	14692.3
465.165	14272.46
465.37	13981.65
465.575	13608.92
465.781	14147.54
465.986	14421.97
466.191	14016.47
466.397	13680.6
466.602	12777.45
466.807	13228
467.012	13467.61
467.218	13070.31
467.423	13424.61
467.628	13275.1
467.833	13582.3
468.038	13391.84
468.244	12787.69
