Data from USB4F104151__22__11-05-03-572.txt Node

Date: Wed Mar 12 11:05:03 EDT 2025
User: louis
Spectrometer: USB4F10415
Trigger mode: 4
Integration Time (sec): 2.000000E-2
Scans to average: 1
Electric dark correction enabled: true
Nonlinearity correction enabled: false
Boxcar width: 0
XAxis mode: Wavelengths
Number of Pixels in Spectrum: 3648
>>>>>Begin Spectral Data<<<<<
178.204	-76.8
178.424	-76.8
178.644	-76.8
178.864	-72.7
179.084	-50.18
179.304	-11.26
179.524	33.79
179.744	17.41
179.964	50.18
180.184	27.65
180.404	31.74
180.624	-5.12
180.844	-31.74
181.064	-50.18
181.283	-9.22
181.503	-31.74
181.723	-21.5
181.943	37.89
182.163	41.98
182.383	-35.84
182.602	29.7
182.822	-21.5
183.042	17.41
183.262	-13.31
183.482	27.65
183.701	17.41
183.921	19.46
184.141	52.22
184.361	66.56
184.58	17.41
184.8	11.26
185.02	-35.84
185.239	13.31
185.459	-9.22
185.679	54.27
185.898	-17.41
186.118	66.56
186.338	-37.89
186.557	29.7
186.777	95.23
186.997	68.61
187.216	111.61
187.436	50.18
187.655	-19.46
187.875	37.89
188.095	19.46
188.314	44.03
188.534	-19.46
188.753	78.85
188.973	15.36
189.192	80.89
189.412	5.12
189.631	-13.31
189.851	-70.65
190.07	21.5
190.29	9.22
190.509	19.46
190.729	-1.02
190.948	70.65
191.168	132.09
191.387	15.36
191.607	-31.74
191.826	17.41
192.045	19.46
192.265	35.84
192.484	21.5
192.704	-1.02
192.923	9.22
193.142	103.42
193.362	50.18
193.581	107.52
193.8	35.84
194.02	29.7
194.239	52.22
194.458	13.31
194.678	-56.32
194.897	-19.46
195.116	82.94
195.335	56.32
195.555	-3.07
195.774	-35.84
195.993	82.94
196.212	99.33
196.432	-13.31
196.651	54.27
196.87	66.56
197.089	62.46
197.308	68.61
197.528	46.08
197.747	-35.84
197.966	-19.46
198.185	50.18
198.404	58.37
198.623	62.46
198.842	11.26
199.062	-1.02
199.281	76.8
199.5	5.12
199.719	78.85
199.938	44.03
200.157	27.65
200.376	48.13
200.595	74.75
200.814	41.98
201.033	-13.31
201.252	-41.98
201.471	13.31
201.69	-27.65
201.909	9.22
202.128	17.41
202.347	37.89
202.566	1.02
202.785	13.31
203.004	5.12
203.223	87.04
203.442	52.22
203.661	-7.17
203.879	35.84
204.098	46.08
204.317	-11.26
204.536	56.32
204.755	13.31
204.974	-3.07
205.193	50.18
205.411	-11.26
205.63	9.22
205.849	7.17
206.068	-76.8
206.287	-33.79
206.505	58.37
206.724	13.31
206.943	39.94
207.162	78.85
207.381	48.13
207.599	-23.55
207.818	39.94
208.037	27.65
208.255	31.74
208.474	58.37
208.693	-15.36
208.911	-33.79
209.13	29.7
209.349	23.55
209.567	-39.94
209.786	66.56
210.005	-15.36
210.223	-27.65
210.442	9.22
210.661	50.18
210.879	89.09
211.098	9.22
211.316	-13.31
211.535	23.55
211.753	-44.03
211.972	62.46
212.191	17.41
212.409	37.89
212.628	95.23
212.846	-35.84
213.065	121.85
213.283	-3.07
213.502	23.55
213.72	68.61
213.938	1.02
214.157	21.5
214.375	87.04
214.594	56.32
214.812	72.7
215.031	58.37
215.249	13.31
215.467	25.6
215.686	5.12
215.904	9.22
216.122	13.31
216.341	64.51
216.559	46.08
216.778	-46.08
216.996	35.84
217.214	17.41
217.432	54.27
217.651	84.99
217.869	3.07
218.087	-27.65
218.306	-1.02
218.524	64.51
218.742	5.12
218.96	1.02
219.179	13.31
219.397	27.65
219.615	74.75
219.833	17.41
220.051	58.37
220.27	89.09
220.488	1.02
220.706	7.17
220.924	21.5
221.142	74.75
221.36	7.17
221.578	-5.12
221.796	54.27
222.015	84.99
222.233	-39.94
222.451	13.31
222.669	3.07
222.887	33.79
223.105	52.22
223.323	-48.13
223.541	-27.65
223.759	41.98
223.977	41.98
224.195	39.94
224.413	29.7
224.631	27.65
224.849	29.7
225.067	41.98
225.285	7.17
225.503	95.23
225.721	-7.17
225.939	70.65
226.157	37.89
226.375	78.85
226.592	66.56
226.81	31.74
227.028	-39.94
227.246	121.85
227.464	62.46
227.682	21.5
227.9	31.74
228.117	50.18
228.335	60.42
228.553	44.03
228.771	9.22
228.989	48.13
229.206	52.22
229.424	3.07
229.642	-17.41
229.86	29.7
230.077	25.6
230.295	1.02
230.513	11.26
230.731	27.65
230.948	35.84
231.166	66.56
231.384	9.22
231.601	27.65
231.819	31.74
232.037	5.12
232.254	19.46
232.472	-13.31
232.689	-25.6
232.907	95.23
233.125	66.56
233.342	62.46
233.56	66.56
233.777	11.26
233.995	-1.02
234.213	15.36
234.43	-35.84
234.648	-29.7
234.865	13.31
235.083	87.04
235.3	7.17
235.518	58.37
235.735	54.27
235.953	-23.55
236.17	-7.17
236.388	5.12
236.605	35.84
236.822	48.13
237.04	66.56
237.257	31.74
237.475	11.26
237.692	117.76
237.909	-37.89
238.127	17.41
238.344	117.76
238.562	62.46
238.779	-7.17
238.996	9.22
239.214	23.55
239.431	23.55
239.648	-39.94
239.865	68.61
240.083	50.18
240.3	9.22
240.517	-21.5
240.735	-33.79
240.952	1.02
241.169	37.89
241.386	1.02
241.603	25.6
241.821	13.31
242.038	70.65
242.255	23.55
242.472	54.27
242.689	35.84
242.907	21.5
243.124	-7.17
243.341	-29.7
243.558	-3.07
243.775	52.22
243.992	-27.65
244.209	68.61
244.426	80.89
244.643	17.41
244.86	33.79
245.078	27.65
245.295	-7.17
245.512	11.26
245.729	-9.22
245.946	29.7
246.163	23.55
246.38	7.17
246.597	66.56
246.814	46.08
247.031	11.26
247.248	31.74
247.464	39.94
247.681	46.08
247.898	-1.02
248.115	41.98
248.332	48.13
248.549	25.6
248.766	-44.03
248.983	23.55
249.2	72.7
249.417	60.42
249.633	17.41
249.85	19.46
250.067	107.52
250.284	52.22
250.501	23.55
250.717	66.56
250.934	-39.94
251.151	33.79
251.368	15.36
251.585	56.32
251.801	-11.26
252.018	-35.84
252.235	89.09
252.451	-19.46
252.668	1.02
252.885	-25.6
253.102	74.75
253.318	29.7
253.535	15.36
253.752	1.02
253.968	11.26
254.185	25.6
254.401	54.27
254.618	76.8
254.835	-5.12
255.051	9.22
255.268	64.51
255.484	74.75
255.701	56.32
255.917	103.42
256.134	37.89
256.351	37.89
256.567	25.6
256.784	27.65
257	13.31
257.217	58.37
257.433	29.7
257.65	56.32
257.866	9.22
258.082	11.26
258.299	23.55
258.515	-3.07
258.732	23.55
258.948	121.85
259.165	97.28
259.381	97.28
259.597	15.36
259.814	-25.6
260.03	46.08
260.246	37.89
260.463	54.27
260.679	23.55
260.895	11.26
261.112	91.13
261.328	19.46
261.544	54.27
261.761	33.79
261.977	-1.02
262.193	29.7
262.409	52.22
262.626	54.27
262.842	-23.55
263.058	-41.98
263.274	58.37
263.49	74.75
263.707	15.36
263.923	-1.02
264.139	33.79
264.355	15.36
264.571	103.42
264.787	25.6
265.004	62.46
265.22	-27.65
265.436	35.84
265.652	44.03
265.868	50.18
266.084	93.18
266.3	19.46
266.516	-7.17
266.732	-21.5
266.948	62.46
267.164	23.55
267.38	89.09
267.596	13.31
267.812	64.51
268.028	25.6
268.244	21.5
268.46	93.18
268.676	78.85
268.892	87.04
269.108	-1.02
269.324	-48.13
269.54	-58.37
269.756	29.7
269.972	103.42
270.188	80.89
270.403	54.27
270.619	13.31
270.835	70.65
271.051	70.65
271.267	1.02
271.483	13.31
271.698	21.5
271.914	72.7
272.13	17.41
272.346	19.46
272.562	25.6
272.777	19.46
272.993	-15.36
273.209	27.65
273.425	54.27
273.64	-27.65
273.856	-52.22
274.072	7.17
274.287	31.74
274.503	64.51
274.719	-19.46
274.934	3.07
275.15	-70.65
275.366	35.84
275.581	50.18
275.797	80.89
276.012	-27.65
276.228	117.76
276.444	48.13
276.659	109.57
276.875	-15.36
277.09	58.37
277.306	-19.46
277.521	82.94
277.737	29.7
277.952	80.89
278.168	5.12
278.383	9.22
278.599	107.52
278.814	31.74
279.03	99.33
279.245	13.31
279.461	-3.07
279.676	7.17
279.892	-25.6
280.107	56.32
280.322	7.17
280.538	54.27
280.753	-31.74
280.969	91.13
281.184	-3.07
281.399	52.22
281.615	37.89
281.83	-7.17
282.045	-33.79
282.26	31.74
282.476	7.17
282.691	82.94
282.906	78.85
283.122	-19.46
283.337	9.22
283.552	44.03
283.767	50.18
283.983	60.42
284.198	21.5
284.413	52.22
284.628	5.12
284.843	9.22
285.058	58.37
285.274	62.46
285.489	13.31
285.704	19.46
285.919	46.08
286.134	54.27
286.349	54.27
286.564	21.5
286.779	76.8
286.995	29.7
287.21	41.98
287.425	64.51
287.64	5.12
287.855	21.5
288.07	-19.46
288.285	27.65
288.5	105.47
288.715	-15.36
288.93	64.51
289.145	-25.6
289.36	50.18
289.575	33.79
289.79	56.32
290.004	39.94
290.219	39.94
290.434	25.6
290.649	29.7
290.864	1.02
291.079	7.17
291.294	91.13
291.509	9.22
291.724	70.65
291.938	39.94
292.153	74.75
292.368	109.57
292.583	46.08
292.798	76.8
293.012	89.09
293.227	-35.84
293.442	-29.7
293.657	3.07
293.871	113.66
294.086	15.36
294.301	87.04
294.516	31.74
294.73	72.7
294.945	13.31
295.16	-23.55
295.374	82.94
295.589	60.42
295.804	1.02
296.018	-46.08
296.233	39.94
296.447	15.36
296.662	-21.5
296.877	23.55
297.091	70.65
297.306	44.03
297.52	60.42
297.735	27.65
297.949	5.12
298.164	52.22
298.378	-29.7
298.593	109.57
298.807	-23.55
299.022	33.79
299.236	82.94
299.451	11.26
299.665	5.12
299.88	7.17
300.094	54.27
300.309	84.99
300.523	7.17
300.737	58.37
300.952	29.7
301.166	41.98
301.381	39.94
301.595	21.5
301.809	62.46
302.024	-11.26
302.238	27.65
302.452	78.85
302.667	48.13
302.881	117.76
303.095	154.62
303.309	82.94
303.524	1.02
303.738	-19.46
303.952	87.04
304.166	70.65
304.381	-31.74
304.595	21.5
304.809	17.41
305.023	27.65
305.237	-21.5
305.452	33.79
305.666	-23.55
305.88	48.13
306.094	82.94
306.308	66.56
306.522	33.79
306.736	7.17
306.95	123.9
307.164	48.13
307.379	29.7
307.593	58.37
307.807	70.65
308.021	29.7
308.235	58.37
308.449	-41.98
308.663	82.94
308.877	68.61
309.091	9.22
309.305	64.51
309.519	-1.02
309.733	35.84
309.947	46.08
310.161	13.31
310.374	27.65
310.588	11.26
310.802	-3.07
311.016	-29.7
311.23	21.5
311.444	17.41
311.658	-17.41
311.872	64.51
312.085	-15.36
312.299	103.42
312.513	33.79
312.727	33.79
312.941	-58.37
313.154	-11.26
313.368	11.26
313.582	5.12
313.796	56.32
314.009	-19.46
314.223	80.89
314.437	97.28
314.651	-7.17
314.864	70.65
315.078	13.31
315.292	25.6
315.505	-11.26
315.719	11.26
315.933	103.42
316.146	21.5
316.36	1.02
316.573	115.71
316.787	25.6
317.001	27.65
317.214	-48.13
317.428	13.31
317.641	-13.31
317.855	103.42
318.068	58.37
318.282	31.74
318.495	64.51
318.709	-3.07
318.922	15.36
319.136	-5.12
319.349	87.04
319.563	1.02
319.776	101.37
319.99	52.22
320.203	87.04
320.417	123.9
320.63	64.51
320.843	103.42
321.057	21.5
321.27	41.98
321.483	56.32
321.697	46.08
321.91	5.12
322.124	91.13
322.337	11.26
322.55	93.18
322.763	91.13
322.977	-19.46
323.19	48.13
323.403	33.79
323.617	64.51
323.83	99.33
324.043	-11.26
324.256	68.61
324.469	35.84
324.683	-23.55
324.896	48.13
325.109	13.31
325.322	25.6
325.535	62.46
325.748	68.61
325.962	76.8
326.175	44.03
326.388	52.22
326.601	54.27
326.814	27.65
327.027	7.17
327.24	39.94
327.453	-27.65
327.666	115.71
327.879	111.61
328.092	119.81
328.305	15.36
328.518	21.5
328.731	-7.17
328.944	99.33
329.157	58.37
329.37	31.74
329.583	101.37
329.796	1.02
330.009	-11.26
330.222	132.09
330.435	46.08
330.648	21.5
330.861	-15.36
331.073	44.03
331.286	50.18
331.499	50.18
331.712	-29.7
331.925	44.03
332.138	23.55
332.35	5.12
332.563	1.02
332.776	23.55
332.989	78.85
333.202	-54.27
333.414	64.51
333.627	89.09
333.84	-21.5
334.053	103.42
334.265	-15.36
334.478	11.26
334.691	78.85
334.903	89.09
335.116	1.02
335.329	101.37
335.541	76.8
335.754	62.46
335.966	-17.41
336.179	50.18
336.392	19.46
336.604	48.13
336.817	31.74
337.029	41.98
337.242	113.66
337.454	23.55
337.667	21.5
337.88	31.74
338.092	-54.27
338.305	37.89
338.517	39.94
338.729	3.07
338.942	128
339.154	11.26
339.367	17.41
339.579	19.46
339.792	21.5
340.004	-11.26
340.217	82.94
340.429	60.42
340.641	33.79
340.854	138.24
341.066	70.65
341.278	1.02
341.491	62.46
341.703	140.29
341.915	-33.79
342.128	17.41
342.34	25.6
342.552	111.61
342.764	-11.26
342.977	46.08
343.189	80.89
343.401	97.28
343.613	-41.98
343.826	1.02
344.038	-64.51
344.25	70.65
344.462	78.85
344.674	99.33
344.886	41.98
345.099	31.74
345.311	-7.17
345.523	78.85
345.735	9.22
345.947	41.98
346.159	60.42
346.371	58.37
346.583	35.84
346.795	56.32
347.007	-11.26
347.219	5.12
347.431	-23.55
347.643	78.85
347.855	91.13
348.067	74.75
348.279	25.6
348.491	3.07
348.703	56.32
348.915	23.55
349.127	15.36
349.339	54.27
349.551	15.36
349.763	37.89
349.975	15.36
350.187	23.55
350.399	74.75
350.61	13.31
350.822	130.05
351.034	48.13
351.246	31.74
351.458	48.13
351.669	33.79
351.881	93.18
352.093	23.55
352.305	27.65
352.517	29.7
352.728	27.65
352.94	97.28
353.152	52.22
353.363	54.27
353.575	13.31
353.787	58.37
353.999	52.22
354.21	66.56
354.422	50.18
354.633	58.37
354.845	13.31
355.057	111.61
355.268	62.46
355.48	82.94
355.692	19.46
355.903	29.7
356.115	-1.02
356.326	1.02
356.538	50.18
356.749	93.18
356.961	15.36
357.172	70.65
357.384	-13.31
357.595	82.94
357.807	62.46
358.018	87.04
358.23	31.74
358.441	41.98
358.653	74.75
358.864	17.41
359.075	33.79
359.287	13.31
359.498	107.52
359.709	82.94
359.921	80.89
360.132	39.94
360.344	9.22
360.555	60.42
360.766	5.12
360.977	80.89
361.189	93.18
361.4	66.56
361.611	142.33
361.823	84.99
362.034	93.18
362.245	115.71
362.456	54.27
362.667	68.61
362.879	11.26
363.09	128
363.301	-25.6
363.512	105.47
363.723	-56.32
363.935	39.94
364.146	107.52
364.357	39.94
364.568	107.52
364.779	33.79
364.99	115.71
365.201	-9.22
365.412	21.5
365.623	-35.84
365.834	91.13
366.045	95.23
366.256	142.33
366.467	27.65
366.678	64.51
366.889	-19.46
367.1	82.94
367.311	31.74
367.522	84.99
367.733	1.02
367.944	54.27
368.155	46.08
368.366	82.94
368.577	39.94
368.788	68.61
368.999	82.94
369.209	66.56
369.42	80.89
369.631	15.36
369.842	64.51
370.053	50.18
370.264	3.07
370.474	64.51
370.685	62.46
370.896	78.85
371.107	82.94
371.317	56.32
371.528	17.41
371.739	93.18
371.95	89.09
372.16	72.7
372.371	54.27
372.582	15.36
372.792	39.94
373.003	74.75
373.214	68.61
373.424	37.89
373.635	29.7
373.846	123.9
374.056	66.56
374.267	54.27
374.477	-23.55
374.688	9.22
374.898	11.26
375.109	111.61
375.319	99.33
375.53	3.07
375.74	44.03
375.951	39.94
376.161	9.22
376.372	-1.02
376.582	50.18
376.793	82.94
377.003	27.65
377.214	91.13
377.424	99.33
377.635	1.02
377.845	74.75
378.055	41.98
378.266	-48.13
378.476	89.09
378.686	103.42
378.897	95.23
379.107	66.56
379.317	15.36
379.528	46.08
379.738	74.75
379.948	9.22
380.158	23.55
380.369	21.5
380.579	99.33
380.789	23.55
380.999	111.61
381.21	54.27
381.42	44.03
381.63	48.13
381.84	74.75
382.05	76.8
382.261	91.13
382.471	103.42
382.681	-15.36
382.891	72.7
383.101	123.9
383.311	33.79
383.521	5.12
383.731	25.6
383.941	56.32
384.151	107.52
384.361	39.94
384.571	23.55
384.781	99.33
384.991	80.89
385.201	101.37
385.411	37.89
385.621	119.81
385.831	50.18
386.041	101.37
386.251	62.46
386.461	87.04
386.671	23.55
386.881	39.94
387.091	3.07
387.301	31.74
387.511	-9.22
387.72	95.23
387.93	-3.07
388.14	9.22
388.35	41.98
388.56	66.56
388.769	62.46
388.979	117.76
389.189	39.94
389.399	78.85
389.609	35.84
389.818	80.89
390.028	70.65
390.238	82.94
390.447	66.56
390.657	50.18
390.867	-13.31
391.076	68.61
391.286	191.49
391.496	99.33
391.705	-15.36
391.915	35.84
392.125	84.99
392.334	-11.26
392.544	99.33
392.753	58.37
392.963	9.22
393.172	46.08
393.382	25.6
393.591	146.43
393.801	25.6
394.01	74.75
394.22	50.18
394.429	33.79
394.639	-41.98
394.848	74.75
395.058	97.28
395.267	44.03
395.477	39.94
395.686	136.19
395.895	138.24
396.105	142.33
396.314	119.81
396.524	123.9
396.733	66.56
396.942	52.22
397.152	66.56
397.361	121.85
397.57	23.55
397.78	93.18
397.989	99.33
398.198	93.18
398.407	52.22
398.617	78.85
398.826	70.65
399.035	80.89
399.244	132.09
399.453	87.04
399.663	56.32
399.872	111.61
400.081	70.65
400.29	111.61
400.499	35.84
400.708	91.13
400.917	160.77
401.127	89.09
401.336	109.57
401.545	207.87
401.754	99.33
401.963	87.04
402.172	103.42
402.381	113.66
402.59	105.47
402.799	121.85
403.008	119.81
403.217	160.77
403.426	144.38
403.635	117.76
403.844	64.51
404.053	168.96
404.262	164.86
404.471	140.29
404.68	82.94
404.888	152.57
405.097	154.62
405.306	175.1
405.515	113.66
405.724	205.82
405.933	179.2
406.142	181.25
406.35	99.33
406.559	162.81
406.768	146.43
406.977	226.3
407.185	154.62
407.394	197.63
407.603	189.44
407.812	91.13
408.02	193.53
408.229	254.97
408.438	203.77
408.646	214.01
408.855	216.06
409.064	277.5
409.272	187.39
409.481	193.53
409.69	205.82
409.898	242.68
410.107	302.08
410.315	295.93
410.524	334.84
410.733	353.27
410.941	269.31
411.15	314.36
411.358	312.32
411.567	269.31
411.775	347.13
411.984	416.76
412.192	357.37
412.401	418.81
412.609	416.76
412.818	457.72
413.026	435.19
413.234	416.76
413.443	445.43
413.651	478.2
413.86	381.95
414.068	551.93
414.276	588.79
414.485	521.21
414.693	625.65
414.901	623.61
415.11	617.46
415.318	539.64
415.526	660.47
415.734	629.75
415.943	730.1
416.151	777.2
416.359	758.77
416.567	785.4
416.776	738.29
416.984	812.02
417.192	934.9
417.4	973.81
417.608	842.74
417.817	867.31
418.025	1000.43
418.233	1080.3
418.441	1041.39
418.649	1049.58
418.857	1096.69
419.065	1178.61
419.273	1147.89
419.481	1211.37
419.689	1262.57
419.897	1338.35
420.105	1356.78
420.313	1342.44
420.521	1393.64
420.729	1387.5
420.937	1506.28
421.145	1588.2
421.353	1659.88
421.561	1762.28
421.769	1749.99
421.977	1872.87
422.185	1651.69
422.393	1991.65
422.601	2061.28
422.809	1956.83
423.017	2022.37
423.224	2053.09
423.432	2143.2
423.64	2171.87
423.848	2343.9
424.056	2376.67
424.263	2538.46
424.471	2466.78
424.679	2520.03
424.887	2763.73
425.094	2747.35
425.302	2898.9
425.51	2814.93
425.718	2976.72
425.925	3003.35
426.133	3036.11
426.341	3259.34
426.548	3427.28
426.756	3423.18
426.964	3441.61
427.171	3670.98
427.379	3867.59
427.586	3883.97
427.794	4096.96
428.001	4195.26
428.209	4350.91
428.417	4258.75
428.624	4699.06
428.832	4572.09
429.039	4365.25
429.247	4647.87
429.454	4944.82
429.662	5460.91
429.869	5049.27
430.076	5333.93
430.284	5440.43
430.491	5295.02
430.699	5858.21
430.906	5725.1
431.114	5813.16
431.321	6007.72
431.528	6151.07
431.736	6570.91
431.943	6935.45
432.15	6718.36
432.358	6620.06
432.565	7144.34
432.772	7146.39
432.979	7410.57
433.187	7615.37
433.394	7590.8
433.601	8172.42
433.808	8145.8
434.016	8194.95
434.223	8534.91
434.43	8797.05
434.637	8803.19
434.844	9380.72
435.052	9593.71
435.259	9288.56
435.466	9655.15
435.673	9386.86
435.88	9956.2
436.087	10668.89
436.294	10822.49
436.501	10398.56
436.708	10543.97
436.915	10902.36
437.122	11535.18
437.329	11524.94
437.537	11651.92
437.743	11965.26
437.95	11852.62
438.157	12526.4
438.364	12886.84
438.571	13083.45
438.778	12731.2
438.985	14181.16
439.192	13808.43
439.399	14068.52
439.606	14002.99
439.813	14375.72
440.02	15395.61
440.227	15078.17
440.433	14787.36
440.64	15491.86
440.847	15459.09
441.054	15895.31
441.261	16812.8
441.467	16595.71
441.674	17130.23
441.881	17761.01
442.088	17457.91
442.294	17537.78
442.501	17767.15
442.708	18078.44
442.914	19118.81
443.121	19825.36
443.328	19159.77
443.534	20417.22
443.741	20282.06
443.948	19956.43
444.154	21080.77
444.361	21097.15
444.568	21566.13
444.774	21310.14
444.981	21748.4
445.187	21971.63
445.394	22911.65
445.6	22858.4
445.807	24564.36
446.013	23657.11
446.22	24380.04
446.426	25031.3
446.633	25340.54
446.839	26374.77
447.046	25156.22
447.252	26471.02
447.459	26421.87
447.665	26354.29
447.871	27675.23
448.078	28756.55
448.284	27142.75
448.491	27855.45
448.697	29178.43
448.903	29809.21
449.11	29774.39
449.316	28904.01
449.522	29479.49
449.728	30380.59
449.935	30648.88
450.141	30609.96
450.347	31126.05
450.553	30419.5
450.76	30757.42
450.966	31668.76
451.172	31146.53
451.378	31590.94
451.584	31164.96
451.791	31961.62
451.997	31853.08
452.203	32180.76
452.409	32219.67
452.615	31865.37
452.821	30859.82
453.027	30556.72
453.233	32236.05
453.44	30726.7
453.646	31156.77
453.852	31230.5
454.058	31828.51
454.264	30679.6
454.47	31175.2
454.676	30632.49
454.882	31126.05
455.088	28725.83
455.294	28983.88
455.5	29438.53
455.705	29878.84
455.911	28197.46
456.117	27970.13
456.323	27204.19
456.529	25893.49
456.735	27019.88
456.941	26235.5
457.147	26061.43
457.352	25125.5
457.558	24826.5
457.764	24799.88
457.97	24515.21
458.176	23587.48
458.381	23693.97
458.587	22817.44
458.793	22631.08
458.999	21365.43
459.204	23194.27
459.41	21949.11
459.616	20761.28
459.821	20789.95
460.027	20669.12
460.233	20071.12
460.438	19092.19
460.644	19432.15
460.85	18701.03
461.055	18598.63
461.261	18414.31
461.466	16954.11
461.672	16571.14
461.878	17539.83
462.083	16323.33
462.289	16081.67
462.494	15825.68
462.7	15235.86
462.905	14791.45
463.111	15565.59
463.316	15407.89
463.522	15377.17
463.727	15244.06
463.932	15096.6
464.138	14916.38
464.343	15176.47
464.549	14631.71
464.754	15053.59
464.959	15199
465.165	14652.19
465.37	14369.57
465.575	13943.6
465.781	14304.04
465.986	14277.41
466.191	13978.41
466.397	13890.35
466.602	13091.64
466.807	13798.19
467.012	13734.7
467.218	13708.08
467.423	13218.61
467.628	13695.79
467.833	13974.31
468.038	13482.8
