Data from USB4F104151__279__11-12-49-942.txt Node

Date: Wed Mar 12 11:12:49 EDT 2025
User: louis
Spectrometer: USB4F10415
Trigger mode: 4
Integration Time (sec): 2.000000E-2
Scans to average: 1
Electric dark correction enabled: true
Nonlinearity correction enabled: false
Boxcar width: 0
XAxis mode: Wavelengths
Number of Pixels in Spectrum: 3648
>>>>>Begin Spectral Data<<<<<
178.204	-36.69
178.424	-36.69
178.644	-36.69
178.864	-102.23
179.084	-57.17
179.304	-26.45
179.524	47.27
179.744	-42.84
179.964	34.99
180.184	30.89
180.404	-12.12
180.624	-5.97
180.844	39.08
181.064	-26.45
181.283	-32.6
181.503	-10.07
181.723	4.27
181.943	-28.5
182.163	82.09
182.383	30.89
182.602	-73.56
182.822	8.36
183.042	-30.55
183.262	49.32
183.482	43.18
183.701	-20.31
183.921	57.51
184.141	49.32
184.361	75.95
184.58	32.94
184.8	53.42
185.02	22.7
185.239	43.18
185.459	-8.02
185.679	30.89
185.898	41.13
186.118	84.14
186.338	-14.17
186.557	39.08
186.777	-1.88
186.997	112.81
187.216	20.65
187.436	32.94
187.655	-12.12
187.875	45.23
188.095	-5.97
188.314	55.47
188.534	100.52
188.753	75.95
188.973	59.56
189.192	98.47
189.412	22.7
189.631	-8.02
189.851	39.08
190.07	26.79
190.29	-81.75
190.509	90.28
190.729	-5.97
190.948	61.61
191.168	141.48
191.387	37.03
191.607	12.46
191.826	49.32
192.045	-26.45
192.265	-14.17
192.484	6.31
192.704	-20.31
192.923	37.03
193.142	43.18
193.362	34.99
193.581	2.22
193.8	12.46
194.02	45.23
194.239	61.61
194.458	28.84
194.678	-3.93
194.897	-18.26
195.116	100.52
195.335	84.14
195.555	-24.4
195.774	32.94
195.993	24.75
196.212	20.65
196.432	22.7
196.651	39.08
196.87	8.36
197.089	100.52
197.308	6.31
197.528	28.84
197.747	22.7
197.966	-1.88
198.185	61.61
198.404	32.94
198.623	34.99
198.842	18.6
199.062	65.71
199.281	59.56
199.5	-34.64
199.719	-26.45
199.938	100.52
200.157	92.33
200.376	24.75
200.595	77.99
200.814	69.8
201.033	-36.69
201.252	47.27
201.471	10.41
201.69	-10.07
201.909	14.51
202.128	26.79
202.347	16.55
202.566	-18.26
202.785	41.13
203.004	71.85
203.223	-12.12
203.442	137.38
203.661	-46.93
203.879	63.66
204.098	61.61
204.317	24.75
204.536	-32.6
204.755	32.94
204.974	118.95
205.193	-10.07
205.411	49.32
205.63	84.14
205.849	55.47
206.068	47.27
206.287	22.7
206.505	61.61
206.724	63.66
206.943	30.89
207.162	55.47
207.381	34.99
207.599	41.13
207.818	-1.88
208.037	37.03
208.255	63.66
208.474	28.84
208.693	4.27
208.911	114.86
209.13	51.37
209.349	73.9
209.567	63.66
209.786	18.6
210.005	51.37
210.223	-65.36
210.442	16.55
210.661	51.37
210.879	41.13
211.098	69.8
211.316	-3.93
211.535	12.46
211.753	-1.88
211.972	-14.17
212.191	6.31
212.409	61.61
212.628	10.41
212.846	69.8
213.065	45.23
213.283	32.94
213.502	30.89
213.72	143.53
213.938	20.65
214.157	-14.17
214.375	10.41
214.594	26.79
214.812	49.32
215.031	77.99
215.249	55.47
215.467	20.65
215.686	71.85
215.904	-12.12
216.122	16.55
216.341	96.43
216.559	65.71
216.778	149.67
216.996	32.94
217.214	51.37
217.432	51.37
217.651	22.7
217.869	-18.26
218.087	80.04
218.306	47.27
218.524	92.33
218.742	-46.93
218.96	24.75
219.179	-16.21
219.397	-12.12
219.615	45.23
219.833	18.6
220.051	-14.17
220.27	84.14
220.488	28.84
220.706	34.99
220.924	-10.07
221.142	-14.17
221.36	57.51
221.578	43.18
221.796	45.23
222.015	67.75
222.233	51.37
222.451	47.27
222.669	6.31
222.887	80.04
223.105	47.27
223.323	30.89
223.541	0.17
223.759	34.99
223.977	92.33
224.195	96.43
224.413	26.79
224.631	118.95
224.849	-1.88
225.067	-5.97
225.285	80.04
225.503	-38.74
225.721	-12.12
225.939	77.99
226.157	4.27
226.375	63.66
226.592	-59.22
226.81	-26.45
227.028	47.27
227.246	96.43
227.464	116.9
227.682	30.89
227.9	61.61
228.117	10.41
228.335	49.32
228.553	24.75
228.771	57.51
228.989	20.65
229.206	69.8
229.424	10.41
229.642	10.41
229.86	96.43
230.077	114.86
230.295	34.99
230.513	69.8
230.731	84.14
230.948	94.38
231.166	18.6
231.384	39.08
231.601	16.55
231.819	75.95
232.037	41.13
232.254	14.51
232.472	18.6
232.689	51.37
232.907	65.71
233.125	45.23
233.342	82.09
233.56	6.31
233.777	53.42
233.995	-22.36
234.213	24.75
234.43	28.84
234.648	55.47
234.865	12.46
235.083	63.66
235.3	-12.12
235.518	0.17
235.735	28.84
235.953	-18.26
236.17	90.28
236.388	77.99
236.605	71.85
236.822	0.17
237.04	43.18
237.257	-1.88
237.475	24.75
237.692	57.51
237.909	32.94
238.127	30.89
238.344	61.61
238.562	57.51
238.779	67.75
238.996	22.7
239.214	51.37
239.431	53.42
239.648	18.6
239.865	51.37
240.083	-42.84
240.3	34.99
240.517	28.84
240.735	-3.93
240.952	43.18
241.169	96.43
241.386	71.85
241.603	45.23
241.821	-1.88
242.038	41.13
242.255	30.89
242.472	-112.47
242.689	6.31
242.907	43.18
243.124	14.51
243.341	26.79
243.558	12.46
243.775	37.03
243.992	14.51
244.209	69.8
244.426	77.99
244.643	39.08
244.86	34.99
245.078	69.8
245.295	63.66
245.512	47.27
245.729	-5.97
245.946	84.14
246.163	-12.12
246.38	125.1
246.597	18.6
246.814	55.47
247.031	-36.69
247.248	8.36
247.464	104.62
247.681	10.41
247.898	26.79
248.115	8.36
248.332	94.38
248.549	16.55
248.766	41.13
248.983	-18.26
249.2	71.85
249.417	75.95
249.633	-32.6
249.85	110.76
250.067	30.89
250.284	16.55
250.501	61.61
250.717	14.51
250.934	-34.64
251.151	75.95
251.368	22.7
251.585	53.42
251.801	75.95
252.018	24.75
252.235	43.18
252.451	34.99
252.668	-10.07
252.885	2.22
253.102	43.18
253.318	37.03
253.535	55.47
253.752	-42.84
253.968	18.6
254.185	-32.6
254.401	-30.55
254.618	47.27
254.835	47.27
255.051	121
255.268	63.66
255.484	59.56
255.701	34.99
255.917	30.89
256.134	39.08
256.351	129.19
256.567	55.47
256.784	67.75
257	65.71
257.217	59.56
257.433	71.85
257.65	41.13
257.866	43.18
258.082	-30.55
258.299	59.56
258.515	106.67
258.732	80.04
258.948	45.23
259.165	98.47
259.381	98.47
259.597	34.99
259.814	8.36
260.03	-26.45
260.246	26.79
260.463	51.37
260.679	14.51
260.895	110.76
261.112	63.66
261.328	-22.36
261.544	16.55
261.761	121
261.977	4.27
262.193	-5.97
262.409	61.61
262.626	80.04
262.842	75.95
263.058	24.75
263.274	100.52
263.49	168.1
263.707	26.79
263.923	22.7
264.139	-14.17
264.355	118.95
264.571	55.47
264.787	30.89
265.004	20.65
265.22	-12.12
265.436	6.31
265.652	-20.31
265.868	106.67
266.084	32.94
266.3	32.94
266.516	-26.45
266.732	8.36
266.948	73.9
267.164	30.89
267.38	24.75
267.596	84.14
267.812	67.75
268.028	67.75
268.244	61.61
268.46	37.03
268.676	45.23
268.892	69.8
269.108	32.94
269.324	2.22
269.54	37.03
269.756	71.85
269.972	43.18
270.188	71.85
270.403	67.75
270.619	30.89
270.835	41.13
271.051	2.22
271.267	53.42
271.483	108.71
271.698	59.56
271.914	12.46
272.13	20.65
272.346	47.27
272.562	-36.69
272.777	100.52
272.993	41.13
273.209	49.32
273.425	63.66
273.64	-5.97
273.856	-3.93
274.072	-69.46
274.287	94.38
274.503	55.47
274.719	88.23
274.934	135.34
275.15	63.66
275.366	12.46
275.581	71.85
275.797	43.18
276.012	47.27
276.228	45.23
276.444	75.95
276.659	108.71
276.875	-10.07
277.09	12.46
277.306	71.85
277.521	49.32
277.737	34.99
277.952	67.75
278.168	43.18
278.383	94.38
278.599	6.31
278.814	26.79
279.03	22.7
279.245	16.55
279.461	12.46
279.676	45.23
279.892	-3.93
280.107	39.08
280.322	47.27
280.538	55.47
280.753	37.03
280.969	63.66
281.184	26.79
281.399	96.43
281.615	-3.93
281.83	61.61
282.045	57.51
282.26	-3.93
282.476	26.79
282.691	57.51
282.906	-10.07
283.122	65.71
283.337	39.08
283.552	39.08
283.767	14.51
283.983	47.27
284.198	59.56
284.413	88.23
284.628	-42.84
284.843	41.13
285.058	69.8
285.274	-10.07
285.489	-1.88
285.704	63.66
285.919	-48.98
286.134	16.55
286.349	-16.21
286.564	26.79
286.779	45.23
286.995	-18.26
287.21	34.99
287.425	47.27
287.64	-14.17
287.855	-30.55
288.07	0.17
288.285	123.05
288.5	127.14
288.715	28.84
288.93	14.51
289.145	34.99
289.36	49.32
289.575	55.47
289.79	71.85
290.004	73.9
290.219	22.7
290.434	30.89
290.649	-36.69
290.864	37.03
291.079	41.13
291.294	116.9
291.509	49.32
291.724	8.36
291.938	41.13
292.153	37.03
292.368	30.89
292.583	53.42
292.798	26.79
293.012	55.47
293.227	139.43
293.442	18.6
293.657	69.8
293.871	47.27
294.086	-12.12
294.301	-3.93
294.516	32.94
294.73	61.61
294.945	22.7
295.16	57.51
295.374	34.99
295.589	30.89
295.804	71.85
296.018	16.55
296.233	82.09
296.447	-8.02
296.662	73.9
296.877	53.42
297.091	45.23
297.306	41.13
297.52	20.65
297.735	65.71
297.949	10.41
298.164	55.47
298.378	20.65
298.593	92.33
298.807	108.71
299.022	57.51
299.236	127.14
299.451	51.37
299.665	84.14
299.88	53.42
300.094	57.51
300.309	61.61
300.523	51.37
300.737	84.14
300.952	-8.02
301.166	-38.74
301.381	59.56
301.595	94.38
301.809	-1.88
302.024	14.51
302.238	84.14
302.452	67.75
302.667	14.51
302.881	39.08
303.095	47.27
303.309	94.38
303.524	63.66
303.738	-3.93
303.952	24.75
304.166	16.55
304.381	51.37
304.595	43.18
304.809	121
305.023	57.51
305.237	51.37
305.452	22.7
305.666	55.47
305.88	43.18
306.094	32.94
306.308	43.18
306.522	92.33
306.736	4.27
306.95	100.52
307.164	71.85
307.379	41.13
307.593	110.76
307.807	96.43
308.021	43.18
308.235	51.37
308.449	55.47
308.663	67.75
308.877	121
309.091	149.67
309.305	145.58
309.519	65.71
309.733	43.18
309.947	71.85
310.161	24.75
310.374	32.94
310.588	63.66
310.802	41.13
311.016	10.41
311.23	63.66
311.444	18.6
311.658	100.52
311.872	63.66
312.085	88.23
312.299	-1.88
312.513	98.47
312.727	57.51
312.941	-36.69
313.154	57.51
313.368	94.38
313.582	-16.21
313.796	59.56
314.009	47.27
314.223	75.95
314.437	2.22
314.651	34.99
314.864	26.79
315.078	106.67
315.292	94.38
315.505	30.89
315.719	112.81
315.933	77.99
316.146	34.99
316.36	-14.17
316.573	18.6
316.787	47.27
317.001	86.19
317.214	53.42
317.428	24.75
317.641	43.18
317.855	18.6
318.068	67.75
318.282	118.95
318.495	125.1
318.709	43.18
318.922	10.41
319.136	59.56
319.349	75.95
319.563	32.94
319.776	28.84
319.99	20.65
320.203	0.17
320.417	34.99
320.63	59.56
320.843	37.03
321.057	47.27
321.27	47.27
321.483	71.85
321.697	145.58
321.91	30.89
322.124	75.95
322.337	65.71
322.55	41.13
322.763	16.55
322.977	49.32
323.19	28.84
323.403	114.86
323.617	34.99
323.83	92.33
324.043	-10.07
324.256	90.28
324.469	14.51
324.683	131.24
324.896	51.37
325.109	69.8
325.322	28.84
325.535	63.66
325.748	98.47
325.962	61.61
326.175	80.04
326.388	-18.26
326.601	129.19
326.814	2.22
327.027	102.57
327.24	116.9
327.453	69.8
327.666	53.42
327.879	67.75
328.092	75.95
328.305	80.04
328.518	75.95
328.731	55.47
328.944	2.22
329.157	-1.88
329.37	-28.5
329.583	84.14
329.796	41.13
330.009	59.56
330.222	-3.93
330.435	49.32
330.648	47.27
330.861	14.51
331.073	24.75
331.286	67.75
331.499	114.86
331.712	20.65
331.925	84.14
332.138	12.46
332.35	86.19
332.563	0.17
332.776	47.27
332.989	20.65
333.202	16.55
333.414	34.99
333.627	92.33
333.84	47.27
334.053	8.36
334.265	47.27
334.478	18.6
334.691	149.67
334.903	110.76
335.116	45.23
335.329	57.51
335.541	34.99
335.754	98.47
335.966	49.32
336.179	47.27
336.392	10.41
336.604	14.51
336.817	53.42
337.029	8.36
337.242	37.03
337.454	43.18
337.667	51.37
337.88	22.7
338.092	6.31
338.305	80.04
338.517	106.67
338.729	63.66
338.942	45.23
339.154	-20.31
339.367	-3.93
339.579	112.81
339.792	-5.97
340.004	90.28
340.217	-14.17
340.429	49.32
340.641	-42.84
340.854	6.31
341.066	14.51
341.278	104.62
341.491	12.46
341.703	8.36
341.915	24.75
342.128	157.86
342.34	30.89
342.552	6.31
342.764	28.84
342.977	80.04
343.189	47.27
343.401	104.62
343.613	73.9
343.826	30.89
344.038	28.84
344.25	30.89
344.462	-3.93
344.674	90.28
344.886	51.37
345.099	92.33
345.311	57.51
345.523	135.34
345.735	6.31
345.947	12.46
346.159	16.55
346.371	41.13
346.583	6.31
346.795	100.52
347.007	112.81
347.219	71.85
347.431	45.23
347.643	43.18
347.855	65.71
348.067	104.62
348.279	90.28
348.491	114.86
348.703	28.84
348.915	26.79
349.127	51.37
349.339	88.23
349.551	28.84
349.763	30.89
349.975	43.18
350.187	147.62
350.399	112.81
350.61	92.33
350.822	55.47
351.034	96.43
351.246	32.94
351.458	106.67
351.669	16.55
351.881	100.52
352.093	94.38
352.305	100.52
352.517	53.42
352.728	75.95
352.94	84.14
353.152	2.22
353.363	80.04
353.575	112.81
353.787	55.47
353.999	86.19
354.21	94.38
354.422	65.71
354.633	75.95
354.845	84.14
355.057	45.23
355.268	104.62
355.48	65.71
355.692	80.04
355.903	16.55
356.115	100.52
356.326	-1.88
356.538	71.85
356.749	6.31
356.961	94.38
357.172	8.36
357.384	90.28
357.595	80.04
357.807	88.23
358.018	51.37
358.23	32.94
358.441	34.99
358.653	127.14
358.864	63.66
359.075	30.89
359.287	125.1
359.498	51.37
359.709	41.13
359.921	137.38
360.132	22.7
360.344	51.37
360.555	88.23
360.766	133.29
360.977	84.14
361.189	59.56
361.4	61.61
361.611	90.28
361.823	86.19
362.034	166.06
362.245	-1.88
362.456	0.17
362.667	110.76
362.879	92.33
363.09	14.51
363.301	92.33
363.512	39.08
363.723	71.85
363.935	6.31
364.146	90.28
364.357	100.52
364.568	34.99
364.779	22.7
364.99	88.23
365.201	61.61
365.412	67.75
365.623	71.85
365.834	135.34
366.045	45.23
366.256	26.79
366.467	69.8
366.678	82.09
366.889	39.08
367.1	2.22
367.311	43.18
367.522	71.85
367.733	14.51
367.944	49.32
368.155	71.85
368.366	0.17
368.577	92.33
368.788	63.66
368.999	22.7
369.209	0.17
369.42	102.57
369.631	137.38
369.842	73.9
370.053	45.23
370.264	30.89
370.474	47.27
370.685	69.8
370.896	-34.64
371.107	67.75
371.317	45.23
371.528	80.04
371.739	69.8
371.95	18.6
372.16	53.42
372.371	-24.4
372.582	-28.5
372.792	71.85
373.003	57.51
373.214	80.04
373.424	112.81
373.635	131.24
373.846	41.13
374.056	98.47
374.267	139.43
374.477	100.52
374.688	75.95
374.898	121
375.109	94.38
375.319	77.99
375.53	86.19
375.74	63.66
375.951	86.19
376.161	67.75
376.372	45.23
376.582	90.28
376.793	34.99
377.003	59.56
377.214	112.81
377.424	28.84
377.635	104.62
377.845	80.04
378.055	123.05
378.266	37.03
378.476	16.55
378.686	53.42
378.897	63.66
379.107	104.62
379.317	86.19
379.528	51.37
379.738	10.41
379.948	24.75
380.158	135.34
380.369	75.95
380.579	104.62
380.789	159.91
380.999	75.95
381.21	118.95
381.42	65.71
381.63	-5.97
381.84	86.19
382.05	88.23
382.261	112.81
382.471	114.86
382.681	73.9
382.891	55.47
383.101	108.71
383.311	47.27
383.521	16.55
383.731	71.85
383.941	104.62
384.151	-18.26
384.361	45.23
384.571	110.76
384.781	104.62
384.991	61.61
385.201	8.36
385.411	0.17
385.621	106.67
385.831	75.95
386.041	77.99
386.251	73.9
386.461	96.43
386.671	6.31
386.881	22.7
387.091	20.65
387.301	110.76
387.511	65.71
387.72	20.65
387.93	84.14
388.14	129.19
388.35	12.46
388.56	80.04
388.769	151.72
388.979	71.85
389.189	65.71
389.399	43.18
389.609	45.23
389.818	114.86
390.028	75.95
390.238	57.51
390.447	43.18
390.657	88.23
390.867	127.14
391.076	47.27
391.286	47.27
391.496	110.76
391.705	63.66
391.915	102.57
392.125	92.33
392.334	51.37
392.544	88.23
392.753	123.05
392.963	69.8
393.172	188.58
393.382	55.47
393.591	207.02
393.801	65.71
394.01	75.95
394.22	108.71
394.429	59.56
394.639	108.71
394.848	172.2
395.058	61.61
395.267	116.9
395.477	227.5
395.686	94.38
395.895	116.9
396.105	145.58
396.314	104.62
396.524	92.33
396.733	161.96
396.942	145.58
397.152	139.43
397.361	41.13
397.57	28.84
397.78	178.34
397.989	166.06
398.198	178.34
398.407	106.67
398.617	116.9
398.826	108.71
399.035	121
399.244	192.68
399.453	88.23
399.663	133.29
399.872	135.34
400.081	116.9
400.29	188.58
400.499	121
400.708	172.2
400.917	168.1
401.127	184.49
401.336	149.67
401.545	250.02
401.754	149.67
401.963	178.34
402.172	63.66
402.381	170.15
402.59	71.85
402.799	164.01
403.008	198.82
403.217	110.76
403.426	159.91
403.635	180.39
403.844	182.44
404.053	157.86
404.262	202.92
404.471	180.39
404.68	121
404.888	180.39
405.097	149.67
405.306	133.29
405.515	166.06
405.724	145.58
405.933	254.12
406.142	194.73
406.35	293.03
406.559	202.92
406.768	194.73
406.977	252.07
407.185	233.64
407.394	237.74
407.603	211.11
407.812	227.5
408.02	235.69
408.229	290.98
408.438	309.41
408.646	262.31
408.855	241.83
409.064	309.41
409.272	250.02
409.481	387.24
409.69	309.41
409.898	342.18
410.107	366.76
410.315	331.94
410.524	399.52
410.733	377
410.941	358.57
411.15	483.49
411.358	546.98
411.567	479.4
411.775	391.33
411.984	467.11
412.192	456.87
412.401	485.54
412.609	544.93
412.818	585.89
413.026	495.78
413.234	577.7
413.443	612.51
413.651	598.18
413.86	698.53
414.068	680.1
414.276	796.83
414.485	712.86
414.693	825.5
414.901	772.25
415.11	772.25
415.318	788.64
415.526	800.93
415.734	827.55
415.943	903.32
416.151	989.34
416.359	923.8
416.567	979.1
416.776	1001.63
416.984	1091.74
417.192	1149.08
417.4	1163.42
417.608	1087.64
417.817	1157.27
418.025	1208.47
418.233	1378.45
418.441	1308.82
418.649	1349.78
418.857	1495.19
419.065	1468.56
419.273	1421.46
419.481	1581.2
419.689	1687.7
419.897	1648.79
420.105	1755.28
420.313	1826.96
420.521	1796.24
420.729	1818.77
420.937	1857.68
421.145	1972.36
421.353	2103.43
421.561	2287.75
421.769	2312.33
421.977	2343.05
422.185	2420.87
422.393	2424.97
422.601	2590.85
422.809	2545.8
423.017	2541.7
423.224	2676.87
423.432	2799.74
423.64	2965.63
423.848	3195
424.056	3039.36
424.263	3248.25
424.471	3307.64
424.679	3350.65
424.887	3418.23
425.094	3719.28
425.302	3756.15
425.51	3819.63
425.718	3825.78
425.925	3956.85
426.133	4192.36
426.341	4364.39
426.548	4520.04
426.756	4438.12
426.964	4665.44
427.171	4808.8
427.379	4853.86
427.586	5034.08
427.794	5193.82
428.001	5455.96
428.209	5576.79
428.417	5560.41
428.624	5947.47
428.832	5834.83
429.039	5970
429.247	5830.74
429.454	6477.9
429.662	6895.68
429.869	6432.84
430.076	6879.3
430.284	6781
430.491	7049.28
430.699	7573.56
430.906	7297.08
431.114	7622.71
431.321	7792.69
431.528	7983.15
431.736	8486.95
431.943	8767.52
432.15	8695.85
432.358	8831.01
432.565	9240.61
432.772	9279.52
432.979	9658.39
433.187	9637.91
433.394	9998.35
433.601	10295.31
433.808	10534.92
434.016	10385.42
434.223	10958.85
434.43	11485.18
434.637	11243.52
434.844	11909.11
435.052	12269.55
435.259	12042.23
435.466	12431.34
435.673	12025.84
435.88	12824.55
436.087	13451.23
436.294	13776.86
436.501	13182.95
436.708	13516.76
436.915	14165.97
437.122	14655.44
437.329	14553.04
437.537	15105.99
437.743	15259.59
437.95	15355.84
438.157	15929.27
438.364	16631.72
438.571	16578.48
438.778	16779.18
438.985	18003.86
439.192	17395.62
439.399	17827.74
439.606	17596.32
439.813	18395.03
440.02	19867.52
440.227	19347.33
440.433	19527.55
440.64	19959.67
440.847	19754.88
441.054	20105.08
441.261	21567.33
441.467	21112.68
441.674	21548.9
441.881	22415.19
442.088	22501.2
442.294	22177.62
442.501	22556.5
442.708	23310.15
442.914	24373.05
443.121	25251.63
443.328	24733.49
443.534	26023.71
443.741	25573.16
443.948	25272.11
444.154	27051.79
444.361	26785.55
444.568	27408.14
444.774	26918.67
444.981	27604.74
445.187	28434.17
445.394	29363.95
445.6	28880.63
445.807	31704.77
446.013	30383.84
446.22	30834.39
446.426	32065.22
446.633	32487.1
446.839	33711.78
447.046	32173.76
447.252	34113.19
447.459	33881.77
447.665	33488.56
447.871	35133.07
448.078	36650.62
448.284	34909.85
448.491	35849.86
448.697	37039.73
448.903	37813.87
449.11	37805.67
449.316	37176.95
449.522	37910.12
449.728	39083.61
449.935	39091.8
450.141	38956.63
450.347	40406.59
450.553	39011.93
450.76	39024.22
450.966	40439.36
451.172	39818.83
451.378	40953.4
451.584	40062.54
451.791	40930.87
451.997	40803.9
452.203	41645.62
452.409	41768.49
452.615	41297.46
452.821	39624.27
453.027	39415.38
453.233	41483.83
453.44	39943.75
453.646	40085.06
453.852	40343.11
454.058	41115.19
454.264	39804.49
454.47	40136.26
454.676	39882.31
454.882	41080.38
455.088	37375.6
455.294	37944.94
455.5	38071.91
455.705	38784.6
455.911	37453.42
456.117	36445.82
456.323	36349.57
456.529	34295.46
456.735	35610.25
456.941	34672.28
457.147	34287.26
457.352	33236.66
457.558	32638.65
457.764	32513.72
457.97	32024.26
458.176	31182.54
458.381	31626.95
458.587	29898.47
458.793	30217.95
458.999	28595.96
459.204	30389.98
459.41	29867.75
459.616	27506.44
459.821	27631.37
460.027	27428.62
460.233	26871.57
460.438	25894.69
460.644	25876.26
460.85	24780.59
461.055	24624.95
461.261	24538.93
461.466	22734.67
461.672	22124.38
461.878	23406.41
462.083	21991.26
462.289	21497.7
462.494	21598.05
462.7	20158.33
462.905	20109.18
463.111	20664.18
463.316	20490.1
463.522	20236.15
463.727	20252.53
463.932	20068.22
464.138	19967.87
464.343	20215.67
464.549	19453.83
464.754	20254.58
464.959	19900.28
465.165	19949.43
465.37	19259.27
465.575	18288.53
465.781	19189.64
465.986	19359.62
466.191	18814.86
466.397	18268.05
466.602	17663.9
466.807	18075.54
467.012	18143.13
