Data from USB4F104151__221__11-10-47-435.txt Node

Date: Wed Mar 12 11:10:47 EDT 2025
User: louis
Spectrometer: USB4F10415
Trigger mode: 4
Integration Time (sec): 2.000000E-2
Scans to average: 1
Electric dark correction enabled: true
Nonlinearity correction enabled: false
Boxcar width: 0
XAxis mode: Wavelengths
Number of Pixels in Spectrum: 3648
>>>>>Begin Spectral Data<<<<<
178.204	-101.37
178.424	-101.37
178.644	-101.37
178.864	-37.89
179.084	-58.37
179.304	31.74
179.524	-17.41
179.744	21.5
179.964	39.94
180.184	-5.12
180.404	9.22
180.624	3.07
180.844	5.12
181.064	-19.46
181.283	-21.5
181.503	-9.22
181.723	-37.89
181.943	-52.22
182.163	72.7
182.383	13.31
182.602	39.94
182.822	54.27
183.042	11.26
183.262	-1.02
183.482	7.17
183.701	27.65
183.921	-46.08
184.141	31.74
184.361	41.98
184.58	-7.17
184.8	25.6
185.02	-7.17
185.239	31.74
185.459	7.17
185.679	15.36
185.898	-52.22
186.118	78.85
186.338	9.22
186.557	37.89
186.777	-17.41
186.997	9.22
187.216	-68.61
187.436	-13.31
187.655	3.07
187.875	23.55
188.095	-3.07
188.314	15.36
188.534	37.89
188.753	3.07
188.973	27.65
189.192	-25.6
189.412	41.98
189.631	64.51
189.851	68.61
190.07	97.28
190.29	-56.32
190.509	-23.55
190.729	52.22
190.948	19.46
191.168	56.32
191.387	93.18
191.607	-27.65
191.826	29.7
192.045	31.74
192.265	48.13
192.484	46.08
192.704	-1.02
192.923	1.02
193.142	29.7
193.362	1.02
193.581	-15.36
193.8	-33.79
194.02	27.65
194.239	21.5
194.458	99.33
194.678	66.56
194.897	39.94
195.116	-50.18
195.335	97.28
195.555	41.98
195.774	7.17
195.993	15.36
196.212	54.27
196.432	-9.22
196.651	-9.22
196.87	35.84
197.089	31.74
197.308	121.85
197.528	50.18
197.747	15.36
197.966	17.41
198.185	-21.5
198.404	-1.02
198.623	3.07
198.842	103.42
199.062	50.18
199.281	7.17
199.5	-15.36
199.719	3.07
199.938	41.98
200.157	64.51
200.376	103.42
200.595	109.57
200.814	46.08
201.033	-23.55
201.252	-1.02
201.471	82.94
201.69	-37.89
201.909	11.26
202.128	-3.07
202.347	52.22
202.566	-60.42
202.785	41.98
203.004	41.98
203.223	121.85
203.442	25.6
203.661	105.47
203.879	1.02
204.098	23.55
204.317	35.84
204.536	91.13
204.755	62.46
204.974	66.56
205.193	-9.22
205.411	103.42
205.63	41.98
205.849	64.51
206.068	35.84
206.287	35.84
206.505	9.22
206.724	7.17
206.943	58.37
207.162	93.18
207.381	5.12
207.599	11.26
207.818	46.08
208.037	-7.17
208.255	33.79
208.474	-27.65
208.693	39.94
208.911	52.22
209.13	54.27
209.349	54.27
209.567	-1.02
209.786	19.46
210.005	31.74
210.223	101.37
210.442	19.46
210.661	64.51
210.879	-5.12
211.098	76.8
211.316	56.32
211.535	17.41
211.753	41.98
211.972	-44.03
212.191	7.17
212.409	1.02
212.628	31.74
212.846	35.84
213.065	58.37
213.283	-1.02
213.502	31.74
213.72	66.56
213.938	-23.55
214.157	-23.55
214.375	78.85
214.594	52.22
214.812	33.79
215.031	3.07
215.249	35.84
215.467	60.42
215.686	15.36
215.904	80.89
216.122	41.98
216.341	33.79
216.559	13.31
216.778	64.51
216.996	48.13
217.214	-17.41
217.432	-13.31
217.651	19.46
217.869	19.46
218.087	29.7
218.306	62.46
218.524	15.36
218.742	-11.26
218.96	44.03
219.179	17.41
219.397	50.18
219.615	31.74
219.833	7.17
220.051	-19.46
220.27	23.55
220.488	37.89
220.706	-11.26
220.924	54.27
221.142	58.37
221.36	60.42
221.578	9.22
221.796	60.42
222.015	-13.31
222.233	58.37
222.451	1.02
222.669	-25.6
222.887	7.17
223.105	17.41
223.323	113.66
223.541	41.98
223.759	-1.02
223.977	19.46
224.195	25.6
224.413	56.32
224.631	-31.74
224.849	68.61
225.067	64.51
225.285	48.13
225.503	-60.42
225.721	41.98
225.939	31.74
226.157	21.5
226.375	33.79
226.592	-95.23
226.81	33.79
227.028	48.13
227.246	62.46
227.464	23.55
227.682	58.37
227.9	15.36
228.117	103.42
228.335	54.27
228.553	27.65
228.771	58.37
228.989	-35.84
229.206	-21.5
229.424	23.55
229.642	-11.26
229.86	15.36
230.077	37.89
230.295	58.37
230.513	74.75
230.731	-13.31
230.948	35.84
231.166	48.13
231.384	19.46
231.601	23.55
231.819	74.75
232.037	-35.84
232.254	7.17
232.472	138.24
232.689	27.65
232.907	62.46
233.125	21.5
233.342	11.26
233.56	-31.74
233.777	52.22
233.995	-23.55
234.213	50.18
234.43	74.75
234.648	84.99
234.865	41.98
235.083	23.55
235.3	-15.36
235.518	3.07
235.735	58.37
235.953	54.27
236.17	41.98
236.388	50.18
236.605	60.42
236.822	-3.07
237.04	58.37
237.257	25.6
237.475	60.42
237.692	-31.74
237.909	82.94
238.127	-29.7
238.344	56.32
238.562	117.76
238.779	-27.65
238.996	3.07
239.214	-25.6
239.431	-25.6
239.648	-35.84
239.865	9.22
240.083	70.65
240.3	-31.74
240.517	-25.6
240.735	29.7
240.952	-9.22
241.169	31.74
241.386	-33.79
241.603	19.46
241.821	50.18
242.038	44.03
242.255	15.36
242.472	-19.46
242.689	-23.55
242.907	35.84
243.124	-13.31
243.341	39.94
243.558	50.18
243.775	-5.12
243.992	-11.26
244.209	60.42
244.426	27.65
244.643	35.84
244.86	-19.46
245.078	56.32
245.295	-21.5
245.512	58.37
245.729	-48.13
245.946	64.51
246.163	44.03
246.38	-3.07
246.597	-37.89
246.814	-1.02
247.031	37.89
247.248	-21.5
247.464	21.5
247.681	7.17
247.898	80.89
248.115	46.08
248.332	-1.02
248.549	21.5
248.766	-7.17
248.983	103.42
249.2	31.74
249.417	41.98
249.633	50.18
249.85	48.13
250.067	76.8
250.284	33.79
250.501	3.07
250.717	50.18
250.934	-11.26
251.151	-17.41
251.368	62.46
251.585	62.46
251.801	29.7
252.018	66.56
252.235	19.46
252.451	-56.32
252.668	-19.46
252.885	48.13
253.102	11.26
253.318	56.32
253.535	-64.51
253.752	-58.37
253.968	-19.46
254.185	-25.6
254.401	-17.41
254.618	76.8
254.835	11.26
255.051	68.61
255.268	-41.98
255.484	-1.02
255.701	31.74
255.917	101.37
256.134	41.98
256.351	84.99
256.567	-29.7
256.784	64.51
257	-19.46
257.217	64.51
257.433	84.99
257.65	11.26
257.866	70.65
258.082	7.17
258.299	-48.13
258.515	84.99
258.732	13.31
258.948	41.98
259.165	54.27
259.381	-29.7
259.597	33.79
259.814	11.26
260.03	70.65
260.246	11.26
260.463	80.89
260.679	25.6
260.895	132.09
261.112	46.08
261.328	76.8
261.544	3.07
261.761	15.36
261.977	56.32
262.193	-33.79
262.409	74.75
262.626	-5.12
262.842	68.61
263.058	31.74
263.274	-11.26
263.49	15.36
263.707	87.04
263.923	44.03
264.139	23.55
264.355	9.22
264.571	93.18
264.787	64.51
265.004	15.36
265.22	66.56
265.436	5.12
265.652	-1.02
265.868	-23.55
266.084	-29.7
266.3	31.74
266.516	-46.08
266.732	35.84
266.948	11.26
267.164	27.65
267.38	-13.31
267.596	27.65
267.812	-31.74
268.028	66.56
268.244	1.02
268.46	60.42
268.676	5.12
268.892	56.32
269.108	3.07
269.324	-50.18
269.54	-1.02
269.756	23.55
269.972	25.6
270.188	31.74
270.403	31.74
270.619	19.46
270.835	64.51
271.051	91.13
271.267	31.74
271.483	3.07
271.698	37.89
271.914	-1.02
272.13	64.51
272.346	44.03
272.562	48.13
272.777	41.98
272.993	11.26
273.209	72.7
273.425	50.18
273.64	23.55
273.856	1.02
274.072	52.22
274.287	58.37
274.503	11.26
274.719	91.13
274.934	56.32
275.15	37.89
275.366	39.94
275.581	41.98
275.797	84.99
276.012	50.18
276.228	31.74
276.444	-46.08
276.659	66.56
276.875	1.02
277.09	1.02
277.306	82.94
277.521	-7.17
277.737	-37.89
277.952	62.46
278.168	48.13
278.383	-35.84
278.599	-41.98
278.814	3.07
279.03	-41.98
279.245	50.18
279.461	87.04
279.676	-11.26
279.892	19.46
280.107	-17.41
280.322	-17.41
280.538	-52.22
280.753	-41.98
280.969	41.98
281.184	19.46
281.399	95.23
281.615	-25.6
281.83	-1.02
282.045	-60.42
282.26	37.89
282.476	7.17
282.691	93.18
282.906	-21.5
283.122	15.36
283.337	-7.17
283.552	21.5
283.767	39.94
283.983	152.57
284.198	-1.02
284.413	-35.84
284.628	9.22
284.843	64.51
285.058	-35.84
285.274	29.7
285.489	25.6
285.704	103.42
285.919	60.42
286.134	-80.89
286.349	39.94
286.564	91.13
286.779	35.84
286.995	9.22
287.21	-9.22
287.425	89.09
287.64	-19.46
287.855	-31.74
288.07	39.94
288.285	70.65
288.5	62.46
288.715	50.18
288.93	60.42
289.145	7.17
289.36	48.13
289.575	3.07
289.79	33.79
290.004	27.65
290.219	62.46
290.434	46.08
290.649	72.7
290.864	50.18
291.079	17.41
291.294	64.51
291.509	23.55
291.724	-72.7
291.938	48.13
292.153	37.89
292.368	1.02
292.583	89.09
292.798	23.55
293.012	66.56
293.227	46.08
293.442	35.84
293.657	76.8
293.871	33.79
294.086	50.18
294.301	-17.41
294.516	62.46
294.73	105.47
294.945	13.31
295.16	52.22
295.374	11.26
295.589	46.08
295.804	23.55
296.018	7.17
296.233	107.52
296.447	87.04
296.662	3.07
296.877	60.42
297.091	66.56
297.306	54.27
297.52	54.27
297.735	9.22
297.949	80.89
298.164	134.14
298.378	5.12
298.593	13.31
298.807	31.74
299.022	-5.12
299.236	64.51
299.451	-17.41
299.665	54.27
299.88	93.18
300.094	7.17
300.309	62.46
300.523	-7.17
300.737	105.47
300.952	-48.13
301.166	17.41
301.381	-46.08
301.595	15.36
301.809	-13.31
302.024	70.65
302.238	19.46
302.452	50.18
302.667	78.85
302.881	31.74
303.095	13.31
303.309	-3.07
303.524	74.75
303.738	31.74
303.952	-21.5
304.166	-58.37
304.381	21.5
304.595	46.08
304.809	29.7
305.023	64.51
305.237	72.7
305.452	64.51
305.666	62.46
305.88	-21.5
306.094	25.6
306.308	64.51
306.522	58.37
306.736	123.9
306.95	56.32
307.164	39.94
307.379	107.52
307.593	66.56
307.807	58.37
308.021	15.36
308.235	58.37
308.449	-5.12
308.663	27.65
308.877	25.6
309.091	66.56
309.305	27.65
309.519	5.12
309.733	95.23
309.947	-9.22
310.161	80.89
310.374	27.65
310.588	58.37
310.802	66.56
311.016	-33.79
311.23	31.74
311.444	-33.79
311.658	80.89
311.872	35.84
312.085	48.13
312.299	66.56
312.513	97.28
312.727	15.36
312.941	91.13
313.154	17.41
313.368	-1.02
313.582	82.94
313.796	31.74
314.009	31.74
314.223	3.07
314.437	23.55
314.651	54.27
314.864	33.79
315.078	23.55
315.292	-23.55
315.505	23.55
315.719	-19.46
315.933	60.42
316.146	9.22
316.36	-46.08
316.573	68.61
316.787	39.94
317.001	15.36
317.214	60.42
317.428	11.26
317.641	7.17
317.855	-3.07
318.068	-5.12
318.282	39.94
318.495	58.37
318.709	48.13
318.922	9.22
319.136	70.65
319.349	19.46
319.563	109.57
319.776	5.12
319.99	11.26
320.203	50.18
320.417	11.26
320.63	80.89
320.843	76.8
321.057	17.41
321.27	37.89
321.483	52.22
321.697	19.46
321.91	78.85
322.124	50.18
322.337	39.94
322.55	56.32
322.763	7.17
322.977	91.13
323.19	27.65
323.403	50.18
323.617	52.22
323.83	13.31
324.043	52.22
324.256	25.6
324.469	-48.13
324.683	117.76
324.896	54.27
325.109	66.56
325.322	27.65
325.535	-5.12
325.748	9.22
325.962	-15.36
326.175	13.31
326.388	52.22
326.601	9.22
326.814	64.51
327.027	82.94
327.24	111.61
327.453	31.74
327.666	25.6
327.879	-21.5
328.092	39.94
328.305	-15.36
328.518	23.55
328.731	62.46
328.944	50.18
329.157	-33.79
329.37	21.5
329.583	1.02
329.796	68.61
330.009	-97.28
330.222	52.22
330.435	48.13
330.648	33.79
330.861	-23.55
331.073	115.71
331.286	17.41
331.499	56.32
331.712	17.41
331.925	87.04
332.138	13.31
332.35	84.99
332.563	3.07
332.776	138.24
332.989	-11.26
333.202	9.22
333.414	11.26
333.627	99.33
333.84	27.65
334.053	70.65
334.265	-23.55
334.478	25.6
334.691	9.22
334.903	-7.17
335.116	60.42
335.329	105.47
335.541	-19.46
335.754	29.7
335.966	-70.65
336.179	15.36
336.392	25.6
336.604	25.6
336.817	76.8
337.029	9.22
337.242	-37.89
337.454	-7.17
337.667	15.36
337.88	52.22
338.092	64.51
338.305	87.04
338.517	-13.31
338.729	74.75
338.942	54.27
339.154	-1.02
339.367	-7.17
339.579	48.13
339.792	41.98
340.004	128
340.217	-13.31
340.429	52.22
340.641	23.55
340.854	19.46
341.066	29.7
341.278	31.74
341.491	82.94
341.703	46.08
341.915	64.51
342.128	80.89
342.34	31.74
342.552	33.79
342.764	-3.07
342.977	25.6
343.189	41.98
343.401	19.46
343.613	-41.98
343.826	95.23
344.038	-5.12
344.25	23.55
344.462	29.7
344.674	23.55
344.886	-1.02
345.099	-13.31
345.311	3.07
345.523	1.02
345.735	21.5
345.947	7.17
346.159	101.37
346.371	58.37
346.583	-29.7
346.795	95.23
347.007	-9.22
347.219	15.36
347.431	-62.46
347.643	5.12
347.855	103.42
348.067	68.61
348.279	-11.26
348.491	-37.89
348.703	-7.17
348.915	60.42
349.127	15.36
349.339	58.37
349.551	7.17
349.763	60.42
349.975	58.37
350.187	97.28
350.399	41.98
350.61	35.84
350.822	-7.17
351.034	70.65
351.246	44.03
351.458	-52.22
351.669	5.12
351.881	84.99
352.093	107.52
352.305	97.28
352.517	58.37
352.728	35.84
352.94	33.79
353.152	87.04
353.363	-15.36
353.575	21.5
353.787	80.89
353.999	60.42
354.21	64.51
354.422	89.09
354.633	82.94
354.845	66.56
355.057	1.02
355.268	72.7
355.48	-15.36
355.692	23.55
355.903	35.84
356.115	44.03
356.326	23.55
356.538	27.65
356.749	82.94
356.961	-5.12
357.172	-33.79
357.384	64.51
357.595	60.42
357.807	44.03
358.018	7.17
358.23	44.03
358.441	93.18
358.653	78.85
358.864	78.85
359.075	31.74
359.287	44.03
359.498	13.31
359.709	52.22
359.921	48.13
360.132	78.85
360.344	5.12
360.555	48.13
360.766	60.42
360.977	37.89
361.189	27.65
361.4	60.42
361.611	5.12
361.823	82.94
362.034	56.32
362.245	29.7
362.456	72.7
362.667	50.18
362.879	64.51
363.09	27.65
363.301	15.36
363.512	58.37
363.723	72.7
363.935	109.57
364.146	19.46
364.357	3.07
364.568	91.13
364.779	9.22
364.99	33.79
365.201	-5.12
365.412	138.24
365.623	44.03
365.834	89.09
366.045	11.26
366.256	-9.22
366.467	70.65
366.678	-68.61
366.889	-15.36
367.1	41.98
367.311	103.42
367.522	13.31
367.733	66.56
367.944	37.89
368.155	-15.36
368.366	68.61
368.577	58.37
368.788	19.46
368.999	-1.02
369.209	-39.94
369.42	52.22
369.631	109.57
369.842	70.65
370.053	13.31
370.264	95.23
370.474	64.51
370.685	74.75
370.896	82.94
371.107	72.7
371.317	50.18
371.528	68.61
371.739	146.43
371.95	13.31
372.16	46.08
372.371	21.5
372.582	27.65
372.792	-9.22
373.003	15.36
373.214	60.42
373.424	76.8
373.635	35.84
373.846	76.8
374.056	27.65
374.267	78.85
374.477	48.13
374.688	13.31
374.898	11.26
375.109	25.6
375.319	91.13
375.53	60.42
375.74	21.5
375.951	27.65
376.161	7.17
376.372	17.41
376.582	97.28
376.793	15.36
377.003	60.42
377.214	46.08
377.424	11.26
377.635	13.31
377.845	21.5
378.055	142.33
378.266	70.65
378.476	80.89
378.686	-11.26
378.897	78.85
379.107	25.6
379.317	15.36
379.528	93.18
379.738	29.7
379.948	11.26
380.158	13.31
380.369	31.74
380.579	60.42
380.789	41.98
380.999	29.7
381.21	95.23
381.42	66.56
381.63	41.98
381.84	54.27
382.05	-7.17
382.261	-23.55
382.471	91.13
382.681	15.36
382.891	121.85
383.101	107.52
383.311	-15.36
383.521	46.08
383.731	84.99
383.941	111.61
384.151	80.89
384.361	-31.74
384.571	62.46
384.781	62.46
384.991	128
385.201	56.32
385.411	23.55
385.621	19.46
385.831	31.74
386.041	35.84
386.251	25.6
386.461	105.47
386.671	78.85
386.881	15.36
387.091	9.22
387.301	82.94
387.511	52.22
387.72	58.37
387.93	35.84
388.14	93.18
388.35	41.98
388.56	87.04
388.769	142.33
388.979	35.84
389.189	37.89
389.399	25.6
389.609	91.13
389.818	23.55
390.028	87.04
390.238	50.18
390.447	35.84
390.657	58.37
390.867	9.22
391.076	84.99
391.286	39.94
391.496	54.27
391.705	52.22
391.915	41.98
392.125	9.22
392.334	11.26
392.544	56.32
392.753	52.22
392.963	60.42
393.172	74.75
393.382	21.5
393.591	109.57
393.801	39.94
394.01	158.72
394.22	60.42
394.429	99.33
394.639	109.57
394.848	78.85
395.058	74.75
395.267	117.76
395.477	76.8
395.686	50.18
395.895	156.67
396.105	113.66
396.314	76.8
396.524	80.89
396.733	54.27
396.942	82.94
397.152	123.9
397.361	93.18
397.57	113.66
397.78	46.08
397.989	101.37
398.198	146.43
398.407	-9.22
398.617	142.33
398.826	134.14
399.035	142.33
399.244	128
399.453	27.65
399.663	27.65
399.872	140.29
400.081	105.47
400.29	128
400.499	168.96
400.708	142.33
400.917	9.22
401.127	87.04
401.336	64.51
401.545	138.24
401.754	109.57
401.963	134.14
402.172	103.42
402.381	97.28
402.59	121.85
402.799	101.37
403.008	128
403.217	93.18
403.426	113.66
403.635	87.04
403.844	97.28
404.053	123.9
404.262	156.67
404.471	211.96
404.68	136.19
404.888	78.85
405.097	70.65
405.306	146.43
405.515	177.15
405.724	113.66
405.933	93.18
406.142	193.53
406.35	183.29
406.559	130.05
406.768	191.49
406.977	185.34
407.185	166.91
407.394	185.34
407.603	107.52
407.812	146.43
408.02	214.01
408.229	197.63
408.438	113.66
408.646	257.02
408.855	183.29
409.064	238.59
409.272	244.73
409.481	259.07
409.69	142.33
409.898	207.87
410.107	273.4
410.315	254.97
410.524	269.31
410.733	316.41
410.941	291.84
411.15	367.61
411.358	328.7
411.567	386.04
411.775	367.61
411.984	324.6
412.192	390.14
412.401	422.91
412.609	431.1
412.818	422.91
413.026	404.47
413.234	422.91
413.443	494.58
413.651	496.63
413.86	447.48
414.068	605.17
414.276	519.16
414.485	513.02
414.693	560.12
414.901	609.27
415.11	596.98
415.318	617.46
415.526	625.65
415.734	672.76
415.943	717.81
416.151	795.64
416.359	625.65
416.567	855.03
416.776	719.86
416.984	783.35
417.192	781.3
417.4	838.64
417.608	846.84
417.817	924.66
418.025	1004.53
418.233	988.14
418.441	984.05
418.649	1082.35
418.857	1035.25
419.065	1100.78
419.273	1213.42
419.481	1133.55
419.689	1207.28
419.897	1352.68
420.105	1287.15
420.313	1301.48
420.521	1436.65
420.729	1455.08
420.937	1530.86
421.145	1459.18
421.353	1657.83
421.561	1727.46
421.769	1575.91
421.977	1754.09
422.185	1844.2
422.393	1856.48
422.601	1903.59
422.809	1983.46
423.017	1965.03
423.224	2087.9
423.432	2087.9
423.64	2161.63
423.848	2380.76
424.056	2247.65
424.263	2442.2
424.471	2358.24
424.679	2462.68
424.887	2642.9
425.094	2726.87
425.302	2819.03
425.51	2853.84
425.718	2948.05
425.925	3070.93
426.133	3122.13
426.341	3156.94
426.548	3339.21
426.756	3374.03
426.964	3474.38
427.171	3539.91
427.379	3826.63
427.586	3795.91
427.794	3943.36
428.001	4096.96
428.209	4213.7
428.417	4045.76
428.624	4467.64
428.832	4443.07
429.039	4365.25
429.247	4463.55
429.454	4885.43
429.662	5166
429.869	4864.95
430.076	5209.01
430.284	5108.66
430.491	5319.6
430.699	5403.57
430.906	5544.88
431.114	5559.21
431.321	5915.56
431.528	5936.04
431.736	6445.98
431.943	6605.72
432.15	6284.19
432.358	6499.23
432.565	6785.94
432.772	6917.01
432.979	7168.91
433.187	7457.68
433.394	7216.02
433.601	7754.63
433.808	7943.05
434.016	8057.73
434.223	8192.9
434.43	8678.27
434.637	8467.33
434.844	8766.33
435.052	9370.48
435.259	9034.61
435.466	9302.9
435.673	9227.12
435.88	9845.61
436.087	10218.34
436.294	10142.57
436.501	9872.23
436.708	10128.23
436.915	10562.4
437.122	11002.71
437.329	10992.47
437.537	11262.8
437.743	11342.67
437.95	11457.36
438.157	12043.08
438.364	12198.73
438.571	12350.28
438.778	12340.04
438.985	13677.36
439.192	13095.74
439.399	13460.27
439.606	13183.8
439.813	13597.49
440.02	14936.86
440.227	14320.42
440.433	14299.94
440.64	14822.17
440.847	14699.3
441.054	15199
441.261	16036.62
441.467	15696.66
441.674	16042.76
441.881	16798.46
442.088	16585.47
442.294	16343.81
442.501	16859.9
442.708	17414.9
442.914	17998.57
443.121	18531.05
443.328	18266.86
443.534	19391.19
443.741	18969.31
443.948	18569.96
444.154	19890.9
444.361	19907.28
444.568	20210.38
444.774	20341.45
444.981	20134.6
445.187	20527.81
445.394	21846.71
445.6	21267.13
445.807	23480.99
446.013	22360.75
446.22	22745.76
446.426	23761.56
446.633	23929.49
446.839	24855.17
447.046	23773.85
447.252	25232
447.459	25096.83
447.665	24744.58
447.871	25956.98
448.078	26815.08
448.284	25789.05
448.491	26581.61
448.697	27353.69
448.903	27920.98
449.11	28013.14
449.316	27234.91
449.522	27920.98
449.728	28369.49
449.935	28641.87
450.141	28912.2
450.347	29782.59
450.553	28834.38
450.76	28877.38
450.966	30077.49
451.172	29440.57
451.378	30339.63
451.584	29749.82
451.791	30442.03
451.997	30237.23
452.203	30724.65
452.409	30808.62
452.615	30669.36
452.821	29835.83
453.027	29282.88
453.233	30798.38
453.44	29078.08
453.646	29631.04
453.852	30124.6
454.058	30399.02
454.264	29090.37
454.47	30016.05
454.676	29338.18
454.882	30229.04
455.088	27671.13
455.294	28088.92
455.5	28492.37
455.705	28799.56
455.911	27408.99
456.117	27079.27
456.323	26247.79
456.529	25174.66
456.735	26178.16
456.941	25680.5
457.147	25260.67
457.352	24531.59
457.558	23956.11
457.764	24056.46
457.97	23560.86
458.176	23214.75
458.381	23433.88
458.587	22022.83
458.793	21967.54
458.999	21082.81
459.204	22231.72
459.41	21512.89
459.616	20222.67
459.821	20357.83
460.027	20396.74
460.233	19798.74
460.438	18899.68
460.644	19049.18
460.85	18205.42
461.055	17965.81
461.261	17830.64
461.466	16550.66
461.672	16040.72
461.878	17269.5
462.083	16018.19
462.289	15860.49
462.494	15762.19
462.7	14787.36
462.905	14656.29
463.111	14973.72
463.316	14877.47
463.522	14633.76
463.727	14912.28
463.932	14625.57
464.138	14744.35
464.343	14695.2
464.549	14318.37
464.754	14748.45
464.959	14412.58
465.165	14375.72
465.37	14025.51
465.575	13697.84
465.781	14089
465.986	14140.2
466.191	13622.06
466.397	13452.08
466.602	12542.78
466.807	13538.1
467.012	13062.97
467.218	13187.89
467.423	12976.95
467.628	13200.18
467.833	13556.53
468.038	13249.33
