Data from USB4F104151__293__11-13-03-819.txt Node

Date: Wed Mar 12 11:13:03 EDT 2025
User: louis
Spectrometer: USB4F10415
Trigger mode: 4
Integration Time (sec): 2.000000E-2
Scans to average: 1
Electric dark correction enabled: true
Nonlinearity correction enabled: false
Boxcar width: 0
XAxis mode: Wavelengths
Number of Pixels in Spectrum: 3648
>>>>>Begin Spectral Data<<<<<
178.204	-58.37
178.424	-58.37
178.644	-58.37
178.864	-154.62
179.084	-37.89
179.304	-33.79
179.524	-68.61
179.744	-46.08
179.964	66.56
180.184	-29.7
180.404	39.94
180.624	11.26
180.844	33.79
181.064	-13.31
181.283	33.79
181.503	-19.46
181.723	25.6
181.943	-109.57
182.163	44.03
182.383	78.85
182.602	1.02
182.822	21.5
183.042	29.7
183.262	23.55
183.482	58.37
183.701	1.02
183.921	37.89
184.141	-7.17
184.361	93.18
184.58	23.55
184.8	-9.22
185.02	17.41
185.239	56.32
185.459	15.36
185.679	-17.41
185.898	-19.46
186.118	19.46
186.338	-27.65
186.557	62.46
186.777	-60.42
186.997	25.6
187.216	50.18
187.436	64.51
187.655	27.65
187.875	62.46
188.095	-5.12
188.314	82.94
188.534	-54.27
188.753	-3.07
188.973	58.37
189.192	46.08
189.412	-3.07
189.631	37.89
189.851	76.8
190.07	56.32
190.29	62.46
190.509	-5.12
190.729	27.65
190.948	68.61
191.168	50.18
191.387	29.7
191.607	-3.07
191.826	5.12
192.045	78.85
192.265	60.42
192.484	-29.7
192.704	46.08
192.923	-41.98
193.142	52.22
193.362	60.42
193.581	-19.46
193.8	19.46
194.02	54.27
194.239	68.61
194.458	60.42
194.678	33.79
194.897	72.7
195.116	3.07
195.335	19.46
195.555	58.37
195.774	-21.5
195.993	33.79
196.212	37.89
196.432	5.12
196.651	1.02
196.87	54.27
197.089	158.72
197.308	-3.07
197.528	80.89
197.747	-54.27
197.966	46.08
198.185	39.94
198.404	-58.37
198.623	33.79
198.842	21.5
199.062	76.8
199.281	13.31
199.5	35.84
199.719	-25.6
199.938	54.27
200.157	-41.98
200.376	58.37
200.595	105.47
200.814	21.5
201.033	7.17
201.252	25.6
201.471	23.55
201.69	-7.17
201.909	-19.46
202.128	68.61
202.347	54.27
202.566	41.98
202.785	-17.41
203.004	25.6
203.223	95.23
203.442	3.07
203.661	46.08
203.879	-1.02
204.098	58.37
204.317	74.75
204.536	-52.22
204.755	23.55
204.974	11.26
205.193	-58.37
205.411	76.8
205.63	-58.37
205.849	3.07
206.068	19.46
206.287	41.98
206.505	39.94
206.724	-37.89
206.943	-33.79
207.162	11.26
207.381	3.07
207.599	48.13
207.818	-7.17
208.037	-44.03
208.255	29.7
208.474	-25.6
208.693	-3.07
208.911	68.61
209.13	-23.55
209.349	21.5
209.567	31.74
209.786	84.99
210.005	37.89
210.223	23.55
210.442	25.6
210.661	-21.5
210.879	23.55
211.098	-29.7
211.316	31.74
211.535	68.61
211.753	46.08
211.972	-21.5
212.191	-5.12
212.409	19.46
212.628	-19.46
212.846	74.75
213.065	31.74
213.283	115.71
213.502	11.26
213.72	33.79
213.938	17.41
214.157	93.18
214.375	93.18
214.594	31.74
214.812	29.7
215.031	-13.31
215.249	46.08
215.467	52.22
215.686	25.6
215.904	91.13
216.122	-41.98
216.341	50.18
216.559	78.85
216.778	113.66
216.996	56.32
217.214	-17.41
217.432	25.6
217.651	29.7
217.869	-56.32
218.087	109.57
218.306	97.28
218.524	66.56
218.742	29.7
218.96	80.89
219.179	58.37
219.397	60.42
219.615	56.32
219.833	58.37
220.051	11.26
220.27	72.7
220.488	-1.02
220.706	9.22
220.924	29.7
221.142	-44.03
221.36	-11.26
221.578	37.89
221.796	50.18
222.015	23.55
222.233	35.84
222.451	9.22
222.669	9.22
222.887	37.89
223.105	-1.02
223.323	-35.84
223.541	-1.02
223.759	31.74
223.977	-21.5
224.195	58.37
224.413	89.09
224.631	27.65
224.849	-15.36
225.067	84.99
225.285	7.17
225.503	5.12
225.721	-3.07
225.939	3.07
226.157	50.18
226.375	89.09
226.592	37.89
226.81	17.41
227.028	1.02
227.246	64.51
227.464	17.41
227.682	33.79
227.9	11.26
228.117	58.37
228.335	-19.46
228.553	-29.7
228.771	-39.94
228.989	5.12
229.206	54.27
229.424	76.8
229.642	15.36
229.86	-5.12
230.077	54.27
230.295	78.85
230.513	19.46
230.731	48.13
230.948	29.7
231.166	68.61
231.384	1.02
231.601	37.89
231.819	52.22
232.037	29.7
232.254	39.94
232.472	31.74
232.689	11.26
232.907	9.22
233.125	50.18
233.342	70.65
233.56	13.31
233.777	-5.12
233.995	-29.7
234.213	25.6
234.43	29.7
234.648	-31.74
234.865	5.12
235.083	46.08
235.3	15.36
235.518	-17.41
235.735	41.98
235.953	9.22
236.17	-9.22
236.388	-5.12
236.605	46.08
236.822	58.37
237.04	11.26
237.257	41.98
237.475	62.46
237.692	70.65
237.909	35.84
238.127	23.55
238.344	41.98
238.562	82.94
238.779	-82.94
238.996	21.5
239.214	-52.22
239.431	-29.7
239.648	1.02
239.865	41.98
240.083	33.79
240.3	7.17
240.517	17.41
240.735	19.46
240.952	46.08
241.169	72.7
241.386	17.41
241.603	23.55
241.821	-19.46
242.038	66.56
242.255	-13.31
242.472	13.31
242.689	35.84
242.907	58.37
243.124	89.09
243.341	56.32
243.558	-15.36
243.775	80.89
243.992	21.5
244.209	39.94
244.426	27.65
244.643	-9.22
244.86	5.12
245.078	44.03
245.295	80.89
245.512	-17.41
245.729	44.03
245.946	97.28
246.163	37.89
246.38	7.17
246.597	13.31
246.814	66.56
247.031	48.13
247.248	41.98
247.464	21.5
247.681	46.08
247.898	1.02
248.115	82.94
248.332	17.41
248.549	31.74
248.766	39.94
248.983	58.37
249.2	25.6
249.417	-89.09
249.633	56.32
249.85	15.36
250.067	-17.41
250.284	-3.07
250.501	91.13
250.717	-25.6
250.934	-7.17
251.151	89.09
251.368	33.79
251.585	97.28
251.801	44.03
252.018	-3.07
252.235	50.18
252.451	37.89
252.668	7.17
252.885	54.27
253.102	1.02
253.318	66.56
253.535	62.46
253.752	-33.79
253.968	54.27
254.185	29.7
254.401	41.98
254.618	80.89
254.835	19.46
255.051	1.02
255.268	31.74
255.484	-13.31
255.701	-9.22
255.917	37.89
256.134	17.41
256.351	13.31
256.567	-37.89
256.784	9.22
257	-33.79
257.217	117.76
257.433	54.27
257.65	37.89
257.866	7.17
258.082	39.94
258.299	64.51
258.515	9.22
258.732	-29.7
258.948	-13.31
259.165	13.31
259.381	35.84
259.597	41.98
259.814	119.81
260.03	74.75
260.246	13.31
260.463	15.36
260.679	-11.26
260.895	-11.26
261.112	66.56
261.328	-23.55
261.544	5.12
261.761	101.37
261.977	33.79
262.193	-9.22
262.409	50.18
262.626	-9.22
262.842	39.94
263.058	31.74
263.274	66.56
263.49	74.75
263.707	-19.46
263.923	31.74
264.139	9.22
264.355	-19.46
264.571	89.09
264.787	44.03
265.004	-25.6
265.22	35.84
265.436	80.89
265.652	35.84
265.868	105.47
266.084	64.51
266.3	35.84
266.516	25.6
266.732	62.46
266.948	-29.7
267.164	87.04
267.38	23.55
267.596	56.32
267.812	19.46
268.028	29.7
268.244	29.7
268.46	-76.8
268.676	-17.41
268.892	23.55
269.108	52.22
269.324	17.41
269.54	60.42
269.756	76.8
269.972	25.6
270.188	39.94
270.403	21.5
270.619	27.65
270.835	15.36
271.051	66.56
271.267	1.02
271.483	-25.6
271.698	52.22
271.914	-3.07
272.13	21.5
272.346	-3.07
272.562	5.12
272.777	11.26
272.993	-11.26
273.209	56.32
273.425	15.36
273.64	72.7
273.856	13.31
274.072	29.7
274.287	-19.46
274.503	5.12
274.719	-3.07
274.934	-33.79
275.15	3.07
275.366	3.07
275.581	27.65
275.797	70.65
276.012	66.56
276.228	-23.55
276.444	46.08
276.659	31.74
276.875	-117.76
277.09	-11.26
277.306	-1.02
277.521	-3.07
277.737	25.6
277.952	46.08
278.168	84.99
278.383	-9.22
278.599	107.52
278.814	1.02
279.03	9.22
279.245	84.99
279.461	39.94
279.676	31.74
279.892	-7.17
280.107	25.6
280.322	-35.84
280.538	17.41
280.753	-15.36
280.969	-23.55
281.184	3.07
281.399	52.22
281.615	21.5
281.83	31.74
282.045	52.22
282.26	29.7
282.476	60.42
282.691	35.84
282.906	62.46
283.122	37.89
283.337	-19.46
283.552	78.85
283.767	-48.13
283.983	3.07
284.198	76.8
284.413	-7.17
284.628	-19.46
284.843	95.23
285.058	39.94
285.274	56.32
285.489	21.5
285.704	44.03
285.919	60.42
286.134	41.98
286.349	44.03
286.564	-17.41
286.779	39.94
286.995	31.74
287.21	25.6
287.425	89.09
287.64	9.22
287.855	11.26
288.07	-9.22
288.285	37.89
288.5	41.98
288.715	44.03
288.93	-1.02
289.145	13.31
289.36	56.32
289.575	29.7
289.79	44.03
290.004	11.26
290.219	33.79
290.434	-7.17
290.649	-3.07
290.864	-44.03
291.079	58.37
291.294	-19.46
291.509	56.32
291.724	31.74
291.938	37.89
292.153	-11.26
292.368	-64.51
292.583	29.7
292.798	3.07
293.012	21.5
293.227	13.31
293.442	41.98
293.657	150.53
293.871	111.61
294.086	-3.07
294.301	54.27
294.516	17.41
294.73	-17.41
294.945	9.22
295.16	66.56
295.374	52.22
295.589	-5.12
295.804	-50.18
296.018	46.08
296.233	80.89
296.447	31.74
296.662	-56.32
296.877	95.23
297.091	48.13
297.306	44.03
297.52	-15.36
297.735	35.84
297.949	21.5
298.164	29.7
298.378	25.6
298.593	17.41
298.807	-5.12
299.022	37.89
299.236	66.56
299.451	15.36
299.665	72.7
299.88	68.61
300.094	7.17
300.309	9.22
300.523	70.65
300.737	66.56
300.952	29.7
301.166	46.08
301.381	15.36
301.595	-23.55
301.809	29.7
302.024	21.5
302.238	27.65
302.452	68.61
302.667	50.18
302.881	33.79
303.095	3.07
303.309	78.85
303.524	25.6
303.738	-5.12
303.952	101.37
304.166	52.22
304.381	-17.41
304.595	58.37
304.809	-3.07
305.023	60.42
305.237	5.12
305.452	11.26
305.666	-3.07
305.88	56.32
306.094	64.51
306.308	41.98
306.522	-48.13
306.736	48.13
306.95	15.36
307.164	7.17
307.379	15.36
307.593	33.79
307.807	82.94
308.021	64.51
308.235	3.07
308.449	7.17
308.663	-21.5
308.877	80.89
309.091	-7.17
309.305	33.79
309.519	9.22
309.733	50.18
309.947	60.42
310.161	78.85
310.374	7.17
310.588	60.42
310.802	56.32
311.016	62.46
311.23	41.98
311.444	-25.6
311.658	-15.36
311.872	66.56
312.085	17.41
312.299	23.55
312.513	25.6
312.727	60.42
312.941	87.04
313.154	72.7
313.368	17.41
313.582	-89.09
313.796	37.89
314.009	89.09
314.223	54.27
314.437	17.41
314.651	87.04
314.864	27.65
315.078	-35.84
315.292	31.74
315.505	95.23
315.719	11.26
315.933	35.84
316.146	80.89
316.36	-19.46
316.573	5.12
316.787	35.84
317.001	-1.02
317.214	5.12
317.428	-21.5
317.641	41.98
317.855	64.51
318.068	148.48
318.282	25.6
318.495	54.27
318.709	29.7
318.922	101.37
319.136	46.08
319.349	66.56
319.563	105.47
319.776	58.37
319.99	39.94
320.203	50.18
320.417	80.89
320.63	9.22
320.843	130.05
321.057	82.94
321.27	54.27
321.483	-31.74
321.697	11.26
321.91	31.74
322.124	70.65
322.337	27.65
322.55	121.85
322.763	60.42
322.977	35.84
323.19	41.98
323.403	68.61
323.617	21.5
323.83	119.81
324.043	-5.12
324.256	54.27
324.469	-56.32
324.683	17.41
324.896	58.37
325.109	87.04
325.322	-25.6
325.535	101.37
325.748	82.94
325.962	11.26
326.175	13.31
326.388	37.89
326.601	64.51
326.814	82.94
327.027	31.74
327.24	13.31
327.453	3.07
327.666	44.03
327.879	46.08
328.092	80.89
328.305	52.22
328.518	33.79
328.731	37.89
328.944	1.02
329.157	68.61
329.37	95.23
329.583	68.61
329.796	97.28
330.009	60.42
330.222	66.56
330.435	-48.13
330.648	31.74
330.861	33.79
331.073	7.17
331.286	64.51
331.499	-17.41
331.712	50.18
331.925	5.12
332.138	17.41
332.35	52.22
332.563	37.89
332.776	95.23
332.989	-27.65
333.202	56.32
333.414	46.08
333.627	25.6
333.84	-17.41
334.053	41.98
334.265	44.03
334.478	-25.6
334.691	72.7
334.903	15.36
335.116	72.7
335.329	74.75
335.541	9.22
335.754	101.37
335.966	144.38
336.179	68.61
336.392	72.7
336.604	-17.41
336.817	54.27
337.029	46.08
337.242	58.37
337.454	72.7
337.667	17.41
337.88	89.09
338.092	23.55
338.305	60.42
338.517	-37.89
338.729	111.61
338.942	46.08
339.154	-37.89
339.367	3.07
339.579	-5.12
339.792	1.02
340.004	101.37
340.217	-11.26
340.429	29.7
340.641	21.5
340.854	52.22
341.066	-48.13
341.278	62.46
341.491	146.43
341.703	60.42
341.915	70.65
342.128	46.08
342.34	37.89
342.552	5.12
342.764	74.75
342.977	37.89
343.189	29.7
343.401	15.36
343.613	13.31
343.826	48.13
344.038	-19.46
344.25	25.6
344.462	35.84
344.674	56.32
344.886	56.32
345.099	37.89
345.311	72.7
345.523	-17.41
345.735	-35.84
345.947	-3.07
346.159	46.08
346.371	76.8
346.583	29.7
346.795	70.65
347.007	80.89
347.219	62.46
347.431	-35.84
347.643	17.41
347.855	-13.31
348.067	66.56
348.279	50.18
348.491	-62.46
348.703	109.57
348.915	11.26
349.127	68.61
349.339	56.32
349.551	23.55
349.763	70.65
349.975	64.51
350.187	64.51
350.399	70.65
350.61	35.84
350.822	46.08
351.034	33.79
351.246	11.26
351.458	1.02
351.669	41.98
351.881	27.65
352.093	111.61
352.305	-27.65
352.517	76.8
352.728	132.09
352.94	48.13
353.152	15.36
353.363	-3.07
353.575	89.09
353.787	64.51
353.999	44.03
354.21	35.84
354.422	66.56
354.633	-35.84
354.845	-9.22
355.057	-54.27
355.268	29.7
355.48	48.13
355.692	7.17
355.903	58.37
356.115	52.22
356.326	17.41
356.538	93.18
356.749	-41.98
356.961	76.8
357.172	-39.94
357.384	17.41
357.595	80.89
357.807	-17.41
358.018	-11.26
358.23	132.09
358.441	107.52
358.653	37.89
358.864	15.36
359.075	25.6
359.287	21.5
359.498	121.85
359.709	70.65
359.921	56.32
360.132	37.89
360.344	-46.08
360.555	-13.31
360.766	46.08
360.977	-15.36
361.189	107.52
361.4	27.65
361.611	27.65
361.823	74.75
362.034	31.74
362.245	44.03
362.456	-5.12
362.667	119.81
362.879	25.6
363.09	56.32
363.301	54.27
363.512	37.89
363.723	-27.65
363.935	76.8
364.146	-5.12
364.357	56.32
364.568	119.81
364.779	-5.12
364.99	46.08
365.201	-11.26
365.412	74.75
365.623	-33.79
365.834	95.23
366.045	17.41
366.256	60.42
366.467	15.36
366.678	41.98
366.889	7.17
367.1	31.74
367.311	41.98
367.522	50.18
367.733	105.47
367.944	62.46
368.155	54.27
368.366	101.37
368.577	60.42
368.788	54.27
368.999	41.98
369.209	54.27
369.42	134.14
369.631	125.95
369.842	87.04
370.053	13.31
370.264	99.33
370.474	56.32
370.685	25.6
370.896	-33.79
371.107	66.56
371.317	52.22
371.528	17.41
371.739	107.52
371.95	17.41
372.16	70.65
372.371	21.5
372.582	9.22
372.792	82.94
373.003	46.08
373.214	62.46
373.424	56.32
373.635	-17.41
373.846	58.37
374.056	74.75
374.267	33.79
374.477	-19.46
374.688	44.03
374.898	39.94
375.109	11.26
375.319	68.61
375.53	84.99
375.74	54.27
375.951	91.13
376.161	15.36
376.372	123.9
376.582	64.51
376.793	93.18
377.003	9.22
377.214	-46.08
377.424	19.46
377.635	66.56
377.845	44.03
378.055	91.13
378.266	29.7
378.476	41.98
378.686	111.61
378.897	33.79
379.107	66.56
379.317	125.95
379.528	33.79
379.738	66.56
379.948	39.94
380.158	60.42
380.369	39.94
380.579	-7.17
380.789	44.03
380.999	58.37
381.21	33.79
381.42	27.65
381.63	-9.22
381.84	1.02
382.05	41.98
382.261	39.94
382.471	68.61
382.681	21.5
382.891	52.22
383.101	68.61
383.311	46.08
383.521	41.98
383.731	62.46
383.941	111.61
384.151	70.65
384.361	50.18
384.571	48.13
384.781	99.33
384.991	33.79
385.201	46.08
385.411	5.12
385.621	68.61
385.831	130.05
386.041	136.19
386.251	82.94
386.461	107.52
386.671	62.46
386.881	21.5
387.091	15.36
387.301	93.18
387.511	-7.17
387.72	91.13
387.93	62.46
388.14	31.74
388.35	66.56
388.56	177.15
388.769	99.33
388.979	41.98
389.189	29.7
389.399	68.61
389.609	33.79
389.818	58.37
390.028	31.74
390.238	62.46
390.447	66.56
390.657	33.79
390.867	13.31
391.076	29.7
391.286	132.09
391.496	11.26
391.705	35.84
391.915	99.33
392.125	44.03
392.334	107.52
392.544	130.05
392.753	48.13
392.963	78.85
393.172	72.7
393.382	5.12
393.591	130.05
393.801	93.18
394.01	54.27
394.22	93.18
394.429	62.46
394.639	56.32
394.848	48.13
395.058	101.37
395.267	56.32
395.477	58.37
395.686	60.42
395.895	93.18
396.105	140.29
396.314	66.56
396.524	58.37
396.733	168.96
396.942	130.05
397.152	123.9
397.361	37.89
397.57	52.22
397.78	11.26
397.989	91.13
398.198	191.49
398.407	111.61
398.617	105.47
398.826	177.15
399.035	31.74
399.244	97.28
399.453	140.29
399.663	121.85
399.872	62.46
400.081	130.05
400.29	70.65
400.499	103.42
400.708	173.05
400.917	62.46
401.127	82.94
401.336	97.28
401.545	193.53
401.754	134.14
401.963	99.33
402.172	121.85
402.381	80.89
402.59	109.57
402.799	91.13
403.008	209.92
403.217	142.33
403.426	148.48
403.635	119.81
403.844	162.81
404.053	173.05
404.262	113.66
404.471	132.09
404.68	177.15
404.888	164.86
405.097	125.95
405.306	179.2
405.515	168.96
405.724	119.81
405.933	201.72
406.142	267.26
406.35	242.68
406.559	168.96
406.768	160.77
406.977	254.97
407.185	189.44
407.394	156.67
407.603	171.01
407.812	201.72
408.02	238.59
408.229	171.01
408.438	283.64
408.646	283.64
408.855	297.98
409.064	308.22
409.272	273.4
409.481	238.59
409.69	230.4
409.898	345.08
410.107	322.56
410.315	250.88
410.524	306.17
410.733	371.71
410.941	381.95
411.15	381.95
411.358	343.03
411.567	375.8
411.775	504.82
411.984	431.1
412.192	508.92
412.401	345.08
412.609	443.39
412.818	517.11
413.026	586.74
413.234	533.5
413.443	451.58
413.651	513.02
413.86	586.74
414.068	658.42
414.276	603.13
414.485	709.62
414.693	642.04
414.901	742.39
415.11	654.33
415.318	713.72
415.526	723.96
415.734	865.27
415.943	750.58
416.151	844.79
416.359	863.22
416.567	936.95
416.776	994.29
416.984	969.71
417.192	949.23
417.4	992.24
417.608	926.71
417.817	1043.44
418.025	1176.56
418.233	1125.36
418.441	1143.79
418.649	1250.28
418.857	1225.71
419.065	1399.79
419.273	1448.94
419.481	1489.9
419.689	1387.5
419.897	1575.91
420.105	1547.24
420.313	1559.53
420.521	1651.69
420.729	1713.13
420.937	1778.66
421.145	1731.56
421.353	2053.09
421.561	2073.57
421.769	2001.89
421.977	2184.16
422.185	2018.27
422.393	2304.99
422.601	2319.32
422.809	2335.71
423.017	2444.25
423.224	2477.02
423.432	2565.08
423.64	2477.02
423.848	2804.69
424.056	2790.36
424.263	2962.39
424.471	2964.43
424.679	3044.31
424.887	3212.24
425.094	3230.67
425.302	3275.73
425.51	3414.99
425.718	3558.35
425.925	3425.23
426.133	3691.46
426.341	3812.29
426.548	4017.09
426.756	4084.67
426.964	4225.98
427.171	4402.11
427.379	4348.86
427.586	4555.71
427.794	4817.85
428.001	4889.53
428.209	5043.12
428.417	5018.55
428.624	5438.38
428.832	5360.56
429.039	5305.26
429.247	5391.28
429.454	6005.67
429.662	6235.04
429.869	5839.78
430.076	6196.13
430.284	6079.4
430.491	6542.24
430.699	6556.57
430.906	6816.66
431.114	6968.21
431.321	7093.14
431.528	7031.7
431.736	7572.36
431.943	8035.21
432.15	7852.94
432.358	8010.63
432.565	8291.2
432.772	8323.97
432.979	8672.12
433.187	8901.5
433.394	8905.59
433.601	9538.41
433.808	9513.84
434.016	9542.51
434.223	9847.66
434.43	10457.95
434.637	10269.54
434.844	10742.62
435.052	11236.18
435.259	11078.49
435.466	11248.47
435.673	11076.44
435.88	11778.89
436.087	12403.52
436.294	12239.69
436.501	11889.48
436.708	12286.79
436.915	12823.36
437.122	13204.28
437.329	13105.98
437.537	13587.25
437.743	13753.13
437.95	13931.31
438.157	14533.41
438.364	14947.1
438.571	14947.1
438.778	15188.76
438.985	16517.89
439.192	15780.62
439.399	16309
439.606	15887.12
439.813	16368.39
440.02	17974
440.227	17613.56
440.433	17302.26
440.64	17945.33
440.847	17586.93
441.054	18242.28
441.261	19452.63
441.467	19448.54
441.674	19747.54
441.881	20159.18
442.088	20122.32
442.294	19938
442.501	20783.81
442.708	20910.78
442.914	21744.31
443.121	22899.36
443.328	22123.18
443.534	24181.39
443.741	23169.69
443.948	22608.55
444.154	24547.98
444.361	24107.66
444.568	24556.17
444.774	24455.82
444.981	24472.2
445.187	25322.11
445.394	26722.92
445.6	26020.47
445.807	28508.75
446.013	27656.79
446.22	27810.39
446.426	29065.8
446.633	29301.31
446.839	30091.83
447.046	29104.71
447.252	30634.54
447.459	30515.76
447.665	30454.32
447.871	31582.75
448.078	32823.82
448.284	31316.51
448.491	32537.1
448.697	33810.94
448.903	33853.95
449.11	34236.92
449.316	33257.99
449.522	34181.62
449.728	35215.85
449.935	35482.08
450.141	35115.5
450.347	35987.93
450.553	35189.22
450.76	35351.01
450.966	36647.38
451.172	36172.25
451.378	36958.67
451.584	36626.9
451.791	37018.06
451.997	36780.49
452.203	37355.97
452.409	37384.65
452.615	37423.56
452.821	36037.08
453.027	35690.98
453.233	37689.79
453.44	35723.74
453.646	36512.21
453.852	36551.12
454.058	37347.78
454.264	35942.88
454.47	36714.96
454.676	35686.88
454.882	37173.7
455.088	34111.99
455.294	34415.09
455.5	34404.85
455.705	35009
455.911	33899
456.117	32764.43
456.323	32481.81
456.529	30573.1
456.735	31992.34
456.941	31164.96
457.147	30620.2
457.352	29841.98
457.558	29835.83
457.764	29526.59
457.97	29035.08
458.176	28670.54
458.381	28340.82
458.587	27007.59
458.793	26993.25
458.999	25750.14
459.204	27527.77
459.41	26761.83
459.616	25123.46
459.821	24961.67
460.027	24894.08
460.233	24351.37
460.438	23210.65
460.644	23581.34
460.85	22370.99
461.055	22012.59
461.261	21750.45
461.466	20415.18
461.672	20024.01
461.878	21273.28
462.083	19647.19
462.289	19393.24
462.494	19356.38
462.7	18432.74
462.905	17816.3
463.111	18643.68
463.316	18543.33
463.522	17982.19
463.727	18160.36
463.932	18172.65
464.138	18019.05
464.343	18123.5
464.549	17617.65
464.754	18111.21
464.959	17890.03
465.165	17844.98
465.37	17316.6
465.575	16458.5
465.781	17439.48
465.986	17464.05
466.191	17011.45
466.397	16425.73
466.602	15491.86
466.807	16294.66
467.012	16218.89
467.218	16210.7
467.423	16038.67
467.628	16268.04
467.833	16792.32
