Data from USB4F104151__268__11-12-05-466.txt Node

Date: Wed Mar 12 11:12:05 EDT 2025
User: louis
Spectrometer: USB4F10415
Trigger mode: 4
Integration Time (sec): 2.000000E-2
Scans to average: 1
Electric dark correction enabled: true
Nonlinearity correction enabled: false
Boxcar width: 0
XAxis mode: Wavelengths
Number of Pixels in Spectrum: 3648
>>>>>Begin Spectral Data<<<<<
178.204	-56.15
178.424	-56.15
178.644	-56.15
178.864	-76.63
179.084	-111.44
179.304	13.48
179.524	-39.76
179.744	-82.77
179.964	-11.09
180.184	-31.57
180.404	-7
180.624	5.29
180.844	15.53
181.064	7.34
181.283	38.06
181.503	36.01
181.723	56.49
181.943	-31.57
182.163	79.02
182.383	-23.38
182.602	-7
182.822	91.31
183.042	7.34
183.262	-23.38
183.482	-88.92
183.701	1.19
183.921	-0.85
184.141	-21.33
184.361	7.34
184.58	-41.81
184.8	79.02
185.02	40.11
185.239	-11.09
185.459	50.35
185.679	33.96
185.898	-68.44
186.118	38.06
186.338	29.87
186.557	-4.95
186.777	-0.85
186.997	-105.3
187.216	5.29
187.436	-11.09
187.655	56.49
187.875	13.48
188.095	33.96
188.314	33.96
188.534	52.39
188.753	-19.29
188.973	1.19
189.192	9.39
189.412	-4.95
189.631	-56.15
189.851	31.91
190.07	50.35
190.29	-66.39
190.509	-9.05
190.729	-17.24
190.948	48.3
191.168	56.49
191.387	38.06
191.607	-31.57
191.826	-9.05
192.045	-25.43
192.265	31.91
192.484	17.58
192.704	-58.2
192.923	-66.39
193.142	1.19
193.362	21.67
193.581	19.63
193.8	9.39
194.02	13.48
194.239	5.29
194.458	13.48
194.678	-27.48
194.897	27.82
195.116	31.91
195.335	21.67
195.555	50.35
195.774	21.67
195.993	-23.38
196.212	-2.9
196.432	-31.57
196.651	33.96
196.87	-35.67
197.089	74.92
197.308	-0.85
197.528	-0.85
197.747	-45.91
197.966	-19.29
198.185	29.87
198.404	-54.1
198.623	66.73
198.842	56.49
199.062	33.96
199.281	83.11
199.5	1.19
199.719	33.96
199.938	-19.29
200.157	74.92
200.376	11.43
200.595	-80.72
200.814	9.39
201.033	29.87
201.252	17.58
201.471	7.34
201.69	17.58
201.909	3.24
202.128	1.19
202.347	36.01
202.566	-56.15
202.785	13.48
203.004	11.43
203.223	64.68
203.442	9.39
203.661	-66.39
203.879	25.77
204.098	44.2
204.317	-60.24
204.536	42.15
204.755	-19.29
204.974	9.39
205.193	-23.38
205.411	3.24
205.63	36.01
205.849	-41.81
206.068	68.78
206.287	60.59
206.505	54.44
206.724	13.48
206.943	-47.96
207.162	-9.05
207.381	13.48
207.599	85.16
207.818	-15.19
208.037	13.48
208.255	-56.15
208.474	15.53
208.693	21.67
208.911	-17.24
209.13	25.77
209.349	-0.85
209.567	-25.43
209.786	5.29
210.005	-78.68
210.223	-17.24
210.442	-21.33
210.661	-47.96
210.879	29.87
211.098	50.35
211.316	-21.33
211.535	31.91
211.753	-23.38
211.972	-45.91
212.191	-13.14
212.409	-17.24
212.628	17.58
212.846	3.24
213.065	5.29
213.283	38.06
213.502	-45.91
213.72	62.63
213.938	7.34
214.157	50.35
214.375	40.11
214.594	-7
214.812	23.72
215.031	-15.19
215.249	11.43
215.467	5.29
215.686	-37.72
215.904	62.63
216.122	-37.72
216.341	27.82
216.559	-0.85
216.778	42.15
216.996	-23.38
217.214	-31.57
217.432	-35.67
217.651	-43.86
217.869	13.48
218.087	31.91
218.306	31.91
218.524	44.2
218.742	25.77
218.96	-15.19
219.179	38.06
219.397	31.91
219.615	107.69
219.833	119.98
220.051	9.39
220.27	46.25
220.488	15.53
220.706	54.44
220.924	25.77
221.142	-39.76
221.36	-11.09
221.578	-37.72
221.796	31.91
222.015	46.25
222.233	11.43
222.451	-7
222.669	17.58
222.887	68.78
223.105	-17.24
223.323	7.34
223.541	7.34
223.759	-23.38
223.977	-33.62
224.195	50.35
224.413	-9.05
224.631	1.19
224.849	-9.05
225.067	91.31
225.285	-31.57
225.503	-54.1
225.721	-11.09
225.939	46.25
226.157	1.19
226.375	52.39
226.592	-76.63
226.81	-4.95
227.028	40.11
227.246	3.24
227.464	-9.05
227.682	44.2
227.9	29.87
228.117	13.48
228.335	48.3
228.553	66.73
228.771	-47.96
228.989	-47.96
229.206	21.67
229.424	27.82
229.642	54.44
229.86	68.78
230.077	-9.05
230.295	-2.9
230.513	-31.57
230.731	21.67
230.948	89.26
231.166	83.11
231.384	13.48
231.601	-11.09
231.819	-7
232.037	-25.43
232.254	13.48
232.472	23.72
232.689	-4.95
232.907	13.48
233.125	7.34
233.342	-21.33
233.56	-43.86
233.777	7.34
233.995	3.24
234.213	95.4
234.43	-4.95
234.648	48.3
234.865	-74.58
235.083	-0.85
235.3	-0.85
235.518	27.82
235.735	44.2
235.953	87.21
236.17	-9.05
236.388	25.77
236.605	-9.05
236.822	50.35
237.04	33.96
237.257	17.58
237.475	11.43
237.692	11.43
237.909	-47.96
238.127	-13.14
238.344	-21.33
238.562	33.96
238.779	29.87
238.996	19.63
239.214	-41.81
239.431	-25.43
239.648	-39.76
239.865	13.48
240.083	25.77
240.3	13.48
240.517	-13.14
240.735	-37.72
240.952	48.3
241.169	-43.86
241.386	-4.95
241.603	44.2
241.821	-76.63
242.038	76.97
242.255	50.35
242.472	-31.57
242.689	-27.48
242.907	48.3
243.124	21.67
243.341	-19.29
243.558	-52.05
243.775	60.59
243.992	-41.81
244.209	50.35
244.426	9.39
244.643	-4.95
244.86	-9.05
245.078	-68.44
245.295	25.77
245.512	-43.86
245.729	50.35
245.946	52.39
246.163	21.67
246.38	93.35
246.597	46.25
246.814	-11.09
247.031	9.39
247.248	5.29
247.464	-11.09
247.681	-31.57
247.898	56.49
248.115	89.26
248.332	1.19
248.549	64.68
248.766	107.69
248.983	33.96
249.2	-25.43
249.417	1.19
249.633	-60.24
249.85	13.48
250.067	40.11
250.284	7.34
250.501	13.48
250.717	-56.15
250.934	-64.34
251.151	38.06
251.368	7.34
251.585	13.48
251.801	25.77
252.018	13.48
252.235	-15.19
252.451	48.3
252.668	-4.95
252.885	21.67
253.102	50.35
253.318	15.53
253.535	27.82
253.752	72.87
253.968	11.43
254.185	21.67
254.401	11.43
254.618	60.59
254.835	-15.19
255.051	62.63
255.268	-11.09
255.484	15.53
255.701	-43.86
255.917	-19.29
256.134	7.34
256.351	3.24
256.567	19.63
256.784	-15.19
257	-27.48
257.217	9.39
257.433	46.25
257.65	1.19
257.866	-13.14
258.082	64.68
258.299	38.06
258.515	46.25
258.732	-37.72
258.948	-0.85
259.165	-2.9
259.381	25.77
259.597	-60.24
259.814	-23.38
260.03	-15.19
260.246	5.29
260.463	62.63
260.679	-27.48
260.895	7.34
261.112	-29.52
261.328	13.48
261.544	-35.67
261.761	11.43
261.977	-33.62
262.193	52.39
262.409	23.72
262.626	-15.19
262.842	-27.48
263.058	46.25
263.274	13.48
263.49	48.3
263.707	58.54
263.923	52.39
264.139	9.39
264.355	36.01
264.571	56.49
264.787	42.15
265.004	27.82
265.22	9.39
265.436	48.3
265.652	9.39
265.868	68.78
266.084	9.39
266.3	-25.43
266.516	-25.43
266.732	-9.05
266.948	-2.9
267.164	-2.9
267.38	68.78
267.596	46.25
267.812	-15.19
268.028	-21.33
268.244	54.44
268.46	-9.05
268.676	-9.05
268.892	21.67
269.108	-41.81
269.324	-39.76
269.54	1.19
269.756	-4.95
269.972	11.43
270.188	15.53
270.403	15.53
270.619	-9.05
270.835	5.29
271.051	-86.87
271.267	-7
271.483	-4.95
271.698	60.59
271.914	40.11
272.13	5.29
272.346	9.39
272.562	11.43
272.777	36.01
272.993	64.68
273.209	15.53
273.425	1.19
273.64	-4.95
273.856	15.53
274.072	-37.72
274.287	-50
274.503	29.87
274.719	19.63
274.934	-37.72
275.15	-2.9
275.366	7.34
275.581	29.87
275.797	-27.48
276.012	-23.38
276.228	-21.33
276.444	-15.19
276.659	31.91
276.875	-7
277.09	-60.24
277.306	5.29
277.521	48.3
277.737	76.97
277.952	36.01
278.168	13.48
278.383	21.67
278.599	36.01
278.814	3.24
279.03	33.96
279.245	99.5
279.461	-29.52
279.676	23.72
279.892	-31.57
280.107	52.39
280.322	-27.48
280.538	23.72
280.753	-37.72
280.969	-2.9
281.184	33.96
281.399	38.06
281.615	-64.34
281.83	-35.67
282.045	-43.86
282.26	54.44
282.476	-29.52
282.691	-9.05
282.906	25.77
283.122	-4.95
283.337	23.72
283.552	46.25
283.767	-2.9
283.983	76.97
284.198	-31.57
284.413	72.87
284.628	-27.48
284.843	27.82
285.058	9.39
285.274	48.3
285.489	-11.09
285.704	21.67
285.919	-56.15
286.134	-4.95
286.349	-50
286.564	-4.95
286.779	50.35
286.995	27.82
287.21	-11.09
287.425	5.29
287.64	21.67
287.855	-9.05
288.07	-23.38
288.285	46.25
288.5	29.87
288.715	-2.9
288.93	-0.85
289.145	42.15
289.36	-31.57
289.575	44.2
289.79	1.19
290.004	-13.14
290.219	21.67
290.434	-43.86
290.649	91.31
290.864	-0.85
291.079	5.29
291.294	5.29
291.509	-52.05
291.724	17.58
291.938	-41.81
292.153	-41.81
292.368	9.39
292.583	21.67
292.798	15.53
293.012	9.39
293.227	-2.9
293.442	-15.19
293.657	5.29
293.871	50.35
294.086	46.25
294.301	25.77
294.516	68.78
294.73	42.15
294.945	-74.58
295.16	38.06
295.374	-7
295.589	91.31
295.804	-82.77
296.018	-4.95
296.233	13.48
296.447	7.34
296.662	40.11
296.877	33.96
297.091	-56.15
297.306	13.48
297.52	-0.85
297.735	-74.58
297.949	40.11
298.164	27.82
298.378	1.19
298.593	-27.48
298.807	-41.81
299.022	-23.38
299.236	83.11
299.451	52.39
299.665	-37.72
299.88	29.87
300.094	36.01
300.309	-74.58
300.523	-15.19
300.737	9.39
300.952	62.63
301.166	-7
301.381	-21.33
301.595	-7
301.809	-27.48
302.024	-35.67
302.238	-23.38
302.452	3.24
302.667	27.82
302.881	-43.86
303.095	23.72
303.309	76.97
303.524	-4.95
303.738	27.82
303.952	19.63
304.166	64.68
304.381	-72.53
304.595	74.92
304.809	-64.34
305.023	76.97
305.237	19.63
305.452	54.44
305.666	25.77
305.88	60.59
306.094	-2.9
306.308	-41.81
306.522	56.49
306.736	38.06
306.95	42.15
307.164	-29.52
307.379	-23.38
307.593	33.96
307.807	97.45
308.021	38.06
308.235	81.07
308.449	-41.81
308.663	72.87
308.877	70.83
309.091	50.35
309.305	46.25
309.519	-11.09
309.733	76.97
309.947	-7
310.161	-11.09
310.374	-7
310.588	33.96
310.802	17.58
311.016	-25.43
311.23	21.67
311.444	-21.33
311.658	13.48
311.872	46.25
312.085	-66.39
312.299	-37.72
312.513	-7
312.727	103.59
312.941	9.39
313.154	68.78
313.368	27.82
313.582	9.39
313.796	25.77
314.009	46.25
314.223	89.26
314.437	52.39
314.651	36.01
314.864	5.29
315.078	50.35
315.292	62.63
315.505	46.25
315.719	54.44
315.933	-58.2
316.146	9.39
316.36	13.48
316.573	11.43
316.787	11.43
317.001	-21.33
317.214	-15.19
317.428	54.44
317.641	19.63
317.855	-21.33
318.068	31.91
318.282	76.97
318.495	23.72
318.709	-47.96
318.922	-21.33
319.136	-23.38
319.349	54.44
319.563	-52.05
319.776	38.06
319.99	-52.05
320.203	-7
320.417	33.96
320.63	29.87
320.843	81.07
321.057	-21.33
321.27	74.92
321.483	3.24
321.697	-23.38
321.91	-31.57
322.124	-13.14
322.337	-2.9
322.55	83.11
322.763	9.39
322.977	-31.57
323.19	31.91
323.403	21.67
323.617	56.49
323.83	15.53
324.043	-15.19
324.256	-17.24
324.469	9.39
324.683	64.68
324.896	-60.24
325.109	48.3
325.322	-13.14
325.535	5.29
325.748	-7
325.962	-0.85
326.175	74.92
326.388	27.82
326.601	1.19
326.814	13.48
327.027	13.48
327.24	40.11
327.453	-41.81
327.666	48.3
327.879	-29.52
328.092	-47.96
328.305	-39.76
328.518	21.67
328.731	46.25
328.944	-45.91
329.157	101.55
329.37	21.67
329.583	-19.29
329.796	66.73
330.009	5.29
330.222	54.44
330.435	29.87
330.648	21.67
330.861	40.11
331.073	7.34
331.286	74.92
331.499	7.34
331.712	-23.38
331.925	29.87
332.138	-7
332.35	3.24
332.563	17.58
332.776	42.15
332.989	-11.09
333.202	48.3
333.414	-62.29
333.627	9.39
333.84	-47.96
334.053	15.53
334.265	-41.81
334.478	46.25
334.691	66.73
334.903	46.25
335.116	33.96
335.329	13.48
335.541	-58.2
335.754	105.64
335.966	48.3
336.179	13.48
336.392	-2.9
336.604	93.35
336.817	29.87
337.029	136.36
337.242	17.58
337.454	70.83
337.667	38.06
337.88	33.96
338.092	33.96
338.305	-27.48
338.517	21.67
338.729	99.5
338.942	42.15
339.154	-2.9
339.367	46.25
339.579	15.53
339.792	64.68
340.004	58.54
340.217	11.43
340.429	68.78
340.641	62.63
340.854	9.39
341.066	11.43
341.278	-0.85
341.491	87.21
341.703	93.35
341.915	17.58
342.128	68.78
342.34	-58.2
342.552	29.87
342.764	15.53
342.977	62.63
343.189	21.67
343.401	-47.96
343.613	83.11
343.826	-9.05
344.038	48.3
344.25	13.48
344.462	7.34
344.674	60.59
344.886	15.53
345.099	13.48
345.311	19.63
345.523	-2.9
345.735	-17.24
345.947	-15.19
346.159	-54.1
346.371	40.11
346.583	1.19
346.795	7.34
347.007	-17.24
347.219	48.3
347.431	60.59
347.643	68.78
347.855	58.54
348.067	79.02
348.279	-7
348.491	66.73
348.703	38.06
348.915	-56.15
349.127	50.35
349.339	-23.38
349.551	-47.96
349.763	-19.29
349.975	31.91
350.187	46.25
350.399	74.92
350.61	9.39
350.822	-41.81
351.034	19.63
351.246	-70.48
351.458	-15.19
351.669	25.77
351.881	54.44
352.093	27.82
352.305	25.77
352.517	-17.24
352.728	52.39
352.94	58.54
353.152	23.72
353.363	44.2
353.575	40.11
353.787	21.67
353.999	1.19
354.21	-0.85
354.422	-35.67
354.633	23.72
354.845	1.19
355.057	60.59
355.268	-35.67
355.48	17.58
355.692	33.96
355.903	58.54
356.115	17.58
356.326	-7
356.538	42.15
356.749	66.73
356.961	25.77
357.172	46.25
357.384	-50
357.595	46.25
357.807	54.44
358.018	-37.72
358.23	81.07
358.441	31.91
358.653	15.53
358.864	66.73
359.075	11.43
359.287	-43.86
359.498	76.97
359.709	58.54
359.921	-2.9
360.132	25.77
360.344	1.19
360.555	79.02
360.766	7.34
360.977	54.44
361.189	62.63
361.4	-13.14
361.611	38.06
361.823	87.21
362.034	99.5
362.245	9.39
362.456	48.3
362.667	33.96
362.879	-23.38
363.09	13.48
363.301	40.11
363.512	-23.38
363.723	-23.38
363.935	-29.52
364.146	29.87
364.357	5.29
364.568	11.43
364.779	9.39
364.99	97.45
365.201	19.63
365.412	91.31
365.623	1.19
365.834	-25.43
366.045	5.29
366.256	-23.38
366.467	25.77
366.678	58.54
366.889	72.87
367.1	119.98
367.311	-113.49
367.522	19.63
367.733	83.11
367.944	56.49
368.155	-9.05
368.366	-7
368.577	33.96
368.788	52.39
368.999	74.92
369.209	-23.38
369.42	31.91
369.631	81.07
369.842	56.49
370.053	56.49
370.264	7.34
370.474	7.34
370.685	36.01
370.896	-15.19
371.107	29.87
371.317	38.06
371.528	72.87
371.739	21.67
371.95	64.68
372.16	81.07
372.371	33.96
372.582	70.83
372.792	99.5
373.003	36.01
373.214	-25.43
373.424	-11.09
373.635	52.39
373.846	56.49
374.056	5.29
374.267	21.67
374.477	17.58
374.688	-21.33
374.898	44.2
375.109	40.11
375.319	27.82
375.53	40.11
375.74	40.11
375.951	5.29
376.161	79.02
376.372	52.39
376.582	15.53
376.793	68.78
377.003	-35.67
377.214	76.97
377.424	5.29
377.635	48.3
377.845	-25.43
378.055	23.72
378.266	44.2
378.476	46.25
378.686	21.67
378.897	31.91
379.107	3.24
379.317	11.43
379.528	40.11
379.738	124.07
379.948	-4.95
380.158	31.91
380.369	-7
380.579	64.68
380.789	48.3
380.999	97.45
381.21	103.59
381.42	44.2
381.63	9.39
381.84	42.15
382.05	97.45
382.261	79.02
382.471	40.11
382.681	48.3
382.891	40.11
383.101	56.49
383.311	25.77
383.521	60.59
383.731	33.96
383.941	11.43
384.151	-54.1
384.361	66.73
384.571	-9.05
384.781	5.29
384.991	56.49
385.201	95.4
385.411	19.63
385.621	87.21
385.831	17.58
386.041	23.72
386.251	50.35
386.461	97.45
386.671	13.48
386.881	42.15
387.091	111.78
387.301	42.15
387.511	21.67
387.72	1.19
387.93	1.19
388.14	23.72
388.35	25.77
388.56	27.82
388.769	79.02
388.979	-25.43
389.189	-2.9
389.399	87.21
389.609	21.67
389.818	38.06
390.028	19.63
390.238	9.39
390.447	-23.38
390.657	50.35
390.867	46.25
391.076	81.07
391.286	-4.95
391.496	60.59
391.705	50.35
391.915	46.25
392.125	46.25
392.334	36.01
392.544	76.97
392.753	9.39
392.963	15.53
393.172	50.35
393.382	9.39
393.591	111.78
393.801	19.63
394.01	58.54
394.22	-15.19
394.429	109.74
394.639	130.22
394.848	70.83
395.058	72.87
395.267	62.63
395.477	130.22
395.686	83.11
395.895	111.78
396.105	58.54
396.314	13.48
396.524	160.94
396.733	66.73
396.942	-11.09
397.152	62.63
397.361	134.31
397.57	74.92
397.78	21.67
397.989	66.73
398.198	33.96
398.407	7.34
398.617	13.48
398.826	89.26
399.035	15.53
399.244	54.44
399.453	111.78
399.663	17.58
399.872	36.01
400.081	50.35
400.29	128.17
400.499	109.74
400.708	99.5
400.917	15.53
401.127	62.63
401.336	122.02
401.545	148.65
401.754	64.68
401.963	40.11
402.172	13.48
402.381	91.31
402.59	52.39
402.799	46.25
403.008	83.11
403.217	91.31
403.426	132.26
403.635	9.39
403.844	124.07
404.053	85.16
404.262	109.74
404.471	185.51
404.68	107.69
404.888	56.49
405.097	140.46
405.306	142.5
405.515	169.13
405.724	54.44
405.933	124.07
406.142	165.03
406.35	117.93
406.559	134.31
406.768	197.8
406.977	169.13
407.185	134.31
407.394	230.57
407.603	167.08
407.812	271.53
408.02	208.04
408.229	189.61
408.438	197.8
408.646	212.14
408.855	216.23
409.064	208.04
409.272	253.09
409.481	236.71
409.69	275.62
409.898	144.55
410.107	226.47
410.315	337.06
410.524	269.48
410.733	316.58
410.941	240.81
411.15	341.16
411.358	238.76
411.567	332.97
411.775	332.97
411.984	363.69
412.192	412.84
412.401	302.25
412.609	392.36
412.818	406.69
413.026	455.84
413.234	447.65
413.443	408.74
413.651	482.47
413.86	427.17
414.068	588.96
414.276	554.15
414.485	457.89
414.693	509.09
414.901	545.95
415.11	562.34
415.318	533.67
415.526	591.01
415.734	648.35
415.943	732.32
416.151	758.94
416.359	634.02
416.567	705.7
416.776	754.85
416.984	801.95
417.192	869.53
417.4	844.96
417.608	949.4
417.817	920.73
418.025	912.54
418.233	953.5
418.441	955.55
418.649	984.22
418.857	1059.99
419.065	1092.76
419.273	1008.8
419.481	1211.54
419.689	1160.34
419.897	1260.7
420.105	1293.46
420.313	1440.92
420.521	1346.71
420.729	1438.87
420.937	1422.48
421.145	1533.08
421.353	1578.13
421.561	1643.67
421.769	1860.75
421.977	1703.06
422.185	1631.38
422.393	1830.03
422.601	1918.09
422.809	1967.24
423.017	1926.29
423.224	2030.73
423.432	2153.61
423.64	2221.19
423.848	2229.38
424.056	2253.96
424.263	2389.13
424.471	2473.09
424.679	2534.53
424.887	2700.42
425.094	2724.99
425.302	2761.86
425.51	2806.91
425.718	2976.89
425.925	3005.56
426.133	3087.48
426.341	3136.63
426.548	3308.66
426.756	3339.38
426.964	3320.95
427.171	3601.52
427.379	3681.39
427.586	3826.8
427.794	3812.46
428.001	4076.65
428.209	4285.55
428.417	4160.62
428.624	4408.42
428.832	4492.39
429.039	4308.07
429.247	4330.6
429.454	4779.11
429.662	5188.7
429.869	4893.79
430.076	5282.91
430.284	4998.24
430.491	5227.61
430.699	5477.46
430.906	5602.39
431.114	5690.45
431.321	5809.23
431.528	6014.03
431.736	6431.82
431.943	6556.74
432.15	6405.19
432.358	6476.87
432.565	6761.54
432.772	6753.35
432.979	7169.09
433.187	7488.57
433.394	7408.7
433.601	7885.87
433.808	7861.3
434.016	7617.59
434.223	8195.12
434.43	8768.55
434.637	8463.4
434.844	8952.87
435.052	9223.2
435.259	9112.61
435.466	9057.31
435.673	9083.94
435.88	9645.08
436.087	10044.43
436.294	10398.73
436.501	9837.59
436.708	10173.46
436.915	10365.96
437.122	10976.26
437.329	10914.82
437.537	11389.95
437.743	11557.88
437.95	11387.9
438.157	12166.13
438.364	12485.61
438.571	12280.82
438.778	12387.31
438.985	13523.93
439.192	12989.41
439.399	13437.92
439.606	13153.25
439.813	13779.93
440.02	14646.22
440.227	14535.63
440.433	14439.37
440.64	14762.95
440.847	14644.17
441.054	15090.63
441.261	15852.47
441.467	15840.18
441.674	16141.24
441.881	16384.94
442.088	16784.3
442.294	16386.99
442.501	17089.45
442.708	17304.48
442.914	18193.3
443.121	18686.86
443.328	18160.53
443.534	19467.14
443.741	18881.42
443.948	18641.81
444.154	20110.2
444.361	19770.24
444.568	20130.68
444.774	20249.46
444.981	20415.35
445.187	21056.36
445.394	21568.35
445.6	21465.96
445.807	23583.55
446.013	22659.92
446.22	22985.55
446.426	23810.88
446.633	24136.51
446.839	24720.18
447.046	23677.76
447.252	25275.18
447.459	25488.17
447.665	24967.98
447.871	26061.6
448.078	27073.29
448.284	25891.62
448.491	26585.88
448.697	27872
448.903	28080.89
449.11	28103.42
449.316	27640.58
449.522	28033.79
449.728	28936.95
449.935	29346.54
450.141	29127.41
450.347	29833.96
450.553	29154.03
450.76	29373.16
450.966	30327.52
451.172	30065.38
451.378	30411.48
451.584	29893.35
451.791	30898.9
451.997	30466.78
452.203	30853.84
452.409	31034.07
452.615	31001.3
452.821	29461.23
453.027	29786.85
453.233	31183.57
453.44	29774.56
453.646	30065.38
453.852	30114.53
454.058	30466.78
454.264	29616.87
454.47	30380.76
454.676	29733.6
454.882	30409.43
455.088	28414.71
455.294	28054.27
455.5	28365.56
455.705	28793.59
455.911	28099.33
456.117	27542.28
456.323	27065.1
456.529	25445.16
456.735	26481.43
456.941	25668.39
457.147	25840.42
457.352	24656.69
457.558	24513.33
457.764	24619.83
457.97	24093.5
458.176	23350.09
458.381	23319.37
458.587	22467.41
458.793	22389.59
458.999	21062.51
459.204	22436.69
459.41	21943.13
459.616	20388.72
459.821	20667.25
460.027	20706.16
460.233	20089.72
460.438	18975.63
460.644	19434.37
460.85	18283.41
461.055	18015.13
461.261	18082.71
461.466	16745.39
461.672	16239.54
461.878	17408.93
462.083	16337.84
462.289	16075.7
462.494	15836.09
462.7	15207.36
462.905	14734.28
463.111	15076.29
463.316	15489.98
463.522	14709.71
463.727	15006.66
463.932	14916.55
464.138	15051.72
464.343	14879.69
464.549	14351.31
464.754	15027.14
464.959	14674.89
465.165	14527.44
465.37	14171.09
465.575	13917.14
465.781	14314.45
465.986	14435.28
466.191	13673.43
466.397	13552.6
466.602	12866.53
466.807	13458.4
467.012	13155.3
467.218	13061.09
467.423	13300.7
467.628	13204.45
467.833	13984.73
