Data from USB4F104151__149__11-08-19-851.txt Node

Date: Wed Mar 12 11:08:19 EDT 2025
User: louis
Spectrometer: USB4F10415
Trigger mode: 4
Integration Time (sec): 2.000000E-2
Scans to average: 1
Electric dark correction enabled: true
Nonlinearity correction enabled: false
Boxcar width: 0
XAxis mode: Wavelengths
Number of Pixels in Spectrum: 3648
>>>>>Begin Spectral Data<<<<<
178.204	-86.53
178.424	-86.53
178.644	-86.53
178.864	-100.86
179.084	-94.72
179.304	-51.71
179.524	19.97
179.744	-6.66
179.964	34.3
180.184	-10.75
180.404	13.82
180.624	24.06
180.844	1.54
181.064	-31.23
181.283	32.26
181.503	-16.9
181.723	-8.7
181.943	-61.95
182.163	-16.9
182.383	-45.57
182.602	75.26
182.822	13.82
183.042	-66.05
183.262	22.02
183.482	-2.56
183.701	-76.29
183.921	9.73
184.141	-64
184.361	-8.7
184.58	-27.14
184.8	-98.81
185.02	65.02
185.239	-33.28
185.459	5.63
185.679	54.78
185.898	-12.8
186.118	5.63
186.338	-6.66
186.557	32.26
186.777	-16.9
186.997	67.07
187.216	-115.2
187.436	3.58
187.655	-29.18
187.875	15.87
188.095	-31.23
188.314	-39.42
188.534	50.69
188.753	-55.81
188.973	-10.75
189.192	-10.75
189.412	-16.9
189.631	77.31
189.851	11.78
190.07	-14.85
190.29	-8.7
190.509	-0.51
190.729	26.11
190.948	22.02
191.168	50.69
191.387	50.69
191.607	26.11
191.826	9.73
192.045	-12.8
192.265	7.68
192.484	22.02
192.704	-29.18
192.923	-55.81
193.142	-39.42
193.362	5.63
193.581	13.82
193.8	22.02
194.02	30.21
194.239	-70.14
194.458	54.78
194.678	-14.85
194.897	-35.33
195.116	-55.81
195.335	9.73
195.555	-49.66
195.774	-25.09
195.993	42.5
196.212	-35.33
196.432	17.92
196.651	-8.7
196.87	1.54
197.089	95.74
197.308	60.93
197.528	46.59
197.747	5.63
197.966	7.68
198.185	1.54
198.404	-74.24
198.623	5.63
198.842	50.69
199.062	91.65
199.281	17.92
199.5	-51.71
199.719	-78.33
199.938	-12.8
200.157	-23.04
200.376	-0.51
200.595	-35.33
200.814	46.59
201.033	22.02
201.252	9.73
201.471	-61.95
201.69	22.02
201.909	-82.43
202.128	13.82
202.347	22.02
202.566	-64
202.785	-16.9
203.004	-16.9
203.223	71.17
203.442	-25.09
203.661	-86.53
203.879	-33.28
204.098	26.11
204.317	-27.14
204.536	54.78
204.755	-59.9
204.974	34.3
205.193	40.45
205.411	85.5
205.63	52.74
205.849	-35.33
206.068	-10.75
206.287	22.02
206.505	54.78
206.724	-88.57
206.943	44.54
207.162	-57.86
207.381	30.21
207.599	-35.33
207.818	-10.75
208.037	-66.05
208.255	-33.28
208.474	-41.47
208.693	-16.9
208.911	-45.57
209.13	-23.04
209.349	24.06
209.567	-84.48
209.786	28.16
210.005	-8.7
210.223	1.54
210.442	-18.94
210.661	-12.8
210.879	-41.47
211.098	-10.75
211.316	38.4
211.535	-43.52
211.753	-37.38
211.972	1.54
212.191	15.87
212.409	56.83
212.628	-35.33
212.846	-41.47
213.065	54.78
213.283	19.97
213.502	58.88
213.72	-18.94
213.938	-61.95
214.157	-25.09
214.375	-20.99
214.594	22.02
214.812	11.78
215.031	5.63
215.249	30.21
215.467	-10.75
215.686	-4.61
215.904	54.78
216.122	24.06
216.341	22.02
216.559	-35.33
216.778	101.89
216.996	1.54
217.214	9.73
217.432	17.92
217.651	-27.14
217.869	-6.66
218.087	-2.56
218.306	-0.51
218.524	-10.75
218.742	-2.56
218.96	24.06
219.179	-12.8
219.397	1.54
219.615	71.17
219.833	30.21
220.051	-31.23
220.27	5.63
220.488	56.83
220.706	-33.28
220.924	-4.61
221.142	1.54
221.36	-4.61
221.578	58.88
221.796	-35.33
222.015	1.54
222.233	26.11
222.451	17.92
222.669	7.68
222.887	85.5
223.105	-20.99
223.323	-47.62
223.541	-18.94
223.759	40.45
223.977	-59.9
224.195	-64
224.413	17.92
224.631	62.98
224.849	-8.7
225.067	-76.29
225.285	-4.61
225.503	-35.33
225.721	-94.72
225.939	-25.09
226.157	-14.85
226.375	42.5
226.592	34.3
226.81	11.78
227.028	-4.61
227.246	5.63
227.464	-31.23
227.682	-35.33
227.9	11.78
228.117	17.92
228.335	-12.8
228.553	-31.23
228.771	-2.56
228.989	24.06
229.206	34.3
229.424	-55.81
229.642	17.92
229.86	-80.38
230.077	-43.52
230.295	-14.85
230.513	19.97
230.731	24.06
230.948	-18.94
231.166	-0.51
231.384	11.78
231.601	-29.18
231.819	17.92
232.037	1.54
232.254	-18.94
232.472	9.73
232.689	-16.9
232.907	58.88
233.125	-16.9
233.342	-12.8
233.56	-10.75
233.777	-55.81
233.995	26.11
234.213	15.87
234.43	52.74
234.648	24.06
234.865	-43.52
235.083	56.83
235.3	-49.66
235.518	-16.9
235.735	30.21
235.953	-6.66
236.17	-37.38
236.388	30.21
236.605	13.82
236.822	38.4
237.04	1.54
237.257	50.69
237.475	-10.75
237.692	52.74
237.909	-2.56
238.127	50.69
238.344	-31.23
238.562	48.64
238.779	46.59
238.996	34.3
239.214	-20.99
239.431	-51.71
239.648	26.11
239.865	46.59
240.083	-4.61
240.3	-72.19
240.517	-25.09
240.735	58.88
240.952	19.97
241.169	-0.51
241.386	44.54
241.603	-8.7
241.821	-27.14
242.038	95.74
242.255	-57.86
242.472	17.92
242.689	40.45
242.907	52.74
243.124	-31.23
243.341	-14.85
243.558	3.58
243.775	9.73
243.992	-55.81
244.209	46.59
244.426	46.59
244.643	3.58
244.86	-8.7
245.078	38.4
245.295	-33.28
245.512	56.83
245.729	-84.48
245.946	-55.81
246.163	1.54
246.38	-16.9
246.597	17.92
246.814	-57.86
247.031	-12.8
247.248	56.83
247.464	-49.66
247.681	-0.51
247.898	58.88
248.115	3.58
248.332	-59.9
248.549	-14.85
248.766	3.58
248.983	26.11
249.2	-33.28
249.417	32.26
249.633	-61.95
249.85	-37.38
250.067	52.74
250.284	71.17
250.501	36.35
250.717	-29.18
250.934	-127.49
251.151	32.26
251.368	-94.72
251.585	22.02
251.801	19.97
252.018	-39.42
252.235	-31.23
252.451	-25.09
252.668	48.64
252.885	26.11
253.102	-12.8
253.318	36.35
253.535	-31.23
253.752	-12.8
253.968	-35.33
254.185	5.63
254.401	11.78
254.618	5.63
254.835	-4.61
255.051	91.65
255.268	-27.14
255.484	-33.28
255.701	-76.29
255.917	-27.14
256.134	-25.09
256.351	5.63
256.567	60.93
256.784	-37.38
257	7.68
257.217	-33.28
257.433	5.63
257.65	50.69
257.866	30.21
258.082	-0.51
258.299	-12.8
258.515	28.16
258.732	-68.09
258.948	-31.23
259.165	-25.09
259.381	5.63
259.597	-29.18
259.814	17.92
260.03	3.58
260.246	60.93
260.463	38.4
260.679	5.63
260.895	83.45
261.112	13.82
261.328	-72.19
261.544	38.4
261.761	32.26
261.977	-68.09
262.193	5.63
262.409	-2.56
262.626	-82.43
262.842	-0.51
263.058	9.73
263.274	-70.14
263.49	58.88
263.707	-6.66
263.923	3.58
264.139	-33.28
264.355	65.02
264.571	-0.51
264.787	-0.51
265.004	-35.33
265.22	-16.9
265.436	-39.42
265.652	-37.38
265.868	-31.23
266.084	-27.14
266.3	-16.9
266.516	-27.14
266.732	-29.18
266.948	-12.8
267.164	-39.42
267.38	-4.61
267.596	58.88
267.812	-6.66
268.028	54.78
268.244	38.4
268.46	-43.52
268.676	-2.56
268.892	42.5
269.108	11.78
269.324	-35.33
269.54	-25.09
269.756	5.63
269.972	-49.66
270.188	17.92
270.403	-74.24
270.619	15.87
270.835	34.3
271.051	54.78
271.267	-27.14
271.483	-27.14
271.698	22.02
271.914	-25.09
272.13	58.88
272.346	-0.51
272.562	15.87
272.777	54.78
272.993	-39.42
273.209	-18.94
273.425	7.68
273.64	9.73
273.856	32.26
274.072	-39.42
274.287	-16.9
274.503	30.21
274.719	-6.66
274.934	-43.52
275.15	-18.94
275.366	-27.14
275.581	34.3
275.797	30.21
276.012	-10.75
276.228	-25.09
276.444	17.92
276.659	-12.8
276.875	-47.62
277.09	-6.66
277.306	-51.71
277.521	58.88
277.737	-16.9
277.952	22.02
278.168	-45.57
278.383	26.11
278.599	30.21
278.814	42.5
279.03	15.87
279.245	40.45
279.461	44.54
279.676	69.12
279.892	48.64
280.107	-20.99
280.322	-6.66
280.538	-18.94
280.753	5.63
280.969	-16.9
281.184	75.26
281.399	-8.7
281.615	-4.61
281.83	77.31
282.045	32.26
282.26	-27.14
282.476	-61.95
282.691	-47.62
282.906	-20.99
283.122	-4.61
283.337	36.35
283.552	-18.94
283.767	-57.86
283.983	-4.61
284.198	17.92
284.413	46.59
284.628	1.54
284.843	24.06
285.058	13.82
285.274	-39.42
285.489	50.69
285.704	-43.52
285.919	50.69
286.134	54.78
286.349	-20.99
286.564	-41.47
286.779	11.78
286.995	103.93
287.21	36.35
287.425	24.06
287.64	-6.66
287.855	60.93
288.07	-6.66
288.285	17.92
288.5	-0.51
288.715	-39.42
288.93	79.36
289.145	11.78
289.36	24.06
289.575	3.58
289.79	83.45
290.004	-2.56
290.219	38.4
290.434	46.59
290.649	-39.42
290.864	5.63
291.079	-53.76
291.294	-4.61
291.509	54.78
291.724	7.68
291.938	-29.18
292.153	60.93
292.368	-10.75
292.583	-12.8
292.798	-16.9
293.012	-10.75
293.227	73.21
293.442	19.97
293.657	42.5
293.871	26.11
294.086	-27.14
294.301	52.74
294.516	58.88
294.73	42.5
294.945	-23.04
295.16	24.06
295.374	-55.81
295.589	44.54
295.804	-6.66
296.018	7.68
296.233	52.74
296.447	58.88
296.662	-33.28
296.877	46.59
297.091	22.02
297.306	-39.42
297.52	9.73
297.735	-2.56
297.949	9.73
298.164	-8.7
298.378	-8.7
298.593	-68.09
298.807	-78.33
299.022	34.3
299.236	34.3
299.451	46.59
299.665	38.4
299.88	24.06
300.094	-6.66
300.309	32.26
300.523	-25.09
300.737	-6.66
300.952	3.58
301.166	36.35
301.381	-10.75
301.595	-55.81
301.809	15.87
302.024	52.74
302.238	9.73
302.452	17.92
302.667	24.06
302.881	60.93
303.095	19.97
303.309	50.69
303.524	-33.28
303.738	-18.94
303.952	26.11
304.166	-45.57
304.381	-18.94
304.595	-0.51
304.809	3.58
305.023	1.54
305.237	-6.66
305.452	11.78
305.666	-49.66
305.88	13.82
306.094	46.59
306.308	26.11
306.522	17.92
306.736	50.69
306.95	38.4
307.164	15.87
307.379	-25.09
307.593	36.35
307.807	54.78
308.021	3.58
308.235	-33.28
308.449	-33.28
308.663	-0.51
308.877	32.26
309.091	28.16
309.305	36.35
309.519	-27.14
309.733	5.63
309.947	-29.18
310.161	-14.85
310.374	52.74
310.588	34.3
310.802	-2.56
311.016	-20.99
311.23	22.02
311.444	-6.66
311.658	1.54
311.872	60.93
312.085	71.17
312.299	85.5
312.513	-8.7
312.727	1.54
312.941	-33.28
313.154	9.73
313.368	26.11
313.582	-57.86
313.796	-2.56
314.009	69.12
314.223	91.65
314.437	-0.51
314.651	1.54
314.864	-8.7
315.078	-45.57
315.292	79.36
315.505	-64
315.719	42.5
315.933	-14.85
316.146	5.63
316.36	17.92
316.573	116.22
316.787	34.3
317.001	30.21
317.214	-23.04
317.428	46.59
317.641	44.54
317.855	-29.18
318.068	-10.75
318.282	85.5
318.495	-10.75
318.709	-2.56
318.922	-39.42
319.136	71.17
319.349	34.3
319.563	24.06
319.776	15.87
319.99	1.54
320.203	30.21
320.417	50.69
320.63	97.79
320.843	9.73
321.057	-0.51
321.27	-29.18
321.483	-0.51
321.697	22.02
321.91	-16.9
322.124	1.54
322.337	7.68
322.55	13.82
322.763	19.97
322.977	87.55
323.19	1.54
323.403	19.97
323.617	26.11
323.83	-6.66
324.043	-25.09
324.256	60.93
324.469	3.58
324.683	3.58
324.896	-47.62
325.109	77.31
325.322	-41.47
325.535	91.65
325.748	97.79
325.962	-18.94
326.175	17.92
326.388	-4.61
326.601	-12.8
326.814	32.26
327.027	36.35
327.24	15.87
327.453	-45.57
327.666	28.16
327.879	62.98
328.092	67.07
328.305	-37.38
328.518	1.54
328.731	15.87
328.944	34.3
329.157	1.54
329.37	79.36
329.583	22.02
329.796	46.59
330.009	-25.09
330.222	-12.8
330.435	65.02
330.648	36.35
330.861	56.83
331.073	-43.52
331.286	13.82
331.499	38.4
331.712	38.4
331.925	-8.7
332.138	62.98
332.35	56.83
332.563	19.97
332.776	13.82
332.989	7.68
333.202	-0.51
333.414	26.11
333.627	7.68
333.84	-12.8
334.053	5.63
334.265	5.63
334.478	50.69
334.691	-25.09
334.903	122.37
335.116	-14.85
335.329	42.5
335.541	22.02
335.754	81.41
335.966	17.92
336.179	1.54
336.392	19.97
336.604	3.58
336.817	81.41
337.029	-4.61
337.242	15.87
337.454	-18.94
337.667	-39.42
337.88	71.17
338.092	50.69
338.305	-0.51
338.517	-6.66
338.729	-4.61
338.942	38.4
339.154	30.21
339.367	22.02
339.579	-27.14
339.792	-6.66
340.004	42.5
340.217	11.78
340.429	-29.18
340.641	-49.66
340.854	15.87
341.066	11.78
341.278	95.74
341.491	17.92
341.703	11.78
341.915	-4.61
342.128	22.02
342.34	5.63
342.552	-2.56
342.764	7.68
342.977	5.63
343.189	-2.56
343.401	79.36
343.613	-8.7
343.826	-0.51
344.038	-23.04
344.25	19.97
344.462	22.02
344.674	62.98
344.886	17.92
345.099	-45.57
345.311	60.93
345.523	9.73
345.735	-20.99
345.947	42.5
346.159	50.69
346.371	-27.14
346.583	-4.61
346.795	42.5
347.007	13.82
347.219	-31.23
347.431	42.5
347.643	3.58
347.855	34.3
348.067	3.58
348.279	-12.8
348.491	3.58
348.703	24.06
348.915	-55.81
349.127	1.54
349.339	32.26
349.551	24.06
349.763	-2.56
349.975	36.35
350.187	1.54
350.399	54.78
350.61	87.55
350.822	-18.94
351.034	24.06
351.246	52.74
351.458	32.26
351.669	67.07
351.881	42.5
352.093	48.64
352.305	144.89
352.517	24.06
352.728	5.63
352.94	-33.28
353.152	83.45
353.363	-6.66
353.575	3.58
353.787	-37.38
353.999	-2.56
354.21	24.06
354.422	40.45
354.633	-57.86
354.845	-6.66
355.057	7.68
355.268	-2.56
355.48	46.59
355.692	7.68
355.903	34.3
356.115	-14.85
356.326	19.97
356.538	30.21
356.749	5.63
356.961	101.89
357.172	-6.66
357.384	19.97
357.595	32.26
357.807	19.97
358.018	77.31
358.23	3.58
358.441	17.92
358.653	-2.56
358.864	24.06
359.075	17.92
359.287	-8.7
359.498	60.93
359.709	-6.66
359.921	36.35
360.132	17.92
360.344	15.87
360.555	24.06
360.766	40.45
360.977	-0.51
361.189	46.59
361.4	-23.04
361.611	42.5
361.823	46.59
362.034	11.78
362.245	1.54
362.456	-27.14
362.667	-86.53
362.879	24.06
363.09	-4.61
363.301	62.98
363.512	13.82
363.723	13.82
363.935	3.58
364.146	97.79
364.357	-2.56
364.568	75.26
364.779	26.11
364.99	15.87
365.201	50.69
365.412	99.84
365.623	48.64
365.834	-4.61
366.045	58.88
366.256	71.17
366.467	69.12
366.678	13.82
366.889	-0.51
367.1	30.21
367.311	-29.18
367.522	3.58
367.733	-29.18
367.944	17.92
368.155	-55.81
368.366	48.64
368.577	79.36
368.788	34.3
368.999	5.63
369.209	-2.56
369.42	3.58
369.631	77.31
369.842	19.97
370.053	28.16
370.264	40.45
370.474	11.78
370.685	-80.38
370.896	26.11
371.107	83.45
371.317	36.35
371.528	-6.66
371.739	56.83
371.95	58.88
372.16	24.06
372.371	-16.9
372.582	5.63
372.792	5.63
373.003	26.11
373.214	9.73
373.424	-39.42
373.635	13.82
373.846	-4.61
374.056	83.45
374.267	-31.23
374.477	15.87
374.688	42.5
374.898	54.78
375.109	42.5
375.319	-29.18
375.53	60.93
375.74	7.68
375.951	24.06
376.161	-8.7
376.372	-27.14
376.582	-33.28
376.793	-18.94
377.003	-43.52
377.214	79.36
377.424	13.82
377.635	22.02
377.845	46.59
378.055	71.17
378.266	7.68
378.476	-33.28
378.686	40.45
378.897	-6.66
379.107	81.41
379.317	22.02
379.528	42.5
379.738	26.11
379.948	40.45
380.158	-27.14
380.369	38.4
380.579	30.21
380.789	48.64
380.999	44.54
381.21	-18.94
381.42	112.13
381.63	44.54
381.84	58.88
382.05	85.5
382.261	54.78
382.471	103.93
382.681	-2.56
382.891	73.21
383.101	60.93
383.311	32.26
383.521	-104.96
383.731	38.4
383.941	71.17
384.151	7.68
384.361	-45.57
384.571	54.78
384.781	69.12
384.991	83.45
385.201	56.83
385.411	40.45
385.621	48.64
385.831	19.97
386.041	101.89
386.251	24.06
386.461	58.88
386.671	24.06
386.881	67.07
387.091	-20.99
387.301	48.64
387.511	48.64
387.72	-57.86
387.93	52.74
388.14	-0.51
388.35	-29.18
388.56	-4.61
388.769	58.88
388.979	26.11
389.189	15.87
389.399	1.54
389.609	3.58
389.818	-18.94
390.028	3.58
390.238	75.26
390.447	5.63
390.657	-6.66
390.867	38.4
391.076	22.02
391.286	79.36
391.496	44.54
391.705	11.78
391.915	58.88
392.125	65.02
392.334	56.83
392.544	93.69
392.753	62.98
392.963	19.97
393.172	44.54
393.382	7.68
393.591	32.26
393.801	56.83
394.01	95.74
394.22	26.11
394.429	-16.9
394.639	-0.51
394.848	48.64
395.058	56.83
395.267	73.21
395.477	75.26
395.686	3.58
395.895	157.18
396.105	22.02
396.314	65.02
396.524	38.4
396.733	85.5
396.942	62.98
397.152	-16.9
397.361	48.64
397.57	48.64
397.78	22.02
397.989	126.46
398.198	126.46
398.407	-8.7
398.617	42.5
398.826	81.41
399.035	-14.85
399.244	38.4
399.453	42.5
399.663	83.45
399.872	15.87
400.081	58.88
400.29	83.45
400.499	44.54
400.708	42.5
400.917	114.17
401.127	62.98
401.336	85.5
401.545	85.5
401.754	91.65
401.963	89.6
402.172	99.84
402.381	73.21
402.59	58.88
402.799	71.17
403.008	132.61
403.217	58.88
403.426	122.37
403.635	65.02
403.844	81.41
404.053	79.36
404.262	71.17
404.471	87.55
404.68	140.8
404.888	95.74
405.097	118.27
405.306	118.27
405.515	136.7
405.724	87.55
405.933	165.37
406.142	105.98
406.35	101.89
406.559	124.41
406.768	187.9
406.977	212.48
407.185	165.37
407.394	208.38
407.603	183.81
407.812	146.94
408.02	177.66
408.229	214.52
408.438	163.33
408.646	183.81
408.855	187.9
409.064	210.43
409.272	235
409.481	232.96
409.69	165.37
409.898	181.76
410.107	280.06
410.315	261.63
410.524	206.33
410.733	316.92
410.941	294.4
411.15	284.16
411.358	343.55
411.567	400.89
411.775	366.07
411.984	407.03
412.192	378.36
412.401	370.17
412.609	443.9
412.818	372.22
413.026	427.51
413.234	439.8
413.443	474.62
413.651	439.8
413.86	400.89
414.068	521.72
414.276	529.91
414.485	548.34
414.693	511.48
414.901	622.07
415.11	615.93
415.318	656.89
415.526	669.17
415.734	716.28
415.943	749.04
416.151	699.89
416.359	787.96
416.567	802.29
416.776	781.81
416.984	816.63
417.192	878.07
417.4	902.64
417.608	871.92
417.817	908.79
418.025	1048.05
418.233	968.18
418.441	1062.38
418.649	1082.86
418.857	1086.96
419.065	1134.06
419.273	1195.5
419.481	1191.41
419.689	1136.11
419.897	1361.39
420.105	1347.05
420.313	1357.29
420.521	1490.41
420.729	1453.55
420.937	1469.93
421.145	1523.18
421.353	1656.29
421.561	1822.18
421.769	1904.1
421.977	1877.48
422.185	1844.71
422.393	2012.64
422.601	2018.79
422.809	2012.64
423.017	2078.18
423.224	2098.66
423.432	2201.05
423.64	2137.57
423.848	2444.76
424.056	2463.19
424.263	2475.48
424.471	2655.7
424.679	2637.27
424.887	2909.65
425.094	2938.32
425.302	2840.02
425.51	2911.7
425.718	3141.07
425.925	3130.83
426.133	3198.42
426.341	3454.41
426.548	3526.09
426.756	3562.95
426.964	3581.39
427.171	3814.85
427.379	3825.09
427.586	3980.74
427.794	4079.04
428.001	4224.45
428.209	4431.29
428.417	4437.44
428.624	4715.96
428.832	4926.9
429.039	4734.39
429.247	4746.68
429.454	5160.37
429.662	5516.72
429.869	5066.16
430.076	5467.56
430.284	5395.89
430.491	5694.89
430.699	6038.95
430.906	5995.94
431.114	6057.38
431.321	6225.31
431.528	6372.77
431.736	6759.83
431.943	7069.08
432.15	6995.35
432.358	7128.47
432.565	7357.84
432.772	7196.05
432.979	7675.27
433.187	7914.89
433.394	7855.5
433.601	8316.29
433.808	8430.98
434.016	8254.85
434.223	8760.7
434.43	9395.57
434.637	9348.47
434.844	9756.01
435.052	9790.83
435.259	9811.31
435.466	9862.51
435.673	9670
435.88	10319.2
436.087	10835.29
436.294	10708.32
436.501	10691.93
436.708	10929.5
436.915	11242.84
437.122	11885.9
437.329	11588.94
437.537	11984.2
437.743	12342.6
437.95	12045.64
438.157	12703.04
438.364	13255.99
438.571	13346.1
438.778	13352.24
438.985	14658.85
439.192	13894.96
439.399	14464.29
439.606	14015.79
439.813	14953.76
440.02	15826.19
440.227	15357.21
440.433	15183.13
440.64	16024.84
440.847	15834.38
441.054	16041.23
441.261	17102.08
441.467	16979.2
441.674	17507.57
441.881	17798.38
442.088	18003.18
442.294	17616.12
442.501	18195.69
442.708	18617.57
442.914	19334.36
443.121	19901.65
443.328	19803.35
443.534	20937.92
443.741	20528.33
443.948	20380.87
444.154	21638.33
444.361	21470.39
444.568	21650.61
444.774	21804.21
444.981	21935.28
445.187	22508.71
445.394	23626.9
445.6	23078.05
445.807	25240.7
446.013	24315.02
446.22	24972.42
446.426	25341.05
446.633	25744.5
446.839	26623.08
447.046	25629.82
447.252	27006.05
447.459	27038.82
447.665	27216.99
447.871	28326.99
448.078	29111.36
448.284	27806.81
448.491	28507.21
448.697	29795.39
448.903	30383.15
449.11	30219.31
449.316	29596.73
449.522	30387.25
449.728	31157.28
449.935	31505.44
450.141	31448.1
450.347	31460.38
450.553	30839.85
450.76	31466.53
450.966	32189.46
451.172	32148.5
451.378	32891.91
451.584	31921.18
451.791	32898.06
451.997	32627.73
452.203	33061.9
452.409	32959.5
452.615	32953.35
452.821	31769.63
453.027	31665.18
453.233	32799.76
453.44	31482.91
453.646	32283.67
453.852	32164.89
454.058	32859.15
454.264	31513.63
454.47	32185.36
454.676	31267.87
454.882	32502.8
455.088	29768.76
455.294	29928.5
455.5	30755.88
455.705	30786.6
455.911	29420.61
456.117	28896.33
456.323	28664.91
456.529	27145.31
456.735	28294.22
456.941	27372.64
457.147	27073.63
457.352	26408.05
457.558	25758.84
457.764	26133.62
457.97	25416.83
458.176	24749.19
458.381	24593.54
458.587	23565.46
458.793	23661.72
458.999	22367.4
459.204	23852.18
459.41	23348.38
459.616	22023.34
459.821	21904.56
460.027	21732.53
460.233	21488.82
460.438	20155.6
460.644	20597.96
460.85	19709.14
461.055	19291.35
461.261	19252.44
461.466	17380.6
461.672	17130.75
461.878	18375.91
462.083	17181.95
462.289	16889.09
462.494	16729.34
462.7	15951.12
462.905	15465.75
463.111	16182.54
463.316	15901.97
463.522	16006.41
463.727	15756.56
463.932	15832.33
464.138	15654.16
464.343	15873.29
464.549	15394.07
464.754	15861.01
464.959	15840.53
465.165	15691.02
465.37	14857.5
465.575	14550.31
465.781	15062.3
465.986	15209.75
466.191	14697.76
466.397	14419.24
466.602	13663.54
466.807	14089.51
467.012	14136.62
467.218	14118.18
467.423	13823.28
