Data from USB4F104151__130__11-07-39-196.txt Node

Date: Wed Mar 12 11:07:39 EDT 2025
User: louis
Spectrometer: USB4F10415
Trigger mode: 4
Integration Time (sec): 2.000000E-2
Scans to average: 1
Electric dark correction enabled: true
Nonlinearity correction enabled: false
Boxcar width: 0
XAxis mode: Wavelengths
Number of Pixels in Spectrum: 3648
>>>>>Begin Spectral Data<<<<<
178.204	-54.61
178.424	-54.61
178.644	-54.61
178.864	-109.91
179.084	-64.85
179.304	6.83
179.524	41.64
179.744	19.11
179.964	19.11
180.184	-85.33
180.404	33.45
180.624	43.69
180.844	17.07
181.064	-25.94
181.283	-23.89
181.503	-1.37
181.723	-44.37
181.943	2.73
182.163	12.97
182.383	86.7
182.602	-40.28
182.822	8.87
183.042	39.59
183.262	74.41
183.482	-17.75
183.701	55.98
183.921	-34.13
184.141	47.79
184.361	0.68
184.58	35.5
184.8	0.68
185.02	-5.46
185.239	-19.8
185.459	39.59
185.679	43.69
185.898	-44.37
186.118	39.59
186.338	43.69
186.557	35.5
186.777	80.55
186.997	-1.37
187.216	23.21
187.436	64.17
187.655	123.56
187.875	31.4
188.095	10.92
188.314	49.83
188.534	76.46
188.753	-3.41
188.973	47.79
189.192	25.26
189.412	41.64
189.631	47.79
189.851	-7.51
190.07	12.97
190.29	49.83
190.509	-5.46
190.729	0.68
190.948	4.78
191.168	92.84
191.387	41.64
191.607	62.12
191.826	-13.65
192.045	-13.65
192.265	58.03
192.484	45.74
192.704	-1.37
192.923	-40.28
193.142	49.83
193.362	29.35
193.581	12.97
193.8	64.17
194.02	80.55
194.239	31.4
194.458	66.22
194.678	-7.51
194.897	-19.8
195.116	4.78
195.335	-7.51
195.555	4.78
195.774	70.31
195.993	80.55
196.212	-5.46
196.432	109.22
196.651	53.93
196.87	-42.32
197.089	68.27
197.308	78.51
197.528	51.88
197.747	45.74
197.966	103.08
198.185	96.94
198.404	-5.46
198.623	37.55
198.842	117.42
199.062	43.69
199.281	4.78
199.5	17.07
199.719	55.98
199.938	8.87
200.157	70.31
200.376	70.31
200.595	17.07
200.814	-7.51
201.033	-27.99
201.252	41.64
201.471	12.97
201.69	8.87
201.909	47.79
202.128	23.21
202.347	72.36
202.566	15.02
202.785	58.03
203.004	53.93
203.223	115.37
203.442	-5.46
203.661	66.22
203.879	51.88
204.098	25.26
204.317	23.21
204.536	25.26
204.755	-11.61
204.974	129.7
205.193	31.4
205.411	-5.46
205.63	60.07
205.849	31.4
206.068	66.22
206.287	70.31
206.505	31.4
206.724	17.07
206.943	64.17
207.162	-56.66
207.381	-13.65
207.599	27.31
207.818	-3.41
208.037	53.93
208.255	33.45
208.474	-68.95
208.693	0.68
208.911	21.16
209.13	6.83
209.349	62.12
209.567	53.93
209.786	123.56
210.005	-13.65
210.223	29.35
210.442	-11.61
210.661	72.36
210.879	-30.04
211.098	-7.51
211.316	-27.99
211.535	33.45
211.753	-30.04
211.972	88.75
212.191	35.5
212.409	41.64
212.628	17.07
212.846	4.78
213.065	68.27
213.283	53.93
213.502	31.4
213.72	45.74
213.938	60.07
214.157	0.68
214.375	60.07
214.594	-3.41
214.812	23.21
215.031	4.78
215.249	-21.85
215.467	-38.23
215.686	53.93
215.904	0.68
216.122	66.22
216.341	96.94
216.559	8.87
216.778	35.5
216.996	-19.8
217.214	92.84
217.432	12.97
217.651	35.5
217.869	0.68
218.087	37.55
218.306	45.74
218.524	64.17
218.742	-9.56
218.96	60.07
219.179	-5.46
219.397	29.35
219.615	70.31
219.833	43.69
220.051	62.12
220.27	29.35
220.488	37.55
220.706	-38.23
220.924	6.83
221.142	6.83
221.36	29.35
221.578	49.83
221.796	21.16
222.015	94.89
222.233	15.02
222.451	37.55
222.669	35.5
222.887	45.74
223.105	17.07
223.323	-3.41
223.541	58.03
223.759	21.16
223.977	15.02
224.195	33.45
224.413	45.74
224.631	49.83
224.849	31.4
225.067	51.88
225.285	68.27
225.503	41.64
225.721	0.68
225.939	72.36
226.157	49.83
226.375	58.03
226.592	-25.94
226.81	33.45
227.028	88.75
227.246	41.64
227.464	21.16
227.682	17.07
227.9	51.88
228.117	80.55
228.335	-5.46
228.553	17.07
228.771	0.68
228.989	27.31
229.206	70.31
229.424	-79.19
229.642	8.87
229.86	64.17
230.077	6.83
230.295	-27.99
230.513	12.97
230.731	27.31
230.948	98.99
231.166	43.69
231.384	23.21
231.601	23.21
231.819	-17.75
232.037	-79.19
232.254	29.35
232.472	27.31
232.689	-7.51
232.907	101.03
233.125	62.12
233.342	76.46
233.56	4.78
233.777	25.26
233.995	4.78
234.213	-5.46
234.43	19.11
234.648	-5.46
234.865	-30.04
235.083	17.07
235.3	-7.51
235.518	146.09
235.735	-3.41
235.953	4.78
236.17	29.35
236.388	15.02
236.605	125.61
236.822	86.7
237.04	-23.89
237.257	53.93
237.475	35.5
237.692	4.78
237.909	47.79
238.127	105.13
238.344	66.22
238.562	-46.42
238.779	2.73
238.996	78.51
239.214	17.07
239.431	21.16
239.648	-19.8
239.865	31.4
240.083	96.94
240.3	90.79
240.517	35.5
240.735	37.55
240.952	51.88
241.169	10.92
241.386	-7.51
241.603	47.79
241.821	-56.66
242.038	47.79
242.255	-5.46
242.472	4.78
242.689	-25.94
242.907	53.93
243.124	25.26
243.341	-9.56
243.558	58.03
243.775	12.97
243.992	27.31
244.209	25.26
244.426	86.7
244.643	88.75
244.86	2.73
245.078	109.22
245.295	131.75
245.512	43.69
245.729	-11.61
245.946	25.26
246.163	-13.65
246.38	-7.51
246.597	66.22
246.814	35.5
247.031	19.11
247.248	-17.75
247.464	21.16
247.681	111.27
247.898	6.83
248.115	8.87
248.332	74.41
248.549	76.46
248.766	82.6
248.983	70.31
249.2	23.21
249.417	62.12
249.633	51.88
249.85	82.6
250.067	49.83
250.284	125.61
250.501	70.31
250.717	19.11
250.934	-38.23
251.151	19.11
251.368	-40.28
251.585	-3.41
251.801	-5.46
252.018	19.11
252.235	35.5
252.451	-15.7
252.668	33.45
252.885	2.73
253.102	-3.41
253.318	94.89
253.535	43.69
253.752	-13.65
253.968	25.26
254.185	19.11
254.401	-27.99
254.618	45.74
254.835	-5.46
255.051	98.99
255.268	70.31
255.484	84.65
255.701	0.68
255.917	12.97
256.134	0.68
256.351	88.75
256.567	47.79
256.784	4.78
257	47.79
257.217	-7.51
257.433	29.35
257.65	-54.61
257.866	-21.85
258.082	49.83
258.299	101.03
258.515	25.26
258.732	10.92
258.948	72.36
259.165	23.21
259.381	-7.51
259.597	29.35
259.814	78.51
260.03	-46.42
260.246	0.68
260.463	-11.61
260.679	-5.46
260.895	62.12
261.112	47.79
261.328	-11.61
261.544	-44.37
261.761	33.45
261.977	37.55
262.193	-19.8
262.409	29.35
262.626	-5.46
262.842	19.11
263.058	25.26
263.274	41.64
263.49	10.92
263.707	25.26
263.923	25.26
264.139	-17.75
264.355	29.35
264.571	10.92
264.787	86.7
265.004	86.7
265.22	51.88
265.436	4.78
265.652	-27.99
265.868	27.31
266.084	47.79
266.3	6.83
266.516	-21.85
266.732	41.64
266.948	2.73
267.164	6.83
267.38	-7.51
267.596	74.41
267.812	80.55
268.028	-11.61
268.244	51.88
268.46	-5.46
268.676	27.31
268.892	-13.65
269.108	74.41
269.324	-56.66
269.54	47.79
269.756	27.31
269.972	58.03
270.188	70.31
270.403	4.78
270.619	10.92
270.835	-32.08
271.051	64.17
271.267	76.46
271.483	19.11
271.698	-13.65
271.914	90.79
272.13	6.83
272.346	27.31
272.562	15.02
272.777	4.78
272.993	-13.65
273.209	72.36
273.425	-9.56
273.64	-15.7
273.856	-3.41
274.072	4.78
274.287	55.98
274.503	35.5
274.719	6.83
274.934	43.69
275.15	-40.28
275.366	25.26
275.581	4.78
275.797	29.35
276.012	-32.08
276.228	49.83
276.444	8.87
276.659	25.26
276.875	45.74
277.09	78.51
277.306	10.92
277.521	35.5
277.737	45.74
277.952	86.7
278.168	35.5
278.383	23.21
278.599	8.87
278.814	135.85
279.03	8.87
279.245	58.03
279.461	33.45
279.676	-5.46
279.892	-23.89
280.107	-42.32
280.322	25.26
280.538	-5.46
280.753	43.69
280.969	64.17
281.184	33.45
281.399	25.26
281.615	107.18
281.83	70.31
282.045	-1.37
282.26	47.79
282.476	-25.94
282.691	64.17
282.906	2.73
283.122	27.31
283.337	33.45
283.552	72.36
283.767	49.83
283.983	17.07
284.198	-32.08
284.413	60.07
284.628	-89.43
284.843	37.55
285.058	29.35
285.274	43.69
285.489	-11.61
285.704	29.35
285.919	27.31
286.134	39.59
286.349	27.31
286.564	10.92
286.779	8.87
286.995	19.11
287.21	37.55
287.425	74.41
287.64	35.5
287.855	29.35
288.07	-38.23
288.285	51.88
288.5	33.45
288.715	60.07
288.93	25.26
289.145	25.26
289.36	45.74
289.575	-9.56
289.79	33.45
290.004	-5.46
290.219	-48.47
290.434	37.55
290.649	10.92
290.864	17.07
291.079	8.87
291.294	23.21
291.509	-17.75
291.724	47.79
291.938	-9.56
292.153	96.94
292.368	8.87
292.583	15.02
292.798	45.74
293.012	33.45
293.227	58.03
293.442	37.55
293.657	66.22
293.871	64.17
294.086	8.87
294.301	92.84
294.516	64.17
294.73	80.55
294.945	-11.61
295.16	47.79
295.374	-30.04
295.589	-15.7
295.804	-54.61
296.018	2.73
296.233	60.07
296.447	15.02
296.662	10.92
296.877	27.31
297.091	19.11
297.306	88.75
297.52	-3.41
297.735	-1.37
297.949	-32.08
298.164	96.94
298.378	12.97
298.593	6.83
298.807	43.69
299.022	107.18
299.236	53.93
299.451	49.83
299.665	29.35
299.88	74.41
300.094	64.17
300.309	23.21
300.523	119.46
300.737	31.4
300.952	43.69
301.166	72.36
301.381	23.21
301.595	35.5
301.809	31.4
302.024	64.17
302.238	-3.41
302.452	-34.13
302.667	-5.46
302.881	55.98
303.095	64.17
303.309	82.6
303.524	31.4
303.738	53.93
303.952	53.93
304.166	92.84
304.381	-9.56
304.595	82.6
304.809	41.64
305.023	66.22
305.237	0.68
305.452	47.79
305.666	12.97
305.88	45.74
306.094	78.51
306.308	35.5
306.522	33.45
306.736	53.93
306.95	0.68
307.164	37.55
307.379	19.11
307.593	8.87
307.807	-3.41
308.021	60.07
308.235	62.12
308.449	35.5
308.663	19.11
308.877	78.51
309.091	51.88
309.305	39.59
309.519	-23.89
309.733	45.74
309.947	37.55
310.161	53.93
310.374	117.42
310.588	119.46
310.802	23.21
311.016	53.93
311.23	8.87
311.444	15.02
311.658	15.02
311.872	23.21
312.085	101.03
312.299	82.6
312.513	84.65
312.727	74.41
312.941	29.35
313.154	68.27
313.368	43.69
313.582	41.64
313.796	53.93
314.009	6.83
314.223	37.55
314.437	-17.75
314.651	-15.7
314.864	-38.23
315.078	49.83
315.292	98.99
315.505	29.35
315.719	35.5
315.933	29.35
316.146	47.79
316.36	-25.94
316.573	94.89
316.787	86.7
317.001	94.89
317.214	17.07
317.428	25.26
317.641	39.59
317.855	41.64
318.068	21.16
318.282	-11.61
318.495	98.99
318.709	-1.37
318.922	17.07
319.136	82.6
319.349	78.51
319.563	41.64
319.776	43.69
319.99	64.17
320.203	33.45
320.417	60.07
320.63	131.75
320.843	88.75
321.057	12.97
321.27	-34.13
321.483	53.93
321.697	-66.9
321.91	47.79
322.124	60.07
322.337	47.79
322.55	45.74
322.763	10.92
322.977	-7.51
323.19	101.03
323.403	31.4
323.617	70.31
323.83	43.69
324.043	21.16
324.256	37.55
324.469	17.07
324.683	33.45
324.896	4.78
325.109	0.68
325.322	35.5
325.535	10.92
325.748	78.51
325.962	60.07
326.175	12.97
326.388	-34.13
326.601	51.88
326.814	27.31
327.027	29.35
327.24	154.28
327.453	-19.8
327.666	70.31
327.879	25.26
328.092	35.5
328.305	25.26
328.518	60.07
328.731	25.26
328.944	53.93
329.157	88.75
329.37	49.83
329.583	74.41
329.796	43.69
330.009	19.11
330.222	49.83
330.435	60.07
330.648	66.22
330.861	29.35
331.073	29.35
331.286	72.36
331.499	37.55
331.712	6.83
331.925	37.55
332.138	0.68
332.35	66.22
332.563	12.97
332.776	29.35
332.989	-3.41
333.202	43.69
333.414	33.45
333.627	-38.23
333.84	10.92
334.053	80.55
334.265	35.5
334.478	58.03
334.691	-5.46
334.903	49.83
335.116	23.21
335.329	119.46
335.541	72.36
335.754	62.12
335.966	35.5
336.179	45.74
336.392	51.88
336.604	76.46
336.817	41.64
337.029	39.59
337.242	98.99
337.454	70.31
337.667	33.45
337.88	70.31
338.092	41.64
338.305	78.51
338.517	-11.61
338.729	119.46
338.942	78.51
339.154	0.68
339.367	8.87
339.579	111.27
339.792	-19.8
340.004	47.79
340.217	51.88
340.429	53.93
340.641	51.88
340.854	21.16
341.066	37.55
341.278	43.69
341.491	8.87
341.703	103.08
341.915	27.31
342.128	98.99
342.34	35.5
342.552	94.89
342.764	121.51
342.977	43.69
343.189	62.12
343.401	39.59
343.613	47.79
343.826	8.87
344.038	-5.46
344.25	49.83
344.462	-25.94
344.674	80.55
344.886	31.4
345.099	12.97
345.311	162.47
345.523	23.21
345.735	27.31
345.947	70.31
346.159	55.98
346.371	33.45
346.583	19.11
346.795	76.46
347.007	62.12
347.219	53.93
347.431	12.97
347.643	72.36
347.855	-11.61
348.067	88.75
348.279	-7.51
348.491	45.74
348.703	49.83
348.915	-1.37
349.127	23.21
349.339	21.16
349.551	-15.7
349.763	80.55
349.975	29.35
350.187	29.35
350.399	70.31
350.61	84.65
350.822	-7.51
351.034	19.11
351.246	-27.99
351.458	117.42
351.669	-9.56
351.881	-7.51
352.093	90.79
352.305	105.13
352.517	29.35
352.728	31.4
352.94	35.5
353.152	60.07
353.363	41.64
353.575	35.5
353.787	55.98
353.999	41.64
354.21	-13.65
354.422	-42.32
354.633	10.92
354.845	47.79
355.057	94.89
355.268	111.27
355.48	72.36
355.692	35.5
355.903	43.69
356.115	90.79
356.326	10.92
356.538	74.41
356.749	80.55
356.961	68.27
357.172	35.5
357.384	58.03
357.595	70.31
357.807	68.27
358.018	-27.99
358.23	105.13
358.441	98.99
358.653	23.21
358.864	51.88
359.075	-5.46
359.287	0.68
359.498	74.41
359.709	-11.61
359.921	-3.41
360.132	23.21
360.344	98.99
360.555	64.17
360.766	58.03
360.977	51.88
361.189	10.92
361.4	68.27
361.611	58.03
361.823	15.02
362.034	4.78
362.245	-3.41
362.456	53.93
362.667	37.55
362.879	66.22
363.09	45.74
363.301	33.45
363.512	70.31
363.723	43.69
363.935	2.73
364.146	12.97
364.357	10.92
364.568	51.88
364.779	-19.8
364.99	12.97
365.201	105.13
365.412	98.99
365.623	17.07
365.834	17.07
366.045	0.68
366.256	27.31
366.467	70.31
366.678	2.73
366.889	55.98
367.1	64.17
367.311	129.7
367.522	6.83
367.733	127.66
367.944	84.65
368.155	-56.66
368.366	-32.08
368.577	21.16
368.788	43.69
368.999	-5.46
369.209	4.78
369.42	139.94
369.631	115.37
369.842	90.79
370.053	58.03
370.264	6.83
370.474	62.12
370.685	62.12
370.896	47.79
371.107	68.27
371.317	33.45
371.528	64.17
371.739	74.41
371.95	74.41
372.16	12.97
372.371	10.92
372.582	70.31
372.792	70.31
373.003	21.16
373.214	94.89
373.424	53.93
373.635	41.64
373.846	21.16
374.056	58.03
374.267	27.31
374.477	31.4
374.688	58.03
374.898	98.99
375.109	41.64
375.319	53.93
375.53	23.21
375.74	80.55
375.951	41.64
376.161	82.6
376.372	125.61
376.582	62.12
376.793	123.56
377.003	64.17
377.214	41.64
377.424	4.78
377.635	105.13
377.845	74.41
378.055	-1.37
378.266	-32.08
378.476	74.41
378.686	76.46
378.897	68.27
379.107	66.22
379.317	66.22
379.528	119.46
379.738	62.12
379.948	62.12
380.158	125.61
380.369	51.88
380.579	12.97
380.789	53.93
380.999	53.93
381.21	170.66
381.42	58.03
381.63	15.02
381.84	84.65
382.05	21.16
382.261	35.5
382.471	109.22
382.681	55.98
382.891	84.65
383.101	82.6
383.311	-56.66
383.521	43.69
383.731	31.4
383.941	103.08
384.151	64.17
384.361	121.51
384.571	49.83
384.781	21.16
384.991	82.6
385.201	113.32
385.411	74.41
385.621	43.69
385.831	80.55
386.041	160.42
386.251	-38.23
386.461	74.41
386.671	111.27
386.881	23.21
387.091	41.64
387.301	49.83
387.511	60.07
387.72	53.93
387.93	35.5
388.14	39.59
388.35	-32.08
388.56	78.51
388.769	86.7
388.979	2.73
389.189	37.55
389.399	66.22
389.609	53.93
389.818	37.55
390.028	39.59
390.238	66.22
390.447	49.83
390.657	94.89
390.867	82.6
391.076	37.55
391.286	90.79
391.496	39.59
391.705	33.45
391.915	94.89
392.125	55.98
392.334	148.14
392.544	78.51
392.753	125.61
392.963	41.64
393.172	125.61
393.382	37.55
393.591	111.27
393.801	115.37
394.01	96.94
394.22	98.99
394.429	90.79
394.639	101.03
394.848	49.83
395.058	129.7
395.267	-9.56
395.477	96.94
395.686	98.99
395.895	21.16
396.105	29.35
396.314	94.89
396.524	131.75
396.733	2.73
396.942	72.36
397.152	88.75
397.361	92.84
397.57	98.99
397.78	119.46
397.989	88.75
398.198	135.85
398.407	119.46
398.617	86.7
398.826	78.51
399.035	111.27
399.244	96.94
399.453	121.51
399.663	103.08
399.872	90.79
400.081	109.22
400.29	101.03
400.499	27.31
400.708	109.22
400.917	117.42
401.127	135.85
401.336	62.12
401.545	135.85
401.754	137.9
401.963	160.42
402.172	78.51
402.381	74.41
402.59	135.85
402.799	205.48
403.008	-3.41
403.217	96.94
403.426	103.08
403.635	105.13
403.844	133.8
404.053	127.66
404.262	96.94
404.471	66.22
404.68	172.71
404.888	129.7
405.097	90.79
405.306	127.66
405.515	88.75
405.724	127.66
405.933	154.28
406.142	148.14
406.35	148.14
406.559	154.28
406.768	178.86
406.977	197.29
407.185	152.23
407.394	119.46
407.603	219.82
407.812	141.99
408.02	101.03
408.229	164.52
408.438	141.99
408.646	121.51
408.855	266.92
409.064	250.53
409.272	219.82
409.481	281.25
409.69	281.25
409.898	256.68
410.107	232.1
410.315	236.2
410.524	334.5
410.733	238.25
410.941	225.96
411.15	314.02
411.358	324.26
411.567	348.84
411.775	328.36
411.984	406.18
412.192	377.51
412.401	328.36
412.609	309.93
412.818	424.61
413.026	336.55
413.234	471.72
413.443	434.85
413.651	471.72
413.86	549.54
414.068	500.39
414.276	529.06
414.485	608.93
414.693	512.67
414.901	604.83
415.11	580.26
415.318	623.27
415.526	602.79
415.734	701.09
415.943	731.81
416.151	635.55
416.359	758.43
416.567	754.34
416.776	776.86
416.984	752.29
417.192	907.93
417.4	912.03
417.608	828.06
417.817	879.26
418.025	993.95
418.233	985.76
418.441	944.8
418.649	981.66
418.857	1071.77
419.065	1094.3
419.273	1082.01
419.481	1157.78
419.689	1231.51
419.897	1301.14
420.105	1288.85
420.313	1313.43
420.521	1442.45
420.729	1282.71
420.937	1481.36
421.145	1479.32
421.353	1606.29
421.561	1622.67
421.769	1659.54
421.977	1800.85
422.185	1753.74
422.393	1940.11
422.601	2013.84
422.809	1901.2
423.017	1921.68
423.224	2056.84
423.432	2056.84
423.64	2198.15
423.848	2357.89
424.056	2321.03
424.263	2419.33
424.471	2484.87
424.679	2433.67
424.887	2523.78
425.094	2714.24
425.302	2812.54
425.51	2763.39
425.718	2849.41
425.925	2908.8
426.133	3103.36
426.341	3213.95
426.548	3328.63
426.756	3394.17
426.964	3484.28
427.171	3619.44
427.379	3660.4
427.586	3781.23
427.794	3814
428.001	3895.92
428.209	4153.96
428.417	4262.51
428.624	4491.88
428.832	4502.12
429.039	4289.13
429.247	4426.34
429.454	4807.27
429.662	5007.97
429.869	4760.16
430.076	5196.38
430.284	4872.8
430.491	5442.14
430.699	5544.53
430.906	5448.28
431.114	5599.83
431.321	5769.81
431.528	6099.53
431.736	6365.77
431.943	6560.33
432.15	6457.93
432.358	6478.41
432.565	6769.22
432.772	6947.39
432.979	7230.01
433.187	7520.82
433.394	7328.31
433.601	7727.67
433.808	8067.63
434.016	7914.03
434.223	8090.16
434.43	8573.48
434.637	8335.92
434.844	9036.32
435.052	9175.58
435.259	9036.32
435.466	9208.35
435.673	8981.03
435.88	9900.56
436.087	10263.05
436.294	10430.99
436.501	9636.38
436.708	10316.3
436.915	10521.1
437.122	11002.37
437.329	11178.5
437.537	11420.16
437.743	11471.36
437.95	11407.87
438.157	11854.33
438.364	12397.04
438.571	12603.88
438.778	12444.14
438.985	13502.94
439.192	13210.08
439.399	13642.2
439.606	13195.75
439.813	13793.75
440.02	14680.52
440.227	14641.61
440.433	14383.57
440.64	14889.42
440.847	14543.31
441.054	15223.23
441.261	16329.14
441.467	16042.42
441.674	16544.17
441.881	16961.96
442.088	16677.29
442.294	16632.24
442.501	17129.89
442.708	17432.99
442.914	18049.43
443.121	18784.65
443.328	18377.11
443.534	19833.21
443.741	19464.58
443.948	19014.02
444.154	20316.53
444.361	20025.72
444.568	20552.05
444.774	20300.15
444.981	20724.08
445.187	21213.54
445.394	22100.31
445.6	21848.41
445.807	23730.5
446.013	22632.79
446.22	23290.18
446.426	24101.18
446.633	24414.52
446.839	25131.31
447.046	23923.01
447.252	25469.22
447.459	25194.79
447.665	25422.12
447.871	26429.72
448.078	27431.18
448.284	26259.74
448.491	26929.42
448.697	27988.22
448.903	28575.99
449.11	28668.15
449.316	28039.42
449.522	28637.43
449.728	29335.79
449.935	29651.17
450.141	29335.79
450.347	30279.9
450.553	29358.31
450.76	29667.56
450.966	30501.08
451.172	30646.49
451.378	30812.37
451.584	30359.77
451.791	31221.97
451.997	30802.13
452.203	31451.34
452.409	31217.87
452.615	31215.82
452.821	29987.04
453.027	29886.69
453.233	31283.41
453.44	29944.03
453.646	30824.66
453.852	30644.44
454.058	31072.46
454.264	29788.39
454.47	30847.19
454.676	29776.1
454.882	30634.2
455.088	28047.61
455.294	28670.2
455.5	29317.36
455.705	29337.83
455.911	28254.46
456.117	27492.62
456.323	27341.07
456.529	25655.59
456.735	26960.14
456.941	26194.2
457.147	25792.8
457.352	25006.38
457.558	24641.84
457.764	24660.27
457.97	24105.27
458.176	23705.92
458.381	23388.49
458.587	22524.24
458.793	22481.24
458.999	21461.35
459.204	22995.28
459.41	22032.73
459.616	20697.45
459.821	20367.73
460.027	20855.15
460.233	20207.99
460.438	19259.78
460.644	19263.88
460.85	18524.56
461.055	18588.05
461.261	18289.04
461.466	17078.69
461.672	16431.54
461.878	17990.04
462.083	16535.98
462.289	16265.65
462.494	16034.23
462.7	15329.73
462.905	14979.53
463.111	15440.32
463.316	15552.96
463.522	15270.34
463.727	15219.14
463.932	15108.55
464.138	14959.05
464.343	14979.53
464.549	14631.37
464.754	15071.68
464.959	14950.85
465.165	14780.87
465.37	14348.75
465.575	13670.87
465.781	14399.95
465.986	14358.99
466.191	14039.51
466.397	13930.97
466.602	13236.7
466.807	13521.37
467.012	13545.95
467.218	13375.97
467.423	13410.78
467.628	13492.7
467.833	13887.96
468.038	13453.79
