Data from USB4F104151__40__11-05-24-130.txt Node

Date: Wed Mar 12 11:05:24 EDT 2025
User: louis
Spectrometer: USB4F10415
Trigger mode: 4
Integration Time (sec): 2.000000E-2
Scans to average: 1
Electric dark correction enabled: true
Nonlinearity correction enabled: false
Boxcar width: 0
XAxis mode: Wavelengths
Number of Pixels in Spectrum: 3648
>>>>>Begin Spectral Data<<<<<
178.204	-65.19
178.424	-65.19
178.644	-65.19
178.864	-20.14
179.084	-24.23
179.304	-26.28
179.524	-16.04
179.744	-46.76
179.964	41.3
180.184	-13.99
180.404	22.87
180.624	47.44
180.844	47.44
181.064	-110.25
181.283	59.73
181.503	-22.19
181.723	16.73
181.943	26.96
182.163	31.06
182.383	-42.67
182.602	37.2
182.822	-36.52
183.042	49.49
183.262	-7.85
183.482	110.93
183.701	49.49
183.921	12.63
184.141	59.73
184.361	96.6
184.58	4.44
184.8	47.44
185.02	94.55
185.239	80.21
185.459	35.16
185.679	43.35
185.898	76.12
186.118	63.83
186.338	96.6
186.557	53.59
186.777	-1.71
186.997	24.92
187.216	8.53
187.436	135.51
187.655	43.35
187.875	18.77
188.095	76.12
188.314	-5.8
188.534	102.74
188.753	18.77
188.973	117.08
189.192	76.12
189.412	61.78
189.631	8.53
189.851	-13.99
190.07	106.84
190.29	22.87
190.509	90.45
190.729	29.01
190.948	63.83
191.168	155.99
191.387	18.77
191.607	33.11
191.826	39.25
192.045	-26.28
192.265	-1.71
192.484	63.83
192.704	35.16
192.923	6.49
193.142	88.4
193.362	-1.71
193.581	47.44
193.8	12.63
194.02	24.92
194.239	16.73
194.458	39.25
194.678	-22.19
194.897	-18.09
195.116	55.64
195.335	51.54
195.555	43.35
195.774	117.08
195.993	53.59
196.212	-28.33
196.432	61.78
196.651	-30.38
196.87	29.01
197.089	29.01
197.308	22.87
197.528	-11.95
197.747	-9.9
197.966	53.59
198.185	139.6
198.404	-7.85
198.623	35.16
198.842	12.63
199.062	43.35
199.281	41.3
199.5	86.36
199.719	37.2
199.938	80.21
200.157	69.97
200.376	-1.71
200.595	33.11
200.814	35.16
201.033	131.41
201.252	94.55
201.471	-3.75
201.69	35.16
201.909	61.78
202.128	37.2
202.347	164.18
202.566	10.58
202.785	82.26
203.004	10.58
203.223	117.08
203.442	45.4
203.661	-24.23
203.879	29.01
204.098	49.49
204.317	4.44
204.536	41.3
204.755	2.39
204.974	57.68
205.193	4.44
205.411	53.59
205.63	12.63
205.849	78.16
206.068	69.97
206.287	82.26
206.505	-30.38
206.724	-50.86
206.943	-36.52
207.162	61.78
207.381	88.4
207.599	65.88
207.818	74.07
208.037	61.78
208.255	47.44
208.474	45.4
208.693	43.35
208.911	65.88
209.13	26.96
209.349	90.45
209.567	49.49
209.786	-9.9
210.005	20.82
210.223	100.69
210.442	-7.85
210.661	37.2
210.879	45.4
211.098	10.58
211.316	53.59
211.535	12.63
211.753	18.77
211.972	26.96
212.191	14.68
212.409	119.12
212.628	-7.85
212.846	22.87
213.065	90.45
213.283	63.83
213.502	-1.71
213.72	33.11
213.938	2.39
214.157	6.49
214.375	65.88
214.594	45.4
214.812	92.5
215.031	-13.99
215.249	86.36
215.467	82.26
215.686	39.25
215.904	16.73
216.122	47.44
216.341	104.79
216.559	37.2
216.778	59.73
216.996	127.32
217.214	-22.19
217.432	26.96
217.651	14.68
217.869	26.96
218.087	26.96
218.306	37.2
218.524	108.88
218.742	-9.9
218.96	90.45
219.179	29.01
219.397	-11.95
219.615	86.36
219.833	160.08
220.051	63.83
220.27	-7.85
220.488	49.49
220.706	49.49
220.924	49.49
221.142	65.88
221.36	37.2
221.578	-22.19
221.796	12.63
222.015	65.88
222.233	-13.99
222.451	12.63
222.669	-20.14
222.887	6.49
223.105	-3.75
223.323	88.4
223.541	69.97
223.759	26.96
223.977	-34.47
224.195	59.73
224.413	37.2
224.631	35.16
224.849	74.07
225.067	94.55
225.285	-18.09
225.503	-30.38
225.721	2.39
225.939	82.26
226.157	35.16
226.375	90.45
226.592	31.06
226.81	67.92
227.028	65.88
227.246	29.01
227.464	43.35
227.682	51.54
227.9	59.73
228.117	98.64
228.335	90.45
228.553	59.73
228.771	57.68
228.989	-9.9
229.206	74.07
229.424	16.73
229.642	33.11
229.86	29.01
230.077	14.68
230.295	-9.9
230.513	47.44
230.731	143.7
230.948	33.11
231.166	61.78
231.384	-7.85
231.601	35.16
231.819	-48.81
232.037	-38.57
232.254	12.63
232.472	43.35
232.689	65.88
232.907	106.84
233.125	4.44
233.342	61.78
233.56	-24.23
233.777	100.69
233.995	26.96
234.213	18.77
234.43	63.83
234.648	29.01
234.865	8.53
235.083	80.21
235.3	110.93
235.518	61.78
235.735	176.47
235.953	35.16
236.17	78.16
236.388	20.82
236.605	4.44
236.822	33.11
237.04	88.4
237.257	33.11
237.475	-18.09
237.692	12.63
237.909	76.12
238.127	112.98
238.344	57.68
238.562	45.4
238.779	-11.95
238.996	16.73
239.214	29.01
239.431	-16.04
239.648	26.96
239.865	22.87
240.083	-5.8
240.3	102.74
240.517	33.11
240.735	53.59
240.952	14.68
241.169	98.64
241.386	8.53
241.603	24.92
241.821	47.44
242.038	74.07
242.255	20.82
242.472	57.68
242.689	33.11
242.907	119.12
243.124	-38.57
243.341	76.12
243.558	-5.8
243.775	33.11
243.992	-24.23
244.209	72.02
244.426	43.35
244.643	63.83
244.86	59.73
245.078	43.35
245.295	53.59
245.512	55.64
245.729	-3.75
245.946	69.97
246.163	26.96
246.38	104.79
246.597	31.06
246.814	84.31
247.031	69.97
247.248	74.07
247.464	69.97
247.681	39.25
247.898	2.39
248.115	37.2
248.332	-26.28
248.549	43.35
248.766	26.96
248.983	14.68
249.2	29.01
249.417	104.79
249.633	39.25
249.85	29.01
250.067	16.73
250.284	96.6
250.501	14.68
250.717	0.34
250.934	33.11
251.151	110.93
251.368	57.68
251.585	18.77
251.801	-57
252.018	49.49
252.235	37.2
252.451	59.73
252.668	8.53
252.885	69.97
253.102	47.44
253.318	10.58
253.535	22.87
253.752	49.49
253.968	76.12
254.185	26.96
254.401	51.54
254.618	35.16
254.835	47.44
255.051	31.06
255.268	37.2
255.484	22.87
255.701	39.25
255.917	65.88
256.134	51.54
256.351	45.4
256.567	-40.62
256.784	-22.19
257	53.59
257.217	18.77
257.433	2.39
257.65	61.78
257.866	0.34
258.082	29.01
258.299	72.02
258.515	31.06
258.732	59.73
258.948	-3.75
259.165	59.73
259.381	26.96
259.597	20.82
259.814	55.64
260.03	26.96
260.246	45.4
260.463	131.41
260.679	67.92
260.895	61.78
261.112	78.16
261.328	59.73
261.544	41.3
261.761	47.44
261.977	86.36
262.193	4.44
262.409	86.36
262.626	47.44
262.842	-13.99
263.058	104.79
263.274	37.2
263.49	57.68
263.707	55.64
263.923	63.83
264.139	72.02
264.355	47.44
264.571	43.35
264.787	106.84
265.004	76.12
265.22	39.25
265.436	-44.71
265.652	26.96
265.868	51.54
266.084	10.58
266.3	57.68
266.516	24.92
266.732	6.49
266.948	74.07
267.164	74.07
267.38	86.36
267.596	74.07
267.812	39.25
268.028	74.07
268.244	104.79
268.46	153.94
268.676	-3.75
268.892	80.21
269.108	-50.86
269.324	59.73
269.54	-5.8
269.756	20.82
269.972	72.02
270.188	22.87
270.403	78.16
270.619	41.3
270.835	94.55
271.051	39.25
271.267	35.16
271.483	94.55
271.698	12.63
271.914	72.02
272.13	26.96
272.346	0.34
272.562	35.16
272.777	22.87
272.993	22.87
273.209	57.68
273.425	-16.04
273.64	24.92
273.856	39.25
274.072	-36.52
274.287	-18.09
274.503	-1.71
274.719	-9.9
274.934	-16.04
275.15	57.68
275.366	74.07
275.581	8.53
275.797	69.97
276.012	22.87
276.228	39.25
276.444	-7.85
276.659	98.64
276.875	-13.99
277.09	37.2
277.306	45.4
277.521	76.12
277.737	29.01
277.952	69.97
278.168	-11.95
278.383	4.44
278.599	43.35
278.814	31.06
279.03	45.4
279.245	94.55
279.461	35.16
279.676	94.55
279.892	-20.14
280.107	6.49
280.322	37.2
280.538	61.78
280.753	8.53
280.969	53.59
281.184	16.73
281.399	61.78
281.615	63.83
281.83	53.59
282.045	74.07
282.26	20.82
282.476	6.49
282.691	-26.28
282.906	20.82
283.122	-13.99
283.337	16.73
283.552	112.98
283.767	8.53
283.983	67.92
284.198	67.92
284.413	-18.09
284.628	8.53
284.843	12.63
285.058	78.16
285.274	49.49
285.489	80.21
285.704	16.73
285.919	49.49
286.134	96.6
286.349	69.97
286.564	59.73
286.779	112.98
286.995	65.88
287.21	20.82
287.425	-3.75
287.64	-20.14
287.855	20.82
288.07	51.54
288.285	102.74
288.5	31.06
288.715	72.02
288.93	20.82
289.145	22.87
289.36	74.07
289.575	8.53
289.79	76.12
290.004	47.44
290.219	43.35
290.434	18.77
290.649	-1.71
290.864	53.59
291.079	92.5
291.294	55.64
291.509	123.22
291.724	69.97
291.938	41.3
292.153	37.2
292.368	20.82
292.583	29.01
292.798	10.58
293.012	41.3
293.227	18.77
293.442	65.88
293.657	16.73
293.871	22.87
294.086	43.35
294.301	20.82
294.516	29.01
294.73	72.02
294.945	53.59
295.16	43.35
295.374	84.31
295.589	33.11
295.804	29.01
296.018	84.31
296.233	82.26
296.447	-1.71
296.662	65.88
296.877	57.68
297.091	127.32
297.306	65.88
297.52	57.68
297.735	84.31
297.949	65.88
298.164	82.26
298.378	88.4
298.593	29.01
298.807	61.78
299.022	119.12
299.236	72.02
299.451	18.77
299.665	67.92
299.88	31.06
300.094	0.34
300.309	55.64
300.523	26.96
300.737	45.4
300.952	119.12
301.166	37.2
301.381	-9.9
301.595	96.6
301.809	-13.99
302.024	69.97
302.238	10.58
302.452	86.36
302.667	47.44
302.881	88.4
303.095	90.45
303.309	82.26
303.524	24.92
303.738	94.55
303.952	22.87
304.166	59.73
304.381	24.92
304.595	43.35
304.809	24.92
305.023	108.88
305.237	4.44
305.452	14.68
305.666	12.63
305.88	127.32
306.094	59.73
306.308	39.25
306.522	-5.8
306.736	53.59
306.95	45.4
307.164	67.92
307.379	65.88
307.593	59.73
307.807	61.78
308.021	82.26
308.235	61.78
308.449	61.78
308.663	55.64
308.877	43.35
309.091	-30.38
309.305	43.35
309.519	22.87
309.733	59.73
309.947	-7.85
310.161	49.49
310.374	84.31
310.588	29.01
310.802	22.87
311.016	51.54
311.23	53.59
311.444	26.96
311.658	78.16
311.872	59.73
312.085	31.06
312.299	45.4
312.513	4.44
312.727	53.59
312.941	110.93
313.154	37.2
313.368	-3.75
313.582	47.44
313.796	-3.75
314.009	94.55
314.223	24.92
314.437	72.02
314.651	106.84
314.864	106.84
315.078	43.35
315.292	45.4
315.505	20.82
315.719	37.2
315.933	31.06
316.146	29.01
316.36	18.77
316.573	-16.04
316.787	88.4
317.001	61.78
317.214	59.73
317.428	78.16
317.641	53.59
317.855	63.83
318.068	22.87
318.282	41.3
318.495	115.03
318.709	51.54
318.922	106.84
319.136	84.31
319.349	33.11
319.563	74.07
319.776	55.64
319.99	-3.75
320.203	18.77
320.417	61.78
320.63	63.83
320.843	88.4
321.057	72.02
321.27	106.84
321.483	94.55
321.697	108.88
321.91	51.54
322.124	20.82
322.337	78.16
322.55	53.59
322.763	18.77
322.977	78.16
323.19	61.78
323.403	139.6
323.617	39.25
323.83	74.07
324.043	51.54
324.256	39.25
324.469	74.07
324.683	86.36
324.896	88.4
325.109	-11.95
325.322	-79.53
325.535	43.35
325.748	123.22
325.962	47.44
326.175	41.3
326.388	112.98
326.601	31.06
326.814	86.36
327.027	-11.95
327.24	55.64
327.453	22.87
327.666	26.96
327.879	57.68
328.092	53.59
328.305	16.73
328.518	47.44
328.731	-3.75
328.944	-5.8
329.157	61.78
329.37	37.2
329.583	26.96
329.796	24.92
330.009	61.78
330.222	49.49
330.435	76.12
330.648	14.68
330.861	29.01
331.073	12.63
331.286	-16.04
331.499	61.78
331.712	96.6
331.925	12.63
332.138	106.84
332.35	127.32
332.563	88.4
332.776	69.97
332.989	-22.19
333.202	10.58
333.414	45.4
333.627	67.92
333.84	69.97
334.053	63.83
334.265	8.53
334.478	22.87
334.691	12.63
334.903	63.83
335.116	39.25
335.329	4.44
335.541	55.64
335.754	94.55
335.966	69.97
336.179	33.11
336.392	24.92
336.604	82.26
336.817	67.92
337.029	94.55
337.242	49.49
337.454	67.92
337.667	37.2
337.88	57.68
338.092	76.12
338.305	86.36
338.517	31.06
338.729	45.4
338.942	29.01
339.154	8.53
339.367	-32.43
339.579	96.6
339.792	-18.09
340.004	49.49
340.217	37.2
340.429	24.92
340.641	57.68
340.854	24.92
341.066	133.46
341.278	10.58
341.491	76.12
341.703	106.84
341.915	80.21
342.128	80.21
342.34	16.73
342.552	90.45
342.764	80.21
342.977	80.21
343.189	45.4
343.401	49.49
343.613	63.83
343.826	123.22
344.038	29.01
344.25	92.5
344.462	61.78
344.674	86.36
344.886	65.88
345.099	20.82
345.311	49.49
345.523	86.36
345.735	41.3
345.947	65.88
346.159	53.59
346.371	51.54
346.583	61.78
346.795	20.82
347.007	90.45
347.219	119.12
347.431	80.21
347.643	110.93
347.855	39.25
348.067	74.07
348.279	-13.99
348.491	10.58
348.703	108.88
348.915	33.11
349.127	102.74
349.339	94.55
349.551	59.73
349.763	49.49
349.975	47.44
350.187	20.82
350.399	8.53
350.61	115.03
350.822	20.82
351.034	67.92
351.246	43.35
351.458	115.03
351.669	92.5
351.881	102.74
352.093	168.27
352.305	35.16
352.517	49.49
352.728	141.65
352.94	26.96
353.152	78.16
353.363	31.06
353.575	69.97
353.787	-28.33
353.999	151.89
354.21	119.12
354.422	102.74
354.633	72.02
354.845	-3.75
355.057	26.96
355.268	135.51
355.48	67.92
355.692	37.2
355.903	55.64
356.115	10.58
356.326	26.96
356.538	86.36
356.749	2.39
356.961	72.02
357.172	84.31
357.384	61.78
357.595	76.12
357.807	57.68
358.018	45.4
358.23	98.64
358.441	69.97
358.653	90.45
358.864	31.06
359.075	33.11
359.287	31.06
359.498	141.65
359.709	22.87
359.921	98.64
360.132	65.88
360.344	69.97
360.555	-13.99
360.766	10.58
360.977	61.78
361.189	-3.75
361.4	-42.67
361.611	39.25
361.823	-13.99
362.034	37.2
362.245	82.26
362.456	80.21
362.667	86.36
362.879	53.59
363.09	74.07
363.301	33.11
363.512	112.98
363.723	22.87
363.935	74.07
364.146	84.31
364.357	72.02
364.568	78.16
364.779	10.58
364.99	61.78
365.201	12.63
365.412	90.45
365.623	59.73
365.834	35.16
366.045	-11.95
366.256	98.64
366.467	20.82
366.678	33.11
366.889	63.83
367.1	55.64
367.311	69.97
367.522	12.63
367.733	69.97
367.944	69.97
368.155	145.75
368.366	76.12
368.577	61.78
368.788	37.2
368.999	90.45
369.209	49.49
369.42	47.44
369.631	166.23
369.842	151.89
370.053	65.88
370.264	41.3
370.474	26.96
370.685	61.78
370.896	49.49
371.107	12.63
371.317	94.55
371.528	139.6
371.739	92.5
371.95	65.88
372.16	141.65
372.371	-5.8
372.582	59.73
372.792	74.07
373.003	37.2
373.214	26.96
373.424	39.25
373.635	127.32
373.846	69.97
374.056	41.3
374.267	72.02
374.477	94.55
374.688	43.35
374.898	61.78
375.109	43.35
375.319	16.73
375.53	65.88
375.74	108.88
375.951	51.54
376.161	10.58
376.372	41.3
376.582	131.41
376.793	100.69
377.003	59.73
377.214	49.49
377.424	55.64
377.635	86.36
377.845	26.96
378.055	117.08
378.266	80.21
378.476	53.59
378.686	98.64
378.897	88.4
379.107	-16.04
379.317	33.11
379.528	110.93
379.738	69.97
379.948	31.06
380.158	26.96
380.369	49.49
380.579	74.07
380.789	18.77
380.999	117.08
381.21	0.34
381.42	92.5
381.63	49.49
381.84	61.78
382.05	35.16
382.261	80.21
382.471	43.35
382.681	22.87
382.891	59.73
383.101	45.4
383.311	-22.19
383.521	72.02
383.731	74.07
383.941	45.4
384.151	26.96
384.361	65.88
384.571	4.44
384.781	88.4
384.991	94.55
385.201	80.21
385.411	80.21
385.621	57.68
385.831	55.64
386.041	106.84
386.251	53.59
386.461	33.11
386.671	65.88
386.881	131.41
387.091	67.92
387.301	20.82
387.511	47.44
387.72	74.07
387.93	74.07
388.14	63.83
388.35	69.97
388.56	117.08
388.769	57.68
388.979	82.26
389.189	-26.28
389.399	92.5
389.609	69.97
389.818	123.22
390.028	63.83
390.238	86.36
390.447	12.63
390.657	117.08
390.867	41.3
391.076	63.83
391.286	125.27
391.496	110.93
391.705	133.46
391.915	53.59
392.125	106.84
392.334	24.92
392.544	72.02
392.753	76.12
392.963	41.3
393.172	82.26
393.382	57.68
393.591	117.08
393.801	102.74
394.01	76.12
394.22	92.5
394.429	151.89
394.639	61.78
394.848	78.16
395.058	90.45
395.267	147.8
395.477	26.96
395.686	96.6
395.895	90.45
396.105	153.94
396.314	112.98
396.524	151.89
396.733	29.01
396.942	51.54
397.152	94.55
397.361	67.92
397.57	110.93
397.78	61.78
397.989	129.36
398.198	139.6
398.407	160.08
398.617	129.36
398.826	106.84
399.035	102.74
399.244	94.55
399.453	125.27
399.663	98.64
399.872	188.75
400.081	92.5
400.29	143.7
400.499	98.64
400.708	92.5
400.917	49.49
401.127	127.32
401.336	160.08
401.545	215.38
401.754	184.66
401.963	72.02
402.172	53.59
402.381	141.65
402.59	117.08
402.799	57.68
403.008	149.84
403.217	117.08
403.426	102.74
403.635	82.26
403.844	135.51
404.053	139.6
404.262	158.03
404.471	127.32
404.68	137.56
404.888	201.04
405.097	92.5
405.306	139.6
405.515	237.91
405.724	139.6
405.933	117.08
406.142	186.71
406.35	176.47
406.559	209.23
406.768	176.47
406.977	225.62
407.185	168.27
407.394	182.61
407.603	207.19
407.812	217.43
408.02	180.56
408.229	260.43
408.438	237.91
408.646	176.47
408.855	196.95
409.064	254.29
409.272	242
409.481	309.58
409.69	272.72
409.898	278.87
410.107	287.06
410.315	282.96
410.524	260.43
410.733	328.02
410.941	328.02
411.15	340.3
411.358	297.3
411.567	328.02
411.775	420.17
411.984	360.78
412.192	334.16
412.401	336.21
412.609	502.09
412.818	434.51
413.026	479.57
413.234	477.52
413.443	411.98
413.651	434.51
413.86	569.68
414.068	504.14
414.276	594.25
414.485	682.31
414.693	584.01
414.901	723.27
415.11	655.69
415.318	651.6
415.526	700.75
415.734	715.08
415.943	680.27
416.151	770.38
416.359	753.99
416.567	799.05
416.776	782.67
416.984	856.39
417.192	848.2
417.4	907.59
417.608	930.12
417.817	909.64
418.025	1030.47
418.233	1128.77
418.441	1001.8
418.649	1110.34
418.857	1173.83
419.065	1233.22
419.273	1184.07
419.481	1268.03
419.689	1245.51
419.897	1386.82
420.105	1380.67
420.313	1405.25
420.521	1497.41
420.729	1458.5
420.937	1618.24
421.145	1669.44
421.353	1642.81
421.561	1734.97
421.769	1794.36
421.977	1952.06
422.185	1790.27
422.393	1923.38
422.601	1982.78
422.809	2046.26
423.017	2134.32
423.224	2206
423.432	2324.79
423.64	2283.83
423.848	2466.1
424.056	2337.07
424.263	2494.77
424.471	2685.23
424.679	2552.11
424.887	2789.67
425.094	2736.43
425.302	2918.7
425.51	2867.5
425.718	2988.33
425.925	3152.17
426.133	3109.16
426.341	3416.35
426.548	3549.47
426.756	3567.9
426.964	3711.26
427.171	3707.16
427.379	3748.12
427.586	3940.63
427.794	4055.32
428.001	4301.08
428.209	4528.4
428.417	4432.15
428.624	4749.58
428.832	4788.49
429.039	4751.63
429.247	4628.75
429.454	5210.37
429.662	5464.32
429.869	5046.54
430.076	5396.74
430.284	5552.38
430.491	5595.39
430.699	5912.83
430.906	5863.68
431.114	5980.41
431.321	6283.51
431.528	6453.49
431.736	6746.35
431.943	7020.78
432.15	6811.89
432.358	6992.11
432.565	7344.36
432.772	7088.36
432.979	7758.05
433.187	7942.36
433.394	7915.74
433.601	8210.65
433.808	8397.01
434.016	8376.53
434.223	8675.54
434.43	9138.38
434.637	9066.7
434.844	9599.17
435.052	9711.81
435.259	9642.18
435.466	9711.81
435.673	9658.56
435.88	10305.72
436.087	10938.54
436.294	10950.83
436.501	10660.02
436.708	10754.23
436.915	11126.96
437.122	11649.19
437.329	11763.87
437.537	12093.6
437.743	12099.74
437.95	11919.52
438.157	12892.3
438.364	13330.57
438.571	13228.17
438.778	13201.55
438.985	14557.3
439.192	13774.98
439.399	14415.99
439.606	13779.08
439.813	14866.55
440.02	15825
440.227	15321.2
440.433	15116.4
440.64	15814.76
440.847	15685.73
441.054	16130.14
441.261	17186.9
441.467	16818.26
441.674	17328.2
441.881	17922.12
442.088	17770.57
442.294	17748.04
442.501	18266.17
442.708	18505.79
442.914	19257.39
443.121	20015.14
443.328	19705.9
443.534	20832.28
443.741	20432.93
443.948	20019.24
444.154	21413.9
444.361	21184.53
444.568	21491.73
444.774	21493.77
444.981	22138.88
445.187	22388.74
445.394	23324.66
445.6	23128.05
445.807	25360.34
446.013	24348.64
446.22	24657.89
446.426	25579.47
446.633	26017.74
446.839	26812.35
447.046	25391.06
447.252	27121.59
447.459	27031.48
447.665	26800.06
447.871	28161.96
448.078	29339.54
448.284	27727.79
448.491	28413.86
448.697	29386.64
448.903	30523.27
449.11	30105.48
449.316	29521.81
449.522	30056.33
449.728	31139.71
449.935	31094.65
450.141	31332.22
450.347	31958.89
450.553	30996.35
450.76	31340.41
450.966	32266.09
451.172	31938.41
451.378	32589.67
451.584	31754.1
451.791	32624.48
451.997	32380.78
452.203	33462.1
452.409	33226.59
452.615	32931.68
452.821	31881.07
453.027	31475.57
453.233	32843.62
453.44	31336.31
453.646	31823.73
453.852	31715.19
454.058	32659.3
454.264	31131.51
454.47	31930.22
454.676	31258.49
454.882	32169.83
455.088	29587.35
455.294	30095.24
455.5	30193.54
455.705	30492.55
455.911	29208.47
456.117	28811.17
456.323	28352.42
456.529	26675.13
456.735	27969.45
456.941	27105.21
457.147	26697.66
457.352	25851.85
457.558	25581.52
457.764	25591.76
457.97	24930.26
458.176	24584.16
458.381	24545.25
458.587	23246.83
458.793	23111.67
458.999	21786.63
459.204	23517.17
459.41	22978.55
459.616	21973
459.821	21712.91
460.027	21288.98
460.233	20901.91
460.438	19652.65
460.644	20111.39
460.85	19200.05
461.055	18921.52
461.261	18769.97
461.466	17569.87
461.672	16912.47
461.878	18155.58
462.083	16945.23
462.289	16558.17
462.494	16439.39
462.7	16072.8
462.905	15220.85
463.111	15894.63
463.316	16048.22
463.522	15716.45
463.727	15790.18
463.932	15741.03
464.138	15456.36
464.343	15360.11
464.549	14854.26
464.754	15396.97
464.959	15306.86
465.165	15370.35
465.37	14862.45
465.575	14262.4
465.781	14741.62
465.986	14889.07
466.191	14366.84
466.397	14258.3
466.602	13529.22
466.807	14010.5
467.012	13944.96
467.218	14049.41
467.423	13525.13
467.628	13906.05
467.833	14336.12
