Data from USB4F104151__10__11-04-39-855.txt Node

Date: Wed Mar 12 11:04:39 EDT 2025
User: louis
Spectrometer: USB4F10415
Trigger mode: 4
Integration Time (sec): 2.000000E-2
Scans to average: 1
Electric dark correction enabled: true
Nonlinearity correction enabled: false
Boxcar width: 0
XAxis mode: Wavelengths
Number of Pixels in Spectrum: 3648
>>>>>Begin Spectral Data<<<<<
178.204	-107.18
178.424	-107.18
178.644	-107.18
178.864	-133.8
179.084	-55.98
179.304	-0.68
179.524	-29.35
179.744	-2.73
179.964	42.32
180.184	-10.92
180.404	46.42
180.624	-8.87
180.844	-29.35
181.064	-84.65
181.283	11.61
181.503	32.08
181.723	34.13
181.943	-17.07
182.163	71
182.383	79.19
182.602	50.52
182.822	77.14
183.042	73.04
183.262	73.04
183.482	-0.68
183.701	-8.87
183.921	7.51
184.141	27.99
184.361	109.91
184.58	-33.45
184.8	11.61
185.02	56.66
185.239	-10.92
185.459	9.56
185.679	-45.74
185.898	-23.21
186.118	64.85
186.338	11.61
186.557	64.85
186.777	-25.26
186.997	15.7
187.216	13.65
187.436	64.85
187.655	-6.83
187.875	89.43
188.095	48.47
188.314	58.71
188.534	-27.31
188.753	-53.93
188.973	48.47
189.192	-0.68
189.412	15.7
189.631	64.85
189.851	-12.97
190.07	109.91
190.29	62.8
190.509	-19.11
190.729	42.32
190.948	23.89
191.168	87.38
191.387	11.61
191.607	34.13
191.826	-33.45
192.045	52.56
192.265	15.7
192.484	19.8
192.704	-58.03
192.923	-19.11
193.142	62.8
193.362	62.8
193.581	46.42
193.8	48.47
194.02	-0.68
194.239	81.24
194.458	46.42
194.678	-15.02
194.897	15.7
195.116	19.8
195.335	40.28
195.555	34.13
195.774	71
195.993	54.61
196.212	19.8
196.432	23.89
196.651	71
196.87	44.37
197.089	114
197.308	50.52
197.528	30.04
197.747	11.61
197.966	-0.68
198.185	42.32
198.404	-4.78
198.623	50.52
198.842	79.19
199.062	68.95
199.281	64.85
199.5	9.56
199.719	68.95
199.938	1.37
200.157	73.04
200.376	7.51
200.595	83.28
200.814	7.51
201.033	-0.68
201.252	38.23
201.471	105.81
201.69	-10.92
201.909	52.56
202.128	42.32
202.347	44.37
202.566	32.08
202.785	50.52
203.004	7.51
203.223	93.52
203.442	13.65
203.661	19.8
203.879	81.24
204.098	54.61
204.317	32.08
204.536	50.52
204.755	-47.79
204.974	15.7
205.193	101.72
205.411	48.47
205.63	73.04
205.849	-12.97
206.068	71
206.287	68.95
206.505	-27.31
206.724	19.8
206.943	-0.68
207.162	68.95
207.381	68.95
207.599	36.18
207.818	68.95
208.037	7.51
208.255	36.18
208.474	27.99
208.693	85.33
208.911	68.95
209.13	25.94
209.349	64.85
209.567	103.76
209.786	48.47
210.005	3.41
210.223	11.61
210.442	83.28
210.661	93.52
210.879	32.08
211.098	58.71
211.316	17.75
211.535	62.8
211.753	19.8
211.972	73.04
212.191	-4.78
212.409	15.7
212.628	25.94
212.846	-4.78
213.065	85.33
213.283	109.91
213.502	-29.35
213.72	58.71
213.938	36.18
214.157	71
214.375	75.09
214.594	17.75
214.812	-0.68
215.031	36.18
215.249	42.32
215.467	42.32
215.686	17.75
215.904	68.95
216.122	77.14
216.341	23.89
216.559	56.66
216.778	60.76
216.996	68.95
217.214	-12.97
217.432	27.99
217.651	-17.07
217.869	48.47
218.087	15.7
218.306	11.61
218.524	15.7
218.742	83.28
218.96	-23.21
219.179	58.71
219.397	32.08
219.615	75.09
219.833	-33.45
220.051	15.7
220.27	38.23
220.488	52.56
220.706	21.85
220.924	19.8
221.142	27.99
221.36	75.09
221.578	89.43
221.796	21.85
222.015	85.33
222.233	21.85
222.451	95.57
222.669	15.7
222.887	27.99
223.105	-6.83
223.323	-35.5
223.541	58.71
223.759	13.65
223.977	21.85
224.195	-51.88
224.413	71
224.631	25.94
224.849	81.24
225.067	109.91
225.285	-0.68
225.503	36.18
225.721	-37.55
225.939	58.71
226.157	66.9
226.375	23.89
226.592	42.32
226.81	1.37
227.028	95.57
227.246	77.14
227.464	73.04
227.682	95.57
227.9	52.56
228.117	34.13
228.335	27.99
228.553	36.18
228.771	36.18
228.989	114
229.206	50.52
229.424	36.18
229.642	46.42
229.86	25.94
230.077	48.47
230.295	52.56
230.513	46.42
230.731	56.66
230.948	120.15
231.166	109.91
231.384	64.85
231.601	42.32
231.819	64.85
232.037	64.85
232.254	11.61
232.472	60.76
232.689	36.18
232.907	19.8
233.125	-19.11
233.342	27.99
233.56	-25.26
233.777	34.13
233.995	11.61
234.213	136.53
234.43	79.19
234.648	27.99
234.865	17.75
235.083	23.89
235.3	120.15
235.518	58.71
235.735	25.94
235.953	3.41
236.17	-10.92
236.388	-6.83
236.605	27.99
236.822	46.42
237.04	44.37
237.257	-17.07
237.475	13.65
237.692	11.61
237.909	15.7
238.127	23.89
238.344	71
238.562	-6.83
238.779	23.89
238.996	-4.78
239.214	3.41
239.431	-10.92
239.648	81.24
239.865	32.08
240.083	42.32
240.3	40.28
240.517	77.14
240.735	50.52
240.952	46.42
241.169	71
241.386	27.99
241.603	23.89
241.821	44.37
242.038	95.57
242.255	-8.87
242.472	-0.68
242.689	23.89
242.907	68.95
243.124	75.09
243.341	66.9
243.558	66.9
243.775	52.56
243.992	46.42
244.209	101.72
244.426	54.61
244.643	79.19
244.86	21.85
245.078	71
245.295	-2.73
245.512	52.56
245.729	19.8
245.946	64.85
246.163	15.7
246.38	83.28
246.597	62.8
246.814	1.37
247.031	89.43
247.248	40.28
247.464	40.28
247.681	136.53
247.898	54.61
248.115	81.24
248.332	32.08
248.549	95.57
248.766	85.33
248.983	36.18
249.2	50.52
249.417	52.56
249.633	50.52
249.85	34.13
250.067	48.47
250.284	77.14
250.501	5.46
250.717	7.51
250.934	32.08
251.151	77.14
251.368	36.18
251.585	79.19
251.801	114
252.018	27.99
252.235	105.81
252.451	13.65
252.668	64.85
252.885	40.28
253.102	71
253.318	97.62
253.535	56.66
253.752	-29.35
253.968	105.81
254.185	46.42
254.401	34.13
254.618	54.61
254.835	3.41
255.051	30.04
255.268	48.47
255.484	38.23
255.701	-35.5
255.917	83.28
256.134	-4.78
256.351	83.28
256.567	56.66
256.784	-21.16
257	54.61
257.217	56.66
257.433	48.47
257.65	34.13
257.866	54.61
258.082	9.56
258.299	32.08
258.515	124.24
258.732	9.56
258.948	44.37
259.165	36.18
259.381	-74.41
259.597	9.56
259.814	36.18
260.03	44.37
260.246	87.38
260.463	42.32
260.679	75.09
260.895	44.37
261.112	77.14
261.328	81.24
261.544	40.28
261.761	25.94
261.977	95.57
262.193	32.08
262.409	103.76
262.626	34.13
262.842	3.41
263.058	83.28
263.274	75.09
263.49	19.8
263.707	71
263.923	56.66
264.139	34.13
264.355	27.99
264.571	62.8
264.787	62.8
265.004	36.18
265.22	21.85
265.436	46.42
265.652	64.85
265.868	71
266.084	89.43
266.3	32.08
266.516	-25.26
266.732	105.81
266.948	34.13
267.164	81.24
267.38	-0.68
267.596	38.23
267.812	58.71
268.028	50.52
268.244	54.61
268.46	21.85
268.676	46.42
268.892	83.28
269.108	126.29
269.324	-55.98
269.54	15.7
269.756	75.09
269.972	64.85
270.188	1.37
270.403	83.28
270.619	118.1
270.835	27.99
271.051	50.52
271.267	114
271.483	34.13
271.698	93.52
271.914	32.08
272.13	71
272.346	62.8
272.562	118.1
272.777	21.85
272.993	36.18
273.209	-45.74
273.425	-8.87
273.64	50.52
273.856	95.57
274.072	21.85
274.287	-0.68
274.503	27.99
274.719	44.37
274.934	7.51
275.15	103.76
275.366	-0.68
275.581	-15.02
275.797	91.48
276.012	134.48
276.228	68.95
276.444	40.28
276.659	124.24
276.875	60.76
277.09	83.28
277.306	40.28
277.521	32.08
277.737	-19.11
277.952	52.56
278.168	40.28
278.383	60.76
278.599	40.28
278.814	-8.87
279.03	38.23
279.245	-8.87
279.461	99.67
279.676	48.47
279.892	103.76
280.107	-12.97
280.322	3.41
280.538	111.96
280.753	13.65
280.969	62.8
281.184	66.9
281.399	81.24
281.615	23.89
281.83	77.14
282.045	83.28
282.26	44.37
282.476	-0.68
282.691	107.86
282.906	32.08
283.122	27.99
283.337	87.38
283.552	50.52
283.767	19.8
283.983	-0.68
284.198	97.62
284.413	79.19
284.628	17.75
284.843	48.47
285.058	-17.07
285.274	21.85
285.489	19.8
285.704	81.24
285.919	68.95
286.134	1.37
286.349	-33.45
286.564	44.37
286.779	116.05
286.995	23.89
287.21	9.56
287.425	103.76
287.64	66.9
287.855	107.86
288.07	62.8
288.285	15.7
288.5	32.08
288.715	32.08
288.93	40.28
289.145	1.37
289.36	89.43
289.575	58.71
289.79	73.04
290.004	62.8
290.219	99.67
290.434	27.99
290.649	30.04
290.864	77.14
291.079	87.38
291.294	93.52
291.509	36.18
291.724	7.51
291.938	15.7
292.153	50.52
292.368	48.47
292.583	95.57
292.798	-47.79
293.012	-0.68
293.227	1.37
293.442	11.61
293.657	130.39
293.871	58.71
294.086	99.67
294.301	73.04
294.516	60.76
294.73	23.89
294.945	50.52
295.16	126.29
295.374	93.52
295.589	58.71
295.804	30.04
296.018	120.15
296.233	73.04
296.447	95.57
296.662	1.37
296.877	46.42
297.091	17.75
297.306	50.52
297.52	9.56
297.735	54.61
297.949	27.99
298.164	97.62
298.378	27.99
298.593	64.85
298.807	87.38
299.022	13.65
299.236	-17.07
299.451	34.13
299.665	44.37
299.88	71
300.094	-15.02
300.309	107.86
300.523	64.85
300.737	17.75
300.952	48.47
301.166	40.28
301.381	91.48
301.595	62.8
301.809	-8.87
302.024	-0.68
302.238	85.33
302.452	116.05
302.667	64.85
302.881	87.38
303.095	103.76
303.309	25.94
303.524	17.75
303.738	19.8
303.952	71
304.166	54.61
304.381	75.09
304.595	130.39
304.809	68.95
305.023	91.48
305.237	34.13
305.452	71
305.666	36.18
305.88	27.99
306.094	71
306.308	40.28
306.522	83.28
306.736	85.33
306.95	-2.73
307.164	1.37
307.379	40.28
307.593	71
307.807	68.95
308.021	118.1
308.235	91.48
308.449	64.85
308.663	1.37
308.877	23.89
309.091	58.71
309.305	-2.73
309.519	32.08
309.733	83.28
309.947	7.51
310.161	87.38
310.374	13.65
310.588	118.1
310.802	-8.87
311.016	120.15
311.23	107.86
311.444	-4.78
311.658	79.19
311.872	105.81
312.085	13.65
312.299	87.38
312.513	36.18
312.727	48.47
312.941	50.52
313.154	36.18
313.368	-0.68
313.582	75.09
313.796	7.51
314.009	64.85
314.223	56.66
314.437	54.61
314.651	93.52
314.864	75.09
315.078	7.51
315.292	81.24
315.505	34.13
315.719	101.72
315.933	38.23
316.146	73.04
316.36	50.52
316.573	64.85
316.787	89.43
317.001	89.43
317.214	9.56
317.428	136.53
317.641	-19.11
317.855	66.9
318.068	159.06
318.282	40.28
318.495	7.51
318.709	87.38
318.922	58.71
319.136	87.38
319.349	38.23
319.563	79.19
319.776	89.43
319.99	27.99
320.203	75.09
320.417	36.18
320.63	66.9
320.843	71
321.057	126.29
321.27	91.48
321.483	126.29
321.697	118.1
321.91	19.8
322.124	62.8
322.337	34.13
322.55	-12.97
322.763	89.43
322.977	105.81
323.19	25.94
323.403	36.18
323.617	79.19
323.83	68.95
324.043	58.71
324.256	71
324.469	60.76
324.683	114
324.896	73.04
325.109	56.66
325.322	15.7
325.535	132.44
325.748	83.28
325.962	34.13
326.175	40.28
326.388	148.82
326.601	34.13
326.814	68.95
327.027	68.95
327.24	11.61
327.453	32.08
327.666	77.14
327.879	89.43
328.092	25.94
328.305	34.13
328.518	124.24
328.731	64.85
328.944	44.37
329.157	85.33
329.37	-6.83
329.583	109.91
329.796	142.68
330.009	-21.16
330.222	75.09
330.435	-37.55
330.648	56.66
330.861	134.48
331.073	62.8
331.286	126.29
331.499	3.41
331.712	46.42
331.925	109.91
332.138	114
332.35	23.89
332.563	23.89
332.776	101.72
332.989	75.09
333.202	23.89
333.414	77.14
333.627	3.41
333.84	23.89
334.053	146.77
334.265	71
334.478	68.95
334.691	54.61
334.903	25.94
335.116	52.56
335.329	71
335.541	87.38
335.754	-0.68
335.966	27.99
336.179	38.23
336.392	-60.07
336.604	23.89
336.817	165.2
337.029	114
337.242	27.99
337.454	-6.83
337.667	58.71
337.88	126.29
338.092	124.24
338.305	68.95
338.517	50.52
338.729	17.75
338.942	77.14
339.154	11.61
339.367	7.51
339.579	93.52
339.792	79.19
340.004	144.72
340.217	30.04
340.429	99.67
340.641	95.57
340.854	120.15
341.066	38.23
341.278	148.82
341.491	91.48
341.703	73.04
341.915	62.8
342.128	44.37
342.34	13.65
342.552	62.8
342.764	68.95
342.977	38.23
343.189	15.7
343.401	97.62
343.613	27.99
343.826	50.52
344.038	40.28
344.25	46.42
344.462	36.18
344.674	99.67
344.886	77.14
345.099	52.56
345.311	77.14
345.523	36.18
345.735	40.28
345.947	83.28
346.159	27.99
346.371	38.23
346.583	99.67
346.795	23.89
347.007	71
347.219	120.15
347.431	48.47
347.643	126.29
347.855	48.47
348.067	77.14
348.279	71
348.491	93.52
348.703	124.24
348.915	83.28
349.127	93.52
349.339	60.76
349.551	5.46
349.763	101.72
349.975	77.14
350.187	95.57
350.399	36.18
350.61	103.76
350.822	15.7
351.034	68.95
351.246	95.57
351.458	58.71
351.669	138.58
351.881	44.37
352.093	21.85
352.305	83.28
352.517	91.48
352.728	81.24
352.94	56.66
353.152	99.67
353.363	77.14
353.575	87.38
353.787	87.38
353.999	128.34
354.21	118.1
354.422	71
354.633	34.13
354.845	50.52
355.057	36.18
355.268	34.13
355.48	79.19
355.692	30.04
355.903	27.99
356.115	105.81
356.326	17.75
356.538	154.96
356.749	83.28
356.961	58.71
357.172	64.85
357.384	83.28
357.595	32.08
357.807	48.47
358.018	60.76
358.23	71
358.441	107.86
358.653	44.37
358.864	17.75
359.075	89.43
359.287	60.76
359.498	128.34
359.709	73.04
359.921	25.94
360.132	138.58
360.344	60.76
360.555	60.76
360.766	101.72
360.977	52.56
361.189	142.68
361.4	48.47
361.611	46.42
361.823	109.91
362.034	21.85
362.245	27.99
362.456	81.24
362.667	79.19
362.879	34.13
363.09	109.91
363.301	103.76
363.512	13.65
363.723	62.8
363.935	79.19
364.146	89.43
364.357	-12.97
364.568	97.62
364.779	32.08
364.99	68.95
365.201	85.33
365.412	103.76
365.623	107.86
365.834	68.95
366.045	62.8
366.256	64.85
366.467	87.38
366.678	73.04
366.889	77.14
367.1	52.56
367.311	87.38
367.522	15.7
367.733	34.13
367.944	60.76
368.155	40.28
368.366	27.99
368.577	52.56
368.788	54.61
368.999	64.85
369.209	66.9
369.42	36.18
369.631	118.1
369.842	71
370.053	77.14
370.264	11.61
370.474	44.37
370.685	25.94
370.896	52.56
371.107	58.71
371.317	62.8
371.528	58.71
371.739	23.89
371.95	85.33
372.16	89.43
372.371	64.85
372.582	154.96
372.792	73.04
373.003	101.72
373.214	21.85
373.424	118.1
373.635	128.34
373.846	79.19
374.056	77.14
374.267	138.58
374.477	60.76
374.688	66.9
374.898	122.2
375.109	73.04
375.319	77.14
375.53	15.7
375.74	146.77
375.951	89.43
376.161	71
376.372	79.19
376.582	111.96
376.793	87.38
377.003	46.42
377.214	17.75
377.424	60.76
377.635	107.86
377.845	56.66
378.055	68.95
378.266	124.24
378.476	73.04
378.686	81.24
378.897	73.04
379.107	40.28
379.317	146.77
379.528	32.08
379.738	48.47
379.948	89.43
380.158	142.68
380.369	111.96
380.579	56.66
380.789	44.37
380.999	64.85
381.21	101.72
381.42	181.59
381.63	46.42
381.84	83.28
382.05	64.85
382.261	130.39
382.471	17.75
382.681	79.19
382.891	87.38
383.101	56.66
383.311	99.67
383.521	71
383.731	105.81
383.941	25.94
384.151	54.61
384.361	81.24
384.571	15.7
384.781	122.2
384.991	54.61
385.201	91.48
385.411	79.19
385.621	36.18
385.831	52.56
386.041	138.58
386.251	111.96
386.461	75.09
386.671	11.61
386.881	157.01
387.091	81.24
387.301	79.19
387.511	54.61
387.72	120.15
387.93	107.86
388.14	48.47
388.35	89.43
388.56	34.13
388.769	161.11
388.979	87.38
389.189	171.35
389.399	101.72
389.609	157.01
389.818	144.72
390.028	48.47
390.238	62.8
390.447	103.76
390.657	11.61
390.867	79.19
391.076	64.85
391.286	42.32
391.496	111.96
391.705	148.82
391.915	105.81
392.125	152.91
392.334	75.09
392.544	81.24
392.753	114
392.963	103.76
393.172	124.24
393.382	91.48
393.591	148.82
393.801	99.67
394.01	79.19
394.22	107.86
394.429	46.42
394.639	87.38
394.848	142.68
395.058	116.05
395.267	52.56
395.477	120.15
395.686	116.05
395.895	122.2
396.105	157.01
396.314	159.06
396.524	138.58
396.733	93.52
396.942	191.83
397.152	163.15
397.361	128.34
397.57	185.68
397.78	101.72
397.989	126.29
398.198	191.83
398.407	146.77
398.617	109.91
398.826	136.53
399.035	159.06
399.244	95.57
399.453	89.43
399.663	128.34
399.872	146.77
400.081	93.52
400.29	134.48
400.499	220.5
400.708	222.55
400.917	236.88
401.127	191.83
401.336	87.38
401.545	228.69
401.754	210.26
401.963	195.92
402.172	167.25
402.381	144.72
402.59	183.63
402.799	195.92
403.008	167.25
403.217	148.82
403.426	169.3
403.635	165.2
403.844	107.86
404.053	161.11
404.262	226.64
404.471	195.92
404.68	195.92
404.888	218.45
405.097	232.79
405.306	224.59
405.515	167.25
405.724	232.79
405.933	226.64
406.142	257.36
406.35	283.98
406.559	279.89
406.768	261.46
406.977	310.61
407.185	331.09
407.394	290.13
407.603	249.17
407.812	286.03
408.02	386.38
408.229	367.95
408.438	331.09
408.646	298.32
408.855	396.62
409.064	337.23
409.272	425.29
409.481	382.29
409.69	392.53
409.898	410.96
410.107	470.35
410.315	423.25
410.524	507.21
410.733	468.3
410.941	486.73
411.15	570.7
411.358	490.83
411.567	662.86
411.775	605.52
411.984	658.76
412.192	691.53
412.401	552.27
412.609	648.52
412.818	689.48
413.026	630.09
413.234	752.97
413.443	765.26
413.651	773.45
413.86	775.5
414.068	830.79
414.276	845.13
414.485	830.79
414.693	884.04
414.901	949.57
415.11	920.9
415.318	1015.11
415.526	1031.49
415.734	1156.42
415.943	1103.17
416.151	1205.57
416.359	1154.37
416.567	1248.58
416.776	1219.91
416.984	1320.26
417.192	1422.66
417.4	1385.79
417.608	1400.13
417.817	1545.53
418.025	1613.12
418.233	1787.19
418.441	1606.97
418.649	1746.23
418.857	1729.85
419.065	1750.33
419.273	1813.82
419.481	1889.59
419.689	2028.85
419.897	2231.6
420.105	2047.29
420.313	2198.84
420.521	2325.81
420.729	2297.14
420.937	2377.01
421.145	2553.13
421.353	2581.81
421.561	2800.94
421.769	2821.42
421.977	2948.39
422.185	2854.19
422.393	3056.93
422.601	3288.36
422.809	3231.01
423.017	3374.37
423.224	3423.52
423.432	3568.93
423.64	3521.82
423.848	3884.31
424.056	3898.65
424.263	4009.24
424.471	4144.41
424.679	4257.04
424.887	4283.67
425.094	4535.57
425.302	4623.63
425.51	4674.83
425.718	4799.76
425.925	4912.39
426.133	5311.75
426.341	5510.4
426.548	5641.47
426.756	5717.25
426.964	5557.5
427.171	6061.3
427.379	6268.15
427.586	6331.64
427.794	6573.3
428.001	6808.81
428.209	7118.06
428.417	6984.94
428.624	7363.81
428.832	7597.28
429.039	7593.19
429.247	7498.98
429.454	8183
429.662	8760.53
429.869	8260.82
430.076	8944.84
430.284	8522.96
430.491	8973.52
430.699	9536.71
430.906	9512.13
431.114	9649.35
431.321	9837.76
431.528	10015.93
431.736	10824.88
431.943	11162.8
432.15	11072.68
432.358	10976.43
432.565	11609.25
432.772	11592.87
432.979	12024.99
433.187	12483.73
433.394	12498.07
433.601	13403.27
433.808	13454.47
434.016	13108.37
434.223	13821.06
434.43	14734.45
434.637	14304.38
434.844	15299.69
435.052	15617.13
435.259	15459.43
435.466	15737.96
435.673	15291.5
435.88	16710.74
436.087	17347.66
436.294	17609.8
436.501	16845.91
436.708	17321.04
436.915	17779.78
437.122	18517.05
437.329	18680.89
437.537	19229.74
437.743	19469.36
437.95	19502.12
438.157	20184.1
438.364	21300.24
438.571	21070.87
438.778	21197.84
438.985	23466.99
439.192	22420.48
439.399	22807.55
439.606	22647.8
439.813	23946.22
440.02	25342.93
440.227	24853.47
440.433	24560.61
440.64	25355.22
440.847	25140.18
441.054	25965.51
441.261	27519.92
441.467	27351.99
441.674	28076.97
441.881	28750.75
442.088	28476.32
442.294	28464.03
442.501	29432.72
442.708	29942.67
442.914	31425.4
443.121	32461.67
443.328	31441.78
443.534	33547.09
443.741	32688.99
443.948	32449.38
444.154	34874.18
444.361	34329.42
444.568	34624.32
444.774	34769.73
444.981	34952
445.187	35988.27
445.394	37493.53
445.6	36940.58
445.807	40518.38
446.013	39150.34
446.22	39848.69
446.426	41417.44
446.633	41276.13
446.839	42662.6
447.046	41054.95
447.252	43471.55
447.459	43705.02
447.665	42984.13
447.871	44882.6
448.078	46953.1
448.284	44442.29
448.491	45843.1
448.697	47483.52
448.903	48540.27
449.11	48128.63
449.316	47272.58
449.522	48353.91
449.728	49418.85
449.935	49914.46
450.141	49728.09
450.347	50741.84
450.553	48988.78
450.76	49400.42
450.966	50766.41
451.172	50459.22
451.378	51819.07
451.584	50557.52
451.791	51900.99
451.997	51984.96
452.203	52742.7
452.409	52204.09
452.615	52142.65
452.821	49947.23
453.027	49707.61
453.233	52093.5
453.44	49816.16
453.646	50223.7
453.852	50371.16
454.058	51321.41
454.264	49459.81
454.47	50725.46
454.676	49228.39
454.882	50690.64
455.088	46394
455.294	46944.9
455.5	47610.49
455.705	47755.9
455.911	46432.91
456.117	45183.65
456.323	44528.3
456.529	42066.64
456.735	43657.92
456.941	42693.32
457.147	42128.08
457.352	40833.77
457.558	40383.21
457.764	40538.86
457.97	39369.47
458.176	38445.83
458.381	38798.09
458.587	36600.61
458.793	36832.04
458.999	34947.9
459.204	37122.85
459.41	36291.37
459.616	33968.97
459.821	33618.77
460.027	33921.87
460.233	33157.98
460.438	31304.57
460.644	31847.28
460.85	30401.41
461.055	30231.43
461.261	29715.34
461.466	27612.08
461.672	26600.38
461.878	28713.89
462.083	26907.58
462.289	26330.05
462.494	25891.79
462.7	24900.57
462.905	24331.23
463.111	25146.33
463.316	25232.34
463.522	24837.08
463.727	24675.29
463.932	24855.51
464.138	24378.34
464.343	24648.67
464.549	23669.74
464.754	24482.78
464.959	24654.81
465.165	24198.12
465.37	23690.22
465.575	22717.43
465.781	23391.22
465.986	23718.89
466.191	23059.45
466.397	22477.82
466.602	21341.2
466.807	22207.49
467.012	22033.41
467.218	22049.8
467.423	21720.07
467.628	22066.18
467.833	22875.13
