Data from USB4F104151__184__11-09-40-202.txt Node

Date: Wed Mar 12 11:09:40 EDT 2025
User: louis
Spectrometer: USB4F10415
Trigger mode: 4
Integration Time (sec): 2.000000E-2
Scans to average: 1
Electric dark correction enabled: true
Nonlinearity correction enabled: false
Boxcar width: 0
XAxis mode: Wavelengths
Number of Pixels in Spectrum: 3648
>>>>>Begin Spectral Data<<<<<
178.204	-83.8
178.424	-83.8
178.644	-83.8
178.864	-77.65
179.084	-32.6
179.304	-32.6
179.524	22.7
179.744	-24.4
179.964	75.95
180.184	30.89
180.404	39.08
180.624	-28.5
180.844	18.6
181.064	-67.41
181.283	-46.93
181.503	34.99
181.723	-22.36
181.943	-51.03
182.163	69.8
182.383	39.08
182.602	59.56
182.822	32.94
183.042	0.17
183.262	-34.64
183.482	4.27
183.701	39.08
183.921	16.55
184.141	43.18
184.361	61.61
184.58	-10.07
184.8	43.18
185.02	0.17
185.239	-1.88
185.459	10.41
185.679	30.89
185.898	-53.08
186.118	43.18
186.338	6.31
186.557	55.47
186.777	-59.22
186.997	6.31
187.216	24.75
187.436	2.22
187.655	69.8
187.875	-20.31
188.095	-57.17
188.314	32.94
188.534	10.41
188.753	45.23
188.973	22.7
189.192	57.51
189.412	-30.55
189.631	-12.12
189.851	14.51
190.07	24.75
190.29	-20.31
190.509	-16.21
190.729	-1.88
190.948	41.13
191.168	114.86
191.387	14.51
191.607	-42.84
191.826	-16.21
192.045	22.7
192.265	92.33
192.484	41.13
192.704	-12.12
192.923	-26.45
193.142	37.03
193.362	22.7
193.581	43.18
193.8	-8.02
194.02	-24.4
194.239	18.6
194.458	61.61
194.678	-55.12
194.897	10.41
195.116	-42.84
195.335	2.22
195.555	22.7
195.774	-53.08
195.993	57.51
196.212	2.22
196.432	41.13
196.651	73.9
196.87	28.84
197.089	-10.07
197.308	30.89
197.528	24.75
197.747	28.84
197.966	-8.02
198.185	-36.69
198.404	16.55
198.623	18.6
198.842	2.22
199.062	116.9
199.281	12.46
199.5	24.75
199.719	4.27
199.938	-22.36
200.157	30.89
200.376	-16.21
200.595	30.89
200.814	-73.56
201.033	-14.17
201.252	8.36
201.471	92.33
201.69	-55.12
201.909	26.79
202.128	73.9
202.347	34.99
202.566	47.27
202.785	14.51
203.004	-40.79
203.223	47.27
203.442	12.46
203.661	-8.02
203.879	67.75
204.098	-24.4
204.317	-20.31
204.536	22.7
204.755	65.71
204.974	24.75
205.193	8.36
205.411	77.99
205.63	86.19
205.849	47.27
206.068	2.22
206.287	-53.08
206.505	-1.88
206.724	0.17
206.943	-53.08
207.162	26.79
207.381	-14.17
207.599	57.51
207.818	8.36
208.037	43.18
208.255	16.55
208.474	34.99
208.693	43.18
208.911	-1.88
209.13	-1.88
209.349	4.27
209.567	18.6
209.786	26.79
210.005	43.18
210.223	22.7
210.442	4.27
210.661	-12.12
210.879	45.23
211.098	-53.08
211.316	22.7
211.535	73.9
211.753	12.46
211.972	61.61
212.191	-14.17
212.409	63.66
212.628	37.03
212.846	0.17
213.065	47.27
213.283	18.6
213.502	-24.4
213.72	59.56
213.938	14.51
214.157	-32.6
214.375	-14.17
214.594	16.55
214.812	45.23
215.031	-22.36
215.249	20.65
215.467	102.57
215.686	-8.02
215.904	30.89
216.122	8.36
216.341	28.84
216.559	69.8
216.778	18.6
216.996	41.13
217.214	0.17
217.432	37.03
217.651	-30.55
217.869	-8.02
218.087	-5.97
218.306	32.94
218.524	-16.21
218.742	-1.88
218.96	39.08
219.179	22.7
219.397	-5.97
219.615	63.66
219.833	-1.88
220.051	8.36
220.27	30.89
220.488	39.08
220.706	63.66
220.924	69.8
221.142	30.89
221.36	80.04
221.578	57.51
221.796	28.84
222.015	69.8
222.233	39.08
222.451	-20.31
222.669	51.37
222.887	-12.12
223.105	2.22
223.323	-57.17
223.541	18.6
223.759	59.56
223.977	53.42
224.195	80.04
224.413	-14.17
224.631	10.41
224.849	26.79
225.067	6.31
225.285	86.19
225.503	65.71
225.721	-14.17
225.939	-5.97
226.157	34.99
226.375	45.23
226.592	-1.88
226.81	32.94
227.028	-10.07
227.246	28.84
227.464	-8.02
227.682	98.47
227.9	39.08
228.117	43.18
228.335	51.37
228.553	47.27
228.771	-10.07
228.989	24.75
229.206	43.18
229.424	34.99
229.642	69.8
229.86	-26.45
230.077	-46.93
230.295	71.85
230.513	51.37
230.731	98.47
230.948	24.75
231.166	2.22
231.384	2.22
231.601	0.17
231.819	8.36
232.037	65.71
232.254	-16.21
232.472	-5.97
232.689	51.37
232.907	47.27
233.125	32.94
233.342	18.6
233.56	37.03
233.777	-5.97
233.995	32.94
234.213	84.14
234.43	-16.21
234.648	30.89
234.865	-16.21
235.083	45.23
235.3	-8.02
235.518	75.95
235.735	104.62
235.953	82.09
236.17	-3.93
236.388	57.51
236.605	26.79
236.822	49.32
237.04	2.22
237.257	-14.17
237.475	51.37
237.692	69.8
237.909	49.32
238.127	8.36
238.344	53.42
238.562	82.09
238.779	-22.36
238.996	12.46
239.214	28.84
239.431	49.32
239.648	37.03
239.865	-5.97
240.083	2.22
240.3	2.22
240.517	37.03
240.735	2.22
240.952	73.9
241.169	37.03
241.386	30.89
241.603	28.84
241.821	-94.04
242.038	30.89
242.255	-46.93
242.472	18.6
242.689	0.17
242.907	55.47
243.124	14.51
243.341	26.79
243.558	73.9
243.775	-20.31
243.992	-34.64
244.209	30.89
244.426	82.09
244.643	77.99
244.86	-24.4
245.078	82.09
245.295	49.32
245.512	41.13
245.729	67.75
245.946	26.79
246.163	0.17
246.38	-14.17
246.597	-30.55
246.814	41.13
247.031	26.79
247.248	18.6
247.464	6.31
247.681	88.23
247.898	-1.88
248.115	32.94
248.332	22.7
248.549	-38.74
248.766	49.32
248.983	-8.02
249.2	-65.36
249.417	-36.69
249.633	34.99
249.85	6.31
250.067	39.08
250.284	-26.45
250.501	-28.5
250.717	26.79
250.934	-12.12
251.151	-42.84
251.368	-40.79
251.585	8.36
251.801	59.56
252.018	-1.88
252.235	24.75
252.451	-22.36
252.668	30.89
252.885	94.38
253.102	34.99
253.318	73.9
253.535	0.17
253.752	0.17
253.968	28.84
254.185	-51.03
254.401	-24.4
254.618	37.03
254.835	24.75
255.051	-42.84
255.268	51.37
255.484	30.89
255.701	-36.69
255.917	6.31
256.134	30.89
256.351	51.37
256.567	-28.5
256.784	22.7
257	30.89
257.217	71.85
257.433	-42.84
257.65	-10.07
257.866	32.94
258.082	45.23
258.299	30.89
258.515	100.52
258.732	24.75
258.948	-28.5
259.165	0.17
259.381	10.41
259.597	12.46
259.814	4.27
260.03	22.7
260.246	-28.5
260.463	18.6
260.679	30.89
260.895	55.47
261.112	-22.36
261.328	14.51
261.544	73.9
261.761	20.65
261.977	41.13
262.193	57.51
262.409	26.79
262.626	-10.07
262.842	2.22
263.058	-18.26
263.274	-12.12
263.49	39.08
263.707	20.65
263.923	65.71
264.139	51.37
264.355	28.84
264.571	-3.93
264.787	-5.97
265.004	59.56
265.22	-18.26
265.436	-44.88
265.652	-42.84
265.868	24.75
266.084	4.27
266.3	-30.55
266.516	-1.88
266.732	22.7
266.948	-12.12
267.164	63.66
267.38	12.46
267.596	65.71
267.812	108.71
268.028	67.75
268.244	-24.4
268.46	43.18
268.676	67.75
268.892	55.47
269.108	-18.26
269.324	2.22
269.54	39.08
269.756	2.22
269.972	-10.07
270.188	24.75
270.403	-5.97
270.619	-8.02
270.835	77.99
271.051	26.79
271.267	10.41
271.483	-8.02
271.698	47.27
271.914	116.9
272.13	45.23
272.346	14.51
272.562	-36.69
272.777	12.46
272.993	-32.6
273.209	135.34
273.425	67.75
273.64	-22.36
273.856	53.42
274.072	-24.4
274.287	10.41
274.503	49.32
274.719	65.71
274.934	-48.98
275.15	14.51
275.366	-36.69
275.581	39.08
275.797	75.95
276.012	34.99
276.228	-12.12
276.444	30.89
276.659	-34.64
276.875	14.51
277.09	65.71
277.306	-65.36
277.521	55.47
277.737	8.36
277.952	82.09
278.168	39.08
278.383	24.75
278.599	32.94
278.814	65.71
279.03	-46.93
279.245	57.51
279.461	-10.07
279.676	41.13
279.892	73.9
280.107	-28.5
280.322	22.7
280.538	-26.45
280.753	2.22
280.969	24.75
281.184	-8.02
281.399	65.71
281.615	-46.93
281.83	61.61
282.045	-36.69
282.26	8.36
282.476	28.84
282.691	84.14
282.906	61.61
283.122	45.23
283.337	12.46
283.552	51.37
283.767	22.7
283.983	88.23
284.198	71.85
284.413	16.55
284.628	0.17
284.843	34.99
285.058	0.17
285.274	24.75
285.489	86.19
285.704	37.03
285.919	63.66
286.134	-26.45
286.349	65.71
286.564	14.51
286.779	-10.07
286.995	4.27
287.21	-22.36
287.425	57.51
287.64	8.36
287.855	55.47
288.07	-28.5
288.285	86.19
288.5	39.08
288.715	41.13
288.93	-73.56
289.145	-16.21
289.36	45.23
289.575	-8.02
289.79	2.22
290.004	34.99
290.219	34.99
290.434	45.23
290.649	18.6
290.864	16.55
291.079	-81.75
291.294	37.03
291.509	51.37
291.724	12.46
291.938	47.27
292.153	0.17
292.368	-26.45
292.583	-12.12
292.798	-20.31
293.012	41.13
293.227	2.22
293.442	84.14
293.657	57.51
293.871	14.51
294.086	16.55
294.301	28.84
294.516	96.43
294.73	22.7
294.945	28.84
295.16	14.51
295.374	69.8
295.589	-14.17
295.804	39.08
296.018	86.19
296.233	75.95
296.447	65.71
296.662	-20.31
296.877	104.62
297.091	94.38
297.306	14.51
297.52	26.79
297.735	43.18
297.949	2.22
298.164	53.42
298.378	30.89
298.593	-14.17
298.807	-22.36
299.022	-22.36
299.236	37.03
299.451	22.7
299.665	20.65
299.88	8.36
300.094	-28.5
300.309	22.7
300.523	-26.45
300.737	26.79
300.952	2.22
301.166	8.36
301.381	4.27
301.595	37.03
301.809	37.03
302.024	-3.93
302.238	123.05
302.452	32.94
302.667	-10.07
302.881	10.41
303.095	71.85
303.309	63.66
303.524	34.99
303.738	49.32
303.952	-18.26
304.166	-10.07
304.381	-5.97
304.595	39.08
304.809	14.51
305.023	10.41
305.237	10.41
305.452	30.89
305.666	-14.17
305.88	14.51
306.094	6.31
306.308	47.27
306.522	-32.6
306.736	96.43
306.95	51.37
307.164	-38.74
307.379	-8.02
307.593	14.51
307.807	26.79
308.021	37.03
308.235	-85.84
308.449	-12.12
308.663	59.56
308.877	14.51
309.091	77.99
309.305	102.57
309.519	20.65
309.733	26.79
309.947	51.37
310.161	75.95
310.374	-14.17
310.588	41.13
310.802	80.04
311.016	-26.45
311.23	0.17
311.444	-34.64
311.658	-12.12
311.872	80.04
312.085	26.79
312.299	8.36
312.513	2.22
312.727	45.23
312.941	10.41
313.154	32.94
313.368	47.27
313.582	32.94
313.796	16.55
314.009	26.79
314.223	67.75
314.437	71.85
314.651	63.66
314.864	26.79
315.078	26.79
315.292	-12.12
315.505	47.27
315.719	2.22
315.933	53.42
316.146	51.37
316.36	8.36
316.573	10.41
316.787	-5.97
317.001	96.43
317.214	4.27
317.428	34.99
317.641	34.99
317.855	22.7
318.068	2.22
318.282	16.55
318.495	57.51
318.709	57.51
318.922	51.37
319.136	14.51
319.349	80.04
319.563	39.08
319.776	0.17
319.99	-36.69
320.203	-1.88
320.417	63.66
320.63	24.75
320.843	116.9
321.057	26.79
321.27	-61.27
321.483	28.84
321.697	30.89
321.91	57.51
322.124	55.47
322.337	41.13
322.55	45.23
322.763	49.32
322.977	-14.17
323.19	-34.64
323.403	6.31
323.617	8.36
323.83	12.46
324.043	55.47
324.256	18.6
324.469	65.71
324.683	53.42
324.896	8.36
325.109	24.75
325.322	-8.02
325.535	30.89
325.748	24.75
325.962	-65.36
326.175	-44.88
326.388	61.61
326.601	69.8
326.814	-14.17
327.027	-42.84
327.24	24.75
327.453	-51.03
327.666	39.08
327.879	53.42
328.092	30.89
328.305	28.84
328.518	-30.55
328.731	2.22
328.944	22.7
329.157	57.51
329.37	8.36
329.583	67.75
329.796	100.52
330.009	-34.64
330.222	-14.17
330.435	75.95
330.648	-1.88
330.861	32.94
331.073	-24.4
331.286	-8.02
331.499	-42.84
331.712	61.61
331.925	145.58
332.138	20.65
332.35	41.13
332.563	112.81
332.776	53.42
332.989	37.03
333.202	51.37
333.414	26.79
333.627	-26.45
333.84	125.1
334.053	-24.4
334.265	-14.17
334.478	28.84
334.691	-18.26
334.903	12.46
335.116	-36.69
335.329	43.18
335.541	22.7
335.754	92.33
335.966	63.66
336.179	71.85
336.392	28.84
336.604	96.43
336.817	53.42
337.029	43.18
337.242	32.94
337.454	18.6
337.667	-1.88
337.88	39.08
338.092	65.71
338.305	71.85
338.517	24.75
338.729	20.65
338.942	51.37
339.154	16.55
339.367	20.65
339.579	47.27
339.792	-73.56
340.004	14.51
340.217	10.41
340.429	94.38
340.641	65.71
340.854	49.32
341.066	-10.07
341.278	-14.17
341.491	80.04
341.703	-53.08
341.915	20.65
342.128	32.94
342.34	18.6
342.552	71.85
342.764	49.32
342.977	8.36
343.189	12.46
343.401	20.65
343.613	-114.52
343.826	43.18
344.038	43.18
344.25	8.36
344.462	47.27
344.674	32.94
344.886	39.08
345.099	22.7
345.311	10.41
345.523	-5.97
345.735	16.55
345.947	-10.07
346.159	47.27
346.371	-8.02
346.583	-30.55
346.795	20.65
347.007	43.18
347.219	39.08
347.431	10.41
347.643	86.19
347.855	112.81
348.067	24.75
348.279	-48.98
348.491	12.46
348.703	51.37
348.915	30.89
349.127	-55.12
349.339	2.22
349.551	32.94
349.763	28.84
349.975	53.42
350.187	22.7
350.399	26.79
350.61	10.41
350.822	14.51
351.034	32.94
351.246	86.19
351.458	-30.55
351.669	0.17
351.881	39.08
352.093	0.17
352.305	16.55
352.517	104.62
352.728	41.13
352.94	6.31
353.152	16.55
353.363	0.17
353.575	37.03
353.787	59.56
353.999	55.47
354.21	129.19
354.422	-65.36
354.633	37.03
354.845	39.08
355.057	-42.84
355.268	59.56
355.48	75.95
355.692	28.84
355.903	125.1
356.115	4.27
356.326	-1.88
356.538	96.43
356.749	14.51
356.961	18.6
357.172	49.32
357.384	43.18
357.595	127.14
357.807	-48.98
358.018	69.8
358.23	0.17
358.441	26.79
358.653	84.14
358.864	53.42
359.075	12.46
359.287	-28.5
359.498	41.13
359.709	39.08
359.921	51.37
360.132	30.89
360.344	12.46
360.555	8.36
360.766	45.23
360.977	-44.88
361.189	-22.36
361.4	63.66
361.611	67.75
361.823	8.36
362.034	59.56
362.245	45.23
362.456	80.04
362.667	10.41
362.879	20.65
363.09	39.08
363.301	28.84
363.512	34.99
363.723	12.46
363.935	-30.55
364.146	22.7
364.357	88.23
364.568	-14.17
364.779	24.75
364.99	14.51
365.201	-3.93
365.412	59.56
365.623	-22.36
365.834	-18.26
366.045	-3.93
366.256	53.42
366.467	20.65
366.678	18.6
366.889	-5.97
367.1	51.37
367.311	-8.02
367.522	16.55
367.733	-10.07
367.944	53.42
368.155	-10.07
368.366	-24.4
368.577	69.8
368.788	57.51
368.999	34.99
369.209	43.18
369.42	80.04
369.631	-3.93
369.842	-3.93
370.053	26.79
370.264	96.43
370.474	12.46
370.685	-40.79
370.896	32.94
371.107	20.65
371.317	10.41
371.528	-1.88
371.739	100.52
371.95	6.31
372.16	-18.26
372.371	30.89
372.582	-18.26
372.792	90.28
373.003	-1.88
373.214	88.23
373.424	45.23
373.635	-65.36
373.846	6.31
374.056	20.65
374.267	155.82
374.477	24.75
374.688	26.79
374.898	6.31
375.109	20.65
375.319	26.79
375.53	47.27
375.74	-20.31
375.951	-8.02
376.161	65.71
376.372	20.65
376.582	30.89
376.793	51.37
377.003	4.27
377.214	20.65
377.424	-5.97
377.635	14.51
377.845	24.75
378.055	32.94
378.266	4.27
378.476	24.75
378.686	-1.88
378.897	71.85
379.107	37.03
379.317	71.85
379.528	2.22
379.738	47.27
379.948	-40.79
380.158	88.23
380.369	-53.08
380.579	34.99
380.789	71.85
380.999	57.51
381.21	59.56
381.42	82.09
381.63	0.17
381.84	45.23
382.05	14.51
382.261	-14.17
382.471	39.08
382.681	22.7
382.891	41.13
383.101	26.79
383.311	88.23
383.521	-14.17
383.731	20.65
383.941	55.47
384.151	-24.4
384.361	-1.88
384.571	28.84
384.781	61.61
384.991	39.08
385.201	75.95
385.411	41.13
385.621	-57.17
385.831	59.56
386.041	41.13
386.251	2.22
386.461	39.08
386.671	26.79
386.881	55.47
387.091	2.22
387.301	90.28
387.511	-1.88
387.72	10.41
387.93	77.99
388.14	-3.93
388.35	-12.12
388.56	51.37
388.769	51.37
388.979	67.75
389.189	24.75
389.399	-10.07
389.609	10.41
389.818	100.52
390.028	2.22
390.238	63.66
390.447	51.37
390.657	43.18
390.867	8.36
391.076	16.55
391.286	51.37
391.496	14.51
391.705	32.94
391.915	84.14
392.125	10.41
392.334	125.1
392.544	2.22
392.753	71.85
392.963	41.13
393.172	16.55
393.382	51.37
393.591	63.66
393.801	75.95
394.01	102.57
394.22	0.17
394.429	96.43
394.639	-22.36
394.848	88.23
395.058	51.37
395.267	51.37
395.477	114.86
395.686	53.42
395.895	6.31
396.105	61.61
396.314	51.37
396.524	96.43
396.733	2.22
396.942	80.04
397.152	75.95
397.361	37.03
397.57	112.81
397.78	47.27
397.989	59.56
398.198	147.62
398.407	51.37
398.617	53.42
398.826	-24.4
399.035	77.99
399.244	80.04
399.453	45.23
399.663	108.71
399.872	8.36
400.081	49.32
400.29	51.37
400.499	28.84
400.708	26.79
400.917	16.55
401.127	106.67
401.336	71.85
401.545	98.47
401.754	0.17
401.963	100.52
402.172	59.56
402.381	57.51
402.59	49.32
402.799	63.66
403.008	61.61
403.217	92.33
403.426	100.52
403.635	-5.97
403.844	16.55
404.053	65.71
404.262	65.71
404.471	123.05
404.68	65.71
404.888	73.9
405.097	157.86
405.306	77.99
405.515	47.27
405.724	80.04
405.933	88.23
406.142	102.57
406.35	88.23
406.559	65.71
406.768	159.91
406.977	129.19
407.185	129.19
407.394	182.44
407.603	75.95
407.812	168.1
408.02	159.91
408.229	57.51
408.438	121
408.646	118.95
408.855	127.14
409.064	164.01
409.272	139.43
409.481	129.19
409.69	82.09
409.898	98.47
410.107	157.86
410.315	153.77
410.524	123.05
410.733	67.75
410.941	139.43
411.15	170.15
411.358	213.16
411.567	159.91
411.775	159.91
411.984	247.97
412.192	280.74
412.401	260.26
412.609	272.55
412.818	256.17
413.026	194.73
413.234	309.41
413.443	235.69
413.651	202.92
413.86	374.95
414.068	309.41
414.276	293.03
414.485	319.65
414.693	370.85
414.901	358.57
415.11	350.37
415.318	325.8
415.526	331.94
415.734	411.81
415.943	434.34
416.151	383.14
416.359	440.48
416.567	465.06
416.776	387.24
416.984	479.4
417.192	532.64
417.4	463.01
417.608	532.64
417.817	487.59
418.025	583.84
418.233	561.31
418.441	569.51
418.649	618.66
418.857	635.04
419.065	614.56
419.273	721.06
419.481	628.9
419.689	733.34
419.897	768.16
420.105	764.06
420.313	852.13
420.521	821.41
420.729	905.37
420.937	741.54
421.145	929.95
421.353	944.28
421.561	962.72
421.769	985.24
421.977	1044.63
422.185	1108.12
422.393	1138.84
422.601	1163.42
422.809	1173.66
423.017	1101.98
423.224	1173.66
423.432	1329.3
423.64	1245.34
423.848	1472.66
424.056	1400.98
424.263	1405.08
424.471	1435.8
424.679	1521.81
424.887	1573.01
425.094	1697.94
425.302	1523.86
425.51	1607.83
425.718	1755.28
425.925	1788.05
426.133	1845.39
426.341	1820.81
426.548	1915.02
426.756	1992.84
426.964	2111.63
427.171	2107.53
427.379	2226.31
427.586	2375.81
427.794	2201.74
428.001	2277.51
428.209	2406.53
428.417	2541.7
428.624	2680.96
428.832	2693.25
429.039	2697.35
429.247	2629.76
429.454	2934.91
429.662	3115.13
429.869	2701.44
430.076	3108.99
430.284	3012.73
430.491	3074.17
430.699	3315.83
430.906	3309.69
431.114	3319.93
431.321	3379.32
431.528	3393.65
431.736	3745.91
431.943	3901.55
432.15	3950.7
432.358	3893.36
432.565	4044.91
432.772	4081.77
432.979	4196.46
433.187	4266.09
433.394	4300.91
433.601	4614.24
433.808	4681.83
434.016	4604
434.223	4708.45
434.43	5179.48
434.637	4989.02
434.844	5165.15
435.052	5376.09
435.259	5183.58
435.466	5417.05
435.673	5425.24
435.88	5834.83
436.087	5963.86
436.294	5941.33
436.501	5836.88
436.708	5873.75
436.915	6150.22
437.122	6332.49
437.329	6512.71
437.537	6752.32
437.743	6860.87
437.95	6688.84
438.157	7112.77
438.364	7333.95
438.571	7260.22
438.778	7217.21
438.985	8054.83
439.192	7831.6
439.399	7839.8
439.606	7776.31
439.813	8304.68
440.02	8583.21
440.227	8605.74
440.433	8370.22
440.64	8689.7
440.847	8658.98
441.054	8775.72
441.261	9529.37
441.467	9256.99
441.674	9574.42
441.881	9703.45
442.088	9834.52
442.294	9652.25
442.501	10141.71
442.708	10274.83
442.914	10545.16
443.121	10993.67
443.328	10709
443.534	11700.22
443.741	10926.08
443.948	10938.37
444.154	11868.15
444.361	11630.59
444.568	11878.39
444.774	11651.06
444.981	11898.87
445.187	12261.36
445.394	12722.15
445.6	12605.42
445.807	13848.54
446.013	13258.72
446.22	13365.21
446.426	13823.96
446.633	14149.59
446.839	14532.56
447.046	13924.31
447.252	14604.24
447.459	14991.3
447.665	14694.35
447.871	15409.09
448.078	16003
448.284	15337.41
448.491	15943.61
448.697	16349.11
448.903	16299.95
449.11	16476.08
449.316	16256.95
449.522	16711.6
449.728	17115.05
449.935	17055.65
450.141	17057.7
450.347	17581.98
450.553	16879.53
450.76	17158.05
450.966	17727.39
451.172	17252.26
451.378	17817.5
451.584	17633.18
451.791	17821.59
451.997	18050.97
452.203	18546.58
452.409	18196.37
452.615	18358.16
452.821	17375.14
453.027	17086.37
453.233	18134.93
453.44	17262.5
453.646	17647.52
453.852	17526.69
454.058	17948.57
454.264	17285.03
454.47	17797.02
454.676	17315.75
454.882	17903.51
455.088	16361.39
455.294	16621.49
455.5	16861.1
455.705	16967.59
455.911	16316.34
456.117	16017.33
456.323	15617.98
456.529	14966.73
456.735	15843.26
456.941	14970.82
457.147	14962.63
457.352	14294.99
457.558	14327.76
457.764	14010.32
457.97	13920.21
458.176	13772.76
458.381	13537.24
458.587	13035.49
458.793	12918.76
458.999	12484.59
459.204	13240.29
459.41	12902.37
459.616	12074.99
459.821	12036.08
460.027	11876.34
460.233	11757.56
460.438	11204.61
460.644	11302.91
460.85	10778.63
461.055	10682.38
461.261	10719.24
461.466	9828.37
461.672	9392.16
461.878	10154
462.083	9281.57
462.289	9230.37
462.494	9508.89
462.7	8677.41
462.905	8673.32
463.111	9263.13
463.316	8859.68
463.522	8749.09
463.727	8753.19
463.932	8714.28
464.138	8482.86
464.343	8658.98
464.549	8448.04
464.754	8638.5
464.959	8599.59
465.165	8390.7
465.37	8450.09
465.575	8075.31
465.781	8409.13
465.986	8319.02
466.191	8185.9
466.397	7888.95
466.602	7518.26
466.807	7729.2
467.012	7774.26
467.218	7661.62
467.423	7671.86
467.628	7747.64
467.833	7950.39
468.038	7774.26
468.244	7518.26
468.449	7815.22
468.654	7585.85
468.859	7536.7
469.064	7493.69
