Data from USB4F104151__281__11-12-53-500.txt Node

Date: Wed Mar 12 11:12:53 EDT 2025
User: louis
Spectrometer: USB4F10415
Trigger mode: 4
Integration Time (sec): 2.000000E-2
Scans to average: 1
Electric dark correction enabled: true
Nonlinearity correction enabled: false
Boxcar width: 0
XAxis mode: Wavelengths
Number of Pixels in Spectrum: 3648
>>>>>Begin Spectral Data<<<<<
178.204	-144.89
178.424	-144.89
178.644	-144.89
178.864	-67.07
179.084	-77.31
179.304	-3.58
179.524	-40.45
179.744	-46.59
179.964	8.7
180.184	-48.64
180.404	10.75
180.624	41.47
180.844	53.76
181.064	2.56
181.283	49.66
181.503	-3.58
181.723	-24.06
181.943	10.75
182.163	20.99
182.383	37.38
182.602	76.29
182.822	-30.21
183.042	-46.59
183.262	47.62
183.482	-9.73
183.701	41.47
183.921	94.72
184.141	-22.02
184.361	12.8
184.58	41.47
184.8	-32.26
185.02	8.7
185.239	35.33
185.459	-40.45
185.679	10.75
185.898	-1.54
186.118	-1.54
186.338	33.28
186.557	33.28
186.777	0.51
186.997	39.42
187.216	-24.06
187.436	80.38
187.655	51.71
187.875	2.56
188.095	33.28
188.314	41.47
188.534	29.18
188.753	47.62
188.973	-30.21
189.192	57.86
189.412	72.19
189.631	12.8
189.851	41.47
190.07	14.85
190.29	16.9
190.509	0.51
190.729	-9.73
190.948	45.57
191.168	109.05
191.387	66.05
191.607	-19.97
191.826	-11.78
192.045	-9.73
192.265	94.72
192.484	6.66
192.704	55.81
192.923	31.23
193.142	41.47
193.362	-3.58
193.581	53.76
193.8	35.33
194.02	51.71
194.239	33.28
194.458	8.7
194.678	80.38
194.897	18.94
195.116	-19.97
195.335	27.14
195.555	-26.11
195.774	68.09
195.993	-34.3
196.212	-15.87
196.432	-34.3
196.651	43.52
196.87	-5.63
197.089	41.47
197.308	-26.11
197.528	33.28
197.747	-38.4
197.966	-60.93
198.185	70.14
198.404	78.33
198.623	35.33
198.842	-5.63
199.062	47.62
199.281	39.42
199.5	23.04
199.719	23.04
199.938	31.23
200.157	18.94
200.376	23.04
200.595	53.76
200.814	66.05
201.033	-5.63
201.252	23.04
201.471	45.57
201.69	80.38
201.909	27.14
202.128	27.14
202.347	43.52
202.566	27.14
202.785	-38.4
203.004	10.75
203.223	39.42
203.442	6.66
203.661	12.8
203.879	53.76
204.098	16.9
204.317	-87.55
204.536	39.42
204.755	-13.82
204.974	51.71
205.193	18.94
205.411	47.62
205.63	84.48
205.849	-15.87
206.068	39.42
206.287	51.71
206.505	-24.06
206.724	0.51
206.943	8.7
207.162	14.85
207.381	6.66
207.599	29.18
207.818	-1.54
208.037	55.81
208.255	43.52
208.474	59.9
208.693	12.8
208.911	12.8
209.13	4.61
209.349	53.76
209.567	37.38
209.786	59.9
210.005	39.42
210.223	55.81
210.442	14.85
210.661	35.33
210.879	-95.74
211.098	-1.54
211.316	76.29
211.535	39.42
211.753	37.38
211.972	2.56
212.191	-28.16
212.409	23.04
212.628	109.05
212.846	23.04
213.065	41.47
213.283	55.81
213.502	-52.74
213.72	27.14
213.938	61.95
214.157	10.75
214.375	84.48
214.594	18.94
214.812	20.99
215.031	-62.98
215.249	2.56
215.467	31.23
215.686	-7.68
215.904	-5.63
216.122	-24.06
216.341	82.43
216.559	96.77
216.778	-30.21
216.996	43.52
217.214	-34.3
217.432	10.75
217.651	-5.63
217.869	29.18
218.087	92.67
218.306	27.14
218.524	109.05
218.742	-13.82
218.96	47.62
219.179	70.14
219.397	25.09
219.615	53.76
219.833	76.29
220.051	-34.3
220.27	-5.63
220.488	20.99
220.706	12.8
220.924	4.61
221.142	-50.69
221.36	6.66
221.578	-24.06
221.796	-42.5
222.015	74.24
222.233	82.43
222.451	33.28
222.669	-46.59
222.887	66.05
223.105	18.94
223.323	0.51
223.541	-26.11
223.759	25.09
223.977	-3.58
224.195	57.86
224.413	78.33
224.631	43.52
224.849	-5.63
225.067	70.14
225.285	-11.78
225.503	115.2
225.721	35.33
225.939	45.57
226.157	31.23
226.375	100.86
226.592	8.7
226.81	45.57
227.028	51.71
227.246	39.42
227.464	55.81
227.682	25.09
227.9	92.67
228.117	47.62
228.335	59.9
228.553	39.42
228.771	2.56
228.989	92.67
229.206	6.66
229.424	27.14
229.642	20.99
229.86	55.81
230.077	-3.58
230.295	4.61
230.513	12.8
230.731	37.38
230.948	68.09
231.166	39.42
231.384	41.47
231.601	53.76
231.819	70.14
232.037	-32.26
232.254	59.9
232.472	16.9
232.689	31.23
232.907	43.52
233.125	31.23
233.342	35.33
233.56	-3.58
233.777	18.94
233.995	29.18
234.213	8.7
234.43	53.76
234.648	6.66
234.865	64
235.083	-9.73
235.3	-5.63
235.518	14.85
235.735	35.33
235.953	82.43
236.17	64
236.388	8.7
236.605	35.33
236.822	80.38
237.04	-22.02
237.257	16.9
237.475	-42.5
237.692	-7.68
237.909	6.66
238.127	33.28
238.344	47.62
238.562	2.56
238.779	-11.78
238.996	33.28
239.214	-26.11
239.431	53.76
239.648	18.94
239.865	88.57
240.083	-34.3
240.3	8.7
240.517	39.42
240.735	16.9
240.952	107.01
241.169	27.14
241.386	37.38
241.603	23.04
241.821	37.38
242.038	53.76
242.255	51.71
242.472	8.7
242.689	78.33
242.907	33.28
243.124	-73.21
243.341	14.85
243.558	8.7
243.775	20.99
243.992	23.04
244.209	49.66
244.426	8.7
244.643	47.62
244.86	35.33
245.078	6.66
245.295	-17.92
245.512	72.19
245.729	-11.78
245.946	2.56
246.163	-36.35
246.38	-32.26
246.597	39.42
246.814	14.85
247.031	10.75
247.248	31.23
247.464	35.33
247.681	10.75
247.898	29.18
248.115	84.48
248.332	-46.59
248.549	53.76
248.766	-17.92
248.983	76.29
249.2	102.91
249.417	8.7
249.633	-17.92
249.85	31.23
250.067	72.19
250.284	100.86
250.501	18.94
250.717	25.09
250.934	51.71
251.151	-52.74
251.368	78.33
251.585	43.52
251.801	-30.21
252.018	18.94
252.235	45.57
252.451	6.66
252.668	41.47
252.885	6.66
253.102	2.56
253.318	76.29
253.535	-32.26
253.752	12.8
253.968	80.38
254.185	33.28
254.401	6.66
254.618	102.91
254.835	68.09
255.051	41.47
255.268	98.81
255.484	12.8
255.701	41.47
255.917	-15.87
256.134	113.15
256.351	-1.54
256.567	43.52
256.784	47.62
257	14.85
257.217	8.7
257.433	109.05
257.65	92.67
257.866	33.28
258.082	6.66
258.299	-15.87
258.515	57.86
258.732	-60.93
258.948	-1.54
259.165	4.61
259.381	55.81
259.597	49.66
259.814	31.23
260.03	88.57
260.246	-36.35
260.463	145.92
260.679	55.81
260.895	59.9
261.112	31.23
261.328	88.57
261.544	14.85
261.761	64
261.977	12.8
262.193	-26.11
262.409	-5.63
262.626	14.85
262.842	59.9
263.058	-42.5
263.274	23.04
263.49	-13.82
263.707	10.75
263.923	-42.5
264.139	29.18
264.355	31.23
264.571	6.66
264.787	-3.58
265.004	31.23
265.22	4.61
265.436	16.9
265.652	20.99
265.868	18.94
266.084	35.33
266.3	66.05
266.516	-52.74
266.732	2.56
266.948	59.9
267.164	70.14
267.38	94.72
267.596	29.18
267.812	80.38
268.028	-22.02
268.244	31.23
268.46	4.61
268.676	113.15
268.892	61.95
269.108	33.28
269.324	8.7
269.54	-11.78
269.756	-9.73
269.972	80.38
270.188	47.62
270.403	8.7
270.619	2.56
270.835	23.04
271.051	45.57
271.267	80.38
271.483	37.38
271.698	68.09
271.914	76.29
272.13	-32.26
272.346	49.66
272.562	43.52
272.777	27.14
272.993	45.57
273.209	6.66
273.425	4.61
273.64	35.33
273.856	43.52
274.072	-3.58
274.287	12.8
274.503	29.18
274.719	115.2
274.934	-3.58
275.15	47.62
275.366	-15.87
275.581	29.18
275.797	82.43
276.012	47.62
276.228	23.04
276.444	23.04
276.659	16.9
276.875	-30.21
277.09	-46.59
277.306	-56.83
277.521	10.75
277.737	-13.82
277.952	-1.54
278.168	-17.92
278.383	25.09
278.599	45.57
278.814	12.8
279.03	43.52
279.245	117.25
279.461	-30.21
279.676	39.42
279.892	18.94
280.107	25.09
280.322	8.7
280.538	47.62
280.753	18.94
280.969	14.85
281.184	43.52
281.399	66.05
281.615	23.04
281.83	61.95
282.045	53.76
282.26	18.94
282.476	-1.54
282.691	53.76
282.906	96.77
283.122	45.57
283.337	74.24
283.552	31.23
283.767	-5.63
283.983	39.42
284.198	92.67
284.413	25.09
284.628	23.04
284.843	-34.3
285.058	29.18
285.274	25.09
285.489	-19.97
285.704	45.57
285.919	20.99
286.134	-5.63
286.349	6.66
286.564	55.81
286.779	72.19
286.995	53.76
287.21	-13.82
287.425	64
287.64	-22.02
287.855	49.66
288.07	-30.21
288.285	59.9
288.5	74.24
288.715	102.91
288.93	37.38
289.145	-7.68
289.36	10.75
289.575	8.7
289.79	55.81
290.004	10.75
290.219	80.38
290.434	-1.54
290.649	-24.06
290.864	2.56
291.079	61.95
291.294	10.75
291.509	10.75
291.724	180.73
291.938	-36.35
292.153	27.14
292.368	45.57
292.583	-13.82
292.798	-5.63
293.012	68.09
293.227	66.05
293.442	49.66
293.657	51.71
293.871	14.85
294.086	31.23
294.301	64
294.516	39.42
294.73	20.99
294.945	14.85
295.16	51.71
295.374	76.29
295.589	51.71
295.804	12.8
296.018	43.52
296.233	94.72
296.447	-5.63
296.662	57.86
296.877	43.52
297.091	33.28
297.306	12.8
297.52	10.75
297.735	94.72
297.949	47.62
298.164	-11.78
298.378	55.81
298.593	10.75
298.807	74.24
299.022	102.91
299.236	37.38
299.451	-9.73
299.665	29.18
299.88	-52.74
300.094	-7.68
300.309	78.33
300.523	6.66
300.737	12.8
300.952	-26.11
301.166	-3.58
301.381	47.62
301.595	27.14
301.809	80.38
302.024	2.56
302.238	-5.63
302.452	119.29
302.667	41.47
302.881	66.05
303.095	-1.54
303.309	20.99
303.524	29.18
303.738	66.05
303.952	-17.92
304.166	51.71
304.381	-13.82
304.595	66.05
304.809	-34.3
305.023	2.56
305.237	16.9
305.452	23.04
305.666	61.95
305.88	35.33
306.094	104.96
306.308	29.18
306.522	35.33
306.736	27.14
306.95	43.52
307.164	-17.92
307.379	41.47
307.593	86.53
307.807	37.38
308.021	47.62
308.235	31.23
308.449	68.09
308.663	27.14
308.877	123.39
309.091	-5.63
309.305	-30.21
309.519	-58.88
309.733	47.62
309.947	8.7
310.161	55.81
310.374	-3.58
310.588	49.66
310.802	37.38
311.016	16.9
311.23	8.7
311.444	-40.45
311.658	-28.16
311.872	16.9
312.085	35.33
312.299	98.81
312.513	70.14
312.727	10.75
312.941	-69.12
313.154	47.62
313.368	104.96
313.582	68.09
313.796	59.9
314.009	72.19
314.223	139.77
314.437	14.85
314.651	8.7
314.864	-11.78
315.078	-1.54
315.292	6.66
315.505	-1.54
315.719	0.51
315.933	70.14
316.146	113.15
316.36	35.33
316.573	18.94
316.787	88.57
317.001	16.9
317.214	47.62
317.428	39.42
317.641	74.24
317.855	66.05
318.068	-5.63
318.282	14.85
318.495	78.33
318.709	94.72
318.922	-5.63
319.136	55.81
319.349	61.95
319.563	-11.78
319.776	16.9
319.99	14.85
320.203	39.42
320.417	70.14
320.63	86.53
320.843	90.62
321.057	25.09
321.27	14.85
321.483	43.52
321.697	82.43
321.91	10.75
322.124	-5.63
322.337	-9.73
322.55	-36.35
322.763	100.86
322.977	53.76
323.19	66.05
323.403	57.86
323.617	51.71
323.83	66.05
324.043	-24.06
324.256	12.8
324.469	43.52
324.683	16.9
324.896	23.04
325.109	45.57
325.322	-17.92
325.535	29.18
325.748	43.52
325.962	96.77
326.175	-1.54
326.388	29.18
326.601	47.62
326.814	23.04
327.027	72.19
327.24	61.95
327.453	-50.69
327.666	55.81
327.879	53.76
328.092	57.86
328.305	23.04
328.518	-50.69
328.731	43.52
328.944	66.05
329.157	31.23
329.37	18.94
329.583	12.8
329.796	45.57
330.009	-11.78
330.222	35.33
330.435	64
330.648	64
330.861	45.57
331.073	41.47
331.286	78.33
331.499	53.76
331.712	2.56
331.925	43.52
332.138	74.24
332.35	125.44
332.563	51.71
332.776	61.95
332.989	53.76
333.202	-24.06
333.414	12.8
333.627	72.19
333.84	74.24
334.053	6.66
334.265	31.23
334.478	49.66
334.691	-32.26
334.903	59.9
335.116	-13.82
335.329	31.23
335.541	35.33
335.754	94.72
335.966	-11.78
336.179	70.14
336.392	-26.11
336.604	109.05
336.817	-5.63
337.029	-9.73
337.242	57.86
337.454	70.14
337.667	8.7
337.88	82.43
338.092	18.94
338.305	55.81
338.517	16.9
338.729	94.72
338.942	0.51
339.154	64
339.367	23.04
339.579	72.19
339.792	88.57
340.004	100.86
340.217	-1.54
340.429	109.05
340.641	-22.02
340.854	45.57
341.066	-56.83
341.278	-5.63
341.491	90.62
341.703	31.23
341.915	78.33
342.128	20.99
342.34	4.61
342.552	6.66
342.764	23.04
342.977	-67.07
343.189	68.09
343.401	43.52
343.613	25.09
343.826	-1.54
344.038	74.24
344.25	6.66
344.462	-32.26
344.674	70.14
344.886	129.53
345.099	-26.11
345.311	0.51
345.523	68.09
345.735	-36.35
345.947	-22.02
346.159	35.33
346.371	-19.97
346.583	29.18
346.795	70.14
347.007	-38.4
347.219	37.38
347.431	31.23
347.643	33.28
347.855	55.81
348.067	47.62
348.279	23.04
348.491	-19.97
348.703	12.8
348.915	25.09
349.127	68.09
349.339	45.57
349.551	72.19
349.763	41.47
349.975	119.29
350.187	82.43
350.399	61.95
350.61	39.42
350.822	74.24
351.034	-3.58
351.246	66.05
351.458	104.96
351.669	18.94
351.881	12.8
352.093	-40.45
352.305	64
352.517	31.23
352.728	55.81
352.94	80.38
353.152	35.33
353.363	-1.54
353.575	47.62
353.787	82.43
353.999	43.52
354.21	88.57
354.422	-3.58
354.633	-1.54
354.845	49.66
355.057	51.71
355.268	59.9
355.48	76.29
355.692	-1.54
355.903	14.85
356.115	35.33
356.326	35.33
356.538	100.86
356.749	0.51
356.961	115.2
357.172	33.28
357.384	-11.78
357.595	141.82
357.807	35.33
358.018	78.33
358.23	109.05
358.441	16.9
358.653	152.06
358.864	2.56
359.075	31.23
359.287	20.99
359.498	104.96
359.709	80.38
359.921	92.67
360.132	27.14
360.344	76.29
360.555	55.81
360.766	61.95
360.977	23.04
361.189	100.86
361.4	14.85
361.611	98.81
361.823	68.09
362.034	68.09
362.245	20.99
362.456	37.38
362.667	37.38
362.879	119.29
363.09	12.8
363.301	6.66
363.512	90.62
363.723	-11.78
363.935	6.66
364.146	49.66
364.357	39.42
364.568	96.77
364.779	31.23
364.99	76.29
365.201	14.85
365.412	55.81
365.623	-3.58
365.834	96.77
366.045	6.66
366.256	115.2
366.467	72.19
366.678	113.15
366.889	49.66
367.1	55.81
367.311	27.14
367.522	76.29
367.733	39.42
367.944	14.85
368.155	59.9
368.366	113.15
368.577	107.01
368.788	49.66
368.999	43.52
369.209	33.28
369.42	137.73
369.631	98.81
369.842	25.09
370.053	74.24
370.264	8.7
370.474	72.19
370.685	-15.87
370.896	68.09
371.107	31.23
371.317	80.38
371.528	-1.54
371.739	18.94
371.95	43.52
372.16	70.14
372.371	8.7
372.582	27.14
372.792	102.91
373.003	74.24
373.214	47.62
373.424	47.62
373.635	104.96
373.846	88.57
374.056	-40.45
374.267	8.7
374.477	-13.82
374.688	35.33
374.898	-9.73
375.109	78.33
375.319	61.95
375.53	86.53
375.74	14.85
375.951	12.8
376.161	8.7
376.372	117.25
376.582	25.09
376.793	55.81
377.003	12.8
377.214	29.18
377.424	45.57
377.635	37.38
377.845	80.38
378.055	14.85
378.266	23.04
378.476	96.77
378.686	37.38
378.897	33.28
379.107	76.29
379.317	64
379.528	20.99
379.738	92.67
379.948	31.23
380.158	64
380.369	51.71
380.579	27.14
380.789	31.23
380.999	88.57
381.21	-17.92
381.42	74.24
381.63	78.33
381.84	72.19
382.05	84.48
382.261	109.05
382.471	78.33
382.681	115.2
382.891	29.18
383.101	53.76
383.311	82.43
383.521	61.95
383.731	80.38
383.941	133.63
384.151	59.9
384.361	10.75
384.571	98.81
384.781	94.72
384.991	147.97
385.201	137.73
385.411	84.48
385.621	78.33
385.831	111.1
386.041	86.53
386.251	-9.73
386.461	104.96
386.671	35.33
386.881	35.33
387.091	-22.02
387.301	104.96
387.511	72.19
387.72	125.44
387.93	59.9
388.14	39.42
388.35	109.05
388.56	80.38
388.769	53.76
388.979	59.9
389.189	47.62
389.399	121.34
389.609	35.33
389.818	55.81
390.028	41.47
390.238	84.48
390.447	86.53
390.657	70.14
390.867	43.52
391.076	39.42
391.286	115.2
391.496	66.05
391.705	64
391.915	121.34
392.125	102.91
392.334	92.67
392.544	55.81
392.753	23.04
392.963	115.2
393.172	96.77
393.382	70.14
393.591	86.53
393.801	-7.68
394.01	49.66
394.22	66.05
394.429	123.39
394.639	59.9
394.848	51.71
395.058	82.43
395.267	35.33
395.477	55.81
395.686	76.29
395.895	84.48
396.105	90.62
396.314	64
396.524	70.14
396.733	76.29
396.942	127.49
397.152	45.57
397.361	197.12
397.57	88.57
397.78	104.96
397.989	86.53
398.198	166.4
398.407	143.87
398.617	55.81
398.826	135.68
399.035	74.24
399.244	84.48
399.453	121.34
399.663	88.57
399.872	125.44
400.081	49.66
400.29	90.62
400.499	82.43
400.708	29.18
400.917	109.05
401.127	109.05
401.336	47.62
401.545	174.59
401.754	76.29
401.963	141.82
402.172	156.16
402.381	156.16
402.59	92.67
402.799	80.38
403.008	72.19
403.217	109.05
403.426	115.2
403.635	141.82
403.844	113.15
404.053	98.81
404.262	201.21
404.471	166.4
404.68	240.12
404.888	113.15
405.097	98.81
405.306	178.69
405.515	107.01
405.724	137.73
405.933	150.01
406.142	248.32
406.35	227.84
406.559	264.7
406.768	229.88
406.977	215.55
407.185	246.27
407.394	158.21
407.603	207.36
407.812	211.45
408.02	324.09
408.229	223.74
408.438	307.71
408.646	160.25
408.855	252.41
409.064	256.51
409.272	274.94
409.481	299.52
409.69	309.76
409.898	322.04
410.107	299.52
410.315	305.66
410.524	322.04
410.733	336.38
410.941	299.52
411.15	432.63
411.358	385.53
411.567	375.29
411.775	406.01
411.984	406.01
412.192	430.59
412.401	467.45
412.609	504.31
412.818	516.6
413.026	547.32
413.234	535.03
413.443	569.85
413.651	594.42
413.86	604.66
414.068	623.09
414.276	678.39
414.485	690.68
414.693	655.86
414.901	680.44
415.11	737.78
415.318	619
415.526	745.97
415.734	801.27
415.943	815.6
416.151	891.38
416.359	922.1
416.567	922.1
416.776	936.43
416.984	1077.74
417.192	997.87
417.4	1014.26
417.608	991.73
417.817	1036.78
418.025	1118.7
418.233	1268.2
418.441	1233.39
418.649	1253.87
418.857	1239.53
419.065	1360.36
419.273	1395.18
419.481	1362.41
419.689	1536.49
419.897	1550.82
420.105	1520.1
420.313	1565.16
420.521	1630.7
420.729	1593.83
420.937	1798.63
421.145	1839.59
421.353	1819.11
421.561	1931.75
421.769	1960.42
421.977	2056.67
422.185	1995.23
422.393	2251.23
422.601	2271.71
422.809	2240.99
423.017	2392.54
423.224	2472.41
423.432	2496.99
423.64	2576.86
423.848	2800.09
424.056	2734.55
424.263	2965.97
424.471	2871.76
424.679	3058.13
424.887	3209.68
425.094	3258.83
425.302	3279.31
425.51	3336.65
425.718	3523.02
425.925	3611.08
426.133	3699.14
426.341	3930.56
426.548	4043.2
426.756	3985.86
426.964	4178.37
427.171	4319.68
427.379	4407.74
427.586	4479.42
427.794	4659.64
428.001	4925.88
428.209	5007.8
428.417	4954.55
428.624	5462.44
428.832	5398.96
429.039	5300.66
429.247	5482.92
429.454	5921.19
429.662	6363.55
429.869	5898.66
430.076	6148.51
430.284	6062.5
430.491	6252.96
430.699	6588.83
430.906	6728.09
431.114	6740.38
431.321	7029.14
431.528	7252.37
431.736	7485.84
431.943	7924.1
432.15	7838.09
432.358	7678.35
432.565	8108.42
432.772	8235.39
432.979	8612.22
433.187	8874.36
433.394	8802.68
433.601	9527.66
433.808	9546.09
434.016	9384.3
434.223	9884.01
434.43	10494.3
434.637	10324.32
434.844	10852.7
435.052	11145.56
435.259	11057.5
435.466	11082.07
435.673	11116.89
435.88	11870.54
436.087	12142.92
436.294	12366.15
436.501	12106.06
436.708	12343.62
436.915	12570.94
437.122	13343.03
437.329	13437.23
437.537	13613.36
437.743	13744.43
437.95	13809.97
438.157	14160.17
438.364	15151.38
438.571	14823.71
438.778	15214.87
438.985	16294.15
439.192	15769.87
439.399	16249.1
439.606	15909.13
439.813	16679.17
440.02	17998.06
440.227	17330.42
440.433	17436.92
440.64	17682.67
440.847	17604.85
441.054	18276.59
441.261	19439.83
441.467	18981.09
441.674	19810.51
441.881	20232.4
442.088	20234.44
442.294	19890.38
442.501	20744.39
442.708	21117.12
442.914	21731.51
443.121	22800.55
443.328	22100.14
443.534	23685.27
443.741	23077.02
443.948	22618.28
444.154	24309.9
444.361	24139.92
444.568	24205.45
444.774	24385.68
444.981	24613
445.187	25180.29
445.394	26370.16
445.6	25940.08
445.807	28557.39
446.013	27539.55
446.22	27981.91
446.426	28954.69
446.633	29263.94
446.839	30117.94
447.046	29053
447.252	30097.46
447.459	30574.64
447.665	30257.2
447.871	31561.76
448.078	33251.33
448.284	31473.7
448.491	32133.14
448.697	33345.54
448.903	33953.79
449.11	34187.25
449.316	33382.4
449.522	34172.92
449.728	35190.76
449.935	35520.48
450.141	35260.39
450.347	36134.87
450.553	34863.08
450.76	35803.1
450.966	36085.72
451.172	36229.08
451.378	36997.07
451.584	36470.74
451.791	37222.34
451.997	37468.1
452.203	37580.74
452.409	37343.17
452.615	37392.33
452.821	35989.47
453.027	35719.13
453.233	37777.34
453.44	35745.76
453.646	36540.37
453.852	36620.24
454.058	37345.22
454.264	35962.84
454.47	36523.99
454.676	35688.42
454.882	37236.68
455.088	33576.96
455.294	34179.06
455.5	34719.73
455.705	35428.32
455.911	33439.75
456.117	33132.55
456.323	32682
456.529	30838.83
456.735	32006.17
456.941	31531.04
457.147	30887.98
457.352	29915.19
457.558	29818.94
457.764	29546.56
457.97	28952.65
458.176	28590.16
458.381	28645.45
458.587	26916.97
458.793	27357.28
458.999	25690.23
459.204	27383.9
459.41	26816.61
459.616	25227.39
459.821	24864.9
460.027	25038.98
460.233	24621.19
460.438	23013.54
460.644	23400.6
460.85	22208.69
461.055	22165.68
461.261	21973.17
461.466	20312.27
461.672	19755.22
461.878	21242.04
462.083	20005.07
462.289	19747.03
462.494	19333.34
462.7	18591.97
462.905	17965.29
463.111	18497.77
463.316	18555.11
463.522	18147.56
463.727	18192.62
463.932	18141.42
464.138	18184.43
464.343	18323.69
464.549	17670.39
464.754	18206.95
464.959	17875.18
465.165	18079.98
465.37	17297.66
465.575	16693.51
465.781	17375.48
465.986	17742.07
466.191	16900.35
466.397	16468.23
466.602	15685.9
466.807	16290.06
467.012	16451.84
467.218	16343.3
467.423	16023.82
467.628	16128.27
467.833	16795.9
468.038	16019.72
468.244	15835.41
