Data from USB4F104151__122__11-07-30-176.txt Node

Date: Wed Mar 12 11:07:30 EDT 2025
User: louis
Spectrometer: USB4F10415
Trigger mode: 4
Integration Time (sec): 2.000000E-2
Scans to average: 1
Electric dark correction enabled: true
Nonlinearity correction enabled: false
Boxcar width: 0
XAxis mode: Wavelengths
Number of Pixels in Spectrum: 3648
>>>>>Begin Spectral Data<<<<<
178.204	-54.95
178.424	-54.95
178.644	-54.95
178.864	-85.67
179.084	-40.62
179.304	2.39
179.524	12.63
179.744	-44.71
179.964	31.06
180.184	12.63
180.404	12.63
180.624	-34.47
180.844	-24.23
181.064	8.53
181.283	16.73
181.503	-9.9
181.723	16.73
181.943	-28.33
182.163	51.54
182.383	2.39
182.602	31.06
182.822	26.96
183.042	-44.71
183.262	43.35
183.482	26.96
183.701	-36.52
183.921	8.53
184.141	-26.28
184.361	49.49
184.58	49.49
184.8	35.16
185.02	33.11
185.239	-7.85
185.459	-38.57
185.679	37.2
185.898	22.87
186.118	49.49
186.338	41.3
186.557	35.16
186.777	10.58
186.997	29.01
187.216	24.92
187.436	35.16
187.655	12.63
187.875	61.78
188.095	-20.14
188.314	63.83
188.534	-3.75
188.753	112.98
188.973	53.59
189.192	14.68
189.412	24.92
189.631	2.39
189.851	24.92
190.07	14.68
190.29	-32.43
190.509	20.82
190.729	72.02
190.948	14.68
191.168	65.88
191.387	-11.95
191.607	39.25
191.826	53.59
192.045	8.53
192.265	-16.04
192.484	29.01
192.704	47.44
192.923	6.49
193.142	37.2
193.362	29.01
193.581	49.49
193.8	33.11
194.02	-32.43
194.239	96.6
194.458	-20.14
194.678	12.63
194.897	69.97
195.116	8.53
195.335	24.92
195.555	-30.38
195.774	65.88
195.993	90.45
196.212	43.35
196.432	14.68
196.651	-34.47
196.87	2.39
197.089	18.77
197.308	43.35
197.528	112.98
197.747	-30.38
197.966	22.87
198.185	65.88
198.404	-11.95
198.623	24.92
198.842	45.4
199.062	-28.33
199.281	61.78
199.5	-26.28
199.719	-1.71
199.938	88.4
200.157	2.39
200.376	12.63
200.595	4.44
200.814	-28.33
201.033	-18.09
201.252	53.59
201.471	6.49
201.69	-30.38
201.909	51.54
202.128	14.68
202.347	33.11
202.566	8.53
202.785	49.49
203.004	-81.58
203.223	82.26
203.442	-44.71
203.661	2.39
203.879	0.34
204.098	43.35
204.317	63.83
204.536	55.64
204.755	39.25
204.974	-24.23
205.193	39.25
205.411	29.01
205.63	-59.05
205.849	-63.15
206.068	2.39
206.287	18.77
206.505	55.64
206.724	18.77
206.943	14.68
207.162	-18.09
207.381	26.96
207.599	18.77
207.818	-9.9
208.037	16.73
208.255	-3.75
208.474	65.88
208.693	47.44
208.911	2.39
209.13	-13.99
209.349	18.77
209.567	24.92
209.786	35.16
210.005	16.73
210.223	0.34
210.442	26.96
210.661	-50.86
210.879	-26.28
211.098	35.16
211.316	49.49
211.535	12.63
211.753	22.87
211.972	57.68
212.191	14.68
212.409	98.64
212.628	37.2
212.846	-40.62
213.065	86.36
213.283	80.21
213.502	49.49
213.72	-59.05
213.938	106.84
214.157	8.53
214.375	24.92
214.594	33.11
214.812	76.12
215.031	82.26
215.249	-22.19
215.467	16.73
215.686	6.49
215.904	65.88
216.122	6.49
216.341	67.92
216.559	-50.86
216.778	4.44
216.996	69.97
217.214	26.96
217.432	61.78
217.651	59.73
217.869	41.3
218.087	35.16
218.306	86.36
218.524	53.59
218.742	24.92
218.96	43.35
219.179	0.34
219.397	41.3
219.615	59.73
219.833	33.11
220.051	90.45
220.27	69.97
220.488	29.01
220.706	22.87
220.924	-38.57
221.142	-11.95
221.36	29.01
221.578	51.54
221.796	-54.95
222.015	18.77
222.233	0.34
222.451	106.84
222.669	26.96
222.887	-18.09
223.105	-1.71
223.323	14.68
223.541	47.44
223.759	33.11
223.977	69.97
224.195	2.39
224.413	53.59
224.631	84.31
224.849	-7.85
225.067	-61.1
225.285	12.63
225.503	35.16
225.721	-1.71
225.939	61.78
226.157	29.01
226.375	55.64
226.592	0.34
226.81	-18.09
227.028	4.44
227.246	2.39
227.464	72.02
227.682	37.2
227.9	98.64
228.117	33.11
228.335	31.06
228.553	2.39
228.771	-34.47
228.989	-13.99
229.206	4.44
229.424	86.36
229.642	2.39
229.86	-9.9
230.077	-20.14
230.295	14.68
230.513	94.55
230.731	45.4
230.948	43.35
231.166	20.82
231.384	2.39
231.601	-59.05
231.819	0.34
232.037	-24.23
232.254	84.31
232.472	26.96
232.689	-20.14
232.907	8.53
233.125	53.59
233.342	-30.38
233.56	57.68
233.777	37.2
233.995	18.77
234.213	82.26
234.43	104.79
234.648	4.44
234.865	49.49
235.083	35.16
235.3	29.01
235.518	84.31
235.735	24.92
235.953	-22.19
236.17	16.73
236.388	14.68
236.605	31.06
236.822	24.92
237.04	49.49
237.257	35.16
237.475	-11.95
237.692	100.69
237.909	2.39
238.127	59.73
238.344	2.39
238.562	57.68
238.779	-7.85
238.996	-16.04
239.214	16.73
239.431	18.77
239.648	-1.71
239.865	31.06
240.083	8.53
240.3	-24.23
240.517	-32.43
240.735	-40.62
240.952	65.88
241.169	47.44
241.386	-63.15
241.603	61.78
241.821	-7.85
242.038	37.2
242.255	29.01
242.472	-24.23
242.689	94.55
242.907	43.35
243.124	-13.99
243.341	33.11
243.558	-9.9
243.775	-32.43
243.992	39.25
244.209	-5.8
244.426	20.82
244.643	53.59
244.86	47.44
245.078	33.11
245.295	10.58
245.512	-1.71
245.729	76.12
245.946	20.82
246.163	-30.38
246.38	43.35
246.597	26.96
246.814	-7.85
247.031	24.92
247.248	51.54
247.464	117.08
247.681	26.96
247.898	59.73
248.115	-46.76
248.332	45.4
248.549	72.02
248.766	-54.95
248.983	33.11
249.2	37.2
249.417	12.63
249.633	37.2
249.85	63.83
250.067	24.92
250.284	-1.71
250.501	35.16
250.717	74.07
250.934	29.01
251.151	-30.38
251.368	14.68
251.585	53.59
251.801	8.53
252.018	-28.33
252.235	63.83
252.451	-32.43
252.668	-1.71
252.885	35.16
253.102	65.88
253.318	29.01
253.535	-9.9
253.752	-1.71
253.968	-20.14
254.185	26.96
254.401	57.68
254.618	67.92
254.835	49.49
255.051	69.97
255.268	2.39
255.484	-16.04
255.701	49.49
255.917	59.73
256.134	2.39
256.351	84.31
256.567	-7.85
256.784	-3.75
257	14.68
257.217	45.4
257.433	-5.8
257.65	102.74
257.866	24.92
258.082	37.2
258.299	-54.95
258.515	26.96
258.732	-5.8
258.948	26.96
259.165	-13.99
259.381	-75.43
259.597	65.88
259.814	-11.95
260.03	106.84
260.246	47.44
260.463	35.16
260.679	31.06
260.895	49.49
261.112	31.06
261.328	2.39
261.544	10.58
261.761	-1.71
261.977	6.49
262.193	-16.04
262.409	61.78
262.626	51.54
262.842	53.59
263.058	-18.09
263.274	33.11
263.49	57.68
263.707	-7.85
263.923	-63.15
264.139	65.88
264.355	41.3
264.571	8.53
264.787	24.92
265.004	53.59
265.22	96.6
265.436	-20.14
265.652	61.78
265.868	53.59
266.084	2.39
266.3	63.83
266.516	-34.47
266.732	14.68
266.948	51.54
267.164	31.06
267.38	82.26
267.596	127.32
267.812	33.11
268.028	43.35
268.244	24.92
268.46	22.87
268.676	0.34
268.892	10.58
269.108	-24.23
269.324	-44.71
269.54	4.44
269.756	8.53
269.972	-7.85
270.188	37.2
270.403	-26.28
270.619	-7.85
270.835	-18.09
271.051	47.44
271.267	-46.76
271.483	-1.71
271.698	65.88
271.914	0.34
272.13	47.44
272.346	100.69
272.562	41.3
272.777	35.16
272.993	69.97
273.209	74.07
273.425	49.49
273.64	-18.09
273.856	-3.75
274.072	20.82
274.287	26.96
274.503	-26.28
274.719	-3.75
274.934	-7.85
275.15	-44.71
275.366	37.2
275.581	-5.8
275.797	65.88
276.012	2.39
276.228	8.53
276.444	63.83
276.659	-9.9
276.875	86.36
277.09	-13.99
277.306	18.77
277.521	61.78
277.737	92.5
277.952	63.83
278.168	43.35
278.383	35.16
278.599	-28.33
278.814	18.77
279.03	-9.9
279.245	24.92
279.461	-67.24
279.676	82.26
279.892	-5.8
280.107	33.11
280.322	10.58
280.538	-7.85
280.753	24.92
280.969	29.01
281.184	-38.57
281.399	84.31
281.615	47.44
281.83	6.49
282.045	-3.75
282.26	37.2
282.476	0.34
282.691	-1.71
282.906	-20.14
283.122	-9.9
283.337	6.49
283.552	31.06
283.767	41.3
283.983	6.49
284.198	0.34
284.413	41.3
284.628	-81.58
284.843	65.88
285.058	0.34
285.274	8.53
285.489	8.53
285.704	4.44
285.919	10.58
286.134	143.7
286.349	0.34
286.564	-34.47
286.779	29.01
286.995	20.82
287.21	12.63
287.425	55.64
287.64	-7.85
287.855	65.88
288.07	6.49
288.285	-36.52
288.5	24.92
288.715	26.96
288.93	-3.75
289.145	16.73
289.36	94.55
289.575	31.06
289.79	14.68
290.004	4.44
290.219	82.26
290.434	-40.62
290.649	0.34
290.864	-1.71
291.079	49.49
291.294	37.2
291.509	76.12
291.724	4.44
291.938	22.87
292.153	59.73
292.368	-20.14
292.583	31.06
292.798	47.44
293.012	65.88
293.227	-11.95
293.442	33.11
293.657	63.83
293.871	45.4
294.086	-3.75
294.301	94.55
294.516	26.96
294.73	53.59
294.945	55.64
295.16	100.69
295.374	-46.76
295.589	47.44
295.804	-28.33
296.018	69.97
296.233	59.73
296.447	39.25
296.662	16.73
296.877	78.16
297.091	69.97
297.306	-34.47
297.52	16.73
297.735	-5.8
297.949	-18.09
298.164	43.35
298.378	45.4
298.593	86.36
298.807	45.4
299.022	24.92
299.236	88.4
299.451	86.36
299.665	88.4
299.88	33.11
300.094	-9.9
300.309	0.34
300.523	-73.39
300.737	4.44
300.952	33.11
301.166	-7.85
301.381	-16.04
301.595	-34.47
301.809	57.68
302.024	4.44
302.238	-7.85
302.452	26.96
302.667	-34.47
302.881	14.68
303.095	-22.19
303.309	53.59
303.524	51.54
303.738	61.78
303.952	59.73
304.166	29.01
304.381	24.92
304.595	53.59
304.809	20.82
305.023	-22.19
305.237	-57
305.452	33.11
305.666	112.98
305.88	45.4
306.094	55.64
306.308	127.32
306.522	61.78
306.736	102.74
306.95	24.92
307.164	82.26
307.379	31.06
307.593	39.25
307.807	69.97
308.021	57.68
308.235	8.53
308.449	14.68
308.663	84.31
308.877	24.92
309.091	84.31
309.305	63.83
309.519	-20.14
309.733	51.54
309.947	-20.14
310.161	65.88
310.374	-13.99
310.588	-13.99
310.802	55.64
311.016	-9.9
311.23	69.97
311.444	47.44
311.658	-18.09
311.872	-30.38
312.085	80.21
312.299	135.51
312.513	45.4
312.727	76.12
312.941	33.11
313.154	26.96
313.368	57.68
313.582	90.45
313.796	-3.75
314.009	41.3
314.223	72.02
314.437	45.4
314.651	82.26
314.864	12.63
315.078	35.16
315.292	82.26
315.505	-5.8
315.719	-36.52
315.933	61.78
316.146	16.73
316.36	-36.52
316.573	-1.71
316.787	0.34
317.001	55.64
317.214	-5.8
317.428	-7.85
317.641	-11.95
317.855	26.96
318.068	14.68
318.282	-38.57
318.495	108.88
318.709	41.3
318.922	10.58
319.136	76.12
319.349	104.79
319.563	-42.67
319.776	69.97
319.99	74.07
320.203	45.4
320.417	16.73
320.63	47.44
320.843	16.73
321.057	92.5
321.27	-38.57
321.483	18.77
321.697	22.87
321.91	63.83
322.124	14.68
322.337	67.92
322.55	100.69
322.763	65.88
322.977	72.02
323.19	24.92
323.403	0.34
323.617	-22.19
323.83	72.02
324.043	45.4
324.256	51.54
324.469	-13.99
324.683	16.73
324.896	59.73
325.109	47.44
325.322	-34.47
325.535	69.97
325.748	51.54
325.962	90.45
326.175	-28.33
326.388	37.2
326.601	41.3
326.814	69.97
327.027	-26.28
327.24	33.11
327.453	16.73
327.666	41.3
327.879	170.32
328.092	20.82
328.305	47.44
328.518	26.96
328.731	67.92
328.944	37.2
329.157	90.45
329.37	-48.81
329.583	98.64
329.796	104.79
330.009	69.97
330.222	39.25
330.435	20.82
330.648	49.49
330.861	65.88
331.073	45.4
331.286	72.02
331.499	-9.9
331.712	35.16
331.925	53.59
332.138	92.5
332.35	74.07
332.563	-22.19
332.776	96.6
332.989	8.53
333.202	55.64
333.414	47.44
333.627	2.39
333.84	102.74
334.053	-11.95
334.265	26.96
334.478	39.25
334.691	33.11
334.903	53.59
335.116	-44.71
335.329	20.82
335.541	-9.9
335.754	41.3
335.966	59.73
336.179	35.16
336.392	18.77
336.604	-3.75
336.817	63.83
337.029	63.83
337.242	47.44
337.454	20.82
337.667	37.2
337.88	82.26
338.092	98.64
338.305	-16.04
338.517	61.78
338.729	-28.33
338.942	76.12
339.154	33.11
339.367	67.92
339.579	39.25
339.792	82.26
340.004	63.83
340.217	55.64
340.429	20.82
340.641	51.54
340.854	45.4
341.066	-34.47
341.278	65.88
341.491	57.68
341.703	61.78
341.915	6.49
342.128	69.97
342.34	47.44
342.552	-38.57
342.764	-24.23
342.977	29.01
343.189	53.59
343.401	45.4
343.613	65.88
343.826	6.49
344.038	26.96
344.25	26.96
344.462	61.78
344.674	53.59
344.886	26.96
345.099	76.12
345.311	82.26
345.523	121.17
345.735	8.53
345.947	84.31
346.159	-40.62
346.371	53.59
346.583	-3.75
346.795	55.64
347.007	26.96
347.219	151.89
347.431	76.12
347.643	55.64
347.855	69.97
348.067	37.2
348.279	45.4
348.491	84.31
348.703	59.73
348.915	43.35
349.127	65.88
349.339	59.73
349.551	139.6
349.763	37.2
349.975	55.64
350.187	-9.9
350.399	110.93
350.61	45.4
350.822	51.54
351.034	57.68
351.246	51.54
351.458	-24.23
351.669	-20.14
351.881	76.12
352.093	49.49
352.305	69.97
352.517	18.77
352.728	47.44
352.94	96.6
353.152	61.78
353.363	24.92
353.575	78.16
353.787	0.34
353.999	53.59
354.21	74.07
354.422	20.82
354.633	24.92
354.845	18.77
355.057	12.63
355.268	-1.71
355.48	82.26
355.692	80.21
355.903	14.68
356.115	39.25
356.326	-1.71
356.538	45.4
356.749	112.98
356.961	24.92
357.172	-5.8
357.384	86.36
357.595	92.5
357.807	26.96
358.018	8.53
358.23	53.59
358.441	67.92
358.653	-32.43
358.864	37.2
359.075	6.49
359.287	43.35
359.498	57.68
359.709	43.35
359.921	26.96
360.132	67.92
360.344	65.88
360.555	49.49
360.766	74.07
360.977	53.59
361.189	41.3
361.4	39.25
361.611	24.92
361.823	53.59
362.034	53.59
362.245	4.44
362.456	-13.99
362.667	35.16
362.879	59.73
363.09	72.02
363.301	63.83
363.512	86.36
363.723	-11.95
363.935	-30.38
364.146	69.97
364.357	45.4
364.568	90.45
364.779	41.3
364.99	57.68
365.201	16.73
365.412	94.55
365.623	-1.71
365.834	55.64
366.045	63.83
366.256	49.49
366.467	82.26
366.678	69.97
366.889	129.36
367.1	92.5
367.311	14.68
367.522	69.97
367.733	2.39
367.944	10.58
368.155	10.58
368.366	26.96
368.577	131.41
368.788	90.45
368.999	117.08
369.209	-9.9
369.42	84.31
369.631	67.92
369.842	106.84
370.053	74.07
370.264	110.93
370.474	24.92
370.685	69.97
370.896	108.88
371.107	106.84
371.317	24.92
371.528	63.83
371.739	26.96
371.95	-38.57
372.16	31.06
372.371	31.06
372.582	14.68
372.792	22.87
373.003	76.12
373.214	65.88
373.424	98.64
373.635	90.45
373.846	110.93
374.056	65.88
374.267	22.87
374.477	26.96
374.688	49.49
374.898	-40.62
375.109	45.4
375.319	22.87
375.53	53.59
375.74	131.41
375.951	43.35
376.161	53.59
376.372	22.87
376.582	-1.71
376.793	98.64
377.003	53.59
377.214	24.92
377.424	65.88
377.635	102.74
377.845	76.12
378.055	117.08
378.266	-7.85
378.476	86.36
378.686	41.3
378.897	112.98
379.107	92.5
379.317	61.78
379.528	51.54
379.738	94.55
379.948	43.35
380.158	67.92
380.369	53.59
380.579	12.63
380.789	92.5
380.999	84.31
381.21	-13.99
381.42	104.79
381.63	49.49
381.84	8.53
382.05	67.92
382.261	65.88
382.471	90.45
382.681	35.16
382.891	33.11
383.101	57.68
383.311	67.92
383.521	106.84
383.731	106.84
383.941	92.5
384.151	47.44
384.361	12.63
384.571	76.12
384.781	8.53
384.991	41.3
385.201	123.22
385.411	57.68
385.621	94.55
385.831	22.87
386.041	10.58
386.251	65.88
386.461	74.07
386.671	78.16
386.881	78.16
387.091	53.59
387.301	22.87
387.511	110.93
387.72	41.3
387.93	72.02
388.14	59.73
388.35	98.64
388.56	141.65
388.769	65.88
388.979	-7.85
389.189	4.44
389.399	39.25
389.609	129.36
389.818	84.31
390.028	-1.71
390.238	137.56
390.447	0.34
390.657	47.44
390.867	94.55
391.076	69.97
391.286	65.88
391.496	-16.04
391.705	153.94
391.915	63.83
392.125	139.6
392.334	69.97
392.544	102.74
392.753	59.73
392.963	53.59
393.172	76.12
393.382	39.25
393.591	149.84
393.801	74.07
394.01	180.56
394.22	129.36
394.429	63.83
394.639	51.54
394.848	123.22
395.058	106.84
395.267	121.17
395.477	90.45
395.686	90.45
395.895	123.22
396.105	155.99
396.314	100.69
396.524	53.59
396.733	78.16
396.942	49.49
397.152	131.41
397.361	158.03
397.57	117.08
397.78	160.08
397.989	69.97
398.198	160.08
398.407	143.7
398.617	127.32
398.826	151.89
399.035	53.59
399.244	104.79
399.453	166.23
399.663	104.79
399.872	102.74
400.081	129.36
400.29	119.12
400.499	133.46
400.708	194.9
400.917	135.51
401.127	110.93
401.336	119.12
401.545	174.42
401.754	231.76
401.963	160.08
402.172	155.99
402.381	143.7
402.59	170.32
402.799	231.76
403.008	168.27
403.217	104.79
403.426	221.52
403.635	106.84
403.844	137.56
404.053	174.42
404.262	190.8
404.471	180.56
404.68	186.71
404.888	231.76
405.097	160.08
405.306	201.04
405.515	227.67
405.724	201.04
405.933	158.03
406.142	219.47
406.35	239.95
406.559	209.23
406.768	201.04
406.977	262.48
407.185	299.34
407.394	266.58
407.603	295.25
407.812	282.96
408.02	328.02
408.229	276.82
408.438	276.82
408.646	242
408.855	323.92
409.064	350.54
409.272	371.02
409.481	338.26
409.69	379.22
409.898	321.87
410.107	377.17
410.315	516.43
410.524	379.22
410.733	452.94
410.941	448.85
411.15	450.89
411.358	426.32
411.567	526.67
411.775	516.43
411.984	500.05
412.192	608.59
412.401	575.82
412.609	659.79
412.818	614.73
413.026	710.99
413.234	678.22
413.443	715.08
413.651	727.37
413.86	733.51
414.068	823.62
414.276	846.15
414.485	753.99
414.693	848.2
414.901	928.07
415.11	807.24
415.318	917.83
415.526	987.46
415.734	1038.66
415.943	1130.82
416.151	1110.34
416.359	1091.91
416.567	1157.44
416.776	1184.07
416.984	1192.26
417.192	1302.85
417.4	1249.6
417.608	1421.63
417.817	1372.48
418.025	1442.11
418.233	1605.95
418.441	1573.18
418.649	1562.94
418.857	1706.3
419.065	1724.73
419.273	1820.99
419.481	1823.03
419.689	1827.13
419.897	2060.6
420.105	2132.28
420.313	2160.95
420.521	2296.11
420.729	2228.53
420.937	2296.11
421.145	2398.51
421.353	2505.01
421.561	2539.82
421.769	2492.72
421.977	2777.39
422.185	2691.37
422.393	2941.22
422.601	3088.68
422.809	3057.96
423.017	3191.08
423.224	3244.32
423.432	3326.24
423.64	3412.26
423.848	3694.88
424.056	3459.36
424.263	3981.59
424.471	3965.21
424.679	3944.73
424.887	4301.08
425.094	4227.35
425.302	4196.63
425.51	4458.77
425.718	4544.78
425.925	4600.08
426.133	4894.99
426.341	5013.77
426.548	5187.85
426.756	5353.73
426.964	5390.6
427.171	5929.21
427.379	5873.92
427.586	5765.37
427.794	6113.53
428.001	6480.11
428.209	6856.94
428.417	6684.91
428.624	7096.55
428.832	7043.31
429.039	7080.17
429.247	7076.07
429.454	7753.95
429.662	8104.15
429.869	7776.48
430.076	8263.9
430.284	8138.97
430.491	8374.49
430.699	8997.07
430.906	8835.28
431.114	9140.43
431.321	9298.12
431.528	9570.5
431.736	10205.37
431.943	10541.24
432.15	10057.92
432.358	10363.06
432.565	10993.84
432.772	10815.66
432.979	11612.32
433.187	11845.79
433.394	11722.91
433.601	12585.11
433.808	12621.97
434.016	12368.02
434.223	12931.22
434.43	13654.15
434.637	13609.09
434.844	14395.51
435.052	14669.94
435.259	14415.99
435.466	14811.25
435.673	14628.98
435.88	15310.96
436.087	16128.1
436.294	16384.09
436.501	15771.75
436.708	16306.27
436.915	16969.81
437.122	17700.94
437.329	17442.89
437.537	18237.5
437.743	18290.75
437.95	18389.05
438.157	19138.61
438.364	19662.89
438.571	19765.29
438.778	19978.28
438.985	21841.93
439.192	21071.89
439.399	21790.73
439.606	21102.61
439.813	22243.33
440.02	23535.6
440.227	23308.27
440.433	22994.93
440.64	23691.24
440.847	23427.06
441.054	24133.61
441.261	25548.75
441.467	25454.54
441.674	25948.11
441.881	26924.99
442.088	26881.98
442.294	26818.49
442.501	27273.14
442.708	27695.02
442.914	29114.27
443.121	30070.67
443.328	29374.36
443.534	31498.1
443.741	30582.66
443.948	30285.7
444.154	32442.21
444.361	32098.16
444.568	32307.05
444.774	32474.98
444.981	32407.4
445.187	33513.3
445.394	35247.93
445.6	34375.5
445.807	37762.84
446.013	36091.69
446.22	36751.14
446.426	38397.71
446.633	38424.33
446.839	39522.04
447.046	37961.49
447.252	40386.29
447.459	40503.02
447.665	40023.79
447.871	41952.98
448.078	43386.56
448.284	41625.31
448.491	42368.72
448.697	44125.88
448.903	45123.24
449.11	44314.29
449.316	44220.08
449.522	44922.54
449.728	46069.4
449.935	46532.24
450.141	46384.79
450.347	47326.85
450.553	46190.23
450.76	46472.85
450.966	48111.22
451.172	47634.05
451.378	48285.3
451.584	47486.59
451.791	48387.7
451.997	48187
452.203	49200.74
452.409	49245.8
452.615	48772.72
452.821	47298.18
453.027	46780.04
453.233	48735.85
453.44	47148.68
453.646	47410.82
453.852	47711.87
454.058	48221.81
454.264	46515.86
454.47	47718.01
454.676	46747.28
454.882	48064.12
455.088	44158.64
455.294	44474.03
455.5	45565.6
455.705	45694.62
455.911	44009.14
456.117	42843.85
456.323	42331.86
456.529	40431.34
456.735	41862.87
456.941	41158.37
457.147	40320.75
457.352	39044.87
457.558	38416.14
457.764	38870.79
457.97	37701.4
458.176	37377.82
458.381	37211.93
458.587	35163.96
458.793	35383.1
458.999	33333.08
459.204	36079.41
459.41	34895.68
459.616	32427.88
459.821	32614.24
460.027	32505.7
460.233	31823.73
460.438	30443.4
460.644	30789.5
460.85	29265.81
461.055	28698.53
461.261	28792.73
461.466	26505.15
461.672	25731.02
461.878	27363.25
462.083	25733.07
462.289	25462.74
462.494	25216.98
462.7	23924.71
462.905	23453.68
463.111	24367.07
463.316	24455.14
463.522	23754.73
463.727	23816.17
463.932	23746.54
464.138	23459.82
464.343	23566.32
464.549	22941.69
464.754	23863.27
464.959	23459.82
465.165	23617.52
465.37	22282.24
465.575	21663.75
465.781	22505.47
465.986	22910.97
466.191	21960.71
466.397	21561.36
466.602	20680.73
466.807	21426.19
467.012	21483.53
467.218	21409.81
