Data from USB4F104151__61__11-06-00-467.txt Node

Date: Wed Mar 12 11:06:00 EDT 2025
User: louis
Spectrometer: USB4F10415
Trigger mode: 4
Integration Time (sec): 2.000000E-2
Scans to average: 1
Electric dark correction enabled: true
Nonlinearity correction enabled: false
Boxcar width: 0
XAxis mode: Wavelengths
Number of Pixels in Spectrum: 3648
>>>>>Begin Spectral Data<<<<<
178.204	-52.56
178.424	-52.56
178.644	-52.56
178.864	-32.08
179.084	-77.14
179.304	-68.95
179.524	-36.18
179.744	10.92
179.964	25.26
180.184	31.4
180.404	-7.51
180.624	103.08
180.844	-40.28
181.064	-116.05
181.283	39.59
181.503	25.26
181.723	33.45
181.943	-93.52
182.163	64.17
182.383	17.07
182.602	45.74
182.822	62.12
183.042	51.88
183.262	-11.61
183.482	74.41
183.701	-3.41
183.921	49.83
184.141	-9.56
184.361	43.69
184.58	12.97
184.8	29.35
185.02	60.07
185.239	37.55
185.459	15.02
185.679	53.93
185.898	-46.42
186.118	-36.18
186.338	-9.56
186.557	37.55
186.777	19.11
186.997	8.87
187.216	12.97
187.436	66.22
187.655	37.55
187.875	6.83
188.095	-7.51
188.314	12.97
188.534	4.78
188.753	-7.51
188.973	-36.18
189.192	8.87
189.412	-3.41
189.631	-7.51
189.851	8.87
190.07	90.79
190.29	12.97
190.509	103.08
190.729	25.26
190.948	141.99
191.168	137.9
191.387	-60.76
191.607	8.87
191.826	12.97
192.045	94.89
192.265	53.93
192.484	12.97
192.704	45.74
192.923	66.22
193.142	84.65
193.362	4.78
193.581	0.68
193.8	53.93
194.02	10.92
194.239	12.97
194.458	-25.94
194.678	103.08
194.897	31.4
195.116	60.07
195.335	41.64
195.555	-5.46
195.774	31.4
195.993	74.41
196.212	-15.7
196.432	-11.61
196.651	-17.75
196.87	78.51
197.089	39.59
197.308	17.07
197.528	4.78
197.747	6.83
197.966	25.26
198.185	33.45
198.404	70.31
198.623	10.92
198.842	15.02
199.062	12.97
199.281	41.64
199.5	19.11
199.719	25.26
199.938	45.74
200.157	49.83
200.376	31.4
200.595	-25.94
200.814	8.87
201.033	74.41
201.252	-21.85
201.471	45.74
201.69	-11.61
201.909	49.83
202.128	64.17
202.347	-38.23
202.566	29.35
202.785	74.41
203.004	-9.56
203.223	160.42
203.442	58.03
203.661	88.75
203.879	-1.37
204.098	23.21
204.317	-7.51
204.536	23.21
204.755	0.68
204.974	39.59
205.193	45.74
205.411	-30.04
205.63	103.08
205.849	55.98
206.068	78.51
206.287	10.92
206.505	31.4
206.724	-21.85
206.943	62.12
207.162	6.83
207.381	43.69
207.599	47.79
207.818	8.87
208.037	17.07
208.255	62.12
208.474	31.4
208.693	84.65
208.911	10.92
209.13	25.26
209.349	60.07
209.567	-17.75
209.786	80.55
210.005	53.93
210.223	68.27
210.442	47.79
210.661	43.69
210.879	27.31
211.098	8.87
211.316	47.79
211.535	39.59
211.753	45.74
211.972	8.87
212.191	139.94
212.409	17.07
212.628	-5.46
212.846	23.21
213.065	8.87
213.283	45.74
213.502	8.87
213.72	19.11
213.938	0.68
214.157	8.87
214.375	39.59
214.594	8.87
214.812	96.94
215.031	72.36
215.249	2.73
215.467	82.6
215.686	58.03
215.904	25.26
216.122	23.21
216.341	47.79
216.559	39.59
216.778	49.83
216.996	70.31
217.214	58.03
217.432	-7.51
217.651	49.83
217.869	-23.89
218.087	-48.47
218.306	37.55
218.524	21.16
218.742	78.51
218.96	86.7
219.179	31.4
219.397	10.92
219.615	62.12
219.833	45.74
220.051	25.26
220.27	-64.85
220.488	33.45
220.706	94.89
220.924	49.83
221.142	88.75
221.36	15.02
221.578	17.07
221.796	60.07
222.015	23.21
222.233	-23.89
222.451	131.75
222.669	74.41
222.887	64.17
223.105	39.59
223.323	-1.37
223.541	8.87
223.759	-3.41
223.977	-3.41
224.195	84.65
224.413	33.45
224.631	41.64
224.849	33.45
225.067	103.08
225.285	68.27
225.503	78.51
225.721	-5.46
225.939	-23.89
226.157	-46.42
226.375	-7.51
226.592	19.11
226.81	-34.13
227.028	-11.61
227.246	51.88
227.464	19.11
227.682	15.02
227.9	33.45
228.117	51.88
228.335	29.35
228.553	107.18
228.771	25.26
228.989	72.36
229.206	2.73
229.424	-27.99
229.642	-19.8
229.86	-11.61
230.077	37.55
230.295	74.41
230.513	39.59
230.731	72.36
230.948	78.51
231.166	29.35
231.384	10.92
231.601	12.97
231.819	31.4
232.037	49.83
232.254	-36.18
232.472	-19.8
232.689	-13.65
232.907	10.92
233.125	2.73
233.342	29.35
233.56	4.78
233.777	-32.08
233.995	2.73
234.213	31.4
234.43	35.5
234.648	47.79
234.865	-19.8
235.083	33.45
235.3	23.21
235.518	43.69
235.735	8.87
235.953	45.74
236.17	82.6
236.388	0.68
236.605	-7.51
236.822	53.93
237.04	-9.56
237.257	-15.7
237.475	-38.23
237.692	60.07
237.909	25.26
238.127	29.35
238.344	-11.61
238.562	-27.99
238.779	51.88
238.996	-21.85
239.214	0.68
239.431	53.93
239.648	72.36
239.865	60.07
240.083	-3.41
240.3	35.5
240.517	-7.51
240.735	62.12
240.952	29.35
241.169	37.55
241.386	21.16
241.603	68.27
241.821	33.45
242.038	8.87
242.255	66.22
242.472	21.16
242.689	62.12
242.907	78.51
243.124	-38.23
243.341	-13.65
243.558	-38.23
243.775	47.79
243.992	72.36
244.209	115.37
244.426	35.5
244.643	74.41
244.86	-27.99
245.078	45.74
245.295	-11.61
245.512	23.21
245.729	129.7
245.946	-3.41
246.163	-11.61
246.38	62.12
246.597	98.99
246.814	-30.04
247.031	-23.89
247.248	76.46
247.464	105.13
247.681	15.02
247.898	27.31
248.115	33.45
248.332	-23.89
248.549	-7.51
248.766	12.97
248.983	64.17
249.2	103.08
249.417	55.98
249.633	31.4
249.85	33.45
250.067	37.55
250.284	12.97
250.501	43.69
250.717	88.75
250.934	21.16
251.151	-11.61
251.368	66.22
251.585	47.79
251.801	70.31
252.018	12.97
252.235	82.6
252.451	23.21
252.668	-5.46
252.885	49.83
253.102	60.07
253.318	60.07
253.535	45.74
253.752	10.92
253.968	-50.52
254.185	29.35
254.401	21.16
254.618	-3.41
254.835	-15.7
255.051	62.12
255.268	105.13
255.484	-9.56
255.701	78.51
255.917	84.65
256.134	58.03
256.351	-15.7
256.567	-11.61
256.784	60.07
257	-44.37
257.217	15.02
257.433	35.5
257.65	37.55
257.866	58.03
258.082	25.26
258.299	19.11
258.515	23.21
258.732	68.27
258.948	74.41
259.165	-7.51
259.381	70.31
259.597	35.5
259.814	62.12
260.03	21.16
260.246	17.07
260.463	64.17
260.679	29.35
260.895	37.55
261.112	0.68
261.328	8.87
261.544	2.73
261.761	37.55
261.977	-21.85
262.193	45.74
262.409	21.16
262.626	47.79
262.842	74.41
263.058	29.35
263.274	-7.51
263.49	-13.65
263.707	-30.04
263.923	29.35
264.139	31.4
264.355	-17.75
264.571	27.31
264.787	10.92
265.004	60.07
265.22	80.55
265.436	15.02
265.652	62.12
265.868	49.83
266.084	10.92
266.3	74.41
266.516	-66.9
266.732	60.07
266.948	115.37
267.164	-1.37
267.38	23.21
267.596	74.41
267.812	129.7
268.028	55.98
268.244	-7.51
268.46	47.79
268.676	-19.8
268.892	113.32
269.108	10.92
269.324	51.88
269.54	4.78
269.756	86.7
269.972	-64.85
270.188	51.88
270.403	-5.46
270.619	0.68
270.835	45.74
271.051	23.21
271.267	-5.46
271.483	25.26
271.698	113.32
271.914	21.16
272.13	21.16
272.346	64.17
272.562	29.35
272.777	115.37
272.993	10.92
273.209	51.88
273.425	68.27
273.64	41.64
273.856	10.92
274.072	31.4
274.287	-21.85
274.503	78.51
274.719	84.65
274.934	17.07
275.15	0.68
275.366	45.74
275.581	-50.52
275.797	27.31
276.012	8.87
276.228	-19.8
276.444	58.03
276.659	47.79
276.875	37.55
277.09	6.83
277.306	10.92
277.521	62.12
277.737	68.27
277.952	25.26
278.168	62.12
278.383	-27.99
278.599	37.55
278.814	21.16
279.03	45.74
279.245	94.89
279.461	17.07
279.676	49.83
279.892	-3.41
280.107	8.87
280.322	-13.65
280.538	76.46
280.753	27.31
280.969	113.32
281.184	-5.46
281.399	39.59
281.615	53.93
281.83	29.35
282.045	21.16
282.26	96.94
282.476	45.74
282.691	74.41
282.906	103.08
283.122	82.6
283.337	39.59
283.552	55.98
283.767	33.45
283.983	80.55
284.198	2.73
284.413	62.12
284.628	45.74
284.843	23.21
285.058	58.03
285.274	27.31
285.489	12.97
285.704	53.93
285.919	0.68
286.134	33.45
286.349	94.89
286.564	66.22
286.779	-3.41
286.995	49.83
287.21	82.6
287.425	17.07
287.64	41.64
287.855	115.37
288.07	-5.46
288.285	62.12
288.5	12.97
288.715	141.99
288.93	37.55
289.145	4.78
289.36	58.03
289.575	-27.99
289.79	86.7
290.004	72.36
290.219	-19.8
290.434	-5.46
290.649	78.51
290.864	-9.56
291.079	8.87
291.294	-50.52
291.509	-19.8
291.724	109.22
291.938	76.46
292.153	41.64
292.368	39.59
292.583	41.64
292.798	74.41
293.012	21.16
293.227	43.69
293.442	60.07
293.657	19.11
293.871	170.66
294.086	47.79
294.301	76.46
294.516	70.31
294.73	-21.85
294.945	6.83
295.16	51.88
295.374	21.16
295.589	53.93
295.804	-27.99
296.018	35.5
296.233	58.03
296.447	33.45
296.662	70.31
296.877	47.79
297.091	37.55
297.306	111.27
297.52	4.78
297.735	78.51
297.949	51.88
298.164	0.68
298.378	12.97
298.593	80.55
298.807	-36.18
299.022	68.27
299.236	19.11
299.451	-17.75
299.665	15.02
299.88	55.98
300.094	-7.51
300.309	55.98
300.523	55.98
300.737	51.88
300.952	60.07
301.166	33.45
301.381	-15.7
301.595	60.07
301.809	-11.61
302.024	17.07
302.238	-27.99
302.452	86.7
302.667	29.35
302.881	-1.37
303.095	31.4
303.309	43.69
303.524	8.87
303.738	8.87
303.952	45.74
304.166	6.83
304.381	-11.61
304.595	78.51
304.809	-15.7
305.023	47.79
305.237	98.99
305.452	-58.71
305.666	60.07
305.88	98.99
306.094	33.45
306.308	92.84
306.522	37.55
306.736	53.93
306.95	86.7
307.164	27.31
307.379	23.21
307.593	37.55
307.807	53.93
308.021	-19.8
308.235	35.5
308.449	-23.89
308.663	107.18
308.877	94.89
309.091	21.16
309.305	84.65
309.519	58.03
309.733	55.98
309.947	-15.7
310.161	2.73
310.374	6.83
310.588	103.08
310.802	60.07
311.016	70.31
311.23	-17.75
311.444	66.22
311.658	33.45
311.872	123.56
312.085	88.75
312.299	72.36
312.513	70.31
312.727	8.87
312.941	21.16
313.154	41.64
313.368	-1.37
313.582	74.41
313.796	37.55
314.009	29.35
314.223	66.22
314.437	49.83
314.651	-1.37
314.864	35.5
315.078	35.5
315.292	6.83
315.505	70.31
315.719	8.87
315.933	19.11
316.146	17.07
316.36	43.69
316.573	92.84
316.787	-13.65
317.001	53.93
317.214	53.93
317.428	90.79
317.641	62.12
317.855	60.07
318.068	66.22
318.282	72.36
318.495	86.7
318.709	64.17
318.922	72.36
319.136	82.6
319.349	62.12
319.563	0.68
319.776	78.51
319.99	49.83
320.203	39.59
320.417	19.11
320.63	21.16
320.843	78.51
321.057	8.87
321.27	23.21
321.483	43.69
321.697	72.36
321.91	41.64
322.124	47.79
322.337	82.6
322.55	35.5
322.763	4.78
322.977	53.93
323.19	-32.08
323.403	117.42
323.617	66.22
323.83	101.03
324.043	98.99
324.256	-32.08
324.469	31.4
324.683	-11.61
324.896	-5.46
325.109	127.66
325.322	43.69
325.535	45.74
325.748	74.41
325.962	37.55
326.175	8.87
326.388	37.55
326.601	103.08
326.814	6.83
327.027	12.97
327.24	78.51
327.453	-1.37
327.666	66.22
327.879	-15.7
328.092	21.16
328.305	-7.51
328.518	131.75
328.731	37.55
328.944	25.26
329.157	47.79
329.37	51.88
329.583	62.12
329.796	35.5
330.009	17.07
330.222	8.87
330.435	43.69
330.648	-5.46
330.861	98.99
331.073	17.07
331.286	37.55
331.499	19.11
331.712	29.35
331.925	58.03
332.138	27.31
332.35	49.83
332.563	62.12
332.776	37.55
332.989	58.03
333.202	27.31
333.414	45.74
333.627	68.27
333.84	76.46
334.053	92.84
334.265	58.03
334.478	19.11
334.691	84.65
334.903	27.31
335.116	12.97
335.329	148.14
335.541	80.55
335.754	64.17
335.966	-7.51
336.179	-11.61
336.392	8.87
336.604	58.03
336.817	-3.41
337.029	90.79
337.242	117.42
337.454	35.5
337.667	88.75
337.88	55.98
338.092	72.36
338.305	27.31
338.517	121.51
338.729	66.22
338.942	12.97
339.154	23.21
339.367	43.69
339.579	64.17
339.792	19.11
340.004	33.45
340.217	80.55
340.429	33.45
340.641	35.5
340.854	43.69
341.066	53.93
341.278	45.74
341.491	68.27
341.703	86.7
341.915	51.88
342.128	0.68
342.34	101.03
342.552	80.55
342.764	58.03
342.977	-7.51
343.189	25.26
343.401	74.41
343.613	68.27
343.826	43.69
344.038	76.46
344.25	12.97
344.462	-32.08
344.674	84.65
344.886	70.31
345.099	74.41
345.311	31.4
345.523	125.61
345.735	53.93
345.947	156.33
346.159	8.87
346.371	76.46
346.583	41.64
346.795	47.79
347.007	80.55
347.219	84.65
347.431	47.79
347.643	51.88
347.855	43.69
348.067	90.79
348.279	19.11
348.491	92.84
348.703	117.42
348.915	86.7
349.127	55.98
349.339	-1.37
349.551	-25.94
349.763	101.03
349.975	62.12
350.187	51.88
350.399	39.59
350.61	76.46
350.822	37.55
351.034	8.87
351.246	64.17
351.458	82.6
351.669	37.55
351.881	35.5
352.093	-58.71
352.305	29.35
352.517	70.31
352.728	82.6
352.94	66.22
353.152	80.55
353.363	0.68
353.575	47.79
353.787	82.6
353.999	39.59
354.21	33.45
354.422	10.92
354.633	139.94
354.845	92.84
355.057	25.26
355.268	68.27
355.48	60.07
355.692	25.26
355.903	29.35
356.115	62.12
356.326	53.93
356.538	35.5
356.749	78.51
356.961	66.22
357.172	64.17
357.384	-5.46
357.595	105.13
357.807	121.51
358.018	72.36
358.23	64.17
358.441	45.74
358.653	94.89
358.864	6.83
359.075	41.64
359.287	12.97
359.498	31.4
359.709	0.68
359.921	146.09
360.132	94.89
360.344	29.35
360.555	4.78
360.766	80.55
360.977	-48.47
361.189	41.64
361.4	76.46
361.611	25.26
361.823	78.51
362.034	-23.89
362.245	17.07
362.456	70.31
362.667	58.03
362.879	82.6
363.09	86.7
363.301	60.07
363.512	70.31
363.723	23.21
363.935	70.31
364.146	-27.99
364.357	49.83
364.568	135.85
364.779	-3.41
364.99	119.46
365.201	-30.04
365.412	29.35
365.623	-15.7
365.834	17.07
366.045	90.79
366.256	62.12
366.467	35.5
366.678	72.36
366.889	0.68
367.1	35.5
367.311	41.64
367.522	115.37
367.733	113.32
367.944	47.79
368.155	60.07
368.366	66.22
368.577	119.46
368.788	49.83
368.999	80.55
369.209	37.55
369.42	135.85
369.631	29.35
369.842	10.92
370.053	58.03
370.264	135.85
370.474	4.78
370.685	49.83
370.896	62.12
371.107	49.83
371.317	23.21
371.528	23.21
371.739	39.59
371.95	-30.04
372.16	60.07
372.371	37.55
372.582	-9.56
372.792	70.31
373.003	88.75
373.214	29.35
373.424	111.27
373.635	-71
373.846	117.42
374.056	94.89
374.267	103.08
374.477	33.45
374.688	-11.61
374.898	60.07
375.109	64.17
375.319	76.46
375.53	80.55
375.74	88.75
375.951	60.07
376.161	88.75
376.372	103.08
376.582	111.27
376.793	53.93
377.003	27.31
377.214	45.74
377.424	31.4
377.635	84.65
377.845	82.6
378.055	62.12
378.266	25.26
378.476	103.08
378.686	74.41
378.897	90.79
379.107	68.27
379.317	111.27
379.528	12.97
379.738	15.02
379.948	94.89
380.158	70.31
380.369	107.18
380.579	29.35
380.789	25.26
380.999	94.89
381.21	37.55
381.42	66.22
381.63	-7.51
381.84	27.31
382.05	105.13
382.261	39.59
382.471	51.88
382.681	8.87
382.891	76.46
383.101	139.94
383.311	29.35
383.521	21.16
383.731	121.51
383.941	35.5
384.151	19.11
384.361	111.27
384.571	103.08
384.781	64.17
384.991	74.41
385.201	19.11
385.411	33.45
385.621	74.41
385.831	53.93
386.041	105.13
386.251	53.93
386.461	35.5
386.671	72.36
386.881	117.42
387.091	39.59
387.301	58.03
387.511	53.93
387.72	43.69
387.93	51.88
388.14	96.94
388.35	43.69
388.56	35.5
388.769	70.31
388.979	135.85
389.189	6.83
389.399	45.74
389.609	66.22
389.818	117.42
390.028	88.75
390.238	92.84
390.447	80.55
390.657	39.59
390.867	64.17
391.076	45.74
391.286	78.51
391.496	8.87
391.705	27.31
391.915	62.12
392.125	49.83
392.334	-27.99
392.544	12.97
392.753	8.87
392.963	62.12
393.172	82.6
393.382	129.7
393.591	109.22
393.801	76.46
394.01	49.83
394.22	119.46
394.429	166.57
394.639	119.46
394.848	72.36
395.058	0.68
395.267	156.33
395.477	60.07
395.686	58.03
395.895	162.47
396.105	211.62
396.314	62.12
396.524	39.59
396.733	92.84
396.942	119.46
397.152	131.75
397.361	103.08
397.57	139.94
397.78	53.93
397.989	78.51
398.198	148.14
398.407	111.27
398.617	141.99
398.826	41.64
399.035	74.41
399.244	82.6
399.453	86.7
399.663	92.84
399.872	135.85
400.081	33.45
400.29	123.56
400.499	51.88
400.708	105.13
400.917	172.71
401.127	174.76
401.336	98.99
401.545	129.7
401.754	174.76
401.963	51.88
402.172	70.31
402.381	174.76
402.59	111.27
402.799	74.41
403.008	78.51
403.217	146.09
403.426	121.51
403.635	189.1
403.844	148.14
404.053	101.03
404.262	78.51
404.471	156.33
404.68	137.9
404.888	144.04
405.097	154.28
405.306	182.95
405.515	172.71
405.724	164.52
405.933	135.85
406.142	180.9
406.35	246.44
406.559	201.38
406.768	201.38
406.977	185
407.185	162.47
407.394	193.19
407.603	160.42
407.812	211.62
408.02	172.71
408.229	230.06
408.438	219.82
408.646	240.29
408.855	305.83
409.064	240.29
409.272	234.15
409.481	262.82
409.69	275.11
409.898	283.3
410.107	277.16
410.315	285.35
410.524	301.73
410.733	397.99
410.941	322.21
411.15	338.6
411.358	291.49
411.567	400.04
411.775	354.98
411.984	455.33
412.192	459.43
412.401	373.41
412.609	469.67
412.818	496.29
413.026	461.48
413.234	451.24
413.443	510.63
413.651	461.48
413.86	565.92
414.068	580.26
414.276	572.07
414.485	653.98
414.693	627.36
414.901	635.55
415.11	727.71
415.318	604.83
415.526	744.1
415.734	699.04
415.943	819.87
416.151	742.05
416.359	760.48
416.567	877.21
416.776	811.68
416.984	987.8
417.192	899.74
417.4	928.41
417.608	930.46
417.817	1012.38
418.025	1053.34
418.233	1059.48
418.441	1061.53
418.649	1229.46
418.857	1172.12
419.065	1284.76
419.273	1163.93
419.481	1184.41
419.689	1448.6
419.897	1372.82
420.105	1526.42
420.313	1467.03
420.521	1538.71
420.729	1462.93
420.937	1600.15
421.145	1690.26
421.353	1704.59
421.561	1755.79
421.769	1917.58
421.977	1946.25
422.185	1915.53
422.393	2091.66
422.601	2167.43
422.809	2073.23
423.017	2177.67
423.224	2347.65
423.432	2456.2
423.64	2386.57
423.848	2570.88
424.056	2556.55
424.263	2738.82
424.471	2679.43
424.679	2814.59
424.887	3017.34
425.094	2986.62
425.302	2968.19
425.51	3074.68
425.718	3291.77
425.925	3326.58
426.133	3385.97
426.341	3641.97
426.548	3668.59
426.756	3715.7
426.964	3914.35
427.171	4041.32
427.379	4143.72
427.586	4156.01
427.794	4211.31
428.001	4463.21
428.209	4731.49
428.417	4631.14
428.624	4905.57
428.832	5050.97
429.039	4749.92
429.247	4891.23
429.454	5458.52
429.662	5792.34
429.869	5444.18
430.076	5720.66
430.284	5616.21
430.491	5952.08
430.699	6120.01
430.906	6169.16
431.114	6269.51
431.321	6554.18
431.528	6662.72
431.736	7084.61
431.943	7227.96
432.15	7033.41
432.358	7291.45
432.565	7729.72
432.772	7563.83
432.979	8038.96
433.187	8184.37
433.394	8249.9
433.601	8755.75
433.808	8827.43
434.016	8544.81
434.223	9079.33
434.43	9591.32
434.637	9536.03
434.844	10185.23
435.052	10281.49
435.259	10107.41
435.466	10269.2
435.673	10177.04
435.88	11004.42
436.087	11579.9
436.294	11305.47
436.501	11098.63
436.708	11422.2
436.915	12016.12
437.122	12313.07
437.329	12370.41
437.537	12460.52
437.743	12708.33
437.95	12966.37
438.157	13625.82
438.364	14139.86
438.571	13947.35
438.778	13947.35
438.985	15194.56
439.192	14694.86
439.399	15155.65
439.606	14520.78
439.813	15765.95
440.02	16572.85
440.227	16136.63
440.433	16058.81
440.64	16591.28
440.847	16644.52
441.054	16888.23
441.261	18303.38
441.467	18028.95
441.674	18170.26
441.881	18962.83
442.088	18747.79
442.294	18758.03
442.501	19425.67
442.708	19628.42
442.914	20410.74
443.121	21399.91
443.328	20717.93
443.534	22169.94
443.741	21541.22
443.948	21150.06
444.154	22677.84
444.361	22712.66
444.568	22808.91
444.774	22649.17
444.981	22931.79
445.187	23816.51
445.394	24734
445.6	24625.46
445.807	26480.92
446.013	25583.91
446.22	25940.25
446.426	27091.21
446.633	27248.91
446.839	28197.12
447.046	27111.69
447.252	28449.02
447.459	28719.35
447.665	28295.42
447.871	29661.41
448.078	30974.16
448.284	29542.63
448.491	30304.48
448.697	31467.72
448.903	32127.17
449.11	31838.4
449.316	31680.71
449.522	31951.04
449.728	33198.26
449.935	33468.59
450.141	32925.88
450.347	33570.99
450.553	32864.44
450.76	33394.86
450.966	34230.43
451.172	33683.62
451.378	34365.6
451.584	33849.51
451.791	34621.59
451.997	34588.83
452.203	35274.9
452.409	35031.19
452.615	34578.59
452.821	33622.19
453.027	33237.17
453.233	34805.91
453.44	33257.65
453.646	33792.17
453.852	34003.11
454.058	34967.7
454.264	33091.76
454.47	33986.72
454.676	33472.68
454.882	34465.95
455.088	31164.62
455.294	31645.9
455.5	31824.07
455.705	32610.49
455.911	31385.8
456.117	30806.23
456.323	30300.38
456.529	28178.68
456.735	29767.91
456.941	28840.18
457.147	28420.34
457.352	27617.54
457.558	27273.48
457.764	27296.01
457.97	26773.78
458.176	26331.42
458.381	26167.58
458.587	25022.76
458.793	24926.51
458.999	23818.56
459.204	25461.03
459.41	24496.44
459.616	23198.02
459.821	23216.46
460.027	22810.96
460.233	22143.32
460.438	21231.97
460.644	21694.82
460.85	20771.18
461.055	20189.56
461.261	20306.29
461.466	18960.78
461.672	18143.64
461.878	19401.09
462.083	18362.77
462.289	17977.75
462.494	17967.51
462.7	17054.12
462.905	16224.69
463.111	17162.66
463.316	17205.67
463.522	16794.03
463.727	16742.83
463.932	16705.96
464.138	16740.78
464.343	16701.87
464.549	16212.4
464.754	16622
464.959	16599.47
465.165	16437.68
465.37	15882.68
465.575	15309.25
465.781	15874.49
465.986	16370.1
466.191	15489.47
466.397	14987.72
466.602	14578.12
466.807	15180.23
467.012	15147.46
467.218	15294.91
467.423	14729.67
467.628	14889.42
