Data from USB4F104151__96__11-06-49-921.txt Node

Date: Wed Mar 12 11:06:49 EDT 2025
User: louis
Spectrometer: USB4F10415
Trigger mode: 4
Integration Time (sec): 2.000000E-2
Scans to average: 1
Electric dark correction enabled: true
Nonlinearity correction enabled: false
Boxcar width: 0
XAxis mode: Wavelengths
Number of Pixels in Spectrum: 3648
>>>>>Begin Spectral Data<<<<<
178.204	-81.75
178.424	-81.75
178.644	-81.75
178.864	-116.56
179.084	-83.8
179.304	-44.88
179.524	-24.4
179.744	-28.5
179.964	-46.93
180.184	2.22
180.404	-38.74
180.624	-26.45
180.844	73.9
181.064	-38.74
181.283	59.56
181.503	28.84
181.723	84.14
181.943	-106.32
182.163	10.41
182.383	-16.21
182.602	37.03
182.822	32.94
183.042	32.94
183.262	59.56
183.482	-10.07
183.701	34.99
183.921	0.17
184.141	-67.41
184.361	53.42
184.58	-57.17
184.8	8.36
185.02	30.89
185.239	53.42
185.459	-10.07
185.679	16.55
185.898	-32.6
186.118	16.55
186.338	-28.5
186.557	-24.4
186.777	-26.45
186.997	16.55
187.216	139.43
187.436	-8.02
187.655	71.85
187.875	41.13
188.095	-22.36
188.314	65.71
188.534	43.18
188.753	14.51
188.973	43.18
189.192	12.46
189.412	0.17
189.631	-1.88
189.851	47.27
190.07	-5.97
190.29	16.55
190.509	57.51
190.729	82.09
190.948	133.29
191.168	123.05
191.387	61.61
191.607	34.99
191.826	-57.17
192.045	8.36
192.265	12.46
192.484	49.32
192.704	-1.88
192.923	45.23
193.142	-3.93
193.362	84.14
193.581	51.37
193.8	43.18
194.02	49.32
194.239	80.04
194.458	55.47
194.678	34.99
194.897	-12.12
195.116	-36.69
195.335	-24.4
195.555	-63.32
195.774	45.23
195.993	39.08
196.212	2.22
196.432	6.31
196.651	-18.26
196.87	-14.17
197.089	55.47
197.308	47.27
197.528	71.85
197.747	43.18
197.966	37.03
198.185	73.9
198.404	-65.36
198.623	69.8
198.842	-94.04
199.062	65.71
199.281	45.23
199.5	-18.26
199.719	10.41
199.938	2.22
200.157	98.47
200.376	0.17
200.595	-1.88
200.814	55.47
201.033	12.46
201.252	18.6
201.471	57.51
201.69	69.8
201.909	20.65
202.128	55.47
202.347	30.89
202.566	24.75
202.785	-16.21
203.004	-12.12
203.223	69.8
203.442	16.55
203.661	-16.21
203.879	43.18
204.098	30.89
204.317	24.75
204.536	37.03
204.755	18.6
204.974	41.13
205.193	-44.88
205.411	88.23
205.63	6.31
205.849	61.61
206.068	-44.88
206.287	22.7
206.505	-14.17
206.724	0.17
206.943	24.75
207.162	24.75
207.381	32.94
207.599	8.36
207.818	6.31
208.037	-38.74
208.255	14.51
208.474	41.13
208.693	-44.88
208.911	12.46
209.13	-8.02
209.349	-63.32
209.567	-8.02
209.786	65.71
210.005	-5.97
210.223	37.03
210.442	-24.4
210.661	4.27
210.879	-14.17
211.098	61.61
211.316	30.89
211.535	0.17
211.753	12.46
211.972	14.51
212.191	0.17
212.409	-40.79
212.628	53.42
212.846	-59.22
213.065	86.19
213.283	65.71
213.502	12.46
213.72	2.22
213.938	-51.03
214.157	47.27
214.375	10.41
214.594	-8.02
214.812	12.46
215.031	47.27
215.249	30.89
215.467	-18.26
215.686	12.46
215.904	37.03
216.122	24.75
216.341	57.51
216.559	6.31
216.778	8.36
216.996	4.27
217.214	71.85
217.432	-24.4
217.651	2.22
217.869	12.46
218.087	-22.36
218.306	-57.17
218.524	-30.55
218.742	-16.21
218.96	26.79
219.179	0.17
219.397	-20.31
219.615	26.79
219.833	16.55
220.051	69.8
220.27	20.65
220.488	-20.31
220.706	14.51
220.924	-26.45
221.142	118.95
221.36	-1.88
221.578	32.94
221.796	-28.5
222.015	-5.97
222.233	61.61
222.451	53.42
222.669	18.6
222.887	6.31
223.105	-73.56
223.323	53.42
223.541	98.47
223.759	37.03
223.977	39.08
224.195	118.95
224.413	75.95
224.631	55.47
224.849	-24.4
225.067	53.42
225.285	12.46
225.503	10.41
225.721	-8.02
225.939	39.08
226.157	65.71
226.375	69.8
226.592	-30.55
226.81	-69.46
227.028	12.46
227.246	71.85
227.464	30.89
227.682	41.13
227.9	12.46
228.117	-8.02
228.335	-14.17
228.553	43.18
228.771	-65.36
228.989	-48.98
229.206	-12.12
229.424	30.89
229.642	-22.36
229.86	10.41
230.077	12.46
230.295	-1.88
230.513	22.7
230.731	57.51
230.948	-46.93
231.166	28.84
231.384	51.37
231.601	20.65
231.819	-30.55
232.037	37.03
232.254	-34.64
232.472	-67.41
232.689	-34.64
232.907	61.61
233.125	-28.5
233.342	41.13
233.56	12.46
233.777	43.18
233.995	-3.93
234.213	-8.02
234.43	-18.26
234.648	-10.07
234.865	24.75
235.083	57.51
235.3	57.51
235.518	12.46
235.735	8.36
235.953	57.51
236.17	90.28
236.388	37.03
236.605	10.41
236.822	37.03
237.04	49.32
237.257	-48.98
237.475	-1.88
237.692	-18.26
237.909	0.17
238.127	37.03
238.344	59.56
238.562	75.95
238.779	-57.17
238.996	-16.21
239.214	41.13
239.431	-24.4
239.648	-14.17
239.865	32.94
240.083	47.27
240.3	18.6
240.517	53.42
240.735	-12.12
240.952	37.03
241.169	43.18
241.386	61.61
241.603	41.13
241.821	24.75
242.038	45.23
242.255	16.55
242.472	-26.45
242.689	49.32
242.907	26.79
243.124	8.36
243.341	116.9
243.558	45.23
243.775	-14.17
243.992	6.31
244.209	2.22
244.426	61.61
244.643	12.46
244.86	0.17
245.078	4.27
245.295	57.51
245.512	30.89
245.729	-28.5
245.946	4.27
246.163	-32.6
246.38	8.36
246.597	34.99
246.814	0.17
247.031	-16.21
247.248	0.17
247.464	-16.21
247.681	-32.6
247.898	4.27
248.115	37.03
248.332	-55.12
248.549	18.6
248.766	49.32
248.983	86.19
249.2	-30.55
249.417	49.32
249.633	0.17
249.85	-20.31
250.067	20.65
250.284	30.89
250.501	6.31
250.717	30.89
250.934	6.31
251.151	-8.02
251.368	6.31
251.585	30.89
251.801	6.31
252.018	12.46
252.235	-3.93
252.451	0.17
252.668	-8.02
252.885	30.89
253.102	26.79
253.318	61.61
253.535	28.84
253.752	41.13
253.968	-14.17
254.185	-14.17
254.401	8.36
254.618	-8.02
254.835	-5.97
255.051	-1.88
255.268	-3.93
255.484	4.27
255.701	-5.97
255.917	45.23
256.134	14.51
256.351	26.79
256.567	14.51
256.784	-3.93
257	8.36
257.217	6.31
257.433	-40.79
257.65	49.32
257.866	37.03
258.082	20.65
258.299	-10.07
258.515	43.18
258.732	-57.17
258.948	22.7
259.165	39.08
259.381	65.71
259.597	65.71
259.814	-36.69
260.03	-26.45
260.246	26.79
260.463	32.94
260.679	37.03
260.895	-18.26
261.112	-26.45
261.328	-16.21
261.544	-65.36
261.761	49.32
261.977	71.85
262.193	0.17
262.409	22.7
262.626	-38.74
262.842	59.56
263.058	6.31
263.274	37.03
263.49	22.7
263.707	26.79
263.923	22.7
264.139	-40.79
264.355	12.46
264.571	8.36
264.787	-1.88
265.004	88.23
265.22	0.17
265.436	-3.93
265.652	0.17
265.868	-3.93
266.084	-38.74
266.3	69.8
266.516	-57.17
266.732	82.09
266.948	4.27
267.164	73.9
267.38	151.72
267.596	-10.07
267.812	106.67
268.028	57.51
268.244	-20.31
268.46	0.17
268.676	28.84
268.892	96.43
269.108	14.51
269.324	-104.28
269.54	12.46
269.756	8.36
269.972	24.75
270.188	53.42
270.403	84.14
270.619	-32.6
270.835	32.94
271.051	-10.07
271.267	28.84
271.483	-18.26
271.698	4.27
271.914	71.85
272.13	39.08
272.346	16.55
272.562	-53.08
272.777	32.94
272.993	26.79
273.209	80.04
273.425	-30.55
273.64	-42.84
273.856	47.27
274.072	22.7
274.287	-30.55
274.503	26.79
274.719	12.46
274.934	2.22
275.15	-53.08
275.366	4.27
275.581	-53.08
275.797	47.27
276.012	2.22
276.228	-8.02
276.444	-22.36
276.659	6.31
276.875	28.84
277.09	80.04
277.306	-16.21
277.521	12.46
277.737	18.6
277.952	-63.32
278.168	8.36
278.383	16.55
278.599	45.23
278.814	-3.93
279.03	-14.17
279.245	43.18
279.461	80.04
279.676	61.61
279.892	45.23
280.107	2.22
280.322	39.08
280.538	14.51
280.753	12.46
280.969	49.32
281.184	-36.69
281.399	24.75
281.615	-71.51
281.83	4.27
282.045	39.08
282.26	-38.74
282.476	10.41
282.691	55.47
282.906	47.27
283.122	18.6
283.337	-3.93
283.552	24.75
283.767	-12.12
283.983	10.41
284.198	0.17
284.413	4.27
284.628	-20.31
284.843	-3.93
285.058	49.32
285.274	8.36
285.489	20.65
285.704	37.03
285.919	-40.79
286.134	-32.6
286.349	39.08
286.564	-8.02
286.779	20.65
286.995	-8.02
287.21	-48.98
287.425	53.42
287.64	-46.93
287.855	32.94
288.07	-22.36
288.285	-1.88
288.5	-16.21
288.715	18.6
288.93	0.17
289.145	-20.31
289.36	-20.31
289.575	-20.31
289.79	37.03
290.004	59.56
290.219	28.84
290.434	6.31
290.649	-40.79
290.864	26.79
291.079	4.27
291.294	82.09
291.509	-1.88
291.724	8.36
291.938	63.66
292.153	37.03
292.368	43.18
292.583	20.65
292.798	49.32
293.012	-24.4
293.227	82.09
293.442	34.99
293.657	57.51
293.871	2.22
294.086	-8.02
294.301	86.19
294.516	32.94
294.73	37.03
294.945	-8.02
295.16	-30.55
295.374	-10.07
295.589	6.31
295.804	47.27
296.018	-8.02
296.233	14.51
296.447	-3.93
296.662	8.36
296.877	4.27
297.091	10.41
297.306	55.47
297.52	-16.21
297.735	28.84
297.949	-53.08
298.164	-3.93
298.378	-42.84
298.593	43.18
298.807	41.13
299.022	22.7
299.236	26.79
299.451	49.32
299.665	41.13
299.88	34.99
300.094	-16.21
300.309	49.32
300.523	34.99
300.737	8.36
300.952	8.36
301.166	18.6
301.381	10.41
301.595	-44.88
301.809	43.18
302.024	-69.46
302.238	32.94
302.452	61.61
302.667	30.89
302.881	41.13
303.095	12.46
303.309	53.42
303.524	61.61
303.738	14.51
303.952	28.84
304.166	-59.22
304.381	10.41
304.595	-18.26
304.809	-30.55
305.023	-5.97
305.237	-69.46
305.452	71.85
305.666	28.84
305.88	57.51
306.094	-42.84
306.308	90.28
306.522	63.66
306.736	39.08
306.95	-36.69
307.164	41.13
307.379	12.46
307.593	20.65
307.807	73.9
308.021	2.22
308.235	26.79
308.449	-44.88
308.663	6.31
308.877	24.75
309.091	-59.22
309.305	-51.03
309.519	45.23
309.733	12.46
309.947	0.17
310.161	-8.02
310.374	67.75
310.588	71.85
310.802	-102.23
311.016	8.36
311.23	10.41
311.444	-8.02
311.658	18.6
311.872	94.38
312.085	57.51
312.299	69.8
312.513	32.94
312.727	34.99
312.941	-10.07
313.154	22.7
313.368	12.46
313.582	-22.36
313.796	28.84
314.009	-20.31
314.223	18.6
314.437	80.04
314.651	0.17
314.864	12.46
315.078	-1.88
315.292	16.55
315.505	37.03
315.719	147.62
315.933	16.55
316.146	63.66
316.36	49.32
316.573	30.89
316.787	-36.69
317.001	30.89
317.214	10.41
317.428	73.9
317.641	41.13
317.855	0.17
318.068	47.27
318.282	116.9
318.495	47.27
318.709	10.41
318.922	-26.45
319.136	39.08
319.349	39.08
319.563	51.37
319.776	41.13
319.99	20.65
320.203	51.37
320.417	-22.36
320.63	63.66
320.843	-3.93
321.057	16.55
321.27	18.6
321.483	4.27
321.697	57.51
321.91	22.7
322.124	26.79
322.337	10.41
322.55	14.51
322.763	28.84
322.977	57.51
323.19	6.31
323.403	80.04
323.617	10.41
323.83	63.66
324.043	-98.13
324.256	22.7
324.469	12.46
324.683	34.99
324.896	41.13
325.109	41.13
325.322	6.31
325.535	61.61
325.748	-3.93
325.962	71.85
326.175	-30.55
326.388	32.94
326.601	-75.6
326.814	53.42
327.027	-61.27
327.24	86.19
327.453	-18.26
327.666	47.27
327.879	53.42
328.092	34.99
328.305	6.31
328.518	-55.12
328.731	-100.18
328.944	-28.5
329.157	-1.88
329.37	14.51
329.583	41.13
329.796	67.75
330.009	2.22
330.222	57.51
330.435	16.55
330.648	34.99
330.861	16.55
331.073	61.61
331.286	22.7
331.499	69.8
331.712	4.27
331.925	61.61
332.138	-1.88
332.35	39.08
332.563	49.32
332.776	30.89
332.989	8.36
333.202	67.75
333.414	90.28
333.627	41.13
333.84	-10.07
334.053	-24.4
334.265	-22.36
334.478	18.6
334.691	-18.26
334.903	37.03
335.116	-16.21
335.329	22.7
335.541	-26.45
335.754	65.71
335.966	47.27
336.179	-8.02
336.392	6.31
336.604	24.75
336.817	45.23
337.029	-42.84
337.242	-8.02
337.454	37.03
337.667	-16.21
337.88	-5.97
338.092	4.27
338.305	77.99
338.517	57.51
338.729	-16.21
338.942	57.51
339.154	-12.12
339.367	-3.93
339.579	4.27
339.792	45.23
340.004	20.65
340.217	49.32
340.429	-26.45
340.641	16.55
340.854	-10.07
341.066	16.55
341.278	67.75
341.491	30.89
341.703	61.61
341.915	32.94
342.128	28.84
342.34	20.65
342.552	-20.31
342.764	22.7
342.977	53.42
343.189	51.37
343.401	45.23
343.613	-44.88
343.826	20.65
344.038	-16.21
344.25	26.79
344.462	26.79
344.674	43.18
344.886	73.9
345.099	12.46
345.311	59.56
345.523	30.89
345.735	26.79
345.947	49.32
346.159	34.99
346.371	49.32
346.583	-22.36
346.795	67.75
347.007	-16.21
347.219	-1.88
347.431	18.6
347.643	6.31
347.855	18.6
348.067	24.75
348.279	8.36
348.491	-36.69
348.703	-67.41
348.915	-46.93
349.127	-65.36
349.339	6.31
349.551	-30.55
349.763	106.67
349.975	28.84
350.187	39.08
350.399	43.18
350.61	34.99
350.822	-1.88
351.034	57.51
351.246	32.94
351.458	51.37
351.669	92.33
351.881	61.61
352.093	49.32
352.305	2.22
352.517	-63.32
352.728	53.42
352.94	-20.31
353.152	67.75
353.363	28.84
353.575	43.18
353.787	37.03
353.999	30.89
354.21	8.36
354.422	6.31
354.633	18.6
354.845	73.9
355.057	12.46
355.268	24.75
355.48	80.04
355.692	41.13
355.903	26.79
356.115	2.22
356.326	12.46
356.538	26.79
356.749	-30.55
356.961	77.99
357.172	26.79
357.384	-3.93
357.595	-3.93
357.807	39.08
358.018	14.51
358.23	-10.07
358.441	92.33
358.653	-22.36
358.864	32.94
359.075	-24.4
359.287	-12.12
359.498	8.36
359.709	65.71
359.921	-30.55
360.132	-22.36
360.344	-28.5
360.555	0.17
360.766	34.99
360.977	34.99
361.189	61.61
361.4	4.27
361.611	100.52
361.823	77.99
362.034	-8.02
362.245	-14.17
362.456	45.23
362.667	43.18
362.879	-3.93
363.09	22.7
363.301	94.38
363.512	-3.93
363.723	69.8
363.935	16.55
364.146	45.23
364.357	37.03
364.568	-8.02
364.779	-28.5
364.99	86.19
365.201	-28.5
365.412	55.47
365.623	-18.26
365.834	69.8
366.045	69.8
366.256	47.27
366.467	-16.21
366.678	61.61
366.889	75.95
367.1	-20.31
367.311	32.94
367.522	12.46
367.733	77.99
367.944	-20.31
368.155	39.08
368.366	22.7
368.577	-61.27
368.788	18.6
368.999	6.31
369.209	2.22
369.42	34.99
369.631	53.42
369.842	-3.93
370.053	55.47
370.264	45.23
370.474	0.17
370.685	92.33
370.896	8.36
371.107	28.84
371.317	-44.88
371.528	-14.17
371.739	-40.79
371.95	-28.5
372.16	49.32
372.371	4.27
372.582	45.23
372.792	-53.08
373.003	67.75
373.214	10.41
373.424	16.55
373.635	-12.12
373.846	49.32
374.056	-57.17
374.267	84.14
374.477	73.9
374.688	41.13
374.898	-20.31
375.109	8.36
375.319	6.31
375.53	18.6
375.74	-3.93
375.951	34.99
376.161	20.65
376.372	45.23
376.582	30.89
376.793	49.32
377.003	53.42
377.214	-22.36
377.424	4.27
377.635	-55.12
377.845	47.27
378.055	34.99
378.266	6.31
378.476	4.27
378.686	77.99
378.897	41.13
379.107	55.47
379.317	43.18
379.528	12.46
379.738	75.95
379.948	26.79
380.158	53.42
380.369	39.08
380.579	88.23
380.789	8.36
380.999	12.46
381.21	37.03
381.42	96.43
381.63	45.23
381.84	-10.07
382.05	47.27
382.261	26.79
382.471	10.41
382.681	-10.07
382.891	-1.88
383.101	49.32
383.311	39.08
383.521	45.23
383.731	-24.4
383.941	67.75
384.151	32.94
384.361	49.32
384.571	14.51
384.781	28.84
384.991	75.95
385.201	6.31
385.411	102.57
385.621	10.41
385.831	-1.88
386.041	2.22
386.251	49.32
386.461	20.65
386.671	-30.55
386.881	8.36
387.091	22.7
387.301	51.37
387.511	-1.88
387.72	63.66
387.93	90.28
388.14	73.9
388.35	88.23
388.56	45.23
388.769	-8.02
388.979	75.95
389.189	-16.21
389.399	53.42
389.609	59.56
389.818	-12.12
390.028	45.23
390.238	67.75
390.447	-30.55
390.657	77.99
390.867	53.42
391.076	-12.12
391.286	16.55
391.496	96.43
391.705	-44.88
391.915	82.09
392.125	77.99
392.334	47.27
392.544	49.32
392.753	49.32
392.963	24.75
393.172	-12.12
393.382	39.08
393.591	24.75
393.801	75.95
394.01	129.19
394.22	71.85
394.429	8.36
394.639	20.65
394.848	80.04
395.058	-28.5
395.267	-1.88
395.477	41.13
395.686	96.43
395.895	71.85
396.105	92.33
396.314	55.47
396.524	28.84
396.733	88.23
396.942	127.14
397.152	86.19
397.361	55.47
397.57	61.61
397.78	73.9
397.989	-14.17
398.198	45.23
398.407	0.17
398.617	18.6
398.826	-8.02
399.035	16.55
399.244	43.18
399.453	129.19
399.663	61.61
399.872	137.38
400.081	-75.6
400.29	16.55
400.499	26.79
400.708	65.71
400.917	6.31
401.127	65.71
401.336	86.19
401.545	39.08
401.754	88.23
401.963	-30.55
402.172	24.75
402.381	22.7
402.59	127.14
402.799	0.17
403.008	67.75
403.217	34.99
403.426	34.99
403.635	32.94
403.844	51.37
404.053	98.47
404.262	55.47
404.471	118.95
404.68	67.75
404.888	41.13
405.097	28.84
405.306	110.76
405.515	63.66
405.724	98.47
405.933	77.99
406.142	125.1
406.35	176.3
406.559	57.51
406.768	32.94
406.977	153.77
407.185	137.38
407.394	161.96
407.603	86.19
407.812	92.33
408.02	106.67
408.229	100.52
408.438	121
408.646	114.86
408.855	104.62
409.064	80.04
409.272	92.33
409.481	63.66
409.69	147.62
409.898	92.33
410.107	69.8
410.315	149.67
410.524	125.1
410.733	147.62
410.941	86.19
411.15	192.68
411.358	139.43
411.567	157.86
411.775	190.63
411.984	239.78
412.192	184.49
412.401	174.25
412.609	196.78
412.818	174.25
413.026	235.69
413.234	245.93
413.443	221.35
413.651	266.41
413.86	188.58
414.068	278.69
414.276	211.11
414.485	243.88
414.693	323.75
414.901	284.84
415.11	202.92
415.318	303.27
415.526	309.41
415.734	338.09
415.943	329.89
416.151	356.52
416.359	356.52
416.567	372.9
416.776	344.23
416.984	450.72
417.192	471.2
417.4	420
417.608	303.27
417.817	405.67
418.025	454.82
418.233	493.73
418.441	479.4
418.649	493.73
418.857	463.01
419.065	608.42
419.273	524.45
419.481	520.35
419.689	589.99
419.897	630.95
420.105	526.5
420.313	589.99
420.521	594.08
420.729	684.19
420.937	649.38
421.145	698.53
421.353	723.1
421.561	823.45
421.769	772.25
421.977	831.65
422.185	813.21
422.393	870.56
422.601	825.5
422.809	921.76
423.017	952.48
423.224	975
423.432	1020.06
423.64	1036.44
423.848	1220.76
424.056	1089.69
424.263	1251.48
424.471	1138.84
424.679	1185.94
424.887	1204.38
425.094	1298.58
425.302	1251.48
425.51	1372.31
425.718	1366.17
425.925	1423.51
426.133	1382.55
426.341	1511.57
426.548	1626.26
426.756	1632.4
426.964	1704.08
427.171	1710.22
427.379	1681.55
427.586	1679.51
427.794	1847.44
428.001	2035.85
428.209	1992.84
428.417	2017.42
428.624	2105.48
428.832	2181.26
429.039	2146.44
429.247	2005.13
429.454	2341
429.662	2519.17
429.869	2263.18
430.076	2496.64
430.284	2277.51
430.491	2422.92
430.699	2574.47
430.906	2650.24
431.114	2672.77
431.321	2756.74
431.528	2814.08
431.736	3031.16
431.943	3108.99
432.15	2975.87
432.358	3078.27
432.565	3229.82
432.772	3186.81
432.979	3442.81
433.187	3416.18
433.394	3489.91
433.601	3627.12
433.808	3688.56
434.016	3696.75
434.223	3881.07
434.43	3967.09
434.637	4022.38
434.844	4317.29
435.052	4309.1
435.259	4294.76
435.466	4276.33
435.673	4278.38
435.88	4343.91
436.087	4819.04
436.294	4952.16
436.501	4755.55
436.708	4722.79
436.915	4972.64
437.122	5167.2
437.329	5148.76
437.537	5494.87
437.743	5412.95
437.95	5378.14
438.157	5562.45
438.364	5797.97
438.571	5965.9
438.778	5896.27
438.985	6377.55
439.192	6131.79
439.399	6322.25
439.606	6215.76
439.813	6637.64
440.02	6955.07
440.227	6916.16
440.433	6778.95
440.64	6907.97
440.847	6922.31
441.054	7278.65
441.261	7551.03
441.467	7557.18
441.674	7561.27
441.881	7925.81
442.088	7960.63
442.294	7858.23
442.501	7962.67
442.708	8220.72
442.914	8552.49
443.121	8880.16
443.328	8579.11
443.534	9349.15
443.741	8962.08
443.948	8908.83
444.154	9324.57
444.361	9418.78
444.568	9584.66
444.774	9633.82
444.981	9666.58
445.187	9748.5
445.394	10481.67
445.6	10100.75
445.807	11188.22
446.013	10590.22
446.22	10975.24
446.426	11327.49
446.633	11456.51
446.839	11888.63
447.046	11137.02
447.252	12058.61
447.459	11923.44
447.665	11812.85
447.871	12494.83
448.078	12804.07
448.284	12234.74
448.491	12632.04
448.697	13076.45
448.903	13369.31
449.11	13463.52
449.316	13426.65
449.522	13686.75
449.728	13692.89
449.935	13879.25
450.141	13666.27
450.347	14305.23
450.553	13739.99
450.76	14096.34
450.966	14323.66
451.172	14125.01
451.378	14747.59
451.584	14372.82
451.791	14677.96
451.997	14786.51
452.203	14929.86
452.409	14847.94
452.615	14757.83
452.821	14151.63
453.027	14239.7
453.233	14378.96
453.44	14184.4
453.646	14540.75
453.852	14602.19
454.058	14700.49
454.264	14303.18
454.47	14550.99
454.676	14217.17
454.882	14700.49
455.088	13332.45
455.294	13576.16
455.5	13778.9
455.705	13789.14
455.911	13326.3
456.117	13082.6
456.323	12769.26
456.529	12230.64
456.735	12883.94
456.941	12423.15
457.147	12318.7
457.352	11751.42
457.558	11692.02
457.764	11712.5
457.97	11595.77
458.176	11227.14
458.381	11149.31
458.587	10743.81
458.793	10756.1
458.999	10022.93
459.204	10772.49
459.41	10612.74
459.616	9945.11
459.821	9756.69
460.027	9912.34
460.233	9809.94
460.438	9340.96
460.644	9304.09
460.85	8863.78
461.055	8613.93
461.261	8593.45
461.466	8175.66
461.672	8003.63
461.878	8411.18
462.083	7884.85
462.289	7659.57
462.494	7618.61
462.7	7346.23
462.905	7151.68
463.111	7260.22
463.316	7460.92
463.522	7123.01
463.727	7278.65
463.932	7180.35
464.138	7098.43
464.343	7135.29
464.549	6965.31
464.754	7301.18
464.959	7071.81
465.165	7061.57
465.37	6805.57
465.575	6613.06
465.781	6873.15
465.986	6916.16
466.191	6627.4
466.397	6504.52
466.602	6219.85
466.807	6320.2
467.012	6463.56
467.218	6428.74
467.423	6258.76
467.628	6332.49
467.833	6574.15
468.038	6389.83
468.244	6137.93
468.449	6303.82
468.654	6326.35
468.859	6074.45
469.064	6056.01
469.269	5742.68
469.474	5818.45
