Data from USB4F104151__294__11-13-04-339.txt Node

Date: Wed Mar 12 11:13:04 EDT 2025
User: louis
Spectrometer: USB4F10415
Trigger mode: 4
Integration Time (sec): 2.000000E-2
Scans to average: 1
Electric dark correction enabled: true
Nonlinearity correction enabled: false
Boxcar width: 0
XAxis mode: Wavelengths
Number of Pixels in Spectrum: 3648
>>>>>Begin Spectral Data<<<<<
178.204	-96.08
178.424	-96.08
178.644	-96.08
178.864	-36.69
179.084	-89.94
179.304	-20.31
179.524	-46.93
179.744	-5.97
179.964	2.22
180.184	26.79
180.404	22.7
180.624	0.17
180.844	20.65
181.064	-51.03
181.283	-42.84
181.503	18.6
181.723	75.95
181.943	24.75
182.163	47.27
182.383	-1.88
182.602	37.03
182.822	-69.46
183.042	6.31
183.262	4.27
183.482	-77.65
183.701	47.27
183.921	51.37
184.141	30.89
184.361	127.14
184.58	-8.02
184.8	-8.02
185.02	-96.08
185.239	20.65
185.459	-8.02
185.679	-22.36
185.898	-46.93
186.118	116.9
186.338	12.46
186.557	-44.88
186.777	0.17
186.997	53.42
187.216	10.41
187.436	8.36
187.655	32.94
187.875	80.04
188.095	24.75
188.314	141.48
188.534	82.09
188.753	-10.07
188.973	-12.12
189.192	18.6
189.412	0.17
189.631	2.22
189.851	-1.88
190.07	47.27
190.29	-59.22
190.509	-22.36
190.729	47.27
190.948	37.03
191.168	77.99
191.387	24.75
191.607	0.17
191.826	-1.88
192.045	12.46
192.265	37.03
192.484	-28.5
192.704	-26.45
192.923	-26.45
193.142	75.95
193.362	-8.02
193.581	-10.07
193.8	-8.02
194.02	6.31
194.239	14.51
194.458	67.75
194.678	-34.64
194.897	-20.31
195.116	-63.32
195.335	-42.84
195.555	12.46
195.774	8.36
195.993	59.56
196.212	-98.13
196.432	51.37
196.651	18.6
196.87	-40.79
197.089	92.33
197.308	63.66
197.528	4.27
197.747	63.66
197.966	32.94
198.185	26.79
198.404	-55.12
198.623	6.31
198.842	16.55
199.062	47.27
199.281	39.08
199.5	-32.6
199.719	67.75
199.938	88.23
200.157	53.42
200.376	2.22
200.595	88.23
200.814	45.23
201.033	-14.17
201.252	20.65
201.471	20.65
201.69	0.17
201.909	49.32
202.128	84.14
202.347	51.37
202.566	10.41
202.785	49.32
203.004	-12.12
203.223	32.94
203.442	-18.26
203.661	34.99
203.879	-30.55
204.098	26.79
204.317	12.46
204.536	10.41
204.755	12.46
204.974	28.84
205.193	4.27
205.411	28.84
205.63	0.17
205.849	-40.79
206.068	30.89
206.287	-1.88
206.505	28.84
206.724	8.36
206.943	2.22
207.162	10.41
207.381	18.6
207.599	-3.93
207.818	43.18
208.037	22.7
208.255	61.61
208.474	-12.12
208.693	14.51
208.911	-5.97
209.13	14.51
209.349	-3.93
209.567	-5.97
209.786	8.36
210.005	45.23
210.223	41.13
210.442	-57.17
210.661	-42.84
210.879	2.22
211.098	28.84
211.316	118.95
211.535	45.23
211.753	37.03
211.972	32.94
212.191	39.08
212.409	2.22
212.628	32.94
212.846	-42.84
213.065	39.08
213.283	61.61
213.502	-3.93
213.72	-34.64
213.938	30.89
214.157	28.84
214.375	22.7
214.594	8.36
214.812	53.42
215.031	-40.79
215.249	-30.55
215.467	-1.88
215.686	-26.45
215.904	30.89
216.122	37.03
216.341	43.18
216.559	0.17
216.778	-8.02
216.996	28.84
217.214	24.75
217.432	47.27
217.651	-14.17
217.869	-18.26
218.087	-1.88
218.306	0.17
218.524	12.46
218.742	-3.93
218.96	-14.17
219.179	-20.31
219.397	4.27
219.615	16.55
219.833	-5.97
220.051	18.6
220.27	47.27
220.488	26.79
220.706	45.23
220.924	-1.88
221.142	16.55
221.36	-1.88
221.578	108.71
221.796	63.66
222.015	10.41
222.233	-10.07
222.451	6.31
222.669	-1.88
222.887	-14.17
223.105	-20.31
223.323	-40.79
223.541	43.18
223.759	84.14
223.977	49.32
224.195	10.41
224.413	39.08
224.631	37.03
224.849	0.17
225.067	20.65
225.285	-1.88
225.503	-14.17
225.721	-22.36
225.939	75.95
226.157	-18.26
226.375	65.71
226.592	-14.17
226.81	12.46
227.028	67.75
227.246	84.14
227.464	-12.12
227.682	20.65
227.9	24.75
228.117	-24.4
228.335	-30.55
228.553	-12.12
228.771	61.61
228.989	61.61
229.206	34.99
229.424	20.65
229.642	-18.26
229.86	-59.22
230.077	39.08
230.295	20.65
230.513	-22.36
230.731	80.04
230.948	37.03
231.166	-16.21
231.384	-36.69
231.601	-48.98
231.819	22.7
232.037	57.51
232.254	24.75
232.472	57.51
232.689	-20.31
232.907	147.62
233.125	14.51
233.342	6.31
233.56	63.66
233.777	-22.36
233.995	14.51
234.213	20.65
234.43	53.42
234.648	2.22
234.865	75.95
235.083	67.75
235.3	-5.97
235.518	88.23
235.735	2.22
235.953	67.75
236.17	-3.93
236.388	-26.45
236.605	75.95
236.822	92.33
237.04	22.7
237.257	6.31
237.475	20.65
237.692	-30.55
237.909	37.03
238.127	2.22
238.344	12.46
238.562	10.41
238.779	-22.36
238.996	59.56
239.214	-10.07
239.431	24.75
239.648	45.23
239.865	-20.31
240.083	49.32
240.3	43.18
240.517	-10.07
240.735	-18.26
240.952	-42.84
241.169	61.61
241.386	-3.93
241.603	6.31
241.821	43.18
242.038	34.99
242.255	-14.17
242.472	32.94
242.689	8.36
242.907	45.23
243.124	14.51
243.341	22.7
243.558	41.13
243.775	-22.36
243.992	-30.55
244.209	26.79
244.426	94.38
244.643	18.6
244.86	26.79
245.078	55.47
245.295	12.46
245.512	34.99
245.729	10.41
245.946	73.9
246.163	0.17
246.38	12.46
246.597	-59.22
246.814	53.42
247.031	-42.84
247.248	41.13
247.464	14.51
247.681	-20.31
247.898	14.51
248.115	65.71
248.332	-14.17
248.549	26.79
248.766	53.42
248.983	39.08
249.2	10.41
249.417	39.08
249.633	-26.45
249.85	0.17
250.067	32.94
250.284	14.51
250.501	-10.07
250.717	69.8
250.934	10.41
251.151	2.22
251.368	-24.4
251.585	65.71
251.801	92.33
252.018	53.42
252.235	34.99
252.451	39.08
252.668	18.6
252.885	18.6
253.102	16.55
253.318	18.6
253.535	-22.36
253.752	-46.93
253.968	110.76
254.185	-3.93
254.401	24.75
254.618	22.7
254.835	28.84
255.051	55.47
255.268	45.23
255.484	45.23
255.701	47.27
255.917	18.6
256.134	-10.07
256.351	8.36
256.567	16.55
256.784	39.08
257	-32.6
257.217	12.46
257.433	106.67
257.65	26.79
257.866	-22.36
258.082	59.56
258.299	-30.55
258.515	32.94
258.732	32.94
258.948	41.13
259.165	-1.88
259.381	75.95
259.597	26.79
259.814	30.89
260.03	92.33
260.246	45.23
260.463	65.71
260.679	-3.93
260.895	-3.93
261.112	69.8
261.328	0.17
261.544	28.84
261.761	84.14
261.977	28.84
262.193	28.84
262.409	30.89
262.626	0.17
262.842	8.36
263.058	-1.88
263.274	88.23
263.49	12.46
263.707	53.42
263.923	-1.88
264.139	-30.55
264.355	55.47
264.571	51.37
264.787	37.03
265.004	49.32
265.22	18.6
265.436	-20.31
265.652	-1.88
265.868	-1.88
266.084	22.7
266.3	-53.08
266.516	-30.55
266.732	16.55
266.948	34.99
267.164	14.51
267.38	49.32
267.596	22.7
267.812	77.99
268.028	-1.88
268.244	-14.17
268.46	-5.97
268.676	53.42
268.892	24.75
269.108	69.8
269.324	28.84
269.54	14.51
269.756	22.7
269.972	-32.6
270.188	63.66
270.403	61.61
270.619	-34.64
270.835	-1.88
271.051	65.71
271.267	16.55
271.483	55.47
271.698	-18.26
271.914	-8.02
272.13	55.47
272.346	20.65
272.562	26.79
272.777	4.27
272.993	84.14
273.209	20.65
273.425	30.89
273.64	-55.12
273.856	-5.97
274.072	59.56
274.287	18.6
274.503	47.27
274.719	55.47
274.934	-3.93
275.15	45.23
275.366	-10.07
275.581	18.6
275.797	94.38
276.012	2.22
276.228	67.75
276.444	-3.93
276.659	104.62
276.875	-51.03
277.09	-10.07
277.306	6.31
277.521	12.46
277.737	32.94
277.952	96.43
278.168	-5.97
278.383	-1.88
278.599	10.41
278.814	53.42
279.03	71.85
279.245	22.7
279.461	22.7
279.676	26.79
279.892	-8.02
280.107	6.31
280.322	-30.55
280.538	34.99
280.753	96.43
280.969	59.56
281.184	61.61
281.399	-5.97
281.615	-3.93
281.83	-28.5
282.045	-10.07
282.26	6.31
282.476	32.94
282.691	34.99
282.906	-1.88
283.122	67.75
283.337	-46.93
283.552	-1.88
283.767	69.8
283.983	14.51
284.198	-14.17
284.413	18.6
284.628	-26.45
284.843	-5.97
285.058	-8.02
285.274	28.84
285.489	16.55
285.704	137.38
285.919	6.31
286.134	30.89
286.349	34.99
286.564	51.37
286.779	-8.02
286.995	0.17
287.21	0.17
287.425	49.32
287.64	10.41
287.855	45.23
288.07	47.27
288.285	94.38
288.5	20.65
288.715	-18.26
288.93	-10.07
289.145	12.46
289.36	32.94
289.575	-24.4
289.79	22.7
290.004	-8.02
290.219	43.18
290.434	-5.97
290.649	16.55
290.864	84.14
291.079	71.85
291.294	61.61
291.509	30.89
291.724	37.03
291.938	16.55
292.153	135.34
292.368	39.08
292.583	-5.97
292.798	88.23
293.012	0.17
293.227	2.22
293.442	20.65
293.657	-30.55
293.871	45.23
294.086	2.22
294.301	80.04
294.516	100.52
294.73	18.6
294.945	-12.12
295.16	-24.4
295.374	34.99
295.589	45.23
295.804	-32.6
296.018	49.32
296.233	51.37
296.447	8.36
296.662	8.36
296.877	-12.12
297.091	49.32
297.306	61.61
297.52	34.99
297.735	45.23
297.949	53.42
298.164	-65.36
298.378	20.65
298.593	-22.36
298.807	-48.98
299.022	92.33
299.236	75.95
299.451	51.37
299.665	63.66
299.88	67.75
300.094	-12.12
300.309	41.13
300.523	96.43
300.737	45.23
300.952	-16.21
301.166	71.85
301.381	32.94
301.595	26.79
301.809	20.65
302.024	24.75
302.238	-18.26
302.452	65.71
302.667	24.75
302.881	20.65
303.095	4.27
303.309	30.89
303.524	49.32
303.738	-18.26
303.952	28.84
304.166	41.13
304.381	-18.26
304.595	2.22
304.809	10.41
305.023	32.94
305.237	-8.02
305.452	-38.74
305.666	28.84
305.88	-40.79
306.094	24.75
306.308	-14.17
306.522	53.42
306.736	22.7
306.95	75.95
307.164	37.03
307.379	-42.84
307.593	39.08
307.807	34.99
308.021	92.33
308.235	43.18
308.449	-5.97
308.663	-48.98
308.877	102.57
309.091	125.1
309.305	-40.79
309.519	-10.07
309.733	39.08
309.947	30.89
310.161	-24.4
310.374	2.22
310.588	4.27
310.802	-20.31
311.016	0.17
311.23	20.65
311.444	18.6
311.658	-10.07
311.872	67.75
312.085	-22.36
312.299	20.65
312.513	45.23
312.727	20.65
312.941	10.41
313.154	45.23
313.368	61.61
313.582	-18.26
313.796	-36.69
314.009	6.31
314.223	47.27
314.437	20.65
314.651	88.23
314.864	-10.07
315.078	41.13
315.292	86.19
315.505	-38.74
315.719	10.41
315.933	-53.08
316.146	34.99
316.36	28.84
316.573	63.66
316.787	0.17
317.001	4.27
317.214	47.27
317.428	47.27
317.641	32.94
317.855	14.51
318.068	-1.88
318.282	75.95
318.495	-1.88
318.709	63.66
318.922	12.46
319.136	49.32
319.349	104.62
319.563	26.79
319.776	30.89
319.99	-12.12
320.203	20.65
320.417	75.95
320.63	18.6
320.843	10.41
321.057	53.42
321.27	2.22
321.483	63.66
321.697	108.71
321.91	32.94
322.124	94.38
322.337	22.7
322.55	26.79
322.763	10.41
322.977	67.75
323.19	10.41
323.403	10.41
323.617	71.85
323.83	51.37
324.043	8.36
324.256	26.79
324.469	30.89
324.683	96.43
324.896	-14.17
325.109	30.89
325.322	71.85
325.535	69.8
325.748	77.99
325.962	32.94
326.175	82.09
326.388	30.89
326.601	69.8
326.814	12.46
327.027	61.61
327.24	53.42
327.453	6.31
327.666	143.53
327.879	84.14
328.092	12.46
328.305	-10.07
328.518	39.08
328.731	45.23
328.944	77.99
329.157	65.71
329.37	-10.07
329.583	82.09
329.796	69.8
330.009	-12.12
330.222	-8.02
330.435	47.27
330.648	-10.07
330.861	39.08
331.073	47.27
331.286	39.08
331.499	30.89
331.712	118.95
331.925	32.94
332.138	14.51
332.35	118.95
332.563	16.55
332.776	51.37
332.989	-8.02
333.202	53.42
333.414	59.56
333.627	57.51
333.84	71.85
334.053	45.23
334.265	24.75
334.478	-26.45
334.691	43.18
334.903	73.9
335.116	47.27
335.329	45.23
335.541	53.42
335.754	32.94
335.966	2.22
336.179	45.23
336.392	43.18
336.604	4.27
336.817	39.08
337.029	10.41
337.242	45.23
337.454	-5.97
337.667	22.7
337.88	63.66
338.092	-18.26
338.305	88.23
338.517	80.04
338.729	77.99
338.942	67.75
339.154	26.79
339.367	45.23
339.579	57.51
339.792	41.13
340.004	102.57
340.217	108.71
340.429	55.47
340.641	2.22
340.854	-22.36
341.066	-16.21
341.278	24.75
341.491	51.37
341.703	32.94
341.915	24.75
342.128	-32.6
342.34	49.32
342.552	2.22
342.764	43.18
342.977	-8.02
343.189	30.89
343.401	43.18
343.613	49.32
343.826	26.79
344.038	71.85
344.25	-10.07
344.462	49.32
344.674	94.38
344.886	-10.07
345.099	14.51
345.311	18.6
345.523	-20.31
345.735	-20.31
345.947	24.75
346.159	98.47
346.371	-1.88
346.583	-26.45
346.795	26.79
347.007	24.75
347.219	71.85
347.431	30.89
347.643	121
347.855	75.95
348.067	57.51
348.279	-30.55
348.491	47.27
348.703	-16.21
348.915	-5.97
349.127	55.47
349.339	39.08
349.551	-12.12
349.763	-5.97
349.975	34.99
350.187	71.85
350.399	41.13
350.61	73.9
350.822	55.47
351.034	63.66
351.246	-1.88
351.458	22.7
351.669	34.99
351.881	43.18
352.093	-12.12
352.305	12.46
352.517	43.18
352.728	94.38
352.94	47.27
353.152	8.36
353.363	67.75
353.575	53.42
353.787	139.43
353.999	24.75
354.21	98.47
354.422	-28.5
354.633	-22.36
354.845	61.61
355.057	59.56
355.268	45.23
355.48	14.51
355.692	-12.12
355.903	-20.31
356.115	-32.6
356.326	-8.02
356.538	-20.31
356.749	18.6
356.961	37.03
357.172	37.03
357.384	18.6
357.595	55.47
357.807	49.32
358.018	18.6
358.23	73.9
358.441	94.38
358.653	82.09
358.864	84.14
359.075	63.66
359.287	-5.97
359.498	49.32
359.709	92.33
359.921	28.84
360.132	4.27
360.344	14.51
360.555	65.71
360.766	131.24
360.977	10.41
361.189	34.99
361.4	80.04
361.611	47.27
361.823	10.41
362.034	28.84
362.245	28.84
362.456	-3.93
362.667	65.71
362.879	14.51
363.09	18.6
363.301	22.7
363.512	37.03
363.723	75.95
363.935	24.75
364.146	-1.88
364.357	2.22
364.568	34.99
364.779	-18.26
364.99	53.42
365.201	16.55
365.412	69.8
365.623	10.41
365.834	-20.31
366.045	65.71
366.256	88.23
366.467	75.95
366.678	51.37
366.889	82.09
367.1	37.03
367.311	77.99
367.522	2.22
367.733	55.47
367.944	75.95
368.155	20.65
368.366	-30.55
368.577	57.51
368.788	84.14
368.999	-36.69
369.209	-22.36
369.42	39.08
369.631	133.29
369.842	24.75
370.053	18.6
370.264	43.18
370.474	69.8
370.685	55.47
370.896	84.14
371.107	67.75
371.317	12.46
371.528	10.41
371.739	110.76
371.95	-14.17
372.16	90.28
372.371	-8.02
372.582	-22.36
372.792	0.17
373.003	159.91
373.214	73.9
373.424	-1.88
373.635	-34.64
373.846	100.52
374.056	6.31
374.267	57.51
374.477	67.75
374.688	55.47
374.898	6.31
375.109	53.42
375.319	98.47
375.53	55.47
375.74	86.19
375.951	43.18
376.161	129.19
376.372	53.42
376.582	-10.07
376.793	39.08
377.003	-12.12
377.214	82.09
377.424	45.23
377.635	47.27
377.845	-12.12
378.055	86.19
378.266	-28.5
378.476	63.66
378.686	12.46
378.897	116.9
379.107	80.04
379.317	69.8
379.528	116.9
379.738	51.37
379.948	2.22
380.158	43.18
380.369	47.27
380.579	73.9
380.789	61.61
380.999	49.32
381.21	26.79
381.42	-1.88
381.63	51.37
381.84	51.37
382.05	24.75
382.261	110.76
382.471	59.56
382.681	32.94
382.891	96.43
383.101	61.61
383.311	28.84
383.521	6.31
383.731	59.56
383.941	20.65
384.151	30.89
384.361	67.75
384.571	51.37
384.781	-14.17
384.991	-12.12
385.201	22.7
385.411	12.46
385.621	24.75
385.831	71.85
386.041	96.43
386.251	-22.36
386.461	94.38
386.671	-36.69
386.881	69.8
387.091	63.66
387.301	32.94
387.511	63.66
387.72	-3.93
387.93	0.17
388.14	86.19
388.35	80.04
388.56	94.38
388.769	47.27
388.979	65.71
389.189	57.51
389.399	73.9
389.609	71.85
389.818	55.47
390.028	34.99
390.238	92.33
390.447	37.03
390.657	32.94
390.867	41.13
391.076	18.6
391.286	67.75
391.496	4.27
391.705	51.37
391.915	71.85
392.125	55.47
392.334	28.84
392.544	137.38
392.753	32.94
392.963	98.47
393.172	57.51
393.382	121
393.591	65.71
393.801	71.85
394.01	67.75
394.22	10.41
394.429	55.47
394.639	57.51
394.848	61.61
395.058	20.65
395.267	114.86
395.477	102.57
395.686	43.18
395.895	65.71
396.105	137.38
396.314	104.62
396.524	59.56
396.733	53.42
396.942	137.38
397.152	137.38
397.361	88.23
397.57	190.63
397.78	84.14
397.989	96.43
398.198	209.06
398.407	59.56
398.617	90.28
398.826	49.32
399.035	100.52
399.244	94.38
399.453	133.29
399.663	63.66
399.872	67.75
400.081	20.65
400.29	84.14
400.499	96.43
400.708	135.34
400.917	22.7
401.127	75.95
401.336	161.96
401.545	141.48
401.754	88.23
401.963	168.1
402.172	65.71
402.381	121
402.59	86.19
402.799	145.58
403.008	108.71
403.217	129.19
403.426	131.24
403.635	53.42
403.844	135.34
404.053	104.62
404.262	112.81
404.471	172.2
404.68	153.77
404.888	129.19
405.097	168.1
405.306	196.78
405.515	147.62
405.724	215.21
405.933	147.62
406.142	164.01
406.35	186.54
406.559	194.73
406.768	196.78
406.977	151.72
407.185	151.72
407.394	211.11
407.603	235.69
407.812	223.4
408.02	200.87
408.229	192.68
408.438	207.02
408.646	221.35
408.855	276.65
409.064	192.68
409.272	184.49
409.481	360.61
409.69	278.69
409.898	323.75
410.107	250.02
410.315	364.71
410.524	352.42
410.733	325.8
410.941	354.47
411.15	323.75
411.358	383.14
411.567	471.2
411.775	444.58
411.984	424.1
412.192	405.67
412.401	458.92
412.609	420
412.818	553.12
413.026	483.49
413.234	575.65
413.443	575.65
413.651	632.99
413.86	577.7
414.068	616.61
414.276	563.36
414.485	698.53
414.693	694.43
414.901	716.96
415.11	723.1
415.318	702.62
415.526	802.97
415.734	782.49
415.943	796.83
416.151	925.85
416.359	856.22
416.567	891.04
416.776	979.1
416.984	1015.96
417.192	995.48
417.4	1069.21
417.608	1042.59
417.817	1030.3
418.025	1061.02
418.233	1360.02
418.441	1099.93
418.649	1306.77
418.857	1409.17
419.065	1384.6
419.273	1386.65
419.481	1431.7
419.689	1443.99
419.897	1550.48
420.105	1568.91
420.313	1562.77
420.521	1595.54
420.729	1720.46
420.937	1804.43
421.145	1839.25
421.353	1939.6
421.561	1988.75
421.769	2035.85
421.977	2209.93
422.185	2132.11
422.393	2183.31
422.601	2429.06
422.809	2330.76
423.017	2484.36
423.224	2533.51
423.432	2701.44
423.64	2615.43
423.848	2797.7
424.056	2902.14
424.263	3006.59
424.471	2918.53
424.679	3082.36
424.887	3285.11
425.094	3354.74
425.302	3321.98
425.51	3604.6
425.718	3457.14
425.925	3631.22
426.133	3852.4
426.341	3907.7
426.548	4092.01
426.756	4214.89
426.964	4208.75
427.171	4407.4
427.379	4456.55
427.586	4690.02
427.794	4739.17
428.001	4980.83
428.209	5179.48
428.417	5140.57
428.624	5466.2
428.832	5417.05
429.039	5580.89
429.247	5621.84
429.454	5912.66
429.662	6410.31
429.869	5951.57
430.076	6393.93
430.284	6338.63
430.491	6479.94
430.699	6862.91
430.906	6877.25
431.114	6912.07
431.321	7276.6
431.528	7426.11
431.736	7899.19
431.943	8165.42
432.15	8052.78
432.358	8038.45
432.565	8441.9
432.772	8456.23
432.979	8876.07
433.187	9166.88
433.394	9140.26
433.601	9695.25
433.808	9691.16
434.016	9809.94
434.223	10018.83
434.43	10639.37
434.637	10278.93
434.844	11108.35
435.052	11141.12
435.259	11315.2
435.466	11216.9
435.673	11175.94
435.88	12111.86
436.087	12605.42
436.294	12779.5
436.501	12134.39
436.708	12658.67
436.915	13060.07
437.122	13621.21
437.329	13703.13
437.537	13981.65
437.743	14307.28
437.95	14022.61
438.157	14649.29
438.364	15247.3
438.571	15286.21
438.778	15407.04
438.985	17121.19
439.192	16111.54
439.399	16768.94
439.606	16369.58
439.813	17248.16
440.02	18233.24
440.227	17995.67
440.433	17608.61
440.64	18694.03
440.847	18179.99
441.054	18704.27
441.261	19820.41
441.467	19580.8
441.674	20019.07
441.881	20596.59
442.088	20477.81
442.294	20379.51
442.501	21133.16
442.708	21399.4
442.914	22583.12
443.121	23357.25
443.328	22609.75
443.534	24293.18
443.741	23486.28
443.948	23363.4
444.154	24962.86
444.361	24715.06
444.568	25052.97
444.774	24846.13
444.981	25130.8
445.187	25913.12
445.394	27107.09
445.6	26566.42
445.807	28974.83
446.013	28079.87
446.22	28667.64
446.426	29474.54
446.633	29710.05
446.839	30742.23
447.046	29624.04
447.252	31076.05
447.459	31151.82
447.665	30897.88
447.871	32691.9
448.078	33892.01
448.284	32259.77
448.491	33017.52
448.697	34143.91
448.903	34717.34
449.11	34647.71
449.316	34631.32
449.522	34864.79
449.728	35952.26
449.935	36185.73
450.141	36343.42
450.347	36982.39
450.553	35557
450.76	36224.64
450.966	37482.09
451.172	36728.44
451.378	37613.16
451.584	37084.79
451.791	37680.75
451.997	37498.48
452.203	38757.98
452.409	38651.48
452.615	38520.41
452.821	36925.05
453.027	36392.58
453.233	38223.46
453.44	36884.09
453.646	37252.72
453.852	37488.24
454.058	38223.46
454.264	36757.11
454.47	37498.48
454.676	36585.08
454.882	37676.65
455.088	34086.56
455.294	35016.34
455.5	35270.29
455.705	35864.2
455.911	34877.08
456.117	33666.73
456.323	33234.61
456.529	31280.85
456.735	32757.43
456.941	32077.51
457.147	31340.24
457.352	30484.19
457.558	30318.3
457.764	30412.51
457.97	29800.16
458.176	28632.82
458.381	28757.75
458.587	27223.82
458.793	27393.8
458.999	26322.71
459.204	27815.68
459.41	27291.4
459.616	25116.46
459.821	25247.53
460.027	25573.16
460.233	24981.29
460.438	23430.98
460.644	23985.98
460.85	22720.34
461.055	22622.03
461.261	22308.69
461.466	20825.96
461.672	20248.44
461.878	21780.32
462.083	20356.98
462.289	20035.45
462.494	19511.17
462.7	18712.46
462.905	18227.09
463.111	18921.35
463.316	19257.22
463.522	18634.64
463.727	18655.12
463.932	18558.86
464.138	18419.6
464.343	18175.89
464.549	17932.19
464.754	18454.42
464.959	18399.12
465.165	18243.48
465.37	17588.13
465.575	16687.02
465.781	17631.13
465.986	17731.48
466.191	17205.16
466.397	17014.7
466.602	16123.83
466.807	16428.98
467.012	16678.83
467.218	16431.02
467.423	16242.61
