Data from USB4F104151__171__11-08-57-412.txt Node

Date: Wed Mar 12 11:08:57 EDT 2025
User: louis
Spectrometer: USB4F10415
Trigger mode: 4
Integration Time (sec): 2.000000E-2
Scans to average: 1
Electric dark correction enabled: true
Nonlinearity correction enabled: false
Boxcar width: 0
XAxis mode: Wavelengths
Number of Pixels in Spectrum: 3648
>>>>>Begin Spectral Data<<<<<
178.204	-68.95
178.424	-68.95
178.644	-68.95
178.864	-116.05
179.084	-40.28
179.304	-11.61
179.524	27.31
179.744	-44.37
179.964	10.92
180.184	-23.89
180.404	-3.41
180.624	21.16
180.844	47.79
181.064	-13.65
181.283	15.02
181.503	-42.32
181.723	17.07
181.943	-21.84
182.163	49.83
182.383	17.07
182.602	-9.56
182.822	-36.18
183.042	64.17
183.262	-25.94
183.482	-75.09
183.701	-23.89
183.921	37.55
184.141	15.02
184.361	25.26
184.58	47.79
184.8	53.93
185.02	10.92
185.239	27.31
185.459	12.97
185.679	64.17
185.898	-15.7
186.118	-1.37
186.338	8.87
186.557	78.51
186.777	-30.04
186.997	-3.41
187.216	39.59
187.436	-19.8
187.655	45.74
187.875	15.02
188.095	6.83
188.314	0.68
188.534	113.32
188.753	-7.51
188.973	17.07
189.192	-77.14
189.412	10.92
189.631	25.26
189.851	-9.56
190.07	84.65
190.29	21.16
190.509	0.68
190.729	-19.8
190.948	66.22
191.168	127.66
191.387	43.69
191.607	58.03
191.826	41.64
192.045	45.74
192.265	-19.8
192.484	-1.37
192.704	-36.18
192.923	27.31
193.142	162.47
193.362	55.98
193.581	86.7
193.8	10.92
194.02	35.5
194.239	53.93
194.458	41.64
194.678	21.16
194.897	-19.8
195.116	-15.7
195.335	51.88
195.555	2.73
195.774	-11.61
195.993	37.55
196.212	31.4
196.432	-48.47
196.651	27.31
196.87	-52.56
197.089	94.89
197.308	4.78
197.528	21.16
197.747	58.03
197.966	33.45
198.185	47.79
198.404	8.87
198.623	45.74
198.842	17.07
199.062	53.93
199.281	117.42
199.5	8.87
199.719	15.02
199.938	-23.89
200.157	33.45
200.376	-23.89
200.595	58.03
200.814	6.83
201.033	-11.61
201.252	43.69
201.471	6.83
201.69	-5.46
201.909	-25.94
202.128	0.68
202.347	29.35
202.566	117.42
202.785	-52.56
203.004	-7.51
203.223	23.21
203.442	-11.61
203.661	12.97
203.879	53.93
204.098	58.03
204.317	-9.56
204.536	17.07
204.755	31.4
204.974	29.35
205.193	-9.56
205.411	72.36
205.63	49.83
205.849	31.4
206.068	19.11
206.287	12.97
206.505	41.64
206.724	29.35
206.943	-40.28
207.162	41.64
207.381	88.75
207.599	10.92
207.818	58.03
208.037	-64.85
208.255	12.97
208.474	8.87
208.693	80.55
208.911	86.7
209.13	103.08
209.349	53.93
209.567	-36.18
209.786	10.92
210.005	-19.8
210.223	41.64
210.442	4.78
210.661	-21.84
210.879	-30.04
211.098	-7.51
211.316	-5.46
211.535	64.17
211.753	27.31
211.972	-40.28
212.191	-5.46
212.409	49.83
212.628	21.16
212.846	-38.23
213.065	37.55
213.283	19.11
213.502	19.11
213.72	-54.61
213.938	0.68
214.157	37.55
214.375	33.45
214.594	-30.04
214.812	-9.56
215.031	37.55
215.249	23.21
215.467	51.88
215.686	-9.56
215.904	29.35
216.122	19.11
216.341	84.65
216.559	-1.37
216.778	29.35
216.996	31.4
217.214	21.16
217.432	21.16
217.651	23.21
217.869	-23.89
218.087	53.93
218.306	-40.28
218.524	86.7
218.742	-44.37
218.96	0.68
219.179	10.92
219.397	29.35
219.615	23.21
219.833	21.16
220.051	2.73
220.27	66.22
220.488	-7.51
220.706	33.45
220.924	-13.65
221.142	43.69
221.36	8.87
221.578	15.02
221.796	6.83
222.015	-1.37
222.233	-30.04
222.451	49.83
222.669	4.78
222.887	45.74
223.105	-64.85
223.323	-5.46
223.541	15.02
223.759	82.6
223.977	10.92
224.195	47.79
224.413	94.89
224.631	51.88
224.849	27.31
225.067	88.75
225.285	6.83
225.503	39.59
225.721	21.16
225.939	111.27
226.157	-21.84
226.375	74.41
226.592	0.68
226.81	72.36
227.028	96.94
227.246	10.92
227.464	-9.56
227.682	17.07
227.9	80.55
228.117	62.12
228.335	23.21
228.553	27.31
228.771	-21.84
228.989	66.22
229.206	-5.46
229.424	60.07
229.642	-15.7
229.86	29.35
230.077	41.64
230.295	51.88
230.513	-21.84
230.731	66.22
230.948	131.75
231.166	29.35
231.384	-50.52
231.601	-9.56
231.819	43.69
232.037	-56.66
232.254	43.69
232.472	15.02
232.689	19.11
232.907	58.03
233.125	92.84
233.342	0.68
233.56	35.5
233.777	-46.42
233.995	86.7
234.213	53.93
234.43	58.03
234.648	8.87
234.865	58.03
235.083	15.02
235.3	8.87
235.518	-15.7
235.735	21.16
235.953	92.84
236.17	53.93
236.388	39.59
236.605	39.59
236.822	103.08
237.04	2.73
237.257	37.55
237.475	-15.7
237.692	10.92
237.909	8.87
238.127	70.31
238.344	12.97
238.562	39.59
238.779	-44.37
238.996	12.97
239.214	82.6
239.431	74.41
239.648	15.02
239.865	72.36
240.083	31.4
240.3	58.03
240.517	84.65
240.735	55.98
240.952	86.7
241.169	49.83
241.386	-9.56
241.603	-11.61
241.821	-21.84
242.038	45.74
242.255	66.22
242.472	49.83
242.689	53.93
242.907	72.36
243.124	-21.84
243.341	33.45
243.558	-15.7
243.775	39.59
243.992	21.16
244.209	2.73
244.426	35.5
244.643	94.89
244.86	37.55
245.078	37.55
245.295	-25.94
245.512	53.93
245.729	-32.08
245.946	109.23
246.163	43.69
246.38	68.27
246.597	-36.18
246.814	-46.42
247.031	-7.51
247.248	21.16
247.464	-9.56
247.681	4.78
247.898	-60.76
248.115	17.07
248.332	-60.76
248.549	51.88
248.766	80.55
248.983	4.78
249.2	-5.46
249.417	58.03
249.633	53.93
249.85	66.22
250.067	-5.46
250.284	15.02
250.501	0.68
250.717	49.83
250.934	-30.04
251.151	17.07
251.368	33.45
251.585	17.07
251.801	49.83
252.018	2.73
252.235	25.26
252.451	49.83
252.668	17.07
252.885	66.22
253.102	51.88
253.318	41.64
253.535	10.92
253.752	17.07
253.968	-34.13
254.185	58.03
254.401	66.22
254.618	12.97
254.835	2.73
255.051	64.17
255.268	70.31
255.484	66.22
255.701	-17.75
255.917	64.17
256.134	33.45
256.351	37.55
256.567	-34.13
256.784	72.36
257	-23.89
257.217	43.69
257.433	-40.28
257.65	74.41
257.866	49.83
258.082	33.45
258.299	-19.8
258.515	53.93
258.732	-32.08
258.948	2.73
259.165	17.07
259.381	72.36
259.597	39.59
259.814	78.51
260.03	19.11
260.246	33.45
260.463	29.35
260.679	10.92
260.895	-11.61
261.112	21.16
261.328	51.88
261.544	66.22
261.761	41.64
261.977	-46.42
262.193	66.22
262.409	-3.41
262.626	37.55
262.842	68.27
263.058	62.12
263.274	78.51
263.49	53.93
263.707	101.03
263.923	21.16
264.139	-27.99
264.355	66.22
264.571	60.07
264.787	-25.94
265.004	8.87
265.22	62.12
265.436	10.92
265.652	15.02
265.868	70.31
266.084	-5.46
266.3	-44.37
266.516	-54.61
266.732	74.41
266.948	12.97
267.164	4.78
267.38	23.21
267.596	-3.41
267.812	72.36
268.028	62.12
268.244	10.92
268.46	74.41
268.676	15.02
268.892	37.55
269.108	33.45
269.324	-44.37
269.54	2.73
269.756	-11.61
269.972	-15.7
270.188	51.88
270.403	21.16
270.619	66.22
270.835	-58.71
271.051	-7.51
271.267	-13.65
271.483	-23.89
271.698	66.22
271.914	8.87
272.13	19.11
272.346	37.55
272.562	35.5
272.777	-50.52
272.993	86.7
273.209	19.11
273.425	43.69
273.64	66.22
273.856	72.36
274.072	27.31
274.287	92.84
274.503	62.12
274.719	125.61
274.934	-23.89
275.15	29.35
275.366	12.97
275.581	37.55
275.797	39.59
276.012	-3.41
276.228	39.59
276.444	-111.96
276.659	72.36
276.875	80.55
277.09	49.83
277.306	58.03
277.521	29.35
277.737	21.16
277.952	55.98
278.168	37.55
278.383	82.6
278.599	10.92
278.814	15.02
279.03	47.79
279.245	101.03
279.461	25.26
279.676	53.93
279.892	-30.04
280.107	39.59
280.322	47.79
280.538	-23.89
280.753	33.45
280.969	33.45
281.184	29.35
281.399	-11.61
281.615	74.41
281.83	25.26
282.045	-32.08
282.26	37.55
282.476	58.03
282.691	68.27
282.906	2.73
283.122	6.83
283.337	-42.32
283.552	-17.75
283.767	43.69
283.983	53.93
284.198	8.87
284.413	82.6
284.628	43.69
284.843	43.69
285.058	90.79
285.274	-19.8
285.489	8.87
285.704	82.6
285.919	-13.65
286.134	29.35
286.349	21.16
286.564	31.4
286.779	21.16
286.995	-11.61
287.21	12.97
287.425	45.74
287.64	33.45
287.855	-15.7
288.07	10.92
288.285	33.45
288.5	82.6
288.715	10.92
288.93	23.21
289.145	15.02
289.36	21.16
289.575	66.22
289.79	51.88
290.004	-25.94
290.219	62.12
290.434	-3.41
290.649	6.83
290.864	25.26
291.079	29.35
291.294	70.31
291.509	62.12
291.724	15.02
291.938	23.21
292.153	19.11
292.368	70.31
292.583	33.45
292.798	27.31
293.012	-3.41
293.227	45.74
293.442	-7.51
293.657	-17.75
293.871	70.31
294.086	76.46
294.301	92.84
294.516	74.41
294.73	37.55
294.945	27.31
295.16	23.21
295.374	37.55
295.589	19.11
295.804	35.5
296.018	31.4
296.233	0.68
296.447	41.64
296.662	2.73
296.877	84.65
297.091	96.94
297.306	15.02
297.52	29.35
297.735	94.89
297.949	-15.7
298.164	-11.61
298.378	53.93
298.593	19.11
298.807	47.79
299.022	33.45
299.236	80.55
299.451	94.89
299.665	-32.08
299.88	105.13
300.094	45.74
300.309	27.31
300.523	39.59
300.737	82.6
300.952	-5.46
301.166	25.26
301.381	-1.37
301.595	92.84
301.809	27.31
302.024	47.79
302.238	-1.37
302.452	19.11
302.667	103.08
302.881	86.7
303.095	-9.56
303.309	29.35
303.524	53.93
303.738	64.17
303.952	-11.61
304.166	66.22
304.381	66.22
304.595	45.74
304.809	6.83
305.023	53.93
305.237	31.4
305.452	-19.8
305.666	43.69
305.88	49.83
306.094	-23.89
306.308	10.92
306.522	68.27
306.736	25.26
306.95	103.08
307.164	6.83
307.379	23.21
307.593	45.74
307.807	49.83
308.021	-73.04
308.235	49.83
308.449	-27.99
308.663	-34.13
308.877	10.92
309.091	47.79
309.305	8.87
309.519	0.68
309.733	31.4
309.947	68.27
310.161	49.83
310.374	41.64
310.588	33.45
310.802	17.07
311.016	74.41
311.23	86.7
311.444	47.79
311.658	41.64
311.872	78.51
312.085	80.55
312.299	62.12
312.513	35.5
312.727	37.55
312.941	39.59
313.154	0.68
313.368	41.64
313.582	49.83
313.796	-11.61
314.009	-36.18
314.223	35.5
314.437	74.41
314.651	4.78
314.864	39.59
315.078	31.4
315.292	-32.08
315.505	-30.04
315.719	41.64
315.933	-13.65
316.146	-36.18
316.36	19.11
316.573	119.46
316.787	60.07
317.001	82.6
317.214	49.83
317.428	43.69
317.641	-77.14
317.855	-19.8
318.068	-48.47
318.282	70.31
318.495	43.69
318.709	88.75
318.922	64.17
319.136	66.22
319.349	4.78
319.563	-13.65
319.776	37.55
319.99	78.51
320.203	74.41
320.417	58.03
320.63	84.65
320.843	25.26
321.057	62.12
321.27	76.46
321.483	-13.65
321.697	76.46
321.91	33.45
322.124	55.98
322.337	15.02
322.55	41.64
322.763	72.36
322.977	-7.51
323.19	-19.8
323.403	51.88
323.617	51.88
323.83	62.12
324.043	-15.7
324.256	47.79
324.469	-44.37
324.683	94.89
324.896	-1.37
325.109	64.17
325.322	8.87
325.535	8.87
325.748	119.46
325.962	-1.37
326.175	55.98
326.388	58.03
326.601	70.31
326.814	84.65
327.027	66.22
327.24	60.07
327.453	0.68
327.666	90.79
327.879	90.79
328.092	86.7
328.305	25.26
328.518	80.55
328.731	23.21
328.944	107.18
329.157	-11.61
329.37	70.31
329.583	82.6
329.796	25.26
330.009	-19.8
330.222	33.45
330.435	47.79
330.648	19.11
330.861	39.59
331.073	21.16
331.286	58.03
331.499	43.69
331.712	-11.61
331.925	-9.56
332.138	58.03
332.35	70.31
332.563	2.73
332.776	41.64
332.989	12.97
333.202	84.65
333.414	47.79
333.627	-1.37
333.84	29.35
334.053	62.12
334.265	17.07
334.478	33.45
334.691	47.79
334.903	12.97
335.116	27.31
335.329	49.83
335.541	8.87
335.754	49.83
335.966	70.31
336.179	15.02
336.392	-27.99
336.604	21.16
336.817	2.73
337.029	33.45
337.242	43.69
337.454	78.51
337.667	33.45
337.88	72.36
338.092	2.73
338.305	-27.99
338.517	62.12
338.729	37.55
338.942	17.07
339.154	17.07
339.367	35.5
339.579	68.27
339.792	33.45
340.004	29.35
340.217	-19.8
340.429	29.35
340.641	0.68
340.854	66.22
341.066	15.02
341.278	66.22
341.491	111.27
341.703	43.69
341.915	-3.41
342.128	103.08
342.34	21.16
342.552	-17.75
342.764	-58.71
342.977	31.4
343.189	45.74
343.401	58.03
343.613	-5.46
343.826	12.97
344.038	8.87
344.25	43.69
344.462	25.26
344.674	-42.32
344.886	-25.94
345.099	27.31
345.311	76.46
345.523	27.31
345.735	27.31
345.947	21.16
346.159	68.27
346.371	82.6
346.583	10.92
346.795	62.12
347.007	64.17
347.219	62.12
347.431	4.78
347.643	66.22
347.855	53.93
348.067	88.75
348.279	-9.56
348.491	82.6
348.703	53.93
348.915	12.97
349.127	0.68
349.339	55.98
349.551	-17.75
349.763	58.03
349.975	-21.84
350.187	64.17
350.399	68.27
350.61	41.64
350.822	8.87
351.034	66.22
351.246	-11.61
351.458	4.78
351.669	84.65
351.881	21.16
352.093	29.35
352.305	55.98
352.517	-3.41
352.728	66.22
352.94	29.35
353.152	74.41
353.363	8.87
353.575	53.93
353.787	76.46
353.999	58.03
354.21	60.07
354.422	23.21
354.633	66.22
354.845	96.94
355.057	25.26
355.268	47.79
355.48	58.03
355.692	60.07
355.903	49.83
356.115	-48.47
356.326	8.87
356.538	37.55
356.749	0.68
356.961	10.92
357.172	-17.75
357.384	21.16
357.595	45.74
357.807	0.68
358.018	45.74
358.23	33.45
358.441	70.31
358.653	25.26
358.864	31.4
359.075	55.98
359.287	17.07
359.498	25.26
359.709	78.51
359.921	90.79
360.132	15.02
360.344	39.59
360.555	29.35
360.766	86.7
360.977	39.59
361.189	72.36
361.4	39.59
361.611	98.99
361.823	29.35
362.034	37.55
362.245	-1.37
362.456	6.83
362.667	103.08
362.879	17.07
363.09	60.07
363.301	98.99
363.512	68.27
363.723	121.51
363.935	49.83
364.146	31.4
364.357	51.88
364.568	53.93
364.779	19.11
364.99	8.87
365.201	45.74
365.412	123.56
365.623	41.64
365.834	0.68
366.045	25.26
366.256	39.59
366.467	-50.52
366.678	12.97
366.889	31.4
367.1	17.07
367.311	19.11
367.522	31.4
367.733	64.17
367.944	62.12
368.155	94.89
368.366	88.75
368.577	90.79
368.788	47.79
368.999	49.83
369.209	19.11
369.42	86.7
369.631	4.78
369.842	51.88
370.053	23.21
370.264	80.55
370.474	45.74
370.685	6.83
370.896	33.45
371.107	2.73
371.317	64.17
371.528	19.11
371.739	103.08
371.95	60.07
372.16	53.93
372.371	53.93
372.582	39.59
372.792	29.35
373.003	41.64
373.214	45.74
373.424	39.59
373.635	45.74
373.846	113.32
374.056	19.11
374.267	49.83
374.477	37.55
374.688	29.35
374.898	49.83
375.109	70.31
375.319	72.36
375.53	27.31
375.74	90.79
375.951	29.35
376.161	12.97
376.372	82.6
376.582	27.31
376.793	6.83
377.003	19.11
377.214	64.17
377.424	80.55
377.635	111.27
377.845	12.97
378.055	29.35
378.266	-3.41
378.476	98.99
378.686	27.31
378.897	117.42
379.107	33.45
379.317	-13.65
379.528	-19.8
379.738	-52.56
379.948	62.12
380.158	-3.41
380.369	33.45
380.579	41.64
380.789	33.45
380.999	6.83
381.21	51.88
381.42	29.35
381.63	2.73
381.84	23.21
382.05	66.22
382.261	53.93
382.471	51.88
382.681	-9.56
382.891	19.11
383.101	41.64
383.311	25.26
383.521	33.45
383.731	-3.41
383.941	66.22
384.151	117.42
384.361	-11.61
384.571	68.27
384.781	82.6
384.991	39.59
385.201	62.12
385.411	94.89
385.621	68.27
385.831	68.27
386.041	123.56
386.251	70.31
386.461	45.74
386.671	23.21
386.881	33.45
387.091	90.79
387.301	111.27
387.511	-21.84
387.72	43.69
387.93	111.27
388.14	60.07
388.35	41.64
388.56	131.75
388.769	12.97
388.979	103.08
389.189	45.74
389.399	49.83
389.609	58.03
389.818	84.65
390.028	21.16
390.238	64.17
390.447	53.93
390.657	0.68
390.867	39.59
391.076	37.55
391.286	-13.65
391.496	62.12
391.705	60.07
391.915	49.83
392.125	0.68
392.334	6.83
392.544	62.12
392.753	68.27
392.963	10.92
393.172	62.12
393.382	43.69
393.591	68.27
393.801	60.07
394.01	141.99
394.22	21.16
394.429	51.88
394.639	60.07
394.848	115.37
395.058	80.55
395.267	125.61
395.477	98.99
395.686	160.42
395.895	88.75
396.105	158.38
396.314	51.88
396.524	53.93
396.733	133.8
396.942	88.75
397.152	135.85
397.361	125.61
397.57	62.12
397.78	88.75
397.989	92.84
398.198	88.75
398.407	60.07
398.617	80.55
398.826	33.45
399.035	127.66
399.244	94.89
399.453	117.42
399.663	19.11
399.872	23.21
400.081	53.93
400.29	107.18
400.499	64.17
400.708	60.07
400.917	166.57
401.127	119.46
401.336	129.7
401.545	195.24
401.754	55.98
401.963	213.67
402.172	107.18
402.381	105.13
402.59	88.75
402.799	158.38
403.008	105.13
403.217	64.17
403.426	90.79
403.635	31.4
403.844	74.41
404.053	96.94
404.262	135.85
404.471	168.62
404.68	131.75
404.888	98.99
405.097	121.51
405.306	172.71
405.515	101.03
405.724	123.56
405.933	152.23
406.142	156.33
406.35	125.61
406.559	170.66
406.768	144.04
406.977	127.66
407.185	209.58
407.394	201.38
407.603	113.32
407.812	144.04
408.02	176.81
408.229	193.19
408.438	230.06
408.646	195.24
408.855	213.67
409.064	309.93
409.272	172.71
409.481	260.77
409.69	197.29
409.898	225.96
410.107	189.1
410.315	246.44
410.524	221.86
410.733	291.49
410.941	266.92
411.15	303.78
411.358	324.26
411.567	252.58
411.775	377.51
411.984	371.37
412.192	352.93
412.401	332.45
412.609	354.98
412.818	320.17
413.026	426.66
413.234	465.57
413.443	412.32
413.651	475.81
413.86	422.56
414.068	490.15
414.276	596.64
414.485	408.23
414.693	512.67
414.901	504.48
415.11	500.39
415.318	592.55
415.526	543.39
415.734	615.07
415.943	555.68
416.151	729.76
416.359	608.93
416.567	729.76
416.776	740
416.984	846.49
417.192	766.62
417.4	817.82
417.608	762.53
417.817	803.49
418.025	899.74
418.233	909.98
418.441	946.84
418.649	912.03
418.857	1045.15
419.065	1006.24
419.273	1077.91
419.481	1114.78
419.689	1198.74
419.897	1155.74
420.105	1135.26
420.313	1208.98
420.521	1366.68
420.729	1321.62
420.937	1358.49
421.145	1403.54
421.353	1413.78
421.561	1514.13
421.769	1632.91
421.977	1614.48
422.185	1520.28
422.393	1645.2
422.601	1802.9
422.809	1737.36
423.017	1794.7
423.224	1944.21
423.432	2040.46
423.64	1997.45
423.848	2144.91
424.056	2146.95
424.263	2294.41
424.471	2261.64
424.679	2249.35
424.887	2425.48
425.094	2542.21
425.302	2568.84
425.51	2636.42
425.718	2615.94
425.925	2609.79
426.133	2826.88
426.341	3129.98
426.548	3150.46
426.756	3011.2
426.964	3146.36
427.171	3234.43
427.379	3416.69
427.586	3529.33
427.794	3648.12
428.001	3697.27
428.209	3822.19
428.417	3760.75
428.624	4121.2
428.832	4059.76
429.039	4022.89
429.247	4211.31
429.454	4371.05
429.662	4813.41
429.869	4545.13
430.076	4819.55
430.284	4502.12
430.491	4825.7
430.699	5065.31
430.906	5147.23
431.114	5130.84
431.321	5257.82
431.528	5444.18
431.736	5902.93
431.943	6163.02
432.15	5950.03
432.358	5935.7
432.565	6423.11
432.772	6431.3
432.979	6730.31
433.187	6754.88
433.394	6791.75
433.601	7135.81
433.808	7094.85
434.016	7215.68
434.223	7399.99
434.43	8024.62
434.637	7701.05
434.844	8280.62
435.052	8452.65
435.259	8270.38
435.466	8512.04
435.673	8475.18
435.88	8712.74
436.087	9277.98
436.294	9472.54
436.501	9140.77
436.708	9380.38
436.915	9822.74
437.122	10113.55
437.329	10007.06
437.537	10430.99
437.743	10578.44
437.95	10500.62
438.157	11092.48
438.364	11403.77
438.571	11502.08
438.778	11416.06
438.985	12478.96
439.192	11946.48
439.399	12044.79
439.606	12175.86
439.813	12775.91
440.02	13529.56
440.227	13175.27
440.433	13126.11
440.64	13570.52
440.847	13787.61
441.054	14004.69
441.261	14797.26
441.467	14348.75
441.674	14891.46
441.881	15536.57
442.088	15483.33
442.294	15325.63
442.501	15610.3
442.708	16171.44
442.914	16540.08
443.121	17236.39
443.328	16832.94
443.534	17949.08
443.741	17383.84
443.948	17252.77
444.154	18528.66
444.361	18155.93
444.568	18479.5
444.774	18246.04
444.981	18807.18
445.187	19257.73
445.394	20046.2
445.6	19855.74
445.807	21764.45
446.013	20539.76
446.22	21115.24
446.426	21709.15
446.633	21985.63
446.839	22960.46
447.046	21870.94
447.252	23034.19
447.459	22968.65
447.665	22849.87
447.871	24000.83
448.078	25352.49
448.284	24076.6
448.491	24416.57
448.697	25422.12
448.903	25792.8
449.11	25833.76
449.316	25233.71
449.522	25938.21
449.728	26403.1
449.935	26773.78
450.141	26698
450.347	27404.55
450.553	26323.22
450.76	26738.96
450.966	27394.31
451.172	27552.01
451.378	27906.3
451.584	27334.92
451.791	27857.15
451.997	27660.55
452.203	28121.34
452.409	28354.81
452.615	28344.57
452.821	27318.54
453.027	26904.85
453.233	28213.5
453.44	26853.65
453.646	27336.97
453.852	27230.48
454.058	28094.72
454.264	26810.64
454.47	27226.38
454.676	26536.21
454.882	27683.08
455.088	25108.78
455.294	25739.55
455.5	26126.62
455.705	26202.39
455.911	25147.69
456.117	24707.38
456.323	24232.25
456.529	23046.47
456.735	23701.82
456.941	23210.31
457.147	23011.66
457.352	22378.84
457.558	22169.94
457.764	21987.68
457.97	21524.83
458.176	21127.53
458.381	21152.1
458.587	20109.69
458.793	20074.87
458.999	19059.08
459.204	20476.27
459.41	19925.37
459.616	18362.77
459.821	18475.41
460.027	18489.74
460.233	18180.5
460.438	17115.56
460.644	17521.06
460.85	16239.03
461.055	16411.06
461.261	16308.66
461.466	15147.46
461.672	14799.3
461.878	15579.58
462.083	14567.88
462.289	14406.09
462.494	14322.13
462.7	13709.79
462.905	13122.02
463.111	13619.67
463.316	13742.55
463.522	13556.19
463.727	13406.69
463.932	13400.54
464.138	13416.93
464.343	13310.43
464.549	12890.6
464.754	13418.97
464.959	13255.14
465.165	13044.2
465.37	12485.1
465.575	12435.95
465.781	12784.1
465.986	13021.67
466.191	12464.62
466.397	12112.37
466.602	11479.55
466.807	12194.29
467.012	12300.78
467.218	11862.52
467.423	11940.34
467.628	11944.44
467.833	12298.73
