Data from USB4F104151__107__11-07-13-398.txt Node

Date: Wed Mar 12 11:07:13 EDT 2025
User: louis
Spectrometer: USB4F10415
Trigger mode: 4
Integration Time (sec): 2.000000E-2
Scans to average: 1
Electric dark correction enabled: true
Nonlinearity correction enabled: false
Boxcar width: 0
XAxis mode: Wavelengths
Number of Pixels in Spectrum: 3648
>>>>>Begin Spectral Data<<<<<
178.204	-77.65
178.424	-77.65
178.644	-77.65
178.864	-87.89
179.084	-116.56
179.304	-32.6
179.524	28.84
179.744	-22.36
179.964	2.22
180.184	49.32
180.404	22.7
180.624	-1.88
180.844	-67.41
181.064	41.13
181.283	63.66
181.503	-30.55
181.723	-53.08
181.943	-42.84
182.163	-22.36
182.383	6.31
182.602	-22.36
182.822	61.61
183.042	18.6
183.262	41.13
183.482	53.42
183.701	-16.21
183.921	43.18
184.141	47.27
184.361	71.85
184.58	73.9
184.8	37.03
185.02	16.55
185.239	43.18
185.459	-5.97
185.679	8.36
185.898	57.51
186.118	47.27
186.338	34.99
186.557	-100.18
186.777	18.6
186.997	37.03
187.216	65.71
187.436	96.43
187.655	59.56
187.875	-42.84
188.095	71.85
188.314	90.28
188.534	2.22
188.753	37.03
188.973	16.55
189.192	104.62
189.412	75.95
189.631	80.04
189.851	53.42
190.07	53.42
190.29	41.13
190.509	47.27
190.729	73.9
190.948	63.66
191.168	112.81
191.387	57.51
191.607	32.94
191.826	59.56
192.045	-75.6
192.265	-10.07
192.484	45.23
192.704	65.71
192.923	32.94
193.142	22.7
193.362	34.99
193.581	80.04
193.8	67.75
194.02	-40.79
194.239	8.36
194.458	26.79
194.678	75.95
194.897	-28.5
195.116	57.51
195.335	-18.26
195.555	59.56
195.774	-48.98
195.993	-3.93
196.212	10.41
196.432	12.46
196.651	-14.17
196.87	0.17
197.089	39.08
197.308	0.17
197.528	30.89
197.747	41.13
197.966	47.27
198.185	57.51
198.404	0.17
198.623	77.99
198.842	-1.88
199.062	43.18
199.281	6.31
199.5	71.85
199.719	45.23
199.938	59.56
200.157	110.76
200.376	22.7
200.595	71.85
200.814	-57.17
201.033	59.56
201.252	-40.79
201.471	45.23
201.69	37.03
201.909	32.94
202.128	49.32
202.347	-22.36
202.566	-10.07
202.785	-28.5
203.004	-10.07
203.223	104.62
203.442	-5.97
203.661	63.66
203.879	-38.74
204.098	82.09
204.317	71.85
204.536	75.95
204.755	16.55
204.974	-28.5
205.193	-53.08
205.411	69.8
205.63	14.51
205.849	30.89
206.068	-83.8
206.287	16.55
206.505	-8.02
206.724	75.95
206.943	55.47
207.162	2.22
207.381	65.71
207.599	20.65
207.818	4.27
208.037	24.75
208.255	-18.26
208.474	14.51
208.693	75.95
208.911	65.71
209.13	30.89
209.349	-3.93
209.567	-3.93
209.786	121
210.005	55.47
210.223	30.89
210.442	104.62
210.661	28.84
210.879	59.56
211.098	-1.88
211.316	12.46
211.535	63.66
211.753	0.17
211.972	16.55
212.191	-14.17
212.409	10.41
212.628	-8.02
212.846	80.04
213.065	43.18
213.283	32.94
213.502	-34.64
213.72	61.61
213.938	-5.97
214.157	75.95
214.375	43.18
214.594	49.32
214.812	24.75
215.031	32.94
215.249	63.66
215.467	16.55
215.686	67.75
215.904	8.36
216.122	-28.5
216.341	65.71
216.559	53.42
216.778	47.27
216.996	80.04
217.214	-5.97
217.432	10.41
217.651	59.56
217.869	41.13
218.087	6.31
218.306	-14.17
218.524	-16.21
218.742	28.84
218.96	30.89
219.179	-12.12
219.397	-20.31
219.615	51.37
219.833	114.86
220.051	34.99
220.27	96.43
220.488	75.95
220.706	63.66
220.924	-38.74
221.142	24.75
221.36	-32.6
221.578	2.22
221.796	34.99
222.015	41.13
222.233	-3.93
222.451	22.7
222.669	14.51
222.887	88.23
223.105	2.22
223.323	84.14
223.541	-1.88
223.759	0.17
223.977	-10.07
224.195	47.27
224.413	14.51
224.631	45.23
224.849	18.6
225.067	123.05
225.285	0.17
225.503	-18.26
225.721	45.23
225.939	32.94
226.157	37.03
226.375	55.47
226.592	4.27
226.81	-24.4
227.028	116.9
227.246	-5.97
227.464	61.61
227.682	26.79
227.9	51.37
228.117	30.89
228.335	30.89
228.553	63.66
228.771	-12.12
228.989	121
229.206	24.75
229.424	-8.02
229.642	4.27
229.86	-10.07
230.077	71.85
230.295	2.22
230.513	98.47
230.731	80.04
230.948	30.89
231.166	80.04
231.384	-36.69
231.601	86.19
231.819	37.03
232.037	-22.36
232.254	-48.98
232.472	-5.97
232.689	10.41
232.907	14.51
233.125	12.46
233.342	73.9
233.56	14.51
233.777	-26.45
233.995	16.55
234.213	86.19
234.43	-14.17
234.648	41.13
234.865	-10.07
235.083	16.55
235.3	-32.6
235.518	6.31
235.735	75.95
235.953	92.33
236.17	4.27
236.388	18.6
236.605	65.71
236.822	26.79
237.04	26.79
237.257	39.08
237.475	16.55
237.692	47.27
237.909	-20.31
238.127	75.95
238.344	37.03
238.562	39.08
238.779	-30.55
238.996	67.75
239.214	86.19
239.431	49.32
239.648	57.51
239.865	0.17
240.083	67.75
240.3	2.22
240.517	-5.97
240.735	61.61
240.952	73.9
241.169	6.31
241.386	53.42
241.603	16.55
241.821	8.36
242.038	127.14
242.255	69.8
242.472	59.56
242.689	37.03
242.907	55.47
243.124	80.04
243.341	45.23
243.558	71.85
243.775	123.05
243.992	37.03
244.209	125.1
244.426	59.56
244.643	34.99
244.86	37.03
245.078	-32.6
245.295	16.55
245.512	16.55
245.729	16.55
245.946	65.71
246.163	-38.74
246.38	37.03
246.597	53.42
246.814	39.08
247.031	26.79
247.248	67.75
247.464	106.67
247.681	41.13
247.898	20.65
248.115	39.08
248.332	0.17
248.549	0.17
248.766	61.61
248.983	98.47
249.2	14.51
249.417	32.94
249.633	55.47
249.85	18.6
250.067	90.28
250.284	30.89
250.501	61.61
250.717	0.17
250.934	-77.65
251.151	-1.88
251.368	8.36
251.585	41.13
251.801	18.6
252.018	45.23
252.235	-5.97
252.451	39.08
252.668	51.37
252.885	18.6
253.102	47.27
253.318	26.79
253.535	28.84
253.752	100.52
253.968	14.51
254.185	18.6
254.401	24.75
254.618	43.18
254.835	20.65
255.051	-1.88
255.268	26.79
255.484	20.65
255.701	-8.02
255.917	69.8
256.134	86.19
256.351	6.31
256.567	28.84
256.784	2.22
257	8.36
257.217	20.65
257.433	98.47
257.65	73.9
257.866	-18.26
258.082	20.65
258.299	-14.17
258.515	39.08
258.732	65.71
258.948	98.47
259.165	65.71
259.381	51.37
259.597	34.99
259.814	98.47
260.03	32.94
260.246	41.13
260.463	47.27
260.679	-18.26
260.895	69.8
261.112	41.13
261.328	63.66
261.544	100.52
261.761	82.09
261.977	65.71
262.193	-20.31
262.409	86.19
262.626	39.08
262.842	-5.97
263.058	45.23
263.274	53.42
263.49	37.03
263.707	88.23
263.923	43.18
264.139	100.52
264.355	2.22
264.571	88.23
264.787	26.79
265.004	121
265.22	8.36
265.436	57.51
265.652	39.08
265.868	59.56
266.084	49.32
266.3	-1.88
266.516	14.51
266.732	43.18
266.948	22.7
267.164	22.7
267.38	-67.41
267.596	26.79
267.812	41.13
268.028	92.33
268.244	-1.88
268.46	47.27
268.676	67.75
268.892	-77.65
269.108	51.37
269.324	28.84
269.54	24.75
269.756	12.46
269.972	98.47
270.188	82.09
270.403	47.27
270.619	12.46
270.835	53.42
271.051	24.75
271.267	110.76
271.483	37.03
271.698	63.66
271.914	106.67
272.13	125.1
272.346	24.75
272.562	20.65
272.777	26.79
272.993	37.03
273.209	-10.07
273.425	-24.4
273.64	-18.26
273.856	73.9
274.072	73.9
274.287	102.57
274.503	98.47
274.719	16.55
274.934	8.36
275.15	10.41
275.366	-3.93
275.581	41.13
275.797	51.37
276.012	84.14
276.228	45.23
276.444	30.89
276.659	108.71
276.875	-40.79
277.09	-36.69
277.306	123.05
277.521	80.04
277.737	0.17
277.952	77.99
278.168	20.65
278.383	32.94
278.599	118.95
278.814	24.75
279.03	6.31
279.245	26.79
279.461	43.18
279.676	24.75
279.892	55.47
280.107	30.89
280.322	10.41
280.538	14.51
280.753	51.37
280.969	28.84
281.184	18.6
281.399	59.56
281.615	82.09
281.83	67.75
282.045	86.19
282.26	53.42
282.476	-24.4
282.691	100.52
282.906	43.18
283.122	49.32
283.337	63.66
283.552	14.51
283.767	77.99
283.983	86.19
284.198	26.79
284.413	39.08
284.628	-30.55
284.843	6.31
285.058	73.9
285.274	63.66
285.489	-28.5
285.704	96.43
285.919	20.65
286.134	-12.12
286.349	84.14
286.564	49.32
286.779	96.43
286.995	-8.02
287.21	-40.79
287.425	-10.07
287.64	45.23
287.855	151.72
288.07	8.36
288.285	-3.93
288.5	80.04
288.715	-14.17
288.93	-40.79
289.145	24.75
289.36	30.89
289.575	6.31
289.79	-24.4
290.004	24.75
290.219	-38.74
290.434	20.65
290.649	-55.12
290.864	94.38
291.079	32.94
291.294	43.18
291.509	55.47
291.724	71.85
291.938	30.89
292.153	94.38
292.368	63.66
292.583	94.38
292.798	10.41
293.012	43.18
293.227	-1.88
293.442	20.65
293.657	77.99
293.871	92.33
294.086	104.62
294.301	45.23
294.516	43.18
294.73	51.37
294.945	43.18
295.16	18.6
295.374	57.51
295.589	59.56
295.804	18.6
296.018	32.94
296.233	63.66
296.447	6.31
296.662	-26.45
296.877	51.37
297.091	14.51
297.306	55.47
297.52	22.7
297.735	57.51
297.949	14.51
298.164	-16.21
298.378	61.61
298.593	39.08
298.807	47.27
299.022	34.99
299.236	57.51
299.451	16.55
299.665	-5.97
299.88	65.71
300.094	49.32
300.309	22.7
300.523	26.79
300.737	37.03
300.952	110.76
301.166	108.71
301.381	43.18
301.595	96.43
301.809	59.56
302.024	22.7
302.238	-5.97
302.452	80.04
302.667	-34.64
302.881	84.14
303.095	43.18
303.309	104.62
303.524	22.7
303.738	30.89
303.952	30.89
304.166	112.81
304.381	-1.88
304.595	84.14
304.809	43.18
305.023	67.75
305.237	18.6
305.452	14.51
305.666	12.46
305.88	49.32
306.094	55.47
306.308	157.86
306.522	84.14
306.736	90.28
306.95	82.09
307.164	67.75
307.379	41.13
307.593	116.9
307.807	49.32
308.021	127.14
308.235	104.62
308.449	22.7
308.663	49.32
308.877	131.24
309.091	20.65
309.305	59.56
309.519	16.55
309.733	118.95
309.947	-12.12
310.161	110.76
310.374	34.99
310.588	43.18
310.802	26.79
311.016	24.75
311.23	26.79
311.444	32.94
311.658	-3.93
311.872	75.95
312.085	47.27
312.299	34.99
312.513	-12.12
312.727	14.51
312.941	-28.5
313.154	77.99
313.368	51.37
313.582	82.09
313.796	69.8
314.009	22.7
314.223	57.51
314.437	61.61
314.651	26.79
314.864	57.51
315.078	-48.98
315.292	-8.02
315.505	6.31
315.719	61.61
315.933	86.19
316.146	10.41
316.36	75.95
316.573	69.8
316.787	71.85
317.001	12.46
317.214	116.9
317.428	-42.84
317.641	2.22
317.855	59.56
318.068	63.66
318.282	86.19
318.495	116.9
318.709	90.28
318.922	59.56
319.136	43.18
319.349	53.42
319.563	-22.36
319.776	57.51
319.99	-20.31
320.203	41.13
320.417	73.9
320.63	51.37
320.843	24.75
321.057	73.9
321.27	92.33
321.483	63.66
321.697	112.81
321.91	14.51
322.124	-18.26
322.337	96.43
322.55	37.03
322.763	116.9
322.977	63.66
323.19	41.13
323.403	67.75
323.617	112.81
323.83	12.46
324.043	41.13
324.256	90.28
324.469	22.7
324.683	53.42
324.896	45.23
325.109	92.33
325.322	-8.02
325.535	57.51
325.748	73.9
325.962	45.23
326.175	37.03
326.388	14.51
326.601	61.61
326.814	41.13
327.027	-14.17
327.24	55.47
327.453	55.47
327.666	96.43
327.879	24.75
328.092	49.32
328.305	151.72
328.518	0.17
328.731	84.14
328.944	-10.07
329.157	26.79
329.37	45.23
329.583	65.71
329.796	51.37
330.009	77.99
330.222	153.77
330.435	16.55
330.648	-14.17
330.861	80.04
331.073	129.19
331.286	69.8
331.499	18.6
331.712	-14.17
331.925	67.75
332.138	65.71
332.35	34.99
332.563	45.23
332.776	20.65
332.989	-3.93
333.202	41.13
333.414	18.6
333.627	84.14
333.84	57.51
334.053	49.32
334.265	34.99
334.478	28.84
334.691	86.19
334.903	77.99
335.116	20.65
335.329	37.03
335.541	77.99
335.754	14.51
335.966	8.36
336.179	26.79
336.392	-5.97
336.604	67.75
336.817	-8.02
337.029	102.57
337.242	41.13
337.454	45.23
337.667	43.18
337.88	104.62
338.092	-3.93
338.305	84.14
338.517	16.55
338.729	106.67
338.942	73.9
339.154	77.99
339.367	51.37
339.579	14.51
339.792	53.42
340.004	174.25
340.217	26.79
340.429	71.85
340.641	55.47
340.854	69.8
341.066	28.84
341.278	51.37
341.491	100.52
341.703	73.9
341.915	30.89
342.128	57.51
342.34	-42.84
342.552	32.94
342.764	116.9
342.977	30.89
343.189	133.29
343.401	92.33
343.613	30.89
343.826	41.13
344.038	92.33
344.25	8.36
344.462	53.42
344.674	57.51
344.886	18.6
345.099	12.46
345.311	57.51
345.523	32.94
345.735	8.36
345.947	106.67
346.159	69.8
346.371	34.99
346.583	-16.21
346.795	73.9
347.007	65.71
347.219	75.95
347.431	65.71
347.643	96.43
347.855	63.66
348.067	69.8
348.279	-16.21
348.491	18.6
348.703	67.75
348.915	43.18
349.127	69.8
349.339	18.6
349.551	80.04
349.763	96.43
349.975	26.79
350.187	137.38
350.399	82.09
350.61	112.81
350.822	41.13
351.034	30.89
351.246	77.99
351.458	-26.45
351.669	82.09
351.881	77.99
352.093	-5.97
352.305	57.51
352.517	69.8
352.728	131.24
352.94	45.23
353.152	98.47
353.363	86.19
353.575	102.57
353.787	28.84
353.999	94.38
354.21	39.08
354.422	30.89
354.633	51.37
354.845	63.66
355.057	0.17
355.268	121
355.48	51.37
355.692	61.61
355.903	80.04
356.115	47.27
356.326	53.42
356.538	63.66
356.749	121
356.961	75.95
357.172	112.81
357.384	28.84
357.595	90.28
357.807	100.52
358.018	18.6
358.23	30.89
358.441	65.71
358.653	41.13
358.864	39.08
359.075	63.66
359.287	16.55
359.498	67.75
359.709	100.52
359.921	43.18
360.132	47.27
360.344	32.94
360.555	80.04
360.766	108.71
360.977	22.7
361.189	100.52
361.4	43.18
361.611	57.51
361.823	51.37
362.034	80.04
362.245	28.84
362.456	94.38
362.667	121
362.879	75.95
363.09	18.6
363.301	94.38
363.512	125.1
363.723	108.71
363.935	26.79
364.146	18.6
364.357	104.62
364.568	59.56
364.779	22.7
364.99	110.76
365.201	121
365.412	41.13
365.623	116.9
365.834	8.36
366.045	47.27
366.256	67.75
366.467	112.81
366.678	137.38
366.889	67.75
367.1	57.51
367.311	49.32
367.522	34.99
367.733	108.71
367.944	65.71
368.155	43.18
368.366	2.22
368.577	16.55
368.788	55.47
368.999	57.51
369.209	88.23
369.42	123.05
369.631	100.52
369.842	16.55
370.053	30.89
370.264	166.06
370.474	104.62
370.685	-71.51
370.896	129.19
371.107	51.37
371.317	75.95
371.528	18.6
371.739	53.42
371.95	96.43
372.16	125.1
372.371	8.36
372.582	-14.17
372.792	116.9
373.003	88.23
373.214	41.13
373.424	90.28
373.635	63.66
373.846	123.05
374.056	32.94
374.267	-20.31
374.477	98.47
374.688	12.46
374.898	67.75
375.109	90.28
375.319	116.9
375.53	69.8
375.74	22.7
375.951	43.18
376.161	121
376.372	96.43
376.582	32.94
376.793	57.51
377.003	30.89
377.214	4.27
377.424	67.75
377.635	51.37
377.845	39.08
378.055	55.47
378.266	16.55
378.476	80.04
378.686	75.95
378.897	43.18
379.107	71.85
379.317	96.43
379.528	26.79
379.738	67.75
379.948	82.09
380.158	32.94
380.369	137.38
380.579	59.56
380.789	137.38
380.999	67.75
381.21	14.51
381.42	127.14
381.63	61.61
381.84	71.85
382.05	92.33
382.261	116.9
382.471	34.99
382.681	30.89
382.891	71.85
383.101	96.43
383.311	41.13
383.521	26.79
383.731	67.75
383.941	114.86
384.151	24.75
384.361	92.33
384.571	86.19
384.781	34.99
384.991	88.23
385.201	137.38
385.411	127.14
385.621	98.47
385.831	49.32
386.041	20.65
386.251	51.37
386.461	176.3
386.671	20.65
386.881	145.58
387.091	51.37
387.301	108.71
387.511	20.65
387.72	39.08
387.93	57.51
388.14	18.6
388.35	98.47
388.56	98.47
388.769	125.1
388.979	-1.88
389.189	41.13
389.399	92.33
389.609	86.19
389.818	118.95
390.028	75.95
390.238	108.71
390.447	75.95
390.657	77.99
390.867	26.79
391.076	71.85
391.286	2.22
391.496	102.57
391.705	34.99
391.915	71.85
392.125	80.04
392.334	80.04
392.544	106.67
392.753	106.67
392.963	55.47
393.172	145.58
393.382	75.95
393.591	176.3
393.801	53.42
394.01	69.8
394.22	147.62
394.429	69.8
394.639	116.9
394.848	102.57
395.058	61.61
395.267	84.14
395.477	108.71
395.686	94.38
395.895	121
396.105	61.61
396.314	65.71
396.524	41.13
396.733	110.76
396.942	127.14
397.152	172.2
397.361	172.2
397.57	164.01
397.78	102.57
397.989	131.24
398.198	133.29
398.407	82.09
398.617	118.95
398.826	131.24
399.035	59.56
399.244	147.62
399.453	145.58
399.663	106.67
399.872	121
400.081	135.34
400.29	127.14
400.499	129.19
400.708	110.76
400.917	112.81
401.127	114.86
401.336	88.23
401.545	135.34
401.754	127.14
401.963	172.2
402.172	166.06
402.381	98.47
402.59	182.44
402.799	94.38
403.008	186.54
403.217	108.71
403.426	252.07
403.635	221.35
403.844	172.2
404.053	221.35
404.262	170.15
404.471	207.02
404.68	209.06
404.888	118.95
405.097	157.86
405.306	288.93
405.515	108.71
405.724	227.5
405.933	225.45
406.142	215.21
406.35	141.48
406.559	243.88
406.768	213.16
406.977	227.5
407.185	231.59
407.394	336.04
407.603	211.11
407.812	262.31
408.02	325.8
408.229	247.97
408.438	299.17
408.646	303.27
408.855	352.42
409.064	358.57
409.272	323.75
409.481	432.29
409.69	446.63
409.898	383.14
410.107	389.28
410.315	333.99
410.524	452.77
410.733	432.29
410.941	442.53
411.15	585.89
411.358	393.38
411.567	510.11
411.775	501.92
411.984	475.3
412.192	551.07
412.401	579.75
412.609	606.37
412.818	643.23
413.026	647.33
413.234	659.62
413.443	676
413.651	698.53
413.86	684.19
414.068	759.97
414.276	845.98
414.485	823.45
414.693	813.21
414.901	891.04
415.11	813.21
415.318	938.14
415.526	952.48
415.734	1061.02
415.943	1032.35
416.151	1126.55
416.359	1050.78
416.567	1101.98
416.776	1171.61
416.984	1192.09
417.192	1407.13
417.4	1347.73
417.608	1378.45
417.817	1405.08
418.025	1513.62
418.233	1587.35
418.441	1523.86
418.649	1630.35
418.857	1691.79
419.065	1716.37
419.273	1673.36
419.481	1851.53
419.689	1925.26
419.897	1927.31
420.105	1988.75
420.313	2013.32
420.521	2160.78
420.729	2050.19
420.937	2171.02
421.145	2365.57
421.353	2427.01
421.561	2570.37
421.769	2615.43
421.977	2726.02
422.185	2736.26
422.393	2863.23
422.601	2992.25
422.809	2973.82
423.017	3047.55
423.224	3154.04
423.432	3371.13
423.64	3358.84
423.848	3612.79
424.056	3426.42
424.263	3698.8
424.471	3778.67
424.679	3821.68
424.887	4030.57
425.094	4180.07
425.302	4200.55
425.51	4302.95
425.718	4382.82
425.925	4610.15
426.133	4735.07
426.341	4962.4
426.548	5212.25
426.756	5363.8
426.964	5105.76
427.171	5634.13
427.379	5554.26
427.586	5734.48
427.794	5961.81
428.001	6256.72
428.209	6506.57
428.417	6494.28
428.624	6803.52
428.832	6953.02
429.039	6778.95
429.247	6891.59
429.454	7538.74
429.662	7927.86
429.869	7491.64
430.076	7970.87
430.284	7868.47
430.491	8130.61
430.699	8462.38
430.906	8609.83
431.114	8775.72
431.321	8960.03
431.528	9207.84
431.736	9852.95
431.943	10061.84
432.15	9828.37
432.358	10096.66
432.565	10655.75
432.772	10614.79
432.979	11012.1
433.187	11024.39
433.394	11372.54
433.601	12142.58
433.808	12152.82
434.016	11954.16
434.223	12507.12
434.43	13316.06
434.637	13115.36
434.844	14002.13
435.052	14155.73
435.259	14079.96
435.466	14346.19
435.673	13955.03
435.88	15261.63
436.087	15790.01
436.294	15855.54
436.501	15345.6
436.708	15755.19
436.915	16441.26
437.122	16887.72
437.329	17158.05
437.537	17418.14
437.743	17876.89
437.95	17624.99
438.157	18540.43
438.364	19025.8
438.571	19197.83
438.778	19251.08
438.985	21163.88
439.192	20252.53
439.399	20957.03
439.606	20666.22
439.813	21634.91
440.02	22771.54
440.227	22656.85
440.433	22548.31
440.64	23183.18
440.847	22984.52
441.054	23217.99
441.261	25171.75
441.467	24354.62
441.674	25036.59
441.881	26289.95
442.088	25976.61
442.294	25788.19
442.501	26421.02
442.708	27059.98
442.914	28098.3
443.121	29077.23
443.328	28325.63
443.534	30449.37
443.741	29288.17
443.948	29136.62
444.154	31698.63
444.361	31172.3
444.568	31549.13
444.774	31520.46
444.981	31792.84
445.187	32984.76
445.394	34139.81
445.6	33521.32
445.807	37017.21
446.013	35108.5
446.22	35491.47
446.426	37367.41
446.633	37684.84
446.839	38598.24
447.046	37088.88
447.252	39339.6
447.459	39208.53
447.665	38481.5
447.871	40820.28
448.078	42425.89
448.284	40087.11
448.491	41672.24
448.697	43161.11
448.903	43666.96
449.11	43570.71
449.316	42976.79
449.522	43636.24
449.728	45030.91
449.935	45274.62
450.141	45045.24
450.347	46271.98
450.553	44764.67
450.76	45381.11
450.966	46656.99
451.172	45856.24
451.378	46976.48
451.584	46505.45
451.791	47275.48
451.997	46882.27
452.203	48127.44
452.409	47889.87
452.615	47527.38
452.821	46298.6
453.027	45886.96
453.233	47805.91
453.44	45682.16
453.646	46446.05
453.852	46540.26
454.058	47193.56
454.264	45573.62
454.47	46444.01
454.676	45401.59
454.882	46460.39
455.088	43073.05
455.294	43554.32
455.5	44506.63
455.705	44545.54
455.911	42978.84
456.117	42219.05
456.323	41565.74
456.529	39288.4
456.735	41018.94
456.941	39611.98
457.147	39366.23
457.352	37975.66
457.558	37621.36
457.764	37750.38
457.97	36677.24
458.176	36155.01
458.381	36515.45
458.587	34616.99
458.793	34471.58
458.999	32534.2
459.204	35192.47
459.41	34309.79
459.616	31784.65
459.821	32100.03
460.027	31614.66
460.233	31094.48
460.438	29429.48
460.644	29777.64
460.85	28819.19
461.055	28311.29
461.261	27776.77
461.466	25798.43
461.672	25151.27
461.878	27078.41
462.083	25165.61
462.289	25077.55
462.494	24561.46
462.7	23469.89
462.905	22859.6
463.111	23957.31
463.316	23869.25
463.522	23347.01
463.727	23435.08
463.932	23191.37
464.138	23068.49
464.343	23267.14
464.549	22396.76
464.754	22968.14
464.959	22859.6
465.165	22892.37
465.37	21989.21
465.575	21249.89
465.781	22271.83
465.986	22493.01
466.191	21565.28
466.397	21084.01
466.602	20105.08
466.807	20911.98
467.012	20952.94
467.218	20785.01
