Data from USB4F104151__37__11-05-22-091.txt Node

Date: Wed Mar 12 11:05:22 EDT 2025
User: louis
Spectrometer: USB4F10415
Trigger mode: 4
Integration Time (sec): 2.000000E-2
Scans to average: 1
Electric dark correction enabled: true
Nonlinearity correction enabled: false
Boxcar width: 0
XAxis mode: Wavelengths
Number of Pixels in Spectrum: 3648
>>>>>Begin Spectral Data<<<<<
178.204	-72.87
178.424	-72.87
178.644	-72.87
178.864	-36.01
179.084	-76.97
179.304	19.29
179.524	-19.63
179.744	15.19
179.964	52.05
180.184	-15.53
180.404	35.67
180.624	-62.63
180.844	19.29
181.064	-40.11
181.283	68.44
181.503	-42.15
181.723	-29.87
181.943	41.81
182.163	31.57
182.383	29.52
182.602	54.1
182.822	66.39
183.042	37.72
183.262	4.95
183.482	-9.39
183.701	-1.19
183.921	29.52
184.141	88.92
184.361	50
184.58	86.87
184.8	9.05
185.02	27.48
185.239	25.43
185.459	19.29
185.679	47.96
185.898	-31.91
186.118	66.39
186.338	99.16
186.557	66.39
186.777	52.05
186.997	41.81
187.216	9.05
187.436	90.96
187.655	45.91
187.875	47.96
188.095	45.91
188.314	50
188.534	54.1
188.753	2.9
188.973	60.24
189.192	72.53
189.412	37.72
189.631	37.72
189.851	27.48
190.07	60.24
190.29	-23.72
190.509	13.14
190.729	121.68
190.948	86.87
191.168	148.31
191.387	41.81
191.607	50
191.826	11.09
192.045	37.72
192.265	56.15
192.484	31.57
192.704	-5.29
192.923	17.24
193.142	78.68
193.362	82.77
193.581	43.86
193.8	64.34
194.02	95.06
194.239	35.67
194.458	47.96
194.678	17.24
194.897	45.91
195.116	33.62
195.335	15.19
195.555	43.86
195.774	-46.25
195.993	47.96
196.212	-42.15
196.432	25.43
196.651	-48.3
196.87	-23.72
197.089	54.1
197.308	23.38
197.528	82.77
197.747	4.95
197.966	37.72
198.185	-13.48
198.404	58.2
198.623	13.14
198.842	66.39
199.062	17.24
199.281	-9.39
199.5	-31.91
199.719	109.4
199.938	2.9
200.157	25.43
200.376	76.63
200.595	19.29
200.814	15.19
201.033	52.05
201.252	47.96
201.471	33.62
201.69	82.77
201.909	-13.48
202.128	13.14
202.347	39.76
202.566	68.44
202.785	27.48
203.004	45.91
203.223	47.96
203.442	11.09
203.661	35.67
203.879	31.57
204.098	31.57
204.317	0.85
204.536	45.91
204.755	21.33
204.974	9.05
205.193	23.38
205.411	-15.53
205.63	11.09
205.849	52.05
206.068	-3.24
206.287	-21.67
206.505	-7.34
206.724	97.11
206.943	7
207.162	0.85
207.381	35.67
207.599	113.49
207.818	37.72
208.037	50
208.255	19.29
208.474	31.57
208.693	56.15
208.911	95.06
209.13	-7.34
209.349	107.35
209.567	-54.44
209.786	58.2
210.005	-21.67
210.223	29.52
210.442	54.1
210.661	27.48
210.879	58.2
211.098	37.72
211.316	64.34
211.535	7
211.753	27.48
211.972	43.86
212.191	-48.3
212.409	33.62
212.628	31.57
212.846	19.29
213.065	50
213.283	72.53
213.502	0.85
213.72	54.1
213.938	50
214.157	27.48
214.375	21.33
214.594	52.05
214.812	58.2
215.031	4.95
215.249	-27.82
215.467	127.83
215.686	35.67
215.904	41.81
216.122	7
216.341	35.67
216.559	9.05
216.778	60.24
216.996	33.62
217.214	41.81
217.432	52.05
217.651	-31.91
217.869	-11.43
218.087	76.63
218.306	101.2
218.524	66.39
218.742	-31.91
218.96	-13.48
219.179	23.38
219.397	117.59
219.615	82.77
219.833	58.2
220.051	21.33
220.27	33.62
220.488	47.96
220.706	2.9
220.924	-23.72
221.142	58.2
221.36	33.62
221.578	76.63
221.796	54.1
222.015	-13.48
222.233	33.62
222.451	84.82
222.669	-29.87
222.887	97.11
223.105	62.29
223.323	43.86
223.541	68.44
223.759	47.96
223.977	-52.39
224.195	37.72
224.413	9.05
224.631	54.1
224.849	78.68
225.067	62.29
225.285	76.63
225.503	0.85
225.721	-17.58
225.939	-1.19
226.157	27.48
226.375	90.96
226.592	105.3
226.81	25.43
227.028	21.33
227.246	39.76
227.464	47.96
227.682	62.29
227.9	15.19
228.117	17.24
228.335	41.81
228.553	0.85
228.771	58.2
228.989	33.62
229.206	2.9
229.424	62.29
229.642	41.81
229.86	-68.78
230.077	54.1
230.295	41.81
230.513	2.9
230.731	45.91
230.948	45.91
231.166	35.67
231.384	37.72
231.601	66.39
231.819	-7.34
232.037	0.85
232.254	-81.07
232.472	-25.77
232.689	23.38
232.907	17.24
233.125	-25.77
233.342	2.9
233.56	88.92
233.777	66.39
233.995	97.11
234.213	78.68
234.43	-33.96
234.648	15.19
234.865	13.14
235.083	43.86
235.3	-17.58
235.518	50
235.735	13.14
235.953	37.72
236.17	19.29
236.388	37.72
236.605	27.48
236.822	15.19
237.04	2.9
237.257	29.52
237.475	29.52
237.692	21.33
237.909	54.1
238.127	31.57
238.344	-17.58
238.562	74.58
238.779	-46.25
238.996	-38.06
239.214	25.43
239.431	117.59
239.648	2.9
239.865	68.44
240.083	45.91
240.3	7
240.517	-19.63
240.735	33.62
240.952	109.4
241.169	99.16
241.386	29.52
241.603	13.14
241.821	0.85
242.038	80.72
242.255	25.43
242.472	-38.06
242.689	82.77
242.907	99.16
243.124	-44.2
243.341	25.43
243.558	-64.68
243.775	43.86
243.992	33.62
244.209	41.81
244.426	66.39
244.643	39.76
244.86	27.48
245.078	17.24
245.295	-7.34
245.512	43.86
245.729	66.39
245.946	-17.58
246.163	-50.35
246.38	56.15
246.597	58.2
246.814	29.52
247.031	-38.06
247.248	72.53
247.464	74.58
247.681	29.52
247.898	23.38
248.115	-5.29
248.332	25.43
248.549	68.44
248.766	21.33
248.983	9.05
249.2	60.24
249.417	119.64
249.633	-5.29
249.85	23.38
250.067	37.72
250.284	70.48
250.501	41.81
250.717	101.2
250.934	58.2
251.151	19.29
251.368	-3.24
251.585	31.57
251.801	4.95
252.018	47.96
252.235	54.1
252.451	21.33
252.668	-48.3
252.885	17.24
253.102	-13.48
253.318	45.91
253.535	15.19
253.752	41.81
253.968	64.34
254.185	68.44
254.401	72.53
254.618	23.38
254.835	64.34
255.051	76.63
255.268	0.85
255.484	31.57
255.701	35.67
255.917	17.24
256.134	-13.48
256.351	27.48
256.567	80.72
256.784	60.24
257	37.72
257.217	-13.48
257.433	41.81
257.65	-31.91
257.866	23.38
258.082	35.67
258.299	60.24
258.515	84.82
258.732	0.85
258.948	29.52
259.165	7
259.381	-21.67
259.597	66.39
259.814	78.68
260.03	58.2
260.246	121.68
260.463	-19.63
260.679	86.87
260.895	-23.72
261.112	13.14
261.328	-36.01
261.544	11.09
261.761	58.2
261.977	-7.34
262.193	4.95
262.409	19.29
262.626	29.52
262.842	54.1
263.058	60.24
263.274	90.96
263.49	27.48
263.707	66.39
263.923	-19.63
264.139	70.48
264.355	45.91
264.571	-3.24
264.787	29.52
265.004	11.09
265.22	45.91
265.436	-7.34
265.652	88.92
265.868	-3.24
266.084	15.19
266.3	90.96
266.516	-29.87
266.732	41.81
266.948	58.2
267.164	13.14
267.38	60.24
267.596	-3.24
267.812	66.39
268.028	2.9
268.244	11.09
268.46	35.67
268.676	4.95
268.892	17.24
269.108	72.53
269.324	56.15
269.54	-25.77
269.756	39.76
269.972	54.1
270.188	23.38
270.403	17.24
270.619	4.95
270.835	33.62
271.051	56.15
271.267	27.48
271.483	37.72
271.698	45.91
271.914	70.48
272.13	-44.2
272.346	45.91
272.562	86.87
272.777	80.72
272.993	-9.39
273.209	62.29
273.425	15.19
273.64	-50.35
273.856	19.29
274.072	15.19
274.287	-15.53
274.503	72.53
274.719	119.64
274.934	37.72
275.15	35.67
275.366	-23.72
275.581	39.76
275.797	76.63
276.012	50
276.228	52.05
276.444	-33.96
276.659	54.1
276.875	-1.19
277.09	80.72
277.306	0.85
277.521	45.91
277.737	7
277.952	72.53
278.168	-29.87
278.383	52.05
278.599	7
278.814	86.87
279.03	35.67
279.245	25.43
279.461	-15.53
279.676	58.2
279.892	115.54
280.107	72.53
280.322	-17.58
280.538	17.24
280.753	58.2
280.969	25.43
281.184	66.39
281.399	58.2
281.615	35.67
281.83	54.1
282.045	13.14
282.26	0.85
282.476	-31.91
282.691	74.58
282.906	29.52
283.122	29.52
283.337	-15.53
283.552	70.48
283.767	47.96
283.983	11.09
284.198	52.05
284.413	136.02
284.628	-21.67
284.843	37.72
285.058	43.86
285.274	29.52
285.489	29.52
285.704	70.48
285.919	-62.63
286.134	101.2
286.349	117.59
286.564	78.68
286.779	2.9
286.995	39.76
287.21	33.62
287.425	62.29
287.64	54.1
287.855	58.2
288.07	13.14
288.285	80.72
288.5	115.54
288.715	84.82
288.93	127.83
289.145	93.01
289.36	45.91
289.575	29.52
289.79	107.35
290.004	-13.48
290.219	47.96
290.434	78.68
290.649	15.19
290.864	-7.34
291.079	25.43
291.294	84.82
291.509	56.15
291.724	15.19
291.938	-21.67
292.153	29.52
292.368	11.09
292.583	103.25
292.798	70.48
293.012	-9.39
293.227	58.2
293.442	54.1
293.657	-23.72
293.871	52.05
294.086	37.72
294.301	43.86
294.516	107.35
294.73	80.72
294.945	21.33
295.16	52.05
295.374	58.2
295.589	11.09
295.804	9.05
296.018	103.25
296.233	39.76
296.447	101.2
296.662	17.24
296.877	97.11
297.091	86.87
297.306	27.48
297.52	113.49
297.735	47.96
297.949	41.81
298.164	-46.25
298.378	74.58
298.593	-33.96
298.807	17.24
299.022	60.24
299.236	125.78
299.451	64.34
299.665	52.05
299.88	25.43
300.094	103.25
300.309	58.2
300.523	13.14
300.737	43.86
300.952	86.87
301.166	103.25
301.381	-40.11
301.595	17.24
301.809	33.62
302.024	13.14
302.238	9.05
302.452	0.85
302.667	-13.48
302.881	21.33
303.095	80.72
303.309	70.48
303.524	21.33
303.738	74.58
303.952	17.24
304.166	52.05
304.381	80.72
304.595	31.57
304.809	17.24
305.023	41.81
305.237	-31.91
305.452	47.96
305.666	43.86
305.88	105.3
306.094	-5.29
306.308	95.06
306.522	11.09
306.736	52.05
306.95	66.39
307.164	93.01
307.379	-19.63
307.593	21.33
307.807	84.82
308.021	99.16
308.235	68.44
308.449	23.38
308.663	-9.39
308.877	88.92
309.091	33.62
309.305	37.72
309.519	-5.29
309.733	50
309.947	-42.15
310.161	72.53
310.374	15.19
310.588	50
310.802	25.43
311.016	109.4
311.23	66.39
311.444	41.81
311.658	2.9
311.872	-19.63
312.085	82.77
312.299	60.24
312.513	70.48
312.727	58.2
312.941	-9.39
313.154	7
313.368	90.96
313.582	21.33
313.796	45.91
314.009	64.34
314.223	4.95
314.437	152.4
314.651	99.16
314.864	29.52
315.078	2.9
315.292	45.91
315.505	29.52
315.719	17.24
315.933	7
316.146	-15.53
316.36	-3.24
316.573	64.34
316.787	-9.39
317.001	37.72
317.214	70.48
317.428	68.44
317.641	52.05
317.855	27.48
318.068	13.14
318.282	68.44
318.495	121.68
318.709	52.05
318.922	60.24
319.136	64.34
319.349	66.39
319.563	39.76
319.776	80.72
319.99	21.33
320.203	152.4
320.417	45.91
320.63	9.05
320.843	70.48
321.057	45.91
321.27	15.19
321.483	41.81
321.697	29.52
321.91	64.34
322.124	33.62
322.337	90.96
322.55	66.39
322.763	21.33
322.977	41.81
323.19	74.58
323.403	33.62
323.617	82.77
323.83	41.81
324.043	9.05
324.256	62.29
324.469	17.24
324.683	54.1
324.896	64.34
325.109	86.87
325.322	45.91
325.535	95.06
325.748	17.24
325.962	39.76
326.175	-11.43
326.388	103.25
326.601	99.16
326.814	56.15
327.027	17.24
327.24	33.62
327.453	45.91
327.666	11.09
327.879	50
328.092	76.63
328.305	45.91
328.518	2.9
328.731	113.49
328.944	90.96
329.157	11.09
329.37	13.14
329.583	103.25
329.796	133.97
330.009	62.29
330.222	19.29
330.435	17.24
330.648	80.72
330.861	58.2
331.073	25.43
331.286	25.43
331.499	60.24
331.712	7
331.925	-25.77
332.138	13.14
332.35	90.96
332.563	82.77
332.776	74.58
332.989	56.15
333.202	56.15
333.414	105.3
333.627	-23.72
333.84	-11.43
334.053	29.52
334.265	90.96
334.478	-17.58
334.691	58.2
334.903	99.16
335.116	-21.67
335.329	43.86
335.541	25.43
335.754	88.92
335.966	84.82
336.179	62.29
336.392	76.63
336.604	54.1
336.817	80.72
337.029	15.19
337.242	58.2
337.454	33.62
337.667	86.87
337.88	93.01
338.092	93.01
338.305	86.87
338.517	-3.24
338.729	58.2
338.942	76.63
339.154	29.52
339.367	-52.39
339.579	70.48
339.792	74.58
340.004	86.87
340.217	66.39
340.429	113.49
340.641	33.62
340.854	138.07
341.066	-19.63
341.278	95.06
341.491	93.01
341.703	-7.34
341.915	7
342.128	121.68
342.34	56.15
342.552	54.1
342.764	43.86
342.977	-9.39
343.189	54.1
343.401	35.67
343.613	-15.53
343.826	84.82
344.038	31.57
344.25	52.05
344.462	54.1
344.674	138.07
344.886	76.63
345.099	54.1
345.311	17.24
345.523	50
345.735	-74.92
345.947	76.63
346.159	25.43
346.371	21.33
346.583	125.78
346.795	144.21
347.007	15.19
347.219	80.72
347.431	41.81
347.643	78.68
347.855	-9.39
348.067	93.01
348.279	13.14
348.491	11.09
348.703	111.44
348.915	35.67
349.127	-7.34
349.339	50
349.551	21.33
349.763	7
349.975	29.52
350.187	58.2
350.399	68.44
350.61	17.24
350.822	58.2
351.034	23.38
351.246	50
351.458	80.72
351.669	70.48
351.881	84.82
352.093	-7.34
352.305	66.39
352.517	99.16
352.728	33.62
352.94	64.34
353.152	45.91
353.363	-52.39
353.575	70.48
353.787	115.54
353.999	64.34
354.21	23.38
354.422	19.29
354.633	45.91
354.845	43.86
355.057	0.85
355.268	4.95
355.48	82.77
355.692	21.33
355.903	60.24
356.115	107.35
356.326	-7.34
356.538	47.96
356.749	-15.53
356.961	25.43
357.172	23.38
357.384	103.25
357.595	111.44
357.807	-1.19
358.018	54.1
358.23	43.86
358.441	113.49
358.653	41.81
358.864	13.14
359.075	66.39
359.287	60.24
359.498	103.25
359.709	-11.43
359.921	78.68
360.132	109.4
360.344	45.91
360.555	50
360.766	7
360.977	74.58
361.189	-13.48
361.4	41.81
361.611	54.1
361.823	93.01
362.034	58.2
362.245	37.72
362.456	0.85
362.667	93.01
362.879	37.72
363.09	4.95
363.301	45.91
363.512	-19.63
363.723	64.34
363.935	113.49
364.146	160.59
364.357	78.68
364.568	-3.24
364.779	76.63
364.99	7
365.201	101.2
365.412	93.01
365.623	2.9
365.834	119.64
366.045	27.48
366.256	113.49
366.467	58.2
366.678	95.06
366.889	39.76
367.1	50
367.311	41.81
367.522	21.33
367.733	62.29
367.944	29.52
368.155	62.29
368.366	101.2
368.577	88.92
368.788	41.81
368.999	27.48
369.209	93.01
369.42	103.25
369.631	113.49
369.842	62.29
370.053	80.72
370.264	45.91
370.474	-11.43
370.685	23.38
370.896	70.48
371.107	78.68
371.317	119.64
371.528	0.85
371.739	58.2
371.95	70.48
372.16	95.06
372.371	7
372.582	39.76
372.792	78.68
373.003	99.16
373.214	33.62
373.424	82.77
373.635	93.01
373.846	47.96
374.056	72.53
374.267	17.24
374.477	62.29
374.688	125.78
374.898	95.06
375.109	13.14
375.319	39.76
375.53	74.58
375.74	-27.82
375.951	72.53
376.161	50
376.372	111.44
376.582	29.52
376.793	66.39
377.003	-5.29
377.214	93.01
377.424	72.53
377.635	43.86
377.845	56.15
378.055	15.19
378.266	52.05
378.476	25.43
378.686	66.39
378.897	111.44
379.107	35.67
379.317	7
379.528	23.38
379.738	13.14
379.948	19.29
380.158	121.68
380.369	60.24
380.579	74.58
380.789	82.77
380.999	-1.19
381.21	86.87
381.42	95.06
381.63	113.49
381.84	117.59
382.05	2.9
382.261	90.96
382.471	64.34
382.681	60.24
382.891	142.16
383.101	90.96
383.311	64.34
383.521	43.86
383.731	17.24
383.941	29.52
384.151	58.2
384.361	0.85
384.571	107.35
384.781	99.16
384.991	58.2
385.201	50
385.411	23.38
385.621	50
385.831	127.83
386.041	88.92
386.251	84.82
386.461	80.72
386.671	107.35
386.881	88.92
387.091	90.96
387.301	78.68
387.511	58.2
387.72	9.05
387.93	99.16
388.14	70.48
388.35	64.34
388.56	115.54
388.769	-15.53
388.979	82.77
389.189	52.05
389.399	80.72
389.609	107.35
389.818	52.05
390.028	86.87
390.238	-15.53
390.447	11.09
390.657	70.48
390.867	-5.29
391.076	88.92
391.286	41.81
391.496	35.67
391.705	27.48
391.915	56.15
392.125	76.63
392.334	13.14
392.544	138.07
392.753	97.11
392.963	45.91
393.172	54.1
393.382	58.2
393.591	162.64
393.801	74.58
394.01	95.06
394.22	82.77
394.429	62.29
394.639	103.25
394.848	148.31
395.058	107.35
395.267	125.78
395.477	23.38
395.686	99.16
395.895	131.92
396.105	105.3
396.314	111.44
396.524	109.4
396.733	72.53
396.942	113.49
397.152	54.1
397.361	84.82
397.57	17.24
397.78	127.83
397.989	37.72
398.198	154.45
398.407	82.77
398.617	72.53
398.826	105.3
399.035	113.49
399.244	140.12
399.453	127.83
399.663	95.06
399.872	84.82
400.081	66.39
400.29	111.44
400.499	15.19
400.708	93.01
400.917	119.64
401.127	90.96
401.336	93.01
401.545	121.68
401.754	164.69
401.963	152.4
402.172	107.35
402.381	103.25
402.59	66.39
402.799	95.06
403.008	136.02
403.217	54.1
403.426	97.11
403.635	86.87
403.844	72.53
404.053	138.07
404.262	99.16
404.471	205.65
404.68	131.92
404.888	162.64
405.097	70.48
405.306	197.46
405.515	154.45
405.724	127.83
405.933	197.46
406.142	146.26
406.35	211.79
406.559	140.12
406.768	170.83
406.977	222.03
407.185	193.36
407.394	205.65
407.603	133.97
407.812	228.18
408.02	222.03
408.229	191.31
408.438	154.45
408.646	232.27
408.855	146.26
409.064	203.6
409.272	234.32
409.481	273.23
409.69	217.94
409.898	166.74
410.107	248.66
410.315	269.14
410.524	285.52
410.733	306
410.941	236.37
411.15	314.19
411.358	408.4
411.567	340.82
411.775	314.19
411.984	342.86
412.192	394.06
412.401	373.58
412.609	480.08
412.818	422.73
413.026	453.45
413.234	523.09
413.443	473.93
413.651	412.5
413.86	490.32
414.068	568.14
414.276	598.86
414.485	621.39
414.693	545.61
414.901	680.78
415.11	566.09
415.318	584.52
415.526	662.35
415.734	664.4
415.943	656.2
416.151	777.03
416.359	715.59
416.567	660.3
416.776	787.27
416.984	844.62
417.192	809.8
417.4	914.25
417.608	789.32
417.817	897.86
418.025	994.12
418.233	1045.32
418.441	990.02
418.649	973.64
418.857	1131.33
419.065	1094.47
419.273	1184.58
419.481	1198.92
419.689	1266.5
419.897	1299.27
420.105	1282.88
420.313	1327.94
420.521	1379.14
420.729	1481.53
420.937	1473.34
421.145	1520.45
421.353	1592.13
421.561	1590.08
421.769	1715
421.977	1770.3
422.185	1803.07
422.393	1874.74
422.601	1942.33
422.809	1971
423.017	1884.98
423.224	2087.73
423.432	2151.22
423.64	2173.75
423.848	2298.67
424.056	2204.47
424.263	2532.14
424.471	2595.63
424.679	2491.18
424.887	2667.31
425.094	2841.39
425.302	2732.84
425.51	2865.96
425.718	2988.84
425.925	3115.81
426.133	3162.92
426.341	3324.71
426.548	3431.2
426.756	3398.43
426.964	3545.89
427.171	3726.11
427.379	3826.46
427.586	3912.47
427.794	4059.93
428.001	4234
428.209	4186.9
428.417	4203.29
428.624	4631.31
428.832	4526.86
429.039	4490
429.247	4457.23
429.454	5006.09
429.662	5413.63
429.869	4887.31
430.076	5368.58
430.284	5206.79
430.491	5358.34
430.699	5561.09
430.906	5653.25
431.114	5690.11
431.321	5827.32
431.528	5968.63
431.736	6673.14
431.943	6828.78
432.15	6458.1
432.358	6654.7
432.565	6828.78
432.772	7009
432.979	7490.28
433.187	7240.42
433.394	7420.64
433.601	8004.32
433.808	8030.94
434.016	8133.34
434.223	8303.32
434.43	8846.03
434.637	8567.51
434.844	9149.13
435.052	9394.89
435.259	9315.02
435.466	9390.79
435.673	9284.3
435.88	9835.2
436.087	10418.87
436.294	10508.98
436.501	10085.05
436.708	10345.14
436.915	10795.7
437.122	11186.86
437.329	11104.94
437.537	11739.81
437.743	11752.1
437.95	11520.68
438.157	12389.02
438.364	12696.21
438.571	12493.46
438.778	12616.34
438.985	13648.52
439.192	13474.44
439.399	13888.13
439.606	13478.54
439.813	14158.46
440.02	15096.43
440.227	14744.18
440.433	14989.94
440.64	15092.34
440.847	15278.7
441.054	15422.06
441.261	16515.67
441.467	16282.2
441.674	16521.82
441.881	17097.3
442.088	17087.06
442.294	16859.73
442.501	17470.03
442.708	17683.02
442.914	18598.46
443.121	19345.97
443.328	18821.69
443.534	19997.22
443.741	19403.31
443.948	19290.67
444.154	20724.25
444.361	20515.36
444.568	20566.56
444.774	20648.47
444.981	20851.22
445.187	21459.47
445.394	22278.66
445.6	21944.84
445.807	24396.26
446.013	23273.97
446.22	23888.36
446.426	24652.25
446.633	24754.65
446.839	25496.02
447.046	24764.89
447.252	25522.64
447.459	26110.41
447.665	25790.92
447.871	26894.78
448.078	28025.26
448.284	26855.87
448.491	27478.45
448.697	28330.41
448.903	28969.37
449.11	28774.81
449.316	28576.16
449.522	29063.58
449.728	29991.31
449.935	30187.91
450.141	30083.47
450.347	30435.72
450.553	29489.56
450.76	29444.5
450.966	30740.86
451.172	30222.73
451.378	31213.95
451.584	30577.03
451.791	31121.79
451.997	31099.26
452.203	31791.47
452.409	31611.25
452.615	31240.57
452.821	30169.48
453.027	30036.36
453.233	31613.3
453.44	30405
453.646	30554.5
453.852	30910.85
454.058	31205.75
454.264	29739.41
454.47	31035.77
454.676	30165.39
454.882	30955.9
455.088	28301.73
455.294	28162.47
455.5	28920.22
455.705	29211.03
455.911	28185
456.117	27523.51
456.323	27232.69
456.529	25573.84
456.735	26333.64
456.941	25811.4
457.147	25334.23
457.352	24535.52
457.558	24408.54
457.764	24648.16
457.97	24011.24
458.176	23347.7
458.381	23466.48
458.587	22274.56
458.793	22442.49
458.999	20939.29
459.204	22589.95
459.41	22028.81
459.616	20582.94
459.821	20443.68
460.027	20349.47
460.233	19915.3
460.438	18987.57
460.644	19249.71
460.85	18336.32
461.055	18092.61
461.261	18201.15
461.466	16736.85
461.672	16157.28
461.878	17119.82
462.083	16071.26
462.289	16003.68
462.494	15727.21
462.7	15034.99
462.905	14717.56
463.111	15293.04
463.316	15284.84
463.522	14922.35
463.727	14893.68
463.932	15256.17
464.138	14783.09
464.343	14768.76
464.549	14252.67
464.754	15129.2
464.959	14660.21
465.165	14717.56
465.37	14301.82
465.575	13689.48
465.781	14215.8
465.986	14350.97
466.191	13894.27
466.397	13587.08
466.602	12905.1
466.807	13617.8
467.012	13439.62
467.218	13384.33
467.423	13079.18
467.628	13400.71
467.833	13818.5
468.038	13365.9
468.244	12976.78
468.449	13271.69
468.654	13034.13
468.859	12984.98
469.064	12978.83
469.269	12327.58
469.474	12432.02
