Data from USB4F104151__210__11-10-23-177.txt Node

Date: Wed Mar 12 11:10:23 EDT 2025
User: louis
Spectrometer: USB4F10415
Trigger mode: 4
Integration Time (sec): 2.000000E-2
Scans to average: 1
Electric dark correction enabled: true
Nonlinearity correction enabled: false
Boxcar width: 0
XAxis mode: Wavelengths
Number of Pixels in Spectrum: 3648
>>>>>Begin Spectral Data<<<<<
178.204	-35.67
178.424	-35.67
178.644	-35.67
178.864	-31.57
179.084	-88.92
179.304	-27.48
179.524	48.3
179.744	-2.9
179.964	15.53
180.184	-39.76
180.404	3.24
180.624	-0.85
180.844	-21.33
181.064	7.34
181.283	-50
181.503	-9.05
181.723	76.97
181.943	-74.58
182.163	52.39
182.383	40.11
182.602	-23.38
182.822	3.24
183.042	-2.9
183.262	21.67
183.482	81.07
183.701	-58.2
183.921	122.02
184.141	48.3
184.361	60.59
184.58	38.06
184.8	9.39
185.02	17.58
185.239	68.78
185.459	-43.86
185.679	58.54
185.898	-35.67
186.118	7.34
186.338	76.97
186.557	23.72
186.777	-41.81
186.997	62.63
187.216	56.49
187.436	52.39
187.655	-25.43
187.875	68.78
188.095	50.35
188.314	58.54
188.534	33.96
188.753	-37.72
188.973	-29.52
189.192	60.59
189.412	-17.24
189.631	23.72
189.851	27.82
190.07	31.91
190.29	-33.62
190.509	-0.85
190.729	9.39
190.948	-21.33
191.168	74.92
191.387	91.31
191.607	38.06
191.826	15.53
192.045	5.29
192.265	56.49
192.484	60.59
192.704	1.19
192.923	17.58
193.142	7.34
193.362	56.49
193.581	56.49
193.8	46.25
194.02	97.45
194.239	38.06
194.458	13.48
194.678	5.29
194.897	60.59
195.116	44.2
195.335	-9.05
195.555	54.44
195.774	50.35
195.993	-15.19
196.212	81.07
196.432	23.72
196.651	31.91
196.87	27.82
197.089	85.16
197.308	42.15
197.528	42.15
197.747	1.19
197.966	-21.33
198.185	66.73
198.404	66.73
198.623	7.34
198.842	83.11
199.062	76.97
199.281	58.54
199.5	56.49
199.719	46.25
199.938	-9.05
200.157	56.49
200.376	19.63
200.595	40.11
200.814	15.53
201.033	-52.05
201.252	44.2
201.471	52.39
201.69	46.25
201.909	93.35
202.128	-13.14
202.347	117.93
202.566	-15.19
202.785	-13.14
203.004	5.29
203.223	11.43
203.442	79.02
203.661	68.78
203.879	31.91
204.098	27.82
204.317	13.48
204.536	42.15
204.755	105.64
204.974	5.29
205.193	-27.48
205.411	177.32
205.63	25.77
205.849	17.58
206.068	72.87
206.287	79.02
206.505	-21.33
206.724	-41.81
206.943	60.59
207.162	109.74
207.381	38.06
207.599	62.63
207.818	21.67
208.037	38.06
208.255	42.15
208.474	95.4
208.693	64.68
208.911	60.59
209.13	79.02
209.349	3.24
209.567	54.44
209.786	113.83
210.005	46.25
210.223	27.82
210.442	-9.05
210.661	19.63
210.879	31.91
211.098	66.73
211.316	-33.62
211.535	50.35
211.753	95.4
211.972	-54.1
212.191	27.82
212.409	-13.14
212.628	-19.29
212.846	66.73
213.065	74.92
213.283	56.49
213.502	23.72
213.72	15.53
213.938	46.25
214.157	-4.95
214.375	23.72
214.594	48.3
214.812	15.53
215.031	15.53
215.249	23.72
215.467	-0.85
215.686	27.82
215.904	83.11
216.122	52.39
216.341	72.87
216.559	74.92
216.778	3.24
216.996	46.25
217.214	89.26
217.432	48.3
217.651	19.63
217.869	27.82
218.087	-0.85
218.306	-0.85
218.524	101.55
218.742	15.53
218.96	64.68
219.179	25.77
219.397	-19.29
219.615	38.06
219.833	23.72
220.051	76.97
220.27	70.83
220.488	-39.76
220.706	27.82
220.924	31.91
221.142	58.54
221.36	29.87
221.578	-13.14
221.796	52.39
222.015	13.48
222.233	44.2
222.451	1.19
222.669	46.25
222.887	31.91
223.105	48.3
223.323	-13.14
223.541	-66.39
223.759	48.3
223.977	-29.52
224.195	-9.05
224.413	23.72
224.631	64.68
224.849	-11.09
225.067	70.83
225.285	25.77
225.503	29.87
225.721	-47.96
225.939	-13.14
226.157	72.87
226.375	58.54
226.592	85.16
226.81	36.01
227.028	19.63
227.246	79.02
227.464	40.11
227.682	83.11
227.9	46.25
228.117	64.68
228.335	79.02
228.553	29.87
228.771	19.63
228.989	38.06
229.206	3.24
229.424	13.48
229.642	23.72
229.86	62.63
230.077	74.92
230.295	52.39
230.513	117.93
230.731	72.87
230.948	87.21
231.166	62.63
231.384	-17.24
231.601	62.63
231.819	87.21
232.037	-13.14
232.254	5.29
232.472	40.11
232.689	-4.95
232.907	62.63
233.125	9.39
233.342	29.87
233.56	48.3
233.777	25.77
233.995	48.3
234.213	91.31
234.43	17.58
234.648	13.48
234.865	11.43
235.083	62.63
235.3	29.87
235.518	50.35
235.735	66.73
235.953	79.02
236.17	5.29
236.388	1.19
236.605	50.35
236.822	99.5
237.04	-25.43
237.257	-2.9
237.475	3.24
237.692	-43.86
237.909	-11.09
238.127	27.82
238.344	21.67
238.562	25.77
238.779	-29.52
238.996	13.48
239.214	36.01
239.431	23.72
239.648	-17.24
239.865	29.87
240.083	64.68
240.3	70.83
240.517	1.19
240.735	-25.43
240.952	19.63
241.169	52.39
241.386	130.22
241.603	-29.52
241.821	60.59
242.038	70.83
242.255	74.92
242.472	38.06
242.689	17.58
242.907	42.15
243.124	13.48
243.341	40.11
243.558	7.34
243.775	7.34
243.992	31.91
244.209	128.17
244.426	79.02
244.643	81.07
244.86	81.07
245.078	50.35
245.295	-7
245.512	74.92
245.729	-17.24
245.946	52.39
246.163	72.87
246.38	7.34
246.597	-47.96
246.814	36.01
247.031	-17.24
247.248	23.72
247.464	21.67
247.681	95.4
247.898	-58.2
248.115	46.25
248.332	3.24
248.549	-13.14
248.766	25.77
248.983	60.59
249.2	15.53
249.417	13.48
249.633	15.53
249.85	9.39
250.067	93.35
250.284	1.19
250.501	68.78
250.717	44.2
250.934	83.11
251.151	76.97
251.368	1.19
251.585	46.25
251.801	33.96
252.018	17.58
252.235	99.5
252.451	19.63
252.668	-19.29
252.885	62.63
253.102	25.77
253.318	25.77
253.535	93.35
253.752	-9.05
253.968	-15.19
254.185	-50
254.401	7.34
254.618	64.68
254.835	44.2
255.051	60.59
255.268	21.67
255.484	85.16
255.701	-2.9
255.917	-33.62
256.134	-113.49
256.351	9.39
256.567	52.39
256.784	58.54
257	-19.29
257.217	58.54
257.433	50.35
257.65	31.91
257.866	13.48
258.082	15.53
258.299	17.58
258.515	56.49
258.732	70.83
258.948	38.06
259.165	56.49
259.381	13.48
259.597	93.35
259.814	56.49
260.03	56.49
260.246	60.59
260.463	27.82
260.679	81.07
260.895	7.34
261.112	111.78
261.328	-23.38
261.544	87.21
261.761	62.63
261.977	13.48
262.193	-25.43
262.409	11.43
262.626	-29.52
262.842	17.58
263.058	64.68
263.274	-17.24
263.49	-0.85
263.707	44.2
263.923	-37.72
264.139	44.2
264.355	50.35
264.571	85.16
264.787	-33.62
265.004	97.45
265.22	-33.62
265.436	60.59
265.652	58.54
265.868	40.11
266.084	91.31
266.3	19.63
266.516	-4.95
266.732	93.35
266.948	33.96
267.164	29.87
267.38	42.15
267.596	52.39
267.812	79.02
268.028	36.01
268.244	40.11
268.46	66.73
268.676	58.54
268.892	21.67
269.108	-93.01
269.324	27.82
269.54	95.4
269.756	40.11
269.972	-31.57
270.188	72.87
270.403	40.11
270.619	56.49
270.835	31.91
271.051	36.01
271.267	-50
271.483	62.63
271.698	31.91
271.914	13.48
272.13	42.15
272.346	21.67
272.562	5.29
272.777	15.53
272.993	27.82
273.209	-9.05
273.425	5.29
273.64	66.73
273.856	42.15
274.072	15.53
274.287	11.43
274.503	-11.09
274.719	17.58
274.934	40.11
275.15	50.35
275.366	25.77
275.581	33.96
275.797	52.39
276.012	93.35
276.228	36.01
276.444	44.2
276.659	50.35
276.875	60.59
277.09	15.53
277.306	56.49
277.521	29.87
277.737	-66.39
277.952	74.92
278.168	97.45
278.383	74.92
278.599	87.21
278.814	58.54
279.03	5.29
279.245	48.3
279.461	58.54
279.676	-56.15
279.892	33.96
280.107	66.73
280.322	3.24
280.538	91.31
280.753	-13.14
280.969	15.53
281.184	-47.96
281.399	44.2
281.615	42.15
281.83	17.58
282.045	40.11
282.26	-21.33
282.476	62.63
282.691	-0.85
282.906	79.02
283.122	52.39
283.337	1.19
283.552	81.07
283.767	-4.95
283.983	1.19
284.198	-45.91
284.413	-31.57
284.628	23.72
284.843	31.91
285.058	29.87
285.274	31.91
285.489	68.78
285.704	91.31
285.919	-9.05
286.134	31.91
286.349	19.63
286.564	21.67
286.779	60.59
286.995	27.82
287.21	23.72
287.425	33.96
287.64	56.49
287.855	66.73
288.07	42.15
288.285	48.3
288.5	113.83
288.715	68.78
288.93	-15.19
289.145	36.01
289.36	81.07
289.575	44.2
289.79	81.07
290.004	81.07
290.219	-2.9
290.434	29.87
290.649	42.15
290.864	50.35
291.079	64.68
291.294	38.06
291.509	66.73
291.724	-0.85
291.938	-50
292.153	54.44
292.368	11.43
292.583	62.63
292.798	58.54
293.012	9.39
293.227	99.5
293.442	21.67
293.657	9.39
293.871	-4.95
294.086	74.92
294.301	117.93
294.516	64.68
294.73	7.34
294.945	17.58
295.16	58.54
295.374	36.01
295.589	19.63
295.804	23.72
296.018	-19.29
296.233	50.35
296.447	62.63
296.662	15.53
296.877	48.3
297.091	48.3
297.306	46.25
297.52	19.63
297.735	72.87
297.949	46.25
298.164	19.63
298.378	81.07
298.593	48.3
298.807	109.74
299.022	48.3
299.236	21.67
299.451	58.54
299.665	54.44
299.88	101.55
300.094	68.78
300.309	1.19
300.523	46.25
300.737	56.49
300.952	21.67
301.166	33.96
301.381	89.26
301.595	46.25
301.809	15.53
302.024	64.68
302.238	58.54
302.452	33.96
302.667	15.53
302.881	11.43
303.095	-9.05
303.309	13.48
303.524	31.91
303.738	42.15
303.952	9.39
304.166	33.96
304.381	-33.62
304.595	109.74
304.809	25.77
305.023	31.91
305.237	-31.57
305.452	31.91
305.666	29.87
305.88	-19.29
306.094	27.82
306.308	50.35
306.522	38.06
306.736	40.11
306.95	11.43
307.164	85.16
307.379	66.73
307.593	3.24
307.807	-4.95
308.021	60.59
308.235	54.44
308.449	31.91
308.663	40.11
308.877	42.15
309.091	58.54
309.305	87.21
309.519	58.54
309.733	76.97
309.947	-43.86
310.161	130.22
310.374	-0.85
310.588	64.68
310.802	58.54
311.016	40.11
311.23	38.06
311.444	19.63
311.658	126.12
311.872	64.68
312.085	40.11
312.299	81.07
312.513	64.68
312.727	144.55
312.941	42.15
313.154	97.45
313.368	29.87
313.582	23.72
313.796	-4.95
314.009	58.54
314.223	-62.29
314.437	3.24
314.651	68.78
314.864	23.72
315.078	7.34
315.292	-31.57
315.505	-43.86
315.719	38.06
315.933	64.68
316.146	-35.67
316.36	38.06
316.573	25.77
316.787	-2.9
317.001	9.39
317.214	-50
317.428	122.02
317.641	38.06
317.855	13.48
318.068	81.07
318.282	15.53
318.495	81.07
318.709	44.2
318.922	103.59
319.136	76.97
319.349	44.2
319.563	33.96
319.776	-25.43
319.99	48.3
320.203	40.11
320.417	-43.86
320.63	119.98
320.843	60.59
321.057	25.77
321.27	97.45
321.483	-25.43
321.697	52.39
321.91	52.39
322.124	46.25
322.337	50.35
322.55	54.44
322.763	72.87
322.977	21.67
323.19	85.16
323.403	42.15
323.617	70.83
323.83	13.48
324.043	44.2
324.256	7.34
324.469	25.77
324.683	-2.9
324.896	33.96
325.109	5.29
325.322	-4.95
325.535	128.17
325.748	33.96
325.962	36.01
326.175	3.24
326.388	76.97
326.601	64.68
326.814	68.78
327.027	7.34
327.24	89.26
327.453	-25.43
327.666	50.35
327.879	50.35
328.092	25.77
328.305	-37.72
328.518	15.53
328.731	-2.9
328.944	58.54
329.157	5.29
329.37	-4.95
329.583	29.87
329.796	19.63
330.009	13.48
330.222	72.87
330.435	29.87
330.648	21.67
330.861	144.55
331.073	48.3
331.286	21.67
331.499	36.01
331.712	9.39
331.925	93.35
332.138	93.35
332.35	15.53
332.563	17.58
332.776	-15.19
332.989	11.43
333.202	44.2
333.414	31.91
333.627	62.63
333.84	36.01
334.053	91.31
334.265	21.67
334.478	72.87
334.691	-2.9
334.903	29.87
335.116	3.24
335.329	83.11
335.541	40.11
335.754	-0.85
335.966	-0.85
336.179	128.17
336.392	38.06
336.604	-13.14
336.817	9.39
337.029	19.63
337.242	64.68
337.454	46.25
337.667	79.02
337.88	60.59
338.092	7.34
338.305	58.54
338.517	33.96
338.729	15.53
338.942	101.55
339.154	83.11
339.367	40.11
339.579	25.77
339.792	42.15
340.004	124.07
340.217	68.78
340.429	44.2
340.641	33.96
340.854	27.82
341.066	52.39
341.278	21.67
341.491	95.4
341.703	19.63
341.915	19.63
342.128	27.82
342.34	128.17
342.552	33.96
342.764	-11.09
342.977	25.77
343.189	52.39
343.401	111.78
343.613	31.91
343.826	99.5
344.038	-33.62
344.25	5.29
344.462	48.3
344.674	29.87
344.886	27.82
345.099	95.4
345.311	56.49
345.523	25.77
345.735	48.3
345.947	113.83
346.159	91.31
346.371	38.06
346.583	48.3
346.795	87.21
347.007	5.29
347.219	60.59
347.431	-13.14
347.643	119.98
347.855	89.26
348.067	54.44
348.279	54.44
348.491	97.45
348.703	-7
348.915	79.02
349.127	-27.48
349.339	25.77
349.551	3.24
349.763	72.87
349.975	-0.85
350.187	36.01
350.399	38.06
350.61	79.02
350.822	15.53
351.034	56.49
351.246	-7
351.458	23.72
351.669	64.68
351.881	85.16
352.093	74.92
352.305	29.87
352.517	76.97
352.728	79.02
352.94	11.43
353.152	-2.9
353.363	54.44
353.575	19.63
353.787	76.97
353.999	33.96
354.21	36.01
354.422	138.41
354.633	-45.91
354.845	48.3
355.057	52.39
355.268	48.3
355.48	52.39
355.692	64.68
355.903	87.21
356.115	74.92
356.326	52.39
356.538	97.45
356.749	68.78
356.961	113.83
357.172	64.68
357.384	48.3
357.595	152.74
357.807	64.68
358.018	3.24
358.23	89.26
358.441	23.72
358.653	50.35
358.864	3.24
359.075	-4.95
359.287	58.54
359.498	19.63
359.709	42.15
359.921	72.87
360.132	42.15
360.344	54.44
360.555	68.78
360.766	54.44
360.977	40.11
361.189	87.21
361.4	64.68
361.611	95.4
361.823	76.97
362.034	76.97
362.245	25.77
362.456	-2.9
362.667	38.06
362.879	42.15
363.09	44.2
363.301	62.63
363.512	11.43
363.723	5.29
363.935	64.68
364.146	-0.85
364.357	50.35
364.568	83.11
364.779	5.29
364.99	113.83
365.201	58.54
365.412	105.64
365.623	44.2
365.834	76.97
366.045	97.45
366.256	23.72
366.467	-9.05
366.678	17.58
366.889	50.35
367.1	60.59
367.311	70.83
367.522	25.77
367.733	79.02
367.944	115.88
368.155	95.4
368.366	105.64
368.577	52.39
368.788	48.3
368.999	27.82
369.209	60.59
369.42	105.64
369.631	85.16
369.842	54.44
370.053	81.07
370.264	25.77
370.474	36.01
370.685	54.44
370.896	74.92
371.107	36.01
371.317	21.67
371.528	52.39
371.739	42.15
371.95	72.87
372.16	109.74
372.371	36.01
372.582	81.07
372.792	113.83
373.003	60.59
373.214	50.35
373.424	111.78
373.635	11.43
373.846	48.3
374.056	40.11
374.267	44.2
374.477	-9.05
374.688	79.02
374.898	50.35
375.109	109.74
375.319	111.78
375.53	74.92
375.74	46.25
375.951	5.29
376.161	-13.14
376.372	111.78
376.582	40.11
376.793	64.68
377.003	72.87
377.214	136.36
377.424	62.63
377.635	89.26
377.845	64.68
378.055	15.53
378.266	-52.05
378.476	-17.24
378.686	54.44
378.897	62.63
379.107	44.2
379.317	74.92
379.528	38.06
379.738	91.31
379.948	87.21
380.158	91.31
380.369	93.35
380.579	62.63
380.789	5.29
380.999	85.16
381.21	97.45
381.42	101.55
381.63	17.58
381.84	72.87
382.05	146.6
382.261	81.07
382.471	119.98
382.681	50.35
382.891	85.16
383.101	95.4
383.311	46.25
383.521	-45.91
383.731	5.29
383.941	40.11
384.151	68.78
384.361	76.97
384.571	48.3
384.781	83.11
384.991	99.5
385.201	122.02
385.411	58.54
385.621	64.68
385.831	-0.85
386.041	38.06
386.251	48.3
386.461	76.97
386.671	62.63
386.881	83.11
387.091	21.67
387.301	97.45
387.511	62.63
387.72	146.6
387.93	40.11
388.14	89.26
388.35	56.49
388.56	89.26
388.769	115.88
388.979	113.83
389.189	44.2
389.399	117.93
389.609	148.65
389.818	91.31
390.028	79.02
390.238	107.69
390.447	81.07
390.657	48.3
390.867	23.72
391.076	29.87
391.286	150.7
391.496	25.77
391.705	7.34
391.915	109.74
392.125	1.19
392.334	23.72
392.544	52.39
392.753	58.54
392.963	33.96
393.172	138.41
393.382	15.53
393.591	132.26
393.801	29.87
394.01	103.59
394.22	36.01
394.429	89.26
394.639	15.53
394.848	91.31
395.058	60.59
395.267	29.87
395.477	152.74
395.686	83.11
395.895	68.78
396.105	72.87
396.314	58.54
396.524	66.73
396.733	154.79
396.942	122.02
397.152	154.79
397.361	181.42
397.57	66.73
397.78	105.64
397.989	99.5
398.198	111.78
398.407	101.55
398.617	171.18
398.826	152.74
399.035	101.55
399.244	107.69
399.453	97.45
399.663	115.88
399.872	136.36
400.081	199.85
400.29	95.4
400.499	52.39
400.708	122.02
400.917	83.11
401.127	97.45
401.336	119.98
401.545	52.39
401.754	185.51
401.963	103.59
402.172	103.59
402.381	162.98
402.59	128.17
402.799	130.22
403.008	111.78
403.217	130.22
403.426	122.02
403.635	85.16
403.844	181.42
404.053	158.89
404.262	76.97
404.471	154.79
404.68	132.26
404.888	142.5
405.097	142.5
405.306	201.9
405.515	144.55
405.724	136.36
405.933	199.85
406.142	175.27
406.35	136.36
406.559	179.37
406.768	195.75
406.977	238.76
407.185	210.09
407.394	242.85
407.603	179.37
407.812	261.29
408.02	154.79
408.229	332.97
408.438	265.38
408.646	261.29
408.855	220.33
409.064	279.72
409.272	257.19
409.481	263.33
409.69	296.1
409.898	251.05
410.107	255.14
410.315	363.69
410.524	306.34
410.733	375.97
410.941	355.49
411.15	400.55
411.358	394.4
411.567	335.01
411.775	322.73
411.984	404.64
412.192	451.75
412.401	363.69
412.609	441.51
412.818	470.18
413.026	504.99
413.234	427.17
413.443	410.79
413.651	572.58
413.86	515.23
414.068	638.11
414.276	609.44
414.485	550.05
414.693	654.5
414.901	720.03
415.11	658.59
415.318	732.32
415.526	732.32
415.734	828.57
415.943	830.62
416.151	832.67
416.359	728.22
416.567	865.44
416.776	949.4
416.984	851.1
417.192	982.17
417.4	988.32
417.608	1002.65
417.817	928.92
418.025	1084.57
418.233	1182.87
418.441	1049.75
418.649	1084.57
418.857	1191.06
419.065	1287.32
419.273	1201.3
419.481	1408.15
419.689	1385.62
419.897	1451.16
420.105	1494.16
420.313	1569.94
420.521	1533.08
420.729	1614.99
420.937	1658
421.145	1731.73
421.353	1797.26
421.561	1850.51
421.769	1819.79
421.977	2010.25
422.185	2012.3
422.393	2221.19
422.601	2194.57
422.809	2202.76
423.017	2350.21
423.224	2428.04
423.432	2405.51
423.64	2421.89
423.848	2688.13
424.056	2552.96
424.263	2753.66
424.471	2749.57
424.679	2813.06
424.887	2913.41
425.094	3226.75
425.302	2970.75
425.51	3200.12
425.718	3394.68
425.925	3437.69
426.133	3511.41
426.341	3613.81
426.548	3855.47
426.756	3947.63
426.964	3875.95
427.171	4320.36
427.379	4246.63
427.586	4164.72
427.794	4439.14
428.001	4705.38
428.209	4732
428.417	4744.29
428.624	4953.18
428.832	5125.21
429.039	5043.29
429.247	5102.68
429.454	5512.28
429.662	5878.86
429.869	5551.19
430.076	5950.54
430.284	5880.91
430.491	5983.31
430.699	6331.47
430.906	6290.51
431.114	6437.96
431.321	6761.54
431.528	6773.83
431.736	7203.9
431.943	7713.84
432.15	7310.4
432.358	7351.35
432.565	7916.59
432.772	7816.24
432.979	8027.18
433.187	8264.75
433.394	8438.83
433.601	8807.46
433.808	8832.04
434.016	8764.45
434.223	9153.57
434.43	9858.07
434.637	9581.59
434.844	10236.94
435.052	10636.3
435.259	10427.4
435.466	10365.96
435.673	10318.86
435.88	11117.57
436.087	11637.75
436.294	11527.16
436.501	11269.12
436.708	11467.77
436.915	11891.7
437.122	12614.63
437.329	12301.29
437.537	12919.78
437.743	12962.79
437.95	13040.61
438.157	13634.52
438.364	14281.68
438.571	13962.2
438.778	14109.65
438.985	15371.2
439.192	14928.84
439.399	15553.47
439.606	14765
439.813	15831.99
440.02	16653.23
440.227	16542.64
440.433	16167.86
440.64	16982.95
440.847	16903.08
441.054	17046.44
441.261	18318.23
441.467	18060.18
441.674	18492.3
441.881	19209.09
442.088	19174.28
442.294	18787.21
442.501	19405.7
442.708	19872.64
442.914	20513.65
443.121	21390.18
443.328	20867.95
443.534	22383.45
443.741	21494.63
443.948	21361.51
444.154	22891.34
444.361	22803.28
444.568	23046.99
444.774	22729.55
444.981	23216.97
445.187	23964.48
445.394	24988.46
445.6	24595.25
445.807	27003.66
446.013	25588.52
446.22	26454.81
446.426	27044.62
446.633	27458.31
446.839	28224.25
447.046	27069.2
447.252	28513.02
447.459	28707.57
447.665	28797.68
447.871	29649.64
448.078	31032.02
448.284	29760.23
448.491	30331.61
448.697	31398.6
448.903	31652.55
449.11	32142.02
449.316	31494.86
449.522	32082.63
449.728	32780.98
449.935	33538.73
450.141	33219.25
450.347	33718.95
450.553	32541.37
450.76	33469.1
450.966	34155.17
451.172	34124.45
451.378	34683.55
451.584	34095.78
451.791	34626.2
451.997	34939.54
452.203	35209.87
452.409	35402.38
452.615	35140.24
452.821	33911.46
453.027	33452.72
453.233	35246.74
453.44	34017.96
453.646	34486.94
453.852	34452.12
454.058	34927.25
454.264	33663.66
454.47	34808.47
454.676	33782.44
454.882	35023.51
455.088	32000.71
455.294	32107.2
455.5	32322.24
455.705	33204.91
455.911	31605.45
456.117	31070.93
456.323	30515.93
456.529	28930.8
456.735	29870.82
456.941	29151.98
457.147	28904.18
457.352	28134.14
457.558	27527.94
457.764	27951.87
457.97	27175.69
458.176	26614.55
458.381	26745.62
458.587	25529.13
458.793	25381.67
458.999	24138.55
459.204	25791.27
459.41	25154.35
459.616	23798.59
459.821	23620.42
460.027	23317.32
460.233	22799.18
460.438	21816.16
460.644	22068.06
460.85	21027.69
461.055	20628.34
461.261	20632.43
461.466	18946.95
461.672	18508.69
461.878	19917.69
462.083	18674.57
462.289	18201.49
462.494	18086.81
462.7	17589.15
462.905	16948.14
463.111	17392.55
463.316	17396.64
463.522	17056.68
463.727	16870.31
463.932	16950.18
464.138	16872.36
464.343	16991.14
464.549	16305.07
464.754	17189.8
464.959	16804.78
465.165	16466.86
465.37	16151.48
465.575	15711.16
465.781	16241.59
465.986	16233.39
466.191	15621.05
466.397	15393.73
466.602	14500.81
466.807	15246.27
467.012	15313.86
467.218	15137.73
467.423	14738.38
467.628	15289.28
467.833	15688.64
468.038	15025.09
