Data from USB4F104151__155__11-08-28-690.txt Node

Date: Wed Mar 12 11:08:28 EDT 2025
User: louis
Spectrometer: USB4F10415
Trigger mode: 4
Integration Time (sec): 2.000000E-2
Scans to average: 1
Electric dark correction enabled: true
Nonlinearity correction enabled: false
Boxcar width: 0
XAxis mode: Wavelengths
Number of Pixels in Spectrum: 3648
>>>>>Begin Spectral Data<<<<<
178.204	-63.49
178.424	-63.49
178.644	-63.49
178.864	-34.82
179.084	-24.58
179.304	2.05
179.524	-20.48
179.744	49.15
179.964	55.3
180.184	-53.25
180.404	18.43
180.624	2.05
180.844	-47.1
181.064	-28.67
181.283	10.24
181.503	20.48
181.723	-8.19
181.943	-59.39
182.163	0
182.383	-24.58
182.602	22.53
182.822	57.34
183.042	-16.38
183.262	-36.86
183.482	14.34
183.701	8.19
183.921	4.1
184.141	96.25
184.361	96.25
184.58	20.48
184.8	45.06
185.02	79.87
185.239	75.77
185.459	-24.58
185.679	-2.05
185.898	-6.14
186.118	26.62
186.338	-24.58
186.557	59.39
186.777	14.34
186.997	-6.14
187.216	-69.63
187.436	40.96
187.655	10.24
187.875	34.82
188.095	53.25
188.314	83.97
188.534	55.3
188.753	-16.38
188.973	-8.19
189.192	47.1
189.412	-8.19
189.631	-2.05
189.851	12.29
190.07	4.1
190.29	0
190.509	28.67
190.729	67.58
190.948	49.15
191.168	92.16
191.387	63.49
191.607	43.01
191.826	28.67
192.045	4.1
192.265	38.91
192.484	20.48
192.704	-6.14
192.923	0
193.142	26.62
193.362	55.3
193.581	20.48
193.8	20.48
194.02	-8.19
194.239	-6.14
194.458	51.2
194.678	45.06
194.897	24.58
195.116	67.58
195.335	81.92
195.555	2.05
195.774	-75.77
195.993	-24.58
196.212	-24.58
196.432	-8.19
196.651	77.82
196.87	4.1
197.089	73.73
197.308	-4.1
197.528	-8.19
197.747	-20.48
197.966	-12.29
198.185	34.82
198.404	24.58
198.623	-8.19
198.842	6.14
199.062	36.86
199.281	26.62
199.5	0
199.719	8.19
199.938	6.14
200.157	22.53
200.376	-8.19
200.595	2.05
200.814	38.91
201.033	-2.05
201.252	16.38
201.471	-20.48
201.69	45.06
201.909	6.14
202.128	8.19
202.347	51.2
202.566	-6.14
202.785	47.1
203.004	6.14
203.223	51.2
203.442	-16.38
203.661	20.48
203.879	20.48
204.098	20.48
204.317	-4.1
204.536	94.21
204.755	-12.29
204.974	20.48
205.193	0
205.411	53.25
205.63	-10.24
205.849	73.73
206.068	-4.1
206.287	40.96
206.505	24.58
206.724	38.91
206.943	-38.91
207.162	-32.77
207.381	30.72
207.599	0
207.818	16.38
208.037	0
208.255	-12.29
208.474	8.19
208.693	10.24
208.911	16.38
209.13	8.19
209.349	57.34
209.567	-18.43
209.786	63.49
210.005	59.39
210.223	-45.06
210.442	24.58
210.661	-16.38
210.879	-22.53
211.098	-30.72
211.316	47.1
211.535	77.82
211.753	59.39
211.972	6.14
212.191	-14.34
212.409	-8.19
212.628	-14.34
212.846	6.14
213.065	47.1
213.283	45.06
213.502	32.77
213.72	14.34
213.938	10.24
214.157	73.73
214.375	12.29
214.594	4.1
214.812	28.67
215.031	43.01
215.249	81.92
215.467	-4.1
215.686	12.29
215.904	51.2
216.122	22.53
216.341	34.82
216.559	55.3
216.778	43.01
216.996	26.62
217.214	6.14
217.432	0
217.651	6.14
217.869	-18.43
218.087	2.05
218.306	36.86
218.524	86.01
218.742	24.58
218.96	-4.1
219.179	0
219.397	34.82
219.615	40.96
219.833	36.86
220.051	28.67
220.27	20.48
220.488	-4.1
220.706	16.38
220.924	-38.91
221.142	6.14
221.36	45.06
221.578	-4.1
221.796	-10.24
222.015	30.72
222.233	-2.05
222.451	16.38
222.669	-10.24
222.887	4.1
223.105	-12.29
223.323	49.15
223.541	-12.29
223.759	20.48
223.977	51.2
224.195	55.3
224.413	-2.05
224.631	43.01
224.849	-77.82
225.067	40.96
225.285	-8.19
225.503	53.25
225.721	12.29
225.939	43.01
226.157	-22.53
226.375	75.77
226.592	-55.3
226.81	0
227.028	-8.19
227.246	81.92
227.464	-10.24
227.682	47.1
227.9	10.24
228.117	55.3
228.335	-2.05
228.553	-24.58
228.771	-10.24
228.989	-61.44
229.206	8.19
229.424	-12.29
229.642	-30.72
229.86	-28.67
230.077	77.82
230.295	32.77
230.513	20.48
230.731	34.82
230.948	96.25
231.166	8.19
231.384	-30.72
231.601	-6.14
231.819	61.44
232.037	-4.1
232.254	12.29
232.472	-8.19
232.689	10.24
232.907	59.39
233.125	63.49
233.342	8.19
233.56	8.19
233.777	24.58
233.995	4.1
234.213	59.39
234.43	67.58
234.648	-8.19
234.865	57.34
235.083	57.34
235.3	-30.72
235.518	61.44
235.735	-36.86
235.953	104.45
236.17	67.58
236.388	24.58
236.605	10.24
236.822	22.53
237.04	36.86
237.257	2.05
237.475	-28.67
237.692	-69.63
237.909	65.54
238.127	8.19
238.344	-24.58
238.562	43.01
238.779	20.48
238.996	32.77
239.214	-10.24
239.431	67.58
239.648	55.3
239.865	-67.58
240.083	0
240.3	2.05
240.517	40.96
240.735	28.67
240.952	43.01
241.169	-10.24
241.386	36.86
241.603	-4.1
241.821	18.43
242.038	45.06
242.255	20.48
242.472	63.49
242.689	32.77
242.907	34.82
243.124	73.73
243.341	61.44
243.558	-20.48
243.775	-10.24
243.992	-32.77
244.209	12.29
244.426	65.54
244.643	2.05
244.86	36.86
245.078	47.1
245.295	20.48
245.512	6.14
245.729	24.58
245.946	20.48
246.163	14.34
246.38	0
246.597	10.24
246.814	-36.86
247.031	28.67
247.248	69.63
247.464	-4.1
247.681	20.48
247.898	38.91
248.115	40.96
248.332	53.25
248.549	34.82
248.766	51.2
248.983	28.67
249.2	40.96
249.417	6.14
249.633	-28.67
249.85	14.34
250.067	6.14
250.284	-8.19
250.501	47.1
250.717	30.72
250.934	28.67
251.151	57.34
251.368	10.24
251.585	24.58
251.801	45.06
252.018	6.14
252.235	-12.29
252.451	53.25
252.668	-22.53
252.885	-16.38
253.102	-30.72
253.318	51.2
253.535	26.62
253.752	-8.19
253.968	43.01
254.185	118.78
254.401	-26.62
254.618	88.06
254.835	75.77
255.051	30.72
255.268	4.1
255.484	77.82
255.701	-12.29
255.917	4.1
256.134	-8.19
256.351	63.49
256.567	16.38
256.784	77.82
257	-20.48
257.217	-32.77
257.433	38.91
257.65	-14.34
257.866	0
258.082	90.11
258.299	-12.29
258.515	55.3
258.732	28.67
258.948	47.1
259.165	-26.62
259.381	51.2
259.597	-14.34
259.814	-47.1
260.03	30.72
260.246	-36.86
260.463	2.05
260.679	-4.1
260.895	26.62
261.112	16.38
261.328	0
261.544	73.73
261.761	73.73
261.977	30.72
262.193	-43.01
262.409	30.72
262.626	38.91
262.842	24.58
263.058	12.29
263.274	-59.39
263.49	34.82
263.707	102.4
263.923	65.54
264.139	16.38
264.355	24.58
264.571	65.54
264.787	104.45
265.004	79.87
265.22	47.1
265.436	22.53
265.652	-59.39
265.868	49.15
266.084	-12.29
266.3	26.62
266.516	20.48
266.732	-40.96
266.948	24.58
267.164	18.43
267.38	45.06
267.596	-47.1
267.812	53.25
268.028	51.2
268.244	32.77
268.46	69.63
268.676	2.05
268.892	75.77
269.108	12.29
269.324	-43.01
269.54	-18.43
269.756	12.29
269.972	-79.87
270.188	73.73
270.403	75.77
270.619	26.62
270.835	57.34
271.051	106.49
271.267	-12.29
271.483	73.73
271.698	65.54
271.914	16.38
272.13	43.01
272.346	10.24
272.562	-4.1
272.777	63.49
272.993	51.2
273.209	-18.43
273.425	-2.05
273.64	2.05
273.856	14.34
274.072	-43.01
274.287	0
274.503	10.24
274.719	40.96
274.934	30.72
275.15	55.3
275.366	12.29
275.581	32.77
275.797	81.92
276.012	67.58
276.228	18.43
276.444	45.06
276.659	55.3
276.875	26.62
277.09	14.34
277.306	0
277.521	34.82
277.737	-12.29
277.952	-22.53
278.168	8.19
278.383	-77.82
278.599	-6.14
278.814	28.67
279.03	-14.34
279.245	14.34
279.461	12.29
279.676	-4.1
279.892	-8.19
280.107	45.06
280.322	34.82
280.538	32.77
280.753	-61.44
280.969	36.86
281.184	57.34
281.399	26.62
281.615	12.29
281.83	61.44
282.045	-51.2
282.26	-16.38
282.476	12.29
282.691	57.34
282.906	59.39
283.122	32.77
283.337	18.43
283.552	16.38
283.767	-4.1
283.983	53.25
284.198	0
284.413	47.1
284.628	-26.62
284.843	34.82
285.058	-4.1
285.274	47.1
285.489	32.77
285.704	24.58
285.919	-49.15
286.134	-6.14
286.349	8.19
286.564	-32.77
286.779	81.92
286.995	16.38
287.21	-10.24
287.425	92.16
287.64	-16.38
287.855	-22.53
288.07	40.96
288.285	34.82
288.5	45.06
288.715	40.96
288.93	-2.05
289.145	10.24
289.36	22.53
289.575	63.49
289.79	4.1
290.004	24.58
290.219	53.25
290.434	24.58
290.649	32.77
290.864	30.72
291.079	49.15
291.294	51.2
291.509	30.72
291.724	118.78
291.938	94.21
292.153	90.11
292.368	-12.29
292.583	8.19
292.798	53.25
293.012	-69.63
293.227	-20.48
293.442	6.14
293.657	24.58
293.871	38.91
294.086	-8.19
294.301	8.19
294.516	45.06
294.73	38.91
294.945	-104.45
295.16	98.3
295.374	-10.24
295.589	-45.06
295.804	18.43
296.018	43.01
296.233	47.1
296.447	12.29
296.662	-12.29
296.877	73.73
297.091	-24.58
297.306	28.67
297.52	-8.19
297.735	18.43
297.949	51.2
298.164	94.21
298.378	-22.53
298.593	-22.53
298.807	-12.29
299.022	61.44
299.236	55.3
299.451	8.19
299.665	-12.29
299.88	20.48
300.094	18.43
300.309	38.91
300.523	-36.86
300.737	88.06
300.952	32.77
301.166	22.53
301.381	26.62
301.595	24.58
301.809	20.48
302.024	8.19
302.238	36.86
302.452	47.1
302.667	-18.43
302.881	110.59
303.095	12.29
303.309	43.01
303.524	-36.86
303.738	-49.15
303.952	34.82
304.166	8.19
304.381	-34.82
304.595	40.96
304.809	63.49
305.023	55.3
305.237	71.68
305.452	94.21
305.666	12.29
305.88	59.39
306.094	47.1
306.308	96.25
306.522	-75.77
306.736	12.29
306.95	-45.06
307.164	34.82
307.379	43.01
307.593	45.06
307.807	86.01
308.021	100.35
308.235	71.68
308.449	-14.34
308.663	-6.14
308.877	0
309.091	-6.14
309.305	-30.72
309.519	-92.16
309.733	141.31
309.947	-26.62
310.161	75.77
310.374	79.87
310.588	18.43
310.802	26.62
311.016	81.92
311.23	92.16
311.444	75.77
311.658	55.3
311.872	53.25
312.085	49.15
312.299	73.73
312.513	24.58
312.727	57.34
312.941	-61.44
313.154	65.54
313.368	4.1
313.582	100.35
313.796	32.77
314.009	16.38
314.223	71.68
314.437	-6.14
314.651	18.43
314.864	-22.53
315.078	6.14
315.292	-22.53
315.505	49.15
315.719	67.58
315.933	18.43
316.146	65.54
316.36	-51.2
316.573	20.48
316.787	24.58
317.001	81.92
317.214	-51.2
317.428	28.67
317.641	-55.3
317.855	18.43
318.068	53.25
318.282	83.97
318.495	40.96
318.709	79.87
318.922	45.06
319.136	75.77
319.349	-26.62
319.563	53.25
319.776	4.1
319.99	6.14
320.203	12.29
320.417	20.48
320.63	-16.38
320.843	49.15
321.057	59.39
321.27	38.91
321.483	73.73
321.697	22.53
321.91	102.4
322.124	61.44
322.337	-20.48
322.55	-26.62
322.763	16.38
322.977	12.29
323.19	-26.62
323.403	-16.38
323.617	16.38
323.83	-10.24
324.043	-14.34
324.256	-8.19
324.469	8.19
324.683	59.39
324.896	71.68
325.109	47.1
325.322	24.58
325.535	-14.34
325.748	-18.43
325.962	-10.24
326.175	-6.14
326.388	49.15
326.601	49.15
326.814	32.77
327.027	61.44
327.24	106.49
327.453	-49.15
327.666	-20.48
327.879	36.86
328.092	4.1
328.305	51.2
328.518	6.14
328.731	51.2
328.944	-51.2
329.157	38.91
329.37	-36.86
329.583	83.97
329.796	106.49
330.009	-18.43
330.222	77.82
330.435	49.15
330.648	32.77
330.861	49.15
331.073	73.73
331.286	104.45
331.499	-14.34
331.712	14.34
331.925	-20.48
332.138	65.54
332.35	40.96
332.563	-38.91
332.776	16.38
332.989	-4.1
333.202	65.54
333.414	-34.82
333.627	59.39
333.84	24.58
334.053	47.1
334.265	-12.29
334.478	38.91
334.691	53.25
334.903	51.2
335.116	-36.86
335.329	8.19
335.541	59.39
335.754	83.97
335.966	38.91
336.179	-6.14
336.392	-59.39
336.604	38.91
336.817	12.29
337.029	22.53
337.242	77.82
337.454	-20.48
337.667	40.96
337.88	90.11
338.092	-30.72
338.305	57.34
338.517	-12.29
338.729	57.34
338.942	32.77
339.154	36.86
339.367	71.68
339.579	86.01
339.792	34.82
340.004	69.63
340.217	-28.67
340.429	14.34
340.641	45.06
340.854	73.73
341.066	59.39
341.278	96.25
341.491	57.34
341.703	32.77
341.915	38.91
342.128	77.82
342.34	-26.62
342.552	10.24
342.764	61.44
342.977	32.77
343.189	-20.48
343.401	57.34
343.613	-26.62
343.826	-14.34
344.038	38.91
344.25	20.48
344.462	8.19
344.674	55.3
344.886	47.1
345.099	24.58
345.311	36.86
345.523	63.49
345.735	6.14
345.947	-2.05
346.159	47.1
346.371	14.34
346.583	51.2
346.795	75.77
347.007	-55.3
347.219	40.96
347.431	-20.48
347.643	102.4
347.855	0
348.067	51.2
348.279	-22.53
348.491	-6.14
348.703	-4.1
348.915	4.1
349.127	-20.48
349.339	47.1
349.551	-18.43
349.763	18.43
349.975	73.73
350.187	28.67
350.399	0
350.61	63.49
350.822	10.24
351.034	63.49
351.246	55.3
351.458	22.53
351.669	75.77
351.881	59.39
352.093	14.34
352.305	51.2
352.517	34.82
352.728	77.82
352.94	-67.58
353.152	-20.48
353.363	6.14
353.575	16.38
353.787	73.73
353.999	75.77
354.21	53.25
354.422	-6.14
354.633	36.86
354.845	24.58
355.057	49.15
355.268	61.44
355.48	22.53
355.692	16.38
355.903	-14.34
356.115	2.05
356.326	-49.15
356.538	88.06
356.749	67.58
356.961	81.92
357.172	81.92
357.384	45.06
357.595	24.58
357.807	20.48
358.018	12.29
358.23	36.86
358.441	79.87
358.653	6.14
358.864	-10.24
359.075	14.34
359.287	63.49
359.498	100.35
359.709	14.34
359.921	86.01
360.132	-8.19
360.344	10.24
360.555	-40.96
360.766	-16.38
360.977	26.62
361.189	55.3
361.4	83.97
361.611	0
361.823	57.34
362.034	26.62
362.245	-16.38
362.456	69.63
362.667	8.19
362.879	4.1
363.09	-8.19
363.301	102.4
363.512	65.54
363.723	-12.29
363.935	-6.14
364.146	34.82
364.357	32.77
364.568	-30.72
364.779	-18.43
364.99	4.1
365.201	-51.2
365.412	96.25
365.623	79.87
365.834	88.06
366.045	0
366.256	6.14
366.467	20.48
366.678	2.05
366.889	96.25
367.1	-12.29
367.311	104.45
367.522	-24.58
367.733	30.72
367.944	67.58
368.155	32.77
368.366	71.68
368.577	16.38
368.788	106.49
368.999	45.06
369.209	36.86
369.42	-6.14
369.631	55.3
369.842	24.58
370.053	2.05
370.264	71.68
370.474	57.34
370.685	14.34
370.896	57.34
371.107	67.58
371.317	57.34
371.528	34.82
371.739	100.35
371.95	28.67
372.16	22.53
372.371	8.19
372.582	30.72
372.792	-2.05
373.003	49.15
373.214	88.06
373.424	92.16
373.635	-10.24
373.846	94.21
374.056	-20.48
374.267	-2.05
374.477	2.05
374.688	69.63
374.898	59.39
375.109	79.87
375.319	96.25
375.53	55.3
375.74	49.15
375.951	55.3
376.161	-22.53
376.372	18.43
376.582	26.62
376.793	51.2
377.003	55.3
377.214	118.78
377.424	110.59
377.635	40.96
377.845	65.54
378.055	77.82
378.266	59.39
378.476	45.06
378.686	20.48
378.897	-12.29
379.107	63.49
379.317	61.44
379.528	-16.38
379.738	94.21
379.948	-57.34
380.158	51.2
380.369	30.72
380.579	73.73
380.789	67.58
380.999	71.68
381.21	28.67
381.42	69.63
381.63	14.34
381.84	2.05
382.05	18.43
382.261	57.34
382.471	34.82
382.681	43.01
382.891	63.49
383.101	94.21
383.311	0
383.521	4.1
383.731	32.77
383.941	40.96
384.151	8.19
384.361	8.19
384.571	57.34
384.781	69.63
384.991	75.77
385.201	36.86
385.411	98.3
385.621	69.63
385.831	-16.38
386.041	96.25
386.251	10.24
386.461	8.19
386.671	63.49
386.881	4.1
387.091	38.91
387.301	61.44
387.511	28.67
387.72	34.82
387.93	81.92
388.14	-4.1
388.35	-59.39
388.56	40.96
388.769	14.34
388.979	55.3
389.189	36.86
389.399	0
389.609	79.87
389.818	126.97
390.028	65.54
390.238	61.44
390.447	30.72
390.657	59.39
390.867	0
391.076	43.01
391.286	-2.05
391.496	59.39
391.705	43.01
391.915	63.49
392.125	6.14
392.334	-10.24
392.544	73.73
392.753	67.58
392.963	-2.05
393.172	-8.19
393.382	12.29
393.591	94.21
393.801	-4.1
394.01	77.82
394.22	30.72
394.429	28.67
394.639	71.68
394.848	10.24
395.058	124.93
395.267	112.64
395.477	102.4
395.686	32.77
395.895	32.77
396.105	77.82
396.314	30.72
396.524	38.91
396.733	-4.1
396.942	75.77
397.152	100.35
397.361	32.77
397.57	83.97
397.78	53.25
397.989	45.06
398.198	141.31
398.407	51.2
398.617	43.01
398.826	57.34
399.035	108.54
399.244	75.77
399.453	75.77
399.663	139.26
399.872	124.93
400.081	-32.77
400.29	98.3
400.499	81.92
400.708	98.3
400.917	102.4
401.127	26.62
401.336	102.4
401.545	118.78
401.754	88.06
401.963	40.96
402.172	40.96
402.381	110.59
402.59	94.21
402.799	55.3
403.008	98.3
403.217	96.25
403.426	86.01
403.635	49.15
403.844	100.35
404.053	86.01
404.262	34.82
404.471	157.69
404.68	71.68
404.888	69.63
405.097	110.59
405.306	79.87
405.515	141.31
405.724	96.25
405.933	131.07
406.142	118.78
406.35	67.58
406.559	94.21
406.768	120.83
406.977	106.49
407.185	137.21
407.394	192.51
407.603	176.13
407.812	186.37
408.02	192.51
408.229	182.27
408.438	176.13
408.646	223.23
408.855	172.03
409.064	217.08
409.272	112.64
409.481	169.98
409.69	83.97
409.898	221.18
410.107	196.61
410.315	231.42
410.524	219.13
410.733	208.89
410.941	249.85
411.15	212.99
411.358	280.57
411.567	294.91
411.775	262.14
411.984	299
412.192	270.33
412.401	337.91
412.609	258.04
412.818	344.06
413.026	337.91
413.234	323.58
413.443	337.91
413.651	278.52
413.86	337.91
414.068	374.78
414.276	462.84
414.485	380.92
414.693	425.98
414.901	503.8
415.11	446.46
415.318	430.07
415.526	464.89
415.734	499.7
415.943	475.13
416.151	561.14
416.359	546.81
416.567	618.49
416.776	632.82
416.984	636.92
417.192	630.77
417.4	579.58
417.608	587.77
417.817	655.35
418.025	620.53
418.233	815.09
418.441	716.79
418.649	776.18
418.857	860.15
419.065	913.39
419.273	860.15
419.481	872.43
419.689	987.12
419.897	1026.03
420.105	960.5
420.313	993.26
420.521	1048.56
420.729	1101.81
420.937	1093.62
421.145	1210.35
421.353	1296.36
421.561	1290.22
421.769	1206.25
421.977	1355.76
422.185	1386.47
422.393	1429.48
422.601	1593.32
422.809	1621.99
423.017	1507.31
423.224	1683.43
423.432	1722.34
423.64	1662.95
423.848	1849.32
424.056	1785.83
424.263	2000.87
424.471	1923.04
424.679	1947.62
424.887	2088.93
425.094	2115.55
425.302	2115.55
425.51	2146.27
425.718	2232.29
425.925	2211.81
426.133	2371.55
426.341	2453.47
426.548	2443.23
426.756	2582.49
426.964	2656.22
427.171	2863.06
427.379	2844.63
427.586	2914.26
427.794	2926.55
428.001	3069.91
428.209	3215.31
428.417	3176.4
428.624	3368.91
428.832	3395.53
429.039	3399.63
429.247	3422.16
429.454	3895.24
429.662	3876.8
429.869	3725.26
430.076	3866.57
430.284	3831.75
430.491	3991.49
430.699	4241.34
430.906	4247.49
431.114	4337.6
431.321	4411.32
431.528	4626.36
431.736	4675.51
431.943	4917.17
432.15	4788.15
432.358	5119.92
432.565	5423.02
432.772	5130.16
432.979	5476.27
433.187	5689.26
433.394	5769.13
433.601	5992.36
433.808	5928.87
434.016	5943.21
434.223	6299.55
434.43	6447.01
434.637	6391.71
434.844	6821.78
435.052	6952.85
435.259	6836.12
435.466	7040.92
435.673	6854.55
435.88	7528.33
436.087	7792.52
436.294	7763.85
436.501	7444.37
436.708	7726.99
436.915	7997.32
437.122	8427.39
437.329	8417.15
437.537	8492.93
437.743	8769.4
437.95	8687.48
438.157	9009.01
438.364	9566.06
438.571	9496.43
438.778	9455.47
438.985	10532.7
439.192	10014.57
439.399	10268.52
439.606	10123.11
439.813	10776.41
440.02	11202.39
440.227	11050.84
440.433	10653.53
440.64	11183.96
440.847	11272.02
441.054	11448.15
441.261	12171.08
441.467	11812.68
441.674	12255.05
441.881	12754.75
442.088	12803.9
442.294	12476.23
442.501	12912.44
442.708	13299.51
442.914	13942.57
443.121	14413.6
443.328	13956.91
443.534	15081.24
443.741	14370.6
443.948	14200.62
444.154	15367.96
444.361	15005.47
444.568	15451.92
444.774	15294.23
444.981	15568.66
445.187	15912.72
445.394	16459.52
445.6	16402.18
445.807	17925.87
446.013	17272.57
446.22	17383.16
446.426	18138.86
446.633	18452.2
446.839	18818.78
447.046	18392.81
447.252	19017.44
447.459	18972.38
447.665	19064.54
447.871	19769.04
448.078	20713.16
448.284	19785.43
448.491	20291.27
448.697	20960.96
448.903	21524.15
449.11	21284.54
449.316	20995.78
449.522	21186.24
449.728	22025.9
449.935	21978.8
450.141	22288.04
450.347	22466.22
450.553	21786.29
450.76	22212.27
450.966	22793.89
451.172	22611.62
451.378	23191.2
451.584	22703.78
451.791	23168.67
451.997	23226.01
452.203	23502.49
452.409	23395.99
452.615	23312.03
452.821	22701.73
453.027	22335.15
453.233	23414.43
453.44	22075.06
453.646	22681.25
453.852	22851.24
454.058	22984.35
454.264	22247.08
454.47	22636.2
454.676	22161.07
454.882	23025.31
455.088	20977.34
455.294	21186.24
455.5	21528.25
455.705	21671.61
455.911	20745.92
456.117	20643.52
456.323	20186.83
456.529	19199.71
456.735	19881.68
456.941	19351.26
457.147	19230.43
457.352	18630.37
457.558	18007.79
457.764	18147.05
457.97	17794.8
458.176	17649.39
458.381	17757.94
458.587	16602.88
458.793	16334.6
458.999	15691.54
459.204	17028.86
459.41	16092.94
459.616	15310.61
459.821	15478.55
460.027	15347.48
460.233	14905.12
460.438	14288.68
460.644	14429.99
460.85	13973.29
461.055	13489.97
461.261	13188.92
461.466	12449.6
461.672	11851.6
461.878	12945.21
462.083	12291.91
462.289	11949.9
462.494	11706.19
462.7	11229.01
462.905	11091.8
463.111	11302.74
463.316	11421.52
463.522	11200.34
463.727	11034.46
463.932	11173.72
464.138	10846.04
464.343	11069.27
464.549	10899.29
464.754	11067.22
464.959	10876.76
465.165	10913.63
465.37	10518.37
465.575	10153.83
465.781	10573.66
465.986	10837.85
466.191	10205.03
466.397	9920.36
466.602	9535.34
466.807	10000.23
467.012	9994.09
467.218	9914.22
467.423	9951.08
467.628	9983.85
467.833	10276.71
468.038	9891.69
468.244	9566.06
468.449	9887.59
468.654	9711.47
468.859	9561.97
469.064	9371.5
469.269	9176.95
469.474	9279.35
469.679	9211.76
