Data from USB4F104151__20__11-05-02-153.txt Node

Date: Wed Mar 12 11:05:02 EDT 2025
User: louis
Spectrometer: USB4F10415
Trigger mode: 4
Integration Time (sec): 2.000000E-2
Scans to average: 1
Electric dark correction enabled: true
Nonlinearity correction enabled: false
Boxcar width: 0
XAxis mode: Wavelengths
Number of Pixels in Spectrum: 3648
>>>>>Begin Spectral Data<<<<<
178.204	-24.75
178.424	-24.75
178.644	-24.75
178.864	-114.86
179.084	-26.79
179.304	55.12
179.524	38.74
179.744	-16.55
179.964	24.4
180.184	-26.79
180.404	5.97
180.624	-6.31
180.844	-71.85
181.064	-26.79
181.283	-57.51
181.503	48.98
181.723	32.6
181.943	16.21
182.163	30.55
182.383	-14.51
182.602	36.69
182.822	-6.31
183.042	-14.51
183.262	-2.22
183.482	5.97
183.701	8.02
183.921	-18.6
184.141	-16.55
184.361	79.7
184.58	-59.56
184.8	46.93
185.02	77.65
185.239	-41.13
185.459	85.84
185.679	81.75
185.898	-51.37
186.118	32.6
186.338	46.93
186.557	65.36
186.777	24.4
186.997	-34.99
187.216	-20.65
187.436	46.93
187.655	-41.13
187.875	10.07
188.095	100.18
188.314	14.17
188.534	-0.17
188.753	38.74
188.973	8.02
189.192	28.5
189.412	5.97
189.631	-22.7
189.851	51.03
190.07	34.64
190.29	-77.99
190.509	-147.62
190.729	20.31
190.948	73.56
191.168	65.36
191.387	38.74
191.607	-4.27
191.826	42.84
192.045	46.93
192.265	30.55
192.484	-43.18
192.704	14.17
192.923	-6.31
193.142	51.03
193.362	18.26
193.581	-18.6
193.8	46.93
194.02	16.21
194.239	14.17
194.458	100.18
194.678	36.69
194.897	30.55
195.116	-30.89
195.335	157.52
195.555	30.55
195.774	-12.46
195.993	16.21
196.212	18.26
196.432	16.21
196.651	128.85
196.87	-24.75
197.089	-16.55
197.308	-43.18
197.528	-16.55
197.747	40.79
197.966	-10.41
198.185	91.99
198.404	-12.46
198.623	24.4
198.842	44.88
199.062	51.03
199.281	30.55
199.5	-55.47
199.719	55.12
199.938	-92.33
200.157	26.45
200.376	-22.7
200.595	-4.27
200.814	46.93
201.033	98.13
201.252	46.93
201.471	-61.61
201.69	24.4
201.909	67.41
202.128	89.94
202.347	46.93
202.566	-6.31
202.785	-53.42
203.004	20.31
203.223	30.55
203.442	-26.79
203.661	-6.31
203.879	-6.31
204.098	61.27
204.317	-71.85
204.536	12.12
204.755	5.97
204.974	40.79
205.193	26.45
205.411	145.24
205.63	-10.41
205.849	-2.22
206.068	-26.79
206.287	30.55
206.505	77.65
206.724	-86.19
206.943	-30.89
207.162	83.8
207.381	-18.6
207.599	8.02
207.818	32.6
208.037	16.21
208.255	-10.41
208.474	-41.13
208.693	38.74
208.911	-16.55
209.13	38.74
209.349	55.12
209.567	-32.94
209.786	48.98
210.005	22.36
210.223	55.12
210.442	-41.13
210.661	32.6
210.879	36.69
211.098	75.6
211.316	-30.89
211.535	-0.17
211.753	-26.79
211.972	46.93
212.191	61.27
212.409	8.02
212.628	12.12
212.846	69.46
213.065	20.31
213.283	26.45
213.502	-65.71
213.72	5.97
213.938	-6.31
214.157	40.79
214.375	12.12
214.594	-49.32
214.812	-6.31
215.031	63.32
215.249	28.5
215.467	55.12
215.686	-34.99
215.904	-6.31
216.122	-61.61
216.341	30.55
216.559	73.56
216.778	-2.22
216.996	-41.13
217.214	40.79
217.432	65.36
217.651	5.97
217.869	61.27
218.087	-24.75
218.306	-4.27
218.524	-32.94
218.742	-8.36
218.96	-8.36
219.179	-22.7
219.397	51.03
219.615	8.02
219.833	12.12
220.051	-4.27
220.27	46.93
220.488	85.84
220.706	-18.6
220.924	-30.89
221.142	22.36
221.36	28.5
221.578	40.79
221.796	-30.89
222.015	71.51
222.233	36.69
222.451	63.32
222.669	-14.51
222.887	34.64
223.105	-10.41
223.323	-10.41
223.541	42.84
223.759	-8.36
223.977	-22.7
224.195	28.5
224.413	-8.36
224.631	-26.79
224.849	55.12
225.067	71.51
225.285	-8.36
225.503	-6.31
225.721	10.07
225.939	10.07
226.157	3.93
226.375	75.6
226.592	16.21
226.81	10.07
227.028	3.93
227.246	55.12
227.464	20.31
227.682	91.99
227.9	5.97
228.117	-20.65
228.335	32.6
228.553	53.08
228.771	-2.22
228.989	34.64
229.206	24.4
229.424	53.08
229.642	85.84
229.86	14.17
230.077	65.36
230.295	46.93
230.513	18.26
230.731	71.51
230.948	79.7
231.166	81.75
231.384	57.17
231.601	24.4
231.819	24.4
232.037	18.26
232.254	-12.46
232.472	14.17
232.689	-0.17
232.907	-18.6
233.125	57.17
233.342	51.03
233.56	3.93
233.777	87.89
233.995	10.07
234.213	3.93
234.43	36.69
234.648	-12.46
234.865	14.17
235.083	63.32
235.3	-37.03
235.518	24.4
235.735	18.26
235.953	-18.6
236.17	-8.36
236.388	-6.31
236.605	77.65
236.822	30.55
237.04	42.84
237.257	100.18
237.475	5.97
237.692	42.84
237.909	91.99
238.127	34.64
238.344	28.5
238.562	89.94
238.779	-6.31
238.996	57.17
239.214	-8.36
239.431	48.98
239.648	67.41
239.865	1.88
240.083	5.97
240.3	53.08
240.517	42.84
240.735	22.36
240.952	-24.75
241.169	26.45
241.386	-8.36
241.603	34.64
241.821	46.93
242.038	38.74
242.255	87.89
242.472	18.26
242.689	-37.03
242.907	40.79
243.124	-10.41
243.341	30.55
243.558	-59.56
243.775	61.27
243.992	1.88
244.209	22.36
244.426	59.22
244.643	91.99
244.86	85.84
245.078	24.4
245.295	22.36
245.512	71.51
245.729	24.4
245.946	30.55
246.163	24.4
246.38	5.97
246.597	26.45
246.814	34.64
247.031	-39.08
247.248	-8.36
247.464	36.69
247.681	-4.27
247.898	-37.03
248.115	20.31
248.332	12.12
248.549	81.75
248.766	83.8
248.983	51.03
249.2	18.26
249.417	63.32
249.633	10.07
249.85	28.5
250.067	-37.03
250.284	75.6
250.501	20.31
250.717	81.75
250.934	1.88
251.151	-12.46
251.368	79.7
251.585	87.89
251.801	-16.55
252.018	-10.41
252.235	18.26
252.451	94.04
252.668	22.36
252.885	24.4
253.102	-12.46
253.318	14.17
253.535	32.6
253.752	16.21
253.968	-43.18
254.185	71.51
254.401	32.6
254.618	53.08
254.835	1.88
255.051	8.02
255.268	79.7
255.484	63.32
255.701	12.12
255.917	-14.51
256.134	8.02
256.351	30.55
256.567	28.5
256.784	-4.27
257	34.64
257.217	126.8
257.433	42.84
257.65	3.93
257.866	-28.84
258.082	61.27
258.299	51.03
258.515	16.21
258.732	16.21
258.948	22.36
259.165	46.93
259.381	1.88
259.597	55.12
259.814	-18.6
260.03	57.17
260.246	-8.36
260.463	30.55
260.679	1.88
260.895	51.03
261.112	-16.55
261.328	44.88
261.544	-32.94
261.761	91.99
261.977	42.84
262.193	-12.46
262.409	26.45
262.626	40.79
262.842	14.17
263.058	67.41
263.274	26.45
263.49	38.74
263.707	48.98
263.923	81.75
264.139	36.69
264.355	-2.22
264.571	46.93
264.787	48.98
265.004	40.79
265.22	1.88
265.436	48.98
265.652	-34.99
265.868	-30.89
266.084	10.07
266.3	5.97
266.516	-59.56
266.732	51.03
266.948	55.12
267.164	-22.7
267.38	28.5
267.596	42.84
267.812	77.65
268.028	38.74
268.244	-16.55
268.46	20.31
268.676	-37.03
268.892	44.88
269.108	-69.8
269.324	63.32
269.54	-34.99
269.756	65.36
269.972	-2.22
270.188	53.08
270.403	79.7
270.619	69.46
270.835	-20.65
271.051	85.84
271.267	1.88
271.483	14.17
271.698	55.12
271.914	51.03
272.13	30.55
272.346	-26.79
272.562	-6.31
272.777	55.12
272.993	32.6
273.209	22.36
273.425	-6.31
273.64	-0.17
273.856	-39.08
274.072	-2.22
274.287	-57.51
274.503	59.22
274.719	42.84
274.934	-0.17
275.15	79.7
275.366	-2.22
275.581	-12.46
275.797	91.99
276.012	12.12
276.228	26.45
276.444	94.04
276.659	8.02
276.875	42.84
277.09	10.07
277.306	36.69
277.521	-47.27
277.737	57.17
277.952	30.55
278.168	100.18
278.383	106.32
278.599	-22.7
278.814	71.51
279.03	-30.89
279.245	18.26
279.461	3.93
279.676	-8.36
279.892	3.93
280.107	20.31
280.322	14.17
280.538	-4.27
280.753	-0.17
280.969	100.18
281.184	44.88
281.399	71.51
281.615	-22.7
281.83	26.45
282.045	57.17
282.26	-26.79
282.476	-22.7
282.691	79.7
282.906	12.12
283.122	-4.27
283.337	26.45
283.552	30.55
283.767	14.17
283.983	96.08
284.198	63.32
284.413	-18.6
284.628	-139.43
284.843	36.69
285.058	-0.17
285.274	-14.51
285.489	-18.6
285.704	57.17
285.919	-22.7
286.134	67.41
286.349	-8.36
286.564	-8.36
286.779	102.23
286.995	32.6
287.21	-22.7
287.425	28.5
287.64	-32.94
287.855	-65.71
288.07	-22.7
288.285	-0.17
288.5	63.32
288.715	10.07
288.93	-14.51
289.145	34.64
289.36	57.17
289.575	34.64
289.79	32.6
290.004	22.36
290.219	20.31
290.434	16.21
290.649	-86.19
290.864	-12.46
291.079	-14.51
291.294	77.65
291.509	5.97
291.724	40.79
291.938	-34.99
292.153	5.97
292.368	8.02
292.583	61.27
292.798	20.31
293.012	24.4
293.227	16.21
293.442	28.5
293.657	-20.65
293.871	-14.51
294.086	22.36
294.301	36.69
294.516	53.08
294.73	20.31
294.945	22.36
295.16	30.55
295.374	32.6
295.589	53.08
295.804	-53.42
296.018	-71.85
296.233	24.4
296.447	-43.18
296.662	24.4
296.877	75.6
297.091	55.12
297.306	24.4
297.52	10.07
297.735	1.88
297.949	1.88
298.164	94.04
298.378	16.21
298.593	-20.65
298.807	5.97
299.022	-43.18
299.236	83.8
299.451	-16.55
299.665	20.31
299.88	1.88
300.094	30.55
300.309	42.84
300.523	-32.94
300.737	48.98
300.952	18.26
301.166	98.13
301.381	42.84
301.595	53.08
301.809	51.03
302.024	32.6
302.238	-22.7
302.452	63.32
302.667	-14.51
302.881	-2.22
303.095	40.79
303.309	42.84
303.524	59.22
303.738	18.26
303.952	24.4
304.166	65.36
304.381	-28.84
304.595	32.6
304.809	36.69
305.023	51.03
305.237	-2.22
305.452	14.17
305.666	73.56
305.88	-2.22
306.094	83.8
306.308	46.93
306.522	55.12
306.736	1.88
306.95	40.79
307.164	-0.17
307.379	26.45
307.593	71.51
307.807	36.69
308.021	-6.31
308.235	1.88
308.449	-59.56
308.663	-16.55
308.877	69.46
309.091	28.5
309.305	96.08
309.519	-18.6
309.733	55.12
309.947	59.22
310.161	104.28
310.374	75.6
310.588	34.64
310.802	10.07
311.016	55.12
311.23	38.74
311.444	-26.79
311.658	34.64
311.872	5.97
312.085	26.45
312.299	42.84
312.513	22.36
312.727	-4.27
312.941	-28.84
313.154	67.41
313.368	34.64
313.582	-30.89
313.796	-26.79
314.009	-16.55
314.223	51.03
314.437	81.75
314.651	26.45
314.864	24.4
315.078	20.31
315.292	44.88
315.505	34.64
315.719	10.07
315.933	-14.51
316.146	-24.75
316.36	16.21
316.573	42.84
316.787	-32.94
317.001	71.51
317.214	10.07
317.428	73.56
317.641	8.02
317.855	-8.36
318.068	57.17
318.282	36.69
318.495	112.47
318.709	104.28
318.922	55.12
319.136	104.28
319.349	53.08
319.563	102.23
319.776	14.17
319.99	-2.22
320.203	18.26
320.417	-22.7
320.63	32.6
320.843	100.18
321.057	51.03
321.27	114.52
321.483	18.26
321.697	75.6
321.91	83.8
322.124	81.75
322.337	-16.55
322.55	-8.36
322.763	-2.22
322.977	5.97
323.19	75.6
323.403	30.55
323.617	46.93
323.83	38.74
324.043	30.55
324.256	75.6
324.469	-47.27
324.683	51.03
324.896	67.41
325.109	-10.41
325.322	-4.27
325.535	106.32
325.748	18.26
325.962	-41.13
326.175	59.22
326.388	18.26
326.601	18.26
326.814	81.75
327.027	100.18
327.24	69.46
327.453	-102.57
327.666	18.26
327.879	-4.27
328.092	22.36
328.305	18.26
328.518	73.56
328.731	20.31
328.944	63.32
329.157	26.45
329.37	42.84
329.583	63.32
329.796	30.55
330.009	-0.17
330.222	22.36
330.435	83.8
330.648	83.8
330.861	32.6
331.073	53.08
331.286	100.18
331.499	8.02
331.712	42.84
331.925	73.56
332.138	-34.99
332.35	-77.99
332.563	20.31
332.776	57.17
332.989	1.88
333.202	34.64
333.414	1.88
333.627	55.12
333.84	38.74
334.053	36.69
334.265	-32.94
334.478	12.12
334.691	-0.17
334.903	-12.46
335.116	46.93
335.329	-0.17
335.541	48.98
335.754	32.6
335.966	-24.75
336.179	42.84
336.392	-10.41
336.604	73.56
336.817	79.7
337.029	14.17
337.242	18.26
337.454	57.17
337.667	57.17
337.88	-6.31
338.092	120.66
338.305	79.7
338.517	79.7
338.729	20.31
338.942	59.22
339.154	63.32
339.367	55.12
339.579	18.26
339.792	-20.65
340.004	96.08
340.217	-20.65
340.429	63.32
340.641	38.74
340.854	40.79
341.066	61.27
341.278	18.26
341.491	81.75
341.703	3.93
341.915	16.21
342.128	-41.13
342.34	71.51
342.552	5.97
342.764	-39.08
342.977	-18.6
343.189	71.51
343.401	75.6
343.613	14.17
343.826	94.04
344.038	38.74
344.25	42.84
344.462	-63.66
344.674	38.74
344.886	8.02
345.099	16.21
345.311	26.45
345.523	40.79
345.735	-73.9
345.947	42.84
346.159	59.22
346.371	26.45
346.583	28.5
346.795	71.51
347.007	38.74
347.219	48.98
347.431	1.88
347.643	124.76
347.855	14.17
348.067	57.17
348.279	-16.55
348.491	-32.94
348.703	-22.7
348.915	28.5
349.127	18.26
349.339	10.07
349.551	3.93
349.763	116.56
349.975	61.27
350.187	91.99
350.399	73.56
350.61	36.69
350.822	-8.36
351.034	51.03
351.246	8.02
351.458	46.93
351.669	40.79
351.881	46.93
352.093	57.17
352.305	51.03
352.517	67.41
352.728	30.55
352.94	22.36
353.152	65.36
353.363	-51.37
353.575	63.32
353.787	12.12
353.999	-59.56
354.21	59.22
354.422	67.41
354.633	100.18
354.845	16.21
355.057	100.18
355.268	89.94
355.48	73.56
355.692	85.84
355.903	-20.65
356.115	3.93
356.326	-55.47
356.538	32.6
356.749	42.84
356.961	96.08
357.172	67.41
357.384	5.97
357.595	59.22
357.807	18.26
358.018	48.98
358.23	79.7
358.441	118.61
358.653	20.31
358.864	46.93
359.075	65.36
359.287	1.88
359.498	132.95
359.709	106.32
359.921	24.4
360.132	-37.03
360.344	44.88
360.555	-10.41
360.766	124.76
360.977	1.88
361.189	87.89
361.4	14.17
361.611	118.61
361.823	67.41
362.034	8.02
362.245	-20.65
362.456	77.65
362.667	53.08
362.879	59.22
363.09	8.02
363.301	55.12
363.512	26.45
363.723	67.41
363.935	83.8
364.146	26.45
364.357	36.69
364.568	67.41
364.779	-22.7
364.99	63.32
365.201	-22.7
365.412	40.79
365.623	-0.17
365.834	42.84
366.045	20.31
366.256	59.22
366.467	120.66
366.678	5.97
366.889	-45.23
367.1	18.26
367.311	55.12
367.522	26.45
367.733	67.41
367.944	87.89
368.155	69.46
368.366	30.55
368.577	94.04
368.788	16.21
368.999	3.93
369.209	79.7
369.42	89.94
369.631	55.12
369.842	30.55
370.053	77.65
370.264	-8.36
370.474	67.41
370.685	65.36
370.896	5.97
371.107	34.64
371.317	44.88
371.528	28.5
371.739	63.32
371.95	77.65
372.16	102.23
372.371	18.26
372.582	8.02
372.792	57.17
373.003	106.32
373.214	34.64
373.424	14.17
373.635	59.22
373.846	83.8
374.056	73.56
374.267	59.22
374.477	42.84
374.688	10.07
374.898	38.74
375.109	1.88
375.319	36.69
375.53	63.32
375.74	55.12
375.951	-14.51
376.161	20.31
376.372	59.22
376.582	55.12
376.793	65.36
377.003	59.22
377.214	8.02
377.424	-20.65
377.635	14.17
377.845	69.46
378.055	75.6
378.266	14.17
378.476	16.21
378.686	106.32
378.897	77.65
379.107	12.12
379.317	14.17
379.528	3.93
379.738	83.8
379.948	-2.22
380.158	53.08
380.369	51.03
380.579	46.93
380.789	85.84
380.999	98.13
381.21	10.07
381.42	98.13
381.63	14.17
381.84	118.61
382.05	67.41
382.261	91.99
382.471	8.02
382.681	30.55
382.891	57.17
383.101	135
383.311	-18.6
383.521	38.74
383.731	-6.31
383.941	75.6
384.151	128.85
384.361	104.28
384.571	42.84
384.781	55.12
384.991	-43.18
385.201	48.98
385.411	1.88
385.621	73.56
385.831	32.6
386.041	22.36
386.251	112.47
386.461	75.6
386.671	10.07
386.881	42.84
387.091	8.02
387.301	139.09
387.511	87.89
387.72	18.26
387.93	20.31
388.14	34.64
388.35	36.69
388.56	-37.03
388.769	51.03
388.979	36.69
389.189	5.97
389.399	22.36
389.609	128.85
389.818	55.12
390.028	118.61
390.238	137.04
390.447	38.74
390.657	102.23
390.867	42.84
391.076	-24.75
391.286	-18.6
391.496	-18.6
391.705	-2.22
391.915	73.56
392.125	30.55
392.334	114.52
392.544	18.26
392.753	108.37
392.963	85.84
393.172	3.93
393.382	75.6
393.591	71.51
393.801	36.69
394.01	53.08
394.22	81.75
394.429	42.84
394.639	91.99
394.848	130.9
395.058	63.32
395.267	79.7
395.477	79.7
395.686	79.7
395.895	143.19
396.105	67.41
396.314	89.94
396.524	89.94
396.733	63.32
396.942	94.04
397.152	85.84
397.361	149.33
397.57	126.8
397.78	79.7
397.989	-14.51
398.198	153.43
398.407	83.8
398.617	32.6
398.826	53.08
399.035	128.85
399.244	63.32
399.453	120.66
399.663	87.89
399.872	147.28
400.081	42.84
400.29	132.95
400.499	63.32
400.708	149.33
400.917	94.04
401.127	48.98
401.336	98.13
401.545	79.7
401.754	91.99
401.963	79.7
402.172	106.32
402.381	81.75
402.59	75.6
402.799	114.52
403.008	112.47
403.217	122.71
403.426	73.56
403.635	102.23
403.844	157.52
404.053	106.32
404.262	169.81
404.471	182.1
404.68	165.71
404.888	171.86
405.097	124.76
405.306	135
405.515	159.57
405.724	137.04
405.933	137.04
406.142	112.47
406.35	229.2
406.559	100.18
406.768	106.32
406.977	165.71
407.185	157.52
407.394	216.91
407.603	173.91
407.812	165.71
408.02	186.19
408.229	243.54
408.438	231.25
408.646	175.95
408.855	139.09
409.064	255.83
409.272	286.54
409.481	231.25
409.69	233.3
409.898	239.44
410.107	278.35
410.315	284.5
410.524	370.51
410.733	304.98
410.941	339.79
411.15	288.59
411.358	268.11
411.567	329.55
411.775	427.85
411.984	407.38
412.192	343.89
412.401	376.66
412.609	450.38
412.818	401.23
413.026	481.1
413.234	526.16
413.443	499.53
413.651	456.53
413.86	530.25
414.068	603.98
414.276	556.88
414.485	614.22
414.693	581.45
414.901	706.38
415.11	665.42
415.318	640.84
415.526	669.52
415.734	702.28
415.943	763.72
416.151	765.77
416.359	765.77
416.567	763.72
416.776	853.83
416.984	868.17
417.192	884.55
417.4	806.73
417.608	952.13
417.817	968.52
418.025	995.14
418.233	1109.83
418.441	929.61
418.649	1011.53
418.857	1210.18
419.065	1216.32
419.273	1197.89
419.481	1277.76
419.689	1281.86
419.897	1337.15
420.105	1466.17
420.313	1505.09
420.521	1556.29
420.729	1427.26
420.937	1462.08
421.145	1615.68
421.353	1713.98
421.561	1761.08
421.769	1808.19
421.977	1916.73
422.185	1832.76
422.393	2012.98
422.601	2187.06
422.809	2029.37
423.017	2019.13
423.224	2258.74
423.432	2258.74
423.64	2295.6
423.848	2441.01
424.056	2518.83
424.263	2750.25
424.471	2731.82
424.679	2631.47
424.887	2811.69
425.094	2938.66
425.302	2944.81
425.51	3000.1
425.718	3112.74
425.925	3067.69
426.133	3424.03
426.341	3579.68
426.548	3569.44
426.756	3622.69
426.964	3741.47
427.171	3956.5
427.379	3946.27
427.586	4106.01
427.794	4142.87
428.001	4564.75
428.209	4556.56
428.417	4503.31
428.624	4919.05
428.832	4880.14
429.039	4861.71
429.247	4794.12
429.454	5363.46
429.662	5523.2
429.869	5232.39
430.076	5588.74
430.284	5414.66
430.491	5775.1
430.699	5965.56
430.906	5906.17
431.114	6117.11
431.321	6452.98
431.528	6575.86
431.736	6889.2
431.943	7167.72
432.15	7114.47
432.358	7147.24
432.565	7603.94
432.772	7333.61
432.979	7737.06
433.187	7925.47
433.394	8117.98
433.601	8474.32
433.808	8468.18
434.016	8550.1
434.223	8900.3
434.43	9352.9
434.637	9137.87
434.844	9594.56
435.052	10030.78
435.259	9920.19
435.466	10229.43
435.673	9991.87
435.88	10782.38
436.087	11114.16
436.294	11007.66
436.501	10903.21
436.708	11196.07
436.915	11335.34
437.122	11785.89
437.329	11871.9
437.537	12289.69
437.743	12613.27
437.95	12568.21
438.157	13274.76
438.364	13565.57
438.571	13680.26
438.778	13850.24
438.985	15044.21
439.192	14227.07
439.399	14687.86
439.606	14435.96
439.813	15263.34
440.02	15941.22
440.227	15900.26
440.433	15787.62
440.64	16260.7
440.847	16117.34
441.054	16674.39
441.261	17825.35
441.467	17702.47
441.674	17854.02
441.881	18656.82
442.088	18540.09
442.294	18054.72
442.501	18767.41
442.708	19271.22
442.914	19990.05
443.121	20575.77
443.328	20125.22
443.534	21550.6
443.741	20858.39
443.948	20467.23
444.154	22408.7
444.361	21937.67
444.568	22081.03
444.774	22300.16
444.981	22754.81
445.187	23076.34
445.394	24157.67
445.6	23950.82
445.807	26041.8
446.013	24845.79
446.22	25513.42
446.426	26289.6
446.633	26535.36
446.839	27536.82
447.046	26432.96
447.252	27864.49
447.459	27958.7
447.665	27508.15
447.871	28882.33
448.078	30162.31
448.284	28628.38
448.491	29308.31
448.697	30297.48
448.903	31223.16
449.11	31047.04
449.316	30479.75
449.522	31014.27
449.728	31804.78
449.935	32122.22
450.141	32150.89
450.347	32671.07
450.553	31661.43
450.76	32210.28
450.966	32955.74
451.172	32746.85
451.378	33068.38
451.584	32822.62
451.791	33609.04
451.997	33557.85
452.203	33826.13
452.409	33832.27
452.615	33746.26
452.821	32324.97
453.027	31864.18
453.233	33881.42
453.44	32154.99
453.646	32578.92
453.852	32742.75
454.058	33463.64
454.264	32124.27
454.47	33025.37
454.676	32191.85
454.882	32789.86
455.088	29619.6
455.294	30311.81
455.5	30864.77
455.705	31323.51
455.911	29765.01
456.117	29072.79
456.323	28824.99
456.529	27348.4
456.735	28335.52
456.941	27495.86
457.147	26922.43
457.352	26635.71
457.558	26017.22
457.764	26119.62
457.97	25581.01
458.176	24821.21
458.381	24831.45
458.587	23393.78
458.793	23559.66
458.999	22298.11
459.204	24251.88
459.41	23320.05
459.616	21753.35
459.821	21718.54
460.027	21513.74
460.233	20882.97
460.438	20278.82
460.644	20553.24
460.85	19383.85
461.055	19228.21
461.261	18939.44
461.466	17899.08
461.672	17176.14
461.878	18363.97
462.083	17258.06
462.289	17043.03
462.494	16748.12
462.7	16070.24
462.905	15591.02
463.111	16117.34
463.316	16207.45
463.522	15861.35
463.727	15945.31
463.932	15644.26
464.138	15789.67
464.343	15773.28
464.549	15326.83
464.754	16039.52
464.959	15879.78
465.165	15507.05
465.37	14689.91
465.575	14712.44
465.781	15183.47
465.986	15482.47
466.191	14671.48
466.397	14384.76
466.602	13739.65
466.807	14325.37
467.012	14093.95
467.218	14345.85
467.423	13876.87
467.628	14157.44
