Data from USB4F104151__69__11-06-10-005.txt Node

Date: Wed Mar 12 11:06:10 EDT 2025
User: louis
Spectrometer: USB4F10415
Trigger mode: 4
Integration Time (sec): 2.000000E-2
Scans to average: 1
Electric dark correction enabled: true
Nonlinearity correction enabled: false
Boxcar width: 0
XAxis mode: Wavelengths
Number of Pixels in Spectrum: 3648
>>>>>Begin Spectral Data<<<<<
178.204	-25.09
178.424	-25.09
178.644	-25.09
178.864	-64
179.084	-141.82
179.304	81.41
179.524	30.21
179.744	22.02
179.964	17.92
180.184	24.06
180.404	-35.33
180.624	-12.8
180.844	-45.57
181.064	-43.52
181.283	9.73
181.503	-39.42
181.723	-8.7
181.943	-80.38
182.163	60.93
182.383	26.11
182.602	-18.94
182.822	22.02
183.042	50.69
183.262	-31.23
183.482	-12.8
183.701	36.35
183.921	40.45
184.141	-16.9
184.361	38.4
184.58	17.92
184.8	-35.33
185.02	54.78
185.239	-14.85
185.459	19.97
185.679	153.09
185.898	11.78
186.118	-20.99
186.338	-51.71
186.557	-25.09
186.777	-37.38
186.997	19.97
187.216	32.26
187.436	75.26
187.655	28.16
187.875	42.5
188.095	11.78
188.314	9.73
188.534	24.06
188.753	3.58
188.973	58.88
189.192	19.97
189.412	-25.09
189.631	77.31
189.851	-14.85
190.07	77.31
190.29	101.89
190.509	-0.51
190.729	22.02
190.948	1.54
191.168	93.69
191.387	42.5
191.607	11.78
191.826	3.58
192.045	52.74
192.265	-18.94
192.484	17.92
192.704	87.55
192.923	-33.28
193.142	48.64
193.362	42.5
193.581	13.82
193.8	52.74
194.02	22.02
194.239	-59.9
194.458	3.58
194.678	-39.42
194.897	62.98
195.116	62.98
195.335	17.92
195.555	67.07
195.774	30.21
195.993	99.84
196.212	-31.23
196.432	-29.18
196.651	62.98
196.87	108.03
197.089	58.88
197.308	30.21
197.528	-2.56
197.747	22.02
197.966	15.87
198.185	50.69
198.404	13.82
198.623	50.69
198.842	9.73
199.062	60.93
199.281	-20.99
199.5	22.02
199.719	5.63
199.938	-25.09
200.157	7.68
200.376	-35.33
200.595	34.3
200.814	15.87
201.033	38.4
201.252	-18.94
201.471	19.97
201.69	-14.85
201.909	3.58
202.128	-0.51
202.347	42.5
202.566	67.07
202.785	-10.75
203.004	65.02
203.223	19.97
203.442	30.21
203.661	-43.52
203.879	40.45
204.098	13.82
204.317	-59.9
204.536	1.54
204.755	13.82
204.974	60.93
205.193	-12.8
205.411	40.45
205.63	-68.09
205.849	-66.05
206.068	-8.7
206.287	-2.56
206.505	46.59
206.724	32.26
206.943	38.4
207.162	54.78
207.381	50.69
207.599	13.82
207.818	48.64
208.037	67.07
208.255	-6.66
208.474	44.54
208.693	52.74
208.911	17.92
209.13	-6.66
209.349	40.45
209.567	-0.51
209.786	40.45
210.005	26.11
210.223	38.4
210.442	13.82
210.661	-51.71
210.879	42.5
211.098	116.22
211.316	103.93
211.535	87.55
211.753	99.84
211.972	-0.51
212.191	77.31
212.409	-0.51
212.628	60.93
212.846	79.36
213.065	75.26
213.283	60.93
213.502	17.92
213.72	50.69
213.938	58.88
214.157	-25.09
214.375	52.74
214.594	40.45
214.812	24.06
215.031	-8.7
215.249	1.54
215.467	103.93
215.686	-29.18
215.904	9.73
216.122	-12.8
216.341	110.08
216.559	54.78
216.778	-37.38
216.996	-49.66
217.214	69.12
217.432	-33.28
217.651	65.02
217.869	7.68
218.087	19.97
218.306	34.3
218.524	42.5
218.742	30.21
218.96	13.82
219.179	5.63
219.397	60.93
219.615	138.75
219.833	52.74
220.051	-61.95
220.27	44.54
220.488	-49.66
220.706	77.31
220.924	46.59
221.142	-0.51
221.36	60.93
221.578	46.59
221.796	36.35
222.015	19.97
222.233	40.45
222.451	112.13
222.669	60.93
222.887	87.55
223.105	5.63
223.323	30.21
223.541	-4.61
223.759	-47.62
223.977	-6.66
224.195	40.45
224.413	3.58
224.631	65.02
224.849	-27.14
225.067	7.68
225.285	3.58
225.503	62.98
225.721	19.97
225.939	38.4
226.157	38.4
226.375	48.64
226.592	-55.81
226.81	50.69
227.028	36.35
227.246	-12.8
227.464	105.98
227.682	87.55
227.9	83.45
228.117	17.92
228.335	30.21
228.553	50.69
228.771	58.88
228.989	103.93
229.206	7.68
229.424	42.5
229.642	36.35
229.86	112.13
230.077	22.02
230.295	114.17
230.513	34.3
230.731	17.92
230.948	50.69
231.166	54.78
231.384	67.07
231.601	38.4
231.819	56.83
232.037	-18.94
232.254	-0.51
232.472	-6.66
232.689	22.02
232.907	65.02
233.125	19.97
233.342	67.07
233.56	-47.62
233.777	60.93
233.995	9.73
234.213	38.4
234.43	-31.23
234.648	19.97
234.865	-2.56
235.083	-12.8
235.3	32.26
235.518	42.5
235.735	30.21
235.953	-45.57
236.17	-2.56
236.388	9.73
236.605	22.02
236.822	30.21
237.04	11.78
237.257	69.12
237.475	3.58
237.692	40.45
237.909	69.12
238.127	50.69
238.344	-37.38
238.562	32.26
238.779	9.73
238.996	-74.24
239.214	-31.23
239.431	30.21
239.648	56.83
239.865	22.02
240.083	114.17
240.3	48.64
240.517	-25.09
240.735	-6.66
240.952	79.36
241.169	73.21
241.386	-31.23
241.603	3.58
241.821	-14.85
242.038	42.5
242.255	-20.99
242.472	38.4
242.689	34.3
242.907	-6.66
243.124	54.78
243.341	36.35
243.558	-6.66
243.775	-49.66
243.992	-4.61
244.209	-2.56
244.426	46.59
244.643	36.35
244.86	-12.8
245.078	11.78
245.295	60.93
245.512	87.55
245.729	75.26
245.946	5.63
246.163	56.83
246.38	-37.38
246.597	24.06
246.814	65.02
247.031	71.17
247.248	81.41
247.464	97.79
247.681	95.74
247.898	9.73
248.115	67.07
248.332	-45.57
248.549	-27.14
248.766	13.82
248.983	24.06
249.2	-4.61
249.417	62.98
249.633	-45.57
249.85	-45.57
250.067	-31.23
250.284	-8.7
250.501	65.02
250.717	19.97
250.934	3.58
251.151	42.5
251.368	73.21
251.585	19.97
251.801	83.45
252.018	26.11
252.235	79.36
252.451	-25.09
252.668	-18.94
252.885	24.06
253.102	83.45
253.318	-14.85
253.535	46.59
253.752	77.31
253.968	42.5
254.185	32.26
254.401	1.54
254.618	73.21
254.835	73.21
255.051	77.31
255.268	67.07
255.484	-31.23
255.701	24.06
255.917	17.92
256.134	-8.7
256.351	91.65
256.567	65.02
256.784	-14.85
257	38.4
257.217	34.3
257.433	32.26
257.65	73.21
257.866	46.59
258.082	32.26
258.299	-6.66
258.515	85.5
258.732	-33.28
258.948	-2.56
259.165	1.54
259.381	62.98
259.597	46.59
259.814	-0.51
260.03	26.11
260.246	97.79
260.463	75.26
260.679	24.06
260.895	1.54
261.112	42.5
261.328	-47.62
261.544	-0.51
261.761	58.88
261.977	38.4
262.193	17.92
262.409	17.92
262.626	108.03
262.842	46.59
263.058	28.16
263.274	56.83
263.49	50.69
263.707	38.4
263.923	36.35
264.139	87.55
264.355	28.16
264.571	116.22
264.787	5.63
265.004	32.26
265.22	79.36
265.436	-14.85
265.652	7.68
265.868	-6.66
266.084	15.87
266.3	9.73
266.516	36.35
266.732	46.59
266.948	24.06
267.164	50.69
267.38	3.58
267.596	40.45
267.812	40.45
268.028	50.69
268.244	-49.66
268.46	28.16
268.676	24.06
268.892	-4.61
269.108	7.68
269.324	52.74
269.54	9.73
269.756	69.12
269.972	22.02
270.188	93.69
270.403	1.54
270.619	62.98
270.835	13.82
271.051	46.59
271.267	-18.94
271.483	-18.94
271.698	-14.85
271.914	15.87
272.13	56.83
272.346	17.92
272.562	-31.23
272.777	50.69
272.993	85.5
273.209	22.02
273.425	9.73
273.64	-35.33
273.856	-25.09
274.072	40.45
274.287	-2.56
274.503	48.64
274.719	79.36
274.934	9.73
275.15	30.21
275.366	19.97
275.581	26.11
275.797	46.59
276.012	34.3
276.228	-14.85
276.444	32.26
276.659	46.59
276.875	-47.62
277.09	56.83
277.306	7.68
277.521	5.63
277.737	1.54
277.952	7.68
278.168	22.02
278.383	28.16
278.599	56.83
278.814	83.45
279.03	77.31
279.245	28.16
279.461	-25.09
279.676	44.54
279.892	105.98
280.107	-20.99
280.322	9.73
280.538	-6.66
280.753	3.58
280.969	15.87
281.184	3.58
281.399	24.06
281.615	28.16
281.83	44.54
282.045	38.4
282.26	58.88
282.476	-16.9
282.691	-18.94
282.906	-10.75
283.122	38.4
283.337	-2.56
283.552	5.63
283.767	50.69
283.983	42.5
284.198	32.26
284.413	17.92
284.628	-16.9
284.843	-25.09
285.058	79.36
285.274	93.69
285.489	17.92
285.704	77.31
285.919	81.41
286.134	-6.66
286.349	-10.75
286.564	62.98
286.779	116.22
286.995	-6.66
287.21	-29.18
287.425	26.11
287.64	17.92
287.855	22.02
288.07	28.16
288.285	46.59
288.5	24.06
288.715	60.93
288.93	36.35
289.145	99.84
289.36	54.78
289.575	81.41
289.79	36.35
290.004	-0.51
290.219	17.92
290.434	83.45
290.649	-0.51
290.864	-39.42
291.079	15.87
291.294	32.26
291.509	-16.9
291.724	42.5
291.938	11.78
292.153	52.74
292.368	15.87
292.583	-59.9
292.798	1.54
293.012	50.69
293.227	87.55
293.442	79.36
293.657	67.07
293.871	26.11
294.086	-27.14
294.301	52.74
294.516	56.83
294.73	34.3
294.945	69.12
295.16	56.83
295.374	73.21
295.589	56.83
295.804	5.63
296.018	71.17
296.233	32.26
296.447	71.17
296.662	28.16
296.877	75.26
297.091	19.97
297.306	46.59
297.52	-10.75
297.735	71.17
297.949	65.02
298.164	13.82
298.378	30.21
298.593	-8.7
298.807	26.11
299.022	38.4
299.236	34.3
299.451	65.02
299.665	-31.23
299.88	19.97
300.094	24.06
300.309	87.55
300.523	99.84
300.737	56.83
300.952	46.59
301.166	42.5
301.381	46.59
301.595	24.06
301.809	28.16
302.024	36.35
302.238	13.82
302.452	30.21
302.667	22.02
302.881	69.12
303.095	124.41
303.309	75.26
303.524	3.58
303.738	65.02
303.952	11.78
304.166	26.11
304.381	-2.56
304.595	67.07
304.809	-18.94
305.023	52.74
305.237	40.45
305.452	-20.99
305.666	9.73
305.88	110.08
306.094	69.12
306.308	15.87
306.522	5.63
306.736	46.59
306.95	30.21
307.164	19.97
307.379	44.54
307.593	48.64
307.807	26.11
308.021	34.3
308.235	62.98
308.449	11.78
308.663	60.93
308.877	97.79
309.091	-23.04
309.305	60.93
309.519	28.16
309.733	136.7
309.947	-16.9
310.161	58.88
310.374	42.5
310.588	58.88
310.802	58.88
311.016	44.54
311.23	30.21
311.444	13.82
311.658	75.26
311.872	5.63
312.085	26.11
312.299	91.65
312.513	56.83
312.727	50.69
312.941	50.69
313.154	-23.04
313.368	32.26
313.582	60.93
313.796	7.68
314.009	-47.62
314.223	-47.62
314.437	17.92
314.651	5.63
314.864	40.45
315.078	9.73
315.292	32.26
315.505	48.64
315.719	69.12
315.933	34.3
316.146	28.16
316.36	-33.28
316.573	103.93
316.787	89.6
317.001	-18.94
317.214	56.83
317.428	69.12
317.641	30.21
317.855	36.35
318.068	3.58
318.282	-14.85
318.495	19.97
318.709	116.22
318.922	-18.94
319.136	42.5
319.349	-12.8
319.563	65.02
319.776	56.83
319.99	-0.51
320.203	3.58
320.417	69.12
320.63	108.03
320.843	103.93
321.057	75.26
321.27	97.79
321.483	91.65
321.697	40.45
321.91	17.92
322.124	-14.85
322.337	19.97
322.55	56.83
322.763	30.21
322.977	42.5
323.19	122.37
323.403	38.4
323.617	32.26
323.83	42.5
324.043	48.64
324.256	-18.94
324.469	52.74
324.683	62.98
324.896	116.22
325.109	56.83
325.322	-66.05
325.535	73.21
325.748	46.59
325.962	-8.7
326.175	48.64
326.388	62.98
326.601	34.3
326.814	36.35
327.027	5.63
327.24	97.79
327.453	95.74
327.666	118.27
327.879	56.83
328.092	69.12
328.305	30.21
328.518	15.87
328.731	38.4
328.944	91.65
329.157	93.69
329.37	19.97
329.583	75.26
329.796	50.69
330.009	32.26
330.222	85.5
330.435	93.69
330.648	32.26
330.861	26.11
331.073	46.59
331.286	75.26
331.499	9.73
331.712	38.4
331.925	46.59
332.138	50.69
332.35	118.27
332.563	-49.66
332.776	42.5
332.989	87.55
333.202	15.87
333.414	32.26
333.627	75.26
333.84	87.55
334.053	108.03
334.265	-2.56
334.478	44.54
334.691	65.02
334.903	103.93
335.116	11.78
335.329	17.92
335.541	15.87
335.754	28.16
335.966	28.16
336.179	40.45
336.392	40.45
336.604	30.21
336.817	1.54
337.029	-0.51
337.242	24.06
337.454	83.45
337.667	42.5
337.88	95.74
338.092	11.78
338.305	83.45
338.517	30.21
338.729	36.35
338.942	48.64
339.154	32.26
339.367	-6.66
339.579	71.17
339.792	17.92
340.004	138.75
340.217	34.3
340.429	77.31
340.641	81.41
340.854	34.3
341.066	22.02
341.278	11.78
341.491	48.64
341.703	44.54
341.915	83.45
342.128	112.13
342.34	89.6
342.552	24.06
342.764	67.07
342.977	30.21
343.189	13.82
343.401	67.07
343.613	42.5
343.826	22.02
344.038	7.68
344.25	79.36
344.462	48.64
344.674	30.21
344.886	19.97
345.099	46.59
345.311	73.21
345.523	81.41
345.735	22.02
345.947	19.97
346.159	54.78
346.371	81.41
346.583	-39.42
346.795	89.6
347.007	1.54
347.219	71.17
347.431	17.92
347.643	97.79
347.855	87.55
348.067	19.97
348.279	26.11
348.491	93.69
348.703	75.26
348.915	-0.51
349.127	13.82
349.339	65.02
349.551	-16.9
349.763	71.17
349.975	11.78
350.187	9.73
350.399	101.89
350.61	40.45
350.822	28.16
351.034	19.97
351.246	40.45
351.458	40.45
351.669	38.4
351.881	108.03
352.093	1.54
352.305	42.5
352.517	7.68
352.728	62.98
352.94	-2.56
353.152	67.07
353.363	40.45
353.575	5.63
353.787	-12.8
353.999	26.11
354.21	163.33
354.422	91.65
354.633	71.17
354.845	67.07
355.057	101.89
355.268	32.26
355.48	1.54
355.692	34.3
355.903	48.64
356.115	38.4
356.326	30.21
356.538	32.26
356.749	48.64
356.961	126.46
357.172	101.89
357.384	5.63
357.595	81.41
357.807	44.54
358.018	38.4
358.23	24.06
358.441	91.65
358.653	62.98
358.864	34.3
359.075	71.17
359.287	75.26
359.498	93.69
359.709	-39.42
359.921	44.54
360.132	44.54
360.344	32.26
360.555	87.55
360.766	7.68
360.977	-10.75
361.189	99.84
361.4	30.21
361.611	79.36
361.823	108.03
362.034	42.5
362.245	46.59
362.456	67.07
362.667	114.17
362.879	79.36
363.09	-16.9
363.301	32.26
363.512	67.07
363.723	95.74
363.935	56.83
364.146	50.69
364.357	81.41
364.568	108.03
364.779	17.92
364.99	15.87
365.201	30.21
365.412	97.79
365.623	58.88
365.834	89.6
366.045	-51.71
366.256	97.79
366.467	30.21
366.678	71.17
366.889	58.88
367.1	26.11
367.311	89.6
367.522	165.37
367.733	22.02
367.944	120.32
368.155	112.13
368.366	48.64
368.577	52.74
368.788	60.93
368.999	58.88
369.209	24.06
369.42	112.13
369.631	67.07
369.842	22.02
370.053	56.83
370.264	34.3
370.474	54.78
370.685	46.59
370.896	81.41
371.107	15.87
371.317	32.26
371.528	138.75
371.739	77.31
371.95	46.59
372.16	26.11
372.371	22.02
372.582	116.22
372.792	3.58
373.003	130.56
373.214	87.55
373.424	105.98
373.635	46.59
373.846	32.26
374.056	101.89
374.267	77.31
374.477	95.74
374.688	91.65
374.898	56.83
375.109	85.5
375.319	58.88
375.53	146.94
375.74	19.97
375.951	44.54
376.161	7.68
376.372	114.17
376.582	93.69
376.793	34.3
377.003	118.27
377.214	56.83
377.424	19.97
377.635	108.03
377.845	28.16
378.055	62.98
378.266	54.78
378.476	83.45
378.686	54.78
378.897	15.87
379.107	105.98
379.317	36.35
379.528	58.88
379.738	38.4
379.948	89.6
380.158	42.5
380.369	24.06
380.579	67.07
380.789	83.45
380.999	13.82
381.21	30.21
381.42	97.79
381.63	44.54
381.84	128.51
382.05	11.78
382.261	34.3
382.471	11.78
382.681	-6.66
382.891	67.07
383.101	79.36
383.311	60.93
383.521	185.85
383.731	22.02
383.941	52.74
384.151	13.82
384.361	69.12
384.571	54.78
384.781	60.93
384.991	144.89
385.201	40.45
385.411	65.02
385.621	103.93
385.831	40.45
386.041	17.92
386.251	73.21
386.461	138.75
386.671	62.98
386.881	50.69
387.091	50.69
387.301	26.11
387.511	81.41
387.72	75.26
387.93	40.45
388.14	36.35
388.35	124.41
388.56	89.6
388.769	44.54
388.979	69.12
389.189	-33.28
389.399	54.78
389.609	22.02
389.818	65.02
390.028	50.69
390.238	114.17
390.447	-23.04
390.657	101.89
390.867	-6.66
391.076	89.6
391.286	87.55
391.496	-4.61
391.705	17.92
391.915	71.17
392.125	79.36
392.334	91.65
392.544	46.59
392.753	134.65
392.963	130.56
393.172	126.46
393.382	91.65
393.591	58.88
393.801	42.5
394.01	112.13
394.22	101.89
394.429	77.31
394.639	75.26
394.848	52.74
395.058	144.89
395.267	15.87
395.477	116.22
395.686	77.31
395.895	38.4
396.105	136.7
396.314	122.37
396.524	108.03
396.733	79.36
396.942	148.99
397.152	189.95
397.361	77.31
397.57	75.26
397.78	146.94
397.989	103.93
398.198	148.99
398.407	69.12
398.617	128.51
398.826	116.22
399.035	112.13
399.244	151.04
399.453	42.5
399.663	171.52
399.872	171.52
400.081	34.3
400.29	132.61
400.499	40.45
400.708	140.8
400.917	85.5
401.127	187.9
401.336	67.07
401.545	140.8
401.754	144.89
401.963	136.7
402.172	108.03
402.381	105.98
402.59	132.61
402.799	116.22
403.008	187.9
403.217	169.47
403.426	151.04
403.635	69.12
403.844	239.1
404.053	189.95
404.262	87.55
404.471	177.66
404.68	171.52
404.888	179.71
405.097	183.81
405.306	212.48
405.515	120.32
405.724	161.28
405.933	232.96
406.142	183.81
406.35	232.96
406.559	114.17
406.768	216.57
406.977	278.01
407.185	167.42
407.394	294.4
407.603	329.21
407.812	239.1
408.02	290.3
408.229	224.76
408.438	337.4
408.646	282.11
408.855	349.69
409.064	300.54
409.272	280.06
409.481	288.25
409.69	374.27
409.898	349.69
410.107	364.03
410.315	454.14
410.524	368.12
410.733	386.55
410.941	384.51
411.15	472.57
411.358	392.7
411.567	468.47
411.775	509.43
411.984	519.67
412.192	458.23
412.401	437.75
412.609	534.01
412.818	548.34
413.026	593.4
413.234	595.45
413.443	652.79
413.651	634.36
413.86	708.09
414.068	775.67
414.276	634.36
414.485	669.17
414.693	804.34
414.901	826.87
415.11	839.16
415.318	837.11
415.526	949.75
415.734	890.35
415.943	830.96
416.151	949.75
416.359	978.42
416.567	1007.09
416.776	1066.48
416.984	1211.89
417.192	1213.93
417.4	1191.41
417.608	1136.11
417.817	1230.32
418.025	1332.72
418.233	1361.39
418.441	1310.19
418.649	1510.89
418.857	1625.58
419.065	1557.99
419.273	1560.04
419.481	1656.29
419.689	1816.04
419.897	1807.84
420.105	1750.5
420.313	1889.76
420.521	2004.45
420.729	1859.04
420.937	2012.64
421.145	2121.18
421.353	2121.18
421.561	2268.64
421.769	2334.17
421.977	2420.19
422.185	2430.43
422.393	2508.25
422.601	2719.19
422.809	2665.94
423.017	2690.52
423.224	2864.6
423.432	3016.15
423.64	3114.45
423.848	3175.89
424.056	3255.76
424.263	3368.4
424.471	3347.92
424.679	3438.03
424.887	3696.07
425.094	3743.17
425.302	3814.85
425.51	3913.16
425.718	4079.04
425.925	4183.49
426.133	4214.21
426.341	4584.89
426.548	4746.68
426.756	4720.06
426.964	4883.89
427.171	5086.64
427.379	5178.8
427.586	5318.06
427.794	5672.36
428.001	5668.27
428.209	5801.38
428.417	5860.77
428.624	6251.94
428.832	6397.34
429.039	6299.04
429.247	6145.44
429.454	6864.28
429.662	7472.53
429.869	6722.97
430.076	7431.57
430.284	7144.85
430.491	7351.7
430.699	7871.88
430.906	7933.32
431.114	8101.25
431.321	8236.42
431.528	8635.77
431.736	9158
431.943	9282.93
432.15	9127.28
432.358	9334.13
432.565	9596.27
432.772	9985.38
432.979	10200.42
433.187	10595.68
433.394	10476.9
433.601	11044.18
433.808	11095.38
434.016	11294.04
434.223	11709.77
434.43	12430.66
434.637	12064.07
434.844	12895.55
435.052	12971.32
435.259	12920.12
435.466	13126.97
435.673	12932.41
435.88	13911.34
436.087	14679.33
436.294	14652.7
436.501	14314.79
436.708	14458.15
436.915	15117.59
437.122	15602.96
437.329	15658.26
437.537	16401.67
437.743	16395.53
437.95	16469.25
438.157	17161.47
438.364	17976.56
438.571	17628.4
438.778	17882.35
438.985	19647.7
439.192	18902.24
439.399	19358.94
439.606	18765.03
439.813	20049.1
440.02	21124.29
440.227	20647.11
440.433	20894.91
440.64	21279.93
440.847	21337.27
441.054	21617.85
441.261	23268.51
441.467	23028.9
441.674	23526.55
441.881	24194.19
442.088	24122.51
442.294	24231.05
442.501	24802.44
442.708	25072.77
442.914	26440.81
443.121	27047.01
443.328	26537.07
443.534	28351.57
443.741	27683.93
443.948	27223.14
444.154	29049.92
444.361	28951.62
444.568	29295.68
444.774	29230.15
444.981	29463.61
445.187	30522.41
445.394	31599.65
445.6	31364.13
445.807	34255.86
446.013	32783.37
446.22	33756.16
446.426	34247.67
446.633	34900.97
446.839	35466.21
447.046	34587.63
447.252	36576.21
447.459	36436.95
447.665	36457.43
447.871	38243.26
448.078	39762.85
448.284	37604.29
448.491	38773.68
448.697	40256.41
448.903	40913.81
449.11	40973.2
449.316	40467.35
449.522	41325.45
449.728	41894.78
449.935	42462.07
450.141	42513.27
450.347	43266.92
450.553	42007.42
450.76	42441.59
450.966	43803.49
451.172	43418.47
451.378	44145.5
451.584	43406.19
451.791	44659.54
451.997	44350.3
452.203	44583.77
452.409	44962.64
452.615	44931.92
452.821	43426.67
453.027	42701.68
453.233	45026.13
453.44	42767.22
453.646	43858.79
453.852	43823.97
454.058	44350.3
454.264	42716.02
454.47	43338.6
454.676	42842.99
454.882	43815.78
455.088	39945.12
455.294	40870.8
455.5	41194.38
455.705	41669.51
455.911	40213.4
456.117	39580.58
456.323	38794.16
456.529	36455.38
456.735	38810.54
456.941	37483.46
457.147	36582.35
457.352	35353.57
457.558	35290.09
457.764	35378.15
457.97	34558.96
458.176	33833.98
458.381	33780.73
458.587	32185.36
458.793	32048.15
458.999	30671.92
459.204	32590.86
459.41	31902.75
459.616	29742.14
459.821	29840.44
460.027	29977.65
460.233	29258.82
460.438	27661.4
460.644	28116.05
460.85	26969.19
461.055	26315.89
461.261	26027.12
461.466	24435.85
461.672	23643.29
461.878	25236.61
462.083	23446.68
462.289	23137.44
462.494	22893.73
462.7	22000.82
462.905	21200.06
463.111	22080.69
463.316	22178.99
463.522	21494.97
463.727	21808.31
463.932	21517.5
464.138	21470.39
464.343	21257.4
464.549	20933.82
464.754	21562.55
464.959	21873.84
465.165	21441.72
465.37	20856
465.575	20085.97
465.781	20786.37
465.986	20888.77
466.191	20374.73
466.397	19946.7
466.602	18930.91
466.807	19547.35
467.012	19621.08
467.218	19578.07
467.423	19457.24
467.628	19191
