Data from USB4F104151__14__11-04-42-935.txt Node

Date: Wed Mar 12 11:04:42 EDT 2025
User: louis
Spectrometer: USB4F10415
Trigger mode: 4
Integration Time (sec): 2.000000E-2
Scans to average: 1
Electric dark correction enabled: true
Nonlinearity correction enabled: false
Boxcar width: 0
XAxis mode: Wavelengths
Number of Pixels in Spectrum: 3648
>>>>>Begin Spectral Data<<<<<
178.204	-74.58
178.424	-74.58
178.644	-74.58
178.864	-154.45
179.084	-107.35
179.304	-45.91
179.524	21.67
179.744	44.2
179.964	70.83
180.184	-72.53
180.404	-27.48
180.624	50.35
180.844	-56.15
181.064	36.01
181.283	-25.43
181.503	-23.38
181.723	27.82
181.943	1.19
182.163	54.44
182.383	-9.05
182.602	36.01
182.822	38.06
183.042	-11.09
183.262	-25.43
183.482	23.72
183.701	-7
183.921	-15.19
184.141	-13.14
184.361	36.01
184.58	52.39
184.8	21.67
185.02	-21.33
185.239	85.16
185.459	-21.33
185.679	-4.95
185.898	3.24
186.118	19.63
186.338	44.2
186.557	-58.2
186.777	-17.24
186.997	91.31
187.216	-31.57
187.436	70.83
187.655	23.72
187.875	23.72
188.095	79.02
188.314	-21.33
188.534	72.87
188.753	85.16
188.973	46.25
189.192	132.26
189.412	17.58
189.631	38.06
189.851	-37.72
190.07	29.87
190.29	5.29
190.509	38.06
190.729	3.24
190.948	-33.62
191.168	101.55
191.387	56.49
191.607	-43.86
191.826	-50
192.045	19.63
192.265	-27.48
192.484	13.48
192.704	40.11
192.923	68.78
193.142	87.21
193.362	64.68
193.581	48.3
193.8	97.45
194.02	74.92
194.239	5.29
194.458	40.11
194.678	19.63
194.897	42.15
195.116	-17.24
195.335	64.68
195.555	-2.9
195.774	15.53
195.993	-33.62
196.212	-21.33
196.432	-11.09
196.651	23.72
196.87	3.24
197.089	40.11
197.308	33.96
197.528	3.24
197.747	-33.62
197.966	50.35
198.185	17.58
198.404	83.11
198.623	58.54
198.842	142.5
199.062	58.54
199.281	52.39
199.5	23.72
199.719	21.67
199.938	-7
200.157	-19.29
200.376	-7
200.595	74.92
200.814	74.92
201.033	11.43
201.252	-29.52
201.471	72.87
201.69	-27.48
201.909	44.2
202.128	56.49
202.347	52.39
202.566	-25.43
202.785	36.01
203.004	19.63
203.223	25.77
203.442	72.87
203.661	46.25
203.879	5.29
204.098	74.92
204.317	56.49
204.536	-7
204.755	64.68
204.974	42.15
205.193	-13.14
205.411	1.19
205.63	50.35
205.849	11.43
206.068	-11.09
206.287	81.07
206.505	-27.48
206.724	31.91
206.943	27.82
207.162	-27.48
207.381	52.39
207.599	-41.81
207.818	21.67
208.037	-13.14
208.255	85.16
208.474	-74.58
208.693	52.39
208.911	5.29
209.13	29.87
209.349	21.67
209.567	-41.81
209.786	23.72
210.005	15.53
210.223	-25.43
210.442	21.67
210.661	-0.85
210.879	36.01
211.098	17.58
211.316	99.5
211.535	23.72
211.753	36.01
211.972	11.43
212.191	56.49
212.409	-62.29
212.628	33.96
212.846	-54.1
213.065	64.68
213.283	79.02
213.502	-9.05
213.72	-17.24
213.938	-13.14
214.157	72.87
214.375	-58.2
214.594	-39.76
214.812	58.54
215.031	60.59
215.249	-7
215.467	62.63
215.686	44.2
215.904	31.91
216.122	21.67
216.341	29.87
216.559	27.82
216.778	48.3
216.996	-15.19
217.214	76.97
217.432	-7
217.651	-35.67
217.869	38.06
218.087	15.53
218.306	23.72
218.524	85.16
218.742	29.87
218.96	113.83
219.179	-11.09
219.397	31.91
219.615	-9.05
219.833	36.01
220.051	-45.91
220.27	68.78
220.488	52.39
220.706	99.5
220.924	40.11
221.142	-15.19
221.36	36.01
221.578	17.58
221.796	21.67
222.015	-9.05
222.233	13.48
222.451	72.87
222.669	17.58
222.887	23.72
223.105	-9.05
223.323	11.43
223.541	11.43
223.759	3.24
223.977	17.58
224.195	68.78
224.413	48.3
224.631	36.01
224.849	5.29
225.067	70.83
225.285	7.34
225.503	72.87
225.721	11.43
225.939	-15.19
226.157	29.87
226.375	122.02
226.592	-19.29
226.81	27.82
227.028	93.35
227.246	89.26
227.464	-41.81
227.682	36.01
227.9	46.25
228.117	60.59
228.335	126.12
228.553	44.2
228.771	42.15
228.989	-54.1
229.206	1.19
229.424	15.53
229.642	7.34
229.86	13.48
230.077	21.67
230.295	5.29
230.513	66.73
230.731	72.87
230.948	74.92
231.166	-29.52
231.384	27.82
231.601	48.3
231.819	25.77
232.037	70.83
232.254	33.96
232.472	23.72
232.689	83.11
232.907	15.53
233.125	11.43
233.342	-35.67
233.56	-25.43
233.777	3.24
233.995	72.87
234.213	95.4
234.43	-0.85
234.648	13.48
234.865	-7
235.083	60.59
235.3	52.39
235.518	23.72
235.735	15.53
235.953	52.39
236.17	1.19
236.388	13.48
236.605	36.01
236.822	99.5
237.04	25.77
237.257	-21.33
237.475	13.48
237.692	5.29
237.909	11.43
238.127	19.63
238.344	29.87
238.562	21.67
238.779	-0.85
238.996	9.39
239.214	-0.85
239.431	72.87
239.648	-11.09
239.865	126.12
240.083	7.34
240.3	-64.34
240.517	29.87
240.735	29.87
240.952	60.59
241.169	52.39
241.386	44.2
241.603	-78.68
241.821	5.29
242.038	3.24
242.255	11.43
242.472	21.67
242.689	46.25
242.907	31.91
243.124	19.63
243.341	52.39
243.558	-7
243.775	3.24
243.992	-117.59
244.209	3.24
244.426	48.3
244.643	1.19
244.86	1.19
245.078	44.2
245.295	48.3
245.512	3.24
245.729	40.11
245.946	-27.48
246.163	3.24
246.38	56.49
246.597	11.43
246.814	13.48
247.031	3.24
247.248	76.97
247.464	17.58
247.681	-64.34
247.898	25.77
248.115	52.39
248.332	-4.95
248.549	-29.52
248.766	-2.9
248.983	76.97
249.2	29.87
249.417	23.72
249.633	36.01
249.85	101.55
250.067	-25.43
250.284	-45.91
250.501	33.96
250.717	36.01
250.934	68.78
251.151	5.29
251.368	-7
251.585	5.29
251.801	-25.43
252.018	31.91
252.235	36.01
252.451	21.67
252.668	11.43
252.885	72.87
253.102	-23.38
253.318	21.67
253.535	-2.9
253.752	81.07
253.968	40.11
254.185	-13.14
254.401	3.24
254.618	52.39
254.835	44.2
255.051	46.25
255.268	-43.86
255.484	58.54
255.701	3.24
255.917	-9.05
256.134	74.92
256.351	1.19
256.567	62.63
256.784	9.39
257	-54.1
257.217	3.24
257.433	44.2
257.65	25.77
257.866	50.35
258.082	27.82
258.299	85.16
258.515	83.11
258.732	101.55
258.948	9.39
259.165	44.2
259.381	56.49
259.597	52.39
259.814	23.72
260.03	33.96
260.246	99.5
260.463	40.11
260.679	-15.19
260.895	70.83
261.112	-0.85
261.328	5.29
261.544	60.59
261.761	91.31
261.977	7.34
262.193	-25.43
262.409	76.97
262.626	7.34
262.842	11.43
263.058	-27.48
263.274	27.82
263.49	3.24
263.707	68.78
263.923	44.2
264.139	31.91
264.355	23.72
264.571	126.12
264.787	-50
265.004	23.72
265.22	9.39
265.436	-29.52
265.652	60.59
265.868	38.06
266.084	29.87
266.3	48.3
266.516	48.3
266.732	42.15
266.948	40.11
267.164	23.72
267.38	23.72
267.596	29.87
267.812	15.53
268.028	-4.95
268.244	17.58
268.46	23.72
268.676	-31.57
268.892	11.43
269.108	-35.67
269.324	54.44
269.54	1.19
269.756	-50
269.972	3.24
270.188	-4.95
270.403	62.63
270.619	87.21
270.835	42.15
271.051	54.44
271.267	52.39
271.483	50.35
271.698	38.06
271.914	17.58
272.13	-25.43
272.346	81.07
272.562	74.92
272.777	62.63
272.993	-52.05
273.209	23.72
273.425	48.3
273.64	25.77
273.856	38.06
274.072	27.82
274.287	7.34
274.503	15.53
274.719	81.07
274.934	52.39
275.15	-0.85
275.366	44.2
275.581	-13.14
275.797	3.24
276.012	54.44
276.228	62.63
276.444	21.67
276.659	60.59
276.875	50.35
277.09	91.31
277.306	33.96
277.521	48.3
277.737	44.2
277.952	54.44
278.168	23.72
278.383	33.96
278.599	103.59
278.814	-50
279.03	21.67
279.245	87.21
279.461	21.67
279.676	105.64
279.892	-31.57
280.107	31.91
280.322	29.87
280.538	15.53
280.753	91.31
280.969	48.3
281.184	27.82
281.399	40.11
281.615	68.78
281.83	52.39
282.045	23.72
282.26	-4.95
282.476	17.58
282.691	25.77
282.906	-39.76
283.122	-13.14
283.337	50.35
283.552	7.34
283.767	-7
283.983	33.96
284.198	27.82
284.413	27.82
284.628	-13.14
284.843	-13.14
285.058	64.68
285.274	-33.62
285.489	70.83
285.704	42.15
285.919	-31.57
286.134	11.43
286.349	29.87
286.564	-9.05
286.779	-15.19
286.995	5.29
287.21	-33.62
287.425	11.43
287.64	-25.43
287.855	83.11
288.07	40.11
288.285	40.11
288.5	48.3
288.715	42.15
288.93	29.87
289.145	-37.72
289.36	7.34
289.575	46.25
289.79	15.53
290.004	17.58
290.219	1.19
290.434	-11.09
290.649	-2.9
290.864	60.59
291.079	83.11
291.294	-2.9
291.509	-54.1
291.724	11.43
291.938	15.53
292.153	27.82
292.368	-4.95
292.583	42.15
292.798	17.58
293.012	9.39
293.227	29.87
293.442	27.82
293.657	79.02
293.871	17.58
294.086	5.29
294.301	50.35
294.516	1.19
294.73	44.2
294.945	-4.95
295.16	3.24
295.374	54.44
295.589	93.35
295.804	-43.86
296.018	-15.19
296.233	44.2
296.447	50.35
296.662	-23.38
296.877	64.68
297.091	31.91
297.306	25.77
297.52	64.68
297.735	56.49
297.949	42.15
298.164	15.53
298.378	-17.24
298.593	-39.76
298.807	29.87
299.022	27.82
299.236	113.83
299.451	70.83
299.665	113.83
299.88	33.96
300.094	83.11
300.309	19.63
300.523	42.15
300.737	-31.57
300.952	105.64
301.166	48.3
301.381	-39.76
301.595	46.25
301.809	9.39
302.024	70.83
302.238	58.54
302.452	-4.95
302.667	122.02
302.881	56.49
303.095	40.11
303.309	5.29
303.524	-4.95
303.738	3.24
303.952	-4.95
304.166	56.49
304.381	-9.05
304.595	52.39
304.809	40.11
305.023	68.78
305.237	19.63
305.452	5.29
305.666	-13.14
305.88	33.96
306.094	-15.19
306.308	31.91
306.522	52.39
306.736	58.54
306.95	3.24
307.164	74.92
307.379	-70.48
307.593	79.02
307.807	-4.95
308.021	74.92
308.235	40.11
308.449	-4.95
308.663	52.39
308.877	74.92
309.091	5.29
309.305	60.59
309.519	68.78
309.733	-66.39
309.947	48.3
310.161	27.82
310.374	27.82
310.588	36.01
310.802	-11.09
311.016	3.24
311.23	91.31
311.444	-17.24
311.658	52.39
311.872	27.82
312.085	15.53
312.299	56.49
312.513	15.53
312.727	46.25
312.941	-11.09
313.154	74.92
313.368	-17.24
313.582	-4.95
313.796	44.2
314.009	23.72
314.223	31.91
314.437	87.21
314.651	93.35
314.864	44.2
315.078	-54.1
315.292	40.11
315.505	89.26
315.719	42.15
315.933	68.78
316.146	79.02
316.36	-33.62
316.573	36.01
316.787	42.15
317.001	72.87
317.214	7.34
317.428	25.77
317.641	38.06
317.855	107.69
318.068	1.19
318.282	27.82
318.495	17.58
318.709	27.82
318.922	38.06
319.136	101.55
319.349	17.58
319.563	40.11
319.776	17.58
319.99	-25.43
320.203	60.59
320.417	-0.85
320.63	1.19
320.843	-25.43
321.057	56.49
321.27	1.19
321.483	-17.24
321.697	74.92
321.91	113.83
322.124	-7
322.337	68.78
322.55	60.59
322.763	56.49
322.977	81.07
323.19	-17.24
323.403	-60.24
323.617	27.82
323.83	25.77
324.043	33.96
324.256	60.59
324.469	-11.09
324.683	126.12
324.896	60.59
325.109	11.43
325.322	58.54
325.535	89.26
325.748	38.06
325.962	97.45
326.175	54.44
326.388	-39.76
326.601	95.4
326.814	15.53
327.027	42.15
327.24	60.59
327.453	1.19
327.666	52.39
327.879	74.92
328.092	-21.33
328.305	19.63
328.518	11.43
328.731	7.34
328.944	95.4
329.157	66.73
329.37	15.53
329.583	3.24
329.796	140.46
330.009	62.63
330.222	5.29
330.435	66.73
330.648	50.35
330.861	23.72
331.073	81.07
331.286	101.55
331.499	-21.33
331.712	3.24
331.925	-0.85
332.138	64.68
332.35	60.59
332.563	3.24
332.776	66.73
332.989	-4.95
333.202	52.39
333.414	46.25
333.627	76.97
333.84	-21.33
334.053	56.49
334.265	-13.14
334.478	48.3
334.691	48.3
334.903	21.67
335.116	50.35
335.329	21.67
335.541	101.55
335.754	97.45
335.966	126.12
336.179	109.74
336.392	29.87
336.604	-0.85
336.817	97.45
337.029	66.73
337.242	-15.19
337.454	19.63
337.667	70.83
337.88	-2.9
338.092	56.49
338.305	38.06
338.517	42.15
338.729	23.72
338.942	134.31
339.154	-2.9
339.367	17.58
339.579	52.39
339.792	56.49
340.004	134.31
340.217	36.01
340.429	44.2
340.641	40.11
340.854	-7
341.066	81.07
341.278	11.43
341.491	79.02
341.703	-31.57
341.915	56.49
342.128	74.92
342.34	38.06
342.552	-7
342.764	11.43
342.977	11.43
343.189	15.53
343.401	23.72
343.613	36.01
343.826	29.87
344.038	87.21
344.25	-11.09
344.462	19.63
344.674	101.55
344.886	15.53
345.099	79.02
345.311	7.34
345.523	23.72
345.735	-17.24
345.947	76.97
346.159	-0.85
346.371	9.39
346.583	64.68
346.795	54.44
347.007	56.49
347.219	72.87
347.431	31.91
347.643	76.97
347.855	48.3
348.067	68.78
348.279	31.91
348.491	42.15
348.703	50.35
348.915	87.21
349.127	9.39
349.339	93.35
349.551	38.06
349.763	23.72
349.975	-2.9
350.187	64.68
350.399	68.78
350.61	38.06
350.822	23.72
351.034	79.02
351.246	68.78
351.458	109.74
351.669	158.89
351.881	66.73
352.093	152.74
352.305	46.25
352.517	68.78
352.728	81.07
352.94	-39.76
353.152	99.5
353.363	117.93
353.575	5.29
353.787	44.2
353.999	27.82
354.21	111.78
354.422	70.83
354.633	29.87
354.845	46.25
355.057	-37.72
355.268	101.55
355.48	115.88
355.692	48.3
355.903	50.35
356.115	52.39
356.326	36.01
356.538	85.16
356.749	64.68
356.961	46.25
357.172	15.53
357.384	23.72
357.595	124.07
357.807	-19.29
358.018	-13.14
358.23	44.2
358.441	72.87
358.653	70.83
358.864	93.35
359.075	60.59
359.287	-35.67
359.498	115.88
359.709	56.49
359.921	52.39
360.132	11.43
360.344	27.82
360.555	-0.85
360.766	60.59
360.977	-29.52
361.189	36.01
361.4	1.19
361.611	60.59
361.823	103.59
362.034	40.11
362.245	95.4
362.456	72.87
362.667	36.01
362.879	25.77
363.09	70.83
363.301	50.35
363.512	58.54
363.723	52.39
363.935	23.72
364.146	52.39
364.357	81.07
364.568	23.72
364.779	-27.48
364.99	124.07
365.201	23.72
365.412	72.87
365.623	-2.9
365.834	46.25
366.045	46.25
366.256	23.72
366.467	91.31
366.678	27.82
366.889	-4.95
367.1	3.24
367.311	38.06
367.522	-9.05
367.733	-0.85
367.944	27.82
368.155	29.87
368.366	9.39
368.577	81.07
368.788	105.64
368.999	21.67
369.209	13.48
369.42	89.26
369.631	97.45
369.842	93.35
370.053	64.68
370.264	36.01
370.474	107.69
370.685	-15.19
370.896	97.45
371.107	50.35
371.317	72.87
371.528	-9.05
371.739	52.39
371.95	54.44
372.16	101.55
372.371	91.31
372.582	11.43
372.792	93.35
373.003	81.07
373.214	93.35
373.424	91.31
373.635	52.39
373.846	72.87
374.056	68.78
374.267	52.39
374.477	58.54
374.688	25.77
374.898	124.07
375.109	74.92
375.319	95.4
375.53	48.3
375.74	119.98
375.951	15.53
376.161	33.96
376.372	124.07
376.582	1.19
376.793	33.96
377.003	17.58
377.214	81.07
377.424	27.82
377.635	54.44
377.845	89.26
378.055	74.92
378.266	25.77
378.476	74.92
378.686	48.3
378.897	83.11
379.107	29.87
379.317	11.43
379.528	44.2
379.738	89.26
379.948	-33.62
380.158	113.83
380.369	72.87
380.579	134.31
380.789	103.59
380.999	68.78
381.21	62.63
381.42	101.55
381.63	101.55
381.84	105.64
382.05	23.72
382.261	128.17
382.471	134.31
382.681	50.35
382.891	40.11
383.101	79.02
383.311	76.97
383.521	31.91
383.731	70.83
383.941	111.78
384.151	38.06
384.361	81.07
384.571	62.63
384.781	83.11
384.991	138.41
385.201	60.59
385.411	99.5
385.621	46.25
385.831	60.59
386.041	21.67
386.251	36.01
386.461	105.64
386.671	9.39
386.881	87.21
387.091	17.58
387.301	79.02
387.511	36.01
387.72	50.35
387.93	89.26
388.14	93.35
388.35	11.43
388.56	109.74
388.769	52.39
388.979	25.77
389.189	50.35
389.399	68.78
389.609	83.11
389.818	99.5
390.028	95.4
390.238	64.68
390.447	50.35
390.657	19.63
390.867	-0.85
391.076	85.16
391.286	11.43
391.496	101.55
391.705	83.11
391.915	122.02
392.125	144.55
392.334	38.06
392.544	122.02
392.753	42.15
392.963	113.83
393.172	31.91
393.382	134.31
393.591	193.7
393.801	74.92
394.01	99.5
394.22	126.12
394.429	79.02
394.639	81.07
394.848	128.17
395.058	162.98
395.267	70.83
395.477	134.31
395.686	85.16
395.895	187.56
396.105	130.22
396.314	111.78
396.524	119.98
396.733	107.69
396.942	148.65
397.152	85.16
397.361	160.94
397.57	93.35
397.78	99.5
397.989	138.41
398.198	105.64
398.407	195.75
398.617	130.22
398.826	56.49
399.035	126.12
399.244	195.75
399.453	165.03
399.663	154.79
399.872	130.22
400.081	113.83
400.29	175.27
400.499	72.87
400.708	208.04
400.917	122.02
401.127	158.89
401.336	126.12
401.545	244.9
401.754	242.85
401.963	58.54
402.172	138.41
402.381	165.03
402.59	130.22
402.799	222.38
403.008	214.18
403.217	138.41
403.426	124.07
403.635	136.36
403.844	177.32
404.053	193.7
404.262	210.09
404.471	173.22
404.68	208.04
404.888	158.89
405.097	259.24
405.306	240.81
405.515	208.04
405.724	208.04
405.933	269.48
406.142	208.04
406.35	335.01
406.559	224.42
406.768	306.34
406.977	363.69
407.185	314.53
407.394	351.4
407.603	269.48
407.812	363.69
408.02	330.92
408.229	273.57
408.438	373.92
408.646	314.53
408.855	310.44
409.064	347.3
409.272	355.49
409.481	357.54
409.69	472.23
409.898	361.64
410.107	375.97
410.315	414.88
410.524	384.16
410.733	421.03
410.941	451.75
411.15	443.56
411.358	525.47
411.567	476.32
411.775	586.91
411.984	564.39
412.192	525.47
412.401	607.39
412.609	687.26
412.818	687.26
413.026	724.13
413.234	652.45
413.443	717.98
413.651	767.13
413.86	713.89
414.068	812.19
414.276	820.38
414.485	842.91
414.693	941.21
414.901	920.73
415.11	943.26
415.318	924.83
415.526	990.36
415.734	1033.37
415.943	1066.14
416.151	1176.73
416.359	1092.76
416.567	1197.21
416.776	1291.41
416.984	1418.39
417.192	1361.05
417.4	1420.44
417.608	1457.3
417.817	1526.93
418.025	1504.4
418.233	1682.58
418.441	1608.85
418.649	1719.44
418.857	1821.84
419.065	1916.05
419.273	1879.18
419.481	1957
419.689	2038.92
419.897	2198.67
420.105	2145.42
420.313	2204.81
420.521	2294.92
420.729	2311.3
420.937	2442.37
421.145	2636.93
421.353	2712.71
421.561	2813.06
421.769	2915.45
421.977	2856.06
422.185	3011.71
422.393	3140.73
422.601	3325.05
422.809	3290.23
423.017	3402.87
423.224	3445.88
423.432	3703.92
423.64	3624.05
423.848	4015.21
424.056	3832.94
424.263	4115.56
424.471	4138.09
424.679	4265.07
424.887	4430.95
425.094	4504.68
425.302	4562.02
425.51	4850.78
425.718	4897.89
425.925	4879.46
426.133	5149.79
426.341	5557.33
426.548	5645.4
426.756	5678.16
426.964	5905.49
427.171	6267.98
427.379	6308.94
427.586	6429.77
427.794	6509.64
428.001	7005.25
428.209	7275.58
428.417	7160.89
428.624	7758.9
428.832	7691.32
429.039	7613.49
429.247	7658.55
429.454	8377.39
429.662	8856.61
429.869	8125.49
430.076	9112.61
430.284	8600.62
430.491	9012.26
430.699	9460.76
430.906	9491.48
431.114	9696.28
431.321	9851.92
431.528	10216.46
431.736	10968.07
431.943	11301.89
432.15	11156.48
432.358	11240.45
432.565	11725.82
432.772	11783.16
432.979	12657.64
433.187	12602.35
433.394	12516.33
433.601	13356
433.808	13356
434.016	13347.81
434.223	13974.49
434.43	14975.94
434.637	14656.46
434.844	15524.8
435.052	15924.15
435.259	15653.82
435.466	16042.93
435.673	15672.25
435.88	16853.93
436.087	17714.08
436.294	17669.02
436.501	17431.46
436.708	17628.06
436.915	18355.09
437.122	19014.54
437.329	18951.05
437.537	19477.38
437.743	19921.79
437.95	19811.2
438.157	20794.22
438.364	21476.19
438.571	21406.56
438.778	21461.86
438.985	23642.95
439.192	22670.16
439.399	23702.34
439.606	22809.42
439.813	24357.69
440.02	25668.39
440.227	25086.76
440.433	25191.21
440.64	26051.36
440.847	25500.45
441.054	26280.73
441.261	28259.07
441.467	27552.52
441.674	27996.93
441.881	29129.45
442.088	29238
442.294	28957.42
442.501	29962.98
442.708	30620.38
442.914	31580.87
443.121	32842.42
443.328	32115.39
443.534	34454.17
443.741	33135.28
443.948	32967.35
444.154	35240.59
444.361	35087
444.568	35412.62
444.774	35299.98
444.981	35699.34
445.187	37026.42
445.394	38023.78
445.6	37689.96
445.807	41464.37
446.013	39432.78
446.22	40305.22
446.426	41409.07
446.633	41957.93
446.839	43620.88
447.046	41904.68
447.252	43831.82
447.459	44165.64
447.665	43766.29
447.871	45779.44
448.078	47407.58
448.284	45185.53
448.491	46469.61
448.697	48347.59
448.903	48865.73
449.11	48615.88
449.316	48073.17
449.522	49111.49
449.728	50069.93
449.935	50284.97
450.141	50321.83
450.347	51790.23
450.553	50096.56
450.76	50377.13
450.966	51847.57
451.172	51509.66
451.378	52728.2
451.584	51958.16
451.791	53133.7
451.997	51966.35
452.203	53129.6
452.409	52957.57
452.615	52748.68
452.821	50846.11
453.027	50688.42
453.233	52502.92
453.44	50766.24
453.646	51521.94
453.852	51184.03
454.058	52162.96
454.264	50297.26
454.47	51339.68
454.676	49793.46
454.882	51771.8
455.088	47393.24
455.294	48099.79
455.5	48558.53
455.705	48857.54
455.911	46942.69
456.117	46324.2
456.323	45580.79
456.529	43049.5
456.735	44775.94
456.941	43393.56
457.147	42816.03
457.352	41480.75
457.558	40845.88
457.764	40804.92
457.97	40157.77
458.176	39477.84
458.381	39371.35
458.587	37364.34
458.793	37425.78
458.999	35490.45
459.204	38259.3
459.41	37102.2
459.616	34763.42
459.821	34501.28
460.027	34456.22
460.233	33276.59
460.438	31914.69
460.644	32625.34
460.85	30884.56
461.055	30284.51
461.261	30409.43
461.466	27943.68
461.672	27233.04
461.878	29242.09
462.083	27306.76
462.289	27040.53
462.494	26655.51
462.7	25346.86
462.905	24632.11
463.111	25529.13
463.316	25529.13
463.522	25232.17
463.727	25336.62
463.932	24900.4
464.138	24783.66
464.343	25088.81
464.549	24275.77
464.754	25414.44
464.959	25019.18
465.165	24601.4
465.37	23589.7
465.575	22664.02
465.781	23919.42
465.986	24394.55
466.191	23446.34
466.397	22707.02
466.602	21869.4
466.807	22621.01
467.012	22471.51
467.218	22594.39
467.423	22172.5
